Sample ID:	C:\MCC\MCC Cal\Test\Particleboard_MCC_30K_min_211005_R1.txt
Sample Weight (mg):	4.63
Heating Rate (C/s):	0.5
Combustor Temp (C):	900
N2 Flow Rate (cc/min):	80
O2 Flow Rate (cc/min):	20
Calibration File:	C:\MCC\MCC Cal\Coeff1 JN10440_30_210304.txt.txt
T Correction Coefficients:	0	1.024463	0
Time Shift (s):	14
*
Time (s)	Temperature (C)	N2 flow rate (cc/min)	O2 flow rate (cc/min)	Flow Rate (cc/min)	Oxygen (%)	HRR (W/g)	Heating rate (C/s)
0.000	106.501	79.998	19.998	100.897	19.957	0.201	-0.018
0.500	106.498	79.995	19.996	100.898	19.955	0.328	-0.012
1.000	106.467	79.998	19.997	100.899	19.954	0.381	-0.017
1.500	106.489	79.998	19.995	100.899	19.954	0.375	-0.021
2.000	106.485	79.997	19.996	100.899	19.952	0.480	0.005
2.500	106.463	79.997	19.997	100.900	19.954	0.357	-0.005
3.000	106.475	79.997	19.996	100.901	19.954	0.385	-0.018
3.500	106.491	79.998	19.996	100.900	19.953	0.458	0.010
4.000	106.495	79.999	19.996	100.900	19.956	0.271	0.024
4.500	106.484	79.999	19.996	100.900	19.952	0.521	0.006
5.000	106.460	80.000	19.996	100.901	19.951	0.565	-0.021
5.500	106.497	79.998	19.995	100.900	19.954	0.394	-0.011
6.000	106.458	79.999	19.995	100.900	19.953	0.475	0.006
6.500	106.512	80.000	19.996	100.900	19.953	0.412	0.007
7.000	106.484	80.000	19.997	100.900	19.955	0.302	0.020
7.500	106.455	79.999	19.995	100.899	19.956	0.228	-0.016
8.000	106.450	80.000	19.995	100.900	19.955	0.304	-0.045
8.500	106.462	79.999	19.996	100.902	19.957	0.173	-0.013
9.000	106.452	80.000	19.995	100.903	19.955	0.317	0.004
9.500	106.461	79.999	19.997	100.904	19.952	0.543	0.000
10.000	106.485	80.000	19.994	100.907	19.953	0.456	0.016
10.500	106.486	79.999	19.995	100.907	19.952	0.486	0.029
11.000	106.455	79.999	19.996	100.906	19.955	0.326	-0.002
11.500	106.501	80.001	19.995	100.908	19.952	0.506	-0.007
12.000	106.464	80.000	19.996	100.908	19.953	0.422	0.012
12.500	106.474	80.000	19.997	100.906	19.955	0.287	-0.009
13.000	106.490	79.999	19.997	100.907	19.955	0.307	0.000
13.500	106.468	79.998	19.995	100.911	19.952	0.491	0.010
14.000	106.497	80.000	19.996	100.909	19.952	0.506	0.000
14.500	106.498	79.998	19.996	100.909	19.958	0.081	0.018
15.000	106.473	79.999	19.997	100.907	19.956	0.239	0.003
15.500	106.470	80.000	19.995	100.905	19.956	0.261	-0.026
16.000	106.492	79.998	19.996	100.900	19.954	0.352	-0.004
16.500	106.470	80.000	19.996	100.899	19.954	0.385	0.010
17.000	106.477	79.998	19.995	100.898	19.953	0.440	-0.008
17.500	106.480	79.999	19.996	100.899	19.955	0.274	-0.003
18.000	106.484	79.997	19.996	100.901	19.956	0.237	0.008
18.500	106.474	79.998	19.997	100.902	19.955	0.300	0.000
19.000	106.487	79.999	19.996	100.903	19.954	0.390	-0.001
19.500	106.477	79.997	19.997	100.907	19.957	0.153	0.003
20.000	106.478	79.999	19.996	100.908	19.954	0.401	-0.003
20.500	106.511	80.000	19.996	100.909	19.952	0.525	0.013
21.000	106.505	79.998	19.995	100.911	19.954	0.344	0.030
21.500	106.531	79.998	19.996	100.917	19.953	0.447	0.024
22.000	106.476	79.998	19.996	100.922	19.952	0.508	-0.005
22.500	106.485	79.997	19.996	100.926	19.953	0.416	-0.038
23.000	106.525	79.998	19.996	100.928	19.951	0.558	0.002
23.500	106.501	80.000	19.995	100.930	19.952	0.525	0.032
24.000	106.509	79.998	19.996	100.930	19.954	0.390	-0.000
24.500	106.563	79.997	19.996	100.931	19.954	0.346	0.023
25.000	106.534	79.998	19.996	100.933	19.952	0.499	0.044
25.500	106.534	79.999	19.995	100.938	19.950	0.678	-0.002
26.000	106.545	79.998	19.996	100.939	19.952	0.512	-0.009
26.500	106.567	79.999	19.996	100.941	19.950	0.619	0.022
27.000	106.562	79.999	19.996	100.941	19.951	0.551	0.025
27.500	106.550	80.000	19.996	100.940	19.951	0.576	0.000
28.000	106.540	79.998	19.995	100.941	19.949	0.691	-0.019
28.500	106.607	79.999	19.995	100.942	19.951	0.578	0.017
29.000	106.607	79.999	19.996	100.945	19.952	0.514	0.062
29.500	106.621	79.999	19.997	100.948	19.949	0.746	0.040
30.000	106.584	79.999	19.996	100.954	19.953	0.444	-0.005
30.500	106.583	79.999	19.996	100.958	19.950	0.626	-0.030
31.000	106.661	79.999	19.996	100.962	19.947	0.820	0.020
31.500	106.617	79.999	19.995	100.964	19.949	0.689	0.055
32.000	106.637	79.999	19.997	100.968	19.948	0.801	0.005
32.500	106.640	80.000	19.995	100.970	19.948	0.772	-0.000
33.000	106.673	79.999	19.996	100.972	19.947	0.838	0.029
33.500	106.690	80.001	19.995	100.973	19.948	0.774	0.043
34.001	106.733	79.999	19.995	100.976	19.948	0.779	0.055
34.501	106.710	80.000	19.996	100.979	19.943	1.093	0.040
35.000	106.756	80.001	19.996	100.980	19.947	0.842	0.021
35.500	106.789	80.000	19.995	100.981	19.943	1.097	0.051
36.000	106.769	80.000	19.995	100.982	19.943	1.102	0.046
36.501	106.844	80.000	19.995	100.982	19.942	1.163	0.034
37.001	106.828	80.000	19.996	100.980	19.945	1.019	0.057
37.501	106.849	79.999	19.996	100.977	19.941	1.257	0.032
38.000	106.852	80.000	19.995	100.977	19.941	1.274	0.014
38.500	106.897	80.000	19.995	100.980	19.944	1.053	0.036
39.000	106.933	80.000	19.995	100.983	19.938	1.438	0.064
39.500	106.936	80.000	19.996	100.989	19.942	1.226	0.060
40.000	106.950	79.997	19.995	100.997	19.937	1.545	0.028
40.500	106.992	80.000	19.995	101.005	19.939	1.418	0.037
41.000	107.043	79.999	19.996	101.010	19.938	1.492	0.075
41.500	107.065	79.999	19.996	101.015	19.940	1.331	0.083
42.000	107.105	79.999	19.996	101.018	19.937	1.565	0.068
42.500	107.125	79.997	19.995	101.023	19.940	1.322	0.061
43.000	107.144	79.996	19.996	101.027	19.936	1.633	0.050
43.500	107.183	79.997	19.996	101.027	19.937	1.519	0.049
44.000	107.242	79.997	19.996	101.030	19.936	1.615	0.078
44.500	107.230	79.997	19.996	101.036	19.935	1.644	0.072
45.000	107.297	79.996	19.997	101.039	19.936	1.628	0.051
45.500	107.366	79.996	19.997	101.046	19.935	1.680	0.096
46.000	107.375	79.996	19.996	101.054	19.933	1.807	0.107
46.500	107.445	79.997	19.996	101.061	19.932	1.884	0.078
47.000	107.496	79.996	19.996	101.063	19.930	2.006	0.100
47.500	107.551	79.997	19.995	101.063	19.927	2.248	0.114
48.000	107.563	79.995	19.996	101.066	19.928	2.117	0.087
48.500	107.609	79.995	19.996	101.073	19.926	2.316	0.062
49.000	107.626	79.996	19.997	101.079	19.927	2.233	0.060
49.501	107.718	79.997	19.996	101.086	19.925	2.370	0.086
50.001	107.731	79.996	19.996	101.093	19.929	2.047	0.107
50.500	107.830	79.996	19.997	101.096	19.927	2.218	0.109
51.000	107.883	79.996	19.997	101.096	19.926	2.281	0.132
51.501	107.908	79.997	19.997	101.096	19.926	2.277	0.115
52.002	108.002	79.996	19.997	101.096	19.925	2.377	0.099
52.501	108.075	79.996	19.997	101.096	19.926	2.292	0.144
53.000	108.130	79.996	19.997	101.096	19.925	2.364	0.148
53.501	108.205	79.996	19.996	101.093	19.925	2.372	0.129
54.001	108.247	79.997	19.997	101.088	19.924	2.394	0.123
54.500	108.333	79.995	19.997	101.084	19.922	2.529	0.123
55.000	108.408	79.997	19.998	101.082	19.924	2.427	0.145
55.500	108.464	79.996	19.998	101.081	19.923	2.494	0.146
56.000	108.565	79.997	19.997	101.083	19.923	2.470	0.143
56.500	108.624	79.997	19.997	101.088	19.922	2.579	0.158
57.001	108.696	79.997	19.998	101.091	19.920	2.675	0.146
57.501	108.786	79.996	19.997	101.094	19.920	2.695	0.147
58.000	108.841	79.997	19.997	101.097	19.920	2.666	0.154
58.500	108.961	79.997	19.997	101.098	19.923	2.467	0.160
59.000	109.010	79.996	19.997	101.100	19.922	2.587	0.172
59.500	109.100	79.996	19.997	101.105	19.923	2.489	0.154
60.000	109.207	79.997	19.997	101.108	19.921	2.646	0.168
60.500	109.261	79.998	19.997	101.110	19.922	2.526	0.179
61.000	109.361	79.997	19.996	101.113	19.920	2.688	0.158
61.500	109.446	79.998	19.996	101.111	19.920	2.699	0.170
62.000	109.536	79.997	19.996	101.107	19.919	2.740	0.180
62.500	109.626	79.996	19.997	101.109	19.917	2.902	0.178
63.000	109.728	79.998	19.996	101.111	19.916	2.950	0.186
63.500	109.803	79.997	19.996	101.115	19.917	2.904	0.184
64.000	109.943	79.998	19.996	101.122	19.915	3.046	0.196
64.501	110.031	79.998	19.998	101.129	19.913	3.161	0.222
65.001	110.160	79.997	19.996	101.131	19.913	3.155	0.223
65.501	110.257	79.997	19.996	101.132	19.914	3.122	0.222
66.000	110.346	79.999	19.995	101.133	19.910	3.378	0.206
66.500	110.460	79.998	19.996	101.133	19.913	3.192	0.194
67.000	110.544	79.999	19.995	101.133	19.911	3.318	0.201
67.500	110.670	79.998	19.995	101.137	19.910	3.391	0.204
68.000	110.787	79.998	19.995	101.138	19.908	3.511	0.226
68.500	110.908	79.996	19.996	101.143	19.909	3.463	0.240
69.000	111.032	79.996	19.996	101.151	19.911	3.279	0.242
69.500	111.141	79.998	19.996	101.158	19.909	3.471	0.239
70.000	111.258	79.998	19.995	101.162	19.908	3.489	0.229
70.500	111.369	79.999	19.996	101.169	19.908	3.524	0.227
71.000	111.505	79.997	19.995	101.170	19.907	3.613	0.238
71.500	111.614	79.996	19.995	101.166	19.908	3.482	0.246
72.000	111.734	79.997	19.996	101.162	19.908	3.489	0.237
72.500	111.885	79.997	19.996	101.161	19.911	3.279	0.250
73.000	112.024	79.996	19.996	101.162	19.904	3.759	0.281
73.500	112.161	79.996	19.996	101.162	19.905	3.685	0.283
74.000	112.279	79.997	19.996	101.167	19.903	3.838	0.265
74.500	112.413	79.997	19.996	101.173	19.906	3.670	0.253
75.000	112.520	79.997	19.996	101.173	19.906	3.637	0.247
75.500	112.665	79.999	19.995	101.172	19.904	3.766	0.246
76.000	112.829	79.997	19.996	101.172	19.908	3.528	0.280
76.500	112.928	79.998	19.995	101.171	19.903	3.858	0.286
77.000	113.085	79.996	19.996	101.171	19.905	3.707	0.260
77.500	113.219	79.997	19.996	101.172	19.905	3.696	0.274
78.000	113.392	79.996	19.996	101.173	19.907	3.604	0.299
78.500	113.514	79.995	19.996	101.174	19.904	3.762	0.301
79.000	113.653	79.996	19.996	101.174	19.906	3.659	0.278
79.500	113.802	79.997	19.997	101.174	19.902	3.901	0.275
80.000	113.971	79.996	19.995	101.174	19.904	3.788	0.303
80.501	114.104	79.997	19.996	101.175	19.903	3.858	0.310
81.001	114.242	79.996	19.997	101.174	19.902	3.895	0.287
81.500	114.428	79.998	19.996	101.173	19.904	3.759	0.297
82.000	114.613	79.996	19.995	101.174	19.905	3.746	0.347
82.500	114.759	79.996	19.996	101.174	19.904	3.779	0.351
83.000	114.916	79.997	19.996	101.174	19.902	3.929	0.317
83.500	115.087	79.997	19.996	101.177	19.905	3.700	0.316
84.001	115.257	79.997	19.995	101.177	19.905	3.713	0.335
84.501	115.377	79.996	19.996	101.178	19.903	3.837	0.316
85.001	115.526	79.998	19.996	101.178	19.902	3.940	0.280
85.501	115.733	79.997	19.997	101.178	19.902	3.935	0.312
86.001	115.898	79.998	19.996	101.175	19.904	3.763	0.363
86.501	116.065	79.997	19.996	101.175	19.904	3.765	0.352
87.000	116.212	79.998	19.995	101.173	19.900	4.034	0.323
87.500	116.382	79.998	19.997	101.173	19.904	3.792	0.316
88.000	116.565	79.997	19.996	101.173	19.903	3.823	0.335
88.500	116.761	79.999	19.995	101.173	19.904	3.766	0.366
89.000	116.940	79.999	19.996	101.173	19.904	3.805	0.377
89.500	117.083	79.998	19.996	101.175	19.902	3.949	0.348
90.000	117.299	79.999	19.996	101.177	19.904	3.814	0.340
90.500	117.445	79.998	19.995	101.178	19.901	3.968	0.361
91.000	117.661	79.999	19.996	101.178	19.901	3.990	0.363
91.500	117.817	79.999	19.996	101.178	19.904	3.800	0.367
92.000	118.014	79.998	19.996	101.180	19.901	3.986	0.362
92.500	118.229	80.000	19.996	101.182	19.902	3.940	0.383
93.000	118.381	79.999	19.996	101.182	19.902	3.929	0.390
93.500	118.561	79.999	19.995	101.183	19.902	3.920	0.349
94.000	118.779	79.998	19.996	101.184	19.901	3.982	0.365
94.500	118.950	79.998	19.996	101.184	19.901	4.017	0.394
95.000	119.133	80.000	19.995	101.183	19.898	4.170	0.371
95.500	119.328	79.998	19.995	101.186	19.900	4.078	0.366
96.000	119.503	79.999	19.995	101.188	19.902	3.923	0.375
96.500	119.705	80.000	19.996	101.187	19.900	4.027	0.373
97.000	119.915	79.998	19.996	101.186	19.897	4.279	0.394
97.500	120.083	79.999	19.995	101.183	19.899	4.159	0.395
98.000	120.304	79.999	19.995	101.178	19.901	3.999	0.383
98.500	120.470	79.997	19.995	101.176	19.898	4.171	0.388
99.000	120.689	79.998	19.995	101.176	19.901	4.004	0.386
99.501	120.890	79.999	19.995	101.176	19.903	3.868	0.402
100.001	121.102	79.997	19.995	101.177	19.902	3.909	0.416
100.500	121.288	79.998	19.995	101.181	19.899	4.102	0.406
101.000	121.498	79.998	19.995	101.185	19.901	3.978	0.397
101.500	121.701	79.999	19.996	101.186	19.900	4.026	0.405
102.000	121.895	79.996	19.994	101.189	19.901	3.984	0.405
102.500	122.122	79.999	19.995	101.191	19.900	4.063	0.409
103.000	122.351	79.997	19.995	101.189	19.903	3.838	0.439
103.500	122.540	79.998	19.995	101.187	19.902	3.927	0.437
104.000	122.753	79.996	19.995	101.187	19.900	4.055	0.410
104.500	122.945	79.999	19.996	101.186	19.903	3.824	0.404
105.000	123.152	79.998	19.995	101.184	19.903	3.841	0.402
105.500	123.396	79.999	19.995	101.183	19.901	3.983	0.425
106.000	123.581	79.999	19.995	101.182	19.902	3.939	0.440
106.500	123.771	79.999	19.995	101.181	19.901	3.976	0.402
107.000	124.013	79.999	19.996	101.181	19.900	4.027	0.403
107.500	124.228	80.000	19.996	101.181	19.902	3.903	0.444
108.001	124.424	79.998	19.995	101.181	19.900	4.055	0.434
108.501	124.647	79.997	19.995	101.181	19.900	4.088	0.415
109.000	124.846	79.998	19.996	101.181	19.899	4.149	0.420
109.500	125.052	79.997	19.997	101.183	19.903	3.874	0.414
110.000	125.321	79.998	19.996	101.183	19.903	3.883	0.440
110.500	125.498	79.996	19.995	101.183	19.904	3.800	0.461
111.000	125.705	80.000	19.996	101.183	19.904	3.759	0.415
111.500	125.936	80.000	19.994	101.183	19.901	3.999	0.411
112.000	126.169	79.998	19.996	101.179	19.903	3.883	0.451
112.500	126.397	79.999	19.995	101.180	19.903	3.883	0.463
113.000	126.615	79.999	19.997	101.180	19.906	3.663	0.454
113.500	126.826	79.999	19.995	101.181	19.903	3.859	0.438
114.000	127.071	79.999	19.996	101.182	19.901	3.971	0.442
114.501	127.242	79.999	19.996	101.186	19.901	3.960	0.436
115.001	127.503	79.999	19.997	101.189	19.904	3.755	0.424
115.500	127.710	80.000	19.996	101.194	19.902	3.914	0.450
116.000	127.962	79.999	19.997	101.197	19.901	4.025	0.464
116.500	128.158	79.999	19.997	101.199	19.901	4.012	0.454
117.000	128.390	80.000	19.996	101.199	19.903	3.857	0.438
117.500	128.643	79.999	19.997	101.201	19.902	3.954	0.456
118.000	128.851	79.999	19.996	101.198	19.900	4.072	0.473
118.500	129.087	80.001	19.996	101.197	19.901	3.993	0.453
119.000	129.342	80.000	19.996	101.197	19.900	4.074	0.467
119.500	129.557	80.001	19.996	101.193	19.902	3.934	0.480
120.000	129.776	79.999	19.996	101.188	19.901	3.976	0.452
120.500	129.988	80.000	19.996	101.186	19.901	3.991	0.432
121.000	130.189	80.000	19.996	101.185	19.901	3.958	0.422
121.500	130.462	80.000	19.996	101.186	19.902	3.904	0.444
122.001	130.674	79.999	19.997	101.188	19.902	3.934	0.479
122.501	130.890	79.999	19.996	101.194	19.900	4.034	0.456
123.000	131.133	80.000	19.996	101.197	19.903	3.875	0.444
123.500	131.390	79.999	19.996	101.196	19.901	3.978	0.480
124.000	131.619	79.999	19.996	101.193	19.902	3.934	0.493
124.500	131.832	79.999	19.996	101.191	19.898	4.176	0.464
125.000	132.067	80.000	19.996	101.186	19.901	3.980	0.445
125.500	132.338	79.998	19.997	101.185	19.899	4.118	0.477
126.000	132.548	79.998	19.996	101.185	19.902	3.938	0.493
126.500	132.827	79.997	19.997	101.187	19.899	4.098	0.485
127.000	133.050	80.000	19.996	101.185	19.901	3.978	0.496
127.500	133.272	79.998	19.995	101.186	19.900	4.069	0.474
128.000	133.497	79.997	19.997	101.182	19.900	4.041	0.446
128.500	133.744	79.998	19.996	101.179	19.901	3.980	0.459
129.000	133.996	79.997	19.996	101.177	19.899	4.124	0.486
129.500	134.213	79.996	19.996	101.175	19.898	4.161	0.484
130.000	134.433	79.998	19.996	101.173	19.902	3.943	0.453
130.500	134.692	79.998	19.996	101.173	19.901	3.969	0.458
131.000	134.920	79.998	19.997	101.173	19.901	4.015	0.483
131.500	135.185	79.996	19.996	101.174	19.899	4.118	0.490
132.000	135.395	79.996	19.998	101.175	19.901	4.002	0.484
132.500	135.631	79.997	19.997	101.175	19.899	4.141	0.461
133.000	135.855	79.998	19.997	101.176	19.901	3.958	0.453
133.500	136.086	79.998	19.996	101.176	19.900	4.041	0.457
134.000	136.356	79.998	19.996	101.175	19.901	3.989	0.478
134.500	136.582	79.998	19.996	101.174	19.899	4.126	0.498
135.000	136.825	79.998	19.997	101.174	19.901	4.015	0.482
135.500	137.090	79.998	19.997	101.173	19.900	4.054	0.488
136.000	137.338	79.998	19.997	101.174	19.903	3.827	0.511
136.500	137.590	79.998	19.997	101.174	19.902	3.943	0.506
137.000	137.857	79.997	19.997	101.173	19.904	3.773	0.509
137.500	138.106	79.998	19.997	101.173	19.902	3.926	0.518
138.000	138.325	79.997	19.996	101.174	19.900	4.033	0.492
138.500	138.544	79.997	19.996	101.173	19.900	4.074	0.453
139.000	138.823	79.997	19.999	101.173	19.899	4.157	0.468
139.500	139.045	79.997	19.996	101.173	19.901	3.993	0.499
140.000	139.278	79.998	19.998	101.173	19.899	4.126	0.478
140.500	139.556	79.998	19.998	101.172	19.896	4.325	0.484
141.000	139.807	79.997	19.996	101.172	19.899	4.109	0.520
141.500	140.020	79.997	19.997	101.173	19.898	4.181	0.496
142.000	140.279	79.997	19.997	101.173	19.897	4.231	0.468
142.500	140.532	79.998	19.997	101.173	19.901	4.019	0.492
143.000	140.737	79.997	19.998	101.173	19.898	4.168	0.485
143.500	141.025	79.998	19.998	101.174	19.898	4.205	0.476
144.000	141.286	79.998	19.998	101.173	19.896	4.320	0.521
144.500	141.513	79.998	19.997	101.173	19.899	4.105	0.519
145.001	141.787	79.999	19.997	101.175	19.899	4.120	0.494
145.501	142.039	79.997	19.997	101.175	19.900	4.059	0.513
146.001	142.277	79.997	19.997	101.175	19.900	4.045	0.507
146.501	142.518	79.998	19.997	101.175	19.900	4.028	0.484
147.000	142.785	79.997	19.997	101.174	19.900	4.043	0.494
147.500	143.014	79.998	19.999	101.172	19.899	4.154	0.502
148.000	143.285	79.998	19.997	101.171	19.899	4.100	0.498
148.500	143.516	79.998	19.996	101.170	19.901	3.976	0.501
149.000	143.779	79.997	19.997	101.170	19.901	4.023	0.498
149.500	144.028	79.997	19.997	101.169	19.898	4.185	0.503
150.000	144.285	79.998	19.997	101.169	19.898	4.192	0.509
150.500	144.568	79.996	19.997	101.170	19.898	4.192	0.523
151.000	144.796	79.997	19.997	101.171	19.898	4.225	0.525
151.500	145.069	79.999	19.996	101.171	19.897	4.248	0.506
152.000	145.314	79.998	19.997	101.172	19.899	4.146	0.510
152.500	145.530	79.998	19.998	101.172	19.897	4.246	0.490
153.000	145.801	79.998	19.997	101.171	19.898	4.207	0.474
153.500	146.030	79.999	19.997	101.171	19.897	4.231	0.493
154.000	146.292	79.998	19.998	101.171	19.896	4.356	0.496
154.500	146.537	79.998	19.998	101.171	19.896	4.302	0.499
155.000	146.746	79.997	19.997	101.171	19.896	4.343	0.480
155.500	147.018	79.995	19.997	101.171	19.898	4.190	0.468
156.000	147.312	79.996	19.997	101.170	19.895	4.402	0.524
156.500	147.515	79.996	19.996	101.170	19.899	4.155	0.531
157.000	147.768	79.995	19.996	101.171	19.897	4.240	0.476
157.500	148.035	79.998	19.996	101.171	19.899	4.136	0.488
158.000	148.262	79.997	19.997	101.172	19.899	4.100	0.507
158.500	148.535	79.997	19.996	101.174	19.899	4.111	0.497
159.000	148.774	79.996	19.996	101.175	19.900	4.065	0.506
159.500	149.066	79.996	19.995	101.175	19.897	4.294	0.522
160.000	149.302	79.998	19.996	101.175	19.898	4.179	0.530
160.500	149.571	79.997	19.996	101.174	19.900	4.072	0.517
161.000	149.822	79.996	19.996	101.173	19.898	4.203	0.512
161.500	150.072	79.997	19.995	101.172	19.899	4.129	0.510
162.000	150.330	79.997	19.997	101.173	19.896	4.316	0.504
162.500	150.571	79.998	19.997	101.172	19.897	4.277	0.504
163.000	150.826	79.997	19.996	101.172	19.899	4.138	0.497
163.500	151.063	79.997	19.995	101.172	19.900	4.041	0.494
164.000	151.287	79.996	19.997	101.167	19.898	4.208	0.476
164.500	151.523	79.996	19.997	101.161	19.901	4.004	0.460
165.000	151.780	79.998	19.997	101.160	19.900	4.061	0.477
165.500	152.030	79.997	19.997	101.156	19.897	4.262	0.500
166.000	152.277	79.998	19.997	101.156	19.897	4.244	0.502
166.500	152.501	79.998	19.996	101.156	19.897	4.235	0.484
167.000	152.780	79.997	19.997	101.157	19.898	4.198	0.487
167.500	152.998	79.997	19.995	101.154	19.900	4.092	0.500
168.000	153.287	79.998	19.996	101.157	19.898	4.166	0.502
168.500	153.529	79.997	19.996	101.159	19.897	4.295	0.519
169.000	153.740	79.998	19.997	101.163	19.899	4.144	0.492
169.500	154.010	79.998	19.997	101.167	19.898	4.225	0.467
170.000	154.255	79.998	19.995	101.172	19.898	4.186	0.498
170.500	154.490	79.997	19.995	101.172	19.896	4.330	0.498
171.000	154.745	79.999	19.996	101.171	19.896	4.347	0.485
171.501	154.983	79.997	19.995	101.169	19.894	4.480	0.492
172.001	155.221	79.999	19.996	101.167	19.900	4.039	0.485
172.500	155.525	79.998	19.995	101.167	19.898	4.227	0.509
173.000	155.737	79.998	19.995	101.165	19.894	4.460	0.529
173.500	155.986	79.998	19.996	101.165	19.895	4.382	0.488
174.000	156.239	79.998	19.996	101.166	19.898	4.227	0.481
174.500	156.491	79.998	19.996	101.165	19.894	4.487	0.504
175.000	156.715	79.999	19.995	101.163	19.898	4.168	0.491
175.500	157.003	79.997	19.996	101.165	19.892	4.602	0.494
176.000	157.258	79.999	19.996	101.167	19.893	4.517	0.527
176.500	157.475	79.998	19.996	101.166	19.893	4.515	0.507
177.000	157.701	79.999	19.995	101.168	19.892	4.632	0.457
177.500	158.000	79.998	19.997	101.170	19.892	4.584	0.484
178.000	158.229	79.999	19.996	101.168	19.895	4.402	0.527
178.500	158.472	80.000	19.997	101.163	19.897	4.289	0.500
179.000	158.744	79.998	19.995	101.163	19.894	4.461	0.493
179.500	158.992	80.000	19.996	101.160	19.891	4.664	0.518
180.000	159.239	79.999	19.997	101.158	19.894	4.459	0.507
180.500	159.450	79.999	19.997	101.159	19.895	4.396	0.476
181.000	159.720	79.998	19.996	101.165	19.892	4.592	0.470
181.500	159.926	79.999	19.996	101.168	19.894	4.455	0.479
182.000	160.203	79.999	19.996	101.172	19.895	4.372	0.480
182.500	160.467	79.998	19.995	101.174	19.896	4.356	0.512
183.000	160.730	79.999	19.997	101.173	19.891	4.656	0.534
183.500	160.953	79.998	19.996	101.171	19.891	4.638	0.507
184.000	161.213	79.998	19.997	101.171	19.892	4.571	0.484
184.500	161.437	79.999	19.997	101.168	19.892	4.603	0.483
185.000	161.714	79.997	19.995	101.168	19.894	4.472	0.492
185.500	161.957	79.998	19.996	101.169	19.889	4.822	0.511
186.000	162.186	79.999	19.995	101.170	19.894	4.458	0.496
186.500	162.431	79.997	19.996	101.167	19.890	4.731	0.473
187.000	162.675	79.998	19.995	101.166	19.890	4.724	0.481
187.500	162.944	79.999	19.996	101.162	19.891	4.650	0.501
188.000	163.166	79.999	19.996	101.154	19.890	4.741	0.502
188.500	163.413	79.999	19.996	101.152	19.892	4.590	0.480
189.000	163.685	79.999	19.996	101.152	19.892	4.605	0.494
189.500	163.883	79.998	19.996	101.153	19.889	4.834	0.494
190.000	164.107	79.998	19.996	101.151	19.888	4.881	0.446
190.500	164.371	79.999	19.996	101.155	19.890	4.730	0.455
191.000	164.653	80.000	19.995	101.157	19.893	4.562	0.517
191.500	164.903	79.998	19.995	101.153	19.893	4.549	0.539
192.000	165.153	79.999	19.995	101.151	19.894	4.475	0.516
192.500	165.358	79.998	19.997	101.153	19.891	4.695	0.477
193.000	165.628	79.999	19.995	101.152	19.892	4.617	0.465
193.500	165.870	80.000	19.996	101.150	19.890	4.763	0.494
194.000	166.134	79.998	19.996	101.153	19.889	4.827	0.509
194.500	166.398	80.000	19.996	101.154	19.890	4.770	0.517
195.000	166.605	80.000	19.997	101.150	19.889	4.776	0.499
195.500	166.893	80.000	19.995	101.151	19.889	4.781	0.483
196.000	167.140	80.000	19.996	101.147	19.891	4.700	0.515
196.500	167.356	80.000	19.995	101.143	19.888	4.896	0.499
197.000	167.628	80.001	19.995	101.141	19.892	4.602	0.476
197.500	167.860	80.000	19.995	101.140	19.890	4.720	0.496
198.001	168.130	80.000	19.996	101.141	19.886	4.979	0.503
198.500	168.323	80.001	19.996	101.146	19.887	4.942	0.482
199.000	168.584	80.001	19.996	101.150	19.887	4.921	0.458
199.500	168.831	80.002	19.995	101.154	19.886	5.021	0.481
200.001	169.081	80.000	19.997	101.158	19.886	5.038	0.502
200.501	169.359	80.001	19.995	101.158	19.885	5.053	0.512
201.000	169.581	80.002	19.996	101.154	19.884	5.150	0.514
201.500	169.866	80.000	19.997	101.149	19.886	4.997	0.504
202.000	170.074	80.001	19.996	101.147	19.888	4.899	0.500
202.500	170.304	80.001	19.994	101.146	19.885	5.096	0.466
203.000	170.597	80.001	19.995	101.143	19.886	5.006	0.480
203.500	170.832	80.002	19.997	101.142	19.886	4.982	0.525
204.000	171.079	80.000	19.995	101.142	19.886	5.039	0.505
204.500	171.323	80.000	19.996	101.140	19.885	5.073	0.487
205.000	171.573	80.001	19.997	101.137	19.884	5.137	0.493
205.500	171.817	80.001	19.997	101.136	19.883	5.218	0.494
206.000	172.046	80.000	19.996	101.137	19.884	5.119	0.484
206.500	172.320	79.999	19.995	101.138	19.884	5.152	0.488
207.000	172.551	79.999	19.995	101.138	19.883	5.233	0.504
207.500	172.778	79.999	19.995	101.139	19.882	5.270	0.481
208.000	173.010	80.000	19.997	101.141	19.882	5.305	0.458
208.500	173.240	79.998	19.996	101.141	19.884	5.180	0.461
209.000	173.508	79.999	19.996	101.141	19.882	5.303	0.480
209.500	173.777	79.998	19.997	101.141	19.882	5.281	0.518
210.000	173.996	80.000	19.996	101.141	19.883	5.226	0.513
210.500	174.267	79.999	19.996	101.145	19.880	5.416	0.489
211.000	174.498	79.998	19.998	101.146	19.880	5.432	0.496
211.500	174.777	79.999	19.997	101.147	19.881	5.355	0.506
212.000	174.971	79.999	19.997	101.147	19.881	5.371	0.491
212.500	175.227	79.997	19.997	101.144	19.883	5.213	0.461
213.000	175.500	79.999	19.997	101.138	19.881	5.342	0.489
213.500	175.762	79.997	19.996	101.136	19.882	5.313	0.532
214.000	175.918	79.997	19.998	101.137	19.880	5.425	0.476
214.500	176.197	79.998	19.996	101.139	19.880	5.412	0.427
215.000	176.438	79.997	19.997	101.140	19.880	5.451	0.478
215.500	176.708	79.997	19.997	101.140	19.879	5.478	0.516
216.000	176.929	79.998	19.997	101.140	19.878	5.549	0.501
216.500	177.167	79.997	19.997	101.139	19.880	5.453	0.475
217.000	177.426	79.998	19.996	101.138	19.879	5.486	0.478
217.500	177.668	79.999	19.997	101.140	19.876	5.706	0.499
218.000	177.948	79.998	19.996	101.142	19.875	5.787	0.511
218.500	178.175	79.997	19.997	101.144	19.877	5.650	0.514
219.001	178.422	79.998	19.997	101.144	19.878	5.550	0.491
219.502	178.698	79.997	19.997	101.144	19.876	5.716	0.499
220.001	178.916	79.998	19.996	101.142	19.877	5.600	0.509
220.500	179.163	79.998	19.997	101.142	19.878	5.551	0.480
221.000	179.394	79.997	19.996	101.139	19.875	5.790	0.472
221.500	179.637	79.998	19.996	101.139	19.876	5.680	0.476
222.000	179.887	79.998	19.995	101.139	19.874	5.851	0.483
222.500	180.103	79.998	19.995	101.139	19.874	5.803	0.479
223.000	180.388	79.997	19.996	101.138	19.877	5.656	0.483
223.500	180.615	79.997	19.996	101.141	19.875	5.735	0.506
224.000	180.876	79.998	19.996	101.142	19.876	5.661	0.500
224.500	181.132	79.996	19.995	101.142	19.875	5.748	0.503
225.000	181.370	79.998	19.996	101.142	19.875	5.785	0.506
225.500	181.605	79.997	19.995	101.141	19.873	5.892	0.484
226.000	181.866	79.996	19.997	101.140	19.880	5.432	0.485
226.500	182.112	79.998	19.997	101.140	19.876	5.663	0.502
227.000	182.333	79.998	19.996	101.142	19.874	5.827	0.487
227.500	182.604	79.997	19.996	101.147	19.873	5.923	0.479
228.000	182.846	79.995	19.996	101.148	19.875	5.759	0.502
228.500	183.068	79.997	19.996	101.147	19.871	6.043	0.489
229.000	183.341	79.997	19.996	101.146	19.871	6.021	0.479
229.500	183.593	79.998	19.994	101.146	19.875	5.790	0.510
230.000	183.816	79.999	19.997	101.142	19.872	5.958	0.500
230.500	184.048	79.997	19.996	101.141	19.872	5.989	0.465
231.000	184.300	79.998	19.997	101.143	19.870	6.096	0.470
231.500	184.556	79.997	19.996	101.145	19.872	5.967	0.496
232.000	184.745	79.997	19.996	101.143	19.874	5.849	0.476
232.500	185.016	79.998	19.999	101.143	19.872	5.951	0.453
233.000	185.309	79.996	19.999	101.143	19.871	6.065	0.512
233.500	185.563	79.997	19.996	101.143	19.872	5.951	0.556
234.000	185.788	79.998	19.998	101.140	19.869	6.152	0.513
234.500	186.046	79.998	19.996	101.144	19.872	5.934	0.481
235.000	186.342	79.998	19.997	101.146	19.869	6.176	0.519
235.500	186.555	79.997	19.998	101.147	19.872	5.939	0.531
236.000	186.769	79.997	19.998	101.146	19.870	6.094	0.468
236.500	187.043	79.996	19.997	101.146	19.870	6.100	0.457
237.000	187.304	79.997	19.997	101.142	19.868	6.249	0.512
237.500	187.536	79.997	19.996	101.140	19.870	6.087	0.514
238.000	187.772	79.997	19.998	101.138	19.867	6.334	0.481
238.500	188.025	79.996	19.997	101.137	19.871	6.026	0.478
239.000	188.317	79.997	19.996	101.137	19.870	6.091	0.517
239.500	188.505	79.996	19.996	101.138	19.869	6.143	0.513
240.000	188.766	79.996	19.997	101.139	19.866	6.362	0.465
240.500	189.004	79.996	19.998	101.139	19.866	6.395	0.474
241.000	189.265	79.997	19.997	101.140	19.868	6.233	0.499
241.500	189.470	79.996	19.998	101.141	19.870	6.135	0.483
242.000	189.754	79.997	19.998	101.141	19.868	6.253	0.478
242.500	189.976	79.996	19.997	101.140	19.864	6.480	0.497
243.000	190.278	79.997	19.997	101.141	19.864	6.517	0.515
243.500	190.495	79.997	19.997	101.141	19.864	6.487	0.522
244.000	190.745	79.995	19.997	101.141	19.865	6.419	0.493
244.500	190.965	79.997	19.997	101.141	19.867	6.284	0.469
245.000	191.253	79.995	19.995	101.140	19.864	6.484	0.489
245.500	191.450	79.996	19.998	101.139	19.863	6.583	0.497
246.000	191.743	79.997	19.997	101.138	19.865	6.469	0.487
246.500	191.963	79.997	19.997	101.136	19.863	6.598	0.501
247.000	192.218	79.996	19.997	101.136	19.866	6.367	0.493
247.500	192.442	79.998	19.996	101.137	19.863	6.590	0.477
248.000	192.711	79.996	19.996	101.138	19.864	6.528	0.487
248.500	192.936	79.997	19.998	101.139	19.864	6.509	0.493
249.000	193.223	79.998	19.998	101.141	19.863	6.568	0.503
249.500	193.484	79.998	19.997	101.143	19.859	6.852	0.530
250.000	193.687	79.999	19.997	101.142	19.860	6.767	0.506
250.500	193.930	79.999	19.997	101.140	19.858	6.922	0.455
251.000	194.203	79.998	19.997	101.141	19.864	6.483	0.481
251.500	194.443	79.999	19.996	101.138	19.863	6.570	0.514
252.000	194.723	79.999	19.997	101.136	19.860	6.782	0.516
252.500	194.963	79.998	19.997	101.136	19.860	6.789	0.520
253.000	195.156	79.998	19.997	101.137	19.862	6.664	0.477
253.500	195.467	79.999	19.996	101.136	19.861	6.734	0.469
254.000	195.656	79.998	19.996	101.136	19.861	6.694	0.502
254.500	195.923	79.999	19.997	101.136	19.861	6.694	0.478
255.000	196.149	80.000	19.995	101.136	19.859	6.821	0.475
255.500	196.425	80.000	19.998	101.137	19.859	6.817	0.497
256.000	196.659	80.000	19.997	101.137	19.863	6.587	0.506
256.500	196.934	79.999	19.997	101.136	19.859	6.858	0.510
257.000	197.155	79.999	19.997	101.136	19.861	6.684	0.503
257.500	197.387	79.999	19.996	101.136	19.859	6.867	0.475
258.000	197.645	80.001	19.996	101.134	19.861	6.747	0.471
258.500	197.915	80.000	19.996	101.135	19.860	6.801	0.509
259.000	198.146	79.999	19.996	101.134	19.859	6.821	0.514
259.500	198.373	80.001	19.996	101.135	19.860	6.789	0.479
260.000	198.643	79.999	19.996	101.134	19.857	6.965	0.478
260.500	198.885	79.999	19.996	101.134	19.858	6.946	0.505
261.000	199.127	79.999	19.996	101.134	19.856	7.053	0.498
261.500	199.386	80.000	19.996	101.134	19.856	7.072	0.492
262.000	199.621	79.999	19.996	101.133	19.857	6.991	0.498
262.500	199.880	79.998	19.996	101.133	19.856	7.062	0.494
263.000	200.089	79.999	19.997	101.133	19.857	6.994	0.481
263.500	200.348	79.999	19.996	101.133	19.855	7.110	0.468
264.000	200.599	80.000	19.997	101.133	19.855	7.092	0.489
264.500	200.831	80.001	19.996	101.134	19.854	7.186	0.496
265.000	201.094	79.999	19.997	101.133	19.853	7.284	0.489
265.500	201.302	79.999	19.996	101.133	19.851	7.383	0.483
266.000	201.582	79.998	19.997	101.134	19.853	7.286	0.480
266.500	201.880	79.999	19.996	101.134	19.851	7.409	0.533
267.000	202.111	80.000	19.996	101.134	19.850	7.474	0.553
267.500	202.353	79.999	19.996	101.135	19.848	7.573	0.501
268.000	202.578	79.998	19.996	101.135	19.848	7.570	0.470
268.500	202.865	80.000	19.997	101.134	19.849	7.509	0.490
269.000	203.081	79.998	19.997	101.133	19.850	7.459	0.508
269.500	203.354	79.999	19.996	101.133	19.848	7.571	0.496
270.000	203.583	80.001	19.997	101.133	19.854	7.223	0.495
270.500	203.836	79.999	19.996	101.133	19.851	7.411	0.492
271.000	204.070	79.998	19.996	101.133	19.849	7.544	0.485
271.500	204.331	79.999	19.997	101.133	19.850	7.459	0.491
272.000	204.570	80.000	19.996	101.133	19.849	7.549	0.498
272.500	204.796	79.999	19.997	101.133	19.848	7.588	0.483
273.000	205.102	79.999	19.997	101.134	19.851	7.394	0.498
273.500	205.331	79.999	19.996	101.133	19.850	7.483	0.533
274.000	205.594	79.998	19.997	101.133	19.848	7.577	0.514
274.500	205.825	80.000	19.997	101.133	19.848	7.631	0.493
275.000	206.062	79.999	19.997	101.133	19.848	7.612	0.481
275.500	206.334	80.000	19.997	101.133	19.845	7.780	0.488
276.000	206.539	80.001	19.997	101.133	19.847	7.658	0.493
276.500	206.798	80.000	19.998	101.133	19.848	7.568	0.470
277.000	207.042	79.999	19.997	101.133	19.846	7.712	0.483
277.500	207.278	79.999	19.997	101.133	19.847	7.638	0.491
278.000	207.551	79.999	19.996	101.133	19.850	7.454	0.495
278.500	207.810	80.001	19.997	101.133	19.845	7.800	0.521
279.000	208.003	80.001	19.996	101.133	19.847	7.671	0.493
279.500	208.266	80.000	19.996	101.133	19.844	7.865	0.455
280.000	208.481	80.000	19.997	101.132	19.842	8.035	0.467
280.500	208.783	80.000	19.995	101.132	19.846	7.727	0.497
281.000	208.993	80.000	19.996	101.132	19.845	7.806	0.515
281.500	209.237	79.999	19.995	101.132	19.849	7.542	0.484
282.000	209.504	80.000	19.997	101.132	19.845	7.776	0.482
282.500	209.773	80.002	19.997	101.132	19.845	7.802	0.523
283.000	210.017	80.002	19.995	101.132	19.845	7.835	0.525
283.500	210.274	80.001	19.996	101.132	19.846	7.705	0.507
284.000	210.493	79.999	19.996	101.133	19.844	7.883	0.488
284.500	210.775	80.001	19.996	101.133	19.845	7.836	0.489
285.000	210.998	79.999	19.996	101.133	19.842	8.022	0.503
285.500	211.249	80.000	19.996	101.133	19.843	7.941	0.489
286.000	211.508	80.000	19.995	101.134	19.842	7.990	0.492
286.500	211.715	80.000	19.993	101.133	19.843	7.931	0.488
287.000	211.994	80.000	19.996	101.134	19.844	7.869	0.476
287.500	212.238	79.999	19.995	101.135	19.842	7.990	0.504
288.000	212.482	80.000	19.995	101.135	19.844	7.900	0.506
288.500	212.753	79.999	19.997	101.135	19.844	7.848	0.502
289.000	212.989	79.998	19.997	101.135	19.842	7.992	0.511
289.500	213.234	79.998	19.996	101.135	19.841	8.086	0.494
290.000	213.448	79.998	19.996	101.135	19.840	8.156	0.470
290.500	213.710	79.998	19.996	101.135	19.842	8.027	0.467
291.000	213.986	79.999	19.995	101.136	19.841	8.101	0.507
291.500	214.238	79.999	19.995	101.136	19.841	8.101	0.533
292.000	214.475	79.998	19.996	101.136	19.842	8.016	0.509
292.500	214.707	79.999	19.996	101.136	19.843	7.928	0.479
293.000	214.956	79.998	19.996	101.136	19.842	8.027	0.475
293.500	215.203	79.997	19.995	101.136	19.842	8.031	0.488
294.000	215.475	79.998	19.996	101.136	19.842	8.000	0.507
294.500	215.704	79.999	19.996	101.136	19.839	8.184	0.510
295.000	215.971	79.998	19.994	101.137	19.843	7.940	0.499
295.500	216.197	79.999	19.997	101.137	19.842	7.996	0.495
296.000	216.482	79.998	19.995	101.137	19.839	8.204	0.502
296.500	216.733	79.999	19.996	101.137	19.838	8.278	0.524
297.000	216.976	79.997	19.997	101.136	19.838	8.283	0.515
297.500	217.233	79.998	19.997	101.136	19.838	8.308	0.497
298.000	217.499	79.999	19.997	101.136	19.837	8.361	0.512
298.500	217.712	79.998	19.996	101.135	19.841	8.090	0.501
299.000	217.963	79.998	19.996	101.135	19.837	8.328	0.471
299.500	218.197	79.998	19.997	101.135	19.838	8.306	0.475
300.000	218.461	79.999	19.996	101.135	19.837	8.345	0.492
300.500	218.665	79.997	19.996	101.135	19.838	8.282	0.483
301.000	218.952	79.998	19.996	101.136	19.836	8.389	0.479
301.500	219.200	79.997	19.996	101.136	19.839	8.195	0.512
302.000	219.471	79.996	19.996	101.135	19.835	8.487	0.527
302.500	219.717	79.997	19.997	101.135	19.835	8.470	0.518
303.000	219.961	79.997	19.996	101.135	19.836	8.444	0.503
303.500	220.204	79.998	19.997	101.136	19.836	8.436	0.488
304.000	220.441	79.998	19.997	101.136	19.838	8.274	0.484
304.500	220.660	79.996	19.998	101.136	19.838	8.304	0.468
305.000	220.969	79.998	19.996	101.136	19.835	8.457	0.492
305.500	221.202	79.997	19.997	101.136	19.837	8.381	0.535
306.000	221.430	79.997	19.995	101.134	19.837	8.332	0.501
306.500	221.679	79.997	19.997	101.134	19.836	8.402	0.469
307.000	221.941	79.997	19.998	101.133	19.834	8.586	0.494
307.500	222.216	79.996	19.997	101.133	19.832	8.687	0.524
308.000	222.463	79.997	19.996	101.133	19.831	8.770	0.529
308.500	222.700	79.996	19.997	101.135	19.832	8.682	0.503
309.000	222.939	79.998	19.996	101.136	19.830	8.805	0.481
309.500	223.197	79.996	19.997	101.137	19.833	8.656	0.487
310.000	223.429	79.997	19.997	101.137	19.833	8.628	0.493
310.500	223.707	79.998	19.996	101.137	19.832	8.700	0.500
311.000	223.914	79.998	19.997	101.137	19.832	8.708	0.497
311.500	224.187	79.997	19.996	101.136	19.833	8.630	0.482
312.000	224.427	79.998	19.996	101.136	19.833	8.590	0.496
312.500	224.664	79.998	19.996	101.136	19.832	8.693	0.495
313.001	224.939	79.999	19.997	101.135	19.833	8.625	0.495
313.501	225.178	80.000	19.998	101.134	19.831	8.732	0.514
314.001	225.482	80.000	19.997	101.132	19.833	8.632	0.529
314.501	225.716	79.999	19.997	101.131	19.831	8.778	0.540
315.000	225.936	79.999	19.997	101.131	19.832	8.667	0.496
315.500	226.197	79.998	19.997	101.132	19.832	8.691	0.467
316.000	226.420	79.998	19.996	101.133	19.833	8.621	0.482
316.500	226.696	79.998	19.996	101.135	19.830	8.833	0.492
317.000	226.981	79.998	19.998	101.135	19.829	8.923	0.530
317.500	227.216	79.997	19.998	101.135	19.830	8.826	0.541
318.000	227.460	79.998	19.996	101.134	19.829	8.898	0.499
318.500	227.726	79.998	19.996	101.134	19.829	8.916	0.495
319.000	227.959	79.997	19.996	101.133	19.830	8.829	0.505
319.500	228.203	79.997	19.998	101.133	19.829	8.923	0.488
320.000	228.470	79.997	19.998	101.133	19.831	8.790	0.494
320.500	228.730	79.997	19.997	101.133	19.828	8.943	0.519
321.000	228.951	79.999	19.996	101.132	19.831	8.752	0.504
321.500	229.192	79.998	19.997	101.132	19.827	9.030	0.472
322.000	229.502	79.997	19.996	101.132	19.828	8.933	0.506
322.500	229.738	79.996	19.997	101.132	19.826	9.112	0.548
323.000	229.963	79.997	19.996	101.132	19.826	9.093	0.504
323.500	230.221	79.998	19.996	101.133	19.826	9.091	0.472
324.000	230.481	79.997	19.997	101.133	19.825	9.191	0.501
324.500	230.718	79.997	19.996	101.134	19.825	9.185	0.508
325.000	230.969	79.998	19.996	101.132	19.825	9.184	0.492
325.500	231.259	79.998	19.996	101.131	19.824	9.230	0.514
326.000	231.498	79.996	19.998	101.131	19.824	9.235	0.534
326.500	231.744	79.997	19.997	101.130	19.824	9.263	0.507
327.001	231.975	79.997	19.997	101.130	19.821	9.407	0.482
327.501	232.207	79.996	19.996	101.131	19.821	9.408	0.470
328.000	232.472	79.996	19.997	101.132	19.822	9.385	0.480
328.500	232.664	79.997	19.998	101.132	19.821	9.420	0.477
329.000	232.952	79.997	19.996	101.133	19.821	9.410	0.468
329.500	233.188	79.998	19.998	101.131	19.824	9.248	0.502
330.000	233.450	79.996	19.997	101.129	19.823	9.298	0.511
330.500	233.710	79.997	19.997	101.129	19.824	9.266	0.511
331.000	233.976	79.997	19.997	101.129	19.821	9.432	0.524
331.500	234.198	79.997	19.998	101.130	19.822	9.381	0.507
332.000	234.435	79.998	19.997	101.131	19.822	9.397	0.473
332.500	234.665	79.997	19.997	101.133	19.821	9.425	0.463
333.000	234.894	79.997	19.997	101.133	19.820	9.534	0.463
333.500	235.183	79.998	19.997	101.133	19.818	9.621	0.488
334.001	235.427	79.998	19.997	101.133	19.820	9.506	0.525
334.501	235.677	79.998	19.996	101.134	19.818	9.674	0.514
335.000	235.938	80.000	19.998	101.133	19.814	9.897	0.503
335.500	236.169	79.999	19.996	101.133	19.817	9.691	0.501
336.000	236.434	79.999	19.998	101.133	19.816	9.807	0.494
336.500	236.664	79.999	19.997	101.132	19.815	9.883	0.495
337.000	236.918	79.999	19.998	101.132	19.814	9.901	0.490
337.500	237.172	79.999	19.997	101.131	19.812	10.021	0.496
338.000	237.430	79.998	19.997	101.131	19.812	10.058	0.510
338.500	237.632	79.999	19.997	101.131	19.814	9.938	0.486
339.000	237.882	79.999	19.997	101.133	19.814	9.921	0.456
339.500	238.178	79.998	19.997	101.133	19.814	9.910	0.499
340.000	238.384	79.999	19.997	101.133	19.814	9.916	0.524
340.500	238.652	79.999	19.997	101.134	19.815	9.827	0.488
341.000	238.846	80.000	19.998	101.134	19.812	10.040	0.468
341.500	239.139	79.999	19.996	101.132	19.812	10.030	0.474
342.000	239.344	79.999	19.997	101.131	19.812	10.067	0.493
342.500	239.588	79.998	19.997	101.132	19.811	10.119	0.474
343.000	239.855	80.000	19.997	101.131	19.812	10.073	0.480
343.500	240.115	79.999	19.996	101.131	19.809	10.250	0.519
344.000	240.335	80.000	19.998	101.131	19.811	10.117	0.504
344.500	240.576	80.000	19.996	101.131	19.813	9.981	0.470
345.000	240.797	79.999	19.996	101.131	19.810	10.171	0.461
345.500	241.099	79.999	19.996	101.131	19.807	10.378	0.493
346.000	241.318	80.000	19.995	101.131	19.806	10.466	0.522
346.500	241.547	80.000	19.996	101.132	19.808	10.315	0.484
347.000	241.795	79.999	19.997	101.132	19.808	10.309	0.463
347.500	242.061	79.999	19.997	101.132	19.808	10.296	0.495
348.000	242.296	79.999	19.996	101.132	19.808	10.294	0.507
348.500	242.544	79.999	19.995	101.133	19.810	10.223	0.492
349.000	242.815	79.999	19.997	101.133	19.807	10.415	0.501
349.500	243.049	79.998	19.995	101.134	19.807	10.429	0.512
350.000	243.291	79.998	19.997	101.134	19.808	10.359	0.491
350.500	243.517	79.998	19.996	101.135	19.806	10.498	0.472
351.000	243.764	79.998	19.996	101.135	19.802	10.747	0.470
351.500	243.982	79.997	19.995	101.135	19.802	10.732	0.469
352.000	244.245	79.999	19.996	101.135	19.805	10.517	0.473
352.500	244.530	79.998	19.997	101.135	19.805	10.516	0.515
353.000	244.748	79.999	19.996	101.135	19.800	10.888	0.526
353.500	245.018	79.999	19.996	101.136	19.799	10.907	0.496
354.000	245.253	79.998	19.996	101.135	19.802	10.765	0.496
354.500	245.512	79.998	19.995	101.136	19.799	10.933	0.500
355.000	245.772	79.998	19.995	101.136	19.796	11.138	0.507
355.500	246.041	79.997	19.996	101.137	19.796	11.142	0.524
356.000	246.255	79.999	19.996	101.138	19.799	10.961	0.505
356.500	246.503	79.999	19.996	101.139	19.797	11.064	0.472
357.000	246.756	79.999	19.996	101.139	19.797	11.050	0.482
357.500	246.981	79.999	19.996	101.139	19.801	10.812	0.490
358.000	247.285	79.999	19.996	101.138	19.796	11.142	0.503
358.500	247.492	79.999	19.997	101.138	19.791	11.456	0.520
359.000	247.731	79.999	19.996	101.137	19.791	11.459	0.478
359.500	247.989	80.000	19.998	101.138	19.792	11.406	0.471
360.000	248.248	79.999	19.996	101.141	19.792	11.434	0.507
360.500	248.499	80.001	19.997	101.142	19.790	11.551	0.514
361.000	248.754	79.998	19.996	101.142	19.791	11.480	0.508
361.500	249.013	80.000	19.995	101.141	19.797	11.100	0.510
362.000	249.265	79.999	19.995	101.140	19.789	11.612	0.513
362.500	249.534	80.000	19.995	101.138	19.788	11.673	0.517
363.000	249.790	79.999	19.996	101.137	19.788	11.660	0.523
363.500	250.064	80.000	19.996	101.137	19.788	11.699	0.527
364.000	250.284	79.999	19.997	101.138	19.788	11.715	0.512
364.500	250.530	80.001	19.995	101.138	19.784	11.960	0.480
365.000	250.785	80.001	19.996	101.139	19.782	12.118	0.484
365.500	251.033	80.000	19.996	101.139	19.782	12.074	0.503
366.000	251.286	80.000	19.996	101.141	19.782	12.114	0.502
366.500	251.539	80.000	19.995	101.143	19.782	12.122	0.503
367.000	251.819	80.000	19.996	101.144	19.781	12.154	0.519
367.500	251.997	79.999	19.996	101.146	19.781	12.173	0.496
368.000	252.255	80.000	19.995	101.146	19.778	12.342	0.447
368.500	252.506	79.999	19.997	101.146	19.777	12.458	0.473
369.000	252.784	80.000	19.997	101.146	19.776	12.543	0.519
369.500	253.072	80.000	19.996	101.149	19.775	12.569	0.548
370.000	253.283	80.001	19.995	101.148	19.775	12.598	0.533
370.500	253.530	80.000	19.995	101.151	19.772	12.790	0.478
371.000	253.788	79.999	19.995	101.155	19.766	13.163	0.481
371.500	254.050	79.998	19.996	101.155	19.771	12.856	0.513
372.000	254.251	79.999	19.996	101.149	19.767	13.113	0.492
372.500	254.551	79.997	19.995	101.152	19.764	13.345	0.482
373.000	254.799	79.999	19.996	101.156	19.762	13.485	0.524
373.500	255.012	79.998	19.995	101.156	19.764	13.333	0.504
374.000	255.292	79.997	19.996	101.159	19.764	13.335	0.477
374.500	255.524	79.998	19.997	101.161	19.762	13.493	0.502
375.000	255.748	79.998	19.996	101.159	19.761	13.547	0.484
375.500	256.048	79.998	19.996	101.155	19.760	13.615	0.490
376.000	256.293	79.998	19.996	101.151	19.758	13.759	0.535
376.500	256.512	79.996	19.995	101.147	19.756	13.860	0.505
377.000	256.767	79.998	19.996	101.148	19.755	13.930	0.469
377.500	257.012	79.998	19.996	101.150	19.754	14.007	0.486
378.000	257.280	79.999	19.996	101.154	19.755	13.932	0.506
378.500	257.522	79.999	19.995	101.159	19.754	14.032	0.512
379.000	257.732	79.999	19.997	101.166	19.755	13.949	0.482
379.500	258.010	79.999	19.996	101.168	19.751	14.185	0.470
380.000	258.276	79.999	19.997	101.171	19.750	14.270	0.516
380.500	258.572	79.999	19.995	101.169	19.749	14.355	0.553
381.000	258.771	79.999	19.995	101.167	19.749	14.333	0.528
381.500	258.970	79.999	19.997	101.164	19.748	14.436	0.447
382.000	259.230	79.996	19.996	101.158	19.749	14.333	0.429
382.500	259.535	79.998	19.994	101.152	19.743	14.778	0.512
383.000	259.767	79.999	19.996	101.151	19.746	14.577	0.550
383.500	259.957	79.996	19.995	101.150	19.747	14.464	0.479
384.000	260.194	79.998	19.995	101.151	19.740	14.966	0.425
384.500	260.452	79.998	19.996	101.155	19.740	14.957	0.461
385.000	260.723	79.998	19.996	101.160	19.738	15.084	0.512
385.500	260.940	79.998	19.995	101.164	19.736	15.208	0.508
386.000	261.206	79.998	19.994	101.167	19.734	15.359	0.485
386.500	261.447	79.998	19.996	101.167	19.733	15.439	0.495
387.000	261.706	79.998	19.996	101.167	19.730	15.664	0.504
387.500	261.939	79.999	19.995	101.165	19.729	15.694	0.496
388.000	262.173	79.998	19.996	101.163	19.728	15.758	0.479
388.501	262.401	80.000	19.997	101.162	19.728	15.805	0.465
389.000	262.697	79.999	19.995	101.163	19.728	15.773	0.493
389.500	262.913	79.997	19.997	101.166	19.724	16.070	0.519
390.000	263.190	79.997	19.996	101.169	19.724	16.090	0.503
390.500	263.434	79.997	19.996	101.170	19.722	16.212	0.507
391.000	263.717	79.997	19.996	101.172	19.720	16.326	0.524
391.500	263.933	79.998	19.996	101.172	19.719	16.387	0.513
392.000	264.206	79.998	19.996	101.171	19.721	16.276	0.494
392.500	264.483	79.998	19.996	101.171	19.718	16.457	0.519
393.000	264.682	79.997	19.997	101.172	19.718	16.485	0.513
393.500	264.980	79.998	19.997	101.172	19.717	16.533	0.487
394.000	265.171	79.998	19.996	101.172	19.717	16.564	0.493
394.500	265.430	79.999	19.996	101.172	19.712	16.856	0.470
395.000	265.723	79.998	19.997	101.172	19.712	16.854	0.501
395.500	265.913	79.998	19.997	101.172	19.711	16.953	0.517
396.000	266.154	79.998	19.996	101.172	19.708	17.175	0.457
396.500	266.414	79.998	19.998	101.172	19.705	17.357	0.466
397.000	266.674	79.998	19.997	101.171	19.704	17.453	0.511
397.500	266.917	79.998	19.996	101.173	19.706	17.267	0.511
398.000	267.184	79.997	19.996	101.174	19.703	17.508	0.506
398.500	267.444	79.999	19.998	101.176	19.701	17.643	0.518
399.000	267.682	79.998	19.996	101.176	19.698	17.811	0.512
399.500	267.952	79.998	19.996	101.176	19.697	17.892	0.503
400.000	268.174	79.997	19.995	101.175	19.696	17.937	0.501
400.500	268.420	79.997	19.997	101.174	19.696	17.972	0.480
401.000	268.669	79.998	19.997	101.172	19.697	17.891	0.482
401.500	268.914	79.996	19.997	101.172	19.692	18.263	0.494
402.000	269.154	79.997	19.996	101.171	19.692	18.222	0.489
402.500	269.430	79.996	19.997	101.171	19.692	18.265	0.500
403.000	269.701	79.998	19.997	101.171	19.689	18.463	0.531
403.500	269.939	79.997	19.996	101.171	19.686	18.677	0.528
404.000	270.174	79.997	19.997	101.172	19.689	18.427	0.491
404.500	270.453	79.996	19.997	101.172	19.684	18.784	0.494
405.000	270.726	79.997	19.996	101.172	19.680	19.047	0.533
405.500	270.985	80.000	19.996	101.172	19.684	18.807	0.542
406.000	271.225	79.999	19.996	101.173	19.681	18.964	0.516
406.500	271.490	79.997	19.997	101.172	19.681	19.018	0.502
407.000	271.734	79.997	19.996	101.173	19.679	19.158	0.507
407.500	271.994	79.998	19.997	101.178	19.678	19.188	0.507
408.000	272.250	79.998	19.997	101.180	19.677	19.235	0.510
408.500	272.506	79.999	19.996	101.180	19.677	19.301	0.514
409.000	272.734	79.997	19.995	101.180	19.673	19.540	0.498
409.500	273.016	79.998	19.997	101.180	19.671	19.668	0.496
410.000	273.223	79.998	19.998	101.177	19.670	19.765	0.499
410.500	273.515	79.997	19.996	101.179	19.670	19.774	0.494
411.000	273.747	79.996	19.996	101.181	19.669	19.802	0.512
411.500	273.994	79.997	19.997	101.181	19.666	20.009	0.502
412.000	274.257	79.996	19.996	101.183	19.668	19.872	0.494
412.500	274.538	79.998	19.996	101.182	19.664	20.140	0.527
413.000	274.753	79.997	19.997	101.178	19.661	20.339	0.520
413.500	275.003	79.997	19.996	101.178	19.661	20.370	0.480
414.000	275.245	79.997	19.996	101.181	19.656	20.717	0.479
414.500	275.531	79.998	19.996	101.184	19.658	20.566	0.510
415.000	275.761	79.997	19.995	101.188	19.656	20.716	0.522
415.500	276.027	79.998	19.995	101.193	19.653	20.899	0.506
416.000	276.241	79.999	19.996	101.196	19.652	20.969	0.488
416.500	276.488	79.998	19.996	101.195	19.652	20.943	0.470
417.000	276.760	79.997	19.995	101.197	19.647	21.342	0.490
417.500	277.027	79.998	19.996	101.199	19.646	21.364	0.529
418.000	277.244	80.001	19.996	101.201	19.643	21.586	0.512
418.500	277.502	79.996	19.997	101.203	19.641	21.737	0.479
419.001	277.763	79.999	19.995	101.206	19.642	21.665	0.497
419.501	278.053	79.997	19.997	101.206	19.641	21.726	0.535
420.000	278.279	79.997	19.996	101.206	19.641	21.723	0.534
420.500	278.543	79.999	19.996	101.205	19.639	21.867	0.503
421.000	278.806	79.999	19.996	101.207	19.638	21.913	0.508
421.500	279.029	79.997	19.996	101.208	19.636	22.055	0.506
422.000	279.270	79.997	19.997	101.208	19.637	21.972	0.475
422.500	279.545	80.000	19.997	101.209	19.632	22.363	0.490
423.000	279.778	79.999	19.997	101.209	19.626	22.766	0.512
423.500	280.066	79.998	19.996	101.207	19.630	22.480	0.514
424.000	280.282	79.999	19.996	101.207	19.629	22.534	0.513
424.500	280.545	80.000	19.997	101.207	19.628	22.593	0.492
425.000	280.790	79.999	19.996	101.207	19.624	22.909	0.493
425.500	281.067	79.998	19.996	101.208	19.622	23.040	0.515
426.000	281.300	79.999	19.996	101.209	19.615	23.498	0.516
426.500	281.508	79.998	19.997	101.210	19.620	23.151	0.475
427.000	281.785	80.000	19.995	101.211	19.618	23.294	0.463
427.501	282.046	79.999	19.996	101.210	19.610	23.835	0.512
428.001	282.242	79.998	19.998	101.210	19.614	23.569	0.498
428.500	282.520	79.998	19.997	101.210	19.610	23.868	0.466
429.000	282.815	79.998	19.998	101.211	19.606	24.134	0.523
429.500	283.029	79.998	19.997	101.211	19.607	24.022	0.541
430.000	283.289	79.998	19.997	101.212	19.602	24.380	0.492
430.500	283.487	79.996	19.996	101.213	19.603	24.286	0.466
431.000	283.793	79.998	19.995	101.213	19.601	24.436	0.481
431.500	284.044	79.997	19.995	101.213	19.598	24.665	0.531
432.000	284.230	79.997	19.996	101.213	19.597	24.697	0.497
432.500	284.620	79.998	19.996	101.212	19.593	24.984	0.506
433.000	284.769	79.999	19.998	101.212	19.596	24.805	0.558
433.500	284.988	79.998	19.996	101.212	19.593	25.025	0.454
434.000	285.333	79.998	19.996	101.213	19.593	25.022	0.466
434.500	285.516	79.998	19.997	101.213	19.591	25.142	0.546
435.000	285.760	79.999	19.998	101.215	19.586	25.492	0.477
435.501	286.044	79.998	19.997	101.216	19.584	25.583	0.477
436.001	286.463	79.999	19.996	101.218	19.584	25.592	0.615
436.500	286.417	79.998	19.996	101.217	19.580	25.911	0.538
437.000	286.713	79.994	19.996	101.217	19.580	25.868	0.311
437.500	287.249	79.999	19.995	101.217	19.579	25.956	0.541
438.000	287.560	80.001	19.996	101.216	19.574	26.277	0.840
438.500	287.660	79.998	19.996	101.215	19.574	26.331	0.629
439.000	287.593	79.999	19.996	101.216	19.570	26.603	0.222
439.500	287.787	79.998	19.995	101.216	19.567	26.765	0.080
440.000	288.042	80.000	19.996	101.217	19.567	26.782	0.288
440.500	288.352	80.000	19.996	101.217	19.564	26.973	0.507
441.000	288.971	79.998	19.996	101.218	19.563	27.066	0.747
441.500	288.913	80.000	19.997	101.217	19.563	27.058	0.745
442.000	289.330	79.999	19.995	101.218	19.561	27.189	0.460
442.500	289.630	79.999	19.995	101.219	19.560	27.272	0.537
443.000	289.742	80.000	19.995	101.222	19.553	27.706	0.565
443.500	290.080	80.001	19.995	101.224	19.552	27.811	0.431
444.000	290.279	80.000	19.995	101.225	19.548	28.066	0.493
444.500	290.471	79.999	19.995	101.227	19.548	28.097	0.464
445.000	290.832	80.001	19.996	101.229	19.546	28.196	0.472
445.500	291.032	80.003	19.994	101.229	19.545	28.305	0.558
446.000	291.309	80.002	19.995	101.228	19.542	28.490	0.519
446.500	291.521	79.999	19.996	101.230	19.540	28.642	0.483
447.000	291.814	80.000	19.996	101.228	19.538	28.740	0.496
447.500	292.070	79.998	19.997	101.225	19.537	28.810	0.527
448.000	292.327	79.999	19.995	101.226	19.533	29.082	0.532
448.500	292.595	79.999	19.995	101.230	19.534	29.043	0.519
449.000	292.799	80.001	19.995	101.230	19.530	29.289	0.498
449.500	293.080	80.002	19.995	101.231	19.534	29.045	0.478
450.000	293.353	80.001	19.996	101.233	19.529	29.405	0.520
450.500	293.594	80.001	19.996	101.232	19.525	29.625	0.534
451.000	293.829	80.000	19.996	101.232	19.523	29.804	0.495
451.500	294.096	80.001	19.996	101.234	19.518	30.094	0.489
452.000	294.343	80.000	19.996	101.239	19.521	29.930	0.508
452.500	294.571	80.000	19.995	101.242	19.517	30.201	0.494
453.000	294.827	80.000	19.996	101.243	19.517	30.220	0.480
453.500	295.107	79.999	19.996	101.243	19.511	30.635	0.510
454.000	295.406	79.999	19.995	101.241	19.508	30.781	0.557
454.500	295.605	79.998	19.995	101.241	19.505	31.006	0.538
455.000	295.826	79.999	19.996	101.241	19.501	31.319	0.459
455.500	296.108	79.999	19.995	101.242	19.503	31.175	0.461
456.000	296.381	80.000	19.995	101.243	19.503	31.166	0.529
456.500	296.600	79.999	19.996	101.247	19.497	31.534	0.524
457.000	296.854	79.998	19.996	101.247	19.495	31.707	0.482
457.500	297.127	79.997	19.996	101.247	19.490	32.060	0.500
458.000	297.324	79.999	19.997	101.249	19.489	32.123	0.499
458.500	297.626	79.998	19.997	101.249	19.486	32.287	0.485
459.000	297.868	79.997	19.996	101.249	19.484	32.420	0.521
459.500	298.122	79.996	19.996	101.249	19.482	32.562	0.520
460.000	298.392	79.997	19.995	101.250	19.479	32.820	0.510
460.500	298.631	79.998	19.996	101.250	19.478	32.828	0.516
461.000	298.923	79.998	19.997	101.250	19.477	32.927	0.520
461.500	299.165	79.998	19.995	101.250	19.473	33.183	0.533
462.000	299.410	79.999	19.996	101.251	19.474	33.152	0.511
462.500	299.681	79.998	19.996	101.250	19.464	33.801	0.501
463.000	299.924	79.999	19.995	101.250	19.462	33.929	0.515
463.500	300.205	79.998	19.996	101.250	19.464	33.848	0.519
464.000	300.462	80.000	19.996	101.250	19.461	34.030	0.531
464.500	300.672	79.998	19.996	101.250	19.458	34.242	0.503
465.000	300.934	80.000	19.997	101.250	19.453	34.538	0.469
465.500	301.220	79.998	19.998	101.251	19.452	34.605	0.510
466.000	301.437	79.999	19.995	101.252	19.455	34.398	0.526
466.500	301.695	79.999	19.996	101.252	19.451	34.701	0.489
467.000	301.959	79.999	19.995	101.252	19.449	34.839	0.498
467.500	302.189	79.997	19.996	101.254	19.447	35.002	0.508
468.000	302.451	79.997	19.995	101.255	19.441	35.390	0.493
468.500	302.668	79.998	19.996	101.254	19.438	35.572	0.485
469.000	302.962	79.999	19.995	101.254	19.440	35.478	0.495
469.500	303.276	79.999	19.996	101.254	19.434	35.888	0.560
470.000	303.478	79.997	19.995	101.253	19.431	36.058	0.562
470.500	303.750	79.998	19.995	101.253	19.428	36.283	0.495
471.000	303.947	79.999	19.996	101.253	19.425	36.483	0.472
471.500	304.226	80.000	19.997	101.254	19.423	36.620	0.472
472.000	304.475	79.998	19.996	101.256	19.422	36.690	0.502
472.500	304.739	79.996	19.995	101.260	19.421	36.726	0.521
473.000	304.986	79.998	19.995	101.260	19.416	37.075	0.512
473.501	305.224	80.000	19.996	101.264	19.414	37.201	0.498
474.001	305.492	80.000	19.995	101.266	19.410	37.538	0.495
474.500	305.728	79.998	19.995	101.267	19.407	37.727	0.504
475.000	306.022	79.997	19.994	101.265	19.405	37.853	0.517
475.500	306.197	80.000	19.996	101.267	19.402	38.075	0.500
476.000	306.508	80.000	19.995	101.271	19.398	38.315	0.478
476.500	306.758	79.999	19.996	101.272	19.396	38.441	0.523
477.000	307.010	79.999	19.994	101.270	19.395	38.500	0.532
477.500	307.254	79.999	19.995	101.271	19.389	38.910	0.500
478.000	307.534	80.000	19.996	101.275	19.391	38.805	0.510
478.500	307.823	80.001	19.996	101.275	19.387	39.110	0.546
479.000	308.044	79.998	19.995	101.275	19.379	39.630	0.539
479.500	308.297	79.998	19.995	101.279	19.380	39.552	0.492
480.000	308.577	80.000	19.995	101.281	19.374	39.953	0.504
480.500	308.857	79.999	19.996	101.280	19.374	39.953	0.546
481.000	309.117	79.998	19.996	101.281	19.367	40.436	0.550
481.500	309.361	79.999	19.995	101.283	19.371	40.159	0.522
482.000	309.583	79.998	19.995	101.285	19.364	40.629	0.485
482.500	309.809	79.999	19.995	101.286	19.362	40.821	0.457
483.000	310.063	80.000	19.996	101.287	19.359	40.987	0.464
483.500	310.308	80.000	19.995	101.287	19.351	41.515	0.490
484.000	310.582	79.997	19.995	101.289	19.354	41.339	0.509
484.500	310.827	79.998	19.996	101.290	19.351	41.526	0.519
485.000	311.101	79.999	19.996	101.292	19.346	41.867	0.519
485.500	311.364	79.999	19.995	101.293	19.345	41.968	0.528
486.000	311.660	79.997	19.995	101.294	19.343	42.088	0.548
486.500	311.878	79.997	19.996	101.294	19.338	42.439	0.536
487.000	312.159	79.998	19.996	101.294	19.337	42.516	0.507
487.500	312.420	79.999	19.996	101.295	19.332	42.870	0.520
488.001	312.686	79.995	19.997	101.294	19.330	42.995	0.534
488.501	312.922	79.997	19.997	101.294	19.325	43.312	0.515
489.001	313.180	79.998	19.996	101.295	19.322	43.556	0.498
489.501	313.440	79.999	19.996	101.296	19.320	43.658	0.506
490.000	313.689	79.996	19.996	101.298	19.316	43.954	0.514
490.500	313.964	79.997	19.996	101.301	19.315	43.984	0.517
491.000	314.201	79.999	19.997	101.301	19.312	44.203	0.518
491.500	314.435	79.997	19.995	101.303	19.309	44.421	0.491
492.000	314.718	79.999	19.998	101.307	19.307	44.567	0.494
492.500	314.963	79.996	19.997	101.309	19.304	44.760	0.522
493.000	315.178	79.997	19.996	101.311	19.299	45.103	0.494
493.500	315.450	80.000	19.998	101.309	19.297	45.214	0.474
494.000	315.681	79.999	19.997	101.309	19.295	45.366	0.495
494.500	315.976	79.998	19.995	101.305	19.288	45.849	0.514
495.000	316.219	79.998	19.996	101.304	19.284	46.102	0.532
495.500	316.519	79.998	19.996	101.300	19.282	46.236	0.540
496.000	316.732	79.996	19.997	101.301	19.280	46.367	0.528
496.500	316.984	79.998	19.998	101.306	19.277	46.622	0.489
497.000	317.220	79.997	19.997	101.305	19.275	46.718	0.476
497.500	317.446	79.997	19.996	101.305	19.271	47.041	0.475
498.000	317.748	79.996	19.996	101.312	19.269	47.141	0.495
498.500	317.980	79.999	19.997	101.315	19.265	47.431	0.531
499.000	318.225	80.000	19.997	101.317	19.260	47.749	0.506
499.500	318.498	80.000	19.997	101.324	19.261	47.704	0.497
500.000	318.737	79.998	19.996	101.327	19.254	48.142	0.515
500.500	318.992	80.000	19.995	101.329	19.253	48.213	0.503
501.000	319.234	79.998	19.995	101.330	19.249	48.545	0.496
501.501	319.485	79.998	19.994	101.331	19.246	48.733	0.495
502.000	319.723	79.999	19.997	101.329	19.242	48.964	0.491
502.500	319.976	79.999	19.995	101.329	19.238	49.280	0.490
503.001	320.244	79.999	19.996	101.328	19.236	49.398	0.506
503.501	320.505	79.999	19.996	101.329	19.233	49.628	0.525
504.000	320.731	79.998	19.995	101.328	19.228	49.983	0.508
504.500	321.031	80.001	19.995	101.329	19.229	49.873	0.506
505.000	321.278	79.999	19.994	101.327	19.221	50.400	0.537
505.500	321.531	80.000	19.996	101.327	19.222	50.381	0.524
506.000	321.783	80.001	19.994	101.327	19.219	50.584	0.503
506.500	322.046	80.001	19.996	101.329	19.213	50.952	0.510
507.000	322.286	79.998	19.995	101.329	19.208	51.287	0.509
507.500	322.531	80.000	19.995	101.332	19.208	51.331	0.494
508.000	322.763	80.000	19.996	101.332	19.207	51.417	0.481
508.500	323.047	80.001	19.995	101.332	19.202	51.749	0.496
509.000	323.240	79.999	19.996	101.332	19.200	51.837	0.496
509.500	323.523	79.997	19.996	101.332	19.199	51.944	0.477
510.000	323.748	79.999	19.995	101.331	19.192	52.396	0.492
510.500	324.029	79.998	19.996	101.331	19.189	52.627	0.507
511.000	324.296	80.001	19.996	101.331	19.182	53.067	0.527
511.500	324.509	79.999	19.996	101.331	19.183	53.059	0.514
512.000	324.790	79.997	19.996	101.331	19.181	53.189	0.487
512.500	325.004	79.998	19.996	101.330	19.176	53.501	0.494
513.000	325.264	79.999	19.996	101.330	19.175	53.603	0.485
513.500	325.549	79.999	19.996	101.329	19.171	53.836	0.509
514.000	325.784	79.999	19.996	101.329	19.166	54.160	0.532
514.500	326.015	79.999	19.995	101.330	19.162	54.450	0.493
515.000	326.264	79.999	19.996	101.332	19.158	54.730	0.473
515.500	326.559	80.002	19.996	101.333	19.153	55.114	0.512
516.000	326.795	79.998	19.996	101.333	19.155	54.964	0.537
516.500	327.079	79.999	19.996	101.333	19.150	55.286	0.526
517.000	327.301	80.000	19.996	101.333	19.149	55.331	0.513
517.500	327.527	79.998	19.996	101.332	19.145	55.646	0.477
518.000	327.819	79.997	19.997	101.333	19.139	56.033	0.483
518.500	328.034	79.998	19.997	101.336	19.136	56.268	0.513
519.000	328.329	79.997	19.997	101.339	19.135	56.279	0.509
519.500	328.552	79.998	19.996	101.340	19.130	56.630	0.514
520.000	328.835	79.999	19.997	101.343	19.128	56.815	0.512
520.500	329.055	79.997	19.996	101.345	19.127	56.830	0.505
521.000	329.326	79.999	19.997	101.344	19.123	57.111	0.497
521.500	329.600	79.998	19.996	101.345	19.118	57.493	0.518
522.000	329.859	79.997	19.997	101.345	19.116	57.578	0.539
522.500	330.103	79.998	19.998	101.343	19.117	57.554	0.518
523.000	330.372	79.998	19.996	101.341	19.112	57.860	0.508
523.500	330.619	79.997	19.997	101.340	19.110	58.043	0.515
524.000	330.849	79.999	19.997	101.338	19.108	58.141	0.497
524.500	331.103	79.998	19.996	101.338	19.104	58.407	0.480
525.000	331.360	80.000	19.997	101.343	19.104	58.389	0.497
525.500	331.584	79.999	19.997	101.345	19.103	58.479	0.496
526.000	331.858	80.000	19.996	101.348	19.099	58.784	0.489
526.500	332.122	80.000	19.996	101.350	19.094	59.135	0.518
527.000	332.387	80.001	19.996	101.348	19.091	59.328	0.534
527.500	332.642	80.001	19.997	101.342	19.092	59.232	0.525
528.000	332.892	80.001	19.997	101.341	19.090	59.397	0.513
528.500	333.115	80.000	19.996	101.343	19.087	59.564	0.489
529.000	333.368	79.999	19.996	101.344	19.089	59.461	0.474
529.500	333.607	80.002	19.998	101.344	19.085	59.703	0.484
530.000	333.862	80.001	19.997	101.347	19.081	59.971	0.493
530.500	334.126	80.001	19.997	101.350	19.080	60.090	0.506
531.000	334.432	80.002	19.996	101.350	19.079	60.126	0.544
531.500	334.677	80.000	19.995	101.351	19.079	60.093	0.560
532.000	334.907	80.002	19.996	101.354	19.079	60.143	0.513
532.500	335.140	80.000	19.996	101.352	19.076	60.355	0.469
533.000	335.409	80.001	19.995	101.347	19.074	60.448	0.482
533.500	335.655	80.001	19.996	101.340	19.070	60.743	0.508
534.000	335.903	80.000	19.995	101.336	19.070	60.732	0.504
534.500	336.145	79.998	19.996	101.333	19.069	60.824	0.492
535.000	336.400	80.000	19.995	101.332	19.066	60.978	0.494
535.500	336.653	80.000	19.995	101.333	19.067	60.950	0.503
536.000	336.910	80.000	19.995	101.332	19.068	60.909	0.509
536.500	337.156	80.000	19.996	101.332	19.067	60.956	0.506
537.000	337.430	80.002	19.995	101.332	19.061	61.382	0.511
537.500	337.650	79.999	19.996	101.331	19.064	61.178	0.507
538.000	337.931	79.999	19.996	101.330	19.062	61.311	0.497
538.500	338.161	80.000	19.995	101.331	19.064	61.143	0.506
539.001	338.423	79.998	19.997	101.330	19.065	61.058	0.502
539.501	338.679	79.998	19.996	101.329	19.060	61.437	0.505
540.000	338.943	79.997	19.996	101.329	19.060	61.391	0.519
540.500	339.164	79.997	19.996	101.329	19.062	61.260	0.503
541.000	339.419	79.999	19.995	101.330	19.059	61.491	0.481
541.500	339.706	79.999	19.995	101.330	19.060	61.405	0.509
542.000	339.928	79.998	19.996	101.330	19.060	61.398	0.525
542.500	340.218	79.998	19.996	101.330	19.061	61.359	0.510
543.000	340.452	79.998	19.996	101.330	19.058	61.561	0.518
543.500	340.685	80.000	19.995	101.330	19.062	61.297	0.496
544.000	340.971	79.999	19.996	101.330	19.061	61.314	0.493
544.500	341.202	79.999	19.996	101.329	19.065	61.044	0.518
545.000	341.484	79.997	19.996	101.329	19.063	61.215	0.515
545.500	341.738	79.998	19.996	101.329	19.064	61.118	0.525
546.000	341.989	79.998	19.996	101.329	19.067	60.938	0.521
546.500	342.230	79.997	19.995	101.329	19.064	61.153	0.498
547.000	342.478	79.998	19.995	101.329	19.064	61.135	0.491
547.500	342.717	79.997	19.995	101.327	19.066	60.980	0.489
548.001	342.972	79.997	19.995	101.325	19.069	60.774	0.491
548.501	343.218	79.997	19.995	101.324	19.068	60.839	0.497
549.000	343.462	79.997	19.995	101.321	19.072	60.578	0.495
549.500	343.742	79.997	19.996	101.319	19.074	60.431	0.507
550.000	343.963	79.997	19.996	101.321	19.073	60.477	0.512
550.500	344.199	79.997	19.995	101.321	19.075	60.357	0.479
551.000	344.478	79.998	19.995	101.316	19.074	60.391	0.486
551.500	344.738	79.997	19.994	101.316	19.077	60.235	0.527
552.000	345.005	79.998	19.996	101.316	19.077	60.218	0.533
552.500	345.227	79.997	19.996	101.309	19.082	59.889	0.508
553.000	345.540	79.998	19.996	101.303	19.082	59.906	0.512
553.500	345.763	79.998	19.996	101.302	19.086	59.633	0.536
554.000	346.001	79.997	19.995	101.298	19.087	59.549	0.499
554.500	346.254	79.998	19.995	101.294	19.091	59.275	0.476
555.000	346.494	79.997	19.996	101.295	19.094	59.061	0.492
555.500	346.782	79.998	19.996	101.295	19.097	58.881	0.510
556.000	347.042	79.998	19.996	101.294	19.100	58.666	0.538
556.500	347.291	79.998	19.996	101.294	19.102	58.504	0.529
557.000	347.513	79.998	19.996	101.294	19.105	58.300	0.490
557.500	347.748	79.998	19.995	101.293	19.109	58.056	0.464
558.000	347.978	79.998	19.995	101.292	19.114	57.648	0.461
558.500	348.287	79.998	19.996	101.290	19.118	57.397	0.502
559.000	348.535	79.999	19.995	101.285	19.118	57.396	0.548
559.500	348.796	79.997	19.996	101.280	19.123	57.058	0.533
560.000	349.050	79.997	19.996	101.276	19.126	56.877	0.512
560.500	349.306	79.998	19.996	101.270	19.132	56.417	0.513
561.000	349.537	79.999	19.995	101.264	19.133	56.398	0.498
561.500	349.804	79.998	19.995	101.261	19.140	55.908	0.492
562.000	350.085	80.000	19.995	101.260	19.141	55.849	0.523
562.500	350.325	79.998	19.996	101.256	19.147	55.438	0.535
563.000	350.594	79.999	19.996	101.254	19.147	55.419	0.515
563.500	350.846	79.997	19.996	101.254	19.153	55.006	0.515
564.000	351.095	79.998	19.995	101.255	19.156	54.790	0.511
564.500	351.289	79.997	19.995	101.254	19.161	54.430	0.472
565.000	351.548	79.997	19.995	101.253	19.165	54.166	0.448
565.500	351.810	79.998	19.996	101.253	19.173	53.668	0.487
566.000	352.069	79.996	19.995	101.252	19.173	53.613	0.521
566.500	352.359	79.998	19.994	101.251	19.182	53.039	0.535
567.000	352.607	79.998	19.994	101.246	19.183	52.973	0.543
567.500	352.835	79.997	19.995	101.246	19.189	52.538	0.507
568.000	353.100	79.997	19.994	101.243	19.192	52.301	0.484
568.500	353.397	79.997	19.995	101.236	19.199	51.826	0.527
569.000	353.610	79.997	19.995	101.229	19.205	51.473	0.536
569.500	353.899	79.998	19.995	101.227	19.209	51.198	0.506
570.000	354.152	79.996	19.995	101.221	19.213	50.921	0.522
570.500	354.432	79.997	19.996	101.217	19.218	50.572	0.538
571.000	354.679	79.998	19.995	101.217	19.224	50.126	0.530
571.500	354.933	79.997	19.995	101.217	19.229	49.800	0.514
572.000	355.180	79.997	19.995	101.213	19.232	49.579	0.501
572.500	355.410	79.997	19.995	101.208	19.238	49.198	0.489
573.000	355.674	79.998	19.996	101.208	19.246	48.621	0.485
573.500	355.943	79.998	19.996	101.203	19.252	48.231	0.513
574.000	356.205	79.998	19.996	101.198	19.258	47.834	0.532
574.500	356.427	79.998	19.996	101.195	19.263	47.461	0.508
575.000	356.700	79.997	19.996	101.194	19.266	47.255	0.490
575.500	356.930	79.998	19.995	101.195	19.273	46.798	0.499
576.000	357.206	79.996	19.997	101.195	19.282	46.208	0.504
576.500	357.445	79.997	19.995	101.194	19.284	46.027	0.511
577.000	357.706	79.997	19.995	101.192	19.292	45.500	0.508
577.500	357.959	79.998	19.995	101.189	19.294	45.329	0.507
578.000	358.221	79.998	19.996	101.182	19.305	44.622	0.514
578.500	358.481	79.998	19.996	101.177	19.307	44.438	0.518
579.000	358.716	79.997	19.996	101.174	19.314	44.008	0.508
579.500	358.955	79.999	19.996	101.173	19.320	43.596	0.485
580.000	359.225	79.998	19.995	101.173	19.328	43.058	0.492
580.500	359.461	79.998	19.996	101.172	19.333	42.725	0.507
581.000	359.733	79.999	19.996	101.169	19.338	42.360	0.507
581.500	359.975	80.000	19.996	101.168	19.342	42.085	0.511
582.001	360.217	79.999	19.996	101.168	19.349	41.621	0.499
582.500	360.525	79.999	19.996	101.166	19.353	41.342	0.517
583.000	360.747	79.998	19.996	101.160	19.361	40.781	0.539
583.501	361.016	80.000	19.995	101.157	19.367	40.351	0.510
584.001	361.280	79.998	19.995	101.153	19.376	39.787	0.512
584.501	361.501	80.000	19.996	101.149	19.384	39.196	0.509
585.002	361.760	80.000	19.997	101.144	19.388	38.956	0.482
585.501	362.003	80.000	19.997	101.144	19.397	38.316	0.491
586.000	362.288	79.999	19.995	101.141	19.400	38.110	0.515
586.500	362.500	79.997	19.995	101.138	19.407	37.647	0.512
587.000	362.762	79.999	19.997	101.134	19.414	37.147	0.486
587.500	363.058	79.998	19.997	101.133	19.420	36.764	0.516
588.000	363.247	80.000	19.996	101.131	19.425	36.391	0.522
588.500	363.533	80.000	19.996	101.132	19.433	35.901	0.480
589.000	363.751	79.999	19.997	101.131	19.437	35.621	0.490
589.500	363.990	79.999	19.997	101.131	19.441	35.296	0.480
590.000	364.293	79.999	19.996	101.130	19.448	34.841	0.500
590.500	364.504	80.000	19.996	101.130	19.456	34.317	0.528
591.000	364.766	79.998	19.996	101.125	19.460	33.996	0.493
591.500	364.999	80.000	19.995	101.124	19.468	33.467	0.484
592.000	365.290	80.000	19.997	101.121	19.473	33.144	0.509
592.500	365.514	79.999	19.996	101.120	19.479	32.724	0.520
593.000	365.765	79.999	19.996	101.118	19.485	32.294	0.496
593.500	366.061	79.998	19.996	101.115	19.491	31.930	0.511
594.000	366.291	79.999	19.997	101.110	19.499	31.358	0.536
594.500	366.552	80.001	19.996	101.109	19.506	30.918	0.508
595.000	366.754	79.998	19.997	101.102	19.510	30.642	0.477
595.500	367.050	79.999	19.996	101.097	19.513	30.440	0.481
596.000	367.291	80.000	19.996	101.097	19.521	29.878	0.518
596.500	367.509	79.999	19.996	101.096	19.525	29.622	0.498
597.000	367.776	79.998	19.997	101.093	19.534	29.014	0.472
597.501	368.040	79.999	19.996	101.093	19.538	28.731	0.507
598.001	368.311	79.998	19.996	101.093	19.542	28.406	0.533
598.501	368.552	79.998	19.995	101.092	19.549	27.954	0.524
599.000	368.814	79.998	19.995	101.093	19.554	27.608	0.508
599.500	369.065	79.998	19.996	101.093	19.560	27.226	0.508
600.000	369.302	79.999	19.995	101.093	19.563	26.971	0.501
600.500	369.565	79.999	19.996	101.093	19.569	26.612	0.494
601.000	369.782	79.999	19.996	101.093	19.572	26.378	0.490
601.500	370.069	79.999	19.997	101.093	19.576	26.130	0.492
602.000	370.320	79.998	19.996	101.092	19.585	25.491	0.521
602.500	370.566	79.998	19.995	101.091	19.588	25.282	0.518
603.000	370.822	79.999	19.997	101.092	19.594	24.921	0.499
603.500	371.048	79.999	19.996	101.091	19.598	24.589	0.491
604.000	371.301	80.000	19.997	101.089	19.603	24.261	0.480
604.500	371.568	80.000	19.995	101.087	19.608	23.952	0.500
605.000	371.825	80.000	19.996	101.086	19.617	23.322	0.522
605.500	372.066	80.000	19.997	101.081	19.618	23.228	0.511
606.000	372.339	79.999	19.997	101.077	19.623	22.931	0.506
606.500	372.556	79.999	19.997	101.076	19.632	22.327	0.502
607.000	372.823	80.001	19.996	101.077	19.632	22.319	0.487
607.500	373.107	80.001	19.997	101.077	19.635	22.104	0.517
608.000	373.360	79.998	19.997	101.076	19.642	21.647	0.544
608.500	373.581	79.999	19.996	101.079	19.648	21.241	0.506
609.000	373.858	80.000	19.997	101.077	19.649	21.141	0.486
609.500	374.148	80.000	19.996	101.071	19.654	20.800	0.533
610.000	374.350	80.000	19.997	101.065	19.658	20.544	0.530
610.500	374.612	79.999	19.997	101.062	19.663	20.205	0.478
611.000	374.863	80.000	19.996	101.061	19.663	20.190	0.488
611.500	375.146	80.000	19.997	101.057	19.670	19.702	0.523
612.000	375.363	79.999	19.997	101.057	19.674	19.440	0.517
612.500	375.650	79.998	19.996	101.058	19.677	19.256	0.502
613.000	375.867	80.000	19.996	101.061	19.683	18.810	0.504
613.500	376.129	79.999	19.997	101.058	19.683	18.814	0.491
614.000	376.341	79.999	19.996	101.059	19.688	18.510	0.476
614.500	376.627	79.999	19.997	101.059	19.692	18.207	0.486
615.000	376.833	79.999	19.996	101.059	19.696	17.972	0.495
615.500	377.113	79.999	19.997	101.056	19.697	17.857	0.489
616.000	377.374	79.999	19.996	101.056	19.703	17.502	0.514
616.500	377.639	79.999	19.997	101.055	19.704	17.391	0.534
617.000	377.902	80.000	19.996	101.055	19.705	17.308	0.527
617.500	378.127	79.999	19.996	101.056	19.707	17.176	0.508
618.000	378.387	80.000	19.995	101.056	19.711	16.923	0.487
618.501	378.641	79.999	19.996	101.056	19.715	16.684	0.500
619.001	378.900	79.999	19.997	101.056	19.716	16.573	0.513
619.500	379.138	79.999	19.997	101.056	19.721	16.267	0.505
620.000	379.399	80.000	19.996	101.054	19.721	16.274	0.498
620.500	379.661	80.000	19.997	101.054	19.725	15.943	0.511
621.000	379.918	79.999	19.996	101.055	19.729	15.729	0.521
621.500	380.163	79.998	19.996	101.054	19.731	15.592	0.511
622.000	380.437	79.997	19.996	101.054	19.736	15.217	0.510
622.500	380.647	79.998	19.997	101.054	19.737	15.121	0.502
623.000	380.944	79.999	19.997	101.055	19.738	15.077	0.495
623.500	381.185	79.998	19.996	101.055	19.740	14.935	0.522
624.000	381.428	79.999	19.997	101.055	19.737	15.143	0.511
624.500	381.672	79.998	19.996	101.055	19.738	15.084	0.486
625.000	381.952	79.997	19.995	101.056	19.743	14.743	0.505
625.500	382.183	79.999	19.996	101.056	19.746	14.509	0.517
626.000	382.409	79.998	19.996	101.056	19.748	14.433	0.484
626.500	382.688	79.998	19.995	101.056	19.747	14.474	0.481
627.000	382.940	79.999	19.996	101.056	19.753	14.094	0.518
627.500	383.197	79.997	19.996	101.056	19.752	14.118	0.520
628.000	383.431	79.999	19.995	101.057	19.753	14.035	0.500
628.500	383.670	79.997	19.995	101.056	19.755	13.947	0.482
629.000	383.938	79.998	19.995	101.056	19.760	13.576	0.490
629.500	384.206	79.997	19.995	101.057	19.763	13.392	0.521
630.000	384.433	79.997	19.996	101.057	19.761	13.500	0.515
630.500	384.709	79.998	19.996	101.057	19.761	13.487	0.499
631.000	384.955	79.998	19.995	101.057	19.763	13.379	0.513
631.500	385.221	79.998	19.995	101.057	19.765	13.262	0.517
632.000	385.459	79.998	19.995	101.057	19.767	13.133	0.508
632.500	385.728	79.997	19.995	101.057	19.767	13.095	0.506
633.000	385.924	79.998	19.996	101.058	19.768	13.030	0.487
633.500	386.227	79.998	19.994	101.058	19.772	12.798	0.482
634.000	386.417	79.999	19.995	101.058	19.772	12.800	0.495
634.500	386.675	79.999	19.996	101.059	19.773	12.718	0.471
635.000	386.951	79.998	19.994	101.058	19.777	12.455	0.491
635.500	387.227	79.998	19.996	101.059	19.776	12.501	0.543
636.000	387.446	79.997	19.995	101.058	19.777	12.423	0.523
636.500	387.700	79.998	19.995	101.058	19.777	12.442	0.484
637.000	387.968	79.997	19.995	101.058	19.779	12.319	0.498
637.500	388.182	79.997	19.995	101.058	19.778	12.343	0.502
638.000	388.434	79.997	19.995	101.058	19.783	12.039	0.474
638.500	388.678	79.998	19.995	101.058	19.780	12.197	0.481
639.000	388.954	79.998	19.995	101.057	19.784	11.939	0.508
639.500	389.174	79.999	19.995	101.057	19.784	11.943	0.508
640.000	389.427	79.998	19.996	101.056	19.787	11.742	0.485
640.500	389.687	79.998	19.995	101.056	19.786	11.791	0.493
641.000	389.912	79.997	19.998	101.056	19.786	11.786	0.499
641.500	390.159	79.998	19.996	101.055	19.788	11.712	0.478
642.000	390.432	79.998	19.995	101.055	19.787	11.723	0.496
642.500	390.705	79.998	19.996	101.055	19.790	11.578	0.533
643.000	390.943	79.998	19.997	101.054	19.790	11.511	0.529
643.500	391.182	79.998	19.995	101.054	19.793	11.318	0.494
644.000	391.434	79.997	19.996	101.054	19.790	11.528	0.484
644.500	391.672	79.998	19.995	101.054	19.790	11.550	0.490
645.000	391.955	79.999	19.995	101.052	19.792	11.379	0.505
645.500	392.205	79.998	19.996	101.052	19.791	11.506	0.527
646.000	392.428	79.997	19.996	101.050	19.792	11.434	0.503
646.500	392.682	79.998	19.995	101.050	19.793	11.355	0.475
647.000	392.942	79.997	19.996	101.050	19.793	11.329	0.496
647.500	393.189	79.998	19.996	101.052	19.793	11.347	0.511
648.000	393.454	79.996	19.996	101.053	19.793	11.347	0.510
648.500	393.677	79.998	19.996	101.054	19.794	11.276	0.500
649.000	393.974	79.997	19.996	101.054	19.797	11.071	0.504
649.500	394.223	79.998	19.996	101.054	19.794	11.289	0.533
650.000	394.483	79.997	19.995	101.053	19.797	11.090	0.527
650.500	394.635	79.998	19.995	101.052	19.795	11.196	0.461
651.000	394.939	79.997	19.996	101.052	19.798	11.014	0.434
651.500	395.197	79.998	19.995	101.052	19.798	11.010	0.509
652.000	395.448	79.998	19.996	101.052	19.797	11.084	0.535
652.500	395.708	79.996	19.995	101.052	19.798	11.021	0.510
653.000	396.003	79.998	19.995	101.053	19.798	10.994	0.533
653.500	396.194	79.997	19.995	101.053	19.800	10.874	0.520
654.000	396.468	79.997	19.995	101.053	19.802	10.730	0.475
654.500	396.742	79.998	19.996	101.053	19.798	11.005	0.507
655.000	396.973	79.997	19.996	101.053	19.800	10.855	0.527
655.500	397.217	79.997	19.994	101.054	19.800	10.876	0.490
656.000	397.458	79.998	19.995	101.054	19.799	10.953	0.480
656.500	397.705	79.997	19.995	101.053	19.801	10.809	0.486
657.000	397.968	79.996	19.995	101.053	19.799	10.942	0.499
657.500	398.249	79.997	19.996	101.052	19.798	10.990	0.527
658.000	398.456	79.999	19.996	101.052	19.801	10.802	0.516
658.500	398.740	79.997	19.995	101.052	19.800	10.864	0.490
659.000	398.931	79.997	19.995	101.054	19.800	10.850	0.483
659.500	399.216	79.998	19.995	101.054	19.800	10.840	0.476
660.000	399.485	79.999	19.995	101.054	19.801	10.822	0.516
660.500	399.728	79.998	19.999	101.054	19.803	10.662	0.533
661.000	399.964	79.998	19.997	101.055	19.800	10.842	0.495
661.500	400.228	79.997	19.998	101.055	19.802	10.745	0.490
662.000	400.482	79.999	19.996	101.055	19.805	10.507	0.509
662.500	400.723	79.998	19.996	101.055	19.804	10.612	0.507
663.000	400.983	79.998	19.996	101.055	19.804	10.573	0.498
663.500	401.225	79.998	19.996	101.054	19.805	10.520	0.501
664.000	401.483	79.998	19.996	101.054	19.806	10.424	0.501
664.500	401.756	79.998	19.996	101.053	19.805	10.546	0.515
665.000	401.989	79.999	19.996	101.054	19.808	10.345	0.518
665.500	402.229	79.998	19.996	101.053	19.808	10.341	0.489
666.000	402.472	79.999	19.996	101.054	19.808	10.295	0.478
666.500	402.749	79.999	19.996	101.053	19.805	10.509	0.502
667.000	403.028	80.000	19.997	101.054	19.808	10.302	0.538
667.500	403.246	80.000	19.995	101.054	19.810	10.175	0.527
668.000	403.487	80.000	19.997	101.054	19.808	10.326	0.478
668.500	403.750	80.000	19.995	101.054	19.805	10.509	0.481
669.000	403.996	80.001	19.996	101.054	19.808	10.348	0.506
669.500	404.287	80.000	19.996	101.053	19.805	10.503	0.523
670.000	404.497	80.000	19.995	101.053	19.806	10.465	0.519
670.500	404.723	79.999	19.995	101.052	19.806	10.467	0.468
671.000	405.006	79.999	19.996	101.052	19.804	10.575	0.473
671.500	405.276	79.999	19.995	101.051	19.804	10.622	0.531
672.000	405.536	79.999	19.996	101.052	19.809	10.284	0.541
672.500	405.747	79.999	19.996	101.052	19.807	10.395	0.500
673.000	406.048	79.999	19.996	101.052	19.807	10.413	0.491
673.500	406.295	79.999	19.996	101.053	19.806	10.479	0.530
674.000	406.542	79.998	19.996	101.053	19.808	10.301	0.521
674.500	406.780	79.999	19.996	101.053	19.810	10.209	0.490
675.000	407.040	79.999	19.996	101.053	19.812	10.019	0.492
675.500	407.307	79.999	19.994	101.053	19.811	10.138	0.513
676.000	407.541	79.999	19.996	101.053	19.809	10.279	0.514
676.500	407.806	79.998	19.996	101.053	19.810	10.205	0.500
677.000	408.055	79.999	19.996	101.053	19.810	10.162	0.506
677.500	408.340	79.999	19.996	101.053	19.811	10.100	0.524
678.000	408.576	79.999	19.996	101.052	19.810	10.190	0.528
678.500	408.843	79.997	19.996	101.052	19.812	10.072	0.512
679.000	409.117	79.998	19.996	101.052	19.812	10.072	0.522
679.500	409.352	79.999	19.996	101.052	19.813	9.996	0.525
680.000	409.591	79.999	19.996	101.053	19.809	10.269	0.491
680.500	409.853	79.999	19.995	101.055	19.814	9.884	0.488
681.000	410.106	79.998	19.996	101.056	19.810	10.161	0.508
681.500	410.380	79.998	19.997	101.056	19.808	10.288	0.521
682.000	410.607	79.999	19.996	101.056	19.811	10.124	0.515
682.500	410.882	79.998	19.997	101.056	19.807	10.373	0.501
683.000	411.128	79.998	19.996	101.055	19.813	9.952	0.511
683.500	411.357	79.999	19.996	101.055	19.812	10.033	0.498
684.000	411.589	79.999	19.995	101.054	19.813	10.000	0.468
684.500	411.873	79.999	19.996	101.053	19.811	10.101	0.489
685.000	412.116	79.999	19.995	101.054	19.814	9.935	0.522
685.500	412.384	79.998	19.995	101.054	19.813	9.990	0.519
686.000	412.650	79.998	19.996	101.054	19.812	10.028	0.522
686.500	412.873	79.998	19.994	101.054	19.810	10.160	0.511
687.000	413.137	79.998	19.996	101.055	19.814	9.915	0.488
687.500	413.376	79.999	19.995	101.055	19.813	10.000	0.495
688.000	413.631	79.999	19.996	101.055	19.815	9.858	0.498
688.500	413.913	79.999	19.996	101.054	19.816	9.795	0.515
689.000	414.143	80.000	19.996	101.052	19.811	10.090	0.525
689.500	414.440	80.000	19.995	101.050	19.813	9.974	0.520
690.000	414.621	80.000	19.995	101.049	19.818	9.624	0.503
690.500	414.910	80.001	19.997	101.049	19.815	9.834	0.474
691.000	415.193	79.999	19.995	101.049	19.812	10.042	0.521
691.500	415.425	80.000	19.996	101.052	19.816	9.782	0.543
692.000	415.695	79.999	19.996	101.054	19.819	9.572	0.508
692.500	415.920	79.999	19.994	101.054	19.818	9.629	0.499
693.000	416.147	79.999	19.996	101.055	19.815	9.865	0.474
693.500	416.423	79.999	19.994	101.056	19.815	9.814	0.478
694.000	416.659	80.000	19.996	101.056	19.816	9.793	0.507
694.500	416.919	80.000	19.997	101.051	19.811	10.110	0.504
695.000	417.163	79.999	19.996	101.050	19.815	9.850	0.500
695.500	417.448	80.000	19.995	101.049	19.814	9.896	0.517
696.000	417.677	79.999	19.996	101.047	19.816	9.771	0.522
696.500	417.914	80.000	19.995	101.047	19.817	9.717	0.490
697.000	418.246	79.999	19.996	101.052	19.820	9.500	0.517
697.500	418.469	80.000	19.996	101.052	19.819	9.567	0.562
698.000	418.701	80.000	19.996	101.052	19.817	9.718	0.505
698.500	418.970	79.999	19.996	101.054	19.818	9.658	0.478
699.000	419.211	79.998	19.996	101.052	19.817	9.695	0.505
699.500	419.445	79.998	19.996	101.049	19.818	9.667	0.492
700.000	419.679	79.998	19.996	101.049	19.816	9.772	0.472
700.500	419.945	79.999	19.996	101.049	19.819	9.582	0.484
701.000	420.209	79.998	19.996	101.047	19.817	9.735	0.515
701.500	420.460	79.999	19.996	101.046	19.819	9.601	0.522
702.000	420.768	79.997	19.996	101.048	19.816	9.781	0.537
702.500	421.005	80.000	19.997	101.048	19.819	9.575	0.552
703.000	421.244	79.997	19.997	101.048	19.819	9.582	0.511
703.500	421.521	79.998	19.996	101.048	19.822	9.337	0.496
704.000	421.764	79.998	19.996	101.048	19.820	9.485	0.518
704.500	422.010	79.998	19.996	101.049	19.822	9.365	0.504
705.000	422.236	79.998	19.997	101.049	19.825	9.175	0.481
705.500	422.520	79.998	19.997	101.049	19.826	9.105	0.491
706.000	422.794	79.997	19.996	101.046	19.825	9.132	0.534
706.500	422.996	79.997	19.996	101.047	19.822	9.355	0.517
707.000	423.259	79.998	19.997	101.047	19.822	9.332	0.471
707.500	423.499	79.999	19.996	101.045	19.821	9.450	0.484
708.000	423.758	79.997	19.996	101.046	19.824	9.229	0.501
708.500	423.965	79.998	19.997	101.049	19.825	9.159	0.482
709.000	424.251	79.997	19.998	101.047	19.821	9.444	0.479
709.500	424.528	79.997	19.998	101.044	19.829	8.917	0.528
710.000	424.767	79.998	19.997	101.040	19.828	8.929	0.539
710.500	425.022	79.996	19.997	101.038	19.827	9.003	0.505
711.000	425.251	79.998	19.997	101.037	19.826	9.060	0.489
711.500	425.571	79.997	19.996	101.036	19.826	9.103	0.516
712.000	425.805	79.998	19.996	101.039	19.829	8.890	0.551
712.500	426.031	79.998	19.997	101.041	19.825	9.146	0.507
713.000	426.270	79.997	19.996	101.040	19.826	9.114	0.463
713.500	426.499	79.997	19.996	101.040	19.829	8.897	0.467
714.000	426.811	79.998	19.996	101.039	19.826	9.081	0.504
714.500	427.027	79.998	19.996	101.040	19.831	8.740	0.534
715.000	427.278	79.999	19.996	101.040	19.831	8.785	0.498
715.500	427.538	79.997	19.996	101.037	19.827	9.036	0.489
716.000	427.804	80.000	19.996	101.034	19.829	8.914	0.518
716.500	428.070	79.998	19.995	101.035	19.831	8.763	0.529
717.000	428.330	79.996	19.996	101.035	19.826	9.072	0.529
717.500	428.606	79.998	19.996	101.036	19.829	8.918	0.531
718.000	428.830	79.997	19.997	101.041	19.830	8.844	0.518
718.500	429.111	79.998	19.995	101.045	19.832	8.684	0.503
719.000	429.372	79.997	19.996	101.043	19.829	8.885	0.523
719.500	429.578	79.998	19.996	101.042	19.832	8.716	0.504
720.000	429.839	79.999	19.995	101.039	19.833	8.610	0.467
720.500	430.097	79.999	19.996	101.034	19.831	8.774	0.493
721.000	430.334	79.998	19.995	101.032	19.834	8.569	0.507
721.500	430.620	79.998	19.995	101.032	19.833	8.629	0.509
722.000	430.840	79.998	19.996	101.034	19.832	8.657	0.514
722.500	431.121	79.998	19.996	101.038	19.831	8.773	0.503
723.000	431.352	79.998	19.996	101.043	19.834	8.578	0.506
723.500	431.616	79.998	19.995	101.039	19.838	8.303	0.503
724.000	431.883	79.999	19.995	101.039	19.834	8.528	0.513
724.500	432.130	79.997	19.995	101.040	19.834	8.561	0.522
725.000	432.385	79.998	19.996	101.039	19.835	8.510	0.508
725.500	432.610	79.998	19.996	101.041	19.836	8.430	0.492
726.000	432.881	79.998	19.995	101.046	19.839	8.228	0.488
726.500	433.084	79.998	19.996	101.049	19.838	8.277	0.485
727.000	433.359	79.997	19.996	101.050	19.836	8.424	0.476
727.500	433.638	79.999	19.996	101.044	19.838	8.240	0.516
728.000	433.905	79.999	19.995	101.039	19.839	8.173	0.549
728.500	434.143	79.999	19.996	101.033	19.839	8.208	0.525
729.000	434.394	79.998	19.996	101.029	19.841	8.074	0.497
729.500	434.642	79.999	19.996	101.027	19.839	8.184	0.494
730.000	434.875	79.998	19.995	101.034	19.844	7.852	0.490
730.500	435.135	79.998	19.995	101.038	19.837	8.324	0.487
731.000	435.398	79.998	19.995	101.044	19.841	8.040	0.508
731.500	435.628	79.998	19.996	101.043	19.844	7.838	0.508
732.000	435.903	79.998	19.996	101.039	19.844	7.834	0.499
732.500	436.176	79.998	19.996	101.036	19.846	7.696	0.527
733.000	436.406	79.998	19.996	101.032	19.845	7.821	0.526
733.500	436.661	79.998	19.995	101.032	19.846	7.761	0.493
734.000	436.915	79.998	19.996	101.034	19.844	7.884	0.497
734.500	437.167	79.999	19.997	101.036	19.844	7.897	0.508
735.000	437.410	79.998	19.996	101.037	19.848	7.622	0.501
735.500	437.666	79.999	19.998	101.039	19.845	7.779	0.497
736.000	437.932	79.997	19.996	101.036	19.848	7.561	0.510
736.500	438.169	79.998	19.996	101.038	19.842	7.983	0.512
737.000	438.410	79.997	19.996	101.035	19.843	7.935	0.491
737.500	438.634	79.998	19.996	101.031	19.844	7.867	0.472
738.000	438.919	79.998	19.996	101.029	19.847	7.648	0.487
738.500	439.173	79.997	19.995	101.027	19.845	7.801	0.524
739.000	439.422	79.996	19.996	101.025	19.849	7.526	0.520
739.500	439.656	79.997	19.995	101.025	19.846	7.702	0.492
740.000	439.929	79.998	19.995	101.025	19.851	7.422	0.495
740.500	440.188	79.998	19.995	101.023	19.844	7.899	0.520
741.000	440.476	79.997	19.995	101.022	19.848	7.615	0.540
741.500	440.697	79.997	19.995	101.020	19.846	7.735	0.528
742.000	440.956	79.997	19.996	101.019	19.845	7.821	0.494
742.500	441.190	79.999	19.995	101.021	19.844	7.832	0.486
743.000	441.470	79.998	19.996	101.024	19.845	7.766	0.504
743.500	441.700	79.998	19.995	101.025	19.851	7.414	0.512
744.000	441.931	79.998	19.996	101.026	19.846	7.709	0.485
744.500	442.176	79.997	19.996	101.027	19.846	7.723	0.468
745.000	442.457	79.997	19.995	101.025	19.848	7.567	0.501
745.500	442.648	79.998	19.995	101.024	19.847	7.628	0.499
746.000	442.965	79.998	19.996	101.022	19.848	7.564	0.490
746.500	443.181	79.999	19.995	101.022	19.852	7.341	0.521
747.000	443.428	80.000	19.997	101.022	19.846	7.709	0.498
747.500	443.672	80.000	19.996	101.021	19.842	7.987	0.477
748.000	443.918	79.998	19.995	101.021	19.846	7.737	0.491
748.500	444.184	79.999	19.995	101.021	19.846	7.725	0.502
749.000	444.441	79.999	19.996	101.021	19.845	7.774	0.518
749.500	444.694	80.001	19.995	101.021	19.847	7.673	0.516
750.000	444.909	80.000	19.995	101.022	19.846	7.726	0.489
750.500	445.138	80.000	19.994	101.026	19.849	7.529	0.456
751.000	445.414	80.000	19.995	101.028	19.849	7.533	0.475
751.500	445.686	80.000	19.997	101.027	19.850	7.467	0.526
752.000	445.919	80.002	19.997	101.030	19.851	7.363	0.527
752.500	446.183	80.001	19.995	101.032	19.850	7.475	0.501
753.000	446.382	80.001	19.995	101.027	19.846	7.703	0.480
753.500	446.675	79.998	19.995	101.024	19.845	7.779	0.477
754.000	446.898	80.001	19.995	101.024	19.851	7.355	0.504
754.500	447.155	80.000	19.995	101.022	19.849	7.543	0.498
755.000	447.389	80.000	19.995	101.019	19.853	7.223	0.486
755.500	447.639	79.999	19.995	101.021	19.854	7.201	0.488
756.000	447.869	79.998	19.995	101.022	19.850	7.475	0.481
756.500	448.106	80.000	19.995	101.025	19.852	7.289	0.473
757.000	448.348	79.999	19.994	101.028	19.851	7.378	0.473
757.500	448.623	79.999	19.994	101.027	19.852	7.322	0.498
758.001	448.869	79.998	19.995	101.025	19.857	6.974	0.519
758.501	449.103	79.999	19.994	101.026	19.856	7.030	0.500
759.000	449.382	79.999	19.995	101.024	19.855	7.147	0.496
759.500	449.621	79.998	19.995	101.024	19.856	7.064	0.516
760.000	449.853	79.999	19.996	101.028	19.855	7.095	0.495
760.500	450.121	80.000	19.996	101.032	19.854	7.193	0.485
761.000	450.352	79.998	19.996	101.034	19.857	6.985	0.499
761.500	450.577	79.998	19.996	101.038	19.857	6.985	0.478
762.000	450.850	79.998	19.995	101.038	19.855	7.090	0.477
762.500	451.116	79.999	19.995	101.035	19.852	7.324	0.518
763.000	451.334	79.998	19.995	101.031	19.855	7.132	0.511
763.500	451.621	79.998	19.995	101.028	19.855	7.112	0.495
764.000	451.862	79.997	19.995	101.024	19.855	7.106	0.517
764.500	452.103	79.999	19.995	101.024	19.857	6.946	0.505
765.000	452.352	79.998	19.996	101.024	19.860	6.772	0.486
765.500	452.611	79.999	19.995	101.025	19.862	6.646	0.499
766.000	452.841	80.000	19.997	101.028	19.858	6.907	0.498
766.500	453.072	79.997	19.996	101.028	19.854	7.158	0.475
767.000	453.332	79.997	19.994	101.026	19.858	6.926	0.476
767.500	453.571	79.997	19.994	101.027	19.861	6.738	0.495
768.000	453.797	79.999	19.996	101.028	19.864	6.520	0.482
768.500	454.049	79.999	19.996	101.029	19.859	6.872	0.471
769.000	454.347	80.000	19.997	101.030	19.862	6.671	0.514
769.500	454.629	79.998	19.996	101.032	19.861	6.684	0.565
770.000	454.839	79.999	19.994	101.031	19.857	6.957	0.536
770.500	455.101	80.000	19.996	101.029	19.862	6.609	0.482
771.000	455.346	79.998	19.995	101.026	19.860	6.784	0.490
771.500	455.615	80.001	19.995	101.024	19.863	6.590	0.511
772.000	455.854	80.001	19.996	101.021	19.861	6.680	0.511
772.501	456.118	80.000	19.996	101.022	19.864	6.511	0.505
773.001	456.378	80.001	19.996	101.022	19.864	6.528	0.514
773.501	456.645	80.002	19.997	101.021	19.866	6.381	0.526
774.001	456.871	80.000	19.995	101.020	19.863	6.558	0.510
774.500	457.113	80.001	19.997	101.019	19.866	6.364	0.480
775.000	457.386	80.002	19.997	101.016	19.866	6.348	0.492
775.500	457.599	80.001	19.996	101.015	19.864	6.476	0.500
776.000	457.875	80.001	19.996	101.016	19.869	6.169	0.487
776.500	458.108	80.001	19.995	101.020	19.866	6.356	0.499
777.000	458.343	80.001	19.995	101.021	19.866	6.338	0.489
777.500	458.629	80.001	19.996	101.024	19.864	6.485	0.495
778.000	458.913	80.002	19.995	101.025	19.868	6.198	0.545
778.500	459.149	80.001	19.996	101.025	19.868	6.200	0.544
779.000	459.430	80.002	19.996	101.022	19.865	6.460	0.518
779.500	459.678	80.001	19.995	101.021	19.866	6.342	0.523
780.000	459.881	80.001	19.996	101.021	19.868	6.259	0.490
780.500	460.185	80.001	19.994	101.021	19.869	6.140	0.479
781.000	460.389	80.000	19.995	101.020	19.867	6.313	0.507
781.500	460.649	80.000	19.995	101.019	19.874	5.812	0.486
782.000	460.909	80.001	19.995	101.018	19.870	6.067	0.492
782.500	461.181	80.000	19.997	101.017	19.874	5.790	0.526
783.000	461.436	80.001	19.997	101.016	19.870	6.121	0.529
783.500	461.650	80.000	19.996	101.021	19.874	5.823	0.498
784.000	461.913	80.000	19.996	101.026	19.869	6.139	0.473
784.500	462.172	80.000	19.996	101.029	19.870	6.102	0.500
785.000	462.435	79.999	19.995	101.032	19.873	5.918	0.522
785.500	462.694	79.998	19.996	101.031	19.872	5.948	0.522
786.000	462.955	79.998	19.997	101.029	19.874	5.832	0.521
786.500	463.210	79.998	19.996	101.025	19.872	5.953	0.518
787.000	463.457	79.999	19.996	101.023	19.875	5.784	0.509
787.500	463.723	79.996	19.996	101.022	19.876	5.667	0.508
788.000	463.995	79.999	19.995	101.022	19.872	5.962	0.525
788.500	464.264	79.997	19.995	101.020	19.874	5.792	0.540
789.000	464.469	79.998	19.995	101.018	19.878	5.569	0.507
789.500	464.752	79.996	19.995	101.020	19.874	5.838	0.481
790.000	464.988	79.999	19.996	101.023	19.876	5.684	0.503
790.500	465.237	79.998	19.996	101.028	19.878	5.577	0.502
791.000	465.537	79.998	19.996	101.033	19.875	5.721	0.517
791.500	465.741	79.997	19.996	101.037	19.874	5.841	0.527
792.000	465.991	79.998	19.997	101.042	19.876	5.691	0.479
792.500	466.284	79.998	19.998	101.044	19.880	5.382	0.498
793.000	466.501	79.997	19.995	101.044	19.875	5.754	0.526
793.500	466.788	79.997	19.997	101.041	19.873	5.909	0.507
794.000	467.016	79.997	19.996	101.035	19.875	5.747	0.510
794.500	467.286	79.998	19.998	101.030	19.875	5.773	0.507
795.000	467.531	79.999	19.996	101.024	19.876	5.680	0.506
795.500	467.790	79.997	19.997	101.020	19.879	5.511	0.509
796.000	468.051	79.999	19.997	101.020	19.876	5.697	0.511
796.501	468.308	79.998	19.996	101.026	19.873	5.882	0.519
797.001	468.568	79.997	19.998	101.028	19.877	5.587	0.517
797.500	468.850	79.997	19.998	101.027	19.877	5.640	0.530
798.000	469.064	79.997	19.996	101.025	19.876	5.712	0.520
798.500	469.329	79.997	19.997	101.023	19.879	5.478	0.488
799.000	469.563	79.998	19.997	101.019	19.877	5.643	0.489
799.500	469.849	79.997	19.997	101.017	19.881	5.356	0.509
800.000	470.077	79.997	19.998	101.016	19.881	5.354	0.517
800.500	470.361	79.998	19.998	101.016	19.879	5.490	0.514
801.000	470.613	79.996	19.997	101.017	19.882	5.282	0.524
801.500	470.899	79.997	19.997	101.019	19.879	5.457	0.537
802.000	471.138	79.997	19.998	101.022	19.883	5.216	0.532
802.500	471.371	79.998	19.997	101.022	19.884	5.146	0.499
803.000	471.680	79.997	19.998	101.024	19.880	5.435	0.507
803.500	471.902	79.997	19.997	101.027	19.879	5.455	0.537
804.000	472.165	79.998	19.997	101.028	19.881	5.339	0.508
804.500	472.404	79.998	19.997	101.027	19.882	5.275	0.493
805.000	472.695	79.997	19.996	101.028	19.882	5.310	0.516
805.500	472.938	79.997	19.996	101.028	19.880	5.437	0.532
806.000	473.213	79.998	19.996	101.023	19.880	5.383	0.526
806.500	473.458	79.999	19.997	101.020	19.880	5.428	0.519
807.000	473.708	79.997	19.997	101.025	19.883	5.232	0.508
807.500	473.969	79.997	19.996	101.030	19.880	5.389	0.502
808.000	474.246	79.997	19.995	101.031	19.884	5.120	0.524
808.500	474.488	79.999	19.997	101.032	19.880	5.437	0.529
809.000	474.760	79.998	19.996	101.031	19.886	4.984	0.517
809.500	475.006	79.997	19.997	101.026	19.883	5.195	0.516
810.000	475.249	79.998	19.995	101.022	19.881	5.343	0.504
810.501	475.533	79.998	19.995	101.020	19.885	5.041	0.508
811.001	475.807	79.998	19.997	101.022	19.879	5.463	0.542
811.500	476.028	79.998	19.995	101.022	19.879	5.505	0.526
812.000	476.254	79.998	19.996	101.021	19.881	5.329	0.471
812.500	476.539	79.997	19.995	101.020	19.880	5.435	0.479
813.000	476.790	79.998	19.994	101.020	19.879	5.504	0.523
813.500	477.054	79.997	19.995	101.017	19.882	5.312	0.526
814.000	477.282	79.997	19.995	101.017	19.882	5.303	0.504
814.500	477.587	79.998	19.995	101.017	19.880	5.432	0.512
815.000	477.830	79.998	19.997	101.018	19.882	5.308	0.540
815.500	478.079	79.998	19.995	101.019	19.883	5.222	0.520
816.000	478.336	79.996	19.996	101.019	19.882	5.264	0.499
816.500	478.566	79.998	19.996	101.019	19.883	5.194	0.496
817.000	478.865	79.996	19.996	101.019	19.885	5.074	0.508
817.500	479.092	79.998	19.996	101.019	19.883	5.222	0.527
818.000	479.327	79.998	19.996	101.020	19.880	5.404	0.494
818.500	479.564	79.998	19.996	101.020	19.884	5.111	0.467
819.000	479.825	79.999	19.996	101.020	19.885	5.052	0.485
819.500	480.113	79.997	19.995	101.020	19.885	5.056	0.524
820.000	480.353	79.997	19.996	101.020	19.886	5.000	0.539
820.500	480.623	79.997	19.995	101.018	19.885	5.091	0.519
821.000	480.824	79.997	19.996	101.019	19.883	5.205	0.490
821.500	481.124	79.996	19.996	101.019	19.886	4.975	0.486
822.000	481.348	79.997	19.996	101.023	19.887	4.917	0.512
822.500	481.643	79.997	19.995	101.024	19.886	5.008	0.521
823.000	481.917	79.997	19.997	101.026	19.881	5.370	0.544
823.500	482.124	79.997	19.996	101.026	19.885	5.103	0.526
824.000	482.380	79.997	19.995	101.027	19.886	4.982	0.472
824.500	482.662	79.997	19.997	101.024	19.884	5.162	0.501
825.000	482.879	79.999	19.996	101.024	19.883	5.227	0.519
825.500	483.148	79.999	19.996	101.023	19.886	4.998	0.492
826.000	483.419	79.998	19.995	101.024	19.885	5.089	0.513
826.500	483.627	79.999	19.995	101.026	19.889	4.829	0.510
827.000	483.928	79.998	19.995	101.025	19.883	5.179	0.494
827.500	484.161	79.997	19.996	101.023	19.891	4.665	0.521
828.000	484.397	79.999	19.995	101.025	19.886	5.011	0.501
828.500	484.658	79.997	19.995	101.024	19.884	5.149	0.483
829.000	484.924	79.998	19.995	101.021	19.886	4.996	0.512
829.500	485.165	79.999	19.995	101.021	19.885	5.066	0.517
830.000	485.405	79.998	19.995	101.020	19.888	4.860	0.494
830.500	485.650	79.999	19.996	101.020	19.889	4.797	0.484
831.000	485.907	79.999	19.995	101.019	19.890	4.762	0.493
831.500	486.169	79.997	19.996	101.020	19.887	4.908	0.510
832.000	486.406	79.999	19.996	101.020	19.887	4.930	0.509
832.500	486.715	79.999	19.996	101.021	19.886	5.035	0.522
833.000	486.915	80.000	19.996	101.021	19.888	4.860	0.527
833.500	487.201	79.999	19.995	101.020	19.885	5.079	0.498
834.000	487.438	80.001	19.996	101.018	19.883	5.192	0.505
834.500	487.676	80.000	19.995	101.018	19.887	4.949	0.499
835.000	487.949	79.997	19.995	101.017	19.887	4.919	0.493
835.501	488.196	80.001	19.996	101.017	19.887	4.917	0.515
836.000	488.456	79.999	19.996	101.018	19.886	5.022	0.514
836.500	488.694	80.000	19.997	101.019	19.889	4.827	0.503
837.000	488.945	80.000	19.996	101.019	19.884	5.131	0.494
837.500	489.193	79.999	19.995	101.021	19.888	4.891	0.494
838.000	489.450	80.000	19.997	101.022	19.889	4.832	0.502
838.500	489.713	79.999	19.994	101.020	19.888	4.895	0.513
839.000	489.936	80.000	19.996	101.019	19.889	4.801	0.503
839.500	490.224	80.000	19.996	101.018	19.891	4.678	0.498
840.000	490.451	79.998	19.996	101.016	19.889	4.786	0.513
840.500	490.724	79.998	19.995	101.016	19.890	4.730	0.507
841.000	490.964	79.998	19.996	101.016	19.887	4.916	0.506
841.500	491.238	79.999	19.996	101.016	19.890	4.750	0.513
842.000	491.476	80.000	19.995	101.016	19.890	4.761	0.513
842.500	491.714	80.000	19.995	101.016	19.893	4.560	0.494
843.000	491.956	80.001	19.996	101.016	19.890	4.766	0.478
843.500	492.254	79.998	19.995	101.016	19.893	4.532	0.510
844.000	492.474	80.000	19.996	101.016	19.892	4.578	0.529
844.500	492.763	79.999	19.996	101.017	19.888	4.897	0.513
845.000	492.981	79.998	19.996	101.016	19.890	4.735	0.508
845.500	493.256	80.000	19.995	101.017	19.888	4.880	0.500
846.000	493.508	80.000	19.996	101.016	19.887	4.908	0.510
846.500	493.773	79.998	19.996	101.015	19.892	4.609	0.522
847.000	494.013	79.999	19.995	101.015	19.886	4.978	0.511
847.500	494.251	79.999	19.995	101.015	19.888	4.873	0.492
848.000	494.531	80.000	19.995	101.014	19.888	4.878	0.498
848.500	494.759	79.999	19.995	101.015	19.889	4.781	0.512
849.000	494.999	79.999	19.996	101.015	19.890	4.702	0.488
849.500	495.274	79.999	19.995	101.015	19.889	4.803	0.492
850.000	495.534	79.999	19.995	101.015	19.889	4.775	0.525
850.500	495.793	79.999	19.996	101.016	19.892	4.578	0.527
851.000	496.051	79.999	19.995	101.018	19.892	4.622	0.518
851.500	496.321	79.997	19.995	101.023	19.892	4.619	0.522
852.000	496.564	79.999	19.996	101.026	19.890	4.716	0.520
852.500	496.828	79.999	19.996	101.027	19.891	4.633	0.510
853.000	497.076	80.000	19.995	101.026	19.886	4.987	0.510
853.500	497.319	80.000	19.994	101.024	19.889	4.792	0.502
854.000	497.598	79.999	19.996	101.018	19.889	4.814	0.507
854.500	497.806	79.999	19.995	101.016	19.890	4.762	0.504
855.000	498.070	80.000	19.994	101.016	19.891	4.652	0.479
855.500	498.334	80.001	19.996	101.016	19.890	4.724	0.500
856.000	498.601	79.999	19.996	101.015	19.892	4.608	0.530
856.500	498.848	79.998	19.997	101.015	19.892	4.571	0.522
857.000	499.125	80.000	19.997	101.015	19.893	4.529	0.519
857.500	499.365	80.000	19.996	101.014	19.890	4.766	0.521
858.000	499.628	80.000	19.998	101.014	19.890	4.724	0.510
858.500	499.870	80.001	19.998	101.014	19.892	4.604	0.504
859.000	500.113	80.000	19.994	101.015	19.890	4.742	0.494
859.500	500.428	80.001	19.999	101.014	19.891	4.667	0.521
860.000	500.648	80.000	19.994	101.014	19.892	4.567	0.546
860.501	500.880	80.001	19.998	101.014	19.892	4.604	0.494
861.000	501.165	80.000	19.995	101.014	19.893	4.530	0.485
861.500	501.410	80.000	19.997	101.013	19.890	4.705	0.524
862.000	501.670	80.000	19.995	101.012	19.891	4.676	0.518
862.500	501.885	79.999	19.993	101.013	19.891	4.658	0.490
863.000	502.147	79.998	19.996	101.013	19.891	4.665	0.476
863.501	502.419	80.001	19.997	101.014	19.888	4.882	0.505
864.001	502.640	80.000	19.997	101.014	19.894	4.448	0.513
864.500	502.907	79.999	19.996	101.015	19.892	4.595	0.491
865.000	503.173	80.000	19.998	101.015	19.895	4.401	0.511
865.500	503.413	79.999	19.998	101.015	19.889	4.823	0.520
866.000	503.671	79.999	19.997	101.015	19.896	4.357	0.502
866.501	503.953	79.998	19.997	101.016	19.896	4.322	0.519
867.000	504.209	79.999	19.997	101.019	19.893	4.543	0.539
867.500	504.442	79.998	19.996	101.020	19.890	4.702	0.513
868.000	504.718	79.997	19.996	101.021	19.892	4.578	0.499
868.500	504.945	79.998	19.997	101.023	19.895	4.379	0.505
869.000	505.202	79.995	19.996	101.021	19.891	4.632	0.493
869.500	505.498	79.998	19.996	101.017	19.890	4.715	0.519
870.000	505.716	79.997	19.997	101.016	19.893	4.551	0.534
870.500	505.991	79.996	19.995	101.016	19.892	4.578	0.504
871.000	506.246	79.999	19.995	101.016	19.893	4.538	0.511
871.500	506.503	79.997	19.996	101.016	19.892	4.565	0.521
872.000	506.756	79.998	19.996	101.017	19.894	4.429	0.511
872.500	506.956	79.997	19.995	101.017	19.893	4.547	0.482
873.000	507.258	79.996	19.995	101.018	19.895	4.368	0.478
873.500	507.511	79.997	19.997	101.019	19.893	4.562	0.528
874.000	507.755	79.997	19.995	101.020	19.893	4.517	0.526
874.500	508.032	79.999	19.997	101.019	19.893	4.527	0.509
875.000	508.285	79.998	19.997	101.020	19.893	4.523	0.526
875.500	508.537	79.997	19.995	101.018	19.894	4.492	0.518
876.000	508.832	79.995	19.997	101.018	19.896	4.307	0.526
876.500	509.034	79.998	19.995	101.019	19.888	4.844	0.522
877.000	509.306	79.996	19.995	101.019	19.896	4.331	0.486
877.500	509.549	79.996	19.995	101.019	19.897	4.283	0.495
878.000	509.814	79.997	19.996	101.019	19.898	4.182	0.511
878.500	510.074	79.996	19.996	101.019	19.895	4.403	0.516
879.000	510.297	79.997	19.995	101.020	19.898	4.206	0.504
879.500	510.557	79.995	19.995	101.022	19.894	4.462	0.483
880.000	510.794	79.998	19.997	101.022	19.896	4.306	0.490
880.500	511.050	79.996	19.997	101.023	19.896	4.324	0.495
881.000	511.306	79.997	19.997	101.023	19.897	4.223	0.503
881.500	511.561	79.998	19.996	101.021	19.896	4.342	0.511
882.000	511.788	79.998	19.997	101.020	19.896	4.311	0.497
882.500	512.080	79.997	19.997	101.019	19.900	4.020	0.501
883.000	512.316	79.997	19.997	101.018	19.902	3.922	0.524
883.500	512.544	79.997	19.997	101.018	19.898	4.215	0.496
884.000	512.840	79.997	19.996	101.017	19.900	4.059	0.494
884.500	513.051	79.996	19.996	101.016	19.893	4.516	0.515
885.000	513.329	79.998	19.997	101.016	19.896	4.320	0.498
885.500	513.558	79.997	19.998	101.016	19.893	4.495	0.498
886.000	513.830	79.998	19.997	101.016	19.897	4.269	0.504
886.500	514.099	79.997	19.997	101.016	19.894	4.435	0.521
887.000	514.382	79.998	19.996	101.017	19.897	4.267	0.547
887.500	514.629	79.997	19.996	101.018	19.897	4.263	0.541
888.000	514.879	79.996	19.996	101.018	19.895	4.381	0.513
888.500	515.116	79.998	19.998	101.018	19.894	4.431	0.492
889.000	515.417	79.998	19.997	101.018	19.893	4.534	0.513
889.500	515.681	79.997	19.996	101.018	19.895	4.398	0.551
890.000	515.934	79.997	19.997	101.017	19.893	4.541	0.540
890.500	516.144	79.997	19.996	101.017	19.897	4.269	0.490
891.000	516.418	79.996	19.995	101.016	19.898	4.200	0.474
891.500	516.653	79.996	19.996	101.017	19.900	4.055	0.497
892.000	516.939	79.997	19.997	101.016	19.897	4.254	0.515
892.500	517.191	79.997	19.996	101.016	19.898	4.171	0.530
893.000	517.482	79.996	19.997	101.016	19.897	4.261	0.541
893.500	517.703	79.995	19.996	101.017	19.902	3.900	0.527
894.000	517.961	79.997	19.996	101.016	19.899	4.088	0.495
894.500	518.235	79.997	19.996	101.017	19.899	4.123	0.505
895.000	518.489	79.996	19.995	101.017	19.898	4.156	0.530
895.500	518.728	79.995	19.996	101.018	19.902	3.942	0.511
896.000	519.000	79.997	19.996	101.018	19.900	4.071	0.502
896.500	519.265	79.997	19.997	101.018	19.898	4.215	0.524
897.000	519.512	79.996	19.997	101.018	19.897	4.261	0.524
897.500	519.761	79.998	19.996	101.018	19.901	3.976	0.504
898.000	520.022	79.996	19.997	101.017	19.899	4.134	0.503
898.500	520.238	79.997	19.996	101.018	19.902	3.895	0.493
899.000	520.501	79.998	19.997	101.018	19.901	3.985	0.477
899.500	520.777	79.998	19.996	101.018	19.902	3.886	0.509
900.000	521.047	79.996	19.997	101.017	19.897	4.260	0.543
900.500	521.232	79.997	19.996	101.017	19.901	3.994	0.500
901.000	521.533	79.996	19.997	101.017	19.901	4.014	0.470
901.500	521.786	79.996	19.997	101.016	19.907	3.576	0.520
902.000	522.005	79.997	19.996	101.016	19.900	4.031	0.513
902.500	522.267	79.998	19.996	101.016	19.900	4.073	0.477
903.000	522.545	79.997	19.996	101.015	19.906	3.672	0.511
903.500	522.786	79.998	19.997	101.015	19.900	4.059	0.530
904.000	523.026	79.995	19.996	101.015	19.901	4.009	0.500
904.500	523.280	79.996	19.997	101.015	19.905	3.694	0.487
905.001	523.518	79.997	19.996	101.014	19.905	3.733	0.493
905.501	523.795	79.997	19.996	101.014	19.903	3.878	0.504
906.000	524.061	79.997	19.996	101.014	19.904	3.758	0.529
906.500	524.282	79.998	19.995	101.014	19.904	3.779	0.515
907.000	524.556	79.997	19.996	101.014	19.901	3.990	0.491
907.500	524.794	79.998	19.997	101.016	19.903	3.847	0.504
908.000	525.067	79.999	19.995	101.016	19.905	3.698	0.512
908.500	525.295	79.999	19.997	101.017	19.904	3.814	0.506
909.000	525.538	79.998	19.993	101.018	19.902	3.913	0.486
909.500	525.769	79.998	19.996	101.019	19.900	4.035	0.472
910.000	526.032	79.998	19.996	101.018	19.906	3.663	0.484
910.500	526.261	79.998	19.996	101.019	19.902	3.932	0.493
911.000	526.555	79.997	19.995	101.019	19.904	3.791	0.507
911.500	526.791	79.999	19.995	101.018	19.905	3.710	0.527
912.000	527.042	79.999	19.996	101.017	19.906	3.633	0.508
912.500	527.269	79.998	19.996	101.016	19.905	3.712	0.483
913.000	527.530	79.998	19.996	101.015	19.900	4.070	0.483
913.500	527.748	79.999	19.996	101.015	19.899	4.088	0.483
914.000	528.038	79.998	19.995	101.015	19.903	3.847	0.493
914.501	528.315	79.999	19.997	101.015	19.906	3.644	0.538
915.001	528.508	79.999	19.996	101.018	19.902	3.906	0.519
915.500	528.779	80.001	19.999	101.020	19.904	3.786	0.467
916.000	529.023	79.999	19.996	101.021	19.906	3.642	0.489
916.500	529.289	80.001	19.995	101.020	19.901	3.957	0.512
917.000	529.524	80.001	19.997	101.020	19.907	3.598	0.505
917.500	529.783	80.000	19.995	101.019	19.903	3.837	0.497
918.000	530.020	80.000	19.997	101.017	19.905	3.736	0.495
918.500	530.261	80.000	19.997	101.016	19.904	3.758	0.487
919.000	530.523	80.001	19.996	101.018	19.898	4.212	0.491
919.500	530.778	80.000	19.996	101.018	19.906	3.661	0.510
920.000	531.013	79.999	19.996	101.017	19.904	3.755	0.503
920.500	531.237	79.999	19.995	101.018	19.905	3.729	0.475
921.000	531.483	79.999	19.996	101.018	19.905	3.742	0.465
921.500	531.747	80.000	19.997	101.016	19.906	3.659	0.490
922.000	531.980	80.000	19.997	101.016	19.903	3.876	0.503
922.500	532.237	80.000	19.997	101.016	19.906	3.672	0.494
923.000	532.487	79.999	19.996	101.015	19.903	3.817	0.499
923.500	532.717	80.000	19.996	101.015	19.906	3.618	0.494
924.000	532.971	79.999	19.997	101.015	19.903	3.849	0.482
924.500	533.262	79.999	19.995	101.015	19.906	3.618	0.515
925.000	533.472	79.999	19.995	101.014	19.902	3.902	0.523
925.500	533.742	79.999	19.997	101.013	19.899	4.145	0.490
926.000	534.007	80.000	19.997	101.013	19.902	3.897	0.508
926.500	534.234	79.998	19.996	101.013	19.901	4.003	0.513
927.000	534.484	79.997	19.995	101.013	19.906	3.637	0.485
927.500	534.692	79.999	19.995	101.013	19.902	3.909	0.468
928.000	534.988	79.998	19.995	101.013	19.901	3.985	0.481
928.500	535.270	79.998	19.998	101.013	19.904	3.814	0.541
929.000	535.489	79.999	19.997	101.013	19.904	3.769	0.539
929.500	535.754	80.000	19.997	101.015	19.905	3.734	0.493
930.000	536.011	80.000	19.997	101.015	19.905	3.738	0.503
930.500	536.252	79.998	19.995	101.018	19.902	3.919	0.510
931.000	536.471	79.999	19.996	101.019	19.904	3.788	0.479
931.500	536.743	80.000	19.995	101.020	19.905	3.710	0.476
932.000	537.002	79.999	19.996	101.018	19.907	3.546	0.511
932.500	537.235	79.998	19.996	101.018	19.905	3.733	0.512
933.000	537.513	80.000	19.995	101.016	19.904	3.747	0.501
933.500	537.707	79.999	19.996	101.014	19.905	3.734	0.491
934.000	537.965	80.000	19.996	101.014	19.909	3.445	0.462
934.500	538.222	80.000	19.995	101.016	19.906	3.659	0.484
935.000	538.471	79.998	19.996	101.018	19.906	3.642	0.510
935.500	538.726	79.999	19.996	101.018	19.906	3.652	0.505
936.000	538.984	80.000	19.996	101.019	19.906	3.631	0.509
936.500	539.257	79.999	19.995	101.018	19.903	3.827	0.522
937.000	539.503	79.999	19.995	101.017	19.908	3.478	0.524
937.500	539.728	80.000	19.996	101.016	19.907	3.587	0.495
938.000	539.968	80.001	19.995	101.016	19.911	3.326	0.469
938.500	540.226	80.001	19.996	101.016	19.905	3.698	0.482
939.000	540.467	80.000	19.994	101.017	19.907	3.580	0.498
939.500	540.729	80.000	19.994	101.018	19.904	3.777	0.502
940.000	540.988	80.000	19.995	101.017	19.905	3.725	0.512
940.500	541.190	79.999	19.994	101.017	19.905	3.685	0.491
941.000	541.472	80.001	19.996	101.016	19.896	4.309	0.472
941.500	541.734	80.001	19.996	101.016	19.906	3.628	0.514
942.000	542.008	80.000	19.995	101.015	19.901	4.007	0.540
942.500	542.234	79.999	19.996	101.016	19.901	3.987	0.518
943.000	542.446	80.001	19.995	101.016	19.906	3.652	0.469
943.500	542.709	80.000	19.994	101.017	19.900	4.079	0.456
944.000	542.967	80.000	19.995	101.016	19.905	3.714	0.498
944.500	543.243	80.000	19.995	101.017	19.900	4.027	0.528
945.000	543.426	80.000	19.996	101.017	19.902	3.886	0.496
945.500	543.697	79.999	19.995	101.017	19.907	3.545	0.457
946.000	543.958	80.001	19.997	101.016	19.903	3.876	0.493
946.500	544.200	80.000	19.994	101.017	19.900	4.031	0.518
947.000	544.420	80.000	19.994	101.016	19.906	3.648	0.483
947.500	544.676	79.999	19.997	101.018	19.904	3.764	0.469
948.000	544.938	79.997	19.995	101.019	19.908	3.482	0.497
948.500	545.176	80.000	19.996	101.020	19.903	3.840	0.509
949.000	545.429	79.999	19.996	101.020	19.903	3.816	0.495
949.500	545.701	79.998	19.996	101.020	19.903	3.882	0.508
950.000	545.947	79.998	19.995	101.018	19.904	3.784	0.521
950.500	546.168	79.997	19.996	101.018	19.903	3.867	0.493
951.000	546.453	79.998	19.997	101.018	19.905	3.690	0.487
951.500	546.705	79.998	19.995	101.019	19.901	3.980	0.522
952.000	546.909	79.998	19.996	101.019	19.902	3.932	0.497
952.500	547.191	79.998	19.997	101.019	19.900	4.068	0.471
953.000	547.443	79.997	19.995	101.020	19.906	3.672	0.509
953.500	547.715	79.998	19.997	101.020	19.902	3.886	0.529
954.000	547.927	79.998	19.997	101.020	19.910	3.360	0.504
954.500	548.189	79.997	19.996	101.019	19.910	3.392	0.479
955.000	548.389	79.997	19.996	101.019	19.904	3.797	0.468
955.500	548.671	79.997	20.000	101.018	19.911	3.311	0.472
956.000	548.950	79.998	19.996	101.018	19.908	3.475	0.522
956.500	549.193	79.998	19.997	101.018	19.908	3.535	0.541
957.000	549.408	79.997	19.996	101.019	19.906	3.626	0.490
957.500	549.693	79.998	19.997	101.020	19.911	3.292	0.479
958.000	549.891	79.999	19.997	101.020	19.909	3.473	0.491
958.500	550.123	79.997	19.996	101.020	19.912	3.206	0.456
959.000	550.416	79.999	19.999	101.020	19.911	3.333	0.478
959.500	550.692	79.999	19.996	101.020	19.907	3.552	0.548
960.000	550.891	79.994	19.995	101.019	19.906	3.654	0.522
960.500	551.137	80.000	19.998	101.019	19.906	3.670	0.460
961.000	551.420	79.999	19.997	101.020	19.913	3.188	0.487
961.500	551.646	79.997	19.996	101.020	19.906	3.648	0.519
962.000	551.912	79.999	19.998	101.020	19.907	3.552	0.501
962.500	552.152	79.997	19.996	101.020	19.907	3.580	0.499
963.000	552.350	79.998	19.996	101.020	19.907	3.585	0.471
963.500	552.639	79.998	19.997	101.019	19.904	3.771	0.462
964.000	552.865	79.999	19.997	101.019	19.910	3.396	0.501
964.500	553.116	79.997	19.997	101.019	19.911	3.292	0.496
965.000	553.358	79.998	19.996	101.018	19.908	3.486	0.485
965.500	553.654	79.997	19.996	101.018	19.909	3.440	0.516
966.000	553.905	79.998	19.997	101.018	19.903	3.871	0.543
966.500	554.129	80.000	19.997	101.017	19.904	3.814	0.511
967.000	554.351	79.998	19.996	101.017	19.906	3.626	0.460
967.500	554.661	79.997	19.996	101.018	19.911	3.272	0.489
968.001	554.918	79.997	19.996	101.018	19.901	3.952	0.550
968.501	555.164	79.997	19.997	101.021	19.905	3.727	0.536
969.000	555.376	79.997	19.996	101.023	19.905	3.702	0.481
969.500	555.667	79.997	19.995	101.024	19.904	3.794	0.480
970.000	555.910	79.999	19.996	101.026	19.906	3.647	0.518
970.500	556.159	79.998	19.995	101.027	19.900	4.056	0.513
971.000	556.423	79.999	19.996	101.025	19.902	3.896	0.503
971.500	556.657	79.997	19.998	101.028	19.904	3.798	0.506
972.000	556.932	80.000	19.996	101.026	19.898	4.213	0.504
972.500	557.138	79.999	19.996	101.025	19.901	3.979	0.495
973.000	557.427	79.997	19.996	101.024	19.904	3.802	0.488
973.500	557.653	80.000	19.996	101.023	19.904	3.750	0.505
974.000	557.903	79.997	19.996	101.023	19.893	4.530	0.496
974.500	558.150	79.997	19.997	101.023	19.898	4.170	0.486
975.000	558.419	79.999	19.995	101.021	19.901	3.994	0.506
975.500	558.683	79.999	19.996	101.021	19.895	4.379	0.524
976.000	558.923	80.000	19.999	101.020	19.902	3.903	0.519
976.500	559.116	79.998	19.998	101.017	19.905	3.682	0.468
977.000	559.366	79.998	19.998	101.018	19.899	4.146	0.438
977.500	559.621	79.997	19.995	101.019	19.904	3.761	0.474
978.000	559.883	79.999	19.998	101.019	19.901	4.016	0.511
978.500	560.137	79.999	19.997	101.020	19.904	3.782	0.517
979.000	560.413	79.998	19.998	101.020	19.905	3.739	0.523
979.500	560.633	79.996	19.997	101.019	19.900	4.067	0.513
980.000	560.922	79.998	19.998	101.024	19.904	3.798	0.503
980.500	561.151	79.995	19.997	101.026	19.909	3.463	0.514
981.000	561.395	79.999	19.999	101.032	19.909	3.472	0.495
981.500	561.683	79.997	19.999	101.037	19.908	3.525	0.502
982.000	561.925	79.995	19.997	101.042	19.903	3.839	0.531
982.500	562.193	79.998	19.997	101.043	19.903	3.839	0.520
983.000	562.426	79.997	19.995	101.046	19.903	3.817	0.506
983.500	562.697	79.997	19.999	101.045	19.902	3.905	0.503
984.000	562.936	79.998	19.996	101.047	19.905	3.721	0.507
984.500	563.189	79.995	19.999	101.047	19.903	3.874	0.501
985.000	563.461	79.997	19.997	101.046	19.901	3.953	0.508
985.500	563.725	79.995	19.997	101.048	19.903	3.876	0.530
986.000	563.980	79.996	19.996	101.048	19.901	4.009	0.527
986.500	564.234	79.995	19.997	101.048	19.902	3.931	0.514
987.000	564.521	79.998	19.998	101.049	19.904	3.802	0.525
987.500	564.735	79.997	20.000	101.048	19.899	4.125	0.521
988.000	565.013	79.997	19.996	101.045	19.898	4.220	0.497
988.500	565.288	79.998	19.998	101.045	19.907	3.546	0.522
989.000	565.595	79.997	19.994	101.046	19.902	3.935	0.568
989.500	565.847	79.998	19.998	101.045	19.902	3.903	0.571
990.000	566.129	79.998	19.997	101.042	19.904	3.794	0.546
990.500	566.422	79.999	19.997	101.043	19.901	3.971	0.555
991.000	566.669	79.999	19.996	101.043	19.903	3.881	0.558
991.500	566.963	79.999	19.998	101.043	19.902	3.911	0.540
992.000	567.234	79.998	19.996	101.043	19.911	3.332	0.553
992.500	567.512	80.001	19.997	101.043	19.904	3.791	0.557
993.000	567.801	80.001	19.996	101.045	19.901	3.970	0.558
993.500	568.096	79.998	19.997	101.045	19.903	3.820	0.575
994.000	568.403	79.999	19.995	101.045	19.902	3.924	0.593
994.500	568.689	79.999	19.997	101.047	19.900	4.025	0.598
995.000	568.962	80.000	19.999	101.051	19.898	4.182	0.576
995.500	569.232	80.002	19.999	101.052	19.903	3.833	0.551
996.000	569.534	79.999	19.996	101.053	19.903	3.865	0.558
996.500	569.824	80.000	19.995	101.054	19.900	4.023	0.582
997.000	570.109	80.001	19.997	101.054	19.902	3.942	0.583
997.500	570.382	80.002	19.998	101.053	19.900	4.078	0.567
998.000	570.655	80.000	19.996	101.052	19.899	4.149	0.552
998.500	570.976	80.001	19.995	101.051	19.900	4.045	0.570
999.000	571.200	80.000	19.997	101.050	19.900	4.025	0.569
999.500	571.524	80.002	19.999	101.047	19.900	4.041	0.547
1000.000	571.788	80.000	19.995	101.046	19.906	3.616	0.568
1000.500	572.087	80.000	19.996	101.045	19.901	3.990	0.575
1001.000	572.399	79.998	19.997	101.043	19.901	3.993	0.586
1001.500	572.668	79.998	19.994	101.043	19.901	4.016	0.596
1002.000	572.952	79.999	19.998	101.047	19.902	3.914	0.567
1002.500	573.273	80.001	19.995	101.049	19.906	3.645	0.580
1003.000	573.538	79.999	19.995	101.051	19.902	3.907	0.595
1003.500	573.843	79.999	19.994	101.052	19.896	4.303	0.577
1004.000	574.183	80.002	19.993	101.051	19.901	4.005	0.608
1004.500	574.472	79.998	19.996	101.048	19.903	3.883	0.637
1005.001	574.781	80.000	19.996	101.048	19.906	3.638	0.613
1005.501	575.072	79.999	19.995	101.049	19.907	3.590	0.599
1006.000	575.373	79.998	19.997	101.050	19.902	3.944	0.596
1006.500	575.655	79.998	19.997	101.049	19.900	4.041	0.587
1007.000	575.948	80.000	19.996	101.050	19.902	3.936	0.579
1007.500	576.240	80.001	19.996	101.050	19.900	4.036	0.580
1008.000	576.538	79.998	19.996	101.050	19.903	3.840	0.588
1008.500	576.832	79.997	19.995	101.050	19.902	3.899	0.591
1009.000	577.126	80.000	19.995	101.053	19.905	3.746	0.590
1009.500	577.394	79.999	19.997	101.054	19.903	3.835	0.575
1010.000	577.709	79.999	19.997	101.049	19.900	4.052	0.573
1010.500	577.975	79.996	19.995	101.045	19.900	4.050	0.582
1011.001	578.251	79.998	19.996	101.041	19.902	3.951	0.561
1011.500	578.564	79.998	19.997	101.041	19.899	4.103	0.565
1012.000	578.840	79.998	19.995	101.041	19.900	4.024	0.589
1012.500	579.141	80.000	19.997	101.046	19.902	3.886	0.583
1013.000	579.423	80.000	19.996	101.048	19.898	4.159	0.580
1013.500	579.737	79.996	19.996	101.048	19.900	4.085	0.589
1014.000	580.034	80.000	19.997	101.046	19.904	3.811	0.603
1014.500	580.343	79.998	19.997	101.046	19.903	3.846	0.609
1015.000	580.623	80.000	19.996	101.046	19.902	3.907	0.598
1015.500	580.928	80.000	19.997	101.048	19.900	4.026	0.586
1016.000	581.241	79.998	19.994	101.050	19.900	4.021	0.602
1016.500	581.507	80.000	19.996	101.051	19.902	3.918	0.599
1017.000	581.800	79.998	19.996	101.050	19.905	3.735	0.569
1017.500	582.074	79.999	19.997	101.047	19.900	4.062	0.563
1018.000	582.396	79.999	19.998	101.045	19.899	4.091	0.582
1018.500	582.644	79.999	19.996	101.043	19.903	3.872	0.583
1019.000	582.967	80.000	19.996	101.039	19.901	4.015	0.570
1019.500	583.252	80.000	19.997	101.034	19.902	3.949	0.590
1020.000	583.587	80.002	19.995	101.035	19.899	4.109	0.614
1020.500	583.853	80.001	19.994	101.033	19.899	4.091	0.610
1021.000	584.124	80.001	19.997	101.033	19.903	3.866	0.569
1021.500	584.409	79.997	19.997	101.032	19.900	4.072	0.547
1022.000	584.703	80.002	19.997	101.032	19.903	3.868	0.567
1022.500	585.005	80.000	19.996	101.030	19.903	3.848	0.587
1023.000	585.328	80.002	19.998	101.028	19.903	3.855	0.610
1023.500	585.571	80.000	19.998	101.028	19.905	3.739	0.596
1024.000	585.875	80.000	19.994	101.032	19.903	3.875	0.557
1024.500	586.177	80.001	19.995	101.038	19.900	4.025	0.577
1025.000	586.466	80.000	19.994	101.042	19.901	3.966	0.598
1025.500	586.758	80.000	19.994	101.041	19.905	3.689	0.586
1026.001	586.995	80.001	19.995	101.040	19.899	4.100	0.555
1026.501	587.296	80.000	19.996	101.039	19.899	4.117	0.534
1027.001	587.593	80.001	19.993	101.038	19.902	3.900	0.568
1027.501	587.906	79.998	19.994	101.040	19.899	4.112	0.604
1028.000	588.172	80.000	19.995	101.045	19.900	4.088	0.594
1028.500	588.498	79.999	19.995	101.049	19.898	4.202	0.585
1029.000	588.740	80.000	19.993	101.049	19.900	4.042	0.580
1029.500	589.054	80.000	19.996	101.045	19.907	3.561	0.562
1030.000	589.339	79.999	19.995	101.042	19.901	3.986	0.577
1030.500	589.642	79.999	19.994	101.037	19.898	4.156	0.594
1031.000	589.936	79.999	19.996	101.033	19.899	4.110	0.593
1031.500	590.224	79.998	19.994	101.030	19.899	4.132	0.589
1032.000	590.511	79.998	19.994	101.031	19.897	4.242	0.578
1032.500	590.770	79.998	19.997	101.031	19.904	3.800	0.560
1033.000	591.045	79.996	19.997	101.036	19.899	4.109	0.540
1033.500	591.357	79.998	19.995	101.042	19.899	4.146	0.561
1034.000	591.631	79.997	19.996	101.045	19.900	4.071	0.586
1034.500	591.908	79.996	19.995	101.046	19.896	4.325	0.568
1035.000	592.192	79.997	19.997	101.044	19.900	4.058	0.556
1035.500	592.458	79.998	19.995	101.042	19.900	4.027	0.555
1036.000	592.792	79.999	19.996	101.041	19.895	4.410	0.575
1036.500	593.086	79.998	19.997	101.042	19.899	4.100	0.614
1037.000	593.360	79.999	19.994	101.046	19.906	3.673	0.598
1037.500	593.669	79.997	19.996	101.050	19.901	4.008	0.576
1038.000	593.922	79.997	19.994	101.051	19.899	4.089	0.573
1038.500	594.196	80.000	19.996	101.053	19.903	3.850	0.544
1039.000	594.514	79.999	19.996	101.051	19.903	3.870	0.559
1039.500	594.806	80.001	19.997	101.050	19.902	3.920	0.601
1040.000	595.113	79.998	19.997	101.052	19.899	4.152	0.605
1040.500	595.359	79.998	19.996	101.051	19.898	4.200	0.576
1041.000	595.643	79.998	19.996	101.049	19.900	4.042	0.542
1041.500	595.902	79.996	19.995	101.050	19.898	4.185	0.537
1042.000	596.222	79.999	19.998	101.049	19.900	4.021	0.561
1042.500	596.484	79.997	19.995	101.046	19.900	4.080	0.580
1043.000	596.754	80.000	19.995	101.044	19.898	4.178	0.557
1043.501	597.073	79.997	19.997	101.039	19.900	4.056	0.561
1044.001	597.378	79.999	19.998	101.035	19.898	4.176	0.606
1044.502	597.642	79.996	19.997	101.036	19.901	3.989	0.596
1045.001	597.921	79.998	19.996	101.036	19.900	4.074	0.556
1045.500	598.163	79.998	19.995	101.039	19.900	4.036	0.532
1046.000	598.499	79.997	19.996	101.042	19.899	4.124	0.549
1046.500	598.763	79.998	19.999	101.045	19.898	4.174	0.589
1047.000	599.062	79.998	19.996	101.046	19.896	4.346	0.582
1047.500	599.348	79.999	19.996	101.047	19.895	4.414	0.574
1048.000	599.603	79.998	19.998	101.045	19.896	4.327	0.563
1048.500	599.922	79.998	19.997	101.048	19.900	4.036	0.558
1049.000	600.192	79.999	19.996	101.048	19.902	3.932	0.581
1049.500	600.461	80.000	19.996	101.049	19.896	4.343	0.564
1050.000	600.746	79.999	19.996	101.048	19.903	3.826	0.547
1050.500	601.010	79.998	19.998	101.049	19.900	4.054	0.551
1051.000	601.298	80.000	19.998	101.050	19.903	3.820	0.551
1051.500	601.602	79.999	19.997	101.050	19.899	4.117	0.572
1052.000	601.876	79.999	19.998	101.050	19.899	4.128	0.585
1052.500	602.166	79.998	19.997	101.052	19.897	4.286	0.571
1053.000	602.442	79.998	19.997	101.052	19.899	4.096	0.565
1053.500	602.751	79.999	19.996	101.052	19.900	4.073	0.575
1054.000	602.978	79.998	19.997	101.046	19.895	4.404	0.560
1054.500	603.301	79.998	19.995	101.042	19.898	4.203	0.543
1055.000	603.574	79.999	19.997	101.036	19.899	4.115	0.573
1055.500	603.815	79.998	19.997	101.035	19.900	4.029	0.555
1056.000	604.118	79.998	19.996	101.035	19.895	4.384	0.529
1056.500	604.362	79.997	19.996	101.041	19.898	4.163	0.546
1057.000	604.654	79.995	19.997	101.046	19.897	4.242	0.542
1057.500	604.921	79.999	19.997	101.052	19.902	3.922	0.547
1058.000	605.227	79.999	19.996	101.053	19.902	3.931	0.566
1058.500	605.505	79.999	19.999	101.047	19.895	4.384	0.578
1059.000	605.782	79.997	19.996	101.044	19.901	3.971	0.569
1059.500	606.078	80.000	19.996	101.042	19.905	3.743	0.564
1060.000	606.310	79.998	19.996	101.040	19.896	4.325	0.551
1060.500	606.638	79.995	19.996	101.040	19.899	4.139	0.544
1061.000	606.900	79.999	19.997	101.047	19.900	4.051	0.575
1061.500	607.133	79.998	19.996	101.044	19.901	4.005	0.543
1062.000	607.417	79.997	19.997	101.040	19.900	4.066	0.506
1062.500	607.760	79.997	19.997	101.041	19.901	3.962	0.572
1063.000	608.011	79.998	19.997	101.039	19.895	4.379	0.610
1063.500	608.283	79.998	19.997	101.036	19.902	3.898	0.558
1064.000	608.574	80.000	19.996	101.036	19.896	4.327	0.543
1064.500	608.894	79.997	19.996	101.041	19.902	3.918	0.587
1065.000	609.157	79.998	19.995	101.041	19.903	3.883	0.597
1065.500	609.418	79.997	19.995	101.041	19.899	4.106	0.553
1066.000	609.644	79.997	19.996	101.044	19.903	3.869	0.505
1066.500	609.942	79.996	19.997	101.050	19.901	3.983	0.506
1067.000	610.207	79.995	19.997	101.051	19.897	4.270	0.544
1067.501	610.504	79.997	19.997	101.048	19.900	4.066	0.563
1068.001	610.740	79.996	19.994	101.047	19.894	4.475	0.547
1068.500	611.080	79.997	19.996	101.045	19.897	4.228	0.554
1069.000	611.363	79.997	19.997	101.045	19.899	4.091	0.600
1069.500	611.635	79.997	19.998	101.045	19.899	4.128	0.589
1070.000	611.883	79.998	19.997	101.046	19.897	4.283	0.537
1070.500	612.168	79.998	19.997	101.049	19.898	4.217	0.526
1071.000	612.425	79.997	19.997	101.050	19.897	4.259	0.538
1071.500	612.699	79.998	19.996	101.052	19.900	4.038	0.536
1072.000	613.012	79.997	19.996	101.051	19.902	3.909	0.559
1072.500	613.298	79.996	19.996	101.052	19.898	4.176	0.593
1073.000	613.571	79.999	19.997	101.052	19.901	3.973	0.579
1073.500	613.817	79.999	19.998	101.050	19.896	4.312	0.539
1074.000	614.122	79.997	19.996	101.050	19.900	4.073	0.535
1074.500	614.395	79.999	19.999	101.050	19.903	3.867	0.565
1075.000	614.689	79.998	19.998	101.051	19.899	4.121	0.572
1075.500	614.946	79.998	19.997	101.053	19.893	4.556	0.559
1076.000	615.250	79.998	19.997	101.055	19.898	4.195	0.556
1076.500	615.512	79.999	19.999	101.055	19.900	4.082	0.564
1077.000	615.762	79.999	19.996	101.056	19.898	4.167	0.539
1077.500	616.012	79.998	19.997	101.055	19.897	4.233	0.506
1078.000	616.324	79.998	19.996	101.054	19.891	4.633	0.531
1078.500	616.591	79.997	19.998	101.053	19.897	4.230	0.571
1079.000	616.887	79.998	19.999	101.051	19.893	4.552	0.571
1079.500	617.148	79.998	19.997	101.050	19.897	4.277	0.560
1080.000	617.425	79.999	19.996	101.049	19.898	4.167	0.547
1080.500	617.679	79.999	19.997	101.048	19.900	4.062	0.534
1081.000	617.938	79.998	19.995	101.046	19.895	4.377	0.522
1081.500	618.206	80.000	19.999	101.048	19.901	3.968	0.520
1082.000	618.467	79.999	19.995	101.048	19.902	3.949	0.528
1082.500	618.741	80.000	19.997	101.048	19.901	4.012	0.532
1083.000	619.001	79.999	19.996	101.046	19.899	4.113	0.535
1083.500	619.261	79.999	19.998	101.048	19.900	4.071	0.527
1084.000	619.547	79.997	19.996	101.049	19.900	4.065	0.533
1084.500	619.843	79.998	19.997	101.048	19.896	4.299	0.564
1085.000	620.105	79.999	19.997	101.050	19.895	4.367	0.570
1085.500	620.408	79.998	19.996	101.052	19.903	3.825	0.561
1086.000	620.654	79.997	19.997	101.053	19.900	4.052	0.557
1086.500	620.933	79.998	19.995	101.054	19.896	4.293	0.537
1087.000	621.191	79.999	19.996	101.055	19.902	3.926	0.531
1087.500	621.414	79.999	19.997	101.055	19.900	4.081	0.509
1088.000	621.724	79.998	19.997	101.056	19.901	3.974	0.507
1088.500	621.992	79.998	19.997	101.056	19.899	4.136	0.556
1089.000	622.276	79.997	19.996	101.055	19.902	3.941	0.565
1089.500	622.548	79.999	19.996	101.054	19.896	4.347	0.554
1090.000	622.784	79.999	19.996	101.051	19.898	4.203	0.533
1090.500	623.091	79.998	19.997	101.048	19.900	4.069	0.526
1091.000	623.310	79.999	19.996	101.045	19.897	4.240	0.534
1091.500	623.608	79.998	19.995	101.042	19.898	4.203	0.521
1092.000	623.845	79.996	19.996	101.044	19.900	4.056	0.526
1092.500	624.119	79.998	19.996	101.046	19.899	4.142	0.523
1093.000	624.388	79.998	19.996	101.050	19.902	3.936	0.527
1093.500	624.695	80.001	19.997	101.052	19.896	4.332	0.559
1094.000	624.936	79.997	19.997	101.051	19.900	4.062	0.562
1094.501	625.230	79.997	19.996	101.048	19.902	3.915	0.542
1095.001	625.461	80.000	19.996	101.045	19.896	4.294	0.530
1095.500	625.759	79.998	19.998	101.039	19.902	3.893	0.527
1096.000	626.008	79.998	19.998	101.036	19.895	4.363	0.538
1096.500	626.288	80.000	19.996	101.033	19.898	4.180	0.538
1097.000	626.573	80.001	19.994	101.029	19.901	3.991	0.548
1097.500	626.845	80.001	19.995	101.028	19.900	4.044	0.561
1098.000	627.061	80.001	19.996	101.029	19.899	4.088	0.522
1098.500	627.355	80.000	19.996	101.026	19.901	3.992	0.499
1099.000	627.626	79.999	19.994	101.027	19.897	4.243	0.538
1099.500	627.885	80.003	19.996	101.027	19.895	4.389	0.547
1100.000	628.099	79.998	19.995	101.027	19.902	3.947	0.501
1100.500	628.405	79.999	19.996	101.027	19.898	4.207	0.496
1101.000	628.684	80.000	19.997	101.033	19.903	3.862	0.552
1101.500	628.911	80.000	19.995	101.038	19.901	4.019	0.545
1102.000	629.212	79.999	19.996	101.040	19.897	4.275	0.517
1102.500	629.429	80.002	19.996	101.042	19.902	3.913	0.523
1103.000	629.774	80.001	19.995	101.041	19.901	4.009	0.540
1103.500	629.991	80.001	19.994	101.033	19.901	4.003	0.561
1104.000	630.223	80.001	19.995	101.026	19.899	4.153	0.505
1104.500	630.521	80.001	19.995	101.021	19.901	4.018	0.490
1105.000	630.792	80.000	19.996	101.016	19.900	4.077	0.550
1105.500	631.060	80.002	19.995	101.013	19.899	4.140	0.554
1106.000	631.304	80.000	19.996	101.016	19.897	4.265	0.526
1106.500	631.581	80.001	19.998	101.017	19.901	4.018	0.517
1107.000	631.838	79.998	19.995	101.019	19.901	3.998	0.527
1107.500	632.053	80.000	19.994	101.022	19.901	3.963	0.503
1108.000	632.352	80.000	19.996	101.022	19.901	3.956	0.493
1108.500	632.589	80.001	19.996	101.019	19.899	4.134	0.525
1109.000	632.870	80.001	19.996	101.020	19.898	4.210	0.527
1109.500	633.154	80.000	19.996	101.019	19.897	4.284	0.542
1110.000	633.417	79.999	19.995	101.021	19.896	4.304	0.556
1110.500	633.639	79.999	19.996	101.024	19.900	4.078	0.516
1111.000	633.911	80.001	19.996	101.027	19.899	4.118	0.489
1111.500	634.183	79.999	19.997	101.028	19.901	3.990	0.518
1112.000	634.470	80.000	19.997	101.029	19.894	4.443	0.551
1112.500	634.746	79.998	19.996	101.027	19.899	4.096	0.561
1113.000	634.980	80.000	19.996	101.024	19.900	4.023	0.537
1113.500	635.253	79.998	19.995	101.021	19.900	4.082	0.509
1114.001	635.518	79.998	19.996	101.020	19.903	3.833	0.522
1114.501	635.767	80.000	19.995	101.018	19.898	4.221	0.526
1115.000	636.019	79.998	19.997	101.015	19.897	4.243	0.508
1115.500	636.287	79.999	19.996	101.016	19.901	4.004	0.511
1116.001	636.560	79.998	19.996	101.016	19.900	4.050	0.530
1116.501	636.814	79.998	19.996	101.019	19.897	4.274	0.534
1117.000	637.083	79.998	19.996	101.021	19.899	4.131	0.525
1117.500	637.326	79.999	19.997	101.024	19.900	4.066	0.517
1118.000	637.584	79.997	19.996	101.024	19.902	3.926	0.506
1118.500	637.814	79.998	19.996	101.025	19.897	4.226	0.495
1119.000	638.073	79.997	19.995	101.022	19.904	3.812	0.489
1119.501	638.360	79.999	19.996	101.019	19.901	3.969	0.517
1120.001	638.574	80.000	19.996	101.019	19.903	3.878	0.524
1120.500	638.844	79.998	19.996	101.023	19.897	4.284	0.493
1121.001	639.101	79.999	19.996	101.024	19.897	4.260	0.506
1121.502	639.382	79.998	19.996	101.027	19.897	4.223	0.533
1122.001	639.651	80.001	19.995	101.033	19.900	4.044	0.543
1122.500	639.892	80.000	19.995	101.038	19.898	4.160	0.530
1123.000	640.124	79.998	19.997	101.040	19.900	4.020	0.492
1123.500	640.388	79.999	19.995	101.040	19.897	4.249	0.484
1124.000	640.640	79.998	19.995	101.040	19.901	3.963	0.506
1124.500	640.887	80.001	19.995	101.038	19.897	4.288	0.507
1125.000	641.215	79.997	19.996	101.034	19.898	4.207	0.537
1125.500	641.402	79.998	19.996	101.029	19.901	4.001	0.545
1126.000	641.614	79.999	19.995	101.027	19.899	4.137	0.457
1126.500	641.926	79.999	19.996	101.024	19.894	4.430	0.461
1127.000	642.171	79.999	19.996	101.022	19.901	3.976	0.540
1127.500	642.412	79.997	19.996	101.020	19.900	4.081	0.522
1128.000	642.686	80.001	19.996	101.019	19.900	4.031	0.501
1128.500	642.929	80.002	19.995	101.019	19.896	4.324	0.517
1129.000	643.194	79.999	19.996	101.020	19.897	4.274	0.513
1129.500	643.440	79.998	19.996	101.021	19.898	4.177	0.509
1130.000	643.702	79.998	19.995	101.022	19.900	4.062	0.510
1130.500	643.958	80.001	19.994	101.024	19.898	4.182	0.513
1131.000	644.196	79.998	19.997	101.026	19.902	3.928	0.506
1131.500	644.439	79.999	19.995	101.026	19.897	4.280	0.487
1132.000	644.696	79.999	19.996	101.026	19.894	4.452	0.490
1132.500	644.951	79.999	19.997	101.030	19.898	4.181	0.506
1133.000	645.247	79.999	19.996	101.029	19.900	4.042	0.532
1133.500	645.431	79.999	19.995	101.027	19.896	4.348	0.516
1134.000	645.694	79.999	19.997	101.029	19.899	4.146	0.463
1134.500	645.955	79.998	19.995	101.031	19.902	3.908	0.485
1135.000	646.198	79.998	19.995	101.032	19.901	3.992	0.514
1135.500	646.450	79.998	19.997	101.034	19.902	3.900	0.500
1136.000	646.709	79.997	19.996	101.038	19.898	4.156	0.503
1136.500	646.957	79.998	19.995	101.037	19.896	4.355	0.509
1137.000	647.192	79.999	19.997	101.034	19.901	3.991	0.495
1137.500	647.459	79.997	19.995	101.030	19.898	4.181	0.492
1138.000	647.703	79.999	19.997	101.028	19.896	4.319	0.506
1138.500	647.947	80.001	19.997	101.024	19.899	4.127	0.500
1139.001	648.218	79.997	19.996	101.023	19.899	4.146	0.502
1139.501	648.464	79.997	19.995	101.022	19.898	4.157	0.516
1140.001	648.684	79.997	19.995	101.021	19.899	4.129	0.491
1140.500	648.912	79.997	19.996	101.019	19.901	3.983	0.457
1141.000	649.198	79.996	19.996	101.020	19.898	4.208	0.481
1141.500	649.482	79.999	19.995	101.020	19.898	4.216	0.542
1142.000	649.702	79.998	19.996	101.021	19.899	4.144	0.537
1142.500	649.986	79.999	19.996	101.024	19.901	3.954	0.504
1143.000	650.222	79.998	19.997	101.027	19.896	4.292	0.512
1143.500	650.489	79.999	19.997	101.026	19.901	3.980	0.511
1144.000	650.721	79.998	19.996	101.027	19.896	4.291	0.501
1144.500	650.969	79.995	19.996	101.026	19.898	4.192	0.490
1145.000	651.223	79.997	19.997	101.024	19.893	4.522	0.491
1145.500	651.486	79.996	19.996	101.020	19.899	4.144	0.509
1146.000	651.723	79.998	19.996	101.021	19.896	4.292	0.508
1146.500	652.001	79.996	19.996	101.020	19.898	4.187	0.507
1147.000	652.277	79.997	19.997	101.019	19.898	4.175	0.535
1147.500	652.465	79.997	19.995	101.020	19.899	4.098	0.509
1148.000	652.739	79.998	19.994	101.021	19.899	4.098	0.463
1148.501	652.969	79.997	19.997	101.023	19.902	3.915	0.483
1149.001	653.238	79.998	19.996	101.026	19.902	3.937	0.501
1149.500	653.504	79.999	19.996	101.027	19.903	3.873	0.517
1150.000	653.725	79.997	19.997	101.025	19.899	4.105	0.511
1150.500	653.988	80.000	19.997	101.026	19.901	3.993	0.486
1151.000	654.237	79.997	19.997	101.026	19.896	4.356	0.498
1151.500	654.481	79.995	19.995	101.026	19.901	3.998	0.502
1152.000	654.761	79.998	19.996	101.030	19.906	3.655	0.508
1152.500	655.007	79.997	19.996	101.033	19.900	4.048	0.525
1153.000	655.236	79.997	19.997	101.036	19.896	4.344	0.501
1153.500	655.464	79.998	19.997	101.035	19.896	4.299	0.466
1154.000	655.783	79.997	19.997	101.035	19.900	4.021	0.502
1154.500	656.025	79.997	19.996	101.031	19.899	4.096	0.554
1155.000	656.283	79.998	19.996	101.032	19.899	4.126	0.530
1155.500	656.534	79.999	19.995	101.033	19.901	3.986	0.504
1156.000	656.769	79.999	19.997	101.038	19.899	4.111	0.498
1156.500	657.044	79.997	19.996	101.038	19.903	3.881	0.498
1157.000	657.261	79.999	19.998	101.037	19.897	4.238	0.501
1157.500	657.538	79.998	19.996	101.034	19.898	4.215	0.493
1158.000	657.739	79.998	19.996	101.029	19.898	4.166	0.486
1158.500	658.009	79.999	19.997	101.024	19.897	4.267	0.475
1159.000	658.254	80.001	19.996	101.021	19.898	4.193	0.493
1159.500	658.534	79.998	19.996	101.020	19.900	4.077	0.520
1160.000	658.745	80.000	19.997	101.019	19.899	4.134	0.508
1160.500	659.027	80.000	19.995	101.020	19.898	4.199	0.492
1161.000	659.293	80.001	19.998	101.022	19.902	3.919	0.521
1161.500	659.538	80.000	19.996	101.023	19.899	4.100	0.530
1162.000	659.803	80.001	19.996	101.023	19.902	3.937	0.510
1162.500	660.060	80.000	19.997	101.021	19.896	4.317	0.516
1163.000	660.315	79.999	19.996	101.019	19.900	4.079	0.517
1163.500	660.561	80.000	19.995	101.018	19.897	4.243	0.507
1164.000	660.788	80.001	19.998	101.020	19.901	3.998	0.487
1164.500	661.041	79.999	19.996	101.028	19.895	4.425	0.476
1165.000	661.278	80.000	19.997	101.035	19.900	4.068	0.485
1165.500	661.531	79.999	19.997	101.041	19.898	4.188	0.490
1166.000	661.819	80.000	19.996	101.047	19.898	4.207	0.516
1166.500	662.083	79.999	19.996	101.046	19.900	4.035	0.547
1167.000	662.325	79.998	19.998	101.040	19.901	4.015	0.529
1167.500	662.592	80.000	19.997	101.033	19.899	4.149	0.507
1168.000	662.815	79.999	19.997	101.028	19.900	4.044	0.499
1168.500	663.053	79.998	19.996	101.022	19.902	3.902	0.475
1169.000	663.304	80.000	19.997	101.019	19.900	4.039	0.475
1169.500	663.513	80.000	19.998	101.018	19.902	3.943	0.475
1170.000	663.781	80.000	19.998	101.017	19.900	4.072	0.469
1170.500	664.059	79.997	19.997	101.016	19.898	4.183	0.512
1171.000	664.288	79.998	19.997	101.018	19.902	3.884	0.526
1171.500	664.545	79.999	19.998	101.018	19.902	3.913	0.497
1172.000	664.796	79.998	19.998	101.021	19.901	3.971	0.497
1172.500	665.022	79.999	19.998	101.024	19.903	3.875	0.492
1173.000	665.287	79.999	19.996	101.026	19.893	4.523	0.484
1173.500	665.548	79.997	19.997	101.025	19.900	4.085	0.508
1174.000	665.791	80.000	19.998	101.024	19.899	4.146	0.515
1174.500	666.058	79.999	19.996	101.021	19.901	3.978	0.508
1175.000	666.295	79.999	19.998	101.019	19.901	3.971	0.507
1175.500	666.564	79.999	19.997	101.020	19.897	4.242	0.504
1176.000	666.840	80.000	19.996	101.024	19.899	4.103	0.525
1176.500	667.058	79.999	19.997	101.029	19.898	4.217	0.520
1177.000	667.335	80.000	19.997	101.034	19.897	4.258	0.495
1177.500	667.558	79.999	19.997	101.035	19.898	4.208	0.498
1178.000	667.813	79.999	19.997	101.032	19.898	4.199	0.489
1178.500	668.042	79.998	19.997	101.027	19.899	4.092	0.481
1179.000	668.304	79.998	19.996	101.023	19.901	4.011	0.488
1179.500	668.582	80.000	19.998	101.022	19.899	4.143	0.516
1180.000	668.871	79.999	19.997	101.023	19.895	4.370	0.553
1180.500	669.076	80.002	19.997	101.023	19.901	3.978	0.530
1181.000	669.315	80.000	19.996	101.026	19.905	3.700	0.469
1181.500	669.566	80.002	19.996	101.027	19.897	4.225	0.467
1182.000	669.853	79.999	19.996	101.024	19.900	4.058	0.514
1182.500	670.103	80.000	19.997	101.022	19.900	4.071	0.538
1183.000	670.371	80.000	19.996	101.024	19.904	3.803	0.528
1183.500	670.616	79.998	19.998	101.021	19.895	4.417	0.515
1184.000	670.877	80.000	19.995	101.024	19.900	4.041	0.509
1184.500	671.112	80.001	19.995	101.026	19.903	3.851	0.501
1185.000	671.375	80.001	19.994	101.029	19.905	3.709	0.497
1185.500	671.618	80.000	19.996	101.032	19.895	4.378	0.502
1186.000	671.887	79.999	19.995	101.031	19.898	4.173	0.509
1186.501	672.091	80.002	19.995	101.028	19.898	4.155	0.492
1187.001	672.375	80.000	19.995	101.023	19.902	3.932	0.480
1187.501	672.631	80.000	19.995	101.019	19.899	4.134	0.514
1188.001	672.872	80.001	19.995	101.013	19.901	3.970	0.519
1188.500	673.142	79.998	19.995	101.013	19.901	4.001	0.504
1189.000	673.431	80.002	19.995	101.013	19.906	3.649	0.535
1189.500	673.655	80.002	19.995	101.013	19.901	3.979	0.536
1190.000	673.890	80.002	19.997	101.014	19.905	3.730	0.486
1190.500	674.210	80.000	19.995	101.016	19.903	3.855	0.507
1191.000	674.458	80.000	19.995	101.017	19.904	3.785	0.561
1191.500	674.709	80.002	19.996	101.024	19.902	3.923	0.534
1192.001	674.991	80.000	19.995	101.031	19.901	3.983	0.516
1192.501	675.244	80.000	19.995	101.037	19.902	3.885	0.534
1193.000	675.512	79.999	19.995	101.041	19.896	4.313	0.528
1193.500	675.760	80.000	19.995	101.043	19.901	3.975	0.519
1194.000	676.003	79.999	19.996	101.039	19.897	4.237	0.504
1194.500	676.232	79.998	19.996	101.033	19.903	3.848	0.481
1195.000	676.501	79.998	19.996	101.028	19.903	3.862	0.485
1195.500	676.750	79.998	19.996	101.026	19.903	3.847	0.508
1196.000	677.002	79.999	19.995	101.024	19.902	3.884	0.510
1196.500	677.220	79.998	19.995	101.024	19.901	3.969	0.485
1197.000	677.581	79.998	19.996	101.028	19.902	3.926	0.524
1197.500	677.761	79.998	19.997	101.034	19.904	3.782	0.560
1198.000	678.037	79.999	19.996	101.039	19.902	3.908	0.499
1198.500	678.288	79.997	19.995	101.046	19.897	4.286	0.491
1199.000	678.552	79.997	19.997	101.047	19.902	3.919	0.521
1199.500	678.818	79.998	19.996	101.046	19.897	4.230	0.522
1200.000	679.069	79.997	19.995	101.047	19.903	3.854	0.523
1200.500	679.314	79.999	19.996	101.042	19.901	4.015	0.507
1201.000	679.533	79.997	19.996	101.040	19.898	4.197	0.480
1201.500	679.801	79.998	19.996	101.043	19.901	4.000	0.476
1202.000	680.079	79.997	19.996	101.045	19.898	4.157	0.517
1202.500	680.320	79.997	19.996	101.044	19.900	4.076	0.532
1203.000	680.601	79.997	19.997	101.049	19.903	3.873	0.520
1203.500	680.836	79.998	19.995	101.052	19.902	3.936	0.519
1204.000	681.108	79.997	19.995	101.053	19.902	3.902	0.512
1204.500	681.371	79.997	19.997	101.053	19.900	4.028	0.521
1205.000	681.577	79.998	19.996	101.051	19.906	3.666	0.502
1205.500	681.847	79.999	19.997	101.046	19.904	3.786	0.473
1206.000	682.112	79.997	19.997	101.039	19.898	4.186	0.506
1206.500	682.373	79.998	19.997	101.034	19.900	4.059	0.531
1207.000	682.610	79.999	19.995	101.027	19.901	4.007	0.511
1207.500	682.856	79.999	19.996	101.025	19.900	4.033	0.490
1208.000	683.152	79.999	19.996	101.022	19.900	4.059	0.512
1208.501	683.385	79.999	19.997	101.021	19.899	4.146	0.535
1209.001	683.657	79.999	19.996	101.022	19.901	3.971	0.517
1209.500	683.868	79.999	19.996	101.023	19.901	3.990	0.495
1210.000	684.165	79.999	19.997	101.022	19.899	4.118	0.496
1210.500	684.391	79.998	19.996	101.021	19.900	4.069	0.515
1211.000	684.634	80.000	19.997	101.021	19.899	4.102	0.496
1211.500	684.887	79.998	19.996	101.023	19.900	4.041	0.483
1212.000	685.148	80.000	19.996	101.024	19.897	4.229	0.505
1212.500	685.378	79.997	19.997	101.028	19.903	3.864	0.502
1213.000	685.646	79.997	19.997	101.029	19.904	3.812	0.494
1213.500	685.901	79.999	19.997	101.031	19.906	3.670	0.511
1214.000	686.176	79.997	19.996	101.028	19.901	4.000	0.527
1214.500	686.428	79.999	19.995	101.027	19.898	4.203	0.528
1215.000	686.666	79.997	19.995	101.025	19.902	3.902	0.509
1215.500	686.918	79.998	19.996	101.024	19.897	4.254	0.490
1216.000	687.189	79.999	19.996	101.023	19.899	4.136	0.506
1216.500	687.423	80.000	19.995	101.021	19.900	4.085	0.514
1217.000	687.690	79.999	19.995	101.020	19.899	4.149	0.503
1217.500	687.934	79.999	19.996	101.019	19.899	4.090	0.506
1218.000	688.212	79.997	19.995	101.020	19.901	3.972	0.517
1218.500	688.446	79.999	19.995	101.024	19.901	3.974	0.517
1219.000	688.735	79.998	19.997	101.030	19.899	4.124	0.518
1219.500	688.975	80.000	19.995	101.036	19.899	4.103	0.526
1220.000	689.180	80.001	19.994	101.039	19.902	3.925	0.487
1220.500	689.434	80.000	19.996	101.040	19.895	4.413	0.452
1221.000	689.684	79.999	19.995	101.038	19.897	4.227	0.481
1221.500	689.937	80.000	19.995	101.034	19.902	3.936	0.504
1222.000	690.188	79.999	19.996	101.029	19.900	4.061	0.504
1222.500	690.443	79.998	19.995	101.027	19.901	3.976	0.505
1223.000	690.704	79.998	19.996	101.027	19.898	4.170	0.511
1223.500	690.896	79.998	19.995	101.027	19.898	4.175	0.485
1224.000	691.172	79.997	19.995	101.026	19.897	4.269	0.461
1224.500	691.417	79.998	19.995	101.027	19.897	4.269	0.494
1225.000	691.673	79.998	19.996	101.029	19.895	4.365	0.510
1225.500	691.928	79.999	19.998	101.028	19.899	4.107	0.506
1226.000	692.204	79.997	19.995	101.027	19.901	4.007	0.521
1226.500	692.431	79.997	19.996	101.026	19.896	4.345	0.517
1227.000	692.700	79.998	19.996	101.026	19.897	4.243	0.500
1227.500	692.978	80.000	19.997	101.023	19.902	3.945	0.522
1228.000	693.186	79.997	19.996	101.020	19.896	4.295	0.516
1228.500	693.394	79.995	19.997	101.019	19.902	3.921	0.451
1229.000	693.726	79.999	19.996	101.019	19.900	4.067	0.478
1229.500	693.949	79.998	19.996	101.021	19.902	3.893	0.548
1230.000	694.191	79.999	19.997	101.026	19.897	4.234	0.510
1230.500	694.446	79.999	19.997	101.028	19.903	3.821	0.481
1231.000	694.697	79.997	19.997	101.029	19.900	4.053	0.502
1231.500	694.944	80.000	19.997	101.029	19.898	4.210	0.502
1232.000	695.209	79.996	19.996	101.026	19.900	4.059	0.505
1232.500	695.451	79.998	19.996	101.025	19.899	4.151	0.509
1233.000	695.699	79.996	19.996	101.025	19.900	4.058	0.498
1233.500	695.937	79.998	19.996	101.027	19.900	4.060	0.488
1234.000	696.202	79.997	19.996	101.027	19.902	3.901	0.495
1234.500	696.470	79.998	19.996	101.029	19.903	3.866	0.518
1235.000	696.745	79.999	19.997	101.027	19.901	4.019	0.538
1235.500	696.993	79.998	19.997	101.026	19.902	3.909	0.533
1236.000	697.206	79.999	19.996	101.026	19.902	3.920	0.492
1236.500	697.481	80.000	19.998	101.025	19.894	4.430	0.474
1237.000	697.723	79.999	19.998	101.026	19.901	3.975	0.503
1237.500	697.987	79.998	19.996	101.026	19.893	4.538	0.512
1238.000	698.239	79.999	19.996	101.028	19.903	3.866	0.510
1238.500	698.502	79.999	19.997	101.027	19.890	4.702	0.515
1239.000	698.735	79.999	19.997	101.028	19.902	3.924	0.506
1239.500	698.952	79.999	19.997	101.029	19.899	4.118	0.473
1240.000	699.236	79.998	19.997	101.030	19.902	3.926	0.476
1240.500	699.449	80.000	19.997	101.026	19.902	3.897	0.499
1241.000	699.728	80.000	19.996	101.025	19.902	3.891	0.495
1241.500	699.956	80.000	19.997	101.024	19.909	3.449	0.500
1242.000	700.264	79.999	19.996	101.020	19.906	3.628	0.521
1242.500	700.499	80.001	19.996	101.018	19.898	4.195	0.539
1243.000	700.726	79.999	19.996	101.022	19.896	4.309	0.503
1243.500	701.027	80.001	19.997	101.027	19.898	4.221	0.495
1244.000	701.277	80.002	19.995	101.034	19.896	4.352	0.539
1244.500	701.506	80.000	19.997	101.041	19.898	4.166	0.515
1245.000	701.732	80.001	19.997	101.048	19.903	3.825	0.467
1245.500	702.003	80.001	19.995	101.048	19.896	4.324	0.476
1246.000	702.279	80.001	19.996	101.049	19.898	4.183	0.522
1246.500	702.520	80.001	19.996	101.046	19.901	3.965	0.532
1247.000	702.770	80.001	19.995	101.045	19.897	4.247	0.504
1247.500	703.044	80.000	19.997	101.041	19.902	3.892	0.508
1248.001	703.281	79.999	19.995	101.038	19.905	3.720	0.517
1248.501	703.556	79.999	19.997	101.033	19.911	3.288	0.511
1249.000	703.770	80.000	19.996	101.030	19.905	3.697	0.500
1249.500	704.041	80.001	19.996	101.026	19.906	3.673	0.487
1250.000	704.263	80.000	19.997	101.023	19.911	3.289	0.489
1250.500	704.504	80.000	19.997	101.021	19.895	4.421	0.478
1251.000	704.800	80.001	19.997	101.023	19.889	4.793	0.500
1251.501	705.034	79.999	19.996	101.026	19.893	4.496	0.534
1252.001	705.289	80.000	19.996	101.027	19.890	4.725	0.510
1252.501	705.532	80.000	19.997	101.027	19.894	4.469	0.493
1253.001	705.786	79.999	19.996	101.026	19.891	4.638	0.497
1253.501	706.028	79.999	19.996	101.024	19.891	4.632	0.497
1254.000	706.304	80.000	19.997	101.021	19.895	4.425	0.507
1254.500	706.525	79.998	19.996	101.020	19.896	4.326	0.507
1255.000	706.750	79.999	19.996	101.023	19.892	4.599	0.472
1255.500	707.027	79.999	19.996	101.025	19.891	4.649	0.475
1256.000	707.302	79.999	19.996	101.029	19.905	3.693	0.527
1256.500	707.566	80.000	19.996	101.029	19.891	4.636	0.545
1257.000	707.824	79.999	19.996	101.029	19.901	3.975	0.530
1257.500	708.050	79.999	19.997	101.031	19.890	4.728	0.503
1258.000	708.334	79.999	19.998	101.034	19.889	4.787	0.497
1258.500	708.565	79.997	19.995	101.033	19.890	4.756	0.513
1259.000	708.824	79.999	19.996	101.037	19.890	4.763	0.502
1259.501	709.062	80.000	19.996	101.042	19.895	4.415	0.493
1260.001	709.348	79.998	19.996	101.042	19.898	4.222	0.511
1260.500	709.542	79.999	19.997	101.040	19.897	4.279	0.502
1261.000	709.816	79.998	19.996	101.040	19.895	4.371	0.474
1261.500	710.034	79.998	19.997	101.041	19.895	4.411	0.480
1262.000	710.281	79.997	19.997	101.041	19.895	4.395	0.478
1262.500	710.568	80.000	19.996	101.043	19.891	4.638	0.499
1263.000	710.804	80.001	19.997	101.042	19.894	4.468	0.529
1263.500	711.064	79.999	19.995	101.040	19.896	4.302	0.510
1264.000	711.276	79.998	19.996	101.034	19.893	4.520	0.484
1264.500	711.549	80.000	19.997	101.028	19.892	4.569	0.478
1265.000	711.822	80.000	19.997	101.021	19.899	4.111	0.516
1265.500	712.047	79.999	19.997	101.020	19.895	4.367	0.522
1266.000	712.349	80.000	19.996	101.023	19.895	4.385	0.512
1266.500	712.588	80.000	19.996	101.027	19.896	4.299	0.534
1267.000	712.845	80.000	19.997	101.030	19.893	4.518	0.519
1267.500	713.096	80.000	19.996	101.035	19.897	4.271	0.502
1268.000	713.500	80.000	19.996	101.036	19.893	4.500	0.581
1268.500	713.615	80.000	19.996	101.038	19.894	4.481	0.587
1269.000	713.886	80.000	19.996	101.037	19.897	4.262	0.453
1269.500	714.116	80.001	19.996	101.037	19.894	4.444	0.444
1270.000	714.372	80.000	19.996	101.039	19.891	4.689	0.494
1270.500	714.653	80.001	19.996	101.039	19.895	4.417	0.511
1271.000	714.917	80.000	19.995	101.035	19.892	4.568	0.541
1271.500	715.157	80.000	19.995	101.036	19.891	4.649	0.525
1272.000	715.377	80.001	19.996	101.039	19.896	4.330	0.482
1272.500	715.652	79.999	19.995	101.036	19.896	4.317	0.477
1273.001	715.949	80.000	19.996	101.034	19.894	4.446	0.534
1273.501	716.168	79.999	19.994	101.033	19.895	4.420	0.544
1274.001	716.476	79.998	19.995	101.029	19.892	4.591	0.521
1274.501	716.752	80.000	19.995	101.025	19.892	4.603	0.555
1275.000	716.985	80.000	19.996	101.023	19.892	4.623	0.547
1275.500	717.230	79.999	19.997	101.025	19.893	4.501	0.493
1276.000	717.439	79.997	19.996	101.031	19.894	4.433	0.466
1276.500	717.706	79.999	19.996	101.033	19.895	4.382	0.465
1277.000	717.997	79.998	19.997	101.032	19.895	4.367	0.517
1277.500	718.213	79.998	19.996	101.033	19.899	4.128	0.533
1278.000	718.454	79.998	19.996	101.034	19.890	4.726	0.482
1278.500	718.699	79.997	19.996	101.030	19.894	4.443	0.472
1279.000	718.986	79.997	19.994	101.031	19.895	4.396	0.509
1279.500	719.209	79.998	19.996	101.031	19.891	4.636	0.521
1280.000	719.483	79.997	19.995	101.030	19.896	4.332	0.503
1280.500	719.741	79.998	19.995	101.029	19.892	4.570	0.514
1281.000	720.040	79.999	19.995	101.030	19.892	4.577	0.545
1281.500	720.274	79.998	19.996	101.031	19.890	4.704	0.545
1282.000	720.530	79.999	19.995	101.032	19.891	4.654	0.511
1282.500	720.775	79.997	19.996	101.031	19.893	4.553	0.495
1283.000	720.972	79.998	19.994	101.030	19.892	4.621	0.472
1283.500	721.258	79.997	19.994	101.028	19.892	4.590	0.463
1284.000	721.522	79.997	19.995	101.024	19.891	4.676	0.516
1284.500	721.778	79.997	19.995	101.023	19.893	4.549	0.535
1285.000	722.017	79.997	19.995	101.023	19.893	4.535	0.507
1285.500	722.276	79.997	19.996	101.025	19.892	4.588	0.496
1286.000	722.520	79.998	19.996	101.027	19.892	4.575	0.501
1286.500	722.761	79.996	19.995	101.028	19.893	4.544	0.495
1287.000	723.037	79.997	19.995	101.032	19.890	4.741	0.501
1287.500	723.274	79.998	19.996	101.033	19.890	4.757	0.515
1288.000	723.538	79.998	19.998	101.035	19.893	4.556	0.506
1288.500	723.803	79.998	19.996	101.035	19.889	4.822	0.515
1289.000	724.033	79.997	19.996	101.034	19.891	4.667	0.513
1289.500	724.305	79.997	19.995	101.032	19.892	4.626	0.499
1290.001	724.583	79.999	19.996	101.029	19.891	4.687	0.526
1290.501	724.793	79.997	19.996	101.027	19.888	4.871	0.519
1291.000	725.083	79.998	19.996	101.031	19.890	4.742	0.494
1291.500	725.304	79.997	19.996	101.033	19.890	4.700	0.506
1292.000	725.546	79.998	19.997	101.035	19.886	5.010	0.487
1292.500	725.794	79.997	19.996	101.035	19.890	4.722	0.476
1293.000	726.021	79.997	19.997	101.032	19.893	4.522	0.482
1293.500	726.317	79.998	19.997	101.026	19.892	4.630	0.499
1294.001	726.539	79.999	19.996	101.025	19.893	4.525	0.521
1294.501	726.776	79.998	19.996	101.024	19.892	4.623	0.488
1295.000	727.044	79.998	19.997	101.024	19.894	4.443	0.482
1295.500	727.286	79.998	19.996	101.027	19.889	4.820	0.508
1296.000	727.539	79.999	19.996	101.031	19.889	4.769	0.502
1296.500	727.832	79.998	19.997	101.028	19.892	4.570	0.520
1297.000	728.048	79.999	19.996	101.026	19.893	4.536	0.528
1297.500	728.318	79.998	19.996	101.026	19.891	4.663	0.498
1298.000	728.553	79.999	19.996	101.024	19.892	4.577	0.495
1298.500	728.811	79.998	19.996	101.021	19.890	4.706	0.499
1299.000	729.079	79.997	19.995	101.020	19.892	4.628	0.510
1299.500	729.317	79.998	19.996	101.020	19.893	4.536	0.516
1300.000	729.565	79.998	19.996	101.020	19.892	4.564	0.496
1300.500	729.783	79.997	19.996	101.019	19.891	4.682	0.476
1301.000	730.072	79.999	19.996	101.020	19.890	4.705	0.487
1301.500	730.266	79.999	19.996	101.021	19.893	4.516	0.495
1302.000	730.607	79.997	19.996	101.023	19.892	4.600	0.509
1302.500	730.843	79.997	19.995	101.026	19.892	4.586	0.556
1303.000	731.055	79.997	19.996	101.028	19.891	4.658	0.512
1303.500	731.319	79.995	19.997	101.027	19.892	4.628	0.462
1304.000	731.576	79.998	19.995	101.028	19.891	4.651	0.499
1304.500	731.803	79.997	19.995	101.030	19.897	4.258	0.503
1305.000	732.082	79.999	19.996	101.030	19.894	4.432	0.495
1305.500	732.329	79.997	19.996	101.034	19.892	4.614	0.516
1306.000	732.560	79.998	19.996	101.036	19.896	4.321	0.502
1306.500	732.837	79.997	19.995	101.034	19.888	4.858	0.493
1307.000	733.128	79.998	19.995	101.032	19.897	4.281	0.538
1307.500	733.365	79.997	19.996	101.031	19.894	4.449	0.548
1308.000	733.597	79.997	19.996	101.026	19.896	4.305	0.499
1308.500	733.844	79.999	19.994	101.023	19.895	4.408	0.474
1309.000	734.087	79.999	19.996	101.023	19.895	4.387	0.485
1309.500	734.373	79.999	19.995	101.023	19.892	4.590	0.510
1310.000	734.602	79.998	19.996	101.021	19.895	4.387	0.522
1310.501	734.864	79.998	19.996	101.022	19.894	4.454	0.503
1311.001	735.099	79.997	19.996	101.022	19.892	4.607	0.494
1311.500	735.352	79.998	19.996	101.021	19.891	4.634	0.492
1312.000	735.639	79.997	19.995	101.019	19.893	4.553	0.514
1312.500	735.872	79.997	19.996	101.020	19.892	4.606	0.530
1313.000	736.152	79.998	19.996	101.017	19.893	4.516	0.517
1313.500	736.375	79.997	19.996	101.017	19.889	4.820	0.508
1314.000	736.626	79.999	19.996	101.020	19.890	4.757	0.488
1314.500	736.899	79.997	19.996	101.023	19.891	4.641	0.499
1315.000	737.150	79.997	19.997	101.029	19.890	4.734	0.524
1315.500	737.431	79.998	19.995	101.033	19.895	4.413	0.528
1316.000	737.635	79.998	19.996	101.036	19.894	4.470	0.509
1316.501	737.918	79.999	19.996	101.040	19.894	4.448	0.486
1317.001	738.110	79.998	19.997	101.044	19.894	4.437	0.481
1317.501	738.388	79.999	19.996	101.045	19.893	4.544	0.473
1318.001	738.681	79.998	19.996	101.045	19.890	4.713	0.520
1318.501	738.924	79.998	19.996	101.045	19.891	4.679	0.553
1319.000	739.214	79.999	19.995	101.044	19.894	4.454	0.534
1319.500	739.480	79.999	19.996	101.037	19.893	4.546	0.544
1320.000	739.676	79.999	19.996	101.033	19.889	4.801	0.509
1320.500	739.921	79.999	19.996	101.034	19.892	4.572	0.452
1321.000	740.233	80.000	19.996	101.036	19.894	4.478	0.499
1321.500	740.460	80.000	19.997	101.034	19.890	4.732	0.548
1322.000	740.747	80.000	19.997	101.035	19.891	4.666	0.526
1322.500	740.971	79.998	19.996	101.034	19.892	4.598	0.513
1323.000	741.191	79.999	19.997	101.035	19.892	4.582	0.478
1323.500	741.469	80.000	19.997	101.030	19.892	4.630	0.471
1324.000	741.743	79.999	19.996	101.029	19.891	4.644	0.525
1324.500	741.978	79.998	19.995	101.029	19.893	4.552	0.530
1325.000	742.245	79.999	19.997	101.029	19.892	4.612	0.505
1325.501	742.455	80.000	19.997	101.028	19.889	4.771	0.490
1326.002	742.703	79.999	19.996	101.034	19.891	4.695	0.468
1326.502	742.969	79.999	19.997	101.037	19.891	4.688	0.486
1327.001	743.250	79.999	19.996	101.037	19.892	4.587	0.530
1327.500	743.450	80.000	19.996	101.035	19.891	4.638	0.513
