Sample ID:	C:\MCC\MCC Cal\Test\Particleboard\Particleboard_MCC_30K_min_211018_R4.txt
Sample Weight (mg):	4.81
Heating Rate (C/s):	0.5
Combustor Temp (C):	900
N2 Flow Rate (cc/min):	80
O2 Flow Rate (cc/min):	20
Calibration File:	C:\MCC\MCC Cal\Coeff1 JN10440_30_210304.txt.txt
T Correction Coefficients:	0	1.024463	0
Time Shift (s):	14
*
Time (s)	Temperature (C)	N2 flow rate (cc/min)	O2 flow rate (cc/min)	Flow Rate (cc/min)	Oxygen (%)	HRR (W/g)	Heating rate (C/s)
0.000	108.576	79.996	19.995	102.937	20.151	-0.115	-0.017
0.500	108.619	79.996	19.994	102.936	20.154	-0.302	-0.038
1.000	108.630	79.997	19.995	102.934	20.150	-0.053	0.016
1.500	108.614	79.996	19.995	102.933	20.149	-0.020	0.025
2.000	108.604	79.996	19.995	102.934	20.148	0.053	-0.015
2.500	108.616	79.996	19.994	102.935	20.152	-0.161	-0.012
3.000	108.598	79.996	19.996	102.935	20.152	-0.167	-0.002
3.500	108.600	79.998	19.995	102.936	20.151	-0.132	-0.011
4.000	108.588	79.995	19.995	102.936	20.149	0.027	-0.014
4.500	108.609	79.997	19.995	102.936	20.150	-0.081	-0.001
5.000	108.583	79.995	19.995	102.935	20.151	-0.097	0.003
5.500	108.576	79.995	19.995	102.935	20.151	-0.128	-0.019
6.000	108.621	79.996	19.996	102.933	20.149	0.026	0.002
6.500	108.603	79.996	19.995	102.937	20.148	0.077	0.032
7.000	108.625	79.995	19.996	102.937	20.148	0.104	0.015
7.500	108.616	79.996	19.996	102.939	20.147	0.128	0.009
8.000	108.618	79.995	19.995	102.941	20.147	0.128	0.003
8.500	108.622	79.995	19.996	102.940	20.146	0.238	-0.001
9.000	108.640	79.996	19.996	102.936	20.145	0.282	0.014
9.500	108.628	79.996	19.995	102.936	20.146	0.224	0.015
10.000	108.614	79.997	19.996	102.934	20.146	0.216	-0.010
10.500	108.623	79.996	19.995	102.934	20.145	0.273	-0.016
11.000	108.644	79.995	19.995	102.936	20.144	0.357	0.013
11.500	108.623	79.997	19.995	102.942	20.146	0.220	0.015
12.000	108.633	79.997	19.996	102.955	20.144	0.348	-0.006
12.501	108.619	79.996	19.996	102.970	20.145	0.288	-0.008
13.001	108.643	79.996	19.996	102.985	20.149	0.038	0.003
13.500	108.633	79.998	19.996	103.000	20.143	0.425	0.012
14.000	108.633	79.996	19.996	103.010	20.142	0.482	0.002
14.500	108.650	79.996	19.995	103.013	20.141	0.561	0.004
15.000	108.649	79.996	19.996	103.019	20.143	0.421	0.017
15.500	108.645	79.996	19.997	103.026	20.140	0.612	0.005
16.000	108.685	79.996	19.996	103.036	20.140	0.621	0.015
16.500	108.678	79.997	19.996	103.044	20.138	0.729	0.035
17.000	108.697	79.996	19.995	103.051	20.136	0.915	0.023
17.500	108.707	79.996	19.996	103.053	20.135	0.948	0.020
18.000	108.721	79.998	19.995	103.056	20.136	0.902	0.027
18.500	108.749	79.998	19.995	103.058	20.135	0.947	0.033
19.000	108.780	79.998	19.995	103.065	20.133	1.096	0.050
19.500	108.777	79.998	19.995	103.075	20.133	1.107	0.043
20.000	108.798	79.999	19.995	103.090	20.130	1.278	0.023
20.500	108.809	79.998	19.994	103.101	20.131	1.191	0.025
21.000	108.817	79.999	19.995	103.108	20.129	1.343	0.025
21.500	108.854	79.998	19.994	103.108	20.129	1.375	0.032
22.000	108.886	79.998	19.993	103.105	20.129	1.354	0.057
22.500	108.915	79.999	19.994	103.097	20.125	1.596	0.065
23.000	108.919	79.998	19.995	103.091	20.128	1.417	0.047
23.500	108.961	79.999	19.994	103.089	20.127	1.472	0.040
24.000	109.003	79.999	19.995	103.090	20.125	1.622	0.065
24.500	109.031	79.998	19.994	103.093	20.125	1.607	0.076
25.000	109.061	79.999	19.995	103.098	20.127	1.492	0.064
25.500	109.100	79.998	19.995	103.105	20.124	1.660	0.064
26.000	109.141	79.998	19.994	103.115	20.123	1.743	0.075
26.500	109.225	79.998	19.995	103.137	20.123	1.737	0.103
27.000	109.241	79.998	19.995	103.146	20.120	1.972	0.112
27.500	109.290	79.998	19.995	103.149	20.120	1.983	0.083
28.000	109.321	79.999	19.994	103.149	20.119	2.005	0.073
28.500	109.385	79.998	19.994	103.147	20.121	1.919	0.087
29.000	109.404	79.998	19.995	103.132	20.119	2.007	0.089
29.500	109.507	79.998	19.995	103.135	20.120	1.936	0.103
30.001	109.521	79.998	19.995	103.144	20.117	2.161	0.119
30.500	109.568	79.998	19.995	103.149	20.116	2.192	0.089
31.000	109.628	79.996	19.995	103.152	20.117	2.136	0.084
31.500	109.688	80.000	19.996	103.156	20.118	2.104	0.113
32.000	109.743	79.998	19.995	103.149	20.118	2.088	0.117
32.500	109.817	79.999	19.995	103.141	20.114	2.350	0.122
33.000	109.849	79.998	19.994	103.136	20.115	2.304	0.118
33.500	109.958	79.998	19.994	103.132	20.117	2.178	0.124
34.000	109.979	79.997	19.995	103.129	20.115	2.283	0.135
34.500	110.092	79.999	19.995	103.130	20.113	2.422	0.132
35.000	110.176	79.998	19.995	103.132	20.112	2.464	0.165
35.500	110.238	79.998	19.994	103.134	20.114	2.389	0.172
36.000	110.322	79.999	19.994	103.138	20.112	2.479	0.146
36.500	110.377	79.998	19.995	103.139	20.113	2.453	0.143
37.001	110.475	79.999	19.996	103.140	20.116	2.240	0.146
37.501	110.595	79.999	19.994	103.141	20.111	2.534	0.186
38.001	110.653	79.998	19.994	103.143	20.113	2.427	0.198
38.500	110.736	79.998	19.995	103.145	20.109	2.708	0.160
39.000	110.815	80.000	19.995	103.151	20.108	2.745	0.152
39.500	110.913	79.999	19.994	103.155	20.110	2.640	0.169
40.000	110.994	79.998	19.994	103.156	20.110	2.637	0.178
40.500	111.059	79.997	19.993	103.160	20.110	2.591	0.162
41.000	111.192	79.998	19.995	103.161	20.108	2.761	0.172
41.500	111.270	79.999	19.995	103.161	20.105	2.959	0.205
42.000	111.330	80.001	19.997	103.163	20.109	2.688	0.175
42.500	111.412	79.999	19.996	103.165	20.108	2.748	0.140
43.000	111.542	79.999	19.995	103.162	20.109	2.694	0.177
43.500	111.662	79.999	19.995	103.166	20.107	2.819	0.231
44.000	111.754	79.998	19.995	103.171	20.112	2.523	0.231
44.500	111.892	80.000	19.995	103.174	20.107	2.826	0.221
45.000	111.975	79.999	19.995	103.177	20.107	2.813	0.225
45.500	112.073	79.999	19.993	103.181	20.107	2.809	0.201
46.000	112.145	79.999	19.995	103.177	20.106	2.886	0.176
46.501	112.263	79.999	19.993	103.173	20.108	2.735	0.180
47.001	112.370	79.998	19.994	103.173	20.106	2.874	0.207
47.501	112.510	79.998	19.994	103.171	20.108	2.731	0.236
48.001	112.625	79.999	19.994	103.172	20.106	2.908	0.251
48.500	112.717	79.999	19.995	103.176	20.108	2.742	0.231
49.000	112.872	79.999	19.995	103.180	20.104	3.003	0.227
49.500	112.978	79.999	19.994	103.184	20.109	2.717	0.254
50.001	113.103	79.999	19.996	103.188	20.107	2.836	0.246
50.501	113.189	79.999	19.995	103.194	20.107	2.858	0.221
51.000	113.361	80.000	19.995	103.191	20.107	2.822	0.235
51.500	113.487	80.000	19.994	103.187	20.105	2.946	0.278
52.000	113.554	79.999	19.994	103.182	20.107	2.800	0.245
52.500	113.701	79.999	19.994	103.180	20.107	2.805	0.203
53.000	113.841	79.999	19.995	103.180	20.108	2.787	0.250
53.500	113.944	79.999	19.994	103.186	20.111	2.567	0.265
54.000	114.074	79.999	19.994	103.192	20.106	2.906	0.238
54.500	114.219	79.999	19.996	103.199	20.106	2.912	0.254
55.001	114.354	79.999	19.994	103.203	20.104	3.002	0.277
55.501	114.480	79.999	19.995	103.204	20.108	2.730	0.270
56.000	114.594	79.997	19.994	103.205	20.106	2.870	0.251
56.500	114.735	79.998	19.995	103.189	20.104	3.000	0.247
57.000	114.843	79.997	19.994	103.173	20.106	2.881	0.252
57.500	115.012	79.998	19.995	103.164	20.105	2.965	0.264
58.001	115.182	79.998	19.995	103.156	20.107	2.796	0.308
58.501	115.292	79.997	19.994	103.152	20.107	2.797	0.309
59.000	115.429	79.997	19.994	103.173	20.106	2.874	0.264
59.500	115.588	79.996	19.995	103.212	20.107	2.809	0.271
60.000	115.742	79.996	19.994	103.232	20.108	2.742	0.305
60.501	115.894	79.996	19.994	103.239	20.105	2.954	0.309
61.001	116.026	79.997	19.994	103.239	20.105	2.940	0.294
61.501	116.177	79.996	19.995	103.231	20.108	2.736	0.283
62.000	116.327	79.997	19.994	103.203	20.108	2.791	0.292
62.500	116.447	79.996	19.996	103.186	20.106	2.925	0.286
63.000	116.620	79.996	19.995	103.179	20.105	2.929	0.281
63.500	116.755	79.996	19.995	103.176	20.104	3.006	0.301
64.000	116.911	79.997	19.995	103.177	20.105	2.976	0.300
64.500	117.084	79.997	19.995	103.180	20.107	2.843	0.310
65.000	117.228	79.996	19.994	103.184	20.106	2.890	0.323
65.500	117.367	79.996	19.994	103.190	20.107	2.808	0.300
66.000	117.540	79.997	19.994	103.196	20.106	2.898	0.298
66.500	117.698	79.997	19.996	103.199	20.105	2.929	0.321
67.000	117.860	79.997	19.994	103.197	20.104	3.004	0.325
67.500	118.028	79.996	19.996	103.197	20.103	3.092	0.325
68.000	118.140	79.996	19.995	103.198	20.104	3.026	0.305
68.500	118.328	79.996	19.995	103.197	20.102	3.187	0.290
69.000	118.502	79.997	19.995	103.198	20.104	3.057	0.331
69.500	118.639	79.996	19.995	103.201	20.106	2.888	0.337
70.000	118.820	79.997	19.995	103.205	20.107	2.853	0.314
70.500	119.006	79.996	19.995	103.205	20.106	2.894	0.343
71.000	119.144	79.996	19.996	103.208	20.105	2.940	0.346
71.501	119.318	79.995	19.995	103.209	20.104	2.995	0.318
72.001	119.508	79.996	19.995	103.210	20.105	2.960	0.338
72.500	119.671	79.995	19.994	103.211	20.104	3.053	0.358
73.000	119.844	79.996	19.994	103.211	20.103	3.064	0.345
73.500	120.025	79.997	19.995	103.210	20.104	3.039	0.345
74.000	120.191	79.996	19.995	103.209	20.105	2.986	0.350
74.500	120.343	79.997	19.995	103.209	20.103	3.120	0.332
75.000	120.543	79.997	19.995	103.209	20.103	3.087	0.335
75.500	120.701	79.996	19.993	103.209	20.104	3.033	0.355
76.000	120.889	79.996	19.996	103.208	20.103	3.099	0.352
76.500	121.090	79.997	19.996	103.210	20.104	3.008	0.368
77.001	121.256	79.998	19.995	103.216	20.101	3.222	0.379
77.501	121.450	79.996	19.995	103.216	20.101	3.235	0.364
78.000	121.612	79.998	19.995	103.215	20.103	3.121	0.358
78.501	121.843	79.996	19.994	103.216	20.102	3.152	0.374
79.001	122.035	79.998	19.995	103.214	20.102	3.143	0.408
79.501	122.206	79.996	19.994	103.207	20.104	3.033	0.393
80.001	122.353	79.996	19.995	103.205	20.106	2.909	0.340
80.501	122.551	79.998	19.996	103.203	20.104	2.998	0.332
81.001	122.768	79.999	19.995	103.202	20.104	3.026	0.380
81.500	122.948	79.996	19.995	103.201	20.103	3.090	0.406
82.000	123.167	79.997	19.995	103.200	20.101	3.251	0.398
82.500	123.333	79.996	19.995	103.201	20.102	3.140	0.392
83.000	123.512	79.998	19.995	103.202	20.102	3.151	0.365
83.500	123.684	79.998	19.995	103.202	20.101	3.246	0.348
84.000	123.924	79.996	19.994	103.205	20.100	3.312	0.381
84.500	124.131	79.997	19.996	103.211	20.100	3.270	0.429
85.000	124.276	79.997	19.994	103.211	20.101	3.215	0.400
85.501	124.516	79.996	19.996	103.212	20.100	3.296	0.369
86.001	124.700	79.996	19.995	103.212	20.099	3.334	0.404
86.500	124.862	79.996	19.994	103.209	20.101	3.235	0.385
87.000	125.063	79.997	19.995	103.204	20.102	3.138	0.355
87.500	125.244	79.997	19.995	103.204	20.101	3.198	0.373
88.000	125.444	79.997	19.994	103.202	20.105	2.963	0.381
88.500	125.683	79.997	19.995	103.202	20.102	3.143	0.410
89.000	125.861	79.997	19.995	103.204	20.107	2.835	0.428
89.500	126.120	79.997	19.995	103.204	20.103	3.081	0.427
90.000	126.264	79.997	19.995	103.205	20.102	3.140	0.420
90.500	126.491	79.996	19.995	103.205	20.103	3.118	0.387
91.000	126.653	79.997	19.995	103.205	20.105	2.929	0.380
91.501	126.881	79.996	19.994	103.205	20.104	3.020	0.389
92.001	127.108	79.996	19.993	103.204	20.104	3.039	0.422
92.500	127.281	79.997	19.994	103.204	20.102	3.189	0.427
93.000	127.499	79.997	19.995	103.206	20.102	3.158	0.396
93.500	127.719	79.996	19.996	103.206	20.105	2.965	0.415
94.000	127.899	79.997	19.995	103.208	20.105	2.987	0.419
94.500	128.110	79.996	19.995	103.210	20.104	3.041	0.395
95.000	128.332	79.996	19.996	103.212	20.105	2.943	0.412
95.500	128.536	79.995	19.995	103.212	20.100	3.294	0.430
96.000	128.742	79.995	19.995	103.212	20.103	3.085	0.418
96.500	128.962	79.997	19.995	103.211	20.104	3.013	0.418
97.000	129.165	79.997	19.996	103.209	20.103	3.073	0.425
97.500	129.385	79.996	19.996	103.206	20.104	3.028	0.423
98.000	129.611	79.998	19.995	103.203	20.100	3.288	0.435
98.500	129.818	79.997	19.997	103.203	20.100	3.310	0.439
99.000	129.983	79.997	19.996	103.203	20.102	3.167	0.402
99.500	130.216	79.997	19.995	103.203	20.100	3.299	0.385
100.000	130.496	79.998	19.995	103.203	20.104	3.057	0.455
100.500	130.688	79.997	19.995	103.203	20.103	3.090	0.492
101.000	130.880	79.998	19.995	103.203	20.105	2.969	0.428
101.500	131.116	79.997	19.996	103.203	20.105	2.945	0.406
102.000	131.324	79.997	19.996	103.202	20.103	3.123	0.436
102.501	131.516	79.998	19.996	103.202	20.102	3.175	0.423
103.001	131.769	79.997	19.996	103.202	20.104	3.015	0.422
103.500	131.983	79.997	19.996	103.204	20.103	3.125	0.456
104.000	132.217	79.996	19.996	103.203	20.101	3.235	0.457
104.500	132.437	79.999	19.997	103.203	20.101	3.220	0.451
105.000	132.660	79.997	19.996	103.204	20.105	2.945	0.449
105.500	132.884	79.998	19.996	103.207	20.106	2.887	0.445
106.001	133.086	79.998	19.995	103.204	20.101	3.224	0.436
106.501	133.322	79.998	19.997	103.204	20.102	3.169	0.432
107.000	133.558	79.998	19.994	103.204	20.100	3.299	0.455
107.500	133.766	79.997	19.995	103.204	20.101	3.208	0.458
108.000	134.007	79.998	19.996	103.201	20.097	3.496	0.446
108.500	134.242	80.000	19.995	103.201	20.101	3.223	0.463
109.000	134.434	79.997	19.995	103.201	20.104	3.014	0.452
109.500	134.631	79.996	19.996	103.201	20.102	3.146	0.408
110.000	134.896	79.997	19.995	103.202	20.100	3.295	0.426
110.500	135.132	79.997	19.994	103.204	20.098	3.442	0.482
111.000	135.350	79.998	19.995	103.204	20.100	3.328	0.478
111.500	135.561	79.999	19.996	103.204	20.100	3.262	0.441
112.000	135.789	79.998	19.995	103.206	20.098	3.403	0.434
112.500	136.017	79.997	19.994	103.211	20.100	3.295	0.447
113.000	136.250	79.998	19.995	103.214	20.101	3.223	0.458
113.501	136.479	79.998	19.994	103.215	20.101	3.247	0.461
114.001	136.715	79.997	19.995	103.215	20.102	3.151	0.463
114.501	136.962	79.998	19.995	103.214	20.100	3.280	0.474
115.000	137.184	79.998	19.996	103.212	20.101	3.219	0.476
115.500	137.419	79.998	19.994	103.211	20.102	3.167	0.463
116.000	137.677	79.997	19.995	103.211	20.101	3.196	0.475
116.501	137.880	79.998	19.994	103.213	20.098	3.459	0.477
117.001	138.124	79.998	19.995	103.213	20.102	3.174	0.454
117.501	138.354	79.998	19.996	103.211	20.101	3.224	0.460
118.001	138.587	79.999	19.994	103.209	20.099	3.365	0.468
118.501	138.837	79.997	19.995	103.215	20.102	3.176	0.473
119.000	139.059	79.998	19.994	103.218	20.100	3.323	0.478
119.500	139.277	79.999	19.995	103.223	20.102	3.140	0.456
120.000	139.494	79.998	19.994	103.231	20.098	3.406	0.438
120.500	139.747	79.998	19.996	103.237	20.102	3.149	0.453
121.000	139.987	79.998	19.994	103.239	20.098	3.399	0.481
121.500	140.258	79.996	19.994	103.242	20.101	3.257	0.502
122.000	140.477	79.997	19.995	103.247	20.099	3.377	0.500
122.501	140.715	79.998	19.995	103.248	20.100	3.311	0.474
123.001	140.948	79.999	19.994	103.248	20.100	3.311	0.465
123.500	141.203	79.995	19.994	103.246	20.098	3.434	0.480
124.000	141.415	79.998	19.994	103.243	20.099	3.356	0.478
124.500	141.654	79.999	19.994	103.239	20.099	3.343	0.459
125.000	141.905	79.998	19.994	103.232	20.100	3.314	0.470
125.500	142.128	79.998	19.994	103.224	20.099	3.345	0.482
126.000	142.343	79.998	19.994	103.218	20.097	3.523	0.456
126.500	142.592	79.999	19.994	103.212	20.099	3.383	0.450
127.000	142.868	80.000	19.994	103.206	20.098	3.450	0.494
127.500	143.122	79.998	19.994	103.204	20.096	3.586	0.528
128.000	143.368	80.000	19.996	103.204	20.097	3.470	0.515
128.500	143.616	79.999	19.994	103.205	20.098	3.419	0.497
129.000	143.825	80.000	19.994	103.204	20.094	3.677	0.476
129.500	144.082	79.999	19.995	103.204	20.094	3.663	0.462
130.000	144.304	80.000	19.995	103.205	20.096	3.573	0.472
130.500	144.578	79.999	19.994	103.207	20.098	3.417	0.487
131.000	144.810	79.999	19.995	103.211	20.099	3.369	0.501
131.500	145.055	79.998	19.994	103.214	20.094	3.675	0.492
132.000	145.274	80.000	19.993	103.216	20.099	3.370	0.471
132.500	145.521	79.999	19.993	103.217	20.094	3.671	0.465
133.000	145.787	79.998	19.993	103.218	20.097	3.496	0.489
133.500	146.041	79.998	19.994	103.221	20.100	3.317	0.516
134.000	146.264	79.999	19.994	103.227	20.101	3.225	0.499
134.500	146.500	79.998	19.994	103.237	20.099	3.358	0.468
135.000	146.802	79.999	19.994	103.251	20.102	3.154	0.499
135.500	147.036	79.998	19.995	103.263	20.102	3.165	0.537
136.000	147.227	79.997	19.995	103.267	20.103	3.061	0.481
136.500	147.489	79.996	19.994	103.265	20.101	3.226	0.439
137.000	147.712	79.997	19.994	103.258	20.101	3.196	0.469
137.500	147.986	79.997	19.995	103.243	20.102	3.187	0.491
138.000	148.247	79.996	19.995	103.229	20.099	3.354	0.516
138.500	148.532	79.998	19.995	103.227	20.103	3.110	0.540
139.000	148.755	79.998	19.995	103.221	20.100	3.327	0.527
139.500	148.999	79.997	19.995	103.217	20.101	3.230	0.488
140.000	149.240	79.997	19.995	103.222	20.100	3.274	0.476
140.500	149.468	79.998	19.995	103.223	20.099	3.389	0.477
141.000	149.708	79.997	19.994	103.217	20.098	3.449	0.468
141.500	149.946	79.999	19.995	103.214	20.097	3.501	0.473
142.000	150.243	79.998	19.994	103.211	20.102	3.132	0.507
142.500	150.444	79.997	19.996	103.201	20.097	3.499	0.516
143.000	150.689	79.997	19.995	103.189	20.100	3.303	0.472
143.500	150.931	79.998	19.995	103.181	20.099	3.374	0.466
144.000	151.175	79.999	19.995	103.180	20.101	3.196	0.486
144.500	151.444	79.998	19.995	103.181	20.098	3.400	0.499
145.000	151.676	79.998	19.994	103.188	20.098	3.426	0.507
145.500	151.923	79.999	19.995	103.195	20.099	3.376	0.490
146.000	152.194	79.998	19.995	103.202	20.095	3.607	0.498
146.500	152.408	79.999	19.996	103.205	20.098	3.438	0.502
147.000	152.702	79.998	19.995	103.206	20.095	3.612	0.497
147.500	152.967	79.998	19.995	103.204	20.098	3.401	0.533
148.000	153.221	79.997	19.994	103.205	20.098	3.427	0.539
148.500	153.440	79.998	19.993	103.207	20.099	3.346	0.496
149.000	153.707	79.998	19.995	103.211	20.097	3.502	0.480
149.500	153.946	79.999	19.994	103.212	20.098	3.438	0.496
150.000	154.186	79.999	19.995	103.212	20.098	3.447	0.493
150.500	154.419	79.997	19.994	103.211	20.098	3.400	0.476
151.000	154.688	79.996	19.995	103.209	20.100	3.303	0.487
151.500	154.932	79.997	19.994	103.205	20.098	3.404	0.507
152.000	155.184	79.997	19.995	103.204	20.096	3.574	0.504
152.500	155.415	79.998	19.995	103.204	20.094	3.684	0.490
153.000	155.665	80.000	19.994	103.204	20.097	3.499	0.482
153.500	155.861	79.997	19.996	103.204	20.098	3.426	0.463
154.000	156.162	79.999	19.996	103.204	20.096	3.551	0.472
154.500	156.396	79.997	19.994	103.204	20.096	3.532	0.516
155.000	156.651	79.998	19.994	103.203	20.098	3.430	0.512
155.500	156.938	79.997	19.995	103.203	20.095	3.613	0.515
156.000	157.173	79.998	19.996	103.202	20.096	3.580	0.532
156.500	157.435	79.998	19.994	103.202	20.094	3.679	0.510
157.000	157.692	79.998	19.995	103.198	20.098	3.448	0.508
157.500	157.939	79.997	19.995	103.197	20.096	3.554	0.512
158.000	158.197	79.999	19.994	103.196	20.095	3.646	0.505
158.500	158.438	79.997	19.993	103.193	20.097	3.479	0.502
159.000	158.657	79.997	19.994	103.189	20.097	3.475	0.480
159.500	158.919	79.999	19.995	103.190	20.095	3.618	0.470
160.000	159.171	79.997	19.996	103.191	20.097	3.521	0.497
160.500	159.435	79.997	19.995	103.191	20.098	3.403	0.515
161.000	159.640	79.998	19.995	103.195	20.095	3.629	0.493
161.500	159.887	79.998	19.994	103.199	20.097	3.517	0.461
162.000	160.182	79.996	19.996	103.204	20.095	3.651	0.497
162.500	160.408	79.998	19.996	103.206	20.095	3.654	0.531
163.000	160.661	79.998	19.996	103.207	20.097	3.475	0.500
163.500	160.913	79.997	19.995	103.208	20.094	3.689	0.492
164.000	161.188	79.998	19.995	103.209	20.092	3.827	0.516
164.500	161.426	79.997	19.995	103.210	20.093	3.754	0.520
165.000	161.649	79.997	19.995	103.211	20.091	3.908	0.487
165.500	161.933	79.997	19.995	103.213	20.091	3.875	0.484
166.000	162.123	79.997	19.995	103.211	20.094	3.726	0.491
166.500	162.406	79.997	19.996	103.211	20.094	3.725	0.474
167.000	162.698	79.997	19.996	103.208	20.091	3.926	0.524
167.500	162.924	79.996	19.996	103.205	20.090	3.957	0.546
168.000	163.165	79.996	19.995	103.203	20.090	3.954	0.492
168.500	163.430	79.997	19.995	103.202	20.090	3.945	0.487
169.000	163.693	79.996	19.996	103.202	20.090	3.981	0.517
169.500	163.930	79.998	19.995	103.202	20.093	3.732	0.514
170.000	164.168	79.996	19.996	103.200	20.092	3.833	0.487
170.500	164.447	79.996	19.995	103.199	20.089	4.051	0.496
171.000	164.713	79.997	19.995	103.199	20.089	4.040	0.531
171.500	164.977	79.997	19.996	103.199	20.089	4.001	0.538
172.000	165.199	79.996	19.995	103.193	20.092	3.855	0.508
172.500	165.487	79.996	19.996	103.192	20.091	3.902	0.498
173.000	165.717	79.996	19.995	103.191	20.090	3.959	0.514
173.500	165.947	79.996	19.995	103.190	20.093	3.781	0.489
174.000	166.222	79.995	19.996	103.190	20.090	3.978	0.482
174.500	166.514	79.997	19.995	103.196	20.090	3.938	0.536
175.000	166.746	79.996	19.995	103.199	20.088	4.103	0.546
175.500	167.010	79.998	19.995	103.203	20.091	3.914	0.510
176.000	167.200	79.997	19.996	103.204	20.094	3.727	0.475
176.500	167.463	79.998	19.996	103.204	20.093	3.766	0.454
177.000	167.735	79.996	19.994	103.204	20.091	3.910	0.494
177.500	167.965	79.998	19.996	103.203	20.090	3.936	0.518
178.000	168.225	79.996	19.995	103.202	20.088	4.081	0.496
178.500	168.423	79.997	19.995	103.202	20.091	3.903	0.474
179.000	168.699	79.997	19.996	103.202	20.088	4.121	0.466
179.500	168.931	79.997	19.996	103.202	20.089	4.015	0.491
180.000	169.215	79.998	19.995	103.202	20.089	4.029	0.512
180.500	169.462	79.998	19.995	103.203	20.087	4.189	0.524
181.000	169.695	79.998	19.994	103.204	20.089	4.040	0.505
181.500	169.963	79.998	19.994	103.204	20.083	4.418	0.490
182.000	170.237	80.000	19.994	103.204	20.085	4.270	0.522
182.500	170.453	79.998	19.994	103.204	20.081	4.560	0.516
183.000	170.684	79.997	19.995	103.198	20.084	4.357	0.468
183.500	170.934	79.998	19.996	103.192	20.084	4.382	0.464
184.000	171.247	79.999	19.995	103.190	20.082	4.520	0.522
184.500	171.474	79.999	19.996	103.183	20.083	4.443	0.551
185.000	171.724	80.000	19.996	103.176	20.081	4.562	0.509
185.500	171.937	79.998	19.995	103.177	20.080	4.610	0.470
186.000	172.242	79.996	19.995	103.180	20.084	4.364	0.490
186.500	172.477	80.000	19.996	103.174	20.080	4.625	0.529
187.000	172.743	79.997	19.995	103.171	20.083	4.449	0.521
187.500	172.968	79.998	19.995	103.172	20.083	4.406	0.496
188.000	173.215	79.999	19.995	103.170	20.080	4.661	0.482
188.500	173.452	79.999	19.995	103.167	20.080	4.609	0.478
189.000	173.751	79.999	19.995	103.170	20.079	4.682	0.510
189.500	174.037	79.998	19.994	103.172	20.080	4.646	0.560
190.000	174.253	79.998	19.996	103.170	20.081	4.547	0.543
190.500	174.521	79.997	19.996	103.170	20.078	4.791	0.493
191.000	174.734	79.998	19.996	103.168	20.080	4.644	0.483
191.500	174.944	79.997	19.995	103.165	20.082	4.521	0.452
192.000	175.193	79.997	19.995	103.166	20.081	4.536	0.441
192.500	175.449	79.996	19.995	103.166	20.083	4.451	0.482
193.000	175.709	79.997	19.997	103.172	20.079	4.684	0.511
193.500	175.972	79.997	19.996	103.179	20.079	4.666	0.519
194.000	176.210	79.996	19.995	103.187	20.082	4.475	0.512
194.500	176.451	79.997	19.997	103.193	20.080	4.653	0.490
195.000	176.691	79.996	19.996	103.198	20.078	4.794	0.481
195.500	176.958	79.998	19.995	103.201	20.078	4.747	0.494
196.000	177.164	79.996	19.995	103.201	20.080	4.620	0.490
196.500	177.407	79.996	19.995	103.199	20.078	4.756	0.461
197.000	177.648	79.996	19.996	103.198	20.080	4.605	0.466
197.500	177.930	79.997	19.995	103.201	20.078	4.788	0.503
198.000	178.169	79.996	19.994	103.201	20.079	4.691	0.522
198.500	178.424	79.996	19.995	103.195	20.078	4.763	0.507
199.000	178.663	79.995	19.995	103.191	20.077	4.841	0.494
199.500	178.913	79.997	19.996	103.184	20.075	4.951	0.492
200.000	179.198	79.996	19.995	103.178	20.076	4.889	0.512
200.500	179.396	79.996	19.995	103.172	20.076	4.880	0.509
201.000	179.670	79.996	19.995	103.175	20.075	4.994	0.477
201.500	179.925	79.998	19.995	103.175	20.073	5.128	0.501
202.000	180.160	79.997	19.995	103.175	20.076	4.921	0.510
202.500	180.406	79.998	19.995	103.175	20.073	5.120	0.485
203.000	180.639	79.998	19.995	103.175	20.075	4.961	0.479
203.500	180.906	79.998	19.995	103.170	20.076	4.915	0.489
204.000	181.200	79.999	19.994	103.170	20.076	4.886	0.531
204.501	181.405	79.997	19.995	103.171	20.076	4.876	0.530
205.000	181.665	79.997	19.994	103.175	20.075	4.986	0.482
205.500	181.922	80.000	19.994	103.178	20.074	5.059	0.491
206.000	182.148	79.999	19.994	103.180	20.075	4.980	0.500
206.500	182.397	79.999	19.995	103.178	20.072	5.168	0.479
207.000	182.665	80.000	19.994	103.177	20.073	5.109	0.496
207.500	182.896	79.999	19.995	103.171	20.072	5.174	0.508
208.000	183.158	80.000	19.994	103.169	20.071	5.211	0.496
208.500	183.419	80.000	19.995	103.168	20.071	5.223	0.508
209.000	183.642	80.001	19.995	103.167	20.070	5.321	0.503
209.500	183.882	80.001	19.995	103.167	20.069	5.337	0.473
210.000	184.147	79.999	19.994	103.168	20.070	5.284	0.484
210.500	184.349	80.000	19.994	103.166	20.068	5.434	0.486
211.000	184.606	80.000	19.994	103.168	20.069	5.389	0.463
211.500	184.871	80.000	19.995	103.173	20.072	5.148	0.490
212.000	185.134	80.000	19.995	103.176	20.066	5.570	0.525
212.500	185.413	79.999	19.995	103.176	20.070	5.298	0.535
213.000	185.616	80.000	19.995	103.176	20.069	5.344	0.512
213.500	185.942	80.001	19.995	103.173	20.069	5.371	0.506
214.000	186.158	79.999	19.994	103.176	20.068	5.429	0.536
214.500	186.406	79.999	19.994	103.178	20.066	5.549	0.503
215.000	186.692	79.998	19.994	103.186	20.066	5.576	0.499
215.500	186.918	79.999	19.995	103.190	20.067	5.511	0.523
216.000	187.172	79.998	19.995	103.192	20.066	5.535	0.496
216.500	187.441	79.996	19.995	103.185	20.068	5.439	0.501
217.000	187.677	79.997	19.994	103.179	20.067	5.509	0.514
217.500	187.901	79.998	19.995	103.173	20.064	5.723	0.483
218.000	188.155	79.996	19.996	103.173	20.065	5.639	0.469
218.500	188.441	79.998	19.995	103.177	20.064	5.710	0.509
219.000	188.628	79.997	19.996	103.180	20.063	5.771	0.507
219.500	188.896	79.996	19.996	103.180	20.063	5.765	0.464
220.000	189.190	79.997	19.996	103.181	20.065	5.609	0.508
220.500	189.445	79.998	19.996	103.175	20.065	5.611	0.556
221.000	189.659	79.998	19.995	103.175	20.066	5.584	0.510
221.500	189.943	79.995	19.994	103.180	20.066	5.542	0.484
222.000	190.166	79.998	19.996	103.189	20.064	5.718	0.502
222.500	190.418	79.997	19.995	103.202	20.064	5.729	0.491
223.000	190.649	79.997	19.996	103.218	20.063	5.755	0.479
223.500	190.924	79.998	19.995	103.236	20.066	5.577	0.494
224.000	191.195	79.998	19.995	103.243	20.062	5.861	0.526
224.500	191.414	79.997	19.996	103.239	20.064	5.723	0.518
225.000	191.701	79.998	19.995	103.223	20.066	5.588	0.498
225.500	191.936	79.997	19.996	103.206	20.065	5.610	0.514
226.000	192.188	79.997	19.995	103.188	20.063	5.762	0.504
226.500	192.427	79.996	19.995	103.177	20.065	5.626	0.489
227.000	192.695	79.997	19.995	103.170	20.060	6.002	0.500
227.500	192.954	79.997	19.996	103.173	20.060	5.973	0.517
228.000	193.158	79.997	19.996	103.175	20.060	5.963	0.495
228.500	193.431	79.997	19.996	103.172	20.059	6.057	0.470
229.000	193.671	79.999	19.995	103.167	20.059	6.011	0.495
229.500	193.941	79.997	19.995	103.167	20.060	5.956	0.512
230.000	194.173	79.997	19.995	103.165	20.061	5.896	0.506
230.500	194.432	79.998	19.995	103.163	20.060	6.003	0.497
231.000	194.646	79.997	19.996	103.161	20.063	5.785	0.482
231.500	194.888	79.997	19.994	103.161	20.064	5.734	0.465
232.000	195.140	79.998	19.995	103.161	20.061	5.896	0.475
232.501	195.396	79.998	19.994	103.164	20.059	6.046	0.501
233.000	195.628	79.998	19.995	103.169	20.058	6.119	0.498
233.500	195.864	79.998	19.995	103.170	20.061	5.902	0.478
234.000	196.137	79.998	19.996	103.172	20.058	6.113	0.489
234.500	196.377	79.997	19.996	103.173	20.057	6.201	0.511
235.000	196.595	79.997	19.994	103.170	20.058	6.087	0.485
235.500	196.888	79.996	19.996	103.166	20.055	6.309	0.485
236.000	197.113	79.997	19.995	103.170	20.056	6.246	0.515
236.500	197.368	79.999	19.996	103.174	20.054	6.369	0.499
237.000	197.629	79.997	19.994	103.174	20.058	6.114	0.498
237.500	197.880	79.997	19.995	103.174	20.054	6.354	0.514
238.000	198.146	79.999	19.995	103.174	20.058	6.130	0.515
238.500	198.343	79.998	19.995	103.170	20.056	6.258	0.490
239.000	198.652	79.998	19.994	103.165	20.056	6.233	0.484
239.500	198.884	79.998	19.995	103.165	20.055	6.275	0.523
240.000	199.121	79.997	19.995	103.165	20.056	6.230	0.505
240.500	199.338	79.997	19.994	103.165	20.053	6.412	0.461
241.000	199.625	79.999	19.994	103.172	20.055	6.309	0.479
241.500	199.830	79.997	19.994	103.180	20.057	6.171	0.498
242.000	200.123	79.997	19.995	103.188	20.054	6.342	0.494
242.500	200.337	79.998	19.994	103.193	20.055	6.324	0.502
243.000	200.635	79.997	19.993	103.200	20.053	6.446	0.510
243.500	200.883	79.998	19.994	103.201	20.057	6.181	0.529
244.000	201.145	79.997	19.995	103.196	20.057	6.164	0.528
244.500	201.425	79.999	19.995	103.188	20.055	6.331	0.526
245.000	201.639	79.997	19.994	103.184	20.055	6.328	0.518
245.500	201.881	79.997	19.994	103.184	20.054	6.360	0.475
246.000	202.119	79.998	19.994	103.184	20.053	6.416	0.468
246.500	202.366	79.997	19.994	103.189	20.056	6.204	0.482
247.000	202.616	79.997	19.994	103.197	20.055	6.326	0.491
247.500	202.873	79.998	19.994	103.205	20.054	6.381	0.502
248.000	203.128	79.998	19.995	103.205	20.054	6.358	0.510
248.500	203.349	79.997	19.995	103.203	20.054	6.385	0.494
249.000	203.622	79.997	19.995	103.199	20.052	6.519	0.485
249.500	203.859	79.996	19.995	103.194	20.053	6.433	0.501
250.000	204.116	79.996	19.996	103.193	20.049	6.681	0.502
250.500	204.362	79.997	19.994	103.191	20.052	6.494	0.499
251.001	204.589	79.997	19.995	103.187	20.052	6.539	0.488
251.500	204.854	79.998	19.995	103.183	20.051	6.583	0.483
252.000	205.112	79.996	19.995	103.177	20.050	6.626	0.508
252.500	205.340	79.997	19.994	103.170	20.046	6.878	0.504
253.000	205.613	79.997	19.995	103.161	20.049	6.676	0.493
253.500	205.842	79.996	19.996	103.161	20.050	6.672	0.501
254.000	206.073	79.997	19.996	103.173	20.048	6.799	0.482
254.500	206.340	79.996	19.996	103.184	20.048	6.777	0.479
255.000	206.607	79.996	19.995	103.186	20.052	6.536	0.516
255.500	206.851	79.997	19.995	103.188	20.049	6.723	0.523
256.000	207.115	79.996	19.994	103.189	20.052	6.504	0.509
256.500	207.343	79.995	19.995	103.177	20.048	6.800	0.500
257.000	207.601	79.997	19.996	103.168	20.051	6.569	0.490
257.500	207.848	79.996	19.995	103.167	20.051	6.548	0.496
258.000	208.127	79.997	19.995	103.167	20.052	6.482	0.515
258.500	208.341	79.998	19.996	103.168	20.050	6.652	0.509
259.000	208.621	79.997	19.996	103.168	20.053	6.465	0.494
259.500	208.869	79.998	19.996	103.170	20.049	6.706	0.511
260.000	209.111	79.997	19.995	103.170	20.049	6.702	0.509
260.500	209.359	79.997	19.995	103.170	20.050	6.643	0.490
261.000	209.620	79.998	19.995	103.176	20.050	6.634	0.499
261.500	209.832	79.998	19.995	103.182	20.050	6.647	0.491
262.000	210.065	79.997	19.996	103.189	20.050	6.653	0.460
262.500	210.334	79.998	19.995	103.197	20.047	6.843	0.474
263.000	210.525	79.997	19.995	103.201	20.049	6.717	0.480
263.500	210.810	79.999	19.995	103.194	20.045	6.942	0.468
264.000	211.077	79.998	19.994	103.187	20.047	6.847	0.514
264.500	211.335	79.999	19.995	103.180	20.048	6.799	0.539
265.000	211.547	79.999	19.996	103.167	20.044	7.013	0.498
265.500	211.819	79.999	19.996	103.155	20.047	6.839	0.477
266.000	212.065	80.000	19.996	103.148	20.043	7.076	0.501
266.500	212.263	80.000	19.996	103.142	20.047	6.812	0.481
267.000	212.545	79.999	19.995	103.143	20.046	6.920	0.462
267.500	212.804	79.999	19.995	103.146	20.044	7.019	0.510
268.000	213.004	79.998	19.995	103.150	20.044	7.055	0.500
268.500	213.294	79.999	19.995	103.157	20.048	6.786	0.475
269.000	213.579	80.000	19.995	103.162	20.042	7.142	0.533
269.500	213.807	80.000	19.996	103.162	20.042	7.147	0.544
270.000	214.061	80.000	19.995	103.163	20.043	7.124	0.497
270.500	214.321	79.999	19.995	103.166	20.042	7.157	0.498
271.000	214.520	80.000	19.995	103.166	20.045	6.961	0.486
271.500	214.819	79.998	19.995	103.165	20.041	7.248	0.479
272.000	215.050	79.999	19.995	103.165	20.044	7.034	0.514
272.500	215.262	79.999	19.995	103.165	20.041	7.217	0.486
273.000	215.570	79.999	19.996	103.165	20.042	7.144	0.482
273.500	215.797	79.998	19.995	103.165	20.040	7.309	0.528
274.000	216.035	79.998	19.995	103.165	20.041	7.238	0.500
274.500	216.286	79.999	19.995	103.165	20.040	7.315	0.477
275.000	216.533	79.997	19.994	103.164	20.041	7.258	0.493
275.500	216.804	79.999	19.996	103.163	20.044	7.043	0.508
276.000	217.040	79.997	19.995	103.161	20.038	7.408	0.513
276.500	217.254	79.998	19.996	103.161	20.039	7.364	0.479
277.000	217.525	79.997	19.996	103.161	20.040	7.295	0.467
277.500	217.774	79.998	19.995	103.161	20.037	7.530	0.503
278.000	218.017	79.998	19.995	103.160	20.042	7.191	0.506
278.500	218.292	79.998	19.996	103.159	20.040	7.281	0.505
279.000	218.554	79.998	19.995	103.159	20.040	7.286	0.527
279.500	218.773	79.998	19.995	103.159	20.040	7.301	0.509
280.000	218.998	79.998	19.996	103.160	20.042	7.149	0.462
280.500	219.237	79.997	19.995	103.162	20.041	7.213	0.454
281.000	219.533	79.997	19.995	103.165	20.040	7.318	0.500
281.500	219.738	79.998	19.995	103.166	20.039	7.363	0.518
282.000	220.011	79.998	19.996	103.165	20.041	7.224	0.490
282.500	220.266	79.998	19.995	103.165	20.041	7.266	0.503
283.000	220.507	79.997	19.996	103.164	20.039	7.403	0.511
283.500	220.753	79.998	19.996	103.164	20.040	7.288	0.492
284.000	220.989	79.998	19.996	103.166	20.039	7.358	0.485
284.500	221.241	79.998	19.996	103.168	20.039	7.396	0.485
285.000	221.471	79.999	19.996	103.170	20.039	7.394	0.485
285.500	221.718	80.000	19.996	103.174	20.040	7.283	0.479
286.000	221.968	79.999	19.996	103.175	20.038	7.429	0.487
286.500	222.253	79.998	19.996	103.169	20.039	7.346	0.516
287.000	222.497	79.998	19.996	103.165	20.040	7.294	0.532
287.500	222.727	80.000	19.996	103.163	20.036	7.567	0.502
288.000	223.000	80.000	19.996	103.156	20.036	7.564	0.488
288.500	223.214	79.999	19.995	103.153	20.035	7.644	0.494
289.000	223.480	80.000	19.996	103.156	20.035	7.630	0.484
289.500	223.738	80.000	19.995	103.157	20.036	7.570	0.502
290.000	223.974	80.000	19.996	103.157	20.039	7.391	0.509
290.500	224.225	80.000	19.995	103.158	20.035	7.649	0.491
291.000	224.469	80.000	19.995	103.158	20.034	7.720	0.491
291.500	224.700	80.000	19.996	103.159	20.034	7.695	0.485
292.000	224.927	79.999	19.995	103.158	20.035	7.671	0.466
292.500	225.211	80.000	19.995	103.158	20.033	7.768	0.484
293.000	225.491	79.999	19.995	103.160	20.033	7.748	0.537
293.500	225.788	80.001	19.995	103.157	20.035	7.672	0.570
294.000	226.029	80.000	19.995	103.153	20.034	7.707	0.557
294.500	226.250	79.999	19.995	103.154	20.033	7.777	0.500
295.000	226.493	79.999	19.995	103.156	20.028	8.113	0.463
295.500	226.739	79.998	19.995	103.155	20.030	7.969	0.477
296.000	226.977	80.000	19.995	103.155	20.030	7.949	0.486
296.500	227.221	79.999	19.996	103.157	20.026	8.228	0.483
297.000	227.503	79.998	19.995	103.154	20.028	8.099	0.504
297.500	227.768	79.999	19.994	103.151	20.027	8.152	0.536
298.000	227.990	79.998	19.994	103.144	20.028	8.122	0.517
298.500	228.278	79.998	19.994	103.140	20.030	7.989	0.498
299.000	228.521	79.998	19.994	103.139	20.026	8.219	0.520
299.500	228.767	79.997	19.994	103.141	20.027	8.157	0.510
300.000	229.047	79.998	19.994	103.143	20.029	8.058	0.507
300.500	229.300	79.997	19.995	103.150	20.028	8.110	0.530
301.000	229.537	79.997	19.994	103.157	20.027	8.145	0.512
301.500	229.768	79.998	19.993	103.158	20.026	8.269	0.479
302.000	230.038	79.996	19.994	103.154	20.027	8.166	0.485
302.500	230.288	79.996	19.994	103.155	20.025	8.311	0.511
303.000	230.505	79.996	19.994	103.155	20.027	8.200	0.494
303.500	230.775	79.997	19.995	103.155	20.026	8.227	0.477
304.000	231.040	79.997	19.995	103.159	20.025	8.286	0.511
304.500	231.280	79.997	19.995	103.164	20.024	8.361	0.520
305.001	231.522	79.998	19.994	103.164	20.026	8.253	0.493
305.500	231.761	79.996	19.995	103.172	20.027	8.175	0.481
306.000	232.040	79.997	19.995	103.181	20.027	8.183	0.499
306.500	232.275	79.998	19.994	103.190	20.027	8.188	0.516
307.001	232.522	79.997	19.995	103.198	20.027	8.144	0.498
307.500	232.761	79.997	19.995	103.199	20.021	8.552	0.484
308.000	232.990	79.997	19.994	103.191	20.024	8.383	0.477
308.500	233.245	79.996	19.995	103.183	20.023	8.438	0.476
309.000	233.470	79.997	19.995	103.175	20.023	8.412	0.482
309.500	233.708	79.997	19.994	103.170	20.026	8.240	0.472
310.000	234.008	79.998	19.994	103.177	20.020	8.629	0.500
310.500	234.223	79.997	19.994	103.182	20.022	8.542	0.527
311.000	234.480	79.997	19.994	103.179	20.023	8.415	0.493
311.500	234.755	79.997	19.994	103.171	20.020	8.650	0.502
312.000	235.006	79.997	19.995	103.168	20.022	8.546	0.529
312.500	235.234	79.997	19.994	103.160	20.020	8.674	0.503
313.000	235.510	79.996	19.994	103.155	20.016	8.923	0.491
313.500	235.729	79.998	19.995	103.158	20.021	8.573	0.499
314.000	236.029	79.999	19.994	103.166	20.020	8.654	0.506
314.500	236.255	79.997	19.995	103.168	20.016	8.894	0.523
315.000	236.482	79.998	19.994	103.170	20.017	8.834	0.490
315.500	236.769	79.998	19.994	103.168	20.020	8.659	0.484
316.000	237.004	79.996	19.995	103.160	20.018	8.800	0.518
316.500	237.233	79.997	19.995	103.158	20.016	8.923	0.493
317.000	237.493	79.996	19.995	103.158	20.020	8.671	0.476
317.500	237.718	79.998	19.995	103.157	20.017	8.818	0.487
318.000	237.996	79.997	19.995	103.158	20.017	8.857	0.494
318.500	238.254	79.996	19.995	103.165	20.016	8.901	0.520
319.000	238.495	79.996	19.994	103.164	20.017	8.842	0.517
319.500	238.727	79.996	19.995	103.161	20.016	8.923	0.486
320.000	239.030	79.997	19.994	103.159	20.014	9.054	0.504
320.500	239.257	79.996	19.994	103.162	20.015	8.959	0.533
321.000	239.490	79.997	19.994	103.169	20.016	8.910	0.495
321.500	239.743	79.998	19.996	103.176	20.015	8.953	0.472
322.000	239.929	79.996	19.995	103.180	20.015	8.956	0.462
322.500	240.212	79.996	19.994	103.183	20.015	9.009	0.455
323.000	240.492	79.998	19.995	103.180	20.014	9.048	0.516
323.500	240.715	79.997	19.995	103.177	20.014	9.051	0.533
324.000	240.933	79.998	19.994	103.179	20.015	8.995	0.472
324.500	241.185	79.998	19.995	103.183	20.011	9.241	0.455
325.000	241.442	79.995	19.994	103.186	20.011	9.219	0.489
325.500	241.713	79.997	19.994	103.186	20.013	9.090	0.519
326.000	241.920	79.996	19.995	103.183	20.013	9.104	0.503
326.500	242.199	79.996	19.994	103.177	20.007	9.519	0.481
327.000	242.447	79.997	19.994	103.174	20.009	9.391	0.506
327.500	242.728	79.997	19.995	103.172	20.008	9.420	0.528
328.000	242.935	79.997	19.995	103.172	20.011	9.276	0.509
328.500	243.176	79.996	19.995	103.172	20.009	9.357	0.468
329.000	243.448	79.998	19.994	103.173	20.004	9.696	0.480
329.500	243.692	79.998	19.995	103.171	20.005	9.621	0.514
330.000	243.932	79.998	19.994	103.174	20.006	9.562	0.500
330.500	244.202	79.997	19.995	103.182	20.008	9.458	0.497
331.000	244.430	79.998	19.995	103.188	20.004	9.723	0.504
331.500	244.700	79.998	19.994	103.191	20.003	9.761	0.498
332.000	244.943	79.997	19.995	103.191	20.002	9.831	0.505
332.500	245.199	79.998	19.994	103.188	20.001	9.895	0.506
333.000	245.426	79.997	19.994	103.179	19.998	10.101	0.492
333.500	245.703	79.998	19.994	103.172	20.001	9.900	0.493
334.000	245.953	79.997	19.994	103.161	19.998	10.107	0.516
334.500	246.167	79.999	19.995	103.154	19.997	10.155	0.495
335.000	246.471	79.998	19.994	103.146	20.000	9.997	0.491
335.500	246.744	79.998	19.995	103.145	19.996	10.226	0.548
336.000	246.954	79.998	19.994	103.147	19.999	10.043	0.530
336.500	247.209	79.997	19.994	103.157	19.997	10.216	0.474
337.000	247.431	79.999	19.995	103.167	19.996	10.274	0.471
337.500	247.681	79.998	19.995	103.175	19.994	10.397	0.474
338.000	247.940	79.998	19.994	103.178	19.994	10.396	0.491
338.500	248.181	79.999	19.995	103.176	19.992	10.508	0.505
339.000	248.464	80.000	19.994	103.170	19.994	10.359	0.512
339.500	248.684	79.998	19.995	103.170	19.988	10.759	0.514
340.000	248.939	79.999	19.995	103.170	19.989	10.691	0.489
340.500	249.242	80.000	19.996	103.170	19.990	10.624	0.516
341.000	249.457	79.998	19.994	103.169	19.987	10.881	0.538
341.500	249.753	79.999	19.994	103.169	19.990	10.646	0.514
342.000	249.985	80.001	19.995	103.168	19.986	10.892	0.519
342.500	250.261	80.000	19.995	103.174	19.986	10.901	0.518
343.000	250.480	79.999	19.995	103.178	19.987	10.884	0.502
343.500	250.737	79.999	19.994	103.184	19.988	10.792	0.486
344.000	250.998	79.999	19.995	103.190	19.983	11.137	0.497
344.500	251.211	80.000	19.995	103.189	19.984	11.057	0.496
345.000	251.526	79.999	19.994	103.189	19.984	11.077	0.501
345.500	251.754	79.999	19.996	103.191	19.985	10.970	0.535
346.000	251.989	80.000	19.995	103.193	19.982	11.195	0.503
346.500	252.268	80.000	19.995	103.194	19.980	11.298	0.488
347.000	252.518	80.001	19.995	103.199	19.980	11.355	0.522
347.500	252.760	80.000	19.995	103.196	19.980	11.300	0.511
348.000	252.995	80.000	19.996	103.196	19.977	11.519	0.484
348.500	253.246	80.000	19.995	103.195	19.975	11.630	0.482
349.000	253.515	80.000	19.995	103.188	19.978	11.459	0.503
349.500	253.756	80.001	19.997	103.184	19.976	11.610	0.515
350.000	253.972	79.999	19.996	103.184	19.975	11.654	0.483
350.500	254.214	79.999	19.996	103.185	19.977	11.531	0.457
351.000	254.465	80.000	19.996	103.186	19.975	11.659	0.475
351.500	254.744	80.001	19.996	103.192	19.971	11.909	0.512
352.000	254.991	79.999	19.996	103.192	19.971	11.939	0.528
352.500	255.273	80.000	19.995	103.193	19.974	11.696	0.527
353.000	255.496	80.000	19.997	103.193	19.971	11.948	0.517
353.500	255.721	79.999	19.996	103.193	19.973	11.826	0.477
354.000	255.964	79.999	19.995	103.191	19.969	12.083	0.458
354.500	256.260	79.999	19.995	103.189	19.965	12.331	0.503
355.000	256.475	80.000	19.995	103.185	19.967	12.190	0.525
355.500	256.730	79.999	19.996	103.177	19.965	12.344	0.491
356.000	256.976	79.999	19.995	103.173	19.961	12.568	0.486
356.501	257.237	79.999	19.995	103.173	19.965	12.320	0.504
357.000	257.495	79.999	19.995	103.179	19.961	12.585	0.513
357.500	257.761	79.999	19.996	103.181	19.961	12.607	0.522
358.000	257.975	79.999	19.995	103.187	19.960	12.670	0.502
358.501	258.276	79.999	19.995	103.190	19.958	12.817	0.497
359.000	258.515	79.999	19.995	103.189	19.958	12.822	0.527
359.500	258.778	79.999	19.995	103.184	19.958	12.811	0.521
360.000	259.028	79.999	19.995	103.180	19.954	13.077	0.508
360.500	259.294	79.999	19.995	103.174	19.955	12.995	0.514
361.000	259.508	79.999	19.996	103.169	19.953	13.111	0.498
361.500	259.753	79.999	19.995	103.167	19.953	13.152	0.470
362.000	259.983	80.000	19.995	103.167	19.951	13.249	0.467
362.500	260.271	80.000	19.994	103.175	19.947	13.518	0.496
363.000	260.488	80.000	19.995	103.181	19.948	13.500	0.511
363.501	260.760	79.999	19.995	103.183	19.947	13.558	0.497
364.000	261.002	79.999	19.996	103.189	19.944	13.707	0.502
364.500	261.257	80.001	19.995	103.197	19.944	13.739	0.506
365.000	261.509	79.999	19.995	103.199	19.945	13.653	0.502
365.500	261.785	79.999	19.995	103.203	19.944	13.726	0.517
366.000	262.057	79.999	19.995	103.207	19.942	13.885	0.538
366.500	262.271	80.000	19.995	103.207	19.940	13.985	0.517
367.000	262.499	80.000	19.995	103.205	19.940	13.977	0.464
367.500	262.810	80.000	19.995	103.203	19.938	14.161	0.491
368.000	263.027	80.000	19.996	103.202	19.935	14.368	0.533
368.500	263.263	80.000	19.994	103.202	19.932	14.540	0.490
369.000	263.531	80.000	19.995	103.203	19.931	14.581	0.479
369.500	263.770	79.999	19.996	103.203	19.932	14.552	0.506
370.000	264.051	80.000	19.995	103.203	19.927	14.869	0.514
370.500	264.289	80.001	19.995	103.204	19.931	14.594	0.519
371.000	264.537	79.999	19.994	103.205	19.928	14.818	0.503
371.500	264.789	80.000	19.995	103.207	19.926	14.965	0.493
372.000	265.013	80.000	19.995	103.211	19.926	14.931	0.488
372.500	265.295	80.000	19.995	103.212	19.925	15.040	0.491
373.000	265.567	79.998	19.995	103.214	19.923	15.111	0.530
373.500	265.838	80.001	19.995	103.213	19.922	15.186	0.548
374.000	266.070	80.000	19.996	103.209	19.915	15.676	0.523
374.500	266.296	80.000	19.996	103.208	19.917	15.549	0.481
375.001	266.586	79.999	19.995	103.209	19.917	15.542	0.487
375.500	266.799	79.999	19.997	103.213	19.915	15.671	0.509
376.000	267.062	79.999	19.996	103.220	19.914	15.744	0.489
376.500	267.311	79.999	19.995	103.226	19.911	15.968	0.494
377.000	267.560	79.998	19.995	103.224	19.912	15.853	0.505
377.500	267.827	79.998	19.995	103.221	19.910	15.996	0.507
378.000	268.036	79.999	19.996	103.213	19.909	16.098	0.496
378.500	268.298	79.997	19.995	103.205	19.908	16.122	0.473
379.000	268.583	79.998	19.996	103.201	19.904	16.442	0.509
379.500	268.840	79.997	19.996	103.201	19.906	16.271	0.545
380.000	269.082	79.996	19.996	103.201	19.904	16.401	0.520
380.500	269.321	79.995	19.996	103.203	19.900	16.666	0.490
381.000	269.601	79.997	19.995	103.203	19.896	16.978	0.500
381.500	269.819	79.998	19.997	103.203	19.900	16.713	0.508
382.000	270.122	79.996	19.996	103.206	19.901	16.619	0.509
382.500	270.326	79.997	19.996	103.209	19.897	16.860	0.514
383.000	270.611	79.997	19.996	103.212	19.896	16.949	0.498
383.500	270.862	79.997	19.996	103.220	19.892	17.218	0.513
384.000	271.113	79.997	19.996	103.220	19.891	17.299	0.519
384.500	271.371	79.997	19.996	103.217	19.891	17.300	0.506
385.000	271.640	79.997	19.995	103.216	19.891	17.299	0.518
385.500	271.890	79.997	19.996	103.213	19.887	17.545	0.523
386.000	272.133	79.997	19.996	103.206	19.890	17.370	0.506
386.500	272.394	79.998	19.996	103.207	19.885	17.676	0.498
387.000	272.624	79.998	19.995	103.208	19.885	17.662	0.498
387.500	272.871	79.998	19.995	103.208	19.883	17.812	0.484
388.000	273.120	79.998	19.995	103.210	19.880	18.016	0.487
388.500	273.382	79.997	19.995	103.214	19.877	18.223	0.504
389.001	273.631	79.997	19.994	103.219	19.876	18.309	0.511
389.500	273.870	79.998	19.994	103.221	19.875	18.347	0.500
390.000	274.148	79.997	19.993	103.226	19.870	18.698	0.502
390.500	274.356	79.998	19.994	103.232	19.872	18.555	0.501
391.000	274.632	79.998	19.994	103.235	19.871	18.611	0.485
391.500	274.885	79.997	19.994	103.237	19.866	18.977	0.507
392.000	275.151	79.997	19.994	103.241	19.867	18.889	0.523
392.500	275.415	79.997	19.995	103.243	19.864	19.084	0.524
393.000	275.676	79.996	19.994	103.241	19.863	19.144	0.528
393.500	275.888	79.998	19.995	103.235	19.864	19.099	0.499
394.000	276.170	79.998	19.994	103.229	19.862	19.225	0.483
394.500	276.390	79.997	19.994	103.223	19.862	19.246	0.498
395.000	276.638	79.998	19.994	103.215	19.861	19.324	0.485
395.500	276.893	79.997	19.993	103.213	19.857	19.587	0.485
396.000	277.126	79.999	19.995	103.218	19.853	19.808	0.495
396.500	277.422	79.998	19.995	103.219	19.855	19.700	0.508
397.000	277.630	79.998	19.994	103.225	19.851	19.995	0.516
397.500	277.915	79.998	19.995	103.232	19.853	19.856	0.498
398.000	278.153	79.998	19.994	103.235	19.850	20.067	0.508
398.500	278.419	79.997	19.995	103.235	19.849	20.105	0.514
399.000	278.670	79.998	19.995	103.239	19.845	20.375	0.511
399.500	278.900	79.996	19.995	103.236	19.838	20.835	0.499
400.000	279.170	79.998	19.995	103.233	19.841	20.650	0.490
400.500	279.407	79.997	19.995	103.231	19.838	20.844	0.503
401.000	279.686	79.997	19.994	103.233	19.836	20.957	0.511
401.500	279.903	79.998	19.995	103.235	19.834	21.081	0.506
402.000	280.190	79.998	19.995	103.239	19.833	21.158	0.501
402.500	280.393	79.998	19.995	103.244	19.830	21.406	0.497
403.000	280.631	79.998	19.996	103.244	19.830	21.365	0.465
403.500	280.870	79.997	19.995	103.240	19.829	21.473	0.459
404.000	281.163	79.997	19.994	103.234	19.829	21.466	0.504
404.500	281.344	79.997	19.995	103.230	19.823	21.825	0.503
405.000	281.633	79.997	19.995	103.228	19.822	21.919	0.473
405.500	281.869	79.998	19.996	103.224	19.820	22.079	0.497
406.000	282.136	79.996	19.997	103.227	19.816	22.315	0.513
406.500	282.391	79.998	19.997	103.233	19.818	22.161	0.512
407.000	282.620	79.998	19.995	103.235	19.815	22.372	0.503
407.500	282.870	79.997	19.996	103.236	19.814	22.444	0.482
408.000	283.120	79.997	19.996	103.244	19.812	22.619	0.490
408.500	283.371	79.998	19.995	103.245	19.812	22.594	0.501
409.000	283.655	79.997	19.996	103.249	19.813	22.538	0.518
409.500	283.900	79.996	19.995	103.254	19.805	23.078	0.532
410.000	284.147	79.997	19.995	103.254	19.806	22.983	0.510
410.500	284.409	79.996	19.995	103.253	19.810	22.734	0.501
411.000	284.633	79.997	19.995	103.254	19.805	23.048	0.497
411.500	284.867	79.996	19.996	103.254	19.800	23.399	0.472
412.000	285.176	79.997	19.996	103.255	19.790	24.055	0.501
412.500	285.349	79.997	19.996	103.262	19.799	23.446	0.512
413.000	285.646	79.997	19.996	103.263	19.797	23.570	0.476
413.500	285.867	79.998	19.995	103.266	19.795	23.754	0.494
414.000	286.158	79.997	19.996	103.270	19.792	23.902	0.515
414.500	286.366	79.998	19.995	103.270	19.790	24.071	0.506
415.000	286.671	79.997	19.996	103.263	19.789	24.106	0.506
415.500	286.886	79.997	19.995	103.266	19.785	24.428	0.516
416.000	287.197	79.997	19.996	103.269	19.778	24.877	0.523
416.500	287.439	79.997	19.995	103.269	19.783	24.564	0.539
417.000	287.600	79.997	19.997	103.276	19.782	24.613	0.478
417.500	287.890	79.996	19.995	103.285	19.777	24.917	0.427
418.000	288.172	79.997	19.994	103.285	19.773	25.181	0.512
418.500	288.343	79.998	19.995	103.285	19.775	25.086	0.512
419.000	288.641	79.998	19.995	103.281	19.769	25.486	0.460
419.500	288.885	79.997	19.996	103.274	19.768	25.519	0.505
420.000	289.135	79.998	19.995	103.272	19.768	25.561	0.518
420.500	289.492	79.999	19.994	103.274	19.762	25.907	0.550
421.000	289.623	79.998	19.995	103.268	19.762	25.911	0.547
421.500	289.892	79.998	19.996	103.263	19.764	25.823	0.445
422.000	290.146	79.999	19.996	103.264	19.759	26.138	0.462
422.500	290.402	79.999	19.995	103.265	19.761	26.039	0.517
423.000	290.606	79.998	19.995	103.267	19.757	26.244	0.485
423.500	290.929	79.999	19.995	103.276	19.753	26.535	0.493
424.000	291.394	79.999	19.995	103.288	19.747	26.943	0.658
424.500	291.593	80.000	19.996	103.291	19.748	26.905	0.726
425.000	291.555	79.999	19.995	103.291	19.749	26.780	0.412
425.500	291.733	80.000	19.994	103.291	19.747	26.971	0.150
426.000	291.947	79.999	19.994	103.290	19.742	27.282	0.266
426.500	292.405	80.000	19.995	103.285	19.745	27.098	0.532
427.000	292.763	80.000	19.995	103.284	19.741	27.357	0.744
427.500	292.898	80.000	19.995	103.285	19.736	27.707	0.655
428.000	293.192	80.001	19.995	103.284	19.735	27.756	0.461
428.500	293.512	80.000	19.994	103.283	19.732	27.955	0.521
429.000	293.702	79.999	19.995	103.288	19.729	28.144	0.562
429.500	293.991	79.999	19.995	103.289	19.728	28.244	0.495
430.000	294.169	80.000	19.994	103.289	19.727	28.263	0.473
430.500	294.503	79.999	19.995	103.288	19.720	28.762	0.490
431.000	294.672	79.998	19.994	103.287	19.723	28.563	0.507
431.500	295.036	79.999	19.995	103.284	19.720	28.763	0.517
432.000	295.206	79.999	19.995	103.286	19.718	28.873	0.533
432.500	295.463	79.998	19.995	103.286	19.716	29.014	0.481
433.000	295.683	79.998	19.995	103.286	19.713	29.188	0.452
433.500	295.960	79.998	19.995	103.285	19.711	29.357	0.487
434.000	296.197	79.998	19.993	103.283	19.709	29.508	0.505
434.500	296.426	79.998	19.994	103.281	19.709	29.493	0.491
435.000	296.698	79.998	19.995	103.281	19.703	29.870	0.484
435.500	296.956	79.998	19.995	103.282	19.705	29.728	0.515
436.000	297.245	79.997	19.995	103.284	19.700	30.100	0.539
436.500	297.506	79.998	19.995	103.285	19.699	30.180	0.549
437.000	297.713	79.997	19.995	103.285	19.696	30.383	0.509
437.500	298.010	79.997	19.996	103.286	19.693	30.547	0.486
438.000	298.175	79.997	19.996	103.285	19.690	30.798	0.483
438.500	298.486	79.997	19.995	103.284	19.691	30.688	0.469
439.000	298.716	79.998	19.995	103.283	19.686	31.018	0.508
439.500	298.993	79.996	19.996	103.284	19.682	31.301	0.524
440.000	299.186	79.997	19.996	103.283	19.683	31.224	0.489
440.500	299.471	79.997	19.996	103.283	19.681	31.394	0.475
441.000	299.685	79.998	19.996	103.282	19.676	31.717	0.489
441.500	299.948	79.997	19.996	103.282	19.673	31.919	0.488
442.000	300.191	79.997	19.996	103.279	19.670	32.119	0.491
442.500	300.463	79.997	19.996	103.279	19.667	32.335	0.510
443.000	300.661	79.997	19.996	103.278	19.666	32.365	0.493
443.500	300.919	79.997	19.996	103.277	19.664	32.478	0.463
444.000	301.192	79.998	19.996	103.277	19.661	32.709	0.494
444.500	301.391	79.998	19.995	103.279	19.658	32.942	0.502
445.000	301.676	79.998	19.996	103.280	19.653	33.236	0.478
445.500	301.909	79.999	19.996	103.285	19.654	33.203	0.501
446.000	302.201	79.997	19.995	103.289	19.648	33.590	0.521
446.500	302.427	79.998	19.995	103.290	19.647	33.683	0.522
447.000	302.709	79.998	19.995	103.289	19.647	33.668	0.513
447.500	302.935	79.999	19.995	103.288	19.643	33.914	0.508
448.000	303.199	79.998	19.995	103.285	19.643	33.952	0.499
448.500	303.458	79.998	19.995	103.287	19.641	34.063	0.506
449.000	303.683	80.000	19.995	103.290	19.638	34.260	0.504
449.500	303.916	79.999	19.995	103.291	19.635	34.464	0.471
450.000	304.168	79.999	19.995	103.296	19.631	34.739	0.471
450.500	304.420	79.999	19.995	103.298	19.630	34.827	0.495
451.000	304.646	79.999	19.995	103.298	19.627	34.981	0.491
451.500	304.912	79.999	19.994	103.295	19.621	35.373	0.485
452.000	305.187	80.000	19.995	103.296	19.617	35.667	0.516
452.500	305.418	79.998	19.994	103.291	19.621	35.410	0.523
453.000	305.668	79.999	19.995	103.289	19.614	35.854	0.493
453.501	305.894	79.999	19.995	103.289	19.614	35.842	0.479
454.000	306.180	79.998	19.994	103.296	19.607	36.324	0.494
454.500	306.405	79.999	19.995	103.300	19.607	36.343	0.511
455.000	306.716	79.998	19.995	103.305	19.605	36.497	0.524
455.500	306.927	79.998	19.994	103.310	19.598	36.952	0.529
456.000	307.168	79.998	19.995	103.314	19.601	36.728	0.487
456.501	307.417	80.000	19.994	103.315	19.598	36.970	0.471
457.000	307.675	79.998	19.995	103.316	19.594	37.240	0.498
457.500	307.897	79.999	19.996	103.318	19.591	37.444	0.493
458.000	308.167	79.999	19.996	103.318	19.590	37.512	0.486
458.500	308.375	79.997	19.995	103.318	19.584	37.880	0.486
459.000	308.631	79.997	19.995	103.315	19.583	37.952	0.471
459.500	308.885	79.997	19.995	103.314	19.577	38.329	0.487
460.000	309.106	79.996	19.996	103.314	19.577	38.341	0.492
460.500	309.375	79.996	19.995	103.314	19.573	38.638	0.482
461.000	309.649	79.997	19.995	103.315	19.570	38.849	0.517
461.500	309.860	79.996	19.996	103.318	19.572	38.725	0.514
462.000	310.142	79.996	19.996	103.323	19.567	39.042	0.489
462.500	310.404	79.996	19.996	103.328	19.560	39.530	0.518
463.000	310.626	79.997	19.996	103.328	19.559	39.570	0.514
463.500	310.873	79.997	19.996	103.327	19.556	39.767	0.477
464.000	311.144	79.996	19.996	103.332	19.554	39.931	0.493
464.500	311.383	79.996	19.997	103.333	19.554	39.914	0.514
465.000	311.638	79.996	19.996	103.332	19.548	40.274	0.502
465.500	311.918	79.996	19.994	103.333	19.549	40.269	0.515
466.000	312.132	79.996	19.996	103.339	19.546	40.460	0.514
466.500	312.387	79.996	19.997	103.343	19.540	40.840	0.481
467.000	312.628	79.996	19.997	103.347	19.538	40.994	0.483
467.500	312.911	79.994	19.996	103.346	19.539	40.920	0.510
468.000	313.129	79.996	19.996	103.347	19.533	41.325	0.513
468.500	313.383	79.996	19.996	103.346	19.530	41.529	0.486
469.000	313.644	79.996	19.996	103.343	19.526	41.768	0.493
469.500	313.854	79.995	19.997	103.340	19.522	42.071	0.493
470.000	314.149	79.997	19.996	103.339	19.519	42.264	0.488
470.500	314.401	79.995	19.996	103.337	19.518	42.312	0.526
471.000	314.648	79.996	19.997	103.336	19.513	42.680	0.523
471.500	314.902	79.997	19.997	103.337	19.511	42.782	0.500
472.000	315.142	79.997	19.997	103.339	19.508	42.989	0.497
472.500	315.357	79.995	19.996	103.344	19.505	43.209	0.475
473.000	315.644	79.996	19.996	103.352	19.502	43.405	0.478
473.500	315.873	79.997	19.996	103.356	19.497	43.743	0.509
474.000	316.136	79.997	19.997	103.356	19.497	43.705	0.505
474.500	316.384	79.997	19.995	103.357	19.492	44.080	0.501
475.000	316.633	79.996	19.995	103.358	19.487	44.381	0.503
475.500	316.872	79.997	19.996	103.358	19.486	44.475	0.492
476.000	317.128	79.996	19.996	103.358	19.481	44.826	0.492
476.500	317.393	79.998	19.996	103.359	19.478	45.001	0.508
477.000	317.644	79.997	19.996	103.358	19.476	45.153	0.518
477.500	317.872	79.996	19.995	103.358	19.472	45.428	0.497
478.000	318.118	79.997	19.996	103.357	19.472	45.400	0.476
478.500	318.387	79.997	19.995	103.356	19.466	45.831	0.494
479.000	318.610	79.997	19.995	103.358	19.461	46.126	0.504
479.500	318.903	79.999	19.995	103.362	19.460	46.186	0.504
480.000	319.137	79.998	19.995	103.363	19.458	46.378	0.521
480.500	319.394	79.998	19.995	103.364	19.453	46.655	0.509
481.000	319.662	79.999	19.996	103.364	19.449	46.961	0.509
481.500	319.873	79.997	19.995	103.364	19.446	47.157	0.502
482.000	320.127	79.997	19.996	103.361	19.443	47.345	0.471
482.500	320.356	79.999	19.995	103.360	19.442	47.428	0.474
483.000	320.643	79.996	19.995	103.363	19.438	47.681	0.500
483.500	320.892	79.997	19.994	103.363	19.433	48.000	0.526
484.000	321.153	79.996	19.994	103.361	19.425	48.553	0.523
484.500	321.388	79.997	19.995	103.361	19.421	48.792	0.503
485.000	321.624	79.998	19.995	103.361	19.420	48.881	0.483
485.500	321.869	79.997	19.996	103.357	19.415	49.214	0.475
486.000	322.163	79.998	19.995	103.358	19.419	48.997	0.510
486.500	322.398	79.998	19.995	103.358	19.413	49.343	0.534
487.000	322.623	79.999	19.995	103.358	19.409	49.622	0.494
487.500	322.930	79.998	19.995	103.361	19.408	49.731	0.496
488.000	323.139	79.997	19.994	103.367	19.399	50.294	0.524
488.500	323.403	79.998	19.995	103.374	19.397	50.472	0.495
489.000	323.647	79.997	19.994	103.382	19.395	50.573	0.490
489.500	323.894	79.997	19.995	103.388	19.391	50.846	0.499
490.000	324.146	79.997	19.995	103.387	19.386	51.195	0.495
490.500	324.387	79.997	19.995	103.382	19.382	51.418	0.496
491.000	324.641	79.997	19.995	103.374	19.379	51.684	0.494
491.500	324.869	79.997	19.995	103.367	19.375	51.889	0.489
492.000	325.149	79.997	19.995	103.361	19.373	52.084	0.495
492.500	325.433	79.997	19.996	103.360	19.370	52.266	0.536
493.000	325.662	79.998	19.996	103.360	19.364	52.636	0.539
493.500	325.901	79.996	19.995	103.358	19.364	52.672	0.491
494.000	326.132	79.996	19.995	103.357	19.359	52.990	0.469
494.500	326.399	79.997	19.994	103.357	19.357	53.110	0.484
495.000	326.656	79.997	19.995	103.359	19.355	53.241	0.510
495.500	326.917	79.996	19.995	103.361	19.351	53.536	0.520
496.000	327.164	79.997	19.994	103.367	19.348	53.744	0.513
496.500	327.410	79.997	19.995	103.370	19.343	54.093	0.501
497.000	327.651	79.997	19.995	103.379	19.342	54.121	0.491
497.500	327.892	79.997	19.995	103.387	19.337	54.448	0.485
498.000	328.145	79.997	19.995	103.394	19.334	54.648	0.487
498.500	328.399	79.997	19.996	103.393	19.330	54.912	0.500
499.000	328.666	79.996	19.994	103.390	19.326	55.189	0.514
499.500	328.948	79.995	19.995	103.383	19.324	55.348	0.535
500.000	329.165	79.997	19.995	103.378	19.323	55.413	0.524
500.500	329.430	79.996	19.994	103.372	19.316	55.869	0.491
501.000	329.673	79.996	19.996	103.376	19.315	55.950	0.495
501.500	329.918	79.997	19.996	103.382	19.313	56.082	0.498
502.000	330.194	79.997	19.995	103.388	19.308	56.401	0.504
502.500	330.433	79.998	19.996	103.390	19.306	56.561	0.518
503.000	330.652	79.998	19.994	103.396	19.303	56.751	0.486
503.500	330.908	79.997	19.996	103.398	19.298	57.122	0.466
504.000	331.157	79.998	19.995	103.400	19.299	57.048	0.490
504.500	331.407	79.998	19.995	103.402	19.296	57.255	0.503
505.000	331.666	79.998	19.995	103.406	19.291	57.557	0.504
505.500	331.912	79.999	19.995	103.408	19.289	57.699	0.507
506.000	332.163	79.997	19.995	103.409	19.287	57.853	0.501
506.500	332.459	79.998	19.995	103.409	19.284	57.999	0.522
507.000	332.685	79.999	19.995	103.408	19.282	58.177	0.535
507.500	332.985	79.999	19.995	103.403	19.279	58.401	0.524
508.000	333.205	79.999	19.995	103.397	19.275	58.630	0.523
508.500	333.470	79.998	19.994	103.390	19.275	58.650	0.503
509.000	333.728	79.998	19.994	103.386	19.271	58.893	0.504
509.500	333.960	79.999	19.995	103.385	19.269	59.034	0.506
510.000	334.214	79.999	19.995	103.385	19.267	59.183	0.487
510.500	334.477	79.999	19.995	103.387	19.263	59.422	0.501
511.000	334.737	79.999	19.994	103.389	19.261	59.579	0.520
511.500	335.004	79.999	19.995	103.388	19.262	59.527	0.525
512.000	335.270	79.999	19.994	103.390	19.256	59.873	0.530
512.500	335.512	79.999	19.995	103.389	19.256	59.874	0.520
513.000	335.761	79.999	19.994	103.395	19.254	60.024	0.500
513.500	335.966	79.999	19.995	103.402	19.255	59.961	0.473
514.000	336.242	79.997	19.995	103.406	19.254	59.992	0.467
514.500	336.503	79.998	19.995	103.404	19.251	60.245	0.509
515.000	336.755	79.998	19.994	103.401	19.250	60.270	0.525
515.500	337.023	79.998	19.994	103.397	19.248	60.455	0.517
516.000	337.254	79.996	19.994	103.395	19.248	60.415	0.510
516.500	337.508	79.996	19.994	103.396	19.249	60.351	0.492
517.000	337.741	79.997	19.995	103.398	19.245	60.599	0.486
517.500	338.014	79.997	19.995	103.403	19.242	60.858	0.496
518.000	338.301	79.996	19.995	103.406	19.244	60.665	0.533
518.500	338.483	79.997	19.994	103.408	19.242	60.838	0.515
519.000	338.780	79.999	19.994	103.408	19.238	61.069	0.474
519.500	339.024	79.996	19.994	103.408	19.241	60.915	0.510
520.000	339.284	79.998	19.993	103.408	19.238	61.098	0.523
520.500	339.549	79.997	19.994	103.407	19.241	60.904	0.515
521.000	339.770	79.997	19.994	103.401	19.238	61.062	0.505
521.500	340.052	79.997	19.994	103.394	19.237	61.133	0.494
522.000	340.299	79.997	19.995	103.387	19.235	61.295	0.516
522.500	340.532	79.998	19.995	103.385	19.238	61.057	0.505
523.000	340.829	79.998	19.996	103.380	19.241	60.871	0.505
523.500	341.058	79.998	19.995	103.376	19.236	61.199	0.528
524.000	341.305	79.999	19.996	103.375	19.236	61.204	0.501
524.500	341.575	79.998	19.995	103.374	19.238	61.064	0.496
525.000	341.858	79.998	19.995	103.367	19.236	61.198	0.534
525.500	342.102	79.998	19.995	103.367	19.238	61.108	0.540
526.000	342.321	79.998	19.995	103.372	19.237	61.136	0.495
526.500	342.599	79.998	19.994	103.371	19.239	61.001	0.480
527.000	342.869	79.999	19.995	103.372	19.239	60.991	0.523
527.500	343.129	79.998	19.995	103.376	19.239	60.985	0.539
528.000	343.347	79.999	19.996	103.375	19.245	60.591	0.504
528.500	343.608	79.999	19.995	103.368	19.243	60.733	0.479
529.000	343.836	79.999	19.996	103.368	19.244	60.663	0.484
529.500	344.125	80.000	19.995	103.363	19.246	60.550	0.503
530.000	344.332	80.001	19.997	103.358	19.244	60.642	0.506
530.500	344.590	80.000	19.996	103.356	19.248	60.402	0.481
531.000	344.882	80.000	19.995	103.356	19.248	60.408	0.507
531.500	345.158	79.999	19.995	103.356	19.252	60.170	0.559
532.000	345.395	80.000	19.995	103.359	19.254	60.013	0.541
532.500	345.626	80.000	19.996	103.359	19.254	59.981	0.491
533.000	345.901	80.000	19.995	103.360	19.254	59.992	0.487
533.500	346.130	80.001	19.995	103.360	19.256	59.877	0.505
534.000	346.380	80.000	19.995	103.360	19.257	59.801	0.492
534.500	346.655	79.999	19.996	103.356	19.264	59.360	0.502
535.000	346.913	80.000	19.996	103.351	19.262	59.442	0.529
535.500	347.142	79.998	19.995	103.351	19.271	58.883	0.510
536.000	347.420	80.000	19.996	103.351	19.271	58.853	0.497
536.500	347.666	79.999	19.995	103.350	19.272	58.775	0.515
537.000	347.912	79.998	19.995	103.348	19.277	58.422	0.508
537.500	348.196	79.999	19.995	103.349	19.276	58.499	0.511
538.000	348.414	79.998	19.996	103.348	19.279	58.315	0.516
538.500	348.685	79.999	19.995	103.348	19.286	57.854	0.496
539.000	348.934	79.998	19.995	103.345	19.290	57.532	0.505
539.500	349.215	79.998	19.996	103.349	19.289	57.622	0.525
540.000	349.438	79.998	19.995	103.349	19.296	57.135	0.517
540.500	349.729	79.997	19.995	103.345	19.298	56.993	0.509
541.000	349.964	79.999	19.996	103.338	19.302	56.718	0.520
541.500	350.223	79.998	19.996	103.334	19.308	56.319	0.510
542.000	350.479	79.997	19.996	103.334	19.309	56.293	0.504
542.500	350.748	79.997	19.995	103.336	19.315	55.877	0.520
543.000	350.977	79.999	19.995	103.337	19.316	55.836	0.511
543.500	351.236	79.997	19.996	103.342	19.319	55.634	0.493
544.000	351.489	79.998	19.996	103.348	19.327	55.094	0.500
544.500	351.771	79.997	19.996	103.344	19.330	54.833	0.524
545.000	352.009	79.997	19.994	103.339	19.334	54.616	0.528
545.500	352.278	80.000	19.995	103.335	19.340	54.184	0.513
546.000	352.555	79.998	19.995	103.330	19.341	54.131	0.526
546.500	352.778	79.997	19.995	103.323	19.346	53.785	0.523
547.000	353.040	79.997	19.995	103.318	19.355	53.197	0.493
547.500	353.271	79.997	19.995	103.317	19.357	53.043	0.489
548.000	353.568	79.998	19.995	103.317	19.360	52.815	0.511
548.500	353.826	79.997	19.994	103.310	19.364	52.553	0.541
549.000	354.113	79.997	19.996	103.302	19.374	51.921	0.550
549.500	354.358	79.998	19.996	103.296	19.375	51.864	0.539
550.000	354.640	79.997	19.995	103.284	19.383	51.317	0.530
550.500	354.875	79.997	19.996	103.277	19.387	51.033	0.522
551.000	355.109	79.997	19.995	103.273	19.389	50.926	0.493
551.500	355.348	79.998	19.995	103.268	19.398	50.309	0.471
552.000	355.616	79.998	19.996	103.268	19.405	49.845	0.490
552.500	355.895	79.998	19.995	103.270	19.408	49.600	0.526
553.000	356.144	79.997	19.995	103.267	19.419	48.904	0.538
553.500	356.396	79.997	19.995	103.261	19.421	48.741	0.515
554.000	356.666	79.997	19.997	103.259	19.426	48.401	0.512
554.500	356.880	79.997	19.997	103.256	19.432	47.998	0.503
555.000	357.148	79.999	19.995	103.251	19.440	47.467	0.483
555.500	357.438	79.998	19.996	103.248	19.445	47.154	0.520
556.000	357.683	79.997	19.996	103.246	19.451	46.700	0.546
556.500	357.903	79.998	19.996	103.238	19.458	46.245	0.500
557.000	358.177	79.997	19.997	103.227	19.463	45.921	0.480
557.500	358.447	79.996	19.995	103.221	19.470	45.447	0.519
558.001	358.699	79.998	19.995	103.219	19.477	44.980	0.533
558.500	358.910	79.997	19.996	103.219	19.481	44.691	0.493
559.000	359.188	79.996	19.997	103.226	19.489	44.206	0.476
559.500	359.416	79.997	19.997	103.233	19.492	43.954	0.497
560.000	359.686	79.997	19.996	103.236	19.500	43.470	0.502
560.500	359.948	79.996	19.995	103.232	19.511	42.683	0.515
561.000	360.193	79.996	19.995	103.231	19.516	42.386	0.520
561.501	360.471	79.996	19.997	103.228	19.523	41.884	0.515
562.000	360.719	79.995	19.995	103.229	19.526	41.689	0.525
562.500	360.961	79.997	19.996	103.229	19.535	41.086	0.508
563.000	361.221	79.997	19.996	103.233	19.541	40.719	0.495
563.500	361.528	79.996	19.995	103.230	19.549	40.141	0.534
564.000	361.754	79.997	19.995	103.228	19.552	39.974	0.550
564.500	362.014	79.996	19.996	103.222	19.558	39.571	0.510
565.000	362.266	79.996	19.996	103.216	19.564	39.146	0.499
565.500	362.518	79.997	19.996	103.205	19.571	38.664	0.507
566.000	362.773	79.996	19.996	103.194	19.579	38.145	0.505
566.500	363.055	79.998	19.996	103.185	19.584	37.853	0.522
567.000	363.266	79.998	19.996	103.174	19.590	37.412	0.515
567.500	363.555	79.996	19.994	103.164	19.597	36.939	0.497
568.000	363.788	79.998	19.996	103.162	19.603	36.527	0.511
568.500	364.029	79.996	19.996	103.163	19.612	35.937	0.498
569.000	364.310	79.997	19.995	103.165	19.620	35.372	0.497
569.500	364.546	79.997	19.996	103.169	19.624	35.148	0.520
570.000	364.833	79.998	19.995	103.172	19.629	34.797	0.520
570.500	365.100	79.997	19.996	103.175	19.631	34.646	0.538
571.000	365.343	79.998	19.996	103.178	19.640	34.075	0.532
571.500	365.590	79.996	19.996	103.178	19.648	33.542	0.500
572.000	365.837	79.998	19.996	103.177	19.655	33.081	0.492
572.500	366.099	79.996	19.995	103.179	19.661	32.653	0.502
573.000	366.357	79.998	19.995	103.177	19.668	32.229	0.514
573.500	366.584	79.997	19.995	103.174	19.674	31.819	0.502
574.000	366.853	79.997	19.994	103.172	19.683	31.191	0.491
574.501	367.144	79.997	19.995	103.171	19.684	31.104	0.529
575.000	367.387	79.998	19.994	103.169	19.696	30.338	0.547
575.500	367.625	79.995	19.995	103.167	19.702	29.902	0.507
576.000	367.889	79.996	19.994	103.167	19.711	29.345	0.492
576.500	368.140	79.996	19.995	103.163	19.713	29.152	0.508
577.000	368.396	79.996	19.995	103.162	19.717	28.883	0.511
577.500	368.652	79.997	19.996	103.161	19.726	28.284	0.509
578.000	368.921	79.996	19.994	103.172	19.727	28.210	0.519
578.500	369.143	79.997	19.994	103.158	19.737	27.555	0.508
579.000	369.392	79.996	19.994	103.142	19.740	27.381	0.481
579.500	369.673	79.997	19.994	103.133	19.747	26.919	0.500
580.000	369.947	79.997	19.994	103.126	19.757	26.214	0.542
580.500	370.207	79.996	19.994	103.113	19.758	26.144	0.544
581.000	370.462	79.996	19.994	103.133	19.765	25.707	0.525
581.500	370.742	79.996	19.994	103.163	19.769	25.427	0.526
582.000	370.972	79.999	19.995	103.177	19.775	25.062	0.523
582.500	371.217	79.997	19.995	103.184	19.784	24.418	0.492
583.000	371.485	79.998	19.995	103.186	19.786	24.305	0.494
583.500	371.742	79.998	19.995	103.178	19.791	23.952	0.519
584.000	371.970	79.998	19.995	103.160	19.795	23.719	0.506
584.500	372.221	79.998	19.994	103.149	19.799	23.416	0.482
585.000	372.505	79.999	19.994	103.142	19.805	22.995	0.507
585.500	372.778	79.997	19.994	103.136	19.815	22.342	0.546
586.000	373.022	79.999	19.995	103.131	19.815	22.339	0.537
586.500	373.288	79.997	19.994	103.138	19.819	22.068	0.513
587.000	373.520	79.998	19.993	103.147	19.824	21.782	0.504
587.500	373.801	79.998	19.995	103.135	19.829	21.417	0.506
588.000	374.076	79.999	19.994	103.125	19.830	21.360	0.534
588.500	374.324	80.000	19.994	103.117	19.841	20.582	0.539
589.000	374.589	80.000	19.995	103.102	19.840	20.684	0.518
589.501	374.837	79.999	19.995	103.086	19.846	20.274	0.513
590.001	375.108	79.999	19.996	103.091	19.847	20.241	0.516
590.500	375.389	79.998	19.994	103.100	19.855	19.706	0.535
591.000	375.592	80.000	19.996	103.106	19.854	19.748	0.518
591.500	375.849	79.998	19.995	103.113	19.860	19.324	0.472
592.001	376.108	79.997	19.995	103.123	19.863	19.139	0.488
592.500	376.370	79.999	19.995	103.132	19.866	18.969	0.519
593.000	376.664	79.998	19.994	103.140	19.875	18.366	0.538
593.500	376.858	80.000	19.995	103.145	19.875	18.335	0.522
594.000	377.113	79.999	19.995	103.147	19.881	17.913	0.469
594.500	377.395	79.998	19.995	103.141	19.881	17.920	0.493
595.000	377.639	79.998	19.993	103.132	19.890	17.369	0.531
595.500	377.885	79.998	19.995	103.122	19.890	17.350	0.508
596.000	378.159	79.999	19.995	103.116	19.891	17.297	0.505
596.500	378.390	79.998	19.995	103.114	19.895	17.036	0.513
597.001	378.657	79.997	19.995	103.116	19.901	16.615	0.501
597.500	378.920	79.998	19.993	103.123	19.905	16.356	0.514
598.000	379.155	79.998	19.994	103.125	19.906	16.274	0.514
598.500	379.417	79.998	19.995	103.124	19.909	16.052	0.498
599.000	379.653	79.999	19.995	103.123	19.913	15.785	0.498
599.500	379.893	79.999	19.995	103.117	19.921	15.266	0.487
600.001	380.225	79.998	19.994	103.112	19.919	15.419	0.524
600.500	380.454	79.999	19.995	103.112	19.918	15.488	0.566
601.000	380.690	79.999	19.994	103.113	19.922	15.162	0.513
601.500	380.924	79.998	19.995	103.116	19.924	15.064	0.467
602.000	381.203	79.998	19.995	103.121	19.931	14.606	0.492
602.500	381.436	79.998	19.994	103.121	19.933	14.476	0.513
603.000	381.678	80.000	19.994	103.120	19.935	14.344	0.493
603.500	381.954	79.999	19.995	103.114	19.937	14.207	0.496
604.000	382.158	80.000	19.994	103.109	19.937	14.175	0.499
604.500	382.428	80.000	19.994	103.104	19.940	13.968	0.477
605.000	382.684	79.999	19.993	103.108	19.943	13.778	0.500
605.500	382.961	80.000	19.995	103.109	19.945	13.673	0.529
606.000	383.234	80.000	19.995	103.119	19.948	13.451	0.542
606.500	383.473	79.999	19.994	103.127	19.952	13.217	0.532
607.000	383.725	80.001	19.994	103.137	19.952	13.185	0.502
607.500	383.966	80.000	19.995	103.137	19.954	13.039	0.492
608.000	384.232	80.001	19.995	103.137	19.957	12.885	0.500
608.500	384.494	79.999	19.994	103.131	19.958	12.816	0.517
609.000	384.742	80.000	19.994	103.122	19.958	12.774	0.519
609.500	384.966	80.000	19.995	103.112	19.959	12.695	0.492
610.000	385.244	79.999	19.994	103.104	19.961	12.577	0.487
610.500	385.505	79.998	19.994	103.096	19.963	12.437	0.520
611.000	385.728	80.000	19.994	103.091	19.963	12.418	0.512
611.500	386.003	80.001	19.994	103.088	19.968	12.139	0.491
612.000	386.245	80.001	19.993	103.087	19.966	12.218	0.507
612.500	386.494	80.001	19.994	103.085	19.966	12.220	0.504
613.000	386.763	80.000	19.994	103.085	19.970	11.962	0.505
613.500	387.004	80.001	19.994	103.087	19.968	12.119	0.514
614.000	387.245	80.000	19.994	103.094	19.974	11.691	0.496
614.500	387.499	80.000	19.995	103.099	19.975	11.655	0.488
615.000	387.761	80.000	19.994	103.109	19.973	11.772	0.506
615.500	388.008	80.000	19.994	103.116	19.971	11.893	0.513
616.000	388.313	80.000	19.995	103.121	19.976	11.603	0.530
616.501	388.544	80.000	19.995	103.120	19.979	11.400	0.544
617.000	388.784	79.999	19.995	103.115	19.982	11.148	0.504
617.500	389.043	79.999	19.994	103.108	19.981	11.225	0.485
618.000	389.319	80.000	19.994	103.101	19.979	11.395	0.517
618.500	389.543	79.999	19.994	103.101	19.978	11.463	0.517
619.000	389.828	79.998	19.994	103.101	19.982	11.155	0.504
619.500	390.039	79.997	19.994	103.106	19.981	11.266	0.502
620.000	390.288	79.998	19.994	103.108	19.986	10.907	0.478
620.500	390.564	79.998	19.995	103.107	19.987	10.878	0.493
621.000	390.815	79.998	19.995	103.101	19.989	10.722	0.526
621.500	391.071	79.998	19.995	103.093	19.991	10.560	0.517
622.000	391.346	79.998	19.995	103.089	19.986	10.930	0.519
622.500	391.571	79.997	19.995	103.088	19.989	10.741	0.515
623.000	391.807	79.997	19.995	103.087	19.988	10.792	0.481
623.500	392.012	79.997	19.995	103.087	19.991	10.606	0.451
624.000	392.268	79.996	19.995	103.089	19.992	10.496	0.451
624.500	392.543	79.998	19.995	103.089	19.995	10.339	0.495
625.000	392.793	79.997	19.996	103.091	19.992	10.542	0.528
625.500	393.044	79.998	19.996	103.097	19.992	10.496	0.514
626.000	393.329	79.998	19.995	103.097	19.991	10.601	0.519
626.500	393.587	79.998	19.995	103.098	19.994	10.411	0.539
627.000	393.845	79.998	19.995	103.095	19.992	10.520	0.530
627.500	394.083	79.998	19.995	103.091	19.997	10.190	0.506
628.000	394.348	79.997	19.996	103.085	19.993	10.437	0.499
628.500	394.595	79.997	19.995	103.084	19.993	10.474	0.507
629.000	394.855	79.997	19.995	103.085	19.992	10.506	0.510
629.500	395.080	79.996	19.995	103.086	19.996	10.215	0.496
630.000	395.332	79.997	19.995	103.086	19.994	10.362	0.481
630.500	395.616	79.998	19.996	103.080	19.996	10.233	0.506
631.000	395.865	79.997	19.996	103.078	20.002	9.848	0.535
631.500	396.087	79.998	19.995	103.083	20.003	9.791	0.502
632.000	396.369	79.997	19.995	103.090	20.002	9.859	0.487
632.500	396.599	79.997	19.995	103.100	19.997	10.172	0.507
633.000	396.866	79.998	19.994	103.115	19.996	10.241	0.505
633.500	397.110	79.998	19.994	103.122	20.001	9.931	0.505
634.000	397.402	79.997	19.995	103.116	19.999	10.015	0.523
634.500	397.613	79.998	19.995	103.108	20.006	9.595	0.519
635.000	397.881	79.997	19.994	103.100	20.002	9.851	0.491
635.500	398.109	79.999	19.994	103.093	20.004	9.711	0.487
636.000	398.324	79.998	19.994	103.089	20.000	9.951	0.469
636.500	398.615	79.998	19.995	103.089	20.001	9.884	0.474
637.000	398.867	79.998	19.994	103.089	20.003	9.781	0.525
637.500	399.109	79.997	19.995	103.092	20.005	9.671	0.519
638.000	399.395	79.997	19.994	103.093	20.004	9.679	0.511
638.500	399.603	79.999	19.995	103.099	20.008	9.452	0.511
639.000	399.838	79.997	19.996	103.101	20.008	9.431	0.468
639.500	400.137	79.998	19.994	103.108	20.008	9.429	0.489
640.000	400.348	79.997	19.995	103.108	20.004	9.726	0.522
640.500	400.608	79.997	19.995	103.114	20.006	9.552	0.490
641.000	400.855	79.997	19.994	103.116	20.009	9.370	0.489
641.500	401.101	79.997	19.994	103.116	20.005	9.612	0.500
642.000	401.374	79.998	19.996	103.114	20.009	9.370	0.506
642.500	401.616	79.996	19.995	103.113	20.008	9.426	0.517
643.000	401.893	79.996	19.995	103.108	20.003	9.767	0.517
643.500	402.113	79.997	19.995	103.103	20.005	9.625	0.508
644.000	402.347	79.997	19.995	103.102	20.008	9.453	0.476
644.500	402.609	79.997	19.994	103.097	20.008	9.417	0.475
645.000	402.906	79.996	19.996	103.092	20.009	9.393	0.527
645.500	403.114	79.997	19.995	103.089	20.006	9.543	0.532
646.000	403.414	79.997	19.996	103.088	20.010	9.329	0.507
646.500	403.634	79.995	19.996	103.095	20.010	9.283	0.514
647.000	403.881	79.997	19.994	103.097	20.005	9.624	0.493
647.500	404.116	79.997	19.996	103.098	20.006	9.591	0.474
648.000	404.340	79.996	19.994	103.100	20.006	9.548	0.471
648.500	404.662	79.997	19.996	103.098	20.010	9.315	0.503
649.000	404.884	79.997	19.995	103.091	20.004	9.691	0.545
649.500	405.118	79.997	19.995	103.089	20.007	9.511	0.500
650.000	405.379	79.996	19.995	103.095	20.007	9.494	0.476
650.500	405.612	79.996	19.996	103.098	20.007	9.518	0.495
651.000	405.876	79.997	19.997	103.100	20.010	9.334	0.495
651.500	406.089	79.996	19.996	103.099	20.009	9.382	0.486
652.000	406.369	79.996	19.996	103.097	20.008	9.426	0.485
652.500	406.643	79.996	19.996	103.092	20.007	9.519	0.524
653.000	406.865	79.995	19.996	103.089	20.012	9.202	0.525
653.500	407.131	79.996	19.997	103.087	20.012	9.202	0.492
654.000	407.461	79.995	19.997	103.087	20.013	9.133	0.542
654.500	407.664	79.994	19.996	103.092	20.011	9.252	0.564
655.000	407.884	79.996	19.998	103.101	20.015	8.954	0.478
655.500	408.167	79.997	19.997	103.109	20.010	9.310	0.463
656.000	408.471	79.996	19.997	103.106	20.009	9.345	0.545
656.500	408.588	79.996	19.997	103.082	20.009	9.389	0.504
657.000	408.959	79.996	19.995	103.061	20.012	9.206	0.454
657.500	409.202	79.996	19.996	103.044	20.011	9.241	0.551
658.000	409.384	79.998	19.997	103.028	20.011	9.211	0.519
658.500	409.619	79.997	19.997	103.021	20.014	9.053	0.421
659.000	409.876	79.996	19.996	103.041	20.008	9.476	0.454
659.500	410.127	79.997	19.995	103.073	20.016	8.929	0.500
660.000	410.409	79.997	19.995	103.095	20.012	9.148	0.521
660.500	410.663	79.998	19.996	103.110	20.013	9.111	0.535
661.000	410.881	79.997	19.996	103.122	20.015	8.948	0.504
661.500	411.147	79.998	19.995	103.128	20.013	9.138	0.478
662.000	411.367	79.999	19.997	103.115	20.014	9.041	0.485
662.500	411.606	79.998	19.997	103.107	20.017	8.823	0.473
663.000	411.893	79.999	19.996	103.101	20.011	9.265	0.492
663.500	412.123	79.999	19.995	103.096	20.013	9.139	0.521
664.000	412.361	79.998	19.995	103.099	20.018	8.771	0.492
664.500	412.664	79.997	19.995	103.103	20.015	8.990	0.504
665.000	412.939	79.999	19.995	103.104	20.015	8.944	0.560
665.500	413.171	79.999	19.995	103.109	20.017	8.871	0.543
666.000	413.407	79.998	19.995	103.115	20.016	8.926	0.488
666.500	413.663	79.999	19.994	103.117	20.018	8.783	0.481
667.000	413.907	79.999	19.994	103.116	20.021	8.567	0.496
667.500	414.161	79.999	19.995	103.119	20.019	8.693	0.499
668.000	414.406	80.000	19.995	103.121	20.016	8.921	0.498
668.500	414.662	79.999	19.995	103.125	20.018	8.801	0.500
669.000	414.911	79.998	19.995	103.120	20.017	8.843	0.503
669.500	415.169	79.999	19.994	103.113	20.018	8.756	0.506
670.000	415.371	79.999	19.995	103.105	20.017	8.846	0.484
670.500	415.627	79.999	19.994	103.097	20.017	8.840	0.459
671.000	415.897	79.997	19.993	103.087	20.014	9.016	0.492
671.500	416.119	80.000	19.996	103.083	20.019	8.682	0.510
672.000	416.414	79.999	19.995	103.080	20.016	8.933	0.504
672.500	416.642	80.000	19.995	103.079	20.022	8.476	0.520
673.000	416.904	79.998	19.994	103.079	20.018	8.793	0.506
673.500	417.138	79.999	19.996	103.081	20.024	8.350	0.493
674.000	417.429	79.998	19.994	103.083	20.018	8.749	0.510
674.500	417.671	80.000	19.995	103.085	20.019	8.719	0.529
675.000	417.931	79.999	19.995	103.087	20.021	8.554	0.517
675.500	418.164	79.998	19.995	103.087	20.021	8.567	0.498
676.000	418.398	79.998	19.996	103.086	20.027	8.188	0.480
676.500	418.627	79.997	19.995	103.086	20.024	8.400	0.465
677.000	418.904	79.999	19.995	103.085	20.025	8.272	0.485
677.500	419.176	79.997	19.994	103.085	20.022	8.516	0.528
678.000	419.402	79.998	19.995	103.084	20.023	8.424	0.523
678.500	419.656	79.998	19.996	103.085	20.025	8.320	0.488
679.000	419.915	79.998	19.995	103.092	20.026	8.250	0.496
679.500	420.164	79.997	19.995	103.098	20.023	8.410	0.511
680.000	420.422	79.997	19.994	103.103	20.026	8.260	0.508
680.501	420.672	79.997	19.996	103.107	20.023	8.408	0.508
681.000	420.902	79.999	19.996	103.113	20.028	8.129	0.494
681.500	421.177	79.999	19.996	103.109	20.029	8.030	0.493
682.000	421.445	79.998	19.994	103.105	20.025	8.303	0.524
682.500	421.661	79.998	19.995	103.101	20.029	8.019	0.513
683.000	421.951	79.999	19.994	103.101	20.023	8.412	0.495
683.500	422.187	79.998	19.995	103.095	20.030	7.996	0.516
684.000	422.411	79.998	19.995	103.092	20.026	8.243	0.493
684.500	422.673	79.998	19.996	103.091	20.028	8.079	0.474
685.000	422.952	79.997	19.995	103.090	20.030	7.971	0.513
685.500	423.197	79.998	19.995	103.086	20.031	7.897	0.532
686.000	423.423	79.998	19.995	103.085	20.030	7.994	0.498
686.500	423.665	79.998	19.994	103.084	20.027	8.196	0.470
687.000	423.950	79.998	19.995	103.084	20.029	8.062	0.497
687.500	424.180	79.999	19.996	103.084	20.027	8.155	0.521
688.000	424.427	79.997	19.995	103.085	20.028	8.124	0.496
688.500	424.682	79.999	19.994	103.085	20.030	7.992	0.490
689.000	424.974	79.998	19.995	103.087	20.030	7.978	0.524
689.500	425.245	79.997	19.994	103.087	20.028	8.108	0.555
690.000	425.471	79.999	19.996	103.088	20.028	8.129	0.530
690.500	425.744	79.999	19.995	103.088	20.032	7.849	0.497
691.000	426.021	80.000	19.996	103.089	20.031	7.875	0.524
691.501	426.221	79.999	19.995	103.087	20.031	7.889	0.514
692.000	426.513	80.000	19.995	103.085	20.030	7.968	0.485
692.500	426.759	80.000	19.995	103.085	20.026	8.230	0.515
693.000	427.017	80.001	19.995	103.085	20.026	8.207	0.521
693.500	427.230	79.999	19.994	103.084	20.031	7.907	0.488
694.000	427.497	80.000	19.995	103.088	20.029	8.055	0.476
694.500	427.755	79.999	19.995	103.090	20.033	7.738	0.503
695.000	428.040	79.999	19.995	103.092	20.033	7.800	0.534
695.500	428.282	80.000	19.994	103.093	20.033	7.778	0.535
696.000	428.542	79.999	19.993	103.093	20.028	8.089	0.514
696.500	428.787	80.000	19.994	103.091	20.029	8.064	0.503
697.000	429.082	79.999	19.993	103.094	20.027	8.170	0.522
697.500	429.281	80.000	19.994	103.093	20.031	7.936	0.517
698.000	429.566	79.999	19.995	103.092	20.032	7.861	0.489
698.500	429.819	80.000	19.994	103.092	20.036	7.579	0.511
699.000	430.077	80.001	19.994	103.093	20.037	7.476	0.525
699.500	430.350	79.999	19.994	103.091	20.034	7.690	0.521
700.000	430.595	79.998	19.994	103.092	20.033	7.756	0.524
700.500	430.805	79.999	19.993	103.097	20.037	7.529	0.486
701.000	431.105	79.998	19.994	103.104	20.035	7.617	0.483
701.500	431.330	79.998	19.993	103.107	20.035	7.619	0.518
702.000	431.562	79.998	19.996	103.107	20.038	7.422	0.492
702.500	431.839	79.998	19.994	103.106	20.034	7.699	0.483
703.000	432.109	79.998	19.994	103.106	20.036	7.563	0.528
703.500	432.369	79.997	19.994	103.103	20.037	7.497	0.538
704.000	432.656	79.997	19.994	103.100	20.033	7.737	0.538
704.500	432.904	79.997	19.995	103.099	20.037	7.512	0.541
705.000	433.110	79.997	19.994	103.099	20.038	7.425	0.495
705.500	433.372	79.997	19.995	103.094	20.039	7.388	0.461
706.000	433.621	79.998	19.996	103.090	20.037	7.477	0.489
706.500	433.920	79.996	19.995	103.091	20.038	7.451	0.530
707.000	434.144	79.997	19.993	103.091	20.041	7.217	0.536
707.500	434.410	79.997	19.995	103.091	20.040	7.279	0.506
708.000	434.646	79.997	19.994	103.091	20.043	7.092	0.495
708.500	434.918	79.997	19.995	103.093	20.041	7.257	0.505
709.000	435.176	79.996	19.995	103.093	20.041	7.212	0.520
709.500	435.450	79.997	19.995	103.093	20.041	7.226	0.531
710.000	435.703	79.997	19.995	103.093	20.040	7.309	0.529
710.501	435.917	79.996	19.995	103.093	20.040	7.288	0.497
711.000	436.145	79.996	19.994	103.092	20.043	7.122	0.455
711.500	436.431	79.997	19.996	103.091	20.043	7.069	0.478
712.000	436.724	79.996	19.996	103.090	20.044	7.065	0.546
712.500	436.959	79.996	19.994	103.090	20.048	6.750	0.554
713.000	437.215	79.997	19.995	103.089	20.045	6.935	0.509
713.500	437.492	79.996	19.994	103.081	20.046	6.867	0.512
714.000	437.754	79.995	19.995	103.082	20.047	6.845	0.536
714.501	437.988	79.997	19.995	103.083	20.046	6.893	0.518
715.001	438.245	79.998	19.995	103.085	20.048	6.799	0.494
715.500	438.477	79.998	19.995	103.086	20.046	6.907	0.490
716.000	438.731	79.997	19.996	103.092	20.044	7.052	0.488
716.501	439.008	79.997	19.994	103.088	20.046	6.926	0.509
717.000	439.287	79.996	19.995	103.083	20.047	6.853	0.544
717.500	439.527	79.997	19.996	103.081	20.047	6.823	0.537
718.000	439.749	79.998	19.995	103.081	20.051	6.593	0.490
718.501	439.984	79.998	19.996	103.082	20.050	6.662	0.459
719.000	440.278	79.997	19.996	103.085	20.050	6.649	0.493
719.500	440.525	79.998	19.995	103.086	20.050	6.652	0.535
720.001	440.795	79.995	19.995	103.086	20.047	6.857	0.529
720.500	441.052	79.999	19.997	103.085	20.051	6.585	0.522
721.000	441.290	79.998	19.996	103.084	20.051	6.540	0.511
721.500	441.558	79.997	19.996	103.084	20.050	6.654	0.501
722.000	441.829	79.998	19.996	103.086	20.049	6.691	0.523
722.500	442.083	79.999	19.995	103.086	20.050	6.629	0.532
723.000	442.335	79.996	19.996	103.086	20.053	6.428	0.515
723.500	442.666	79.996	19.995	103.087	20.054	6.351	0.544
724.000	442.887	79.996	19.995	103.086	20.051	6.559	0.568
724.500	443.132	79.997	19.994	103.086	20.049	6.689	0.509
725.000	443.342	79.997	19.995	103.085	20.050	6.642	0.460
725.500	443.601	79.998	19.994	103.085	20.054	6.395	0.462
726.000	443.825	79.997	19.995	103.085	20.056	6.202	0.476
726.500	444.139	79.998	19.995	103.085	20.057	6.155	0.510
727.000	444.379	79.999	19.995	103.086	20.054	6.380	0.546
727.500	444.601	79.998	19.995	103.087	20.057	6.180	0.508
728.000	444.888	79.997	19.995	103.089	20.057	6.164	0.486
728.500	445.104	79.997	19.994	103.089	20.056	6.198	0.506
729.000	445.366	79.997	19.995	103.088	20.055	6.321	0.490
729.500	445.632	79.996	19.994	103.084	20.059	6.037	0.503
730.000	445.879	79.996	19.995	103.076	20.061	5.903	0.521
730.500	446.128	79.996	19.994	103.069	20.054	6.365	0.505
731.000	446.372	79.997	19.995	103.064	20.058	6.128	0.494
731.500	446.629	79.997	19.996	103.061	20.062	5.853	0.497
732.000	446.877	79.997	19.996	103.065	20.057	6.165	0.503
732.500	447.132	79.995	19.995	103.072	20.055	6.266	0.504
733.000	447.406	79.997	19.996	103.078	20.058	6.108	0.516
733.500	447.626	79.998	19.996	103.083	20.057	6.162	0.511
734.000	447.872	79.997	19.995	103.084	20.055	6.329	0.480
734.500	448.141	79.997	19.995	103.084	20.054	6.384	0.491
735.000	448.383	79.996	19.995	103.084	20.054	6.347	0.513
735.500	448.622	79.996	19.995	103.084	20.060	5.988	0.495
736.000	448.897	79.997	19.995	103.084	20.059	6.019	0.498
736.500	449.163	79.997	19.995	103.087	20.064	5.723	0.528
737.000	449.424	79.997	19.995	103.087	20.056	6.239	0.534
737.500	449.679	79.996	19.995	103.086	20.057	6.153	0.521
738.000	449.913	79.997	19.996	103.086	20.058	6.126	0.502
738.501	450.191	79.996	19.996	103.085	20.057	6.169	0.500
739.001	450.440	79.996	19.995	103.080	20.060	5.996	0.520
739.500	450.679	79.997	19.996	103.075	20.062	5.846	0.508
740.000	450.963	79.997	19.995	103.075	20.057	6.158	0.506
740.500	451.190	79.996	19.996	103.075	20.059	6.015	0.517
741.000	451.424	79.996	19.995	103.075	20.059	6.060	0.485
741.500	451.691	79.997	19.996	103.074	20.064	5.721	0.481
742.000	451.948	79.997	19.995	103.072	20.063	5.770	0.513
742.500	452.194	79.997	19.996	103.072	20.065	5.628	0.514
743.000	452.419	79.997	19.996	103.072	20.063	5.760	0.487
743.500	452.703	79.998	19.996	103.072	20.062	5.820	0.490
744.000	452.957	79.996	19.997	103.078	20.064	5.708	0.523
744.500	453.257	79.997	19.996	103.084	20.065	5.657	0.546
745.000	453.535	79.998	19.996	103.085	20.065	5.643	0.566
745.500	453.783	79.997	19.996	103.085	20.066	5.540	0.552
746.000	453.961	79.998	19.996	103.085	20.070	5.328	0.477
746.500	454.185	79.997	19.995	103.086	20.067	5.471	0.415
747.000	454.477	79.997	19.995	103.088	20.069	5.354	0.459
747.500	454.779	79.999	19.996	103.092	20.068	5.396	0.555
748.000	455.008	79.997	19.995	103.093	20.069	5.365	0.563
748.500	455.225	79.998	19.997	103.093	20.068	5.402	0.489
749.000	455.463	79.998	19.996	103.092	20.070	5.327	0.450
749.500	455.720	79.999	19.996	103.084	20.067	5.493	0.475
750.000	455.994	79.999	19.995	103.072	20.069	5.352	0.513
750.500	456.232	79.999	19.996	103.064	20.071	5.235	0.521
751.000	456.453	79.997	19.995	103.058	20.068	5.420	0.486
751.500	456.742	79.998	19.996	103.052	20.067	5.464	0.485
752.000	456.979	79.998	19.996	103.057	20.068	5.411	0.518
752.500	457.241	79.999	19.996	103.061	20.067	5.472	0.512
753.000	457.465	79.998	19.997	103.061	20.066	5.561	0.493
753.500	457.739	79.999	19.996	103.063	20.068	5.396	0.492
754.000	457.989	79.998	19.995	103.064	20.070	5.317	0.511
754.500	458.266	79.999	19.996	103.059	20.066	5.570	0.526
755.001	458.521	79.997	19.994	103.060	20.067	5.481	0.530
755.500	458.793	79.998	19.995	103.066	20.071	5.213	0.529
756.000	459.043	79.997	19.994	103.069	20.071	5.255	0.524
756.500	459.301	79.998	19.995	103.073	20.069	5.391	0.515
757.000	459.528	79.998	19.995	103.080	20.071	5.250	0.497
757.500	459.814	80.000	19.994	103.082	20.068	5.413	0.499
758.000	460.036	79.997	19.994	103.084	20.069	5.336	0.510
758.500	460.290	79.999	19.995	103.085	20.072	5.160	0.492
759.000	460.547	79.998	19.994	103.085	20.067	5.469	0.494
759.501	460.806	79.998	19.994	103.083	20.070	5.308	0.514
760.000	461.030	79.998	19.995	103.084	20.068	5.423	0.500
760.500	461.302	79.998	19.995	103.083	20.071	5.247	0.490
761.000	461.533	79.998	19.994	103.085	20.071	5.225	0.499
761.500	461.835	79.996	19.995	103.086	20.070	5.264	0.518
762.000	462.115	79.998	19.994	103.088	20.075	4.982	0.557
762.500	462.304	79.997	19.995	103.090	20.067	5.528	0.526
763.000	462.623	79.999	19.997	103.091	20.072	5.162	0.488
763.500	462.825	79.997	19.995	103.092	20.070	5.295	0.514
764.000	463.124	79.998	19.995	103.089	20.071	5.238	0.511
764.500	463.352	79.998	19.994	103.084	20.073	5.097	0.514
765.000	463.622	79.997	19.995	103.082	20.075	4.931	0.513
765.500	463.851	79.999	19.995	103.086	20.073	5.104	0.498
766.000	464.084	79.998	19.994	103.086	20.073	5.124	0.480
766.500	464.329	79.997	19.995	103.083	20.077	4.829	0.470
767.000	464.564	79.999	19.995	103.087	20.076	4.917	0.479
767.500	464.840	79.998	19.994	103.087	20.075	4.983	0.496
768.000	465.079	80.000	19.995	103.081	20.076	4.880	0.513
768.500	465.330	80.000	19.994	103.082	20.076	4.863	0.503
769.000	465.572	79.998	19.995	103.088	20.077	4.814	0.492
769.500	465.803	79.998	19.995	103.085	20.075	4.982	0.483
770.001	466.073	79.997	19.996	103.078	20.078	4.792	0.487
770.500	466.340	79.998	19.995	103.072	20.077	4.804	0.519
771.000	466.612	79.999	19.994	103.067	20.079	4.663	0.538
771.500	466.858	80.000	19.995	103.061	20.080	4.633	0.528
772.000	467.118	80.000	19.994	103.062	20.078	4.785	0.512
772.500	467.355	79.999	19.996	103.070	20.078	4.762	0.502
773.000	467.590	79.999	19.994	103.077	20.075	4.932	0.484
773.500	467.826	80.000	19.994	103.076	20.081	4.544	0.471
774.000	468.045	79.998	19.994	103.080	20.079	4.716	0.463
774.500	468.344	80.000	19.995	103.080	20.082	4.496	0.486
775.000	468.638	80.000	19.995	103.077	20.081	4.570	0.556
775.500	468.793	80.000	19.995	103.077	20.081	4.561	0.521
776.000	469.093	80.000	19.995	103.087	20.085	4.308	0.452
776.500	469.377	79.999	19.993	103.097	20.077	4.799	0.520
777.000	469.605	80.001	19.994	103.104	20.078	4.740	0.548
777.500	469.893	79.999	19.995	103.106	20.083	4.411	0.514
778.000	470.117	79.999	19.995	103.105	20.079	4.684	0.514
778.500	470.358	79.998	19.994	103.100	20.079	4.673	0.488
779.000	470.605	79.999	19.994	103.092	20.081	4.536	0.477
779.500	470.878	79.999	19.995	103.088	20.084	4.337	0.504
780.000	471.136	79.999	19.994	103.088	20.081	4.541	0.525
780.500	471.398	79.999	19.995	103.087	20.081	4.555	0.525
781.000	471.688	79.999	19.994	103.079	20.080	4.608	0.536
781.500	471.917	79.997	19.995	103.071	20.078	4.742	0.536
782.000	472.155	79.999	19.994	103.066	20.080	4.632	0.493
782.500	472.408	79.998	19.996	103.066	20.081	4.580	0.479
783.000	472.671	79.998	19.995	103.066	20.083	4.421	0.504
783.500	472.901	79.999	19.995	103.067	20.081	4.569	0.505
784.000	473.168	79.998	19.994	103.067	20.079	4.696	0.495
784.500	473.442	79.997	19.995	103.065	20.080	4.623	0.519
785.000	473.708	79.998	19.996	103.064	20.080	4.638	0.541
785.500	473.978	79.997	19.994	103.065	20.082	4.493	0.538
786.000	474.228	79.998	19.995	103.070	20.083	4.437	0.527
786.500	474.492	79.997	19.994	103.077	20.082	4.515	0.517
787.000	474.774	79.997	19.994	103.078	20.078	4.779	0.530
787.500	475.005	79.999	19.995	103.071	20.080	4.625	0.529
788.000	475.276	79.997	19.994	103.063	20.081	4.557	0.507
788.500	475.526	79.998	19.995	103.057	20.080	4.632	0.512
789.000	475.761	79.998	19.995	103.054	20.083	4.427	0.504
789.500	476.074	79.998	19.995	103.059	20.084	4.388	0.517
790.000	476.278	79.998	19.995	103.067	20.082	4.469	0.532
790.500	476.537	79.997	19.994	103.074	20.087	4.174	0.490
791.000	476.791	79.997	19.994	103.081	20.084	4.344	0.488
791.500	477.039	79.998	19.995	103.080	20.086	4.230	0.508
792.000	477.295	79.998	19.993	103.074	20.085	4.309	0.503
792.500	477.541	79.997	19.994	103.067	20.082	4.514	0.503
793.000	477.822	79.998	19.994	103.064	20.084	4.360	0.515
793.500	478.069	79.998	19.995	103.061	20.088	4.124	0.527
794.000	478.307	79.998	19.995	103.063	20.086	4.239	0.506
794.500	478.567	79.999	19.994	103.069	20.079	4.708	0.492
795.000	478.818	79.998	19.994	103.076	20.082	4.519	0.505
795.500	479.090	79.998	19.994	103.081	20.085	4.305	0.517
796.000	479.325	79.999	19.994	103.085	20.086	4.238	0.515
796.500	479.601	79.999	19.995	103.088	20.083	4.401	0.510
797.000	479.840	79.999	19.995	103.088	20.084	4.326	0.513
797.500	480.097	79.998	19.996	103.088	20.085	4.264	0.505
798.000	480.328	79.998	19.994	103.088	20.084	4.356	0.492
798.500	480.608	79.998	19.995	103.084	20.086	4.254	0.500
799.000	480.852	79.999	19.996	103.081	20.085	4.300	0.518
799.500	481.135	79.997	19.994	103.076	20.086	4.206	0.526
800.000	481.385	79.999	19.995	103.071	20.082	4.512	0.530
800.500	481.639	79.999	19.994	103.066	20.085	4.297	0.519
801.000	481.875	79.998	19.994	103.065	20.082	4.467	0.497
801.500	482.150	79.998	19.995	103.060	20.084	4.351	0.500
802.000	482.360	79.999	19.994	103.060	20.085	4.289	0.498
802.500	482.657	79.998	19.995	103.058	20.086	4.212	0.496
803.000	482.893	79.998	19.996	103.055	20.089	4.010	0.520
803.500	483.183	79.997	19.994	103.053	20.089	4.025	0.529
804.000	483.419	79.997	19.995	103.052	20.087	4.162	0.526
804.500	483.652	79.998	19.995	103.049	20.090	3.951	0.498
805.000	483.930	79.997	19.995	103.049	20.091	3.874	0.490
805.500	484.156	79.997	19.995	103.048	20.089	4.026	0.507
806.000	484.447	79.998	19.995	103.052	20.088	4.084	0.510
806.500	484.683	79.998	19.996	103.060	20.089	4.036	0.522
807.000	484.973	79.998	19.995	103.067	20.088	4.074	0.527
807.500	485.214	79.997	19.996	103.075	20.096	3.543	0.528
808.000	485.446	79.998	19.996	103.082	20.092	3.847	0.502
808.500	485.683	79.998	19.996	103.086	20.089	3.997	0.471
809.000	485.946	79.998	19.995	103.088	20.093	3.735	0.485
809.500	486.238	79.999	19.995	103.090	20.087	4.144	0.527
810.000	486.510	79.997	19.995	103.095	20.090	3.979	0.559
810.500	486.738	79.998	19.996	103.097	20.091	3.858	0.532
811.000	486.967	79.998	19.996	103.092	20.094	3.701	0.478
811.501	487.250	79.998	19.995	103.083	20.090	3.943	0.485
812.000	487.527	79.998	19.996	103.075	20.091	3.921	0.537
812.500	487.744	79.998	19.995	103.063	20.093	3.747	0.527
813.000	487.998	79.996	19.996	103.059	20.098	3.416	0.482
813.500	488.276	79.998	19.996	103.069	20.096	3.553	0.501
814.000	488.478	79.997	19.996	103.083	20.095	3.595	0.506
814.500	488.785	79.997	19.996	103.093	20.092	3.826	0.495
815.000	489.034	79.998	19.995	103.097	20.096	3.551	0.532
815.500	489.307	79.998	19.995	103.091	20.094	3.721	0.539
816.000	489.537	79.998	19.995	103.080	20.090	3.931	0.513
816.500	489.859	79.997	19.995	103.068	20.092	3.853	0.528
817.000	490.110	79.996	19.994	103.057	20.093	3.788	0.563
817.500	490.375	79.997	19.996	103.053	20.093	3.774	0.544
818.000	490.585	79.998	19.995	103.053	20.095	3.596	0.495
818.500	490.877	79.998	19.994	103.052	20.101	3.237	0.488
819.000	491.136	79.996	19.995	103.048	20.091	3.911	0.527
819.500	491.370	79.997	19.996	103.049	20.099	3.378	0.522
820.000	491.611	79.998	19.996	103.050	20.095	3.617	0.484
820.500	491.901	79.998	19.996	103.050	20.090	3.945	0.503
821.000	492.127	79.996	19.994	103.049	20.097	3.508	0.524
821.500	492.402	79.997	19.995	103.049	20.095	3.652	0.508
822.000	492.688	79.997	19.995	103.056	20.091	3.886	0.530
822.500	492.926	79.998	19.996	103.063	20.094	3.668	0.542
823.000	493.143	79.999	19.995	103.067	20.093	3.769	0.490
823.500	493.409	79.998	19.995	103.068	20.096	3.540	0.470
824.000	493.710	79.998	19.996	103.073	20.094	3.687	0.525
824.500	493.981	79.998	19.995	103.067	20.093	3.789	0.569
825.000	494.277	79.998	19.995	103.065	20.097	3.487	0.569
825.500	494.493	79.998	19.994	103.066	20.096	3.549	0.540
826.000	494.781	79.998	19.995	103.061	20.096	3.582	0.508
826.501	495.020	79.998	19.995	103.052	20.094	3.714	0.515
827.000	495.267	79.999	19.996	103.052	20.098	3.415	0.506
827.500	495.555	79.999	19.995	103.047	20.094	3.661	0.510
828.000	495.817	79.999	19.995	103.042	20.093	3.762	0.542
828.500	496.035	79.998	19.995	103.041	20.094	3.687	0.515
829.000	496.307	79.999	19.996	103.041	20.092	3.832	0.485
829.500	496.557	80.000	19.995	103.040	20.093	3.790	0.506
830.000	496.828	79.998	19.995	103.040	20.091	3.913	0.521
830.500	497.081	80.000	19.996	103.048	20.094	3.695	0.522
831.001	497.362	79.999	19.995	103.060	20.094	3.724	0.530
831.501	497.613	79.999	19.995	103.071	20.093	3.775	0.533
832.000	497.892	79.999	19.994	103.078	20.094	3.670	0.531
832.500	498.125	79.998	19.996	103.077	20.094	3.710	0.521
833.000	498.420	79.999	19.996	103.071	20.093	3.734	0.520
833.500	498.665	79.999	19.996	103.066	20.093	3.756	0.534
834.000	498.925	80.000	19.996	103.066	20.091	3.906	0.523
834.500	499.153	79.997	19.995	103.067	20.100	3.304	0.496
835.000	499.393	79.999	19.996	103.073	20.098	3.410	0.478
835.500	499.670	79.998	19.995	103.075	20.097	3.471	0.493
836.000	499.970	79.998	19.995	103.074	20.098	3.422	0.547
836.500	500.180	79.997	19.995	103.066	20.095	3.625	0.543
837.000	500.464	79.997	19.995	103.062	20.098	3.402	0.502
837.500	500.700	79.998	19.995	103.055	20.094	3.676	0.507
838.000	500.933	79.998	19.997	103.053	20.096	3.530	0.494
838.500	501.200	79.997	19.996	103.054	20.095	3.596	0.484
839.000	501.466	79.999	19.996	103.062	20.097	3.460	0.517
839.500	501.742	79.997	19.997	103.068	20.098	3.397	0.537
840.000	501.942	79.997	19.996	103.076	20.099	3.379	0.509
840.500	502.220	79.998	19.996	103.083	20.099	3.379	0.477
841.000	502.477	79.998	19.996	103.088	20.097	3.502	0.507
841.500	502.728	79.995	19.996	103.087	20.095	3.617	0.522
842.000	503.010	79.997	19.996	103.080	20.098	3.443	0.520
842.500	503.263	79.999	19.996	103.072	20.100	3.297	0.533
843.000	503.506	79.998	19.996	103.064	20.098	3.438	0.515
843.500	503.767	79.997	19.995	103.062	20.097	3.465	0.500
844.000	504.047	79.998	19.995	103.061	20.096	3.546	0.523
844.500	504.296	79.997	19.995	103.063	20.099	3.337	0.535
845.000	504.548	79.998	19.995	103.067	20.096	3.548	0.515
845.500	504.797	79.997	19.996	103.075	20.101	3.215	0.501
846.000	505.069	79.999	19.996	103.074	20.104	3.026	0.511
846.500	505.340	79.999	19.995	103.076	20.099	3.354	0.531
847.000	505.568	79.999	19.996	103.081	20.100	3.293	0.521
847.500	505.834	80.000	19.995	103.084	20.100	3.276	0.496
848.000	506.102	79.999	19.995	103.085	20.101	3.249	0.514
848.500	506.416	79.999	19.996	103.084	20.098	3.401	0.558
849.000	506.635	79.999	19.995	103.085	20.098	3.405	0.557
849.500	506.928	79.999	19.994	103.080	20.100	3.256	0.522
850.000	507.151	79.999	19.993	103.077	20.099	3.377	0.514
850.500	507.420	80.000	19.994	103.073	20.100	3.258	0.504
851.000	507.669	79.999	19.995	103.072	20.097	3.499	0.505
851.500	507.927	80.000	19.995	103.070	20.100	3.280	0.512
852.000	508.207	79.999	19.995	103.074	20.097	3.518	0.523
852.500	508.467	80.000	19.994	103.072	20.101	3.236	0.539
853.000	508.703	80.000	19.994	103.073	20.097	3.483	0.518
853.500	508.983	79.999	19.994	103.070	20.101	3.227	0.505
854.000	509.255	79.999	19.994	103.072	20.097	3.476	0.534
854.500	509.522	80.000	19.994	103.074	20.100	3.299	0.546
855.000	509.749	79.999	19.994	103.077	20.101	3.196	0.517
855.500	510.015	80.000	19.994	103.080	20.102	3.178	0.494
856.000	510.270	80.000	19.995	103.084	20.102	3.158	0.507
856.500	510.555	80.000	19.995	103.085	20.099	3.335	0.530
857.000	510.809	80.000	19.995	103.083	20.099	3.326	0.540
857.500	511.051	80.000	19.994	103.075	20.099	3.357	0.517
858.000	511.359	80.000	19.994	103.068	20.102	3.172	0.522
858.500	511.586	79.999	19.994	103.064	20.100	3.295	0.542
859.000	511.810	80.001	19.995	103.064	20.098	3.452	0.493
859.500	512.112	79.999	19.994	103.065	20.097	3.520	0.489
860.000	512.380	80.000	19.996	103.065	20.098	3.412	0.548
860.500	512.602	79.998	19.993	103.065	20.103	3.092	0.530
861.000	512.877	79.999	19.995	103.062	20.098	3.453	0.493
861.500	513.141	79.998	19.994	103.057	20.100	3.266	0.518
862.000	513.399	79.999	19.994	103.051	20.100	3.271	0.530
862.500	513.621	80.000	19.995	103.054	20.100	3.297	0.501
863.000	513.889	79.998	19.994	103.056	20.099	3.339	0.485
863.500	514.167	79.998	19.994	103.062	20.100	3.258	0.518
864.000	514.449	79.999	19.995	103.065	20.101	3.251	0.553
864.500	514.689	79.996	19.995	103.071	20.105	2.978	0.541
865.000	514.970	79.995	19.994	103.071	20.103	3.099	0.521
865.500	515.199	79.997	19.994	103.074	20.100	3.282	0.516
866.000	515.470	79.997	19.994	103.070	20.104	3.013	0.506
866.500	515.720	79.996	19.996	103.072	20.101	3.199	0.511
867.000	515.991	79.997	19.994	103.073	20.101	3.250	0.521
867.500	516.235	79.997	19.995	103.075	20.100	3.263	0.518
868.000	516.485	79.997	19.995	103.075	20.103	3.119	0.505
868.500	516.782	79.997	19.996	103.078	20.104	3.032	0.521
869.000	517.070	79.998	19.995	103.073	20.103	3.060	0.566
869.500	517.312	79.999	19.996	103.067	20.105	2.954	0.557
870.000	517.546	79.999	19.996	103.068	20.106	2.871	0.503
870.500	517.807	79.997	19.994	103.071	20.102	3.164	0.486
871.000	518.074	79.997	19.996	103.070	20.101	3.249	0.511
871.500	518.326	79.998	19.995	103.072	20.101	3.244	0.523
872.000	518.567	79.997	19.995	103.078	20.103	3.115	0.506
872.500	518.833	79.997	19.996	103.074	20.100	3.262	0.500
873.000	519.111	79.998	19.995	103.072	20.101	3.216	0.526
873.500	519.364	79.997	19.996	103.076	20.103	3.105	0.537
874.000	519.623	79.998	19.996	103.079	20.103	3.119	0.521
874.500	519.906	79.999	19.996	103.079	20.099	3.379	0.527
875.000	520.115	79.998	19.995	103.081	20.105	2.959	0.517
875.500	520.395	79.998	19.996	103.083	20.102	3.177	0.490
876.000	520.685	79.998	19.994	103.076	20.100	3.307	0.530
876.500	520.917	79.998	19.996	103.073	20.105	2.972	0.546
877.000	521.190	79.997	19.994	103.067	20.104	3.046	0.514
877.500	521.431	79.998	19.995	103.061	20.105	2.944	0.509
878.000	521.728	79.999	19.995	103.058	20.105	2.927	0.526
878.500	521.979	79.999	19.995	103.059	20.101	3.198	0.543
879.000	522.256	79.998	19.994	103.055	20.098	3.418	0.538
879.500	522.505	79.998	19.995	103.054	20.103	3.081	0.527
880.000	522.742	79.999	19.995	103.054	20.105	2.925	0.506
880.500	523.021	79.998	19.994	103.053	20.103	3.083	0.501
881.000	523.314	79.997	19.995	103.057	20.105	2.965	0.544
881.500	523.537	79.999	19.995	103.058	20.102	3.180	0.544
882.000	523.784	79.998	19.995	103.063	20.104	3.040	0.492
882.500	524.036	79.997	19.994	103.069	20.099	3.363	0.485
883.000	524.318	79.998	19.995	103.073	20.101	3.216	0.517
883.500	524.558	79.997	19.994	103.071	20.103	3.119	0.528
884.000	524.849	79.998	19.994	103.077	20.099	3.337	0.526
884.500	525.099	79.999	19.993	103.077	20.101	3.243	0.536
885.000	525.308	79.999	19.994	103.071	20.103	3.073	0.500
885.500	525.609	79.998	19.995	103.065	20.101	3.225	0.485
886.000	525.851	80.000	19.994	103.061	20.109	2.712	0.526
886.500	526.080	79.998	19.994	103.060	20.109	2.664	0.507
887.000	526.339	79.998	19.993	103.062	20.107	2.805	0.479
887.500	526.655	80.000	19.995	103.069	20.108	2.783	0.532
888.000	526.895	79.998	19.994	103.077	20.108	2.780	0.566
888.500	527.170	79.998	19.994	103.085	20.107	2.791	0.536
889.000	527.396	79.997	19.995	103.086	20.107	2.798	0.508
889.500	527.672	79.998	19.994	103.086	20.105	2.930	0.501
890.000	527.952	79.998	19.994	103.087	20.108	2.745	0.529
890.500	528.188	79.998	19.995	103.087	20.108	2.785	0.536
891.000	528.473	79.999	19.995	103.086	20.106	2.859	0.518
891.500	528.701	79.998	19.996	103.083	20.108	2.741	0.517
892.000	528.979	79.998	19.995	103.077	20.105	2.945	0.510
892.500	529.243	79.999	19.995	103.075	20.109	2.683	0.524
893.000	529.474	79.998	19.994	103.074	20.108	2.765	0.518
893.500	529.797	79.997	19.994	103.074	20.108	2.732	0.524
894.000	530.048	79.997	19.996	103.077	20.105	2.937	0.564
894.500	530.282	79.997	19.995	103.077	20.105	2.985	0.530
895.000	530.541	79.998	19.995	103.071	20.106	2.912	0.489
895.500	530.780	79.997	19.995	103.063	20.105	2.937	0.496
896.000	531.025	79.998	19.995	103.057	20.105	2.981	0.491
896.500	531.295	79.998	19.995	103.052	20.106	2.860	0.499
897.000	531.560	79.997	19.995	103.050	20.106	2.870	0.525
897.500	531.833	79.997	19.995	103.051	20.105	2.925	0.536
898.000	532.060	79.997	19.995	103.051	20.106	2.906	0.519
898.500	532.375	79.997	19.995	103.057	20.102	3.150	0.521
899.000	532.620	79.997	19.995	103.063	20.106	2.904	0.551
899.500	532.870	79.999	19.995	103.066	20.103	3.075	0.527
900.000	533.145	79.998	19.995	103.066	20.101	3.234	0.510
900.500	533.378	79.998	19.996	103.070	20.102	3.131	0.516
901.000	533.655	79.995	19.994	103.066	20.103	3.113	0.509
901.500	533.925	79.998	19.995	103.060	20.107	2.840	0.529
902.000	534.160	79.998	19.995	103.057	20.105	2.970	0.526
902.500	534.466	79.997	19.996	103.057	20.103	3.108	0.523
903.000	534.701	79.998	19.995	103.053	20.102	3.133	0.541
903.500	534.964	79.997	19.995	103.052	20.105	2.941	0.520
904.000	535.201	79.997	19.995	103.051	20.104	3.038	0.499
904.500	535.478	79.997	19.995	103.050	20.101	3.206	0.507
905.000	535.754	79.996	19.995	103.051	20.107	2.836	0.533
905.500	535.979	79.999	19.995	103.052	20.106	2.886	0.527
906.000	536.251	79.998	19.996	103.052	20.105	2.937	0.499
906.500	536.506	79.998	19.995	103.055	20.108	2.781	0.512
907.000	536.780	79.999	19.996	103.057	20.103	3.058	0.528
907.500	536.974	79.998	19.995	103.058	20.104	2.990	0.499
908.000	537.265	79.999	19.994	103.063	20.102	3.122	0.477
908.500	537.557	79.999	19.993	103.063	20.105	2.937	0.534
909.000	537.781	79.998	19.995	103.060	20.104	3.030	0.549
909.500	538.054	80.000	19.996	103.061	20.104	3.027	0.507
910.000	538.286	79.999	19.995	103.059	20.105	2.952	0.501
910.500	538.547	79.999	19.994	103.053	20.103	3.080	0.499
911.000	538.803	79.999	19.995	103.053	20.103	3.058	0.505
911.500	539.057	79.999	19.996	103.054	20.103	3.111	0.514
912.000	539.322	79.999	19.996	103.056	20.104	2.997	0.514
912.500	539.594	80.000	19.995	103.056	20.104	3.019	0.528
913.000	539.859	79.999	19.995	103.058	20.106	2.919	0.537
913.500	540.117	80.000	19.994	103.058	20.102	3.127	0.530
914.000	540.337	79.999	19.994	103.054	20.104	3.043	0.500
914.500	540.644	80.000	19.995	103.048	20.104	2.988	0.503
915.000	540.872	79.999	19.995	103.047	20.107	2.814	0.531
915.500	541.110	79.998	19.996	103.044	20.103	3.060	0.500
916.000	541.397	79.999	19.995	103.043	20.105	2.983	0.495
916.500	541.639	80.001	19.995	103.042	20.102	3.146	0.527
917.000	541.900	79.999	19.995	103.042	20.100	3.320	0.516
917.500	542.161	80.000	19.995	103.041	20.104	2.999	0.513
918.000	542.440	79.998	19.995	103.041	20.103	3.098	0.531
918.500	542.680	79.999	19.995	103.041	20.108	2.780	0.529
919.000	542.938	79.999	19.996	103.044	20.105	2.946	0.508
919.500	543.192	79.997	19.994	103.044	20.107	2.814	0.505
920.000	543.452	80.001	19.996	103.043	20.104	3.023	0.513
920.500	543.698	80.000	19.996	103.044	20.103	3.116	0.510
921.000	543.953	79.998	19.995	103.044	20.105	2.961	0.504
921.500	544.213	79.999	19.995	103.044	20.103	3.074	0.508
922.000	544.439	79.999	19.996	103.040	20.106	2.911	0.501
922.500	544.762	79.999	19.997	103.038	20.106	2.908	0.517
923.000	544.924	79.999	19.995	103.038	20.107	2.836	0.517
923.500	545.182	79.999	19.995	103.038	20.105	2.959	0.452
924.000	545.469	79.998	19.996	103.041	20.105	2.928	0.482
924.501	545.722	79.999	19.996	103.047	20.104	2.998	0.543
925.001	545.955	79.997	19.995	103.050	20.102	3.173	0.513
925.501	546.257	79.999	19.995	103.050	20.102	3.126	0.510
926.000	546.506	79.998	19.995	103.050	20.104	3.012	0.543
926.500	546.758	79.998	19.995	103.046	20.105	2.963	0.526
927.000	547.024	79.998	19.996	103.046	20.108	2.740	0.509
927.500	547.307	79.998	19.996	103.046	20.109	2.679	0.533
928.000	547.535	80.000	19.996	103.050	20.103	3.103	0.530
928.500	547.770	80.000	19.995	103.052	20.108	2.749	0.487
929.000	548.070	79.999	19.996	103.052	20.102	3.147	0.499
929.500	548.287	79.998	19.996	103.052	20.101	3.218	0.527
930.000	548.529	80.000	19.996	103.051	20.107	2.853	0.488
930.500	548.758	79.999	19.997	103.046	20.107	2.813	0.465
931.000	549.055	79.999	19.996	103.045	20.107	2.854	0.499
931.500	549.305	79.999	19.996	103.047	20.105	2.969	0.537
932.000	549.574	80.002	19.997	103.047	20.107	2.839	0.533
932.500	549.807	79.999	19.996	103.047	20.105	2.944	0.510
933.000	550.098	79.999	19.996	103.049	20.107	2.799	0.513
933.500	550.349	79.999	19.996	103.053	20.106	2.911	0.533
934.000	550.574	79.999	19.996	103.051	20.104	3.017	0.509
934.500	550.826	80.000	19.995	103.050	20.106	2.897	0.477
935.000	551.113	80.000	19.997	103.051	20.102	3.124	0.508
935.500	551.370	80.002	19.996	103.057	20.103	3.099	0.541
936.000	551.626	80.001	19.995	103.055	20.105	2.954	0.529
936.500	551.894	79.999	19.996	103.055	20.105	2.982	0.519
937.000	552.155	80.000	19.995	103.055	20.104	3.026	0.527
937.500	552.438	79.999	19.994	103.056	20.104	3.030	0.536
938.000	552.642	80.000	19.994	103.057	20.108	2.729	0.515
938.501	552.906	80.002	19.994	103.066	20.105	2.949	0.477
939.000	553.154	80.002	19.995	103.075	20.109	2.717	0.490
939.500	553.431	80.000	19.994	103.081	20.107	2.834	0.518
940.000	553.675	79.999	19.995	103.083	20.114	2.379	0.523
940.500	553.930	80.001	19.995	103.074	20.108	2.765	0.510
941.000	554.177	80.001	19.996	103.062	20.104	3.002	0.501
941.500	554.443	79.999	19.996	103.061	20.109	2.678	0.507
942.000	554.728	80.002	19.996	103.078	20.113	2.411	0.532
942.500	554.988	80.000	19.994	103.088	20.113	2.400	0.548
943.000	555.223	79.999	19.995	103.096	20.109	2.666	0.520
943.500	555.493	79.999	19.995	103.105	20.110	2.615	0.500
944.000	555.758	80.001	19.996	103.106	20.112	2.456	0.520
944.500	556.002	79.998	19.995	103.090	20.106	2.879	0.522
945.001	556.273	80.000	19.995	103.083	20.109	2.666	0.512
945.500	556.484	79.999	19.995	103.074	20.111	2.560	0.498
946.000	556.774	79.999	19.995	103.064	20.106	2.875	0.491
946.500	557.023	79.997	19.994	103.059	20.110	2.604	0.520
947.000	557.265	79.996	19.995	103.063	20.108	2.764	0.515
947.500	557.529	79.998	19.995	103.075	20.111	2.551	0.498
948.001	557.793	79.998	19.995	103.080	20.106	2.868	0.517
948.500	558.015	79.998	19.994	103.079	20.108	2.762	0.508
949.000	558.293	79.997	19.996	103.081	20.109	2.705	0.494
949.500	558.511	79.998	19.995	103.074	20.107	2.789	0.498
950.000	558.810	79.996	19.994	103.052	20.103	3.102	0.507
950.500	559.061	79.997	19.995	103.043	20.107	2.793	0.533
951.000	559.349	79.998	19.995	103.046	20.106	2.894	0.544
951.500	559.588	79.997	19.994	103.041	20.107	2.841	0.533
952.000	559.851	79.999	19.994	103.032	20.102	3.128	0.514
952.500	560.072	79.999	19.995	103.030	20.106	2.908	0.493
953.000	560.333	79.996	19.996	103.029	20.111	2.567	0.483
953.500	560.618	79.999	19.995	103.028	20.101	3.208	0.515
954.000	560.864	79.998	19.995	103.029	20.109	2.688	0.539
954.500	561.118	79.998	19.994	103.041	20.110	2.644	0.515
955.000	561.348	80.000	19.996	103.053	20.106	2.869	0.492
955.500	561.654	79.999	19.994	103.063	20.106	2.879	0.510
956.000	561.904	79.999	19.995	103.064	20.104	3.007	0.546
956.500	562.147	79.998	19.995	103.066	20.100	3.300	0.525
957.000	562.396	79.999	19.995	103.064	20.104	3.009	0.493
957.501	562.662	79.998	19.995	103.066	20.106	2.875	0.503
958.000	562.916	79.996	19.993	103.073	20.104	3.051	0.517
958.500	563.141	79.997	19.995	103.076	20.106	2.921	0.500
959.000	563.439	79.998	19.995	103.073	20.106	2.899	0.501
959.500	563.699	79.998	19.995	103.065	20.102	3.141	0.540
960.000	563.948	79.998	19.994	103.064	20.101	3.218	0.534
960.500	564.228	79.998	19.996	103.062	20.107	2.817	0.519
961.000	564.462	79.997	19.995	103.061	20.106	2.865	0.522
961.500	564.683	79.999	19.996	103.063	20.107	2.802	0.484
962.000	564.924	79.998	19.995	103.071	20.102	3.181	0.458
962.500	565.174	79.998	19.995	103.070	20.106	2.911	0.476
963.000	565.435	79.999	19.993	103.064	20.101	3.191	0.501
963.500	565.690	79.999	19.995	103.062	20.102	3.125	0.513
964.000	565.947	79.998	19.994	103.061	20.102	3.131	0.514
964.500	566.213	79.999	19.995	103.055	20.104	3.023	0.518
965.000	566.442	79.997	19.994	103.051	20.102	3.181	0.509
965.500	566.694	79.996	19.993	103.055	20.105	2.984	0.488
966.000	566.946	79.999	19.994	103.055	20.103	3.079	0.493
966.500	567.197	79.998	19.994	103.056	20.102	3.174	0.503
967.000	567.466	79.998	19.994	103.063	20.106	2.913	0.511
967.500	567.707	79.997	19.993	103.065	20.108	2.782	0.515
968.000	567.987	79.999	19.995	103.061	20.105	2.954	0.516
968.500	568.244	79.999	19.995	103.067	20.102	3.155	0.529
969.000	568.477	79.999	19.996	103.073	20.110	2.634	0.514
969.500	568.740	79.998	19.995	103.068	20.107	2.839	0.493
970.000	568.983	79.998	19.995	103.071	20.102	3.165	0.501
970.500	569.211	79.998	19.993	103.077	20.110	2.630	0.488
971.000	569.514	79.999	19.995	103.077	20.106	2.870	0.501
971.500	569.768	79.998	19.993	103.075	20.109	2.658	0.544
972.000	570.020	79.998	19.995	103.074	20.103	3.079	0.532
972.500	570.245	79.998	19.994	103.068	20.107	2.803	0.492
973.000	570.490	79.999	19.995	103.059	20.104	3.010	0.473
973.500	570.768	79.998	19.994	103.045	20.103	3.070	0.496
974.000	571.015	79.997	19.994	103.040	20.110	2.610	0.524
974.500	571.266	79.997	19.994	103.041	20.106	2.865	0.512
975.000	571.525	79.998	19.995	103.042	20.109	2.712	0.504
975.500	571.812	79.999	19.995	103.053	20.110	2.587	0.528
976.000	572.065	79.997	19.994	103.067	20.107	2.790	0.542
976.500	572.305	79.998	19.995	103.073	20.107	2.851	0.516
977.000	572.539	79.997	19.996	103.072	20.106	2.882	0.484
977.500	572.809	79.998	19.993	103.065	20.106	2.864	0.489
978.000	573.053	79.996	19.993	103.055	20.112	2.511	0.509
978.500	573.306	79.999	19.994	103.053	20.103	3.057	0.505
979.000	573.600	79.997	19.993	103.054	20.109	2.692	0.522
979.500	573.860	79.996	19.995	103.059	20.104	2.989	0.550
980.000	574.132	79.996	19.994	103.072	20.112	2.501	0.543
980.500	574.405	79.999	19.994	103.081	20.110	2.644	0.539
981.000	574.680	79.996	19.994	103.084	20.110	2.619	0.547
981.500	574.937	79.997	19.994	103.085	20.113	2.432	0.540
982.000	575.207	79.999	19.995	103.085	20.105	2.985	0.529
982.500	575.457	79.997	19.995	103.085	20.106	2.916	0.524
983.000	575.694	79.997	19.995	103.084	20.107	2.844	0.504
983.500	575.959	79.997	19.995	103.088	20.108	2.740	0.494
984.000	576.239	79.996	19.994	103.092	20.107	2.822	0.523
984.500	576.486	79.997	19.995	103.093	20.110	2.642	0.536
985.000	576.728	79.996	19.995	103.087	20.108	2.763	0.508
985.500	577.020	79.999	19.996	103.080	20.105	2.957	0.511
986.000	577.262	79.998	19.994	103.066	20.106	2.888	0.534
986.500	577.530	80.000	19.995	103.048	20.111	2.573	0.522
987.000	577.800	79.999	19.994	103.044	20.111	2.538	0.524
987.500	578.029	79.998	19.994	103.051	20.107	2.844	0.518
988.000	578.302	80.000	19.997	103.058	20.109	2.673	0.501
988.500	578.559	80.000	19.996	103.069	20.110	2.609	0.517
989.000	578.847	79.998	19.995	103.076	20.108	2.728	0.538
989.500	579.065	80.000	19.995	103.072	20.103	3.107	0.525
990.000	579.379	79.998	19.994	103.065	20.108	2.768	0.519
990.500	579.575	79.999	19.995	103.059	20.115	2.311	0.521
991.000	579.837	80.000	19.994	103.058	20.111	2.560	0.484
991.500	580.090	79.996	19.995	103.059	20.112	2.499	0.487
992.000	580.406	80.000	19.995	103.064	20.106	2.912	0.542
992.500	580.601	79.998	19.995	103.064	20.107	2.828	0.540
993.000	580.882	80.000	19.995	103.069	20.107	2.795	0.494
993.500	581.136	79.997	19.994	103.067	20.102	3.170	0.505
994.000	581.396	79.997	19.995	103.064	20.106	2.882	0.524
994.500	581.684	80.000	19.995	103.061	20.104	3.052	0.531
995.000	581.914	79.999	19.996	103.061	20.108	2.770	0.533
995.500	582.169	80.000	19.998	103.058	20.109	2.701	0.501
996.000	582.391	79.999	19.997	103.053	20.106	2.886	0.480
996.500	582.645	80.000	19.995	103.052	20.108	2.774	0.477
997.000	582.946	80.000	19.996	103.051	20.109	2.687	0.516
997.500	583.198	80.000	19.995	103.052	20.103	3.121	0.554
998.000	583.431	79.995	19.994	103.049	20.097	3.511	0.519
998.500	583.677	79.998	19.996	103.049	20.107	2.791	0.482
999.000	583.967	79.998	19.994	103.048	20.103	3.057	0.507
999.500	584.220	79.999	19.995	103.048	20.107	2.828	0.540
1000.000	584.447	79.996	19.996	103.046	20.102	3.181	0.511
1000.500	584.743	79.998	19.995	103.041	20.104	3.030	0.501
1001.000	584.977	79.998	19.994	103.039	20.112	2.493	0.527
1001.500	585.259	79.995	19.994	103.039	20.108	2.770	0.524
1002.000	585.497	79.998	19.996	103.041	20.109	2.693	0.518
1002.500	585.782	80.000	19.996	103.047	20.102	3.165	0.521
1003.000	586.019	79.998	19.995	103.059	20.102	3.149	0.522
1003.500	586.276	79.999	19.996	103.062	20.101	3.227	0.507
1004.000	586.532	79.996	19.995	103.063	20.103	3.073	0.503
1004.500	586.765	79.998	19.996	103.061	20.100	3.321	0.502
1005.000	587.064	79.999	19.997	103.051	20.105	2.971	0.511
1005.500	587.328	79.999	19.995	103.040	20.108	2.784	0.548
1006.001	587.536	79.998	19.995	103.039	20.107	2.811	0.518
1006.500	587.796	79.998	19.995	103.045	20.108	2.753	0.470
1007.000	588.039	79.999	19.996	103.053	20.104	3.014	0.485
1007.500	588.308	79.999	19.995	103.059	20.103	3.060	0.507
1008.000	588.542	79.998	19.995	103.072	20.105	2.952	0.508
1008.500	588.798	79.999	19.994	103.074	20.104	3.002	0.497
1009.000	589.064	79.999	19.995	103.073	20.104	3.007	0.506
1009.500	589.312	79.999	19.995	103.071	20.106	2.886	0.518
1010.000	589.575	80.000	19.997	103.073	20.113	2.392	0.512
1010.500	589.861	80.002	19.995	103.073	20.104	3.011	0.530
1011.000	590.118	80.002	19.995	103.077	20.111	2.536	0.546
1011.500	590.341	80.002	19.996	103.083	20.107	2.804	0.512
1012.000	590.582	79.999	19.995	103.090	20.106	2.876	0.472
1012.500	590.880	80.002	19.995	103.094	20.104	3.050	0.502
1013.000	591.113	79.999	19.994	103.095	20.109	2.660	0.535
1013.500	591.354	80.000	19.996	103.090	20.106	2.868	0.502
1014.000	591.606	80.003	19.995	103.081	20.108	2.787	0.483
1014.500	591.904	79.999	19.993	103.075	20.107	2.813	0.522
1015.000	592.134	80.002	19.997	103.074	20.114	2.364	0.539
1015.500	592.397	80.003	19.995	103.075	20.113	2.430	0.510
1016.000	592.677	80.002	19.996	103.077	20.106	2.891	0.518
1016.500	592.906	80.000	19.995	103.075	20.105	2.939	0.526
1017.000	593.158	80.000	19.996	103.069	20.108	2.737	0.495
1017.500	593.433	79.999	19.995	103.066	20.111	2.576	0.504
1018.000	593.663	80.001	19.996	103.064	20.110	2.602	0.517
1018.500	593.914	79.998	19.996	103.068	20.107	2.829	0.493
1019.001	594.208	79.997	19.995	103.076	20.108	2.762	0.513
1019.500	594.449	80.000	19.995	103.079	20.110	2.597	0.540
1020.000	594.762	79.998	19.994	103.076	20.107	2.815	0.544
1020.500	595.012	80.000	19.995	103.069	20.108	2.754	0.558
1021.000	595.226	80.000	19.995	103.061	20.103	3.082	0.513
1021.500	595.490	79.999	19.994	103.059	20.106	2.921	0.471
1022.000	595.786	80.000	19.995	103.062	20.108	2.729	0.520
1022.500	596.036	79.999	19.995	103.069	20.110	2.592	0.553
1023.000	596.277	79.998	19.997	103.077	20.107	2.817	0.518
1023.500	596.541	80.001	19.997	103.082	20.109	2.678	0.498
1024.000	596.806	79.997	19.996	103.079	20.107	2.801	0.517
1024.500	597.058	80.001	19.995	103.075	20.108	2.749	0.523
1025.000	597.293	79.995	19.995	103.069	20.104	3.035	0.502
1025.500	597.586	79.994	19.995	103.059	20.110	2.654	0.508
1026.000	597.858	79.997	19.995	103.048	20.108	2.778	0.547
1026.500	598.060	79.996	19.995	103.045	20.106	2.864	0.520
1027.001	598.320	80.000	19.995	103.038	20.110	2.615	0.468
1027.501	598.565	79.998	19.996	103.035	20.102	3.186	0.483
1028.001	598.843	79.996	19.994	103.038	20.112	2.474	0.514
1028.500	599.110	80.000	19.996	103.046	20.108	2.765	0.534
1029.000	599.374	80.000	19.997	103.051	20.104	3.041	0.538
1029.500	599.622	79.998	19.995	103.056	20.106	2.902	0.521
1030.000	599.852	79.999	19.995	103.058	20.105	2.933	0.495
1030.500	600.116	79.997	19.994	103.059	20.105	2.931	0.486
1031.000	600.354	79.997	19.994	103.061	20.102	3.155	0.498
1031.500	600.638	79.998	19.995	103.062	20.106	2.904	0.512
1032.000	600.898	79.997	19.996	103.068	20.110	2.631	0.533
1032.500	601.134	79.997	19.994	103.076	20.106	2.904	0.520
1033.000	601.404	79.998	19.995	103.083	20.115	2.278	0.501
1033.500	601.633	79.998	19.995	103.087	20.110	2.626	0.502
1034.000	601.866	79.997	19.994	103.087	20.109	2.695	0.481
1034.500	602.148	80.000	19.995	103.085	20.106	2.875	0.489
1035.000	602.371	79.999	19.995	103.085	20.105	2.934	0.510
1035.500	602.646	80.000	19.993	103.086	20.105	2.944	0.502
1036.000	602.911	79.998	19.994	103.083	20.109	2.697	0.519
1036.500	603.196	79.997	19.995	103.077	20.103	3.080	0.545
1037.000	603.420	79.998	19.995	103.073	20.104	2.995	0.530
1037.501	603.642	79.998	19.995	103.064	20.104	3.023	0.478
1038.001	603.937	79.998	19.995	103.052	20.107	2.851	0.482
1038.500	604.155	79.994	19.995	103.044	20.109	2.680	0.515
1039.000	604.435	79.999	19.994	103.043	20.105	2.948	0.505
1039.500	604.675	79.997	19.995	103.044	20.108	2.723	0.508
1040.000	604.928	79.996	19.994	103.044	20.106	2.868	0.506
1040.500	605.179	80.001	19.996	103.046	20.104	3.046	0.498
1041.000	605.434	79.999	19.995	103.046	20.103	3.094	0.505
1041.500	605.713	79.997	19.995	103.045	20.100	3.292	0.520
1042.000	605.932	79.999	19.995	103.044	20.103	3.100	0.516
1042.500	606.170	79.999	19.995	103.048	20.105	2.950	0.477
1043.000	606.423	79.998	19.994	103.052	20.103	3.104	0.474
1043.500	606.705	79.998	19.995	103.053	20.101	3.199	0.513
1044.000	606.976	80.000	19.995	103.053	20.102	3.170	0.544
1044.500	607.203	79.999	19.994	103.056	20.104	3.018	0.525
1045.000	607.488	79.995	19.993	103.052	20.101	3.206	0.505
1045.501	607.731	79.999	19.995	103.053	20.104	3.033	0.520
1046.001	607.997	79.999	19.995	103.053	20.104	3.033	0.519
1046.500	608.235	80.000	19.994	103.051	20.101	3.195	0.506
1047.000	608.495	79.999	19.995	103.046	20.106	2.856	0.500
1047.500	608.752	79.998	19.995	103.043	20.109	2.697	0.507
1048.000	608.964	79.998	19.994	103.042	20.103	3.083	0.493
1048.500	609.215	80.000	19.996	103.039	20.107	2.816	0.466
1049.000	609.464	79.997	19.993	103.037	20.106	2.902	0.482
1049.500	609.729	79.998	19.994	103.038	20.106	2.862	0.507
1050.001	609.953	80.000	19.996	103.044	20.103	3.058	0.502
1050.501	610.241	79.998	19.994	103.051	20.103	3.089	0.501
1051.000	610.484	79.999	19.995	103.058	20.110	2.642	0.522
1051.500	610.732	80.000	19.995	103.069	20.109	2.712	0.511
1052.000	611.008	80.000	19.994	103.078	20.108	2.774	0.507
1052.500	611.223	80.001	19.996	103.090	20.108	2.759	0.507
1053.001	611.505	79.997	19.994	103.099	20.106	2.868	0.494
1053.501	611.752	79.999	19.995	103.110	20.110	2.626	0.513
1054.000	612.015	79.999	19.995	103.118	20.110	2.624	0.519
1054.500	612.239	79.999	19.995	103.124	20.104	3.008	0.499
1055.000	612.505	79.999	19.995	103.124	20.108	2.767	0.489
1055.500	612.778	79.999	19.995	103.115	20.105	2.923	0.515
1056.001	613.025	79.999	19.995	103.099	20.112	2.502	0.529
1056.501	613.246	79.998	19.995	103.078	20.108	2.780	0.494
1057.000	613.541	79.997	19.994	103.061	20.108	2.766	0.492
1057.500	613.777	79.999	19.996	103.046	20.106	2.894	0.523
1058.000	614.019	79.999	19.995	103.033	20.106	2.875	0.504
1058.500	614.280	79.999	19.995	103.027	20.108	2.751	0.491
1059.000	614.540	79.998	19.995	103.027	20.106	2.893	0.512
1059.500	614.798	79.998	19.995	103.027	20.106	2.859	0.520
1060.001	615.064	79.999	19.995	103.027	20.108	2.774	0.521
1060.501	615.308	79.999	19.996	103.032	20.105	2.936	0.517
1061.000	615.593	79.999	19.996	103.040	20.104	3.024	0.520
1061.500	615.838	80.001	19.996	103.046	20.105	2.958	0.530
1062.000	616.088	79.999	19.995	103.047	20.104	3.022	0.512
1062.500	616.370	79.997	19.995	103.049	20.103	3.092	0.514
1063.000	616.587	79.998	19.994	103.049	20.100	3.264	0.515
1063.500	616.872	79.998	19.994	103.049	20.105	2.926	0.500
1064.000	617.107	80.000	19.995	103.049	20.104	3.001	0.511
1064.501	617.358	80.000	19.996	103.050	20.101	3.210	0.503
1065.001	617.579	79.999	19.995	103.050	20.107	2.829	0.479
1065.500	617.881	79.999	19.995	103.049	20.103	3.078	0.497
1066.001	618.082	79.998	19.994	103.049	20.106	2.918	0.513
1066.501	618.385	79.998	19.996	103.057	20.102	3.181	0.503
1067.000	618.610	80.000	19.995	103.065	20.105	2.945	0.516
1067.500	618.871	79.999	19.994	103.073	20.102	3.187	0.507
1068.000	619.159	80.002	19.995	103.074	20.106	2.881	0.518
1068.500	619.402	80.000	19.993	103.074	20.108	2.751	0.540
1069.000	619.665	79.999	19.995	103.066	20.104	3.025	0.519
1069.500	619.921	79.999	19.994	103.058	20.104	3.033	0.512
1070.000	620.188	79.999	19.995	103.052	20.104	3.040	0.521
1070.500	620.455	80.000	19.994	103.056	20.109	2.708	0.528
1071.000	620.697	80.000	19.994	103.061	20.104	3.040	0.521
1071.500	620.981	80.001	19.995	103.069	20.104	3.003	0.517
1072.000	621.196	79.999	19.994	103.076	20.106	2.857	0.512
1072.500	621.469	80.001	19.994	103.083	20.105	2.943	0.493
1073.000	621.710	80.002	19.994	103.079	20.104	2.999	0.501
1073.500	621.955	80.001	19.994	103.074	20.104	3.041	0.500
1074.000	622.251	80.001	19.995	103.066	20.108	2.756	0.513
1074.500	622.484	79.999	19.994	103.058	20.106	2.908	0.535
1075.000	622.755	79.999	19.994	103.044	20.105	2.974	0.516
1075.501	622.997	79.998	19.996	103.038	20.107	2.796	0.509
1076.001	623.272	80.000	19.994	103.035	20.102	3.183	0.516
1076.500	623.512	80.001	19.994	103.036	20.103	3.115	0.517
1077.000	623.757	79.999	19.995	103.039	20.101	3.232	0.500
1077.500	624.024	79.997	19.996	103.051	20.104	3.029	0.498
1078.000	624.261	79.999	19.994	103.061	20.106	2.917	0.508
1078.500	624.513	80.001	19.995	103.065	20.100	3.285	0.497
1079.000	624.768	80.001	19.995	103.067	20.102	3.161	0.498
1079.500	625.037	80.001	19.996	103.067	20.100	3.294	0.515
1080.000	625.287	79.999	19.996	103.063	20.109	2.688	0.521
1080.500	625.549	80.001	19.994	103.061	20.105	2.959	0.516
1081.001	625.805	80.001	19.995	103.058	20.106	2.917	0.515
1081.501	626.039	79.998	19.996	103.056	20.108	2.767	0.504
1082.000	626.281	79.999	19.996	103.055	20.102	3.142	0.483
1082.500	626.593	79.999	19.995	103.054	20.103	3.120	0.515
1083.000	626.823	79.998	19.996	103.053	20.105	2.926	0.548
1083.500	627.080	79.999	19.997	103.054	20.105	2.976	0.515
1084.000	627.343	79.998	19.997	103.053	20.105	2.928	0.504
1084.500	627.607	79.998	19.995	103.050	20.105	2.971	0.524
1085.000	627.880	80.001	19.995	103.049	20.100	3.322	0.532
1085.501	628.130	79.999	19.995	103.048	20.103	3.095	0.529
1086.001	628.388	79.999	19.995	103.048	20.106	2.917	0.516
1086.501	628.656	80.000	19.995	103.053	20.105	2.959	0.517
1087.000	628.851	80.000	19.996	103.059	20.103	3.087	0.494
1087.500	629.126	80.001	19.995	103.063	20.106	2.884	0.466
1088.000	629.401	79.999	19.995	103.064	20.105	2.970	0.510
1088.500	629.661	80.000	19.995	103.063	20.106	2.875	0.542
1089.000	629.909	79.998	19.995	103.059	20.104	2.991	0.522
1089.501	630.162	80.000	19.995	103.054	20.101	3.206	0.505
1090.001	630.428	79.999	19.995	103.050	20.104	3.032	0.510
1090.501	630.685	79.999	19.994	103.049	20.101	3.205	0.521
1091.000	630.891	79.998	19.994	103.050	20.102	3.139	0.493
1091.500	631.175	80.002	19.994	103.051	20.109	2.707	0.476
1092.000	631.436	80.001	19.995	103.053	20.103	3.086	0.517
1092.501	631.707	79.999	19.996	103.055	20.102	3.126	0.539
1093.001	631.992	80.000	19.994	103.055	20.106	2.908	0.544
1093.500	632.240	80.001	19.995	103.054	20.106	2.873	0.544
1094.000	632.501	79.999	19.995	103.057	20.107	2.805	0.520
1094.500	632.743	80.000	19.995	103.061	20.101	3.193	0.506
1095.000	632.987	80.001	19.995	103.065	20.104	3.043	0.495
1095.500	633.238	80.000	19.994	103.067	20.104	3.027	0.491
1096.000	633.505	79.999	19.995	103.066	20.106	2.880	0.506
1096.500	633.805	80.000	19.995	103.063	20.109	2.666	0.542
1097.000	633.998	80.002	19.995	103.057	20.101	3.203	0.530
1097.500	634.293	80.000	19.994	103.051	20.106	2.882	0.491
1098.000	634.568	80.000	19.994	103.050	20.106	2.908	0.529
1098.500	634.811	80.000	19.994	103.057	20.107	2.847	0.544
1099.000	635.093	80.000	19.995	103.064	20.108	2.734	0.521
1099.500	635.347	80.001	19.994	103.071	20.106	2.906	0.530
1100.000	635.610	80.001	19.995	103.078	20.107	2.790	0.527
1100.500	635.878	80.001	19.994	103.085	20.102	3.180	0.524
1101.000	636.134	80.002	19.994	103.086	20.106	2.864	0.527
1101.500	636.380	80.001	19.994	103.079	20.104	3.025	0.513
1102.000	636.666	80.002	19.995	103.071	20.102	3.151	0.517
1102.500	636.910	80.000	19.995	103.061	20.103	3.093	0.531
1103.001	637.151	79.998	19.994	103.053	20.101	3.234	0.507
1103.501	637.426	80.000	19.995	103.045	20.105	2.959	0.501
1104.000	637.671	80.000	19.995	103.044	20.103	3.097	0.518
1104.500	637.930	79.998	19.995	103.045	20.104	3.046	0.512
1105.000	638.171	80.001	19.995	103.046	20.103	3.104	0.502
1105.501	638.422	79.999	19.996	103.047	20.103	3.088	0.496
1106.001	638.705	79.998	19.995	103.047	20.103	3.078	0.513
1106.500	638.984	79.997	19.995	103.047	20.100	3.292	0.548
1107.000	639.228	79.998	19.994	103.046	20.101	3.210	0.543
1107.500	639.495	79.998	19.996	103.049	20.101	3.214	0.517
1108.001	639.763	80.000	19.995	103.049	20.100	3.300	0.523
1108.501	640.027	79.997	19.996	103.048	20.098	3.433	0.534
1109.001	640.274	79.999	19.995	103.048	20.096	3.530	0.521
1109.500	640.508	79.997	19.995	103.047	20.100	3.314	0.496
1110.000	640.741	79.997	19.997	103.045	20.099	3.367	0.474
1110.500	641.025	79.998	19.996	103.045	20.101	3.230	0.492
1111.001	641.271	79.998	19.995	103.045	20.101	3.234	0.524
1111.501	641.563	79.998	19.997	103.044	20.100	3.309	0.534
1112.001	641.809	79.996	19.996	103.045	20.097	3.459	0.538
1112.501	642.058	80.001	19.996	103.045	20.101	3.221	0.517
1113.000	642.345	79.999	19.996	103.044	20.100	3.261	0.515
1113.500	642.570	79.999	19.996	103.045	20.099	3.356	0.524
1114.000	642.845	79.997	19.996	103.048	20.099	3.360	0.506
1114.500	643.062	79.998	19.996	103.051	20.102	3.180	0.496
1115.000	643.330	79.998	19.996	103.058	20.097	3.499	0.488
1115.500	643.563	79.998	19.996	103.063	20.103	3.085	0.493
1116.000	643.860	79.998	19.996	103.065	20.101	3.193	0.516
1116.500	644.148	79.996	19.996	103.062	20.103	3.093	0.558
1117.000	644.355	79.996	19.996	103.057	20.093	3.765	0.540
1117.500	644.579	79.996	19.996	103.052	20.098	3.401	0.462
1118.000	644.850	79.996	19.996	103.050	20.099	3.331	0.463
1118.500	645.071	79.997	19.996	103.050	20.100	3.309	0.494
1119.000	645.332	79.996	19.996	103.050	20.097	3.470	0.487
1119.500	645.602	79.999	19.996	103.051	20.101	3.201	0.507
1120.000	645.841	79.997	19.996	103.052	20.099	3.335	0.520
1120.500	646.097	79.997	19.995	103.052	20.095	3.653	0.502
1121.000	646.317	79.997	19.995	103.051	20.097	3.459	0.486
1121.500	646.616	79.998	19.994	103.052	20.098	3.419	0.497
1122.000	646.842	79.997	19.995	103.052	20.098	3.413	0.522
1122.500	647.113	80.000	19.996	103.048	20.095	3.633	0.511
1123.000	647.390	79.997	19.996	103.043	20.098	3.428	0.522
1123.500	647.632	79.998	19.995	103.042	20.094	3.660	0.533
1124.001	647.865	79.998	19.995	103.040	20.093	3.755	0.497
1124.501	648.107	80.000	19.995	103.041	20.098	3.402	0.475
1125.001	648.342	79.996	19.995	103.044	20.100	3.274	0.476
1125.501	648.673	79.998	19.995	103.045	20.094	3.682	0.522
1126.000	648.877	79.995	19.995	103.046	20.097	3.498	0.550
1126.500	649.149	79.998	19.995	103.046	20.097	3.503	0.505
1127.000	649.359	79.998	19.994	103.047	20.096	3.527	0.478
1127.500	649.632	79.997	19.996	103.047	20.097	3.497	0.482
1128.000	649.900	79.997	19.993	103.054	20.098	3.446	0.513
1128.500	650.128	79.996	19.995	103.060	20.099	3.361	0.519
1129.001	650.397	79.996	19.994	103.064	20.098	3.413	0.496
1129.501	650.697	80.000	19.994	103.064	20.097	3.504	0.533
1130.000	650.942	79.998	19.995	103.065	20.099	3.373	0.556
1130.500	651.208	79.997	19.994	103.061	20.097	3.488	0.528
1131.000	651.430	79.999	19.995	103.061	20.095	3.631	0.500
1131.500	651.668	79.999	19.995	103.057	20.100	3.263	0.474
1132.000	651.990	79.995	19.995	103.057	20.098	3.391	0.510
1132.501	652.199	79.998	19.994	103.055	20.093	3.730	0.545
1133.001	652.484	79.996	19.994	103.048	20.098	3.408	0.512
1133.501	652.737	79.997	19.994	103.042	20.093	3.735	0.516
1134.001	652.949	79.996	19.995	103.042	20.097	3.508	0.502
1134.500	653.249	79.999	19.994	103.042	20.097	3.461	0.488
1135.000	653.487	79.997	19.995	103.043	20.095	3.644	0.525
1135.500	653.741	79.999	19.995	103.048	20.098	3.443	0.515
1136.000	654.013	79.997	19.995	103.049	20.100	3.289	0.509
1136.500	654.273	79.999	19.994	103.051	20.094	3.684	0.529
1137.000	654.517	79.997	19.994	103.052	20.097	3.512	0.518
1137.500	654.777	79.998	19.995	103.052	20.097	3.518	0.504
1138.000	655.049	79.995	19.994	103.052	20.090	3.953	0.518
1138.500	655.289	79.997	19.996	103.047	20.096	3.582	0.522
1139.000	655.542	79.998	19.995	103.040	20.098	3.452	0.502
1139.501	655.825	79.996	19.996	103.037	20.095	3.635	0.514
1140.001	656.047	79.997	19.993	103.037	20.095	3.625	0.521
1140.500	656.303	79.996	19.994	103.037	20.099	3.345	0.492
1141.000	656.584	79.999	19.995	103.041	20.093	3.766	0.507
1141.500	656.842	79.996	19.995	103.047	20.096	3.548	0.538
1142.000	657.110	79.997	19.994	103.049	20.096	3.572	0.533
1142.500	657.352	79.995	19.995	103.050	20.094	3.664	0.518
1143.000	657.608	79.996	19.995	103.050	20.094	3.691	0.504
1143.500	657.846	79.996	19.995	103.050	20.091	3.909	0.496
1144.000	658.107	79.997	19.995	103.050	20.093	3.765	0.497
1144.500	658.358	79.998	19.995	103.050	20.095	3.613	0.506
1145.000	658.628	79.998	19.995	103.050	20.092	3.829	0.516
1145.500	658.862	79.998	19.995	103.050	20.091	3.889	0.512
1146.000	659.143	79.997	19.994	103.050	20.095	3.618	0.510
1146.500	659.397	79.998	19.996	103.050	20.093	3.727	0.525
1147.001	659.624	79.999	19.995	103.050	20.092	3.794	0.508
1147.501	659.881	80.000	19.994	103.049	20.092	3.796	0.482
1148.000	660.171	80.001	19.995	103.048	20.093	3.789	0.516
1148.500	660.421	79.999	19.996	103.048	20.087	4.130	0.544
1149.000	660.689	80.000	19.996	103.048	20.090	3.943	0.529
1149.500	660.919	79.999	19.995	103.049	20.092	3.814	0.508
1150.000	661.149	79.998	19.994	103.050	20.090	3.961	0.479
1150.500	661.430	79.999	19.995	103.050	20.093	3.780	0.485
1151.000	661.660	80.001	19.995	103.045	20.091	3.899	0.511
1151.500	661.908	79.998	19.994	103.043	20.091	3.915	0.494
1152.000	662.162	79.999	19.994	103.040	20.089	4.049	0.490
1152.500	662.451	79.999	19.994	103.040	20.094	3.701	0.522
1153.001	662.693	79.999	19.996	103.041	20.089	4.007	0.537
1153.501	662.934	79.999	19.995	103.046	20.089	4.029	0.507
1154.000	663.183	79.997	19.995	103.047	20.087	4.130	0.487
1154.500	663.438	80.000	19.994	103.048	20.095	3.610	0.497
1155.000	663.685	79.997	19.995	103.049	20.089	4.047	0.503
1155.500	663.964	79.998	19.994	103.052	20.093	3.737	0.514
1156.000	664.189	79.998	19.995	103.053	20.094	3.699	0.515
1156.500	664.467	79.999	19.993	103.054	20.102	3.188	0.503
1157.001	664.685	80.000	19.995	103.055	20.095	3.618	0.499
1157.501	664.947	79.996	19.994	103.059	20.093	3.743	0.488
1158.001	665.196	80.000	19.993	103.058	20.092	3.851	0.496
1158.500	665.466	80.000	19.994	103.058	20.095	3.651	0.515
1159.000	665.733	79.999	19.994	103.059	20.097	3.506	0.528
1159.500	665.942	79.999	19.994	103.060	20.098	3.414	0.506
1160.000	666.198	80.000	19.995	103.058	20.093	3.781	0.470
1160.500	666.462	79.999	19.994	103.057	20.096	3.524	0.493
1161.000	666.710	79.995	19.994	103.056	20.098	3.438	0.517
1161.500	666.933	80.000	19.993	103.054	20.093	3.785	0.492
1162.000	667.229	79.998	19.994	103.053	20.093	3.730	0.495
1162.500	667.480	79.999	19.994	103.049	20.095	3.598	0.533
1163.000	667.670	79.997	19.994	103.049	20.092	3.796	0.494
1163.500	667.939	79.999	19.994	103.056	20.097	3.514	0.450
1164.000	668.199	79.996	19.994	103.061	20.099	3.355	0.494
1164.500	668.486	80.001	19.995	103.064	20.094	3.679	0.538
1165.001	668.719	80.000	19.994	103.068	20.096	3.583	0.533
1165.501	668.973	80.000	19.995	103.065	20.093	3.775	0.503
1166.000	669.204	79.996	19.993	103.056	20.093	3.727	0.485
1166.500	669.448	80.000	19.995	103.050	20.093	3.776	0.480
1167.000	669.710	80.000	19.994	103.048	20.093	3.732	0.491
1167.500	669.977	79.999	19.994	103.045	20.095	3.602	0.517
1168.000	670.273	80.000	19.993	103.046	20.093	3.762	0.546
1168.500	670.509	79.999	19.996	103.048	20.094	3.689	0.548
1169.000	670.783	79.999	19.994	103.047	20.096	3.563	0.521
1169.500	671.014	79.999	19.994	103.042	20.091	3.859	0.507
1170.000	671.286	79.998	19.995	103.035	20.097	3.515	0.504
1170.500	671.547	79.999	19.995	103.032	20.093	3.788	0.518
1171.000	671.753	79.998	19.995	103.031	20.090	3.957	0.500
1171.500	672.044	79.999	19.995	103.032	20.091	3.904	0.483
1172.000	672.296	80.000	19.995	103.036	20.095	3.651	0.520
1172.500	672.549	80.001	19.995	103.043	20.092	3.838	0.524
1173.000	672.836	80.000	19.995	103.050	20.095	3.635	0.522
1173.500	673.117	79.999	19.995	103.055	20.097	3.481	0.554
1174.001	673.268	79.998	19.994	103.056	20.096	3.523	0.500
1174.501	673.563	79.999	19.996	103.057	20.096	3.561	0.439
1175.001	673.820	80.004	19.994	103.056	20.092	3.843	0.499
1175.500	674.049	79.999	19.995	103.049	20.093	3.733	0.518
1176.000	674.315	80.000	19.995	103.042	20.094	3.694	0.491
1176.500	674.582	80.000	19.994	103.034	20.094	3.709	0.514
1177.000	674.838	80.003	19.996	103.026	20.093	3.764	0.528
1177.500	675.086	79.998	19.994	103.020	20.090	3.961	0.514
1178.000	675.369	79.998	19.994	103.016	20.088	4.091	0.517
1178.500	675.575	80.000	19.995	103.015	20.089	3.994	0.510
1179.000	675.880	79.997	19.995	103.021	20.090	3.986	0.500
1179.500	676.122	80.000	19.995	103.026	20.090	3.959	0.529
1180.000	676.368	80.002	19.995	103.031	20.090	3.937	0.517
1180.500	676.612	79.996	19.995	103.036	20.090	3.924	0.489
1181.000	676.873	79.998	19.993	103.039	20.092	3.818	0.498
1181.500	677.124	80.000	19.996	103.036	20.093	3.779	0.509
1182.000	677.389	80.002	19.996	103.039	20.090	3.935	0.514
1182.500	677.620	80.000	19.995	103.041	20.089	3.993	0.506
1183.000	677.897	80.001	19.994	103.042	20.088	4.080	0.502
1183.500	678.147	80.003	19.994	103.042	20.088	4.103	0.518
1184.000	678.410	80.000	19.995	103.045	20.092	3.825	0.520
1184.501	678.678	79.998	19.995	103.043	20.090	3.942	0.522
1185.001	678.903	80.002	19.994	103.037	20.092	3.823	0.512
1185.500	679.172	79.998	19.995	103.030	20.087	4.131	0.494
1186.000	679.402	79.999	19.994	103.026	20.087	4.133	0.496
1186.500	679.643	79.997	19.994	103.026	20.088	4.116	0.484
1187.000	679.931	79.999	19.996	103.027	20.092	3.816	0.500
1187.501	680.196	79.996	19.994	103.033	20.090	3.984	0.541
1188.001	680.444	79.999	19.995	103.041	20.092	3.834	0.533
1188.500	680.683	80.001	19.995	103.046	20.093	3.759	0.500
1189.001	680.940	79.996	19.996	103.046	20.092	3.857	0.492
1189.501	681.203	79.998	19.996	103.047	20.094	3.666	0.508
1190.000	681.463	79.998	19.994	103.047	20.091	3.923	0.522
1190.500	681.727	79.999	19.994	103.047	20.092	3.827	0.524
1191.001	681.992	79.996	19.994	103.046	20.089	4.003	0.526
1191.501	682.214	79.996	19.995	103.047	20.087	4.181	0.508
1192.001	682.483	79.998	19.995	103.048	20.086	4.254	0.489
1192.500	682.743	79.999	19.994	103.047	20.087	4.152	0.510
1193.000	682.986	79.998	19.995	103.047	20.090	3.967	0.516
1193.501	683.250	79.997	19.995	103.046	20.090	3.982	0.505
1194.001	683.514	79.999	19.995	103.045	20.089	3.993	0.518
1194.500	683.743	79.998	19.995	103.044	20.085	4.261	0.511
1195.001	684.006	79.996	19.995	103.044	20.090	3.938	0.492
1195.501	684.277	79.999	19.996	103.043	20.089	4.016	0.513
1196.000	684.508	79.998	19.996	103.046	20.088	4.095	0.519
1196.500	684.748	79.997	19.996	103.047	20.084	4.327	0.487
1197.000	685.012	79.998	19.996	103.046	20.084	4.329	0.487
1197.500	685.269	80.001	19.997	103.041	20.089	4.054	0.512
1198.000	685.523	79.997	19.995	103.041	20.087	4.147	0.517
1198.500	685.773	79.996	19.996	103.043	20.090	3.942	0.507
1199.000	686.023	79.996	19.996	103.051	20.087	4.149	0.501
1199.500	686.207	79.999	19.996	103.055	20.093	3.741	0.467
1200.000	686.502	80.000	19.995	103.062	20.092	3.847	0.456
1200.500	686.790	79.998	19.996	103.062	20.086	4.254	0.531
1201.001	687.048	79.997	19.996	103.061	20.097	3.519	0.564
1201.501	687.314	79.999	19.996	103.054	20.089	4.050	0.535
1202.000	687.546	79.997	19.996	103.054	20.093	3.730	0.512
1202.500	687.788	79.996	19.996	103.058	20.090	3.946	0.486
1203.000	688.077	79.998	19.996	103.063	20.090	3.944	0.503
1203.500	688.323	79.999	19.996	103.069	20.089	4.007	0.533
1204.000	688.568	79.998	19.996	103.077	20.087	4.184	0.513
1204.500	688.816	79.997	19.995	103.081	20.090	3.977	0.492
1205.001	689.053	79.998	19.996	103.084	20.091	3.883	0.489
1205.501	689.311	80.000	19.996	103.086	20.093	3.786	0.490
1206.000	689.577	79.997	19.995	103.080	20.089	4.037	0.509
1206.500	689.818	79.998	19.996	103.072	20.092	3.817	0.515
1207.000	690.067	79.998	19.996	103.064	20.092	3.790	0.498
1207.500	690.335	79.997	19.995	103.055	20.090	3.935	0.504
1208.000	690.552	79.997	19.995	103.045	20.089	3.997	0.502
1208.500	690.806	79.999	19.997	103.044	20.086	4.237	0.478
1209.000	691.045	79.997	19.994	103.046	20.088	4.069	0.482
1209.500	691.287	79.996	19.995	103.046	20.090	3.959	0.487
1210.000	691.542	79.998	19.996	103.048	20.090	3.983	0.489
1210.500	691.835	79.997	19.996	103.050	20.084	4.329	0.523
1211.001	692.083	79.997	19.996	103.051	20.085	4.261	0.544
1211.501	692.315	79.997	19.996	103.049	20.084	4.368	0.510
1212.001	692.556	79.997	19.995	103.048	20.085	4.296	0.477
1212.501	692.829	79.997	19.996	103.048	20.083	4.394	0.494
1213.000	693.090	79.997	19.996	103.050	20.089	4.025	0.524
1213.500	693.402	79.998	19.994	103.053	20.079	4.719	0.553
1214.000	693.628	79.998	19.994	103.053	20.086	4.194	0.556
1214.500	693.868	79.998	19.996	103.053	20.090	3.970	0.502
1215.000	694.138	79.996	19.993	103.051	20.085	4.276	0.488
1215.500	694.343	79.996	19.995	103.043	20.087	4.187	0.492
1216.000	694.652	79.998	19.995	103.035	20.079	4.698	0.495
1216.500	694.887	79.997	19.994	103.032	20.083	4.432	0.529
1217.000	695.142	79.997	19.994	103.033	20.088	4.073	0.517
1217.500	695.401	79.998	19.994	103.036	20.089	4.005	0.502
1218.000	695.654	79.997	19.996	103.042	20.081	4.532	0.513
1218.500	695.924	79.997	19.995	103.047	20.089	4.016	0.517
1219.000	696.173	79.997	19.994	103.050	20.085	4.258	0.521
1219.500	696.423	79.998	19.994	103.050	20.087	4.176	0.509
1220.000	696.685	79.998	19.994	103.050	20.088	4.090	0.505
1220.500	696.915	79.998	19.994	103.051	20.087	4.180	0.502
1221.000	697.194	79.996	19.995	103.053	20.085	4.261	0.501
1221.500	697.440	79.997	19.995	103.059	20.086	4.226	0.517
1222.000	697.656	79.997	19.994	103.058	20.089	4.041	0.494
1222.500	697.943	79.998	19.995	103.058	20.087	4.145	0.483
1223.001	698.164	79.997	19.995	103.062	20.090	3.956	0.506
1223.501	698.465	79.997	19.994	103.065	20.090	3.929	0.514
1224.000	698.689	79.998	19.994	103.061	20.090	3.936	0.523
1224.500	698.913	79.997	19.995	103.061	20.085	4.317	0.487
1225.000	699.154	79.997	19.994	103.059	20.088	4.104	0.457
1225.501	699.435	79.998	19.995	103.053	20.086	4.251	0.494
1226.001	699.693	79.996	19.994	103.047	20.088	4.112	0.530
1226.500	699.948	79.999	19.994	103.042	20.085	4.282	0.525
1227.000	700.200	79.998	19.995	103.037	20.088	4.121	0.510
1227.500	700.451	79.998	19.995	103.032	20.083	4.403	0.506
1228.000	700.705	79.997	19.995	103.029	20.085	4.312	0.504
1228.500	700.953	79.997	19.994	103.022	20.084	4.354	0.503
1229.001	701.190	79.998	19.994	103.018	20.083	4.449	0.494
1229.501	701.441	79.999	19.994	103.016	20.083	4.455	0.486
1230.000	701.704	79.999	19.994	103.016	20.085	4.298	0.500
1230.501	701.937	79.997	19.995	103.020	20.085	4.263	0.505
1231.001	702.231	80.000	19.994	103.027	20.087	4.151	0.512
1231.501	702.463	79.997	19.994	103.035	20.086	4.244	0.527
1232.000	702.711	79.998	19.994	103.040	20.086	4.219	0.503
1232.500	702.946	79.998	19.995	103.047	20.084	4.327	0.482
1233.000	703.241	79.998	19.996	103.048	20.085	4.298	0.507
1233.500	703.428	79.999	19.996	103.043	20.088	4.124	0.506
1234.000	703.757	80.002	19.995	103.036	20.088	4.107	0.499
1234.500	703.987	79.998	19.995	103.029	20.084	4.358	0.537
1235.000	704.217	80.001	19.995	103.029	20.085	4.268	0.509
1235.500	704.483	80.000	19.996	103.029	20.084	4.363	0.478
1236.000	704.735	80.001	19.995	103.026	20.086	4.211	0.507
1236.500	705.009	80.001	19.994	103.026	20.084	4.369	0.522
1237.000	705.247	80.001	19.995	103.031	20.086	4.221	0.519
1237.500	705.518	80.000	19.996	103.030	20.085	4.259	0.511
1238.000	705.774	80.000	19.995	103.029	20.087	4.159	0.519
1238.500	705.985	80.000	19.995	103.036	20.087	4.182	0.497
1239.000	706.245	79.999	19.995	103.043	20.082	4.479	0.469
1239.500	706.497	79.999	19.995	103.046	20.086	4.223	0.491
1240.000	706.759	80.001	19.994	103.047	20.082	4.461	0.513
1240.500	706.975	80.001	19.996	103.048	20.085	4.276	0.496
1241.000	707.294	80.000	19.995	103.048	20.083	4.396	0.507
1241.500	707.511	79.998	19.993	103.047	20.085	4.283	0.536
1242.000	707.779	79.999	19.994	103.046	20.081	4.563	0.511
1242.501	708.000	80.001	19.996	103.045	20.079	4.669	0.487
1243.001	708.277	80.001	19.995	103.046	20.079	4.669	0.493
1243.501	708.537	80.000	19.995	103.047	20.080	4.647	0.518
1244.001	708.766	79.999	19.995	103.051	20.082	4.517	0.513
1244.501	709.017	79.998	19.996	103.051	20.083	4.455	0.485
1245.000	709.293	80.000	19.995	103.053	20.081	4.559	0.503
1245.500	709.553	79.998	19.994	103.054	20.084	4.376	0.531
1246.000	709.839	80.000	19.995	103.051	20.087	4.182	0.541
1246.500	710.040	80.000	19.994	103.048	20.080	4.616	0.517
1247.000	710.303	80.001	19.996	103.047	20.082	4.506	0.475
1247.501	710.606	79.999	19.994	103.045	20.082	4.487	0.515
1248.001	710.824	80.000	19.995	103.048	20.081	4.526	0.544
1248.501	711.084	79.999	19.994	103.051	20.080	4.637	0.500
1249.000	711.351	80.001	19.994	103.053	20.084	4.333	0.503
1249.500	711.631	80.000	19.995	103.054	20.082	4.457	0.537
1250.000	711.855	80.000	19.994	103.054	20.078	4.725	0.525
1250.500	712.095	80.000	19.994	103.051	20.080	4.633	0.484
1251.000	712.356	79.999	19.994	103.048	20.080	4.645	0.483
1251.500	712.633	80.000	19.994	103.047	20.080	4.618	0.520
1252.000	712.881	80.000	19.995	103.045	20.080	4.611	0.531
1252.500	713.134	80.002	19.995	103.041	20.079	4.701	0.513
1253.000	713.402	79.999	19.993	103.036	20.083	4.457	0.511
1253.500	713.648	80.000	19.995	103.035	20.084	4.375	0.517
1254.000	713.878	80.001	19.994	103.036	20.087	4.137	0.495
1254.500	714.157	80.002	19.994	103.040	20.083	4.441	0.493
1255.000	714.414	79.999	19.995	103.043	20.084	4.380	0.523
1255.500	714.650	80.002	19.994	103.049	20.081	4.550	0.514
1256.000	714.890	80.002	19.994	103.050	20.084	4.338	0.484
1256.500	715.148	80.003	19.994	103.049	20.082	4.495	0.487
1257.000	715.381	80.002	19.995	103.046	20.079	4.662	0.495
1257.500	715.642	80.001	19.996	103.045	20.080	4.633	0.493
1258.000	715.939	80.002	19.995	103.043	20.079	4.724	0.526
1258.500	716.192	80.000	19.993	103.037	20.080	4.592	0.554
1259.000	716.437	80.000	19.994	103.032	20.080	4.636	0.524
1259.500	716.718	80.001	19.994	103.026	20.078	4.750	0.512
1260.000	716.953	80.001	19.995	103.021	20.078	4.741	0.521
1260.501	717.216	80.000	19.994	103.016	20.080	4.657	0.507
1261.001	717.468	80.002	19.993	103.018	20.083	4.395	0.506
1261.500	717.737	80.001	19.993	103.024	20.083	4.402	0.518
1262.001	717.951	80.003	19.994	103.032	20.082	4.494	0.502
1262.501	718.226	80.001	19.995	103.043	20.084	4.384	0.486
1263.000	718.510	80.000	19.993	103.052	20.080	4.623	0.524
1263.500	718.765	80.000	19.995	103.057	20.079	4.703	0.549
1264.000	719.018	79.999	19.994	103.058	20.082	4.513	0.524
1264.500	719.259	79.999	19.995	103.059	20.083	4.446	0.501
1265.000	719.536	80.000	19.995	103.055	20.083	4.393	0.506
1265.500	719.787	79.999	19.995	103.053	20.080	4.624	0.523
1266.000	720.035	79.999	19.995	103.051	20.085	4.288	0.513
1266.501	720.266	79.999	19.995	103.051	20.079	4.691	0.489
1267.001	720.558	79.999	19.995	103.052	20.082	4.489	0.501
1267.501	720.831	79.999	19.995	103.051	20.085	4.322	0.544
1268.000	721.088	79.998	19.996	103.050	20.084	4.370	0.547
1268.500	721.328	79.997	19.994	103.050	20.081	4.547	0.514
1269.000	721.562	79.997	19.995	103.049	20.079	4.710	0.486
1269.500	721.791	79.998	19.994	103.045	20.081	4.567	0.469
1270.000	722.134	79.996	19.994	103.046	20.076	4.898	0.518
1270.500	722.363	79.997	19.995	103.047	20.083	4.448	0.572
1271.000	722.620	79.998	19.995	103.049	20.081	4.578	0.529
1271.500	722.853	79.998	19.996	103.049	20.079	4.704	0.488
1272.000	723.096	79.997	19.994	103.050	20.081	4.580	0.483
1272.500	723.365	79.998	19.995	103.055	20.083	4.400	0.494
1273.000	723.638	79.997	19.994	103.062	20.080	4.634	0.527
1273.500	723.873	79.996	19.995	103.068	20.078	4.728	0.525
1274.000	724.147	79.997	19.995	103.071	20.080	4.612	0.508
1274.500	724.407	79.998	19.995	103.070	20.078	4.770	0.522
1275.000	724.632	79.997	19.994	103.066	20.079	4.689	0.510
1275.500	724.898	80.000	19.995	103.060	20.079	4.671	0.488
1276.000	725.165	79.997	19.995	103.061	20.079	4.683	0.511
1276.500	725.423	79.998	19.995	103.066	20.081	4.544	0.529
1277.000	725.712	79.998	19.995	103.074	20.077	4.828	0.536
1277.500	725.953	79.997	19.995	103.076	20.081	4.585	0.539
1278.000	726.189	79.997	19.995	103.076	20.075	4.953	0.503
1278.500	726.474	79.997	19.995	103.069	20.080	4.618	0.499
1279.000	726.718	79.999	19.994	103.061	20.078	4.772	0.525
1279.501	726.967	79.998	19.994	103.052	20.082	4.510	0.511
1280.001	727.224	79.998	19.995	103.050	20.079	4.711	0.499
1280.500	727.510	79.998	19.995	103.048	20.082	4.506	0.524
1281.000	727.721	79.998	19.996	103.047	20.085	4.298	0.521
1281.500	727.985	79.999	19.995	103.048	20.080	4.603	0.486
1282.000	728.275	79.998	19.995	103.049	20.083	4.395	0.514
1282.500	728.508	79.998	19.995	103.049	20.080	4.601	0.539
1283.000	728.757	79.998	19.994	103.048	20.083	4.393	0.503
1283.501	728.981	79.999	19.995	103.045	20.078	4.757	0.477
1284.001	729.259	79.999	19.996	103.045	20.078	4.785	0.487
1284.500	729.480	79.997	19.995	103.043	20.082	4.477	0.501
1285.000	729.752	79.997	19.994	103.040	20.075	4.951	0.496
1285.500	730.001	79.998	19.995	103.041	20.082	4.519	0.507
1286.000	730.266	79.997	19.995	103.040	20.078	4.789	0.518
1286.501	730.513	79.997	19.995	103.037	20.077	4.831	0.513
1287.001	730.770	79.998	19.996	103.038	20.078	4.767	0.508
1287.500	731.000	79.997	19.994	103.042	20.079	4.696	0.495
1288.000	731.271	79.997	19.996	103.043	20.080	4.619	0.494
1288.500	731.548	79.998	19.995	103.045	20.073	5.091	0.525
1289.000	731.791	79.998	19.995	103.048	20.078	4.762	0.534
1289.500	732.004	79.996	19.994	103.048	20.076	4.910	0.488
1290.000	732.255	79.996	19.996	103.049	20.082	4.460	0.459
1290.500	732.531	79.997	19.992	103.049	20.077	4.806	0.495
1291.000	732.774	79.998	19.995	103.050	20.079	4.676	0.523
1291.500	733.068	79.996	19.995	103.049	20.078	4.740	0.528
1292.000	733.311	79.998	19.994	103.050	20.077	4.819	0.537
1292.500	733.555	79.997	19.993	103.047	20.075	4.940	0.512
1293.000	733.800	79.998	19.995	103.047	20.078	4.757	0.488
1293.500	734.063	79.995	19.998	103.047	20.080	4.636	0.499
1294.000	734.309	79.996	19.996	103.047	20.081	4.576	0.509
1294.500	734.605	79.997	19.995	103.047	20.081	4.543	0.525
1295.000	734.828	79.996	19.995	103.050	20.081	4.581	0.530
1295.501	735.063	79.999	19.996	103.050	20.085	4.323	0.489
1296.001	735.325	79.996	19.995	103.048	20.078	4.761	0.478
1296.500	735.590	79.998	19.996	103.042	20.080	4.647	0.512
1297.000	735.818	79.997	19.996	103.035	20.083	4.412	0.510
1297.500	736.027	79.997	19.996	103.032	20.087	4.185	0.465
1298.000	736.333	79.997	19.996	103.030	20.084	4.362	0.476
1298.500	736.572	79.998	19.995	103.030	20.081	4.584	0.530
1299.001	736.806	79.997	19.995	103.028	20.082	4.468	0.509
1299.501	737.065	79.996	19.996	103.031	20.080	4.649	0.483
1300.001	737.317	79.997	19.996	103.033	20.082	4.499	0.502
1300.500	737.506	79.997	19.995	103.034	20.083	4.405	0.476
1301.000	737.820	79.996	19.996	103.031	20.081	4.548	0.472
1301.500	738.034	79.996	19.996	103.036	20.080	4.627	0.515
1302.000	738.302	79.997	19.996	103.040	20.080	4.620	0.505
1302.501	738.538	79.998	19.996	103.040	20.079	4.671	0.493
1303.001	738.785	79.998	19.995	103.039	20.082	4.475	0.494
1303.500	739.030	79.998	19.995	103.043	20.078	4.777	0.488
1304.000	739.284	79.998	19.996	103.044	20.079	4.664	0.495
1304.500	739.563	79.998	19.996	103.044	20.080	4.620	0.515
1305.000	739.808	79.996	19.995	103.044	20.083	4.404	0.528
1305.500	740.067	79.996	19.995	103.045	20.082	4.513	0.514
1306.000	740.302	79.998	19.996	103.045	20.080	4.629	0.499
1306.500	740.547	79.998	19.995	103.045	20.078	4.773	0.487
1307.001	740.795	79.998	19.996	103.046	20.078	4.784	0.486
1307.501	741.040	79.998	19.995	103.051	20.078	4.733	0.493
1308.001	741.296	79.997	19.996	103.058	20.080	4.628	0.497
1308.501	741.548	79.999	19.995	103.064	20.078	4.733	0.504
1309.001	741.826	79.998	19.995	103.064	20.080	4.610	0.519
1309.501	742.094	79.999	19.994	103.064	20.081	4.567	0.538
1310.000	742.307	79.999	19.995	103.058	20.077	4.845	0.514
1310.500	742.576	79.999	19.996	103.051	20.080	4.603	0.481
1311.000	742.832	80.000	19.995	103.044	20.078	4.773	0.503
1311.501	743.102	79.999	19.994	103.044	20.077	4.836	0.526
1312.001	743.354	80.001	19.994	103.045	20.079	4.700	0.524
1312.500	743.623	80.000	19.994	103.045	20.079	4.664	0.521
