Sample ID:	C:\MCC\MCC Cal\Test\Particleboard_MCC_30K_min_211006_R3.txt
Sample Weight (mg):	4.51
Heating Rate (C/s):	0.5
Combustor Temp (C):	900
N2 Flow Rate (cc/min):	80
O2 Flow Rate (cc/min):	20
Calibration File:	C:\MCC\MCC Cal\Coeff1 JN10440_30_210304.txt.txt
T Correction Coefficients:	0	1.024463	0
Time Shift (s):	14
*
Time (s)	Temperature (C)	N2 flow rate (cc/min)	O2 flow rate (cc/min)	Flow Rate (cc/min)	Oxygen (%)	HRR (W/g)	Heating rate (C/s)
0.000	107.175	79.998	19.996	100.748	20.031	-0.279	0.010
0.500	107.183	79.998	19.996	100.748	20.027	-0.036	0.028
1.000	107.153	79.999	19.997	100.746	20.030	-0.230	0.003
1.500	107.184	79.998	19.995	100.744	20.031	-0.247	-0.010
2.000	107.211	79.998	19.995	100.746	20.028	-0.064	0.029
2.500	107.144	79.998	19.997	100.746	20.027	0.000	0.009
3.000	107.176	79.997	19.996	100.748	20.032	-0.332	-0.037
3.500	107.171	79.998	19.995	100.753	20.027	-0.023	-0.004
4.000	107.148	79.998	19.995	100.754	20.029	-0.132	-0.000
4.500	107.134	79.999	19.995	100.757	20.025	0.113	-0.032
5.000	107.186	79.999	19.994	100.763	20.030	-0.188	0.001
5.500	107.171	79.998	19.996	100.766	20.026	0.087	0.037
6.000	107.164	79.999	19.995	100.765	20.027	0.021	0.008
6.500	107.134	79.999	19.995	100.767	20.025	0.124	-0.029
7.000	107.149	79.999	19.995	100.764	20.029	-0.143	-0.026
7.500	107.135	79.998	19.995	100.761	20.028	-0.073	-0.007
8.000	107.142	79.998	19.995	100.763	20.029	-0.162	-0.003
8.500	107.128	80.000	19.995	100.765	20.026	0.089	-0.007
9.000	107.146	79.999	19.995	100.766	20.026	0.100	-0.002
9.500	107.155	79.999	19.995	100.767	20.027	-0.030	0.015
10.000	107.161	80.000	19.995	100.769	20.025	0.156	0.021
10.500	107.155	79.999	19.995	100.768	20.028	-0.090	0.008
11.000	107.164	80.000	19.994	100.768	20.025	0.162	0.001
11.500	107.142	80.000	19.996	100.767	20.026	0.092	-0.005
12.000	107.134	80.000	19.994	100.769	20.025	0.138	-0.022
12.500	107.121	80.000	19.996	100.770	20.027	0.004	-0.025
13.000	107.145	80.001	19.995	100.772	20.023	0.264	-0.005
13.500	107.141	80.000	19.995	100.774	20.025	0.160	0.016
14.000	107.156	80.000	19.995	100.780	20.027	0.024	0.016
14.501	107.129	80.001	19.994	100.788	20.022	0.324	-0.001
15.001	107.137	80.000	19.995	100.791	20.023	0.309	-0.016
15.500	107.148	80.000	19.994	100.791	20.023	0.281	0.000
16.000	107.179	80.000	19.995	100.794	20.024	0.232	0.030
16.500	107.131	80.000	19.995	100.791	20.021	0.450	0.012
17.000	107.143	80.000	19.995	100.791	20.023	0.288	-0.027
17.500	107.155	79.998	19.995	100.796	20.024	0.215	-0.006
18.000	107.165	79.999	19.995	100.803	20.018	0.645	0.023
18.500	107.181	79.998	19.996	100.808	20.021	0.437	0.024
19.000	107.135	79.998	19.995	100.816	20.021	0.388	-0.002
19.500	107.172	79.998	19.994	100.819	20.021	0.385	-0.020
20.000	107.164	79.998	19.995	100.818	20.022	0.326	0.010
20.500	107.181	79.999	19.996	100.817	20.018	0.598	0.019
21.000	107.182	79.999	19.996	100.816	20.020	0.505	0.014
21.500	107.216	79.999	19.996	100.816	20.020	0.513	0.027
22.000	107.230	79.997	19.996	100.816	20.018	0.598	0.041
22.500	107.199	79.998	19.996	100.816	20.018	0.603	0.015
23.000	107.258	79.998	19.996	100.818	20.016	0.756	0.006
23.500	107.202	79.997	19.996	100.819	20.015	0.836	0.016
24.000	107.235	79.997	19.995	100.819	20.014	0.915	-0.010
24.500	107.271	79.997	19.996	100.817	20.014	0.892	0.023
25.000	107.300	79.998	19.996	100.818	20.014	0.898	0.067
25.500	107.331	79.996	19.996	100.819	20.013	0.958	0.063
26.000	107.277	79.997	19.995	100.823	20.013	0.947	0.019
26.500	107.328	79.998	19.996	100.825	20.014	0.926	-0.013
27.000	107.334	79.997	19.996	100.827	20.013	0.964	0.027
27.500	107.348	79.997	19.995	100.828	20.012	1.025	0.038
28.000	107.345	79.998	19.995	100.832	20.010	1.215	0.016
28.500	107.393	79.997	19.996	100.836	20.011	1.094	0.028
29.000	107.439	79.997	19.994	100.840	20.009	1.223	0.069
29.500	107.453	80.000	19.996	100.847	20.010	1.170	0.077
30.000	107.495	79.997	19.996	100.854	20.010	1.174	0.058
30.500	107.509	79.997	19.996	100.857	20.006	1.493	0.056
31.000	107.492	79.999	19.995	100.858	20.007	1.364	0.027
31.500	107.537	79.997	19.996	100.860	20.004	1.625	0.013
32.000	107.566	79.997	19.996	100.861	20.006	1.436	0.051
32.500	107.604	79.997	19.995	100.865	20.004	1.570	0.070
33.000	107.635	79.998	19.995	100.873	20.002	1.727	0.068
33.500	107.668	79.998	19.995	100.883	20.000	1.887	0.066
34.001	107.712	79.997	19.995	100.898	20.002	1.717	0.070
34.501	107.732	79.998	19.995	100.913	19.996	2.187	0.070
35.000	107.737	79.998	19.995	100.925	19.997	2.101	0.044
35.501	107.810	79.998	19.995	100.932	19.993	2.378	0.052
36.001	107.865	79.998	19.995	100.938	19.995	2.216	0.103
36.500	107.864	79.998	19.995	100.937	19.994	2.291	0.091
37.000	107.941	79.999	19.995	100.938	19.996	2.191	0.065
37.500	107.975	79.999	19.995	100.942	19.994	2.269	0.093
38.000	108.021	79.999	19.994	100.944	19.991	2.480	0.096
38.500	108.024	79.999	19.995	100.948	19.993	2.344	0.065
39.001	108.082	79.999	19.995	100.955	19.989	2.627	0.055
39.501	108.155	79.999	19.994	100.961	19.989	2.629	0.096
40.000	108.233	79.998	19.996	100.964	19.992	2.412	0.141
40.500	108.288	79.997	19.996	100.968	19.990	2.587	0.142
41.000	108.313	79.998	19.996	100.972	19.988	2.729	0.107
41.500	108.401	79.998	19.994	100.973	19.990	2.604	0.097
42.000	108.456	79.998	19.996	100.973	19.990	2.565	0.128
42.500	108.533	79.998	19.995	100.974	19.992	2.429	0.137
43.000	108.592	79.998	19.996	100.976	19.985	2.897	0.134
43.500	108.690	79.998	19.995	100.976	19.984	3.027	0.147
44.000	108.755	80.000	19.996	100.976	19.988	2.748	0.161
44.500	108.816	79.996	19.996	100.976	19.986	2.870	0.144
45.000	108.939	79.999	19.995	100.977	19.984	3.006	0.154
45.500	108.940	79.997	19.997	100.978	19.984	3.026	0.154
46.000	109.072	79.998	19.995	100.978	19.986	2.858	0.129
46.500	109.135	79.998	19.995	100.976	19.986	2.892	0.164
47.000	109.239	79.997	19.996	100.975	19.987	2.784	0.181
47.500	109.340	79.998	19.995	100.974	19.986	2.879	0.186
48.000	109.386	79.997	19.995	100.977	19.989	2.678	0.176
48.500	109.453	79.997	19.995	100.978	19.984	2.975	0.130
49.000	109.537	79.997	19.996	100.980	19.984	3.034	0.132
49.500	109.625	79.997	19.997	100.981	19.983	3.095	0.162
50.000	109.713	79.998	19.995	100.982	19.982	3.142	0.174
50.501	109.865	79.998	19.997	100.977	19.982	3.144	0.208
51.001	109.970	79.998	19.995	100.977	19.981	3.186	0.249
51.500	110.030	79.996	19.996	100.976	19.982	3.171	0.211
52.000	110.144	79.998	19.996	100.976	19.980	3.295	0.169
52.500	110.220	79.997	19.995	100.975	19.982	3.152	0.182
53.000	110.336	79.997	19.996	100.976	19.980	3.273	0.191
53.500	110.430	79.997	19.996	100.974	19.978	3.388	0.201
54.000	110.558	79.997	19.996	100.975	19.980	3.277	0.216
54.500	110.648	79.998	19.998	100.975	19.979	3.373	0.220
55.000	110.765	79.997	19.998	100.977	19.980	3.286	0.212
55.500	110.917	79.998	19.996	100.967	19.978	3.434	0.238
56.000	111.016	79.999	19.996	100.952	19.978	3.421	0.260
56.500	111.123	79.998	19.997	100.938	19.977	3.462	0.229
57.000	111.254	79.998	19.996	100.928	19.976	3.549	0.222
57.500	111.364	79.996	19.996	100.919	19.978	3.434	0.239
58.000	111.501	79.998	19.996	100.928	19.977	3.509	0.244
58.500	111.570	79.996	19.996	100.944	19.978	3.417	0.227
59.000	111.736	79.997	19.998	100.970	19.978	3.398	0.221
59.500	111.841	79.997	19.997	101.011	19.978	3.408	0.253
60.000	111.958	79.997	19.996	101.031	19.981	3.238	0.246
60.500	112.056	79.998	19.995	101.033	19.981	3.224	0.218
61.000	112.222	79.999	19.996	101.034	19.980	3.306	0.240
61.501	112.326	79.998	19.996	101.021	19.980	3.298	0.267
62.001	112.420	79.997	19.996	100.994	19.977	3.496	0.234
62.500	112.574	79.997	19.996	100.983	19.978	3.387	0.223
63.000	112.678	79.997	19.996	100.982	19.980	3.264	0.253
63.500	112.807	79.998	19.996	100.982	19.979	3.347	0.246
64.000	112.926	79.999	19.996	100.982	19.978	3.440	0.241
64.500	113.057	79.997	19.997	100.980	19.978	3.438	0.249
65.000	113.190	79.999	19.996	100.984	19.977	3.457	0.257
65.500	113.357	79.999	19.997	100.987	19.976	3.534	0.282
66.000	113.461	79.998	19.996	100.993	19.979	3.334	0.285
66.500	113.603	79.999	19.995	101.001	19.977	3.489	0.258
67.001	113.770	79.998	19.996	101.006	19.978	3.430	0.278
67.501	113.872	79.999	19.996	101.009	19.979	3.366	0.290
68.001	114.013	79.998	19.995	101.010	19.979	3.347	0.256
68.501	114.147	79.998	19.995	101.007	19.978	3.404	0.259
69.001	114.260	79.999	19.997	101.006	19.977	3.521	0.261
69.500	114.424	79.999	19.997	101.007	19.980	3.308	0.262
70.000	114.581	79.999	19.997	101.007	19.979	3.349	0.299
70.500	114.703	79.997	19.996	101.006	19.979	3.385	0.300
71.000	114.916	79.999	19.995	101.009	19.977	3.459	0.307
71.500	115.022	79.999	19.994	101.007	19.977	3.487	0.327
72.000	115.160	79.999	19.996	101.004	19.980	3.283	0.282
72.500	115.327	79.998	19.997	101.001	19.977	3.463	0.275
73.000	115.485	79.998	19.996	101.003	19.979	3.353	0.315
73.500	115.620	79.998	19.996	101.000	19.978	3.415	0.308
74.000	115.776	79.999	19.997	101.000	19.980	3.298	0.292
74.500	115.936	79.999	19.995	101.004	19.975	3.621	0.304
75.000	116.092	79.997	19.997	101.005	19.975	3.597	0.316
75.500	116.196	79.999	19.997	101.005	19.980	3.304	0.288
76.000	116.395	79.999	19.996	101.009	19.977	3.512	0.281
76.500	116.554	79.998	19.998	101.011	19.976	3.587	0.331
77.000	116.706	79.997	19.996	101.008	19.976	3.533	0.334
77.500	116.871	79.999	19.996	101.010	19.976	3.559	0.314
78.000	117.046	79.999	19.997	101.007	19.976	3.569	0.328
78.501	117.194	79.998	19.997	101.006	19.976	3.574	0.332
79.001	117.338	79.998	19.996	101.008	19.976	3.574	0.308
79.501	117.510	79.998	19.998	101.008	19.974	3.693	0.304
80.000	117.688	79.999	19.996	101.007	19.978	3.406	0.333
80.500	117.824	79.997	19.996	101.010	19.978	3.425	0.332
81.000	118.003	79.998	19.996	101.012	19.978	3.417	0.315
81.500	118.186	79.998	19.997	101.013	19.979	3.359	0.339
82.000	118.330	79.997	19.997	101.015	19.978	3.395	0.345
82.500	118.519	79.997	19.996	101.015	19.978	3.408	0.330
83.000	118.672	79.998	19.997	101.015	19.979	3.334	0.337
83.500	118.872	79.997	19.999	101.015	19.976	3.533	0.347
84.000	118.990	79.997	19.998	101.013	19.975	3.606	0.336
84.500	119.205	79.997	19.997	101.012	19.976	3.595	0.326
85.000	119.366	79.999	19.996	101.012	19.977	3.468	0.354
85.500	119.538	79.998	19.997	101.013	19.976	3.534	0.354
86.000	119.706	79.997	19.997	101.013	19.976	3.534	0.336
86.500	119.885	79.998	19.996	101.015	19.976	3.559	0.344
87.001	120.039	79.998	19.996	101.016	19.973	3.769	0.340
87.501	120.233	79.998	19.996	101.019	19.974	3.704	0.340
88.000	120.440	79.998	19.995	101.020	19.972	3.827	0.374
88.500	120.595	79.998	19.996	101.020	19.974	3.676	0.381
89.001	120.818	79.997	19.997	101.020	19.977	3.484	0.370
89.501	120.986	79.999	19.996	101.020	19.975	3.655	0.384
90.001	121.136	79.998	19.996	101.017	19.975	3.610	0.355
90.501	121.298	80.000	19.995	101.016	19.974	3.719	0.316
91.000	121.497	79.999	19.996	101.016	19.976	3.576	0.337
91.500	121.709	79.998	19.996	101.016	19.977	3.506	0.386
92.000	121.861	80.000	19.995	101.016	19.979	3.376	0.387
92.500	122.088	79.998	19.996	101.017	19.976	3.533	0.372
93.000	122.271	79.999	19.994	101.017	19.976	3.574	0.395
93.500	122.444	80.000	19.995	101.019	19.978	3.438	0.383
94.000	122.677	80.000	19.994	101.019	19.976	3.580	0.380
94.500	122.854	80.001	19.996	101.020	19.976	3.583	0.408
95.000	123.084	79.998	19.995	101.019	19.977	3.523	0.409
95.500	123.235	80.000	19.995	101.019	19.975	3.638	0.394
96.000	123.431	80.000	19.995	101.018	19.974	3.710	0.364
96.500	123.594	80.000	19.995	101.019	19.974	3.682	0.353
97.000	123.827	80.001	19.996	101.019	19.975	3.642	0.377
97.500	123.982	79.999	19.995	101.019	19.975	3.659	0.392
98.000	124.193	80.000	19.995	101.019	19.972	3.865	0.377
98.500	124.396	80.000	19.996	101.021	19.974	3.706	0.390
99.000	124.587	80.000	19.995	101.020	19.975	3.650	0.404
99.500	124.780	79.999	19.996	101.020	19.974	3.684	0.389
100.000	124.960	80.001	19.994	101.020	19.975	3.646	0.378
100.501	125.172	80.002	19.994	101.019	19.973	3.761	0.383
101.001	125.364	80.001	19.995	101.017	19.974	3.670	0.398
101.500	125.567	80.001	19.995	101.018	19.972	3.816	0.399
102.000	125.735	79.999	19.995	101.017	19.974	3.699	0.383
102.500	125.942	79.999	19.995	101.017	19.973	3.754	0.373
103.000	126.150	80.000	19.995	101.017	19.976	3.559	0.395
103.500	126.350	79.999	19.995	101.017	19.971	3.933	0.412
104.000	126.568	80.000	19.997	101.016	19.975	3.653	0.413
104.500	126.799	79.998	19.996	101.015	19.973	3.761	0.434
105.001	126.963	79.999	19.996	101.014	19.970	3.978	0.422
105.501	127.175	79.998	19.996	101.015	19.972	3.812	0.386
106.000	127.413	79.999	19.995	101.015	19.979	3.321	0.413
106.500	127.606	79.998	19.994	101.014	19.975	3.631	0.440
107.000	127.801	79.998	19.994	101.014	19.970	3.955	0.409
107.500	128.016	79.999	19.996	101.013	19.972	3.848	0.398
108.000	128.249	79.999	19.995	101.013	19.971	3.901	0.429
108.501	128.444	79.997	19.995	101.012	19.971	3.884	0.438
109.001	128.654	79.998	19.995	101.013	19.975	3.659	0.416
109.500	128.878	79.997	19.996	101.014	19.973	3.763	0.419
110.000	129.065	79.998	19.996	101.016	19.974	3.702	0.423
110.500	129.238	79.998	19.996	101.016	19.973	3.753	0.386
111.000	129.463	79.998	19.996	101.017	19.974	3.702	0.379
111.500	129.679	79.998	19.995	101.017	19.972	3.820	0.420
112.000	129.880	79.998	19.995	101.020	19.974	3.714	0.429
112.500	130.099	79.998	19.994	101.020	19.975	3.652	0.419
113.000	130.308	79.997	19.996	101.020	19.974	3.674	0.424
113.500	130.540	79.999	19.997	101.020	19.973	3.741	0.435
114.000	130.723	79.998	19.997	101.019	19.975	3.609	0.428
114.500	130.932	79.998	19.995	101.017	19.973	3.786	0.403
115.000	131.140	79.999	19.997	101.014	19.972	3.816	0.404
115.500	131.378	79.998	19.996	101.014	19.974	3.725	0.431
116.000	131.579	79.999	19.995	101.015	19.974	3.714	0.442
116.501	131.807	79.999	19.995	101.015	19.976	3.589	0.434
117.001	132.013	79.999	19.998	101.014	19.974	3.672	0.432
117.500	132.234	79.998	19.996	101.014	19.974	3.676	0.430
118.000	132.444	79.999	19.996	101.015	19.972	3.821	0.428
118.500	132.619	79.998	19.995	101.015	19.972	3.844	0.408
119.000	132.876	79.999	19.996	101.014	19.972	3.846	0.408
119.500	133.072	79.998	19.996	101.014	19.973	3.768	0.443
120.001	133.318	79.997	19.995	101.014	19.976	3.570	0.448
120.501	133.532	79.999	19.995	101.016	19.973	3.751	0.451
121.000	133.764	79.999	19.996	101.017	19.975	3.614	0.453
121.500	133.965	80.000	19.995	101.018	19.972	3.842	0.440
122.000	134.179	79.998	19.997	101.017	19.973	3.799	0.424
122.500	134.401	79.998	19.996	101.017	19.973	3.769	0.425
123.000	134.599	79.999	19.996	101.015	19.973	3.774	0.428
123.500	134.883	80.000	19.996	101.020	19.973	3.763	0.451
124.000	135.065	79.999	19.995	101.025	19.972	3.859	0.474
124.500	135.240	79.999	19.995	101.026	19.970	3.976	0.412
125.000	135.496	79.999	19.995	101.030	19.974	3.712	0.394
125.500	135.701	79.999	19.995	101.031	19.973	3.802	0.446
126.000	135.937	80.000	19.996	101.024	19.970	3.980	0.451
126.500	136.193	79.998	19.995	101.019	19.973	3.765	0.466
127.000	136.400	80.000	19.996	101.018	19.974	3.687	0.477
127.500	136.657	80.000	19.995	101.014	19.975	3.665	0.464
128.000	136.844	79.999	19.997	101.013	19.969	4.025	0.454
128.500	137.060	79.998	19.996	101.013	19.975	3.654	0.423
129.000	137.280	79.998	19.996	101.013	19.971	3.925	0.419
129.501	137.555	80.000	19.996	101.014	19.972	3.827	0.465
130.000	137.750	79.999	19.997	101.014	19.974	3.714	0.483
130.500	137.978	79.999	19.997	101.015	19.972	3.846	0.447
131.000	138.207	79.998	19.995	101.015	19.973	3.786	0.440
131.500	138.415	79.996	19.997	101.015	19.972	3.839	0.447
132.000	138.616	79.998	19.996	101.014	19.970	4.005	0.423
132.500	138.872	79.999	19.997	101.015	19.970	4.005	0.433
133.000	139.091	79.999	19.998	101.019	19.969	4.080	0.466
133.500	139.294	79.999	19.997	101.020	19.971	3.925	0.448
134.000	139.542	79.998	19.996	101.020	19.971	3.939	0.436
134.500	139.762	79.999	19.996	101.021	19.968	4.114	0.460
135.000	139.967	79.998	19.996	101.021	19.970	3.946	0.447
135.500	140.223	79.998	19.996	101.016	19.969	4.029	0.443
136.000	140.432	79.997	19.996	101.015	19.970	3.950	0.463
136.500	140.693	79.998	19.995	101.016	19.970	3.986	0.468
137.000	140.927	79.998	19.996	101.017	19.969	4.059	0.483
137.500	141.146	79.999	19.996	101.017	19.969	4.058	0.474
138.000	141.377	79.998	19.996	101.020	19.967	4.167	0.451
138.500	141.577	79.997	19.995	101.021	19.967	4.158	0.441
139.000	141.820	79.998	19.996	101.020	19.969	4.054	0.437
139.500	142.072	79.999	19.995	101.021	19.969	4.025	0.469
140.000	142.270	79.997	19.995	101.022	19.967	4.197	0.472
140.500	142.535	79.998	19.996	101.021	19.967	4.205	0.456
141.000	142.795	79.998	19.997	101.021	19.969	4.048	0.494
141.500	143.021	79.997	19.996	101.024	19.970	4.008	0.505
142.000	143.229	79.997	19.996	101.024	19.968	4.086	0.460
142.500	143.440	79.997	19.996	101.023	19.970	3.991	0.427
143.000	143.698	79.998	19.996	101.023	19.968	4.118	0.444
143.501	143.935	79.998	19.996	101.022	19.968	4.105	0.482
144.000	144.152	79.999	19.997	101.019	19.966	4.284	0.474
144.500	144.384	79.998	19.997	101.019	19.965	4.307	0.451
145.000	144.601	79.998	19.997	101.019	19.969	4.054	0.449
145.500	144.862	79.999	19.996	101.020	19.968	4.137	0.464
146.000	145.083	79.997	19.995	101.021	19.966	4.266	0.480
146.500	145.305	79.998	19.996	101.021	19.967	4.169	0.462
147.000	145.544	79.997	19.996	101.021	19.968	4.143	0.452
147.500	145.770	79.998	19.997	101.021	19.966	4.241	0.462
148.000	145.974	79.998	19.996	101.022	19.967	4.167	0.447
148.500	146.221	79.998	19.996	101.022	19.966	4.263	0.441
149.000	146.485	79.999	19.996	101.021	19.966	4.282	0.481
149.500	146.726	79.998	19.996	101.021	19.966	4.267	0.508
150.000	146.928	79.999	19.997	101.020	19.965	4.318	0.474
150.500	147.179	79.998	19.995	101.018	19.964	4.418	0.448
151.000	147.389	79.998	19.996	101.017	19.962	4.514	0.457
151.500	147.612	79.998	19.996	101.017	19.962	4.556	0.447
152.000	147.846	79.999	19.995	101.017	19.963	4.447	0.445
152.500	148.116	79.999	19.995	101.017	19.966	4.267	0.481
153.000	148.314	79.998	19.996	101.016	19.961	4.590	0.486
153.500	148.567	80.000	19.996	101.016	19.966	4.229	0.459
154.000	148.831	79.998	19.997	101.016	19.963	4.452	0.484
154.500	149.050	79.999	19.996	101.016	19.964	4.367	0.500
155.000	149.286	79.999	19.997	101.017	19.964	4.433	0.470
155.500	149.518	79.999	19.996	101.022	19.964	4.429	0.462
156.000	149.762	80.000	19.996	101.027	19.963	4.447	0.472
156.500	150.005	79.998	19.996	101.027	19.966	4.296	0.481
157.000	150.250	79.999	19.994	101.027	19.961	4.596	0.487
157.500	150.464	79.999	19.995	101.028	19.965	4.318	0.474
158.000	150.752	79.998	19.995	101.023	19.964	4.394	0.481
158.500	150.949	79.998	19.995	101.019	19.963	4.466	0.493
159.000	151.175	79.998	19.996	101.019	19.961	4.641	0.454
159.500	151.413	79.997	19.995	101.019	19.965	4.331	0.443
160.000	151.668	79.997	19.996	101.018	19.967	4.210	0.479
160.500	151.918	79.998	19.995	101.020	19.965	4.339	0.499
161.000	152.120	79.998	19.995	101.019	19.962	4.524	0.478
161.500	152.398	79.999	19.996	101.019	19.964	4.427	0.466
162.000	152.602	79.999	19.996	101.020	19.963	4.473	0.481
162.500	152.842	79.998	19.995	101.022	19.966	4.289	0.463
163.000	153.076	79.999	19.996	101.023	19.966	4.235	0.459
163.500	153.360	79.999	19.996	101.023	19.968	4.120	0.496
164.000	153.567	79.998	19.996	101.022	19.966	4.273	0.505
164.500	153.787	79.999	19.996	101.021	19.963	4.461	0.459
165.000	154.017	79.999	19.995	101.019	19.963	4.495	0.438
165.500	154.250	79.998	19.995	101.017	19.964	4.390	0.456
166.000	154.525	79.998	19.996	101.018	19.963	4.501	0.485
166.500	154.764	79.998	19.997	101.019	19.963	4.456	0.511
167.000	154.982	79.999	19.996	101.023	19.963	4.461	0.485
167.500	155.213	79.998	19.997	101.025	19.965	4.359	0.453
168.000	155.485	79.998	19.997	101.027	19.964	4.414	0.476
168.500	155.691	79.997	19.997	101.028	19.963	4.463	0.491
169.000	155.974	79.999	19.996	101.029	19.964	4.433	0.483
169.500	156.224	79.998	19.998	101.025	19.963	4.484	0.511
170.000	156.453	79.998	19.997	101.022	19.963	4.458	0.506
170.500	156.710	79.998	19.996	101.018	19.960	4.688	0.483
171.000	156.907	79.999	19.995	101.016	19.963	4.459	0.470
171.500	157.160	79.997	19.996	101.013	19.961	4.593	0.452
172.000	157.425	79.998	19.996	101.014	19.963	4.497	0.484
172.500	157.640	79.999	19.998	101.013	19.963	4.463	0.498
173.000	157.910	79.998	19.997	101.013	19.963	4.501	0.483
173.500	158.146	79.998	19.998	101.013	19.962	4.544	0.496
174.000	158.421	79.999	19.997	101.013	19.965	4.357	0.508
174.501	158.609	79.999	19.996	101.013	19.961	4.576	0.487
175.000	158.863	80.000	19.996	101.015	19.962	4.571	0.453
175.500	159.144	79.998	19.997	101.014	19.964	4.393	0.488
176.000	159.375	79.999	19.998	101.014	19.962	4.542	0.524
176.500	159.629	80.000	19.998	101.014	19.963	4.495	0.499
177.000	159.911	80.000	19.997	101.014	19.962	4.537	0.510
177.500	160.131	80.000	19.996	101.011	19.965	4.365	0.519
178.000	160.388	79.999	19.997	101.012	19.963	4.471	0.489
178.500	160.638	80.000	19.996	101.012	19.964	4.393	0.492
179.000	160.860	79.999	19.995	101.013	19.963	4.478	0.490
179.500	161.094	80.000	19.996	101.013	19.965	4.327	0.464
180.000	161.316	80.001	19.995	101.015	19.962	4.569	0.456
180.500	161.562	80.000	19.996	101.014	19.963	4.463	0.462
181.000	161.837	80.001	19.995	101.013	19.961	4.609	0.495
181.500	162.074	79.999	19.996	101.014	19.958	4.816	0.517
182.000	162.328	80.000	19.996	101.014	19.960	4.679	0.501
182.500	162.562	80.000	19.996	101.012	19.961	4.626	0.489
183.000	162.813	80.000	19.996	101.012	19.960	4.671	0.486
183.500	163.036	79.999	19.996	101.013	19.961	4.598	0.480
184.000	163.250	80.000	19.997	101.014	19.958	4.840	0.456
184.501	163.512	80.000	19.996	101.014	19.960	4.707	0.456
185.001	163.757	79.999	19.995	101.014	19.960	4.707	0.491
185.500	164.063	79.999	19.997	101.014	19.959	4.736	0.529
186.000	164.302	80.000	19.995	101.013	19.959	4.775	0.548
186.500	164.554	79.999	19.995	101.011	19.956	4.939	0.518
187.000	164.774	79.999	19.996	101.014	19.956	4.943	0.482
187.500	165.050	79.999	19.995	101.014	19.961	4.616	0.484
188.000	165.296	79.998	19.996	101.015	19.958	4.828	0.509
188.500	165.548	79.998	19.996	101.016	19.956	4.932	0.510
189.000	165.805	79.998	19.996	101.016	19.959	4.739	0.503
189.500	166.070	79.997	19.995	101.013	19.959	4.737	0.515
190.000	166.289	79.997	19.996	101.013	19.957	4.896	0.503
190.500	166.551	79.999	19.995	101.013	19.955	5.035	0.483
191.000	166.793	79.998	19.995	101.014	19.960	4.713	0.492
191.500	167.057	79.998	19.995	101.013	19.956	4.949	0.504
192.000	167.327	79.998	19.996	101.015	19.957	4.890	0.520
192.500	167.531	79.998	19.996	101.016	19.956	4.977	0.504
193.000	167.814	79.999	19.995	101.018	19.959	4.734	0.480
193.500	168.016	79.998	19.996	101.018	19.957	4.911	0.486
194.000	168.272	79.997	19.996	101.019	19.957	4.914	0.471
194.500	168.524	79.999	19.996	101.022	19.960	4.696	0.483
195.000	168.773	79.998	19.995	101.028	19.958	4.842	0.505
195.500	169.006	79.998	19.997	101.027	19.960	4.674	0.492
196.000	169.246	79.998	19.996	101.026	19.956	4.991	0.477
196.500	169.513	79.999	19.995	101.026	19.955	5.038	0.490
197.000	169.760	79.997	19.997	101.021	19.956	4.932	0.510
197.500	170.012	79.996	19.996	101.015	19.958	4.796	0.506
198.000	170.270	79.999	19.996	101.015	19.959	4.741	0.505
198.500	170.478	79.997	19.996	101.015	19.959	4.762	0.488
199.000	170.767	79.999	19.996	101.015	19.952	5.213	0.482
199.500	170.979	79.997	19.996	101.016	19.956	4.926	0.499
200.000	171.225	79.998	19.996	101.016	19.953	5.173	0.480
200.500	171.471	79.998	19.997	101.016	19.954	5.083	0.475
201.000	171.745	79.998	19.996	101.017	19.953	5.143	0.506
201.500	171.990	79.998	19.996	101.018	19.956	4.945	0.519
202.000	172.244	79.997	19.996	101.019	19.955	5.017	0.509
202.500	172.468	79.998	19.996	101.020	19.956	4.994	0.489
203.000	172.786	79.997	19.996	101.024	19.954	5.119	0.510
203.500	173.029	79.998	19.996	101.028	19.952	5.217	0.551
204.000	173.248	79.998	19.995	101.029	19.955	5.013	0.511
204.500	173.471	79.998	19.996	101.030	19.953	5.196	0.452
205.000	173.769	79.998	19.996	101.036	19.955	5.024	0.482
205.500	173.993	79.998	19.996	101.036	19.952	5.266	0.521
206.000	174.244	79.997	19.996	101.035	19.954	5.119	0.498
206.500	174.486	79.998	19.997	101.034	19.953	5.187	0.484
207.000	174.718	79.999	19.997	101.030	19.952	5.264	0.484
207.501	175.007	79.997	19.996	101.023	19.954	5.068	0.497
208.000	175.243	79.998	19.995	101.019	19.952	5.220	0.523
208.500	175.522	79.999	19.996	101.017	19.953	5.192	0.520
209.000	175.714	79.999	19.997	101.017	19.952	5.219	0.493
209.500	175.966	79.999	19.997	101.017	19.949	5.445	0.457
210.000	176.233	79.999	19.995	101.018	19.953	5.200	0.481
210.500	176.470	79.998	19.995	101.018	19.952	5.258	0.512
211.000	176.745	79.999	19.996	101.017	19.951	5.275	0.508
211.500	176.974	79.997	19.996	101.017	19.950	5.396	0.508
212.000	177.231	79.999	19.996	101.020	19.952	5.224	0.495
212.500	177.490	79.998	19.996	101.023	19.952	5.223	0.501
213.000	177.739	79.998	19.995	101.023	19.950	5.411	0.512
213.500	177.971	80.000	19.995	101.023	19.950	5.400	0.494
214.000	178.235	79.998	19.997	101.023	19.949	5.457	0.489
214.500	178.479	79.998	19.996	101.019	19.952	5.258	0.502
215.000	178.724	79.997	19.995	101.016	19.950	5.406	0.499
215.500	179.006	79.999	19.996	101.017	19.948	5.498	0.508
216.000	179.242	79.999	19.995	101.020	19.948	5.512	0.523
216.500	179.492	79.999	19.995	101.020	19.946	5.625	0.503
217.000	179.747	79.998	19.995	101.020	19.947	5.616	0.496
217.500	179.969	79.998	19.995	101.020	19.945	5.714	0.491
218.000	180.218	79.998	19.995	101.020	19.947	5.613	0.474
218.500	180.490	79.999	19.996	101.018	19.947	5.572	0.496
219.000	180.754	79.998	19.996	101.018	19.943	5.889	0.529
219.500	180.982	79.998	19.996	101.018	19.944	5.832	0.514
220.000	181.212	79.997	19.995	101.018	19.942	5.949	0.475
220.500	181.503	79.998	19.995	101.017	19.943	5.842	0.489
221.000	181.737	79.996	19.995	101.017	19.942	5.923	0.523
221.500	181.999	79.998	19.995	101.018	19.942	5.966	0.511
222.000	182.216	79.997	19.996	101.018	19.944	5.811	0.488
222.500	182.498	79.997	19.995	101.021	19.944	5.804	0.488
223.000	182.758	79.998	19.996	101.022	19.943	5.898	0.520
223.500	182.985	79.998	19.996	101.022	19.942	5.906	0.515
224.000	183.251	79.998	19.997	101.022	19.943	5.875	0.491
224.500	183.495	79.998	19.995	101.022	19.942	5.942	0.502
225.000	183.745	79.997	19.996	101.020	19.941	6.034	0.502
225.500	184.033	79.997	19.996	101.019	19.942	5.915	0.516
226.000	184.279	79.998	19.996	101.023	19.941	5.976	0.536
226.500	184.469	79.998	19.996	101.024	19.938	6.202	0.485
227.000	184.757	79.998	19.995	101.026	19.942	5.964	0.457
227.500	184.973	79.998	19.996	101.026	19.941	5.989	0.490
228.000	185.207	79.998	19.996	101.026	19.941	6.025	0.477
228.500	185.492	79.998	19.996	101.023	19.942	5.940	0.485
229.000	185.723	79.999	19.996	101.023	19.940	6.109	0.518
229.500	186.005	79.998	19.996	101.020	19.940	6.077	0.515
230.000	186.261	80.000	19.997	101.021	19.941	5.973	0.525
230.500	186.534	80.001	19.996	101.022	19.940	6.060	0.533
231.000	186.767	79.998	19.996	101.021	19.939	6.119	0.518
231.500	187.019	79.999	19.997	101.020	19.940	6.060	0.496
232.000	187.284	79.999	19.995	101.019	19.937	6.289	0.501
232.500	187.554	80.000	19.996	101.014	19.934	6.506	0.526
233.000	187.769	80.000	19.995	101.013	19.935	6.438	0.510
233.500	188.038	80.000	19.997	101.013	19.934	6.527	0.484
234.000	188.262	80.000	19.995	101.013	19.934	6.463	0.488
234.500	188.495	80.000	19.996	101.012	19.935	6.447	0.475
235.000	188.745	79.999	19.995	101.014	19.936	6.345	0.470
235.500	188.958	80.000	19.996	101.014	19.936	6.325	0.474
236.000	189.257	80.001	19.995	101.014	19.932	6.621	0.487
236.500	189.523	80.002	19.996	101.014	19.932	6.646	0.538
237.000	189.776	80.001	19.997	101.014	19.934	6.517	0.542
237.500	190.006	80.000	19.996	101.014	19.935	6.412	0.501
238.000	190.246	80.000	19.995	101.015	19.934	6.474	0.476
238.500	190.503	79.999	19.995	101.015	19.934	6.497	0.483
239.000	190.744	80.000	19.996	101.014	19.932	6.665	0.498
239.500	191.003	80.000	19.996	101.014	19.931	6.699	0.499
240.000	191.202	80.000	19.997	101.012	19.932	6.666	0.479
240.500	191.468	80.000	19.997	101.012	19.933	6.572	0.462
241.000	191.697	80.000	19.997	101.011	19.930	6.759	0.480
241.501	191.929	80.000	19.996	101.012	19.930	6.746	0.478
242.000	192.213	79.999	19.996	101.011	19.930	6.755	0.488
242.500	192.462	79.998	19.996	101.013	19.931	6.685	0.524
243.000	192.718	80.000	19.997	101.013	19.927	7.004	0.519
243.500	192.963	79.999	19.996	101.013	19.929	6.836	0.503
244.000	193.215	80.001	19.996	101.013	19.933	6.576	0.499
244.500	193.454	79.999	19.996	101.013	19.928	6.910	0.494
245.000	193.725	79.999	19.996	101.013	19.929	6.829	0.500
245.500	193.999	79.999	19.997	101.013	19.931	6.738	0.527
246.000	194.177	79.999	19.997	101.013	19.929	6.872	0.499
246.500	194.416	79.999	19.997	101.013	19.926	7.029	0.435
247.000	194.716	79.999	19.996	101.013	19.926	7.036	0.478
247.500	194.903	79.999	19.996	101.013	19.926	7.053	0.513
248.000	195.204	79.999	19.997	101.013	19.927	6.970	0.488
248.500	195.455	79.998	19.997	101.013	19.928	6.946	0.520
249.000	195.646	80.001	19.996	101.013	19.925	7.101	0.497
249.500	195.924	80.000	19.996	101.014	19.928	6.893	0.455
250.000	196.143	80.000	19.997	101.014	19.926	7.023	0.483
250.500	196.411	80.000	19.997	101.014	19.928	6.910	0.492
251.000	196.676	80.000	19.998	101.014	19.926	7.042	0.510
251.500	196.912	80.000	19.995	101.014	19.924	7.176	0.517
252.000	197.160	79.999	19.998	101.014	19.926	7.072	0.492
252.500	197.398	80.001	19.997	101.014	19.927	7.019	0.485
253.000	197.653	80.000	19.997	101.012	19.929	6.880	0.490
253.501	197.891	80.000	19.997	101.012	19.925	7.144	0.493
254.000	198.115	80.000	19.996	101.012	19.924	7.187	0.477
254.500	198.363	79.998	19.998	101.011	19.923	7.299	0.467
255.000	198.614	80.001	19.997	101.012	19.927	7.012	0.486
255.500	198.874	79.999	19.997	101.013	19.925	7.153	0.505
256.000	199.110	80.002	19.997	101.013	19.926	7.034	0.503
256.500	199.378	80.000	19.996	101.013	19.924	7.221	0.500
257.000	199.566	80.001	19.996	101.013	19.923	7.280	0.480
257.500	199.881	80.002	19.996	101.013	19.922	7.342	0.479
258.000	200.105	80.000	19.996	101.012	19.922	7.333	0.521
258.500	200.356	80.001	19.996	101.013	19.923	7.256	0.507
259.000	200.574	80.002	19.997	101.013	19.920	7.482	0.473
259.500	200.850	80.002	19.997	101.013	19.920	7.465	0.482
260.000	201.105	80.001	19.997	101.013	19.922	7.331	0.512
260.500	201.318	80.003	19.996	101.013	19.919	7.563	0.499
261.000	201.565	80.000	19.996	101.012	19.920	7.508	0.464
261.500	201.830	80.000	19.997	101.013	19.919	7.525	0.486
262.000	202.083	80.001	19.996	101.012	19.923	7.278	0.515
262.500	202.372	80.001	19.997	101.012	19.920	7.472	0.530
263.000	202.555	80.001	19.996	101.012	19.921	7.382	0.507
263.500	202.845	80.000	19.996	101.012	19.919	7.563	0.472
264.000	203.112	80.000	19.995	101.012	19.920	7.501	0.515
264.500	203.355	80.001	19.997	101.010	19.922	7.303	0.533
265.000	203.586	80.002	19.996	101.010	19.919	7.535	0.492
265.500	203.813	80.000	19.996	101.010	19.920	7.461	0.466
266.000	204.065	80.000	19.996	101.010	19.924	7.221	0.468
266.500	204.328	79.999	19.996	101.010	19.921	7.389	0.497
267.000	204.526	79.998	19.997	101.012	19.922	7.368	0.488
267.500	204.796	79.999	19.996	101.013	19.918	7.595	0.464
268.000	205.036	79.999	19.996	101.013	19.922	7.317	0.489
268.500	205.298	79.999	19.996	101.014	19.920	7.461	0.506
269.000	205.518	79.998	19.996	101.014	19.916	7.754	0.492
269.500	205.758	79.998	19.996	101.014	19.920	7.452	0.471
270.000	206.036	79.997	19.997	101.014	19.915	7.790	0.489
270.500	206.267	79.999	19.996	101.015	19.913	7.935	0.514
271.000	206.466	79.998	19.997	101.014	19.914	7.888	0.470
271.500	206.745	79.997	19.997	101.011	19.915	7.820	0.454
272.000	207.000	79.996	19.996	101.008	19.915	7.846	0.506
272.500	207.235	79.997	19.995	101.007	19.915	7.839	0.512
273.000	207.560	79.999	19.997	101.007	19.915	7.790	0.525
273.500	207.765	79.998	19.997	101.007	19.917	7.673	0.545
274.000	208.044	79.997	19.998	101.011	19.914	7.869	0.507
274.500	208.277	79.997	19.997	101.014	19.916	7.786	0.498
275.000	208.497	79.998	19.998	101.015	19.916	7.724	0.482
275.500	208.702	79.999	19.996	101.014	19.917	7.718	0.439
276.000	209.004	79.997	19.997	101.014	19.918	7.601	0.466
276.500	209.213	79.998	19.996	101.012	19.916	7.771	0.509
277.000	209.475	79.998	19.997	101.011	19.918	7.597	0.491
277.500	209.760	79.998	19.997	101.009	19.915	7.830	0.509
278.000	209.970	79.997	19.997	101.007	19.916	7.764	0.521
278.500	210.229	79.997	19.996	101.007	19.918	7.645	0.482
279.000	210.502	79.997	19.995	101.008	19.917	7.654	0.501
279.500	210.731	79.998	19.996	101.008	19.916	7.758	0.517
280.000	211.018	79.997	19.997	101.010	19.916	7.731	0.509
280.500	211.273	79.997	19.996	101.012	19.918	7.609	0.529
281.000	211.478	79.997	19.996	101.013	19.914	7.894	0.501
281.500	211.655	79.997	19.995	101.013	19.913	7.992	0.421
282.000	211.925	79.997	19.995	101.015	19.916	7.758	0.415
282.500	212.188	79.998	19.995	101.015	19.913	7.952	0.490
283.000	212.462	79.996	19.996	101.014	19.912	8.024	0.535
283.500	212.678	79.996	19.996	101.013	19.914	7.884	0.514
284.000	212.937	79.998	19.996	101.011	19.913	7.962	0.483
284.501	213.168	79.995	19.996	101.011	19.912	8.043	0.483
285.000	213.394	79.998	19.996	101.012	19.911	8.120	0.473
285.500	213.593	79.998	19.996	101.011	19.912	8.035	0.441
286.000	213.922	79.998	19.996	101.011	19.912	8.001	0.477
286.500	214.155	79.997	19.996	101.013	19.912	8.001	0.545
287.001	214.359	79.997	19.997	101.012	19.913	7.945	0.499
287.500	214.663	79.998	19.996	101.012	19.913	7.986	0.473
288.000	214.867	79.998	19.996	101.014	19.911	8.122	0.508
288.500	215.122	79.997	19.996	101.015	19.913	7.975	0.483
289.000	215.363	79.998	19.996	101.016	19.911	8.081	0.478
289.500	215.633	79.997	19.995	101.016	19.913	7.962	0.504
290.000	215.862	79.997	19.995	101.015	19.911	8.096	0.505
290.500	216.118	79.998	19.995	101.017	19.910	8.175	0.492
291.000	216.369	79.998	19.997	101.016	19.908	8.296	0.496
291.500	216.602	79.997	19.996	101.016	19.910	8.152	0.495
292.000	216.848	79.997	19.996	101.016	19.911	8.133	0.481
292.500	217.119	79.997	19.997	101.017	19.908	8.337	0.498
293.000	217.357	79.998	19.995	101.016	19.909	8.233	0.513
293.500	217.611	79.998	19.995	101.016	19.910	8.148	0.501
294.000	217.855	79.998	19.995	101.016	19.908	8.286	0.495
294.500	218.101	79.998	19.996	101.015	19.907	8.352	0.493
295.000	218.311	79.998	19.996	101.015	19.909	8.250	0.473
295.500	218.572	79.997	19.997	101.015	19.909	8.264	0.464
296.000	218.843	79.998	19.997	101.014	19.907	8.385	0.502
296.500	219.034	79.998	19.996	101.014	19.907	8.409	0.497
297.000	219.295	79.998	19.996	101.015	19.909	8.231	0.457
297.500	219.540	79.999	19.997	101.015	19.909	8.220	0.479
298.000	219.788	79.998	19.995	101.015	19.909	8.252	0.500
298.500	220.013	79.998	19.995	101.015	19.907	8.350	0.483
299.000	220.280	79.998	19.996	101.015	19.906	8.426	0.483
299.500	220.498	79.998	19.995	101.015	19.907	8.393	0.488
300.000	220.757	79.997	19.995	101.015	19.905	8.507	0.481
300.500	221.041	79.998	19.996	101.015	19.908	8.327	0.510
301.000	221.266	79.996	19.996	101.015	19.908	8.327	0.526
301.500	221.506	79.999	19.996	101.015	19.905	8.499	0.488
302.000	221.758	79.997	19.996	101.014	19.907	8.356	0.479
302.500	221.983	79.996	19.996	101.012	19.906	8.470	0.485
303.000	222.247	79.997	19.996	101.011	19.905	8.553	0.483
303.500	222.514	79.998	19.996	101.009	19.904	8.566	0.510
304.000	222.740	79.998	19.997	101.009	19.909	8.247	0.511
304.500	222.987	79.998	19.996	101.008	19.905	8.500	0.483
305.000	223.246	79.998	19.996	101.011	19.906	8.486	0.489
305.500	223.468	79.998	19.996	101.011	19.907	8.383	0.493
306.000	223.749	79.998	19.997	101.013	19.902	8.738	0.492
306.501	223.972	79.998	19.996	101.013	19.901	8.809	0.504
307.001	224.248	79.997	19.996	101.013	19.900	8.860	0.501
307.500	224.482	79.998	19.996	101.012	19.902	8.760	0.504
308.000	224.706	79.997	19.997	101.012	19.903	8.690	0.484
308.500	224.961	79.998	19.996	101.012	19.902	8.702	0.469
309.000	225.168	79.999	19.996	101.012	19.904	8.598	0.471
309.500	225.422	79.998	19.997	101.012	19.903	8.666	0.462
310.000	225.696	79.999	19.997	101.012	19.903	8.637	0.495
310.500	225.950	79.999	19.997	101.007	19.905	8.528	0.528
311.000	226.190	79.999	19.996	101.005	19.901	8.811	0.511
311.500	226.487	79.998	19.996	101.005	19.905	8.518	0.516
312.000	226.710	79.998	19.996	101.006	19.901	8.820	0.528
312.500	226.948	79.999	19.997	101.007	19.901	8.805	0.490
313.000	227.164	79.999	19.995	101.012	19.902	8.758	0.458
313.500	227.416	79.999	19.996	101.014	19.905	8.547	0.461
314.000	227.669	80.000	19.996	101.013	19.901	8.781	0.486
314.500	227.938	79.999	19.997	101.013	19.902	8.766	0.513
315.000	228.191	79.999	19.996	101.013	19.901	8.781	0.522
315.500	228.447	79.999	19.996	101.014	19.900	8.879	0.516
316.000	228.721	80.000	19.997	101.014	19.900	8.894	0.520
316.500	228.953	80.000	19.996	101.014	19.900	8.881	0.518
317.000	229.192	80.001	19.996	101.014	19.901	8.815	0.489
317.500	229.489	80.000	19.995	101.013	19.899	8.955	0.503
318.000	229.739	79.999	19.996	101.013	19.901	8.834	0.541
318.500	229.978	80.001	19.997	101.012	19.900	8.873	0.518
319.000	230.224	80.000	19.995	101.012	19.897	9.053	0.487
319.500	230.481	80.000	19.996	101.012	19.897	9.068	0.494
320.000	230.714	80.000	19.995	101.013	19.898	9.028	0.497
320.500	230.941	80.000	19.997	101.013	19.898	9.000	0.475
321.000	231.184	80.000	19.995	101.012	19.898	8.988	0.465
321.500	231.479	79.999	19.996	101.011	19.897	9.060	0.504
322.000	231.696	79.998	19.996	101.009	19.897	9.059	0.525
322.500	231.938	80.001	19.995	101.005	19.897	9.081	0.485
323.000	232.214	80.000	19.996	101.006	19.898	9.028	0.489
323.500	232.421	80.000	19.997	101.007	19.898	8.994	0.501
324.000	232.651	80.000	19.997	101.008	19.898	9.032	0.460
324.500	232.918	79.999	19.996	101.010	19.896	9.166	0.467
325.000	233.191	80.000	19.996	101.013	19.896	9.166	0.518
325.500	233.427	79.999	19.996	101.013	19.895	9.219	0.525
326.000	233.720	80.000	19.996	101.013	19.895	9.206	0.519
326.500	233.948	79.998	19.995	101.013	19.894	9.268	0.525
327.001	234.207	79.999	19.997	101.013	19.896	9.144	0.504
327.500	234.468	79.998	19.997	101.013	19.895	9.208	0.504
328.000	234.704	79.999	19.995	101.014	19.895	9.244	0.509
328.500	234.936	80.000	19.995	101.014	19.894	9.287	0.482
329.000	235.207	79.997	19.996	101.014	19.895	9.240	0.485
329.500	235.437	80.001	19.996	101.013	19.894	9.308	0.502
330.001	235.661	79.998	19.995	101.010	19.889	9.667	0.478
330.501	235.891	79.997	19.996	101.009	19.891	9.514	0.454
331.001	236.149	79.998	19.995	101.010	19.891	9.472	0.471
331.500	236.415	79.997	19.997	101.010	19.889	9.648	0.506
332.000	236.679	79.999	19.996	101.011	19.887	9.771	0.527
332.500	236.924	79.998	19.996	101.014	19.888	9.708	0.519
333.000	237.172	79.998	19.997	101.015	19.888	9.689	0.501
333.500	237.403	79.999	19.996	101.015	19.889	9.642	0.486
334.001	237.685	79.999	19.996	101.015	19.887	9.799	0.497
334.500	237.901	79.999	19.996	101.015	19.887	9.801	0.506
335.000	238.159	79.998	19.997	101.016	19.886	9.863	0.486
335.500	238.395	79.998	19.996	101.017	19.887	9.805	0.484
336.000	238.670	79.998	19.996	101.017	19.883	10.044	0.502
336.500	238.898	79.999	19.997	101.018	19.884	9.975	0.507
337.000	239.125	79.998	19.997	101.018	19.885	9.935	0.479
337.500	239.420	79.998	19.996	101.017	19.886	9.875	0.488
338.000	239.628	79.998	19.996	101.017	19.883	10.053	0.512
338.500	239.879	79.999	19.996	101.017	19.885	9.951	0.481
339.000	240.139	79.999	19.997	101.017	19.881	10.200	0.485
339.500	240.368	80.000	19.997	101.016	19.888	9.730	0.500
340.000	240.646	79.999	19.996	101.016	19.882	10.111	0.498
340.500	240.911	80.000	19.997	101.015	19.880	10.253	0.525
341.000	241.113	79.999	19.996	101.015	19.881	10.232	0.505
341.500	241.408	79.999	19.996	101.015	19.881	10.211	0.482
342.000	241.626	80.000	19.995	101.015	19.882	10.136	0.505
342.500	241.874	80.000	19.996	101.016	19.881	10.204	0.490
343.000	242.094	80.002	19.996	101.017	19.883	10.055	0.467
343.500	242.374	80.000	19.995	101.017	19.881	10.210	0.484
344.000	242.647	80.001	19.995	101.017	19.879	10.325	0.527
344.500	242.853	80.001	19.997	101.017	19.881	10.184	0.516
345.000	243.103	80.000	19.995	101.017	19.883	10.057	0.467
345.500	243.321	80.001	19.996	101.018	19.877	10.471	0.462
346.000	243.578	80.002	19.996	101.017	19.878	10.401	0.471
346.500	243.838	80.000	19.995	101.017	19.880	10.267	0.496
347.000	244.060	80.001	19.995	101.017	19.880	10.245	0.500
347.500	244.357	79.999	19.997	101.017	19.876	10.522	0.500
348.000	244.587	79.999	19.995	101.021	19.878	10.378	0.523
348.500	244.840	80.000	19.996	101.025	19.876	10.550	0.505
349.000	245.032	80.001	19.996	101.026	19.877	10.482	0.464
349.500	245.347	79.999	19.995	101.026	19.874	10.693	0.476
350.000	245.553	79.998	19.995	101.026	19.876	10.557	0.514
350.500	245.819	80.000	19.996	101.023	19.874	10.669	0.497
351.000	246.073	79.999	19.996	101.023	19.872	10.808	0.496
351.500	246.338	79.999	19.995	101.023	19.873	10.788	0.519
352.000	246.545	79.998	19.996	101.024	19.872	10.840	0.496
352.500	246.811	79.999	19.996	101.026	19.873	10.765	0.472
353.000	247.054	79.997	19.995	101.028	19.868	11.088	0.491
353.500	247.358	79.998	19.996	101.028	19.871	10.907	0.528
354.000	247.616	79.998	19.995	101.033	19.868	11.115	0.554
354.500	247.810	79.997	19.997	101.033	19.869	11.025	0.507
355.000	248.061	79.996	19.997	101.033	19.871	10.911	0.449
355.500	248.330	79.997	19.997	101.034	19.869	11.020	0.483
356.000	248.606	79.997	19.996	101.033	19.869	11.071	0.533
356.500	248.873	79.997	19.996	101.031	19.869	11.063	0.544
357.000	249.088	79.998	19.996	101.032	19.867	11.158	0.512
357.500	249.363	79.998	19.996	101.034	19.868	11.117	0.486
358.000	249.636	79.999	19.997	101.036	19.865	11.306	0.519
358.500	249.837	79.997	19.996	101.033	19.863	11.448	0.511
359.000	250.117	79.997	19.996	101.029	19.864	11.376	0.477
359.500	250.346	79.998	19.997	101.033	19.861	11.601	0.495
360.000	250.623	79.998	19.997	101.033	19.862	11.548	0.507
360.500	250.879	79.998	19.997	101.027	19.861	11.626	0.520
361.000	251.156	79.995	19.996	101.027	19.862	11.516	0.533
361.500	251.425	79.999	19.996	101.029	19.860	11.675	0.540
362.000	251.674	79.999	19.996	101.024	19.860	11.696	0.532
362.500	251.959	79.997	19.997	101.019	19.861	11.573	0.526
363.000	252.158	79.998	19.996	101.022	19.854	12.110	0.509
363.500	252.368	79.997	19.996	101.026	19.856	11.985	0.446
364.000	252.680	79.998	19.997	101.028	19.855	12.045	0.465
364.500	252.890	79.997	19.997	101.033	19.854	12.121	0.523
365.000	253.103	79.997	19.996	101.038	19.853	12.175	0.473
365.500	253.393	79.997	19.997	101.037	19.851	12.334	0.463
366.000	253.644	79.997	19.997	101.032	19.849	12.430	0.521
366.500	253.866	79.998	19.997	101.028	19.849	12.463	0.507
367.000	254.143	79.996	19.996	101.025	19.853	12.151	0.486
367.500	254.378	79.996	19.996	101.024	19.845	12.703	0.505
368.000	254.651	79.997	19.995	101.028	19.853	12.161	0.510
368.500	254.881	79.997	19.996	101.036	19.848	12.530	0.505
369.000	255.132	79.998	19.996	101.041	19.848	12.484	0.492
369.500	255.385	79.997	19.997	101.041	19.850	12.386	0.493
370.000	255.668	79.997	19.997	101.041	19.845	12.726	0.520
370.500	255.923	79.999	19.996	101.038	19.844	12.756	0.537
371.000	256.151	79.998	19.998	101.038	19.835	13.406	0.511
371.500	256.417	79.997	19.997	101.041	19.836	13.336	0.488
372.000	256.662	79.998	19.997	101.043	19.838	13.178	0.502
372.500	256.882	79.998	19.997	101.046	19.842	12.904	0.488
373.000	257.160	79.999	19.996	101.049	19.839	13.119	0.482
373.500	257.397	79.998	19.996	101.047	19.840	13.051	0.507
374.000	257.709	80.001	19.997	101.047	19.839	13.142	0.532
374.500	257.882	79.999	19.996	101.048	19.833	13.565	0.517
375.000	258.180	80.001	19.996	101.045	19.835	13.425	0.478
375.500	258.399	79.998	19.996	101.045	19.831	13.707	0.494
376.000	258.678	80.000	19.996	101.043	19.834	13.516	0.507
376.500	258.935	79.997	19.997	101.042	19.832	13.648	0.517
377.000	259.139	80.000	19.996	101.043	19.829	13.846	0.498
377.500	259.386	79.999	19.995	101.046	19.827	14.009	0.456
378.000	259.736	79.999	19.996	101.048	19.823	14.243	0.524
378.500	259.861	79.997	19.995	101.052	19.828	13.935	0.536
379.000	260.106	79.999	19.995	101.053	19.824	14.156	0.422
379.500	260.354	79.999	19.997	101.052	19.819	14.530	0.432
380.000	260.668	79.998	19.995	101.052	19.821	14.402	0.528
380.500	260.883	79.997	19.994	101.053	19.821	14.390	0.545
381.000	261.108	79.997	19.994	101.052	19.820	14.492	0.484
381.500	261.453	79.999	19.995	101.053	19.820	14.471	0.505
382.000	261.818	79.997	19.995	101.054	19.818	14.628	0.640
382.500	261.974	79.997	19.995	101.054	19.816	14.721	0.616
383.000	262.120	79.999	19.996	101.053	19.818	14.618	0.412
383.500	262.320	79.997	19.997	101.053	19.816	14.750	0.324
384.001	262.716	79.998	19.995	101.052	19.812	15.035	0.471
384.500	263.064	79.999	19.995	101.052	19.813	14.939	0.670
385.000	263.101	79.999	19.995	101.052	19.809	15.207	0.565
385.500	263.149	79.997	19.996	101.052	19.808	15.281	0.235
386.000	263.655	79.997	19.997	101.053	19.807	15.347	0.319
386.500	263.937	79.999	19.996	101.054	19.806	15.472	0.671
387.000	264.104	79.997	19.997	101.053	19.803	15.633	0.619
387.500	264.387	79.999	19.996	101.053	19.805	15.489	0.449
388.000	264.667	79.998	19.995	101.053	19.801	15.820	0.506
388.500	264.845	79.998	19.996	101.054	19.799	15.923	0.511
389.001	265.187	79.998	19.996	101.055	19.798	15.993	0.490
389.500	265.375	79.998	19.995	101.055	19.800	15.888	0.526
390.000	265.631	79.998	19.995	101.056	19.796	16.141	0.487
390.500	265.853	79.998	19.996	101.056	19.794	16.305	0.461
391.000	266.099	79.998	19.996	101.055	19.792	16.411	0.473
391.500	266.372	79.998	19.996	101.054	19.793	16.381	0.493
392.000	266.643	79.999	19.996	101.054	19.791	16.507	0.531
392.500	266.851	79.999	19.995	101.054	19.790	16.588	0.511
393.000	267.128	79.998	19.996	101.055	19.784	16.966	0.482
393.500	267.337	79.998	19.996	101.057	19.785	16.885	0.486
394.000	267.655	79.998	19.996	101.060	19.787	16.755	0.507
394.500	267.839	79.998	19.996	101.061	19.780	17.268	0.515
395.000	268.163	79.999	19.996	101.061	19.784	16.992	0.505
395.500	268.401	79.998	19.995	101.062	19.779	17.345	0.535
396.000	268.652	79.998	19.997	101.062	19.779	17.338	0.526
396.500	268.902	80.000	19.996	101.061	19.779	17.323	0.495
397.000	269.124	79.998	19.996	101.062	19.775	17.620	0.487
397.500	269.392	79.998	19.995	101.064	19.778	17.393	0.481
398.000	269.652	79.999	19.995	101.065	19.773	17.786	0.509
398.500	269.940	79.999	19.995	101.065	19.774	17.699	0.538
399.000	270.143	79.999	19.996	101.068	19.771	17.893	0.520
399.500	270.418	79.999	19.996	101.069	19.770	17.988	0.485
400.000	270.684	80.001	19.996	101.072	19.770	17.978	0.509
400.500	270.910	80.000	19.995	101.076	19.769	18.050	0.516
401.000	271.205	80.000	19.996	101.079	19.768	18.142	0.506
401.500	271.447	80.000	19.996	101.076	19.766	18.273	0.529
402.000	271.651	80.000	19.995	101.075	19.765	18.335	0.492
402.500	271.931	80.001	19.995	101.077	19.762	18.511	0.465
403.001	272.185	80.000	19.996	101.073	19.762	18.512	0.508
403.500	272.467	80.000	19.996	101.073	19.758	18.805	0.535
404.000	272.690	79.999	19.995	101.076	19.758	18.835	0.521
404.500	272.926	79.999	19.995	101.077	19.757	18.893	0.482
405.000	273.196	79.999	19.995	101.076	19.753	19.131	0.482
405.500	273.418	80.000	19.995	101.073	19.751	19.283	0.499
406.000	273.651	80.000	19.996	101.069	19.750	19.347	0.474
406.500	273.885	80.000	19.995	101.072	19.751	19.273	0.461
407.000	274.197	79.999	19.995	101.075	19.751	19.315	0.506
407.500	274.419	79.999	19.996	101.073	19.750	19.370	0.540
408.000	274.690	79.998	19.995	101.077	19.747	19.572	0.513
408.500	274.888	80.000	19.996	101.083	19.749	19.470	0.481
409.000	275.202	79.998	19.996	101.084	19.747	19.578	0.491
409.500	275.414	79.999	19.994	101.085	19.748	19.517	0.519
410.000	275.660	79.998	19.994	101.089	19.743	19.840	0.492
410.500	275.911	79.999	19.994	101.092	19.744	19.789	0.477
411.000	276.171	79.998	19.994	101.092	19.739	20.150	0.504
411.500	276.472	79.999	19.995	101.091	19.741	20.035	0.536
412.000	276.694	79.999	19.994	101.092	19.740	20.064	0.542
412.500	276.942	79.999	19.995	101.093	19.735	20.415	0.496
413.000	277.187	79.999	19.995	101.093	19.735	20.386	0.482
413.500	277.455	79.999	19.994	101.094	19.734	20.469	0.503
414.000	277.660	79.998	19.995	101.096	19.734	20.501	0.493
414.500	277.954	80.000	19.995	101.096	19.732	20.615	0.486
415.000	278.177	79.998	19.994	101.096	19.730	20.759	0.508
415.500	278.473	79.998	19.995	101.095	19.730	20.754	0.517
416.000	278.726	79.998	19.995	101.095	19.729	20.816	0.534
416.501	278.914	79.996	19.995	101.096	19.726	21.062	0.496
417.000	279.193	79.998	19.994	101.096	19.726	21.026	0.454
417.500	279.452	79.999	19.995	101.097	19.723	21.237	0.502
418.000	279.672	79.998	19.995	101.097	19.721	21.430	0.508
418.500	279.938	79.999	19.995	101.098	19.718	21.627	0.483
419.000	280.198	79.998	19.994	101.099	19.715	21.807	0.506
419.500	280.441	79.998	19.995	101.099	19.713	21.935	0.514
420.001	280.710	79.998	19.995	101.099	19.713	21.927	0.507
420.501	280.933	79.998	19.994	101.098	19.712	22.005	0.502
421.001	281.194	80.000	19.995	101.098	19.713	21.984	0.488
421.500	281.458	79.999	19.995	101.097	19.710	22.156	0.504
422.000	281.720	79.999	19.995	101.098	19.713	21.983	0.526
422.500	281.986	79.998	19.995	101.099	19.709	22.269	0.527
423.000	282.246	80.000	19.995	101.099	19.708	22.294	0.528
423.500	282.495	79.999	19.995	101.098	19.706	22.442	0.518
424.000	282.730	80.000	19.995	101.098	19.704	22.618	0.496
424.500	283.015	80.000	19.995	101.097	19.702	22.700	0.502
425.000	283.264	80.000	19.996	101.096	19.699	22.952	0.527
425.500	283.525	80.000	19.997	101.098	19.703	22.679	0.522
426.000	283.749	80.000	19.998	101.100	19.700	22.873	0.497
426.500	284.007	80.001	19.997	101.101	19.698	23.015	0.483
427.000	284.237	80.001	19.996	101.101	19.696	23.117	0.485
427.500	284.511	80.000	19.997	101.103	19.693	23.324	0.496
428.000	284.757	80.000	19.997	101.102	19.686	23.829	0.512
428.500	285.046	80.000	19.997	101.100	19.687	23.793	0.527
429.000	285.303	79.999	19.996	101.100	19.686	23.829	0.540
429.500	285.554	80.000	19.995	101.103	19.685	23.937	0.527
430.000	285.804	80.000	19.996	101.103	19.683	24.089	0.505
430.500	286.052	80.000	19.996	101.102	19.680	24.265	0.500
431.000	286.330	80.000	19.996	101.102	19.680	24.248	0.512
431.500	286.553	79.998	19.996	101.103	19.682	24.117	0.513
432.000	286.799	80.000	19.996	101.101	19.674	24.664	0.485
432.500	287.034	80.000	19.997	101.103	19.674	24.656	0.475
433.000	287.308	80.000	19.995	101.106	19.672	24.807	0.495
433.500	287.529	80.000	19.996	101.110	19.672	24.844	0.502
434.000	287.831	79.998	19.997	101.111	19.666	25.241	0.509
434.500	288.028	79.999	19.996	101.113	19.665	25.333	0.511
435.000	288.322	79.998	19.996	101.113	19.662	25.554	0.495
435.500	288.602	79.999	19.997	101.111	19.664	25.380	0.533
436.000	288.847	79.998	19.997	101.110	19.665	25.347	0.550
436.500	289.076	79.998	19.996	101.108	19.659	25.749	0.499
437.000	289.331	79.998	19.996	101.107	19.654	26.060	0.479
437.500	289.615	79.998	19.996	101.106	19.653	26.138	0.512
438.000	289.830	79.998	19.997	101.106	19.653	26.195	0.520
438.500	290.093	79.997	19.994	101.104	19.650	26.376	0.489
439.000	290.332	79.997	19.997	101.103	19.651	26.275	0.490
439.500	290.584	79.998	19.996	101.104	19.648	26.512	0.496
440.000	290.860	79.998	19.996	101.104	19.647	26.591	0.509
440.500	291.146	79.998	19.996	101.105	19.646	26.653	0.545
441.000	291.384	79.999	19.996	101.111	19.644	26.818	0.543
441.500	291.630	79.999	19.995	101.117	19.641	27.032	0.503
442.000	291.869	79.998	19.996	101.117	19.638	27.192	0.484
442.500	292.131	79.998	19.996	101.118	19.639	27.168	0.493
443.000	292.363	79.998	19.996	101.118	19.639	27.146	0.498
443.500	292.622	79.997	19.996	101.118	19.633	27.566	0.492
444.000	292.891	79.996	19.996	101.119	19.632	27.653	0.509
444.500	293.152	79.997	19.996	101.120	19.630	27.749	0.529
445.000	293.429	79.995	19.996	101.123	19.629	27.811	0.534
445.500	293.675	79.997	19.996	101.126	19.632	27.640	0.531
446.000	293.910	79.998	19.996	101.126	19.626	28.058	0.503
446.500	294.170	79.997	19.995	101.126	19.627	27.988	0.488
447.000	294.438	79.997	19.995	101.129	19.625	28.139	0.511
447.500	294.648	79.997	19.997	101.128	19.623	28.236	0.503
448.000	294.887	79.998	19.997	101.126	19.620	28.474	0.463
448.500	295.137	79.996	19.996	101.126	19.619	28.571	0.470
449.000	295.381	79.996	19.996	101.127	19.614	28.858	0.492
449.500	295.637	79.996	19.996	101.127	19.616	28.721	0.496
450.000	295.907	79.997	19.997	101.128	19.617	28.694	0.513
450.500	296.162	79.996	19.996	101.131	19.615	28.803	0.526
451.000	296.403	79.997	19.997	101.130	19.616	28.768	0.510
451.500	296.624	79.996	19.997	101.131	19.612	29.060	0.479
452.000	296.894	79.997	19.997	101.131	19.609	29.279	0.477
452.500	297.183	79.996	19.996	101.132	19.606	29.467	0.525
453.000	297.436	79.997	19.996	101.132	19.600	29.843	0.551
453.500	297.664	79.997	19.997	101.134	19.599	29.948	0.512
454.000	297.883	79.996	19.997	101.135	19.595	30.226	0.464
454.500	298.150	79.998	19.996	101.136	19.596	30.191	0.466
455.000	298.387	79.997	19.996	101.135	19.591	30.491	0.495
455.500	298.692	79.998	19.996	101.135	19.593	30.402	0.523
456.000	298.928	79.998	19.997	101.133	19.588	30.731	0.541
456.500	299.154	79.998	19.996	101.132	19.586	30.836	0.501
457.000	299.443	79.997	19.996	101.131	19.583	31.073	0.489
457.500	299.684	79.998	19.996	101.132	19.580	31.249	0.523
458.000	299.891	79.997	19.996	101.132	19.577	31.482	0.489
458.500	300.151	79.997	19.996	101.134	19.579	31.339	0.457
459.000	300.425	79.997	19.997	101.134	19.579	31.347	0.500
459.500	300.671	79.997	19.996	101.135	19.574	31.701	0.527
460.000	300.928	79.998	19.997	101.134	19.575	31.648	0.511
460.500	301.171	79.997	19.996	101.136	19.567	32.215	0.501
461.000	301.434	79.997	19.997	101.136	19.567	32.202	0.503
461.500	301.674	79.998	19.997	101.139	19.565	32.316	0.505
462.000	301.976	79.996	19.997	101.143	19.564	32.384	0.523
462.500	302.197	79.996	19.996	101.147	19.562	32.514	0.532
463.000	302.449	79.996	19.997	101.146	19.557	32.898	0.498
463.500	302.730	79.997	19.996	101.147	19.557	32.884	0.503
464.000	302.979	79.998	19.996	101.148	19.552	33.256	0.532
464.500	303.262	79.998	19.997	101.149	19.553	33.139	0.531
465.000	303.523	79.997	19.996	101.149	19.550	33.354	0.538
465.500	303.734	79.997	19.996	101.153	19.546	33.647	0.508
466.000	304.013	79.997	19.996	101.158	19.545	33.706	0.481
466.500	304.254	79.997	19.996	101.158	19.539	34.127	0.505
467.000	304.502	79.996	19.996	101.159	19.540	34.088	0.504
467.501	304.736	79.998	19.996	101.160	19.534	34.533	0.485
468.000	304.972	79.996	19.995	101.163	19.534	34.525	0.476
468.500	305.244	79.996	19.994	101.164	19.533	34.577	0.489
469.000	305.465	79.997	19.995	101.166	19.529	34.823	0.501
469.500	305.719	79.998	19.995	101.167	19.529	34.842	0.484
470.000	305.990	79.996	19.995	101.169	19.524	35.173	0.500
470.500	306.249	79.996	19.997	101.169	19.523	35.300	0.527
471.000	306.470	79.997	19.996	101.170	19.522	35.337	0.505
471.500	306.758	79.997	19.995	101.170	19.521	35.441	0.495
472.000	307.007	79.997	19.996	101.171	19.517	35.730	0.523
472.500	307.247	79.996	19.995	101.172	19.515	35.853	0.513
473.000	307.508	79.998	19.996	101.170	19.514	35.905	0.495
473.500	307.734	79.997	19.997	101.170	19.513	36.005	0.494
474.000	308.006	79.996	19.996	101.171	19.510	36.158	0.492
474.500	308.255	79.996	19.995	101.169	19.506	36.447	0.509
475.000	308.507	79.997	19.996	101.166	19.501	36.833	0.511
475.500	308.777	79.998	19.996	101.167	19.496	37.187	0.511
476.000	309.035	79.998	19.995	101.165	19.496	37.139	0.525
476.500	309.268	79.996	19.995	101.165	19.493	37.358	0.510
477.000	309.515	79.997	19.996	101.166	19.491	37.514	0.486
477.500	309.775	79.997	19.995	101.170	19.489	37.655	0.494
478.000	310.019	79.997	19.995	101.171	19.486	37.886	0.505
478.500	310.306	79.996	19.995	101.173	19.483	38.064	0.517
479.000	310.519	79.998	19.994	101.174	19.480	38.269	0.515
479.500	310.802	79.997	19.995	101.175	19.478	38.427	0.499
480.000	311.064	79.998	19.996	101.175	19.477	38.536	0.521
480.500	311.325	79.998	19.995	101.175	19.472	38.869	0.534
481.000	311.560	79.998	19.995	101.176	19.471	38.927	0.509
481.501	311.781	79.998	19.995	101.178	19.467	39.190	0.476
482.000	312.054	79.997	19.995	101.185	19.466	39.296	0.475
482.500	312.331	79.997	19.995	101.186	19.459	39.763	0.522
483.000	312.556	79.998	19.995	101.185	19.459	39.732	0.526
483.500	312.839	79.998	19.995	101.185	19.457	39.925	0.505
484.000	313.068	79.998	19.995	101.182	19.449	40.431	0.510
484.500	313.319	79.999	19.995	101.176	19.445	40.719	0.496
485.000	313.605	79.999	19.995	101.176	19.446	40.664	0.509
485.500	313.862	79.997	19.995	101.179	19.445	40.780	0.540
486.000	314.101	79.998	19.996	101.185	19.441	41.028	0.520
486.500	314.344	79.999	19.995	101.192	19.435	41.467	0.489
487.000	314.647	79.997	19.995	101.196	19.434	41.496	0.514
487.500	314.854	79.999	19.995	101.199	19.431	41.716	0.528
488.000	315.127	79.998	19.994	101.201	19.429	41.871	0.495
488.500	315.377	79.999	19.995	101.199	19.426	42.099	0.502
489.001	315.590	79.998	19.995	101.199	19.423	42.305	0.493
489.500	315.871	80.000	19.996	101.199	19.421	42.407	0.478
490.000	316.099	79.999	19.995	101.202	19.419	42.603	0.501
490.500	316.361	80.001	19.997	101.205	19.413	42.991	0.500
491.000	316.649	79.999	19.996	101.208	19.412	43.076	0.520
491.500	316.857	79.999	19.996	101.209	19.409	43.289	0.523
492.000	317.160	79.999	19.995	101.211	19.402	43.772	0.504
492.500	317.386	79.999	19.995	101.212	19.401	43.825	0.520
493.000	317.617	79.999	19.997	101.211	19.397	44.084	0.493
493.500	317.896	80.001	19.996	101.211	19.394	44.328	0.483
494.000	318.140	79.999	19.995	101.210	19.391	44.500	0.517
494.500	318.355	79.997	19.995	101.208	19.387	44.837	0.491
495.000	318.640	79.998	19.996	101.208	19.385	44.940	0.480
495.500	318.906	79.999	19.995	101.208	19.381	45.234	0.525
496.000	319.121	80.001	19.996	101.209	19.376	45.577	0.516
496.500	319.358	79.999	19.996	101.209	19.376	45.623	0.466
497.000	319.607	80.000	19.995	101.211	19.373	45.829	0.469
497.500	319.874	80.000	19.996	101.211	19.367	46.189	0.501
498.000	320.108	79.999	19.996	101.211	19.364	46.411	0.508
498.500	320.340	79.999	19.995	101.213	19.362	46.601	0.483
499.000	320.615	79.998	19.996	101.214	19.360	46.702	0.487
499.500	320.860	79.998	19.995	101.215	19.357	46.919	0.513
500.000	321.125	80.000	19.996	101.214	19.352	47.275	0.515
500.500	321.381	79.999	19.996	101.214	19.348	47.536	0.516
501.000	321.638	80.000	19.995	101.212	19.347	47.649	0.517
501.500	321.884	80.000	19.996	101.212	19.343	47.931	0.508
502.000	322.081	80.000	19.997	101.212	19.339	48.209	0.473
502.500	322.387	80.000	19.995	101.215	19.335	48.462	0.473
503.000	322.624	80.000	19.996	101.216	19.334	48.570	0.523
503.500	322.877	79.999	19.996	101.216	19.329	48.878	0.516
504.000	323.129	80.000	19.995	101.216	19.327	49.018	0.498
504.500	323.376	80.000	19.995	101.217	19.322	49.406	0.503
505.000	323.608	80.000	19.995	101.220	19.320	49.521	0.489
505.500	323.882	80.000	19.995	101.225	19.315	49.835	0.492
506.000	324.118	80.000	19.996	101.231	19.311	50.173	0.508
506.500	324.359	80.000	19.996	101.238	19.308	50.378	0.494
507.000	324.606	80.000	19.995	101.243	19.304	50.671	0.483
507.500	324.888	80.001	19.995	101.244	19.303	50.704	0.509
508.000	325.132	80.000	19.995	101.244	19.299	50.984	0.527
508.500	325.370	80.001	19.994	101.244	19.293	51.394	0.504
509.000	325.640	80.001	19.995	101.242	19.290	51.598	0.495
509.500	325.882	80.000	19.995	101.239	19.286	51.882	0.510
510.000	326.150	80.001	19.996	101.237	19.282	52.153	0.511
510.500	326.405	80.001	19.996	101.236	19.281	52.247	0.517
511.000	326.657	80.000	19.995	101.236	19.278	52.426	0.515
511.500	326.872	79.999	19.996	101.239	19.272	52.856	0.487
512.000	327.137	80.000	19.995	101.242	19.271	52.955	0.473
512.500	327.400	80.002	19.996	101.246	19.268	53.153	0.503
513.000	327.655	80.001	19.995	101.247	19.263	53.500	0.523
513.500	327.924	79.999	19.997	101.249	19.260	53.714	0.522
514.000	328.159	80.001	19.997	101.249	19.252	54.289	0.514
514.500	328.377	80.000	19.996	101.249	19.250	54.394	0.478
515.000	328.632	79.999	19.996	101.249	19.250	54.450	0.463
515.500	328.929	79.999	19.996	101.249	19.246	54.704	0.513
516.000	329.131	80.000	19.997	101.247	19.241	55.048	0.526
516.500	329.410	80.000	19.996	101.246	19.239	55.210	0.490
517.000	329.689	79.999	19.997	101.247	19.237	55.336	0.520
517.500	329.917	79.999	19.996	101.246	19.229	55.890	0.533
518.000	330.180	79.998	19.996	101.247	19.230	55.847	0.499
518.500	330.414	79.997	19.996	101.247	19.222	56.381	0.494
519.000	330.675	79.999	19.997	101.248	19.221	56.439	0.496
519.500	330.931	79.996	19.996	101.250	19.217	56.753	0.506
520.000	331.184	79.999	19.996	101.250	19.217	56.761	0.513
520.500	331.436	79.998	19.997	101.250	19.210	57.214	0.507
521.000	331.698	79.997	19.998	101.250	19.207	57.469	0.509
521.500	331.923	79.997	19.997	101.250	19.208	57.344	0.501
522.000	332.177	79.997	19.996	101.248	19.205	57.600	0.483
522.500	332.413	79.998	19.997	101.248	19.201	57.831	0.485
523.000	332.664	79.998	19.997	101.251	19.198	58.059	0.488
523.500	332.921	79.997	19.996	101.252	19.193	58.449	0.497
524.000	333.178	79.999	19.998	101.253	19.191	58.573	0.511
524.500	333.455	79.998	19.996	101.253	19.187	58.856	0.524
525.000	333.669	79.999	19.995	101.253	19.187	58.837	0.513
525.500	333.945	79.998	19.997	101.255	19.184	59.071	0.491
526.000	334.177	79.998	19.996	101.254	19.179	59.375	0.499
526.500	334.448	79.998	19.996	101.254	19.177	59.544	0.506
527.000	334.709	79.996	19.996	101.254	19.173	59.810	0.518
527.500	334.952	79.999	19.997	101.256	19.170	60.036	0.518
528.000	335.197	79.999	19.996	101.254	19.169	60.085	0.496
528.500	335.452	79.998	19.997	101.254	19.169	60.099	0.494
529.000	335.703	79.999	19.998	101.254	19.165	60.376	0.503
529.500	335.951	79.997	19.997	101.255	19.162	60.621	0.502
530.000	336.222	79.997	19.997	101.256	19.158	60.887	0.508
530.500	336.422	79.998	19.997	101.256	19.155	61.061	0.495
531.000	336.708	79.998	19.996	101.257	19.156	61.005	0.479
531.500	336.932	79.998	19.997	101.258	19.155	61.099	0.498
532.000	337.181	79.997	19.996	101.258	19.151	61.334	0.491
532.500	337.433	79.998	19.997	101.258	19.147	61.630	0.487
533.000	337.697	79.999	19.996	101.259	19.147	61.643	0.509
533.500	337.921	79.999	19.997	101.262	19.144	61.857	0.502
534.000	338.201	79.999	19.996	101.266	19.142	62.015	0.496
534.500	338.429	79.998	19.997	101.267	19.142	61.990	0.506
535.000	338.665	79.999	19.996	101.265	19.140	62.128	0.486
535.500	338.961	79.998	19.996	101.267	19.140	62.158	0.498
536.000	339.216	79.999	19.996	101.267	19.139	62.206	0.542
536.500	339.453	80.000	19.996	101.263	19.132	62.708	0.522
537.000	339.693	80.000	19.996	101.264	19.132	62.662	0.485
537.500	339.923	79.999	19.997	101.265	19.130	62.819	0.473
538.000	340.196	79.998	19.996	101.261	19.131	62.752	0.486
538.500	340.439	79.998	19.995	101.258	19.129	62.909	0.510
539.000	340.723	79.998	19.995	101.256	19.129	62.883	0.521
539.500	340.935	79.999	19.996	101.253	19.127	62.998	0.512
540.000	341.172	79.998	19.997	101.252	19.125	63.182	0.473
540.500	341.443	79.999	19.997	101.252	19.127	63.040	0.479
541.000	341.696	80.000	19.997	101.252	19.126	63.082	0.516
541.500	341.929	79.998	19.996	101.252	19.127	63.025	0.505
542.000	342.197	79.995	19.994	101.249	19.124	63.256	0.493
542.500	342.419	79.998	19.997	101.249	19.123	63.288	0.496
543.000	342.694	80.011	19.999	101.249	19.127	62.987	0.494
543.500	342.973	80.017	20.002	101.250	19.126	63.119	0.525
544.000	343.170	80.017	20.003	101.256	19.123	63.280	0.515
544.500	343.431	80.017	20.003	101.259	19.123	63.300	0.467
545.000	343.679	80.017	20.001	101.261	19.124	63.240	0.483
545.500	343.941	80.011	20.001	101.261	19.124	63.193	0.509
546.000	344.184	79.999	19.998	101.260	19.125	63.134	0.508
546.500	344.413	79.997	19.998	101.253	19.126	63.085	0.489
547.000	344.669	79.995	19.997	101.252	19.127	63.038	0.479
547.500	344.951	79.999	19.998	101.243	19.129	62.838	0.511
548.000	345.161	79.997	19.997	101.240	19.126	63.073	0.515
548.500	345.453	79.996	19.997	101.235	19.130	62.784	0.497
549.000	345.693	79.998	19.997	101.232	19.129	62.882	0.517
549.500	345.931	79.997	19.996	101.228	19.132	62.669	0.505
550.000	346.192	79.996	19.997	101.227	19.132	62.664	0.489
550.500	346.420	79.998	19.998	101.225	19.134	62.542	0.494
551.000	346.672	79.995	19.997	101.224	19.135	62.449	0.484
551.500	346.924	79.996	19.996	101.220	19.138	62.210	0.492
552.000	347.197	79.996	19.998	101.218	19.140	62.113	0.515
552.500	347.407	79.997	19.996	101.218	19.144	61.823	0.504
553.000	347.702	79.996	19.998	101.215	19.145	61.713	0.494
553.500	347.926	79.999	19.999	101.214	19.144	61.773	0.512
554.000	348.160	79.998	19.997	101.213	19.147	61.595	0.488
554.500	348.415	79.997	19.998	101.213	19.152	61.220	0.473
555.000	348.671	79.997	19.997	101.213	19.150	61.356	0.500
555.500	348.928	79.998	19.997	101.213	19.155	61.037	0.512
556.000	349.197	79.998	19.997	101.214	19.157	60.894	0.519
556.500	349.442	79.998	19.996	101.214	19.161	60.621	0.520
557.000	349.686	79.996	19.996	101.213	19.160	60.669	0.502
557.500	349.960	79.997	19.996	101.211	19.164	60.388	0.503
558.000	350.186	79.998	19.997	101.208	19.167	60.147	0.509
558.500	350.426	79.998	19.996	101.205	19.173	59.738	0.483
559.000	350.673	79.999	19.997	101.200	19.175	59.576	0.476
559.500	350.921	79.998	19.996	101.198	19.176	59.534	0.491
560.000	351.199	79.999	19.997	101.194	19.182	59.118	0.511
560.500	351.429	79.998	19.997	101.193	19.185	58.915	0.518
561.000	351.697	79.999	19.996	101.190	19.186	58.865	0.503
561.500	351.940	79.999	19.996	101.189	19.192	58.442	0.504
562.000	352.219	80.000	19.995	101.189	19.196	58.105	0.517
562.500	352.467	79.998	19.996	101.190	19.198	57.970	0.525
563.000	352.733	79.999	19.995	101.187	19.202	57.704	0.520
563.500	352.978	80.000	19.995	101.182	19.206	57.464	0.513
564.000	353.265	80.000	19.997	101.181	19.212	57.036	0.522
564.500	353.513	79.998	19.996	101.175	19.215	56.800	0.534
565.000	353.758	80.000	19.996	101.171	19.221	56.388	0.514
565.500	354.042	79.998	19.996	101.167	19.224	56.136	0.511
566.000	354.269	79.999	19.996	101.164	19.234	55.425	0.520
566.500	354.529	80.000	19.996	101.162	19.235	55.419	0.499
567.000	354.786	80.000	19.994	101.156	19.241	54.988	0.502
567.500	355.034	80.000	19.995	101.149	19.245	54.660	0.511
568.000	355.299	80.001	19.995	101.144	19.250	54.303	0.509
568.500	355.498	79.999	19.997	101.142	19.256	53.916	0.489
569.000	355.763	79.999	19.995	101.137	19.263	53.451	0.464
569.500	356.012	80.001	19.995	101.136	19.263	53.455	0.489
570.000	356.267	80.000	19.995	101.137	19.268	53.092	0.509
570.500	356.523	79.998	19.996	101.136	19.274	52.655	0.508
571.000	356.760	80.001	19.997	101.135	19.280	52.255	0.502
571.500	357.002	80.001	19.996	101.135	19.284	51.921	0.485
572.000	357.291	80.000	19.994	101.133	19.290	51.530	0.505
572.500	357.568	80.000	19.996	101.131	19.301	50.776	0.549
573.000	357.765	79.998	19.995	101.129	19.305	50.447	0.520
573.500	358.022	79.998	19.996	101.128	19.305	50.444	0.464
574.000	358.274	79.997	19.996	101.126	19.313	49.930	0.482
574.500	358.578	79.998	19.995	101.126	19.321	49.323	0.533
575.000	358.791	79.999	19.996	101.120	19.328	48.832	0.537
575.500	359.039	79.998	19.997	101.114	19.333	48.525	0.489
576.000	359.296	80.000	19.995	101.109	19.338	48.168	0.483
576.500	359.542	80.000	19.996	101.103	19.346	47.626	0.504
577.000	359.789	79.998	19.995	101.096	19.353	47.097	0.498
577.500	360.021	79.996	19.996	101.095	19.359	46.666	0.486
578.001	360.278	79.999	19.996	101.094	19.368	46.035	0.484
578.500	360.549	79.999	19.997	101.093	19.375	45.605	0.509
579.000	360.801	79.999	19.996	101.092	19.382	45.115	0.526
579.500	361.057	79.999	19.996	101.092	19.388	44.648	0.515
580.000	361.303	80.000	19.996	101.093	19.392	44.384	0.505
580.500	361.546	79.999	19.996	101.093	19.401	43.727	0.495
581.000	361.798	80.000	19.995	101.093	19.411	43.072	0.492
581.500	362.094	79.998	19.996	101.092	19.415	42.807	0.521
582.000	362.331	79.999	19.996	101.089	19.422	42.256	0.541
582.500	362.567	79.999	19.995	101.083	19.427	41.920	0.503
583.000	362.799	79.999	19.995	101.078	19.433	41.529	0.471
583.500	363.100	79.997	19.996	101.075	19.442	40.868	0.501
584.000	363.277	79.999	19.997	101.070	19.449	40.408	0.506
584.500	363.531	80.000	19.995	101.065	19.453	40.147	0.454
585.000	363.788	80.000	19.997	101.063	19.459	39.669	0.471
585.500	364.039	80.000	19.996	101.060	19.467	39.135	0.509
586.000	364.283	80.000	19.996	101.055	19.474	38.612	0.501
586.500	364.554	80.000	19.996	101.053	19.480	38.238	0.505
587.000	364.811	80.003	19.997	101.053	19.488	37.638	0.521
587.501	365.075	79.999	19.995	101.053	19.494	37.221	0.525
588.001	365.316	80.002	19.996	101.053	19.504	36.535	0.513
588.500	365.567	80.002	19.995	101.053	19.506	36.390	0.499
589.000	365.801	80.000	19.996	101.052	19.515	35.748	0.489
589.500	366.038	80.001	19.995	101.050	19.524	35.143	0.478
590.000	366.315	80.000	19.995	101.048	19.530	34.726	0.492
590.500	366.547	79.998	19.995	101.046	19.535	34.390	0.512
591.000	366.826	80.004	19.996	101.043	19.545	33.712	0.510
591.500	367.096	79.999	19.996	101.039	19.550	33.304	0.530
592.000	367.327	80.002	19.996	101.039	19.558	32.768	0.525
592.500	367.561	80.002	19.996	101.041	19.564	32.375	0.483
593.000	367.849	80.001	19.995	101.042	19.571	31.834	0.493
593.500	368.087	80.002	19.995	101.043	19.574	31.626	0.524
594.000	368.308	79.999	19.996	101.043	19.581	31.155	0.493
594.500	368.583	80.002	19.995	101.043	19.590	30.556	0.478
595.000	368.876	80.001	19.994	101.036	19.598	29.993	0.532
595.500	369.111	80.000	19.996	101.029	19.602	29.673	0.548
596.000	369.373	80.000	19.995	101.025	19.606	29.446	0.512
596.500	369.605	79.999	19.994	101.021	19.610	29.112	0.495
597.000	369.853	79.999	19.995	101.016	19.618	28.573	0.487
597.500	370.108	79.999	19.995	101.016	19.626	28.026	0.491
598.000	370.384	79.998	19.995	101.016	19.626	27.982	0.517
598.500	370.607	80.001	19.995	101.017	19.636	27.320	0.515
599.000	370.856	79.999	19.995	101.017	19.639	27.069	0.485
599.500	371.111	79.998	19.996	101.016	19.646	26.605	0.488
600.000	371.353	79.997	19.995	101.016	19.655	25.967	0.501
600.500	371.605	79.999	19.995	101.014	19.657	25.872	0.495
601.000	371.893	79.999	19.995	101.013	19.664	25.353	0.517
601.500	372.101	79.998	19.995	101.014	19.666	25.209	0.518
602.000	372.385	79.997	19.995	101.013	19.675	24.621	0.495
602.500	372.610	79.997	19.995	101.014	19.680	24.257	0.501
603.000	372.880	79.999	19.995	101.014	19.683	24.057	0.502
603.500	373.144	79.998	19.996	101.014	19.691	23.462	0.514
604.000	373.417	79.996	19.996	101.015	19.696	23.145	0.535
604.500	373.657	79.998	19.995	101.015	19.697	23.041	0.525
605.000	373.942	79.998	19.994	101.011	19.701	22.749	0.519
605.500	374.171	79.998	19.996	101.010	19.707	22.330	0.520
606.000	374.442	79.998	19.997	101.009	19.712	21.987	0.507
606.500	374.677	79.998	19.996	101.005	19.716	21.703	0.502
607.000	374.931	79.998	19.996	101.005	19.721	21.356	0.498
607.500	375.161	79.997	19.996	101.005	19.726	21.037	0.487
608.000	375.432	79.996	19.996	101.001	19.727	20.960	0.492
608.500	375.681	79.999	19.996	100.997	19.737	20.261	0.510
609.000	375.950	79.997	19.996	100.995	19.739	20.104	0.519
609.500	376.193	79.997	19.995	100.988	19.746	19.659	0.515
610.000	376.453	79.998	19.996	100.983	19.751	19.302	0.508
610.500	376.652	79.996	19.995	100.982	19.751	19.270	0.482
611.000	376.918	79.996	19.996	100.982	19.755	18.998	0.462
611.500	377.204	79.997	19.995	100.980	19.758	18.767	0.508
612.000	377.418	79.998	19.996	100.980	19.761	18.580	0.525
612.500	377.686	79.996	19.997	100.980	19.767	18.142	0.491
613.000	377.930	79.996	19.996	100.983	19.768	18.102	0.498
613.500	378.164	79.998	19.995	100.982	19.773	17.727	0.495
614.000	378.429	79.994	19.996	100.983	19.776	17.529	0.488
614.500	378.665	79.997	19.996	100.983	19.780	17.250	0.500
615.001	378.915	79.996	19.996	100.984	19.783	17.048	0.493
615.500	379.184	79.999	19.997	100.983	19.783	17.031	0.502
616.000	379.456	79.997	19.997	100.984	19.788	16.718	0.530
616.500	379.694	79.997	19.997	100.983	19.791	16.476	0.526
617.000	379.943	79.997	19.996	100.984	19.796	16.165	0.499
617.500	380.204	79.998	19.996	100.983	19.799	15.959	0.498
618.000	380.448	79.999	19.997	100.982	19.801	15.791	0.508
618.500	380.677	79.998	19.996	100.983	19.803	15.644	0.489
619.000	380.924	79.999	19.997	100.983	19.806	15.446	0.475
619.500	381.163	79.997	19.996	100.982	19.807	15.398	0.481
620.000	381.439	79.998	19.996	100.981	19.812	14.993	0.500
620.500	381.693	79.998	19.996	100.981	19.814	14.853	0.522
621.000	381.906	79.997	19.996	100.979	19.814	14.892	0.498
621.500	382.155	79.998	19.996	100.979	19.815	14.798	0.465
622.000	382.436	79.998	19.997	100.978	19.820	14.470	0.496
622.500	382.686	79.999	19.996	100.977	19.824	14.173	0.530
623.000	382.918	79.997	19.997	100.977	19.827	13.953	0.506
623.500	383.150	79.999	19.995	100.975	19.826	14.049	0.473
624.000	383.452	79.998	19.996	100.974	19.830	13.784	0.499
624.500	383.676	80.001	19.996	100.975	19.831	13.658	0.530
625.000	383.896	79.998	19.996	100.976	19.834	13.475	0.485
625.500	384.153	80.000	19.996	100.975	19.837	13.255	0.461
626.000	384.393	80.000	19.997	100.976	19.836	13.359	0.488
626.501	384.664	79.998	19.996	100.976	19.839	13.117	0.504
627.001	384.901	80.000	19.996	100.976	19.839	13.142	0.509
627.500	385.154	79.998	19.996	100.976	19.843	12.847	0.499
628.000	385.402	79.997	19.996	100.976	19.844	12.798	0.496
628.500	385.641	79.999	19.997	100.976	19.846	12.670	0.494
629.000	385.883	80.000	19.996	100.977	19.845	12.742	0.484
629.500	386.106	80.000	19.995	100.977	19.847	12.546	0.473
630.000	386.395	79.998	19.995	100.977	19.850	12.344	0.489
630.500	386.588	79.999	19.997	100.976	19.850	12.363	0.497
631.000	386.861	79.997	19.996	100.976	19.852	12.206	0.474
631.500	387.108	79.998	19.996	100.975	19.853	12.184	0.493
632.000	387.339	79.998	19.996	100.975	19.853	12.181	0.499
632.500	387.614	79.997	19.997	100.975	19.855	12.038	0.492
633.000	387.875	79.997	19.996	100.975	19.855	12.014	0.521
633.500	388.089	79.997	19.996	100.975	19.852	12.193	0.505
634.000	388.363	79.996	19.997	100.975	19.860	11.692	0.482
634.500	388.619	80.001	19.997	100.975	19.857	11.840	0.509
635.000	388.863	79.996	19.997	100.974	19.860	11.661	0.515
635.500	389.075	79.996	19.997	100.976	19.858	11.791	0.478
636.000	389.383	79.998	19.998	100.978	19.857	11.883	0.488
636.500	389.567	79.997	19.996	100.979	19.864	11.415	0.506
637.000	389.873	79.997	19.998	100.981	19.863	11.460	0.491
637.500	390.128	79.996	19.997	100.982	19.861	11.590	0.525
638.000	390.362	79.996	19.997	100.981	19.861	11.605	0.525
638.500	390.595	79.998	19.997	100.979	19.861	11.577	0.478
639.000	390.886	79.997	19.997	100.982	19.863	11.466	0.496
639.500	391.134	79.998	19.997	100.984	19.863	11.434	0.531
640.000	391.399	79.999	19.996	100.985	19.863	11.438	0.526
640.500	391.613	79.997	19.998	100.988	19.863	11.483	0.496
641.000	391.870	79.999	19.998	100.989	19.865	11.300	0.475
641.500	392.120	79.999	19.997	100.987	19.865	11.332	0.489
642.000	392.378	79.999	19.997	100.985	19.866	11.245	0.508
642.500	392.635	79.998	19.997	100.988	19.863	11.483	0.511
643.000	392.873	79.998	19.997	100.983	19.865	11.315	0.505
643.500	393.112	79.999	19.997	100.985	19.864	11.397	0.486
644.000	393.351	79.999	19.997	100.986	19.864	11.381	0.477
644.500	393.650	79.998	19.997	100.985	19.867	11.151	0.508
645.000	393.938	79.999	19.996	100.983	19.866	11.222	0.563
645.500	394.179	80.000	19.997	100.985	19.864	11.418	0.557
646.000	394.455	80.000	19.997	100.985	19.866	11.231	0.523
646.500	394.694	80.000	19.998	100.984	19.866	11.266	0.516
647.000	394.962	80.000	19.996	100.982	19.870	10.964	0.511
647.500	395.213	80.000	19.997	100.980	19.867	11.164	0.513
648.000	395.447	79.997	19.997	100.979	19.866	11.245	0.502
648.500	395.705	79.999	19.997	100.977	19.866	11.221	0.488
649.000	395.961	80.000	19.996	100.977	19.866	11.247	0.503
649.500	396.250	80.001	19.997	100.980	19.869	11.070	0.530
650.000	396.480	79.999	19.995	100.984	19.868	11.125	0.532
650.500	396.725	79.999	19.996	100.986	19.872	10.817	0.497
651.000	396.960	79.999	19.996	100.987	19.874	10.701	0.478
651.500	397.201	80.000	19.997	100.986	19.872	10.832	0.478
652.000	397.455	80.000	19.996	100.983	19.872	10.815	0.485
652.500	397.708	79.999	19.997	100.982	19.870	10.984	0.501
653.000	397.963	79.999	19.997	100.982	19.871	10.896	0.508
653.500	398.233	79.999	19.997	100.985	19.873	10.737	0.517
654.000	398.478	80.001	19.995	100.985	19.873	10.735	0.520
654.500	398.743	80.001	19.995	100.986	19.871	10.875	0.513
655.000	398.974	80.000	19.995	100.983	19.873	10.767	0.503
655.500	399.259	80.000	19.995	100.982	19.872	10.829	0.506
656.000	399.539	80.000	19.995	100.978	19.874	10.720	0.540
656.500	399.754	80.000	19.995	100.978	19.874	10.717	0.530
657.000	400.004	79.999	19.996	100.978	19.873	10.768	0.480
657.500	400.270	79.999	19.995	100.983	19.873	10.765	0.491
658.000	400.528	80.001	19.995	100.982	19.871	10.903	0.520
658.500	400.766	79.998	19.995	100.982	19.871	10.925	0.510
659.000	401.042	79.999	19.995	100.984	19.874	10.717	0.505
659.500	401.299	80.000	19.995	100.988	19.875	10.631	0.523
660.000	401.533	80.000	19.995	100.987	19.870	10.995	0.512
660.500	401.842	79.998	19.995	100.986	19.875	10.614	0.517
661.000	402.053	79.999	19.996	100.987	19.875	10.625	0.531
661.500	402.330	79.998	19.995	100.986	19.872	10.824	0.504
662.000	402.577	80.000	19.996	100.982	19.877	10.474	0.506
662.500	402.820	80.000	19.995	100.981	19.880	10.280	0.507
663.000	403.095	79.998	19.996	100.982	19.873	10.774	0.504
663.500	403.372	80.000	19.996	100.980	19.878	10.438	0.535
664.000	403.634	80.000	19.996	100.980	19.877	10.458	0.546
664.500	403.914	79.998	19.996	100.980	19.880	10.245	0.540
665.000	404.187	80.001	19.996	100.979	19.877	10.456	0.547
665.500	404.426	79.998	19.996	100.978	19.877	10.476	0.532
666.000	404.687	80.001	19.995	100.979	19.877	10.462	0.506
666.500	404.975	80.001	19.996	100.978	19.876	10.521	0.524
667.000	405.173	80.000	19.995	100.980	19.879	10.329	0.517
667.500	405.437	80.001	19.995	100.982	19.878	10.393	0.474
668.000	405.724	79.998	19.996	100.988	19.879	10.351	0.507
668.500	405.933	79.996	19.996	100.993	19.876	10.538	0.524
669.000	406.230	80.000	19.995	100.993	19.878	10.418	0.502
669.500	406.496	80.001	19.995	100.992	19.875	10.599	0.535
670.000	406.756	80.001	19.996	100.989	19.879	10.345	0.544
670.500	407.014	79.999	19.996	100.990	19.876	10.535	0.522
671.000	407.246	80.000	19.996	100.988	19.876	10.552	0.504
671.500	407.512	80.000	19.996	100.991	19.877	10.485	0.494
672.000	407.761	79.999	19.997	100.995	19.880	10.245	0.506
672.500	408.038	80.000	19.997	100.996	19.877	10.473	0.520
673.000	408.296	80.001	19.997	100.991	19.877	10.475	0.531
673.500	408.555	80.001	19.997	100.993	19.879	10.308	0.526
674.001	408.816	80.002	19.996	100.990	19.878	10.381	0.519
674.501	409.080	80.000	19.996	100.986	19.881	10.206	0.522
675.001	409.371	80.000	19.996	100.985	19.880	10.241	0.540
675.500	409.628	80.001	19.996	100.983	19.877	10.456	0.552
676.000	409.877	80.001	19.996	100.977	19.877	10.445	0.527
676.500	410.167	79.999	19.996	100.977	19.881	10.173	0.523
677.000	410.444	79.999	19.995	100.982	19.880	10.276	0.552
677.500	410.702	79.998	19.996	100.987	19.877	10.446	0.551
678.000	410.950	79.998	19.996	100.990	19.877	10.452	0.521
678.500	411.215	80.001	19.996	100.992	19.879	10.333	0.510
679.000	411.407	79.998	19.996	100.991	19.880	10.284	0.485
679.500	411.688	79.997	19.997	100.987	19.883	10.060	0.465
680.000	411.973	79.998	19.996	100.982	19.882	10.133	0.520
680.500	412.231	79.998	19.996	100.980	19.881	10.165	0.555
681.000	412.485	79.998	19.996	100.981	19.880	10.284	0.528
681.500	412.732	79.998	19.996	100.981	19.881	10.178	0.506
682.000	412.998	79.997	19.996	100.982	19.882	10.127	0.507
682.500	413.246	79.997	19.996	100.986	19.881	10.169	0.513
683.000	413.525	79.998	19.996	100.986	19.883	10.063	0.521
683.500	413.744	79.996	19.995	100.985	19.883	10.067	0.513
684.000	414.011	79.997	19.994	100.985	19.882	10.135	0.492
684.500	414.251	79.998	19.996	100.987	19.886	9.852	0.496
685.000	414.537	79.997	19.996	100.986	19.886	9.842	0.516
685.500	414.789	79.996	19.994	100.986	19.884	10.016	0.532
686.000	415.039	79.998	19.996	100.985	19.885	9.916	0.520
686.500	415.312	79.997	19.996	100.985	19.884	9.965	0.512
687.000	415.547	79.997	19.995	100.981	19.884	10.008	0.515
687.500	415.795	79.999	19.995	100.979	19.885	9.909	0.496
688.000	416.025	79.998	19.997	100.977	19.883	10.047	0.481
688.500	416.293	79.999	19.995	100.977	19.887	9.805	0.488
689.000	416.581	79.998	19.995	100.977	19.883	10.030	0.527
689.500	416.828	79.997	19.996	100.977	19.888	9.703	0.545
690.000	417.098	79.998	19.995	100.979	19.885	9.900	0.526
690.500	417.332	79.997	19.995	100.981	19.885	9.911	0.511
691.000	417.582	79.997	19.995	100.981	19.892	9.421	0.494
691.500	417.844	79.999	19.995	100.981	19.888	9.700	0.498
692.000	418.119	79.997	19.995	100.981	19.893	9.368	0.524
692.500	418.390	79.998	19.996	100.979	19.889	9.651	0.542
693.000	418.628	79.998	19.995	100.976	19.887	9.784	0.528
693.500	418.875	79.996	19.996	100.976	19.889	9.635	0.497
694.000	419.151	79.999	19.996	100.976	19.891	9.534	0.504
694.500	419.401	79.999	19.997	100.976	19.891	9.502	0.524
695.000	419.684	79.999	19.995	100.976	19.891	9.504	0.529
695.500	419.887	79.998	19.996	100.976	19.892	9.428	0.509
696.000	420.170	79.998	19.995	100.976	19.892	9.458	0.486
696.500	420.431	79.999	19.995	100.977	19.891	9.511	0.515
697.000	420.672	79.997	19.996	100.977	19.891	9.473	0.523
697.500	420.926	79.998	19.995	100.977	19.892	9.433	0.498
698.000	421.187	79.997	19.997	100.977	19.892	9.415	0.505
698.500	421.455	79.998	19.998	100.981	19.893	9.362	0.522
699.000	421.732	79.998	19.997	100.984	19.895	9.209	0.537
699.500	421.949	79.999	19.997	100.984	19.893	9.387	0.520
700.000	422.203	79.997	19.997	100.984	19.892	9.405	0.483
700.500	422.481	80.000	19.996	100.985	19.892	9.413	0.501
701.000	422.754	79.999	19.996	100.989	19.893	9.390	0.542
701.500	422.990	79.998	19.996	100.989	19.894	9.297	0.530
702.000	423.217	79.998	19.996	100.991	19.892	9.431	0.486
702.500	423.504	79.995	19.996	100.991	19.896	9.142	0.489
703.000	423.746	80.000	19.997	100.991	19.894	9.292	0.522
703.500	424.004	79.997	19.996	100.986	19.894	9.303	0.514
704.000	424.244	79.998	19.997	100.982	19.896	9.179	0.498
704.500	424.548	79.995	19.997	100.981	19.896	9.147	0.521
705.000	424.823	79.997	19.997	100.986	19.895	9.208	0.562
705.500	425.043	79.997	19.997	100.989	19.895	9.238	0.537
706.000	425.282	79.996	19.998	100.989	19.893	9.387	0.477
706.500	425.541	79.997	19.996	100.988	19.893	9.370	0.479
707.000	425.841	79.997	19.996	100.987	19.898	9.000	0.528
707.500	426.074	79.998	19.996	100.982	19.896	9.181	0.546
708.000	426.335	79.997	19.997	100.980	19.895	9.217	0.513
708.500	426.565	79.997	19.996	100.983	19.899	8.935	0.492
709.000	426.846	79.997	19.997	100.987	19.895	9.194	0.501
709.500	427.129	79.997	19.997	100.991	19.901	8.828	0.538
710.001	427.407	79.997	19.997	100.990	19.898	9.006	0.562
710.500	427.650	79.998	19.997	100.991	19.897	9.085	0.541
711.000	427.915	79.997	19.996	100.987	19.898	9.006	0.515
711.500	428.204	79.998	19.996	100.984	19.896	9.132	0.531
712.000	428.444	79.997	19.996	100.981	19.901	8.818	0.541
712.500	428.742	80.000	19.997	100.981	19.899	8.945	0.533
713.000	428.986	79.997	19.997	100.978	19.900	8.903	0.540
713.500	429.258	79.997	19.997	100.982	19.896	9.148	0.529
714.000	429.516	79.998	19.996	100.986	19.901	8.816	0.523
714.500	429.767	79.998	19.998	100.987	19.902	8.727	0.520
715.000	430.026	79.997	19.996	100.989	19.900	8.888	0.510
715.500	430.304	80.001	19.996	100.991	19.902	8.726	0.523
716.000	430.571	79.997	19.996	100.992	19.901	8.806	0.541
716.500	430.807	79.999	19.997	100.990	19.904	8.584	0.524
717.000	431.103	79.999	19.997	100.995	19.902	8.724	0.518
717.500	431.386	79.998	19.997	100.997	19.902	8.699	0.556
718.000	431.603	79.998	19.997	100.996	19.902	8.749	0.539
718.500	431.884	79.998	19.997	100.993	19.903	8.628	0.499
719.000	432.145	79.998	19.996	100.991	19.907	8.414	0.520
719.500	432.441	79.998	19.997	100.987	19.901	8.831	0.550
720.000	432.686	79.998	19.996	100.987	19.904	8.610	0.549
720.500	432.965	79.997	19.997	100.990	19.905	8.531	0.532
721.000	433.206	79.997	19.995	100.992	19.903	8.635	0.522
721.500	433.498	79.998	19.996	100.991	19.906	8.425	0.526
722.000	433.738	79.998	19.996	100.993	19.906	8.439	0.532
722.500	434.048	79.998	19.996	100.989	19.907	8.367	0.541
723.000	434.316	79.998	19.996	100.984	19.905	8.508	0.564
723.500	434.587	79.998	19.996	100.984	19.905	8.543	0.558
724.000	434.875	79.997	19.996	100.985	19.904	8.558	0.548
724.500	435.141	79.999	19.996	100.981	19.907	8.409	0.557
725.000	435.401	79.999	19.996	100.982	19.906	8.440	0.541
725.500	435.710	79.998	19.995	100.982	19.908	8.327	0.548
726.000	435.936	79.999	19.997	100.982	19.908	8.291	0.552
726.500	436.217	79.999	19.997	100.989	19.909	8.247	0.521
727.000	436.488	79.999	19.996	100.997	19.906	8.450	0.529
727.500	436.781	79.999	19.997	101.004	19.910	8.195	0.558
728.000	437.022	79.999	19.996	101.005	19.906	8.471	0.549
728.500	437.317	79.999	19.996	101.002	19.907	8.399	0.535
729.000	437.584	79.998	19.996	100.994	19.910	8.137	0.549
729.500	437.851	80.000	19.996	100.986	19.908	8.331	0.548
730.000	438.132	80.000	19.998	100.979	19.910	8.137	0.541
730.500	438.388	79.999	19.996	100.978	19.910	8.156	0.543
731.000	438.646	79.999	19.997	100.982	19.910	8.150	0.525
731.500	438.933	79.999	19.996	100.982	19.907	8.378	0.529
732.000	439.194	79.999	19.997	100.982	19.908	8.318	0.546
732.501	439.471	79.999	19.998	100.984	19.909	8.208	0.543
733.000	439.728	79.999	19.998	100.984	19.911	8.127	0.536
733.500	440.012	79.999	19.997	100.981	19.912	8.050	0.537
734.000	440.236	79.999	19.997	100.981	19.912	8.018	0.525
734.500	440.561	79.997	19.996	100.986	19.913	7.971	0.529
735.000	440.804	79.996	19.998	100.990	19.914	7.874	0.559
735.500	441.079	79.998	19.997	100.995	19.913	7.968	0.543
736.000	441.346	79.999	19.999	101.000	19.912	8.031	0.530
736.500	441.628	79.999	19.997	101.001	19.916	7.744	0.546
737.000	441.885	79.999	19.996	100.997	19.914	7.884	0.544
737.500	442.139	79.998	19.996	100.992	19.914	7.914	0.525
738.000	442.383	79.997	19.996	100.986	19.913	7.929	0.505
738.500	442.683	79.999	19.997	100.981	19.914	7.889	0.521
739.000	442.970	79.996	19.996	100.983	19.914	7.903	0.565
739.500	443.188	79.998	19.997	100.984	19.912	8.036	0.546
740.000	443.484	79.999	19.997	100.985	19.912	7.997	0.510
740.500	443.772	79.998	19.995	100.988	19.913	7.936	0.548
741.000	444.019	79.998	19.995	100.989	19.912	8.000	0.559
741.500	444.288	79.999	19.996	100.985	19.915	7.796	0.526
742.000	444.509	79.998	19.997	100.984	19.916	7.753	0.503
742.500	444.820	79.999	19.996	100.984	19.917	7.714	0.511
743.000	445.052	79.998	19.997	100.981	19.921	7.408	0.538
743.500	445.353	79.998	19.997	100.981	19.917	7.655	0.538
744.000	445.597	79.997	19.996	100.983	19.921	7.408	0.539
744.500	445.899	79.998	19.997	100.985	19.916	7.746	0.546
745.000	446.136	79.999	19.996	100.984	19.916	7.776	0.543
745.500	446.382	79.999	19.995	100.983	19.918	7.633	0.511
746.000	446.641	79.998	19.996	100.982	19.916	7.738	0.493
746.500	446.914	79.999	19.995	100.981	19.917	7.659	0.518
747.000	447.215	79.999	19.995	100.982	19.916	7.731	0.553
747.500	447.492	80.000	19.996	100.984	19.920	7.502	0.577
748.000	447.692	79.999	19.995	100.985	19.919	7.523	0.528
748.500	447.996	80.000	19.996	100.986	19.919	7.543	0.491
749.000	448.255	79.999	19.995	100.985	19.921	7.413	0.533
749.500	448.542	80.001	19.995	100.984	19.920	7.458	0.554
750.000	448.820	79.998	19.995	100.982	19.919	7.545	0.555
750.500	449.072	80.001	19.995	100.982	19.920	7.460	0.547
751.000	449.348	80.000	19.996	100.981	19.921	7.392	0.529
751.500	449.619	80.000	19.995	100.980	19.920	7.472	0.538
752.000	449.879	79.999	19.995	100.977	19.917	7.708	0.539
752.500	450.133	80.001	19.995	100.977	19.924	7.202	0.522
753.000	450.391	80.001	19.996	100.980	19.920	7.481	0.513
753.501	450.637	79.999	19.996	100.981	19.923	7.272	0.508
754.000	450.894	80.000	19.995	100.981	19.924	7.204	0.504
754.500	451.186	80.000	19.995	100.982	19.924	7.225	0.526
755.000	451.456	79.999	19.995	100.985	19.924	7.206	0.555
755.500	451.741	80.000	19.995	100.982	19.923	7.291	0.558
756.000	451.982	80.001	19.996	100.982	19.926	7.077	0.541
756.500	452.277	80.001	19.996	100.983	19.923	7.260	0.531
757.000	452.554	80.001	19.996	100.983	19.923	7.294	0.554
757.500	452.763	80.002	19.996	100.978	19.925	7.151	0.529
758.000	453.074	79.999	19.996	100.980	19.924	7.209	0.503
758.500	453.315	80.002	19.995	100.979	19.925	7.115	0.536
759.000	453.558	80.000	19.995	100.977	19.925	7.104	0.518
759.500	453.824	80.001	19.996	100.976	19.922	7.361	0.497
760.000	454.090	80.000	19.995	100.976	19.922	7.310	0.521
760.500	454.348	80.000	19.996	100.973	19.926	7.078	0.528
761.001	454.646	80.000	19.994	100.974	19.926	7.060	0.540
761.500	454.884	80.000	19.996	100.974	19.927	6.981	0.546
762.000	455.165	79.999	19.996	100.976	19.925	7.145	0.528
762.500	455.396	79.999	19.995	100.976	19.924	7.177	0.515
763.000	455.705	79.998	19.995	100.976	19.926	7.028	0.526
763.500	455.962	80.001	19.995	100.977	19.929	6.817	0.553
764.000	456.225	79.998	19.997	100.978	19.925	7.111	0.543
764.500	456.456	79.998	19.998	100.978	19.928	6.930	0.507
765.000	456.748	79.998	19.996	100.978	19.931	6.720	0.508
765.500	456.979	79.997	19.997	100.979	19.931	6.690	0.523
766.000	457.275	79.996	19.996	100.978	19.930	6.797	0.525
766.500	457.519	79.998	19.996	100.977	19.931	6.728	0.534
767.000	457.791	79.998	19.996	100.976	19.930	6.745	0.528
767.500	458.104	79.998	19.997	100.977	19.933	6.575	0.551
768.000	458.334	79.998	19.995	100.977	19.934	6.511	0.564
768.500	458.603	79.998	19.996	100.976	19.930	6.800	0.521
769.000	458.831	79.998	19.996	100.977	19.934	6.464	0.498
769.500	459.071	79.997	19.997	100.981	19.931	6.692	0.483
770.000	459.374	79.999	19.997	100.980	19.933	6.555	0.505
770.500	459.630	79.998	19.996	100.980	19.933	6.566	0.551
771.000	459.895	79.999	19.996	100.981	19.934	6.513	0.540
771.500	460.155	79.999	19.996	100.981	19.933	6.577	0.523
772.000	460.406	79.999	19.995	100.977	19.931	6.706	0.518
772.500	460.695	80.000	19.995	100.977	19.937	6.275	0.526
773.000	460.960	79.999	19.996	100.979	19.938	6.249	0.547
773.500	461.173	80.000	19.996	100.978	19.937	6.292	0.516
774.000	461.413	79.999	19.997	100.977	19.937	6.256	0.465
774.500	461.679	80.000	19.996	100.977	19.936	6.324	0.480
775.000	461.974	79.999	19.995	100.977	19.936	6.377	0.534
775.500	462.182	79.999	19.996	100.974	19.937	6.285	0.532
776.000	462.471	79.999	19.996	100.971	19.934	6.466	0.500
776.500	462.742	79.998	19.996	100.967	19.936	6.349	0.528
777.000	463.016	79.999	19.996	100.966	19.937	6.305	0.553
777.500	463.262	79.999	19.996	100.967	19.935	6.456	0.533
778.000	463.509	79.998	19.995	100.967	19.939	6.141	0.507
778.500	463.737	79.999	19.995	100.971	19.937	6.258	0.484
779.000	464.005	79.999	19.996	100.975	19.935	6.415	0.485
779.500	464.271	80.000	19.995	100.975	19.936	6.387	0.515
780.000	464.558	79.998	19.996	100.975	19.937	6.275	0.543
780.500	464.775	79.998	19.996	100.975	19.939	6.172	0.529
781.000	465.048	79.999	19.995	100.976	19.937	6.255	0.497
781.500	465.301	79.999	19.995	100.977	19.936	6.343	0.508
782.000	465.562	80.000	19.996	100.977	19.935	6.415	0.520
782.500	465.795	79.999	19.996	100.977	19.934	6.470	0.504
783.000	466.049	79.998	19.995	100.977	19.933	6.568	0.490
783.500	466.295	79.998	19.996	100.976	19.933	6.553	0.493
784.000	466.532	79.999	19.996	100.977	19.936	6.369	0.492
784.500	466.827	79.997	19.995	100.977	19.939	6.164	0.508
785.000	467.044	79.998	19.995	100.978	19.938	6.201	0.522
785.500	467.320	79.999	19.995	100.977	19.936	6.379	0.502
786.000	467.569	80.000	19.996	100.976	19.935	6.399	0.509
786.500	467.848	80.000	19.995	100.976	19.941	5.984	0.526
787.000	468.126	79.999	19.996	100.976	19.940	6.107	0.542
787.500	468.374	79.999	19.995	100.976	19.939	6.145	0.542
788.000	468.608	80.000	19.995	100.977	19.942	5.953	0.504
788.500	468.838	79.999	19.995	100.977	19.941	5.998	0.473
789.000	469.081	79.999	19.995	100.978	19.939	6.117	0.468
789.500	469.382	80.000	19.997	100.979	19.939	6.164	0.508
790.001	469.628	79.998	19.996	100.978	19.940	6.107	0.545
790.500	469.875	79.998	19.996	100.979	19.940	6.054	0.520
791.000	470.104	79.998	19.997	100.978	19.943	5.856	0.485
791.500	470.362	79.997	19.994	100.978	19.944	5.769	0.482
792.000	470.638	79.998	19.997	100.978	19.943	5.864	0.511
792.500	470.878	79.999	19.995	100.979	19.940	6.075	0.525
793.000	471.123	79.997	19.996	100.979	19.942	5.954	0.500
793.500	471.352	79.998	19.996	100.979	19.942	5.962	0.479
794.000	471.645	79.997	19.997	100.977	19.943	5.845	0.498
794.500	471.866	79.998	19.997	100.976	19.942	5.926	0.518
795.000	472.143	79.998	19.995	100.974	19.941	5.983	0.506
795.500	472.387	79.997	19.997	100.973	19.945	5.739	0.509
796.000	472.634	79.996	19.995	100.971	19.942	5.902	0.506
796.500	472.867	79.997	19.996	100.970	19.946	5.649	0.486
797.000	473.072	79.998	19.995	100.971	19.944	5.805	0.459
797.500	473.395	79.997	19.996	100.972	19.946	5.690	0.483
798.000	473.630	79.997	19.995	100.973	19.945	5.737	0.543
798.500	473.912	79.998	19.996	100.975	19.947	5.554	0.537
799.000	474.135	79.998	19.995	100.977	19.945	5.714	0.511
799.500	474.407	79.998	19.997	100.977	19.949	5.469	0.500
800.000	474.672	79.996	19.996	100.977	19.946	5.641	0.516
800.500	474.937	79.997	19.996	100.977	19.945	5.692	0.534
801.000	475.189	79.998	19.996	100.977	19.947	5.562	0.523
801.501	475.407	79.998	19.995	100.977	19.948	5.533	0.493
802.000	475.680	79.997	19.996	100.977	19.946	5.630	0.480
802.500	475.965	79.998	19.997	100.977	19.948	5.543	0.525
803.000	476.203	79.997	19.997	100.977	19.946	5.622	0.541
803.500	476.465	79.997	19.995	100.977	19.949	5.450	0.511
804.000	476.672	79.996	19.995	100.977	19.949	5.458	0.484
804.500	476.927	79.997	19.995	100.976	19.948	5.530	0.466
805.000	477.204	79.996	19.996	100.977	19.944	5.807	0.497
805.500	477.429	79.998	19.997	100.977	19.948	5.516	0.517
806.000	477.682	79.998	19.997	100.977	19.953	5.197	0.489
806.500	477.976	79.998	19.996	100.978	19.948	5.486	0.512
807.000	478.209	79.998	19.996	100.979	19.947	5.569	0.537
807.500	478.452	79.999	19.996	100.978	19.951	5.326	0.502
808.000	478.730	79.999	19.996	100.973	19.952	5.214	0.498
808.500	479.001	80.000	19.997	100.968	19.949	5.448	0.535
809.000	479.213	79.998	19.996	100.966	19.948	5.516	0.516
809.500	479.491	79.999	19.996	100.965	19.948	5.507	0.487
810.000	479.700	79.999	19.996	100.965	19.946	5.628	0.488
810.500	479.972	79.999	19.995	100.970	19.948	5.535	0.484
811.000	480.191	79.999	19.996	100.974	19.949	5.458	0.486
811.500	480.492	80.000	19.996	100.974	19.947	5.601	0.506
812.000	480.708	80.001	19.996	100.974	19.949	5.462	0.518
812.500	480.922	80.001	19.996	100.974	19.947	5.554	0.473
813.000	481.243	79.999	19.994	100.975	19.947	5.596	0.482
813.500	481.462	80.000	19.996	100.975	19.947	5.590	0.538
814.000	481.702	80.000	19.996	100.977	19.948	5.517	0.499
814.500	481.960	80.000	19.997	100.975	19.947	5.588	0.478
815.000	482.190	80.000	19.995	100.975	19.948	5.526	0.493
815.500	482.477	80.000	19.995	100.974	19.946	5.633	0.503
816.000	482.705	80.001	19.995	100.971	19.951	5.324	0.516
816.500	482.939	80.001	19.996	100.970	19.949	5.467	0.489
817.000	483.196	80.000	19.995	100.971	19.949	5.430	0.477
817.500	483.438	80.000	19.996	100.970	19.950	5.409	0.495
818.000	483.720	79.999	19.996	100.970	19.949	5.452	0.512
818.500	483.935	80.000	19.996	100.972	19.949	5.448	0.511
819.000	484.184	79.999	19.996	100.971	19.952	5.269	0.480
819.500	484.426	79.999	19.995	100.970	19.950	5.380	0.477
820.000	484.706	79.998	19.996	100.969	19.952	5.243	0.507
820.500	484.949	79.998	19.996	100.969	19.952	5.262	0.523
821.000	485.202	79.999	19.996	100.973	19.951	5.333	0.510
821.500	485.454	79.998	19.996	100.975	19.954	5.086	0.501
822.000	485.712	79.999	19.996	100.975	19.950	5.371	0.507
822.500	485.989	80.000	19.997	100.976	19.952	5.224	0.522
823.000	486.182	79.999	19.996	100.976	19.950	5.403	0.503
823.500	486.444	79.999	19.997	100.973	19.956	4.965	0.462
824.000	486.668	79.997	19.997	100.973	19.952	5.211	0.470
824.500	486.914	79.998	19.997	100.976	19.955	5.060	0.478
825.000	487.179	79.998	19.997	100.976	19.956	4.988	0.490
825.500	487.423	80.001	19.997	100.976	19.954	5.118	0.510
826.000	487.712	79.999	19.998	100.976	19.956	4.962	0.521
826.500	487.905	79.998	19.996	100.975	19.952	5.271	0.508
827.000	488.166	79.998	19.996	100.973	19.952	5.250	0.468
827.500	488.413	79.998	19.996	100.973	19.950	5.399	0.481
828.000	488.666	79.999	19.997	100.973	19.951	5.294	0.504
828.500	488.937	79.999	19.997	100.969	19.951	5.301	0.512
829.000	489.170	79.999	19.996	100.968	19.954	5.131	0.514
829.500	489.433	79.999	19.997	100.968	19.950	5.363	0.500
830.000	489.675	79.999	19.997	100.969	19.951	5.316	0.501
830.500	489.949	79.999	19.997	100.968	19.952	5.260	0.510
831.000	490.221	79.999	19.997	100.971	19.952	5.220	0.531
831.500	490.449	79.999	19.996	100.972	19.952	5.221	0.523
832.000	490.710	79.999	19.997	100.972	19.951	5.278	0.495
832.500	491.004	80.000	19.997	100.971	19.955	5.016	0.522
833.000	491.229	80.000	19.997	100.971	19.954	5.069	0.537
833.500	491.459	80.000	19.996	100.973	19.952	5.246	0.486
834.000	491.693	79.999	19.996	100.973	19.950	5.407	0.459
834.500	492.037	80.002	19.997	100.973	19.955	5.046	0.521
835.000	492.257	79.999	19.996	100.975	19.952	5.235	0.571
835.500	492.497	80.001	19.997	100.974	19.954	5.114	0.512
836.000	492.748	80.000	19.996	100.974	19.955	5.045	0.476
836.500	493.002	80.000	19.995	100.974	19.954	5.088	0.498
837.000	493.296	80.001	19.996	100.973	19.951	5.286	0.526
837.500	493.551	80.002	19.995	100.971	19.952	5.214	0.548
838.000	493.798	80.002	19.996	100.971	19.953	5.160	0.526
838.500	494.064	80.002	19.996	100.970	19.954	5.079	0.508
839.000	494.341	80.000	19.997	100.970	19.953	5.194	0.528
839.500	494.588	80.002	19.997	100.971	19.954	5.071	0.534
840.000	494.814	80.001	19.995	100.972	19.952	5.249	0.498
840.500	495.100	80.001	19.995	100.972	19.956	4.949	0.493
841.000	495.334	80.001	19.995	100.971	19.953	5.175	0.517
841.500	495.592	80.000	19.995	100.971	19.954	5.094	0.506
842.000	495.831	80.001	19.995	100.967	19.954	5.117	0.494
842.500	496.136	80.000	19.995	100.961	19.954	5.072	0.520
843.000	496.402	80.000	19.994	100.961	19.957	4.906	0.558
843.500	496.633	80.001	19.995	100.962	19.956	4.959	0.534
844.000	496.891	79.999	19.995	100.962	19.956	4.961	0.493
844.500	497.184	79.999	19.996	100.967	19.956	4.972	0.520
845.000	497.407	80.000	19.995	100.971	19.955	5.016	0.534
845.500	497.673	79.998	19.996	100.974	19.956	4.964	0.503
846.000	497.925	79.999	19.995	100.973	19.953	5.200	0.504
846.500	498.186	79.997	19.996	100.974	19.956	4.956	0.516
847.000	498.446	79.999	19.996	100.974	19.956	4.971	0.516
847.500	498.678	79.999	19.995	100.976	19.955	5.026	0.506
848.000	498.913	79.998	19.994	100.974	19.959	4.762	0.480
848.500	499.205	79.998	19.996	100.975	19.960	4.703	0.497
849.000	499.469	79.997	19.996	100.975	19.959	4.722	0.541
849.500	499.743	79.998	19.995	100.977	19.957	4.915	0.547
850.000	499.969	79.998	19.995	100.979	19.956	4.932	0.519
850.500	500.228	79.998	19.997	100.981	19.962	4.571	0.492
851.000	500.488	79.997	19.996	100.981	19.955	5.020	0.502
851.500	500.756	79.997	19.996	100.980	19.959	4.726	0.524
852.000	501.021	79.998	19.995	100.979	19.961	4.603	0.531
852.500	501.256	79.998	19.997	100.979	19.958	4.839	0.517
853.000	501.524	79.997	19.996	100.980	19.958	4.824	0.501
853.500	501.807	80.000	19.996	100.984	19.959	4.779	0.527
854.000	502.051	79.998	19.995	100.991	19.959	4.728	0.539
854.500	502.294	79.997	19.996	100.993	19.962	4.528	0.507
855.000	502.548	79.997	19.997	100.996	19.960	4.673	0.492
855.500	502.811	79.998	19.997	100.996	19.959	4.715	0.507
856.000	503.094	79.998	19.995	100.997	19.958	4.847	0.532
856.500	503.355	79.998	19.997	100.990	19.963	4.494	0.545
857.000	503.598	79.998	19.995	100.988	19.962	4.554	0.524
857.500	503.859	79.999	19.996	100.985	19.960	4.699	0.504
858.000	504.130	79.999	19.997	100.984	19.967	4.207	0.518
858.500	504.349	79.997	19.996	100.980	19.963	4.479	0.511
859.000	504.602	79.998	19.996	100.980	19.963	4.443	0.481
859.500	504.895	79.997	19.996	100.981	19.961	4.628	0.509
860.000	505.127	79.998	19.997	100.982	19.959	4.758	0.536
860.501	505.440	79.999	19.997	100.980	19.961	4.607	0.535
861.000	505.702	80.000	19.996	100.979	19.963	4.496	0.560
861.500	505.934	79.999	19.996	100.979	19.961	4.584	0.535
862.000	506.191	79.998	19.996	100.978	19.961	4.596	0.491
862.500	506.442	79.999	19.995	100.977	19.959	4.718	0.498
863.000	506.746	79.999	19.997	100.977	19.962	4.528	0.532
863.500	506.981	79.998	19.995	100.981	19.960	4.692	0.547
864.000	507.240	79.997	19.995	100.982	19.961	4.622	0.516
864.500	507.493	79.998	19.996	100.981	19.959	4.733	0.503
865.000	507.754	79.998	19.994	100.982	19.958	4.849	0.513
865.501	507.995	79.998	19.995	100.982	19.962	4.548	0.508
866.001	508.275	79.998	19.996	100.981	19.958	4.788	0.512
866.501	508.499	79.999	19.995	100.979	19.959	4.741	0.513
867.000	508.758	79.999	19.995	100.979	19.962	4.533	0.493
867.500	509.055	79.998	19.995	100.978	19.962	4.571	0.520
868.000	509.275	79.997	19.996	100.978	19.962	4.511	0.537
868.500	509.550	79.999	19.995	100.977	19.963	4.460	0.506
869.000	509.768	80.000	19.996	100.977	19.960	4.699	0.494
869.500	510.053	79.998	19.995	100.977	19.964	4.413	0.498
870.000	510.291	79.998	19.996	100.977	19.962	4.505	0.513
870.500	510.580	79.998	19.995	100.977	19.964	4.409	0.525
871.000	510.824	79.999	19.997	100.977	19.965	4.335	0.530
871.500	511.096	79.999	19.995	100.978	19.962	4.528	0.525
872.000	511.363	79.998	19.996	100.978	19.963	4.501	0.527
872.500	511.630	79.998	19.994	100.978	19.963	4.486	0.536
873.000	511.841	79.998	19.996	100.978	19.966	4.263	0.506
873.500	512.107	79.998	19.994	100.979	19.966	4.273	0.477
874.000	512.344	79.999	19.995	100.978	19.965	4.295	0.490
874.500	512.592	79.997	19.995	100.979	19.964	4.378	0.494
875.000	512.849	79.999	19.995	100.979	19.965	4.360	0.495
875.500	513.120	79.998	19.995	100.980	19.965	4.360	0.516
876.000	513.371	79.997	19.996	100.980	19.963	4.450	0.525
876.500	513.633	79.998	19.995	100.980	19.964	4.420	0.518
877.000	513.883	79.998	19.994	100.979	19.967	4.195	0.512
877.500	514.156	79.998	19.994	100.979	19.964	4.413	0.517
878.000	514.423	79.998	19.994	100.978	19.967	4.161	0.531
878.500	514.664	79.998	19.995	100.978	19.964	4.403	0.524
879.000	514.950	79.997	19.994	100.979	19.961	4.626	0.518
879.500	515.172	79.998	19.995	100.980	19.965	4.322	0.517
880.000	515.467	79.998	19.995	100.979	19.964	4.390	0.512
880.500	515.712	79.997	19.996	100.979	19.962	4.548	0.528
881.000	515.960	79.997	19.996	100.979	19.963	4.488	0.517
881.500	516.283	79.997	19.996	100.978	19.965	4.354	0.532
882.000	516.501	79.998	19.996	100.977	19.967	4.224	0.556
882.500	516.765	79.999	19.997	100.977	19.962	4.512	0.511
883.000	517.030	79.999	19.997	100.977	19.960	4.695	0.505
883.500	517.292	79.999	19.996	100.977	19.963	4.456	0.528
884.000	517.578	79.997	19.995	100.977	19.966	4.273	0.538
884.500	517.813	79.997	19.995	100.976	19.963	4.478	0.534
885.000	518.100	80.000	19.997	100.976	19.964	4.388	0.521
885.500	518.357	79.998	19.996	100.976	19.964	4.384	0.533
886.000	518.600	79.998	19.995	100.976	19.965	4.346	0.522
886.500	518.839	80.000	19.996	100.977	19.964	4.386	0.491
887.000	519.129	79.999	19.995	100.977	19.968	4.146	0.505
887.500	519.390	79.998	19.996	100.977	19.961	4.599	0.539
888.000	519.666	79.999	19.995	100.978	19.964	4.405	0.544
888.500	519.916	79.999	19.995	100.977	19.960	4.673	0.532
889.000	520.142	80.000	19.995	100.975	19.963	4.479	0.501
889.500	520.410	79.999	19.996	100.974	19.962	4.549	0.485
890.000	520.660	80.000	19.996	100.975	19.964	4.398	0.506
890.500	520.942	80.000	19.995	100.973	19.963	4.503	0.525
891.000	521.187	79.999	19.996	100.973	19.959	4.715	0.530
891.500	521.455	80.000	19.995	100.974	19.964	4.399	0.520
892.000	521.707	80.000	19.995	100.974	19.965	4.307	0.516
892.500	521.986	79.997	19.995	100.973	19.959	4.726	0.526
893.000	522.202	79.999	19.995	100.973	19.963	4.462	0.513
893.500	522.469	79.998	19.997	100.971	19.961	4.601	0.489
894.000	522.732	80.000	19.997	100.971	19.958	4.784	0.507
894.500	522.944	79.999	19.996	100.972	19.960	4.682	0.502
895.000	523.230	80.002	19.996	100.972	19.961	4.629	0.486
895.500	523.481	80.000	19.996	100.972	19.963	4.488	0.518
896.000	523.772	80.001	19.996	100.973	19.958	4.797	0.540
896.500	524.010	80.000	19.995	100.973	19.962	4.526	0.535
897.000	524.236	80.000	19.996	100.972	19.963	4.494	0.497
897.500	524.498	80.000	19.996	100.973	19.964	4.429	0.476
898.000	524.773	80.001	19.997	100.973	19.963	4.490	0.512
898.500	525.060	79.999	19.996	100.973	19.963	4.456	0.549
899.000	525.301	79.999	19.995	100.975	19.965	4.339	0.545
899.500	525.553	80.000	19.996	100.975	19.965	4.310	0.511
900.000	525.781	79.998	19.996	100.981	19.965	4.344	0.486
900.500	526.086	79.999	19.995	100.984	19.962	4.543	0.506
901.000	526.339	80.000	19.997	100.985	19.964	4.382	0.546
901.500	526.560	80.000	19.996	100.984	19.963	4.503	0.516
902.000	526.842	79.999	19.996	100.984	19.965	4.352	0.489
902.500	527.089	79.998	19.995	100.978	19.967	4.180	0.516
903.000	527.364	80.001	19.996	100.976	19.965	4.335	0.525
903.500	527.578	80.000	19.995	100.976	19.968	4.135	0.506
904.000	527.867	80.001	19.996	100.976	19.964	4.414	0.497
904.500	528.131	80.000	19.996	100.976	19.964	4.388	0.528
905.000	528.352	79.999	19.995	100.977	19.965	4.314	0.518
905.500	528.643	80.001	19.996	100.976	19.962	4.528	0.498
906.000	528.866	80.000	19.997	100.975	19.964	4.369	0.513
906.500	529.130	79.998	19.996	100.974	19.963	4.437	0.501
907.000	529.410	80.001	19.995	100.974	19.964	4.424	0.515
907.500	529.660	80.000	19.995	100.974	19.961	4.580	0.537
908.000	529.931	79.999	19.995	100.974	19.965	4.356	0.526
908.500	530.163	79.999	19.996	100.974	19.964	4.426	0.512
909.000	530.402	80.001	19.996	100.974	19.962	4.526	0.487
909.500	530.687	80.000	19.996	100.974	19.961	4.611	0.498
910.000	530.924	80.000	19.995	100.974	19.964	4.429	0.523
910.500	531.191	80.001	19.997	100.973	19.963	4.458	0.513
911.001	531.470	80.000	19.996	100.973	19.961	4.590	0.525
911.500	531.701	80.000	19.995	100.973	19.964	4.392	0.528
912.000	531.974	80.000	19.995	100.973	19.960	4.699	0.507
912.500	532.216	79.999	19.997	100.976	19.962	4.509	0.510
913.000	532.482	80.000	19.996	100.977	19.963	4.496	0.511
913.500	532.734	79.999	19.996	100.977	19.964	4.407	0.513
914.000	532.998	80.000	19.998	100.977	19.961	4.632	0.517
914.500	533.235	80.001	19.995	100.976	19.964	4.377	0.509
915.000	533.537	80.001	19.996	100.974	19.965	4.362	0.520
915.500	533.744	79.999	19.997	100.975	19.967	4.213	0.524
916.000	534.007	80.001	19.997	100.976	19.967	4.171	0.490
916.500	534.269	80.001	19.996	100.977	19.962	4.537	0.498
917.000	534.540	80.002	19.996	100.976	19.961	4.624	0.529
917.500	534.777	80.002	19.998	100.978	19.966	4.281	0.520
918.000	535.036	80.001	19.996	100.978	19.964	4.409	0.502
918.500	535.301	80.002	19.996	100.977	19.961	4.575	0.510
919.000	535.564	80.001	19.998	100.977	19.964	4.424	0.526
919.500	535.820	80.001	19.996	100.977	19.966	4.241	0.523
920.000	536.076	80.001	19.996	100.977	19.966	4.271	0.515
920.500	536.325	80.002	19.996	100.977	19.963	4.436	0.509
921.000	536.604	80.001	19.997	100.976	19.963	4.481	0.517
921.500	536.829	80.000	19.996	100.977	19.969	4.049	0.516
922.000	537.094	80.001	19.996	100.977	19.964	4.405	0.497
922.500	537.348	80.001	19.996	100.975	19.960	4.679	0.504
923.000	537.567	80.001	19.997	100.975	19.962	4.522	0.496
923.500	537.872	80.000	19.995	100.977	19.962	4.567	0.499
924.000	538.065	79.999	19.996	100.979	19.966	4.252	0.511
924.500	538.360	80.000	19.997	100.980	19.961	4.577	0.493
925.000	538.593	79.999	19.997	100.981	19.961	4.575	0.508
925.500	538.877	80.000	19.997	100.983	19.962	4.523	0.523
926.000	539.091	80.000	19.996	100.983	19.961	4.610	0.507
926.500	539.387	80.000	19.995	100.981	19.961	4.608	0.504
927.001	539.627	79.999	19.997	100.984	19.961	4.630	0.523
927.501	539.893	79.999	19.996	100.983	19.963	4.477	0.521
928.000	540.136	79.998	19.995	100.984	19.958	4.801	0.508
928.500	540.410	79.998	19.996	100.982	19.962	4.531	0.513
929.000	540.678	79.998	19.996	100.981	19.961	4.577	0.529
929.500	540.947	79.999	19.997	100.977	19.965	4.339	0.540
930.000	541.178	79.999	19.996	100.978	19.963	4.462	0.518
930.500	541.454	79.997	19.994	100.979	19.964	4.366	0.504
931.000	541.700	79.999	19.995	100.985	19.964	4.368	0.515
931.500	541.964	80.000	19.995	100.986	19.962	4.562	0.516
932.000	542.222	79.999	19.995	100.986	19.967	4.225	0.516
932.500	542.479	79.999	19.994	100.986	19.963	4.451	0.518
933.000	542.700	79.997	19.995	100.981	19.965	4.304	0.496
933.500	542.957	79.998	19.995	100.975	19.965	4.300	0.478
934.000	543.238	79.998	19.996	100.973	19.964	4.425	0.508
934.500	543.477	80.000	19.994	100.974	19.967	4.198	0.529
935.000	543.730	79.999	19.995	100.976	19.964	4.419	0.506
935.500	544.013	79.999	19.996	100.978	19.964	4.383	0.514
936.000	544.252	79.999	19.997	100.982	19.964	4.400	0.529
936.500	544.466	79.999	19.996	100.990	19.968	4.149	0.488
937.000	544.748	79.997	19.996	100.993	19.964	4.407	0.475
937.500	544.998	79.998	19.995	100.992	19.961	4.590	0.514
938.000	545.223	79.997	19.996	100.990	19.964	4.384	0.503
938.500	545.518	79.999	19.996	100.988	19.963	4.492	0.497
939.000	545.764	79.998	19.995	100.981	19.963	4.477	0.530
939.500	545.996	80.000	19.997	100.979	19.966	4.262	0.510
940.000	546.226	79.998	19.995	100.980	19.963	4.470	0.470
940.500	546.532	79.997	19.994	100.981	19.965	4.324	0.499
941.000	546.761	79.998	19.995	100.982	19.964	4.411	0.536
941.500	547.009	79.998	19.996	100.984	19.964	4.402	0.506
942.000	547.292	79.999	19.996	100.990	19.964	4.371	0.504
942.500	547.545	79.999	19.995	100.993	19.968	4.139	0.534
943.000	547.790	79.999	19.995	100.997	19.962	4.507	0.517
943.500	548.066	79.999	19.995	101.000	19.963	4.469	0.509
944.000	548.267	79.997	19.994	101.003	19.966	4.235	0.499
944.500	548.586	79.998	19.996	100.996	19.964	4.420	0.499
945.001	548.836	79.998	19.995	100.993	19.963	4.437	0.544
945.500	549.092	79.999	19.995	100.990	19.962	4.537	0.537
946.000	549.356	80.000	19.995	100.987	19.964	4.432	0.513
946.500	549.590	79.999	19.996	100.985	19.964	4.432	0.509
947.000	549.860	80.000	19.996	100.985	19.967	4.197	0.501
947.500	550.125	80.001	19.996	100.984	19.965	4.350	0.519
948.000	550.400	79.999	19.995	100.980	19.964	4.430	0.537
948.500	550.706	80.000	19.997	100.979	19.967	4.190	0.560
949.000	550.866	79.999	19.996	100.977	19.963	4.486	0.523
949.500	551.160	79.999	19.997	100.978	19.966	4.264	0.460
950.000	551.398	79.998	19.996	100.982	19.962	4.550	0.493
950.500	551.670	79.999	19.995	100.985	19.964	4.428	0.521
951.000	551.914	79.999	19.996	100.990	19.959	4.722	0.513
951.500	552.143	79.998	19.995	100.990	19.962	4.568	0.495
952.000	552.399	80.000	19.996	100.991	19.962	4.541	0.479
952.500	552.653	79.999	19.996	100.988	19.960	4.673	0.497
953.000	552.911	79.999	19.996	100.987	19.962	4.570	0.511
953.500	553.173	79.998	19.997	100.983	19.961	4.624	0.516
954.000	553.404	79.999	19.996	100.982	19.964	4.390	0.507
954.500	553.697	79.998	19.996	100.980	19.962	4.526	0.508
955.000	553.942	80.000	19.995	100.983	19.965	4.304	0.530
955.500	554.188	79.998	19.996	100.984	19.964	4.407	0.514
956.000	554.467	79.998	19.996	100.983	19.961	4.619	0.508
956.500	554.747	79.999	19.997	100.983	19.964	4.430	0.542
957.000	554.992	79.998	19.995	100.984	19.966	4.234	0.542
957.500	555.259	79.999	19.994	100.980	19.966	4.293	0.518
958.000	555.499	79.999	19.995	100.977	19.962	4.557	0.509
958.500	555.771	79.999	19.996	100.978	19.964	4.432	0.510
959.000	556.004	79.999	19.996	100.980	19.959	4.715	0.509
959.500	556.262	79.998	19.995	100.981	19.959	4.772	0.498
960.000	556.516	80.000	19.997	100.981	19.966	4.239	0.501
960.500	556.771	79.998	19.996	100.981	19.963	4.502	0.510
961.000	557.029	79.997	19.996	100.981	19.962	4.566	0.511
961.500	557.279	79.998	19.996	100.985	19.959	4.728	0.510
962.000	557.520	79.998	19.996	100.983	19.963	4.436	0.500
962.500	557.796	79.998	19.996	100.985	19.964	4.390	0.504
963.000	558.026	80.000	19.995	100.988	19.960	4.651	0.511
963.500	558.289	79.998	19.996	100.989	19.962	4.541	0.500
964.000	558.544	79.999	19.996	100.986	19.959	4.782	0.506
964.500	558.791	79.999	19.995	100.985	19.962	4.513	0.510
965.000	559.055	79.998	19.995	100.984	19.961	4.596	0.507
965.500	559.293	79.996	19.995	100.985	19.962	4.517	0.506
966.000	559.589	79.998	19.995	100.990	19.962	4.509	0.518
966.500	559.820	79.999	19.995	100.992	19.965	4.302	0.530
967.000	560.080	79.999	19.996	100.993	19.963	4.442	0.509
967.501	560.334	79.998	19.995	100.996	19.963	4.436	0.503
968.000	560.605	80.000	19.995	100.998	19.965	4.315	0.519
968.500	560.864	79.998	19.995	101.000	19.964	4.409	0.527
969.000	561.117	79.999	19.995	100.997	19.964	4.372	0.521
969.500	561.411	79.999	19.995	100.999	19.964	4.383	0.530
970.000	561.655	80.000	19.995	100.999	19.964	4.368	0.543
970.500	561.896	80.000	19.995	100.994	19.963	4.442	0.511
971.000	562.175	80.000	19.995	100.986	19.961	4.593	0.502
971.500	562.386	80.000	19.995	100.986	19.963	4.480	0.505
972.000	562.671	80.000	19.995	100.989	19.960	4.663	0.493
972.500	562.904	80.000	19.995	100.990	19.961	4.593	0.507
973.000	563.163	79.999	19.995	100.989	19.963	4.491	0.506
973.500	563.438	80.001	19.996	100.988	19.958	4.831	0.513
974.000	563.638	80.001	19.996	100.986	19.959	4.778	0.504
974.500	563.904	80.001	19.996	100.981	19.961	4.625	0.470
975.000	564.186	80.001	19.994	100.979	19.965	4.342	0.507
975.500	564.421	80.001	19.996	100.980	19.962	4.566	0.533
976.000	564.664	80.000	19.997	100.983	19.958	4.806	0.498
976.500	564.912	80.000	19.995	100.987	19.962	4.510	0.485
977.000	565.173	80.000	19.995	100.992	19.962	4.564	0.500
977.500	565.467	79.999	19.995	100.993	19.962	4.553	0.531
978.000	565.695	80.000	19.995	100.993	19.961	4.606	0.538
978.500	565.925	80.001	19.996	100.994	19.964	4.395	0.490
979.000	566.186	80.001	19.996	100.991	19.966	4.262	0.475
979.500	566.468	80.000	19.997	100.992	19.964	4.385	0.517
980.000	566.741	79.999	19.995	100.995	19.961	4.620	0.549
980.500	567.011	79.999	19.997	100.998	19.969	4.019	0.549
981.000	567.217	80.000	19.996	101.000	19.964	4.387	0.509
981.500	567.512	80.000	19.997	101.005	19.964	4.404	0.488
982.000	567.706	79.999	19.997	101.004	19.962	4.544	0.495
982.500	567.976	80.000	19.997	101.006	19.964	4.415	0.477
983.000	568.229	79.999	19.996	101.007	19.967	4.174	0.493
983.500	568.523	79.999	19.997	101.007	19.969	4.074	0.535
984.000	568.746	79.998	19.996	101.006	19.970	3.945	0.532
984.500	569.004	79.999	19.995	101.001	19.963	4.470	0.499
985.000	569.260	80.000	19.996	100.997	19.963	4.500	0.498
985.500	569.524	79.999	19.996	100.993	19.970	3.945	0.518
986.000	569.776	79.999	19.997	100.994	19.966	4.264	0.518
986.500	570.028	79.999	19.996	100.992	19.964	4.370	0.510
987.000	570.301	79.998	19.996	100.992	19.964	4.402	0.515
987.500	570.524	79.999	19.996	100.995	19.964	4.372	0.511
988.000	570.775	80.000	19.997	100.995	19.964	4.380	0.485
988.500	571.024	79.999	19.997	100.991	19.967	4.163	0.487
989.000	571.287	80.000	19.997	100.993	19.967	4.216	0.506
989.500	571.489	79.998	19.996	101.000	19.967	4.191	0.489
990.000	571.778	80.000	19.996	100.999	19.964	4.429	0.478
990.500	572.045	79.999	19.996	101.001	19.962	4.550	0.523
991.000	572.315	79.999	19.995	101.006	19.965	4.354	0.547
991.500	572.609	79.999	19.996	101.006	19.965	4.297	0.551
992.000	572.845	79.999	19.996	100.999	19.964	4.387	0.547
992.500	573.104	80.000	19.996	100.997	19.963	4.449	0.512
993.000	573.354	80.000	19.996	100.997	19.965	4.342	0.502
993.500	573.603	80.000	19.996	100.994	19.962	4.525	0.504
994.000	573.882	79.999	19.995	100.995	19.961	4.598	0.514
994.500	574.156	80.001	19.996	101.000	19.962	4.516	0.540
995.001	574.401	80.000	19.996	101.004	19.967	4.202	0.536
995.500	574.682	80.000	19.995	101.003	19.964	4.370	0.523
996.000	574.920	79.999	19.995	100.998	19.964	4.398	0.522
996.500	575.185	80.000	19.995	100.995	19.965	4.340	0.511
997.000	575.476	80.001	19.995	100.995	19.962	4.544	0.530
997.500	575.753	80.001	19.996	100.990	19.964	4.404	0.562
998.000	576.021	80.001	19.995	100.991	19.961	4.616	0.557
998.500	576.243	80.001	19.995	100.998	19.964	4.431	0.517
999.001	576.484	80.001	19.996	101.001	19.964	4.421	0.476
999.500	576.732	80.003	19.996	101.004	19.963	4.496	0.476
1000.000	576.988	80.002	19.995	101.009	19.966	4.270	0.497
1000.500	577.280	80.003	19.994	101.013	19.965	4.353	0.526
1001.000	577.511	80.002	19.995	101.014	19.964	4.414	0.535
1001.500	577.759	80.001	19.994	101.013	19.963	4.491	0.501
1002.000	577.997	80.000	19.995	101.011	19.963	4.444	0.483
1002.500	578.289	80.000	19.995	101.008	19.967	4.221	0.508
1003.000	578.530	80.000	19.995	101.004	19.963	4.500	0.531
1003.500	578.775	80.000	19.996	100.999	19.966	4.292	0.509
1004.000	578.997	80.002	19.996	100.995	19.966	4.255	0.476
1004.500	579.292	80.000	19.995	100.996	19.965	4.313	0.492
1005.000	579.523	80.000	19.995	100.999	19.962	4.569	0.522
1005.500	579.807	80.001	19.996	101.003	19.964	4.407	0.520
1006.000	580.046	80.000	19.995	101.008	19.964	4.417	0.519
1006.500	580.317	79.999	19.996	101.009	19.962	4.532	0.517
1007.000	580.596	80.000	19.996	101.002	19.961	4.598	0.530
1007.500	580.849	79.999	19.996	101.000	19.959	4.717	0.541
1008.000	581.063	79.998	19.995	101.000	19.962	4.511	0.499
1008.500	581.301	79.999	19.996	101.000	19.967	4.191	0.459
1009.000	581.599	79.997	19.996	101.004	19.963	4.491	0.494
1009.500	581.863	79.997	19.996	101.004	19.961	4.629	0.549
1010.000	582.103	79.996	19.996	101.000	19.957	4.904	0.533
1010.500	582.353	79.998	19.996	100.998	19.959	4.765	0.497
1011.000	582.597	79.998	19.996	100.995	19.962	4.563	0.492
1011.500	582.856	79.998	19.996	100.995	19.961	4.576	0.498
1012.000	583.127	79.998	19.996	101.000	19.960	4.655	0.517
1012.500	583.346	79.999	19.998	101.003	19.960	4.684	0.511
1013.000	583.587	79.999	19.997	101.003	19.960	4.690	0.475
1013.500	583.878	79.998	19.997	101.005	19.964	4.386	0.496
1014.000	584.166	79.997	19.997	101.000	19.960	4.669	0.556
1014.500	584.368	79.997	19.997	100.995	19.960	4.648	0.534
1015.000	584.661	79.998	19.998	100.994	19.962	4.518	0.492
1015.500	584.898	79.998	19.996	100.988	19.960	4.653	0.512
1016.000	585.147	79.998	19.997	100.984	19.962	4.567	0.508
1016.500	585.396	79.997	19.998	100.989	19.964	4.378	0.492
1017.000	585.684	79.998	19.997	100.991	19.966	4.231	0.518
1017.500	585.952	79.997	19.996	100.989	19.962	4.506	0.546
1018.000	586.207	79.998	19.997	100.990	19.966	4.289	0.539
1018.500	586.475	79.998	19.997	100.993	19.965	4.312	0.523
1019.000	586.727	79.997	19.997	100.993	19.961	4.599	0.522
1019.500	586.953	79.998	19.996	100.997	19.965	4.360	0.499
1020.000	587.216	79.997	19.996	100.999	19.967	4.170	0.483
1020.500	587.465	79.998	19.996	101.002	19.961	4.585	0.500
1021.000	587.703	79.998	19.996	101.001	19.966	4.247	0.499
1021.500	587.968	79.997	19.996	101.002	19.963	4.448	0.495
1022.000	588.229	79.998	19.996	101.002	19.965	4.340	0.515
1022.500	588.513	79.999	19.998	101.004	19.964	4.420	0.536
1023.000	588.761	79.999	19.997	101.007	19.964	4.429	0.539
1023.500	588.983	79.998	19.996	101.008	19.963	4.454	0.502
1024.000	589.265	79.999	19.996	101.009	19.964	4.435	0.487
1024.500	589.501	80.001	19.997	101.008	19.961	4.588	0.511
1025.000	589.794	80.000	19.997	101.010	19.964	4.384	0.523
1025.500	590.013	79.999	19.996	101.007	19.962	4.550	0.520
1026.000	590.270	79.998	19.996	101.004	19.963	4.489	0.494
1026.500	590.537	80.000	19.996	101.004	19.959	4.746	0.500
1027.000	590.790	80.000	19.996	101.003	19.960	4.653	0.522
1027.500	591.062	79.999	19.997	101.001	19.964	4.410	0.523
1028.000	591.316	80.000	19.995	101.004	19.960	4.646	0.526
1028.500	591.562	79.999	19.996	101.009	19.964	4.384	0.513
1029.000	591.850	80.001	19.996	101.005	19.963	4.501	0.517
1029.500	592.065	79.999	19.996	101.003	19.964	4.374	0.519
1030.000	592.372	79.999	19.996	101.001	19.961	4.580	0.513
1030.500	592.611	80.001	19.996	100.996	19.962	4.546	0.533
1031.000	592.858	79.999	19.997	100.994	19.962	4.535	0.516
1031.500	593.111	79.999	19.996	100.997	19.964	4.367	0.493
1032.000	593.396	79.999	19.996	101.002	19.959	4.744	0.519
1032.500	593.627	80.000	19.997	101.006	19.963	4.489	0.527
1033.001	593.912	80.001	19.996	101.012	19.964	4.433	0.516
1033.501	594.194	80.000	19.997	101.014	19.961	4.590	0.542
1034.001	594.426	79.999	19.996	101.014	19.965	4.355	0.541
1034.500	594.726	79.997	19.994	101.014	19.963	4.442	0.523
1035.001	594.958	79.997	19.995	101.013	19.964	4.384	0.532
1035.501	595.214	80.000	19.994	101.013	19.962	4.540	0.510
1036.000	595.466	79.998	19.996	101.012	19.961	4.627	0.498
1036.500	595.748	79.999	19.996	101.011	19.965	4.361	0.521
1037.000	595.956	79.998	19.994	101.008	19.961	4.602	0.512
1037.500	596.228	79.999	19.994	101.005	19.963	4.440	0.485
1038.000	596.460	79.999	19.997	101.004	19.961	4.610	0.493
1038.500	596.727	79.998	19.995	101.004	19.960	4.659	0.502
1039.001	597.001	79.998	19.996	101.005	19.966	4.263	0.520
1039.501	597.268	80.000	19.996	101.008	19.961	4.588	0.540
1040.000	597.511	79.998	19.995	101.011	19.959	4.782	0.525
1040.500	597.751	79.998	19.996	101.012	19.965	4.361	0.497
1041.000	598.043	79.998	19.994	101.011	19.961	4.584	0.507
1041.500	598.283	79.999	19.996	101.011	19.965	4.329	0.532
1042.000	598.540	79.998	19.996	101.009	19.965	4.357	0.515
1042.500	598.791	79.998	19.996	101.009	19.959	4.772	0.503
1043.000	599.038	79.998	19.996	101.009	19.961	4.633	0.503
1043.500	599.320	79.999	19.997	101.009	19.962	4.510	0.514
1044.000	599.564	79.998	19.996	101.010	19.962	4.570	0.527
1044.500	599.780	79.999	19.998	101.011	19.964	4.393	0.492
1045.000	600.067	79.999	19.997	101.011	19.965	4.351	0.482
1045.500	600.316	80.000	19.998	101.009	19.962	4.547	0.520
1046.000	600.619	79.999	19.996	101.008	19.961	4.608	0.544
1046.500	600.895	79.998	19.996	101.007	19.963	4.446	0.565
1047.000	601.125	79.999	19.997	101.004	19.962	4.506	0.543
1047.500	601.413	79.999	19.997	100.999	19.960	4.653	0.513
1048.000	601.634	79.999	19.996	101.002	19.963	4.493	0.513
1048.501	601.908	79.999	19.996	101.001	19.961	4.621	0.501
1049.001	602.168	79.998	19.996	100.999	19.963	4.438	0.514
1049.500	602.407	79.998	19.995	101.003	19.960	4.650	0.516
1050.000	602.644	79.999	19.996	101.008	19.958	4.799	0.487
1050.500	602.931	79.999	19.995	101.009	19.961	4.603	0.500
1051.000	603.188	80.000	19.995	101.011	19.961	4.644	0.534
1051.500	603.450	80.000	19.995	101.011	19.963	4.473	0.531
1052.000	603.660	80.000	19.996	101.011	19.965	4.314	0.496
1052.500	603.961	80.000	19.995	101.010	19.964	4.407	0.492
1053.000	604.204	80.001	19.996	101.007	19.965	4.307	0.528
1053.500	604.486	79.999	19.995	101.006	19.962	4.573	0.535
1054.000	604.719	80.001	19.995	101.006	19.965	4.354	0.520
1054.500	604.990	79.999	19.995	101.005	19.967	4.218	0.509
1055.000	605.218	80.001	19.996	101.003	19.965	4.346	0.501
1055.500	605.489	80.001	19.996	101.003	19.964	4.380	0.499
1056.000	605.791	80.001	19.996	101.002	19.963	4.463	0.536
1056.500	605.992	80.000	19.995	100.998	19.964	4.405	0.538
1057.000	606.239	80.000	19.996	100.998	19.960	4.679	0.475
1057.500	606.494	79.998	19.996	100.998	19.963	4.461	0.475
1058.000	606.731	80.000	19.996	100.999	19.961	4.601	0.497
1058.500	607.030	80.001	19.995	100.998	19.967	4.161	0.514
1059.000	607.275	80.000	19.996	101.004	19.963	4.461	0.540
1059.500	607.510	80.001	19.996	101.006	19.961	4.584	0.512
1060.000	607.763	80.000	19.996	101.008	19.964	4.376	0.484
1060.500	608.058	79.999	19.996	101.011	19.962	4.550	0.518
1061.000	608.296	80.000	19.995	101.014	19.964	4.435	0.540
1061.500	608.551	80.001	19.995	101.014	19.961	4.601	0.513
1062.000	608.781	79.999	19.995	101.014	19.963	4.480	0.490
1062.501	609.062	80.001	19.995	101.014	19.957	4.871	0.498
1063.001	609.289	80.000	19.995	101.014	19.959	4.752	0.509
1063.500	609.586	79.999	19.995	101.015	19.963	4.454	0.516
1064.000	609.854	79.999	19.994	101.015	19.968	4.131	0.545
1064.500	610.110	80.001	19.994	101.015	19.962	4.527	0.544
1065.000	610.358	79.999	19.995	101.015	19.964	4.423	0.514
1065.500	610.644	80.001	19.995	101.014	19.962	4.562	0.519
1066.000	610.871	79.999	19.995	101.014	19.967	4.211	0.524
1066.500	611.165	79.997	19.996	101.015	19.960	4.683	0.517
1067.000	611.404	79.999	19.996	101.015	19.963	4.442	0.527
1067.500	611.685	80.001	19.995	101.014	19.963	4.466	0.526
1068.000	611.880	80.000	19.994	101.016	19.963	4.500	0.498
1068.501	612.170	79.999	19.995	101.014	19.965	4.336	0.481
1069.001	612.426	79.999	19.995	101.009	19.965	4.325	0.516
1069.500	612.670	79.998	19.995	101.006	19.957	4.876	0.523
1070.001	612.953	80.000	19.996	101.003	19.963	4.464	0.513
1070.501	613.188	79.999	19.995	101.002	19.969	4.017	0.522
1071.000	613.440	80.000	19.996	101.004	19.968	4.128	0.502
1071.500	613.720	79.999	19.996	101.009	19.968	4.087	0.510
1072.000	613.974	79.999	19.996	101.011	19.963	4.451	0.533
1072.500	614.200	80.000	19.997	101.015	19.962	4.506	0.507
1073.000	614.498	80.000	19.996	101.016	19.964	4.408	0.502
1073.500	614.726	80.000	19.996	101.015	19.964	4.424	0.526
1074.000	615.019	79.999	19.997	101.015	19.967	4.185	0.524
1074.500	615.242	79.999	19.995	101.009	19.960	4.660	0.518
1075.000	615.519	80.000	19.998	101.006	19.961	4.583	0.508
1075.501	615.755	79.999	19.996	101.001	19.959	4.753	0.506
1076.001	616.015	80.000	19.996	100.998	19.962	4.570	0.504
1076.500	616.300	79.999	19.995	100.995	19.962	4.565	0.520
1077.000	616.514	80.002	19.997	100.997	19.957	4.869	0.522
1077.500	616.768	80.003	19.997	100.996	19.965	4.354	0.484
1078.000	617.044	80.003	19.998	100.998	19.963	4.471	0.499
1078.500	617.283	80.003	19.997	101.000	19.959	4.748	0.522
1079.000	617.535	80.000	19.998	100.999	19.959	4.752	0.503
1079.500	617.802	80.001	19.997	101.000	19.959	4.748	0.505
1080.000	618.036	80.003	19.996	101.003	19.960	4.646	0.511
1080.500	618.318	80.002	19.997	100.998	19.964	4.370	0.508
1081.000	618.596	80.000	19.995	100.994	19.959	4.723	0.538
1081.500	618.819	80.001	19.996	100.992	19.961	4.621	0.531
1082.000	619.088	80.004	19.995	100.994	19.963	4.442	0.496
1082.500	619.331	80.002	19.996	100.991	19.960	4.710	0.502
1083.000	619.602	80.002	19.996	100.997	19.962	4.508	0.513
1083.500	619.843	80.002	19.994	100.997	19.963	4.463	0.513
1084.000	620.115	80.002	19.996	100.995	19.965	4.361	0.512
1084.501	620.342	80.002	19.996	100.989	19.968	4.150	0.506
1085.001	620.602	80.002	19.997	100.987	19.963	4.486	0.493
1085.500	620.827	80.001	19.997	100.985	19.967	4.203	0.486
1086.000	621.100	80.002	19.995	100.990	19.966	4.231	0.492
1086.501	621.365	80.000	19.995	100.996	19.965	4.359	0.518
1087.001	621.609	80.002	19.995	101.004	19.965	4.335	0.524
1087.501	621.891	80.001	19.996	101.010	19.962	4.565	0.517
1088.001	622.102	80.001	19.997	101.012	19.959	4.769	0.509
1088.501	622.354	80.001	19.995	101.012	19.966	4.280	0.478
1089.000	622.622	80.001	19.996	101.012	19.961	4.644	0.492
1089.500	622.857	80.000	19.998	101.012	19.958	4.793	0.512
1090.001	623.123	79.999	19.996	101.009	19.957	4.876	0.502
1090.501	623.372	79.998	19.995	101.008	19.962	4.546	0.508
1091.001	623.634	79.998	19.995	101.003	19.961	4.588	0.512
1091.501	623.903	79.999	19.995	101.002	19.964	4.391	0.521
1092.000	624.120	79.999	19.996	101.001	19.962	4.554	0.509
1092.500	624.353	79.998	19.996	100.998	19.959	4.744	0.468
1093.000	624.614	79.997	19.996	100.998	19.962	4.554	0.472
1093.500	624.866	79.998	19.997	101.003	19.960	4.663	0.503
1094.000	625.134	79.997	19.995	101.002	19.960	4.695	0.516
1094.500	625.390	80.000	19.995	101.004	19.965	4.319	0.522
1095.001	625.673	79.999	19.997	101.009	19.964	4.370	0.532
1095.501	625.918	79.999	19.997	101.011	19.962	4.540	0.534
1096.000	626.159	79.999	19.997	101.011	19.965	4.310	0.507
1096.500	626.424	80.000	19.995	101.013	19.960	4.690	0.496
1097.000	626.659	79.998	19.997	101.014	19.966	4.272	0.503
1097.500	626.924	79.998	19.997	101.013	19.961	4.606	0.500
1098.001	627.190	79.999	19.996	101.013	19.965	4.329	0.516
1098.501	627.472	79.999	19.997	101.013	19.967	4.223	0.540
1099.000	627.694	80.000	19.997	101.013	19.964	4.408	0.526
1099.500	627.983	80.000	19.996	101.013	19.958	4.803	0.507
1100.000	628.231	79.999	19.996	101.012	19.960	4.697	0.523
1100.500	628.475	79.997	19.997	101.011	19.962	4.550	0.514
1101.000	628.724	79.999	19.997	101.010	19.960	4.665	0.493
1101.501	628.950	80.000	19.996	101.011	19.956	4.959	0.484
1102.001	629.236	79.997	19.996	101.011	19.955	5.038	0.494
1102.501	629.476	79.999	19.997	101.012	19.958	4.849	0.519
1103.000	629.716	79.998	19.996	101.013	19.959	4.751	0.503
1103.500	629.974	79.998	19.996	101.011	19.963	4.493	0.489
1104.000	630.231	80.000	19.995	101.010	19.965	4.353	0.506
1104.500	630.464	79.998	19.997	101.009	19.969	4.082	0.502
1105.000	630.736	79.998	19.996	101.007	19.958	4.818	0.497
1105.500	631.002	79.999	19.998	101.007	19.961	4.599	0.522
1106.000	631.260	79.999	19.997	101.008	19.961	4.595	0.531
1106.500	631.510	79.998	19.997	101.007	19.962	4.569	0.516
1107.000	631.784	79.997	19.996	101.008	19.967	4.157	0.516
1107.501	632.052	79.999	19.996	101.009	19.963	4.488	0.533
1108.001	632.265	79.997	19.995	101.009	19.958	4.816	0.511
1108.501	632.537	79.998	19.998	101.009	19.962	4.556	0.483
1109.001	632.811	79.997	19.996	101.010	19.961	4.622	0.516
1109.501	633.087	79.998	19.997	101.010	19.961	4.591	0.548
1110.001	633.318	79.997	19.996	101.009	19.961	4.616	0.528
1110.501	633.552	80.000	19.998	101.009	19.960	4.676	0.486
1111.001	633.842	79.998	19.997	101.010	19.963	4.461	0.494
1111.500	634.099	80.001	19.996	101.008	19.961	4.625	0.535
1112.001	634.317	79.999	19.997	101.006	19.962	4.523	0.511
1112.501	634.571	80.000	19.998	101.003	19.958	4.789	0.474
1113.000	634.832	79.999	19.998	100.999	19.957	4.898	0.494
1113.500	635.109	79.998	19.998	100.995	19.957	4.874	0.527
1114.000	635.287	79.998	19.997	100.996	19.961	4.606	0.497
1114.501	635.569	79.998	19.996	100.998	19.967	4.188	0.457
1115.001	635.836	79.999	19.997	101.001	19.960	4.673	0.505
1115.500	636.081	79.998	19.995	101.006	19.961	4.616	0.530
1116.001	636.359	79.997	19.995	101.010	19.962	4.518	0.517
1116.501	636.627	79.999	19.997	101.012	19.966	4.293	0.535
1117.001	636.851	79.999	19.996	101.012	19.962	4.558	0.519
1117.501	637.143	79.999	19.995	101.013	19.962	4.546	0.504
1118.000	637.383	79.999	19.996	101.013	19.961	4.592	0.524
1118.500	637.595	80.001	19.997	101.013	19.965	4.310	0.492
1119.000	637.866	79.999	19.995	101.014	19.960	4.657	0.467
1119.500	638.142	79.999	19.996	101.015	19.962	4.514	0.515
1120.000	638.397	80.000	19.996	101.014	19.957	4.897	0.539
1120.501	638.694	79.997	19.995	101.009	19.965	4.300	0.542
1121.001	638.923	79.997	19.999	101.009	19.967	4.181	0.539
1121.500	639.144	80.000	19.998	101.006	19.964	4.406	0.488
1122.000	639.477	79.997	19.995	101.002	19.963	4.442	0.502
1122.500	639.659	79.999	19.996	100.996	19.955	5.043	0.535
1123.000	639.892	79.999	19.996	100.995	19.962	4.519	0.465
1123.500	640.168	79.998	19.995	100.995	19.966	4.250	0.462
1124.001	640.418	80.001	19.997	100.995	19.956	4.931	0.517
1124.501	640.704	80.000	19.996	101.000	19.964	4.429	0.531
1125.000	640.955	80.001	19.997	101.006	19.966	4.261	0.536
1125.500	641.184	80.000	19.995	101.013	19.961	4.599	0.508
1126.000	641.470	79.996	19.996	101.014	19.953	5.176	0.498
1126.500	641.681	79.998	19.997	101.015	19.963	4.461	0.506
1127.001	641.942	79.998	19.996	101.015	19.963	4.440	0.484
1127.501	642.205	80.000	19.997	101.015	19.960	4.714	0.498
1128.001	642.479	79.998	19.995	101.015	19.962	4.552	0.531
1128.501	642.740	80.000	19.996	101.014	19.956	4.973	0.536
1129.000	642.996	79.999	19.996	101.016	19.956	4.969	0.526
1129.500	643.245	79.998	19.994	101.015	19.960	4.682	0.511
1130.000	643.516	79.999	19.994	101.010	19.963	4.501	0.512
1130.500	643.785	80.001	19.998	101.005	19.960	4.697	0.529
1131.000	644.007	79.998	19.995	101.002	19.958	4.827	0.516
1131.500	644.274	80.001	19.996	101.002	19.966	4.245	0.490
1132.000	644.499	80.000	19.998	100.999	19.960	4.708	0.490
1132.500	644.738	79.999	19.996	101.004	19.964	4.395	0.478
1133.000	645.022	79.998	19.997	101.009	19.958	4.835	0.494
1133.500	645.253	79.999	19.997	101.012	19.957	4.891	0.519
1134.001	645.536	79.999	19.994	101.005	19.964	4.423	0.514
1134.501	645.764	80.002	19.995	101.006	19.959	4.784	0.512
1135.000	646.044	80.001	19.996	101.002	19.961	4.639	0.509
1135.500	646.294	80.000	19.995	101.002	19.964	4.421	0.519
1136.000	646.542	80.002	19.997	101.000	19.961	4.578	0.514
1136.500	646.762	80.000	19.994	101.002	19.966	4.265	0.483
1137.000	647.048	80.003	19.996	101.006	19.962	4.542	0.487
1137.500	647.286	80.001	19.997	101.007	19.970	3.968	0.515
1138.000	647.570	80.000	19.996	101.007	19.966	4.285	0.523
1138.500	647.802	80.002	19.995	101.008	19.960	4.684	0.519
1139.000	648.079	79.999	19.998	101.013	19.961	4.608	0.513
1139.500	648.318	80.002	19.997	101.013	19.964	4.378	0.513
1140.000	648.544	80.000	19.995	101.015	19.961	4.584	0.490
1140.500	648.808	80.003	19.998	101.012	19.958	4.820	0.478
1141.000	649.073	80.001	19.995	101.008	19.962	4.572	0.510
1141.500	649.362	80.001	19.996	101.006	19.966	4.272	0.541
1142.000	649.621	79.999	19.995	101.003	19.964	4.429	0.551
1142.501	649.873	80.000	19.995	100.997	19.960	4.680	0.530
1143.001	650.126	80.003	19.995	100.999	19.963	4.452	0.508
1143.500	650.380	80.002	19.998	101.003	19.958	4.839	0.506
1144.000	650.656	80.001	19.995	101.004	19.960	4.697	0.519
1144.500	650.904	79.999	19.995	101.006	19.963	4.486	0.527
1145.000	651.132	80.000	19.996	101.010	19.959	4.742	0.500
1145.500	651.410	80.001	19.998	101.010	19.961	4.612	0.492
1146.001	651.677	80.001	19.997	101.010	19.966	4.246	0.526
1146.501	651.941	79.999	19.994	101.007	19.956	4.937	0.537
1147.000	652.177	80.000	19.995	101.006	19.964	4.397	0.515
1147.500	652.450	79.999	19.994	101.007	19.966	4.246	0.505
1148.000	652.747	80.000	19.994	101.003	19.962	4.557	0.540
1148.500	652.977	79.997	19.995	101.000	19.960	4.693	0.548
1149.000	653.230	79.999	19.995	101.003	19.962	4.514	0.505
1149.500	653.492	80.000	19.995	101.004	19.958	4.795	0.499
1150.001	653.743	80.000	19.995	101.005	19.957	4.875	0.514
1150.501	654.000	79.997	19.994	101.007	19.960	4.665	0.510
1151.000	654.266	79.999	19.994	101.008	19.959	4.746	0.515
1151.500	654.542	80.002	19.997	101.008	19.959	4.758	0.533
1152.000	654.763	80.001	19.996	101.007	19.962	4.520	0.520
1152.500	655.015	80.000	19.997	101.005	19.962	4.518	0.485
1153.000	655.312	80.001	19.995	101.006	19.960	4.667	0.511
1153.500	655.537	79.999	19.996	101.009	19.962	4.569	0.535
1154.000	655.791	80.002	19.996	101.009	19.961	4.576	0.500
1154.500	656.049	80.000	19.996	101.010	19.958	4.809	0.496
1155.001	656.306	80.002	19.995	101.012	19.960	4.663	0.514
1155.501	656.559	80.001	19.996	101.011	19.963	4.465	0.513
1156.000	656.849	80.000	19.995	101.011	19.958	4.797	0.526
1156.500	657.083	80.001	19.994	101.009	19.954	5.088	0.533
1157.000	657.337	80.002	19.994	101.009	19.957	4.911	0.506
1157.501	657.575	80.002	19.995	101.008	19.954	5.111	0.490
1158.001	657.853	80.000	19.994	101.010	19.959	4.750	0.504
1158.500	658.105	80.002	19.997	101.009	19.958	4.803	0.523
1159.000	658.354	80.004	19.994	101.011	19.960	4.701	0.515
1159.500	658.570	80.002	19.995	101.012	19.962	4.559	0.483
1160.000	658.864	80.004	19.995	101.013	19.958	4.799	0.487
1160.501	659.138	80.002	19.995	101.013	19.960	4.682	0.539
1161.001	659.365	80.001	19.995	101.013	19.961	4.612	0.535
1161.501	659.631	80.003	19.995	101.012	19.956	4.942	0.496
1162.001	659.874	80.003	19.994	101.013	19.959	4.763	0.501
1162.500	660.087	80.002	19.995	101.013	19.958	4.818	0.483
1163.000	660.393	80.002	19.994	101.013	19.959	4.720	0.488
1163.500	660.616	80.002	19.995	101.013	19.956	4.937	0.524
1164.000	660.875	80.001	19.995	101.013	19.956	4.950	0.506
1164.501	661.142	80.003	19.995	101.012	19.956	4.969	0.504
1165.001	661.404	80.003	19.995	101.012	19.957	4.909	0.528
1165.501	661.666	80.001	19.994	101.012	19.957	4.897	0.527
1166.001	661.900	79.999	19.994	101.012	19.958	4.829	0.510
1166.500	662.175	80.003	19.998	101.012	19.960	4.658	0.502
1167.000	662.439	80.003	19.995	101.011	19.958	4.818	0.524
1167.500	662.653	80.002	19.997	101.011	19.955	5.005	0.509
1168.000	662.931	80.003	19.998	101.011	19.957	4.873	0.485
1168.501	663.177	80.001	19.998	101.011	19.956	4.979	0.508
1169.001	663.454	80.002	19.996	101.010	19.953	5.149	0.524
1169.500	663.690	80.003	19.996	101.010	19.955	5.031	0.518
1170.000	663.917	79.998	19.996	101.011	19.959	4.767	0.488
1170.500	664.182	79.999	19.996	101.011	19.952	5.266	0.477
1171.000	664.426	80.000	19.998	101.011	19.955	5.007	0.500
1171.500	664.689	79.999	19.994	101.012	19.956	4.926	0.508
1172.000	664.968	79.999	19.995	101.012	19.951	5.319	0.524
1172.500	665.216	79.999	19.995	101.009	19.958	4.788	0.535
1173.000	665.466	80.000	19.997	101.008	19.960	4.711	0.513
1173.500	665.768	80.000	19.997	101.008	19.951	5.290	0.525
1174.000	665.960	80.001	19.996	101.005	19.957	4.871	0.523
1174.500	666.243	79.999	19.997	101.006	19.959	4.752	0.485
1175.000	666.482	79.998	19.997	101.009	19.952	5.260	0.498
1175.500	666.745	79.999	19.996	101.010	19.954	5.120	0.511
1176.000	666.977	79.999	19.996	101.010	19.956	4.937	0.498
1176.500	667.241	80.000	19.995	101.010	19.960	4.712	0.495
1177.000	667.522	79.997	19.996	101.011	19.955	5.031	0.521
1177.500	667.747	79.999	19.995	101.011	19.956	4.965	0.526
1178.000	667.997	79.998	19.995	101.011	19.954	5.111	0.491
1178.500	668.249	79.997	19.996	101.011	19.959	4.729	0.488
1179.000	668.503	80.000	19.996	101.013	19.954	5.124	0.504
1179.500	668.748	79.999	19.997	101.013	19.954	5.129	0.502
1180.000	669.045	79.999	19.997	101.013	19.952	5.252	0.520
1180.501	669.283	79.998	19.998	101.014	19.959	4.746	0.538
1181.001	669.520	80.000	19.995	101.016	19.954	5.118	0.505
1181.501	669.806	79.998	19.995	101.016	19.951	5.308	0.499
1182.001	670.049	80.000	19.996	101.016	19.954	5.116	0.526
1182.500	670.298	79.999	19.996	101.016	19.949	5.467	0.511
1183.000	670.566	79.998	19.994	101.016	19.954	5.124	0.504
1183.500	670.819	79.999	19.997	101.015	19.951	5.318	0.519
1184.000	671.052	79.999	19.996	101.016	19.952	5.237	0.504
1184.500	671.299	79.998	19.995	101.016	19.957	4.896	0.483
1185.000	671.568	79.999	19.996	101.013	19.955	5.035	0.498
1185.500	671.834	79.998	19.994	101.013	19.960	4.707	0.525
1186.001	672.093	80.000	19.996	101.012	19.957	4.865	0.530
1186.501	672.343	79.997	19.996	101.011	19.950	5.356	0.517
1187.000	672.572	79.999	19.997	101.010	19.952	5.222	0.494
1187.500	672.842	79.997	19.995	101.011	19.954	5.132	0.490
1188.000	673.100	79.998	19.996	101.012	19.953	5.181	0.513
1188.500	673.367	80.000	19.995	101.012	19.959	4.758	0.526
1189.000	673.627	79.999	19.996	101.012	19.955	5.058	0.526
1189.500	673.891	80.001	19.998	101.012	19.955	4.996	0.525
1190.000	674.203	79.999	19.996	101.011	19.956	4.992	0.550
1190.500	674.406	79.998	19.996	101.009	19.956	4.981	0.546
1191.000	674.641	80.000	19.997	101.008	19.957	4.890	0.476
1191.500	674.946	80.000	19.996	101.004	19.955	5.016	0.489
1192.000	675.182	80.000	19.995	101.000	19.958	4.788	0.541
1192.501	675.465	79.999	19.996	100.999	19.960	4.712	0.530
1193.001	675.710	80.000	19.995	100.999	19.952	5.230	0.523
1193.501	675.936	79.996	19.996	101.001	19.955	5.013	0.499
1194.001	676.202	80.000	19.995	101.006	19.959	4.758	0.482
1194.500	676.447	79.998	19.998	101.011	19.956	4.979	0.502
1195.000	676.658	80.000	19.997	101.014	19.951	5.292	0.484
1195.500	676.950	79.998	19.997	101.015	19.957	4.918	0.480
1196.000	677.193	79.999	19.995	101.015	19.960	4.712	0.518
1196.500	677.456	79.998	19.995	101.015	19.958	4.820	0.520
1197.000	677.731	79.997	19.995	101.016	19.956	4.971	0.522
1197.500	677.962	79.996	19.993	101.015	19.956	4.933	0.522
1198.000	678.198	79.998	19.995	101.015	19.957	4.897	0.487
1198.500	678.523	79.998	19.997	101.014	19.954	5.112	0.514
1199.000	678.739	79.995	19.995	101.014	19.959	4.772	0.551
1199.500	679.045	79.997	19.996	101.013	19.956	4.932	0.532
1200.000	679.291	80.000	19.998	101.014	19.953	5.138	0.537
1200.500	679.523	79.999	19.997	101.014	19.956	4.965	0.515
1201.000	679.777	79.996	19.996	101.014	19.958	4.829	0.482
1201.501	680.031	79.997	19.994	101.015	19.954	5.065	0.497
1202.001	680.275	79.995	19.995	101.015	19.960	4.688	0.503
1202.500	680.533	79.997	19.998	101.015	19.955	5.022	0.500
1203.000	680.772	79.999	19.997	101.016	19.954	5.133	0.499
1203.500	681.060	79.998	19.998	101.015	19.955	5.047	0.511
1204.000	681.310	79.999	19.996	101.015	19.954	5.092	0.532
1204.500	681.547	79.998	19.996	101.014	19.959	4.745	0.513
1205.000	681.813	79.998	19.997	101.012	19.955	4.996	0.495
1205.500	682.089	80.000	19.996	101.012	19.955	5.037	0.522
1206.001	682.329	80.000	19.996	101.013	19.958	4.844	0.529
1206.501	682.586	79.996	19.997	101.013	19.959	4.757	0.507
1207.000	682.872	79.998	19.997	101.013	19.960	4.714	0.520
1207.500	683.068	79.999	19.997	101.012	19.954	5.101	0.512
1208.001	683.340	79.998	19.997	101.009	19.954	5.110	0.475
1208.501	683.601	79.998	19.997	101.006	19.954	5.126	0.501
1209.001	683.819	79.997	19.996	100.999	19.952	5.216	0.506
1209.501	684.128	79.999	19.996	100.991	19.957	4.905	0.503
1210.001	684.377	80.001	19.996	100.992	19.954	5.122	0.543
1210.500	684.626	80.000	19.996	100.995	19.949	5.422	0.528
1211.000	684.874	80.001	19.997	100.997	19.955	5.030	0.497
1211.500	685.119	79.999	19.994	101.005	19.950	5.379	0.495
1212.000	685.377	80.000	19.997	101.012	19.949	5.481	0.498
1212.500	685.648	80.000	19.996	101.014	19.950	5.350	0.516
1213.000	685.892	80.001	19.995	101.014	19.950	5.366	0.521
1213.500	686.129	79.999	19.996	101.014	19.946	5.641	0.498
1214.000	686.428	79.998	19.997	101.014	19.952	5.256	0.509
1214.500	686.631	80.001	19.996	101.014	19.954	5.079	0.519
1215.000	686.926	80.002	19.997	101.014	19.951	5.284	0.500
1215.500	687.160	79.999	19.997	101.014	19.955	5.003	0.514
1216.000	687.416	80.001	19.996	101.014	19.955	5.039	0.510
1216.501	687.664	80.002	19.994	101.014	19.951	5.343	0.497
1217.001	687.940	80.001	19.995	101.010	19.953	5.186	0.514
1217.500	688.180	80.003	19.993	101.008	19.954	5.067	0.520
1218.000	688.440	80.003	19.997	101.008	19.954	5.127	0.508
1218.500	688.685	80.003	19.994	101.006	19.951	5.337	0.502
1219.000	688.948	80.002	19.996	101.005	19.952	5.250	0.506
1219.500	689.201	80.002	19.994	101.009	19.948	5.511	0.512
1220.000	689.463	80.004	19.999	101.010	19.951	5.305	0.516
1220.500	689.745	80.000	19.996	101.011	19.950	5.354	0.529
1221.000	689.980	80.001	19.997	101.013	19.951	5.329	0.530
1221.500	690.180	80.002	19.995	101.014	19.952	5.226	0.476
1222.000	690.447	80.003	19.994	101.013	19.952	5.239	0.451
1222.500	690.750	80.001	19.998	101.013	19.955	5.018	0.518
1223.000	690.993	80.003	19.994	101.013	19.949	5.441	0.558
1223.501	691.223	80.002	19.996	101.012	19.952	5.245	0.509
1224.001	691.486	80.001	19.996	101.011	19.950	5.364	0.483
1224.500	691.736	80.004	19.995	101.012	19.952	5.239	0.503
1225.000	691.964	80.001	19.996	101.012	19.953	5.182	0.496
1225.500	692.223	80.001	19.997	101.012	19.948	5.546	0.483
1226.000	692.454	80.001	19.997	101.012	19.948	5.508	0.488
1226.500	692.769	80.002	19.996	101.009	19.950	5.395	0.518
1227.000	692.996	80.001	19.994	101.009	19.955	5.032	0.544
1227.501	693.245	80.001	19.995	101.005	19.951	5.274	0.509
1228.001	693.494	80.002	19.994	101.004	19.954	5.095	0.487
1228.500	693.756	80.002	19.996	101.005	19.951	5.322	0.505
1229.000	693.989	80.001	19.994	101.007	19.948	5.518	0.503
1229.500	694.247	80.000	19.996	101.006	19.950	5.384	0.493
1230.000	694.560	80.000	19.996	101.009	19.947	5.621	0.531
1230.500	694.782	80.000	19.996	101.009	19.951	5.300	0.553
1231.000	695.030	80.001	19.997	101.008	19.950	5.407	0.503
1231.500	695.297	80.002	19.996	101.008	19.951	5.303	0.493
1232.000	695.567	80.000	19.997	101.007	19.949	5.445	0.526
1232.500	695.802	80.001	19.995	101.008	19.951	5.326	0.521
1233.000	696.063	80.000	19.997	101.009	19.953	5.192	0.501
1233.500	696.289	80.002	19.996	101.012	19.954	5.115	0.492
1234.000	696.507	80.002	19.998	101.012	19.948	5.515	0.465
1234.501	696.808	80.000	19.997	101.015	19.951	5.338	0.481
1235.001	697.029	80.003	19.997	101.014	19.955	5.049	0.520
1235.500	697.304	80.002	19.997	101.013	19.952	5.217	0.509
1236.000	697.569	80.002	19.995	101.011	19.951	5.335	0.518
1236.500	697.816	80.000	19.995	101.006	19.951	5.296	0.526
1237.000	698.044	80.000	19.996	100.999	19.950	5.396	0.494
1237.500	698.307	80.001	19.995	100.995	19.955	5.058	0.483
1238.000	698.550	80.002	19.995	100.992	19.948	5.511	0.498
1238.500	698.807	80.001	19.995	100.989	19.951	5.319	0.503
1239.000	699.058	80.002	19.997	100.995	19.948	5.530	0.504
1239.500	699.286	80.003	19.995	101.001	19.950	5.411	0.494
1240.000	699.551	80.001	19.996	101.006	19.953	5.198	0.486
1240.501	699.788	80.001	19.995	101.010	19.954	5.113	0.497
1241.001	700.068	80.003	19.996	101.013	19.949	5.439	0.509
1241.500	700.321	80.000	19.995	101.014	19.949	5.417	0.525
1242.000	700.552	80.001	19.995	101.014	19.945	5.730	0.509
1242.500	700.839	80.003	19.994	101.015	19.949	5.460	0.501
1243.000	701.100	80.000	19.997	101.015	19.945	5.698	0.533
1243.500	701.326	80.001	19.994	101.016	19.947	5.564	0.517
1244.000	701.565	80.003	19.997	101.017	19.943	5.845	0.476
1244.500	701.802	80.002	19.994	101.017	19.950	5.406	0.471
1245.001	702.048	80.003	19.994	101.017	19.948	5.540	0.480
1245.501	702.344	80.002	19.995	101.017	19.947	5.622	0.513
1246.001	702.559	80.002	19.994	101.017	19.947	5.566	0.526
1246.500	702.823	80.003	19.996	101.015	19.950	5.371	0.495
1247.000	703.111	80.001	19.997	101.013	19.947	5.556	0.516
1247.500	703.335	80.003	19.995	101.013	19.949	5.426	0.532
1248.000	703.596	80.002	19.996	101.014	19.948	5.509	0.498
1248.500	703.834	79.999	19.994	101.013	19.949	5.462	0.492
1249.000	704.047	80.002	19.995	101.014	19.943	5.889	0.475
1249.500	704.285	80.002	19.995	101.016	19.944	5.798	0.451
1250.000	704.569	80.001	19.995	101.016	19.944	5.794	0.486
1250.501	704.814	80.002	19.995	101.016	19.944	5.783	0.525
1251.001	705.081	80.002	19.996	101.016	19.948	5.549	0.521
1251.501	705.314	80.002	19.995	101.016	19.947	5.617	0.506
1252.001	705.599	80.002	19.995	101.016	19.950	5.351	0.508
1252.500	705.819	80.002	19.997	101.016	19.946	5.672	0.511
1253.000	706.078	80.001	19.995	101.015	19.946	5.626	0.492
1253.500	706.328	80.001	19.997	101.016	19.947	5.577	0.494
1254.000	706.588	80.000	19.995	101.017	19.947	5.573	0.510
1254.500	706.786	79.998	19.996	101.018	19.942	5.966	0.484
1255.000	707.065	80.000	19.995	101.018	19.944	5.798	0.467
1255.500	707.326	79.998	19.994	101.018	19.949	5.481	0.508
1256.000	707.579	80.000	19.994	101.017	19.946	5.685	0.527
1256.501	707.810	80.000	19.998	101.015	19.945	5.736	0.499
1257.001	708.075	79.998	19.995	101.015	19.946	5.668	0.490
1257.501	708.320	80.001	19.997	101.014	19.947	5.600	0.503
1258.000	708.585	80.000	19.996	101.014	19.947	5.596	0.510
1258.501	708.812	79.997	19.995	101.011	19.947	5.585	0.501
1259.001	709.071	79.999	19.995	101.012	19.946	5.676	0.489
1259.500	709.300	79.999	19.997	101.012	19.947	5.564	0.487
1260.000	709.587	79.999	19.995	101.013	19.945	5.755	0.502
1260.500	709.853	79.998	19.995	101.014	19.948	5.540	0.535
1261.001	710.066	80.001	19.996	101.017	19.948	5.538	0.516
1261.501	710.336	79.999	19.996	101.018	19.946	5.656	0.481
1262.000	710.574	80.000	19.997	101.018	19.949	5.458	0.495
1262.500	710.822	79.999	19.996	101.018	19.950	5.407	0.497
1263.000	711.102	79.996	19.996	101.017	19.944	5.815	0.507
1263.500	711.341	79.998	19.996	101.016	19.946	5.626	0.524
1264.001	711.601	80.000	19.996	101.017	19.944	5.775	0.510
1264.501	711.871	80.000	19.995	101.016	19.944	5.783	0.515
1265.001	712.125	80.000	19.996	101.016	19.946	5.668	0.527
1265.500	712.357	79.998	19.995	101.015	19.944	5.810	0.505
1266.000	712.623	79.999	19.996	101.015	19.945	5.736	0.492
1266.500	712.869	79.999	19.996	101.015	19.941	6.000	0.505
1267.000	713.126	79.997	19.994	101.015	19.947	5.558	0.507
1267.501	713.335	79.998	19.996	101.015	19.948	5.490	0.484
1268.001	713.611	79.999	19.996	101.016	19.947	5.562	0.475
1268.501	713.845	79.999	19.997	101.016	19.946	5.637	0.497
1269.001	714.093	79.998	19.996	101.019	19.948	5.515	0.496
1269.501	714.372	79.998	19.996	101.019	19.948	5.537	0.505
1270.001	714.621	79.997	19.996	101.020	19.947	5.569	0.528
1270.500	714.905	79.997	19.996	101.021	19.950	5.354	0.530
1271.000	715.108	80.000	19.997	101.020	19.950	5.360	0.510
1271.500	715.389	79.999	19.994	101.017	19.950	5.352	0.486
1272.000	715.658	79.999	19.996	101.016	19.950	5.381	0.517
1272.500	715.917	80.000	19.996	101.015	19.949	5.454	0.539
1273.000	716.167	79.999	19.996	101.014	19.950	5.402	0.519
1273.500	716.441	80.000	19.997	101.013	19.949	5.428	0.517
1274.000	716.629	79.998	19.994	101.013	19.948	5.524	0.493
1274.500	716.921	80.000	19.997	101.013	19.950	5.396	0.471
1275.000	717.159	79.998	19.995	101.015	19.948	5.543	0.504
1275.500	717.423	80.000	19.999	101.018	19.950	5.383	0.516
1276.000	717.703	80.000	19.995	101.019	19.948	5.490	0.523
1276.500	717.944	79.998	19.995	101.019	19.951	5.283	0.533
1277.000	718.193	79.999	19.996	101.020	19.950	5.413	0.506
1277.500	718.418	80.001	19.995	101.018	19.949	5.422	0.482
1278.000	718.665	80.000	19.997	101.015	19.951	5.320	0.473
1278.500	718.902	79.999	19.997	101.013	19.951	5.332	0.478
1279.000	719.159	79.999	19.997	101.013	19.951	5.281	0.489
1279.500	719.421	79.999	19.996	101.012	19.946	5.677	0.506
1280.000	719.668	79.999	19.996	101.012	19.945	5.724	0.514
1280.500	719.937	79.999	19.996	101.011	19.947	5.568	0.513
1281.000	720.195	79.999	19.997	101.012	19.949	5.422	0.521
1281.500	720.420	79.998	19.995	101.012	19.947	5.568	0.505
1282.000	720.709	79.999	19.995	101.012	19.947	5.585	0.499
1282.500	720.929	80.000	19.996	101.012	19.948	5.505	0.511
1283.000	721.219	79.998	19.996	101.013	19.948	5.488	0.509
1283.500	721.462	79.998	19.995	101.013	19.950	5.375	0.522
1284.001	721.728	79.999	19.997	101.013	19.943	5.894	0.521
1284.501	721.980	80.000	19.997	101.013	19.946	5.653	0.513
1285.000	722.227	79.999	19.995	101.014	19.944	5.766	0.509
1285.500	722.504	79.997	19.997	101.013	19.946	5.647	0.512
1286.000	722.724	79.997	19.998	101.013	19.944	5.832	0.511
1286.501	722.991	79.998	19.996	101.013	19.948	5.553	0.492
1287.001	723.230	79.997	19.997	101.013	19.947	5.568	0.496
1287.501	723.522	79.999	19.996	101.012	19.951	5.320	0.519
1288.001	723.746	79.998	19.997	101.012	19.949	5.462	0.524
1288.500	724.009	79.998	19.997	101.011	19.948	5.537	0.501
1289.000	724.291	79.998	19.998	101.012	19.946	5.679	0.516
1289.500	724.510	79.998	19.996	101.012	19.946	5.677	0.523
1290.000	724.770	79.999	19.997	101.012	19.946	5.666	0.490
1290.500	725.007	79.998	19.997	101.013	19.948	5.505	0.488
1291.000	725.262	79.999	19.997	101.013	19.949	5.483	0.494
1291.500	725.523	79.998	19.997	101.013	19.951	5.324	0.504
1292.000	725.757	79.999	19.997	101.013	19.947	5.560	0.506
1292.500	726.059	79.999	19.997	101.013	19.946	5.681	0.516
1293.000	726.299	79.999	19.997	101.013	19.949	5.415	0.539
1293.500	726.550	79.999	19.997	101.015	19.948	5.551	0.517
1294.000	726.787	80.000	19.999	101.015	19.947	5.597	0.489
1294.501	727.055	79.998	19.999	101.014	19.949	5.457	0.496
1295.001	727.278	79.998	19.997	101.014	19.953	5.183	0.498
1295.501	727.537	80.001	19.996	101.014	19.947	5.604	0.487
1296.000	727.820	79.999	19.999	101.012	19.947	5.589	0.512
1296.500	728.080	80.000	19.995	101.013	19.946	5.649	0.542
1297.001	728.321	80.001	19.995	101.015	19.949	5.460	0.521
1297.501	728.574	80.001	19.996	101.015	19.951	5.337	0.498
1298.000	728.829	80.001	19.997	101.014	19.949	5.453	0.501
1298.500	729.092	80.000	19.996	101.014	19.945	5.743	0.513
1299.000	729.306	80.001	19.998	101.013	19.948	5.488	0.498
1299.500	729.601	80.001	19.998	101.012	19.945	5.741	0.493
1300.001	729.844	80.001	19.997	101.012	19.945	5.696	0.523
1300.501	730.097	80.000	19.995	101.011	19.946	5.687	0.517
1301.000	730.342	80.001	19.997	101.011	19.943	5.876	0.497
1301.500	730.628	80.002	19.997	101.012	19.950	5.383	0.515
1302.000	730.898	80.001	19.996	101.012	19.947	5.581	0.543
1302.500	731.127	80.002	19.997	101.012	19.947	5.581	0.528
1303.000	731.415	80.002	19.996	101.012	19.943	5.842	0.508
1303.500	731.653	80.000	19.996	101.013	19.948	5.517	0.521
1304.001	731.919	80.001	19.995	101.017	19.947	5.562	0.515
1304.501	732.165	79.999	19.995	101.023	19.947	5.566	0.508
1305.000	732.427	80.001	19.996	101.023	19.947	5.583	0.510
1305.500	732.686	80.000	19.996	101.023	19.950	5.404	0.514
1306.001	732.919	80.000	19.995	101.023	19.944	5.789	0.506
1306.501	733.150	80.001	19.995	101.019	19.945	5.728	0.478
1307.000	733.425	80.001	19.995	101.016	19.945	5.760	0.485
1307.500	733.698	79.999	19.995	101.016	19.943	5.858	0.527
1308.000	733.944	80.001	19.995	101.016	19.945	5.758	0.534
1308.500	734.199	80.001	19.996	101.015	19.943	5.889	0.511
1309.000	734.472	80.000	19.996	101.016	19.945	5.707	0.515
1309.500	734.677	79.998	19.996	101.014	19.940	6.047	0.503
1310.001	734.964	80.000	19.997	101.015	19.944	5.792	0.485
1310.501	735.234	80.001	19.997	101.016	19.941	6.000	0.524
1311.001	735.453	80.000	19.995	101.016	19.942	5.911	0.523
1311.500	735.716	79.999	19.995	101.016	19.942	5.926	0.485
1312.000	735.999	80.000	19.996	101.016	19.941	6.006	0.513
1312.500	736.213	79.999	19.996	101.016	19.940	6.077	0.521
1313.000	736.462	79.999	19.996	101.016	19.943	5.870	0.480
1313.500	736.744	79.999	19.996	101.015	19.944	5.779	0.497
1314.000	736.975	80.000	19.997	101.015	19.945	5.758	0.522
1314.500	737.218	80.000	19.995	101.015	19.944	5.787	0.494
1315.000	737.452	79.999	19.995	101.015	19.947	5.615	0.476
1315.500	737.749	80.001	19.995	101.016	19.949	5.447	0.504
1316.000	738.007	80.001	19.995	101.017	19.946	5.658	0.543
1316.500	738.248	80.000	19.996	101.016	19.945	5.738	0.527
1317.000	738.510	80.000	19.995	101.015	19.950	5.388	0.501
1317.500	738.751	80.001	19.995	101.015	19.949	5.453	0.503
1318.000	739.001	80.001	19.995	101.014	19.946	5.689	0.497
1318.501	739.270	80.000	19.996	101.014	19.944	5.772	0.505
1319.001	739.547	80.000	19.996	101.015	19.948	5.515	0.533
1319.500	739.816	80.000	19.997	101.015	19.944	5.823	0.546
1320.000	740.036	80.001	19.996	101.015	19.942	5.936	0.517
1320.500	740.268	80.001	19.996	101.015	19.950	5.371	0.470
1321.000	740.535	80.001	19.996	101.015	19.945	5.705	0.476
1321.500	740.788	80.001	19.995	101.015	19.946	5.656	0.510
1322.000	741.042	80.002	19.997	101.015	19.946	5.641	0.514
1322.500	741.297	80.002	19.995	101.014	19.944	5.809	0.508
1323.001	741.512	80.001	19.996	101.014	19.947	5.594	0.489
1323.501	741.809	80.000	19.997	101.015	19.944	5.766	0.491
1324.000	742.028	80.002	19.995	101.016	19.944	5.813	0.514
1324.500	742.261	80.001	19.994	101.015	19.948	5.526	0.484
1325.000	742.529	80.001	19.995	101.016	19.943	5.836	0.477
1325.500	742.785	80.001	19.996	101.018	19.946	5.645	0.513
1326.001	743.029	80.002	19.995	101.018	19.942	5.923	0.512
1326.501	743.296	80.002	19.995	101.016	19.946	5.643	0.506
1327.000	743.523	80.000	19.995	101.017	19.950	5.401	0.503
