Sample ID:	C:\MCC\MCC Cal\Test\Particleboard_MCC_30K_min_211006_R2.txt
Sample Weight (mg):	4.92
Heating Rate (C/s):	0.5
Combustor Temp (C):	900
N2 Flow Rate (cc/min):	80
O2 Flow Rate (cc/min):	20
Calibration File:	C:\MCC\MCC Cal\Coeff1 JN10440_30_210304.txt.txt
T Correction Coefficients:	0	1.024463	0
Time Shift (s):	14
*
Time (s)	Temperature (C)	N2 flow rate (cc/min)	O2 flow rate (cc/min)	Flow Rate (cc/min)	Oxygen (%)	HRR (W/g)	Heating rate (C/s)
0.000	107.789	79.993	19.995	100.640	20.046	-0.038	-0.017
0.500	107.806	79.994	19.989	100.646	20.045	0.012	-0.018
1.000	107.820	79.994	19.992	100.647	20.045	-0.005	0.015
1.500	107.799	79.994	20.001	100.652	20.043	0.154	0.012
2.000	107.822	80.000	19.993	100.651	20.045	0.031	-0.003
2.500	107.811	79.996	19.994	100.653	20.047	-0.116	0.007
3.000	107.798	79.995	19.992	100.648	20.047	-0.105	-0.006
3.500	107.803	79.995	19.996	100.649	20.043	0.112	-0.016
4.000	107.810	79.998	19.989	100.651	20.045	0.000	0.002
4.500	107.789	80.001	19.993	100.655	20.042	0.202	-0.001
5.000	107.760	79.995	19.998	100.657	20.043	0.112	-0.032
5.500	107.758	79.994	19.998	100.662	20.047	-0.110	-0.041
6.000	107.769	79.998	19.996	100.657	20.046	-0.047	-0.011
6.500	107.768	79.996	19.995	100.655	20.041	0.267	0.009
7.000	107.777	79.995	19.996	100.656	20.044	0.059	0.009
7.500	107.756	79.994	19.992	100.657	20.043	0.150	-0.002
8.000	107.760	79.999	19.991	100.661	20.044	0.091	-0.015
8.501	107.733	79.998	19.988	100.668	20.041	0.255	-0.020
9.001	107.769	79.995	19.990	100.673	20.041	0.280	-0.007
9.501	107.758	79.999	19.994	100.675	20.043	0.155	0.017
10.001	107.761	79.991	19.986	100.678	20.041	0.249	0.008
10.500	107.784	79.999	19.997	100.684	20.039	0.373	0.009
11.000	107.782	79.996	19.995	100.690	20.038	0.454	0.023
11.500	107.787	79.998	19.994	100.695	20.035	0.649	0.012
12.000	107.805	79.996	19.993	100.701	20.035	0.636	0.014
12.500	107.782	79.999	19.994	100.706	20.035	0.660	0.009
13.000	107.807	79.999	19.993	100.706	20.037	0.549	-0.002
13.500	107.804	79.997	19.994	100.707	20.036	0.606	0.012
14.000	107.806	79.999	19.993	100.707	20.034	0.712	0.010
14.500	107.829	79.998	19.998	100.707	20.034	0.693	0.012
15.000	107.857	79.999	19.997	100.707	20.033	0.796	0.038
15.500	107.836	79.994	19.994	100.707	20.033	0.805	0.029
16.000	107.853	79.998	19.994	100.708	20.031	0.890	0.002
16.500	107.876	80.000	19.992	100.713	20.032	0.833	0.018
17.000	107.839	79.998	19.995	100.721	20.031	0.926	0.013
17.500	107.897	79.998	19.995	100.729	20.029	1.025	0.003
18.000	107.886	79.998	19.994	100.737	20.031	0.926	0.033
18.500	107.881	79.995	19.994	100.743	20.026	1.255	0.015
19.000	107.925	79.998	19.993	100.749	20.026	1.201	0.012
19.500	107.952	79.998	19.994	100.753	20.026	1.206	0.055
20.000	107.955	79.999	19.994	100.759	20.024	1.331	0.051
20.500	107.991	79.997	19.995	100.766	20.023	1.424	0.035
21.000	107.993	79.998	19.996	100.774	20.021	1.515	0.039
21.500	107.999	79.993	19.993	100.780	20.020	1.591	0.023
22.000	108.067	79.995	19.994	100.788	20.018	1.716	0.041
22.500	108.109	79.996	19.995	100.798	20.018	1.759	0.092
23.000	108.109	79.996	19.994	100.806	20.017	1.811	0.076
23.500	108.172	79.996	19.994	100.815	20.015	1.904	0.052
24.000	108.167	79.995	19.994	100.823	20.014	2.024	0.060
24.500	108.193	79.995	19.998	100.826	20.013	2.074	0.040
25.000	108.237	79.995	19.994	100.826	20.010	2.219	0.046
25.500	108.303	79.994	19.996	100.826	20.012	2.153	0.090
26.000	108.330	79.995	19.998	100.826	20.009	2.303	0.101
26.500	108.367	79.994	19.997	100.832	20.007	2.416	0.078
27.000	108.399	79.996	19.993	100.840	20.009	2.288	0.066
27.500	108.464	79.995	19.996	100.846	20.009	2.310	0.083
28.000	108.515	79.996	19.997	100.853	20.011	2.207	0.106
28.500	108.596	79.994	19.994	100.860	20.010	2.229	0.124
29.000	108.639	79.996	19.996	100.861	20.009	2.309	0.128
29.500	108.696	79.994	19.995	100.862	20.009	2.333	0.112
30.000	108.778	79.995	19.993	100.864	20.009	2.312	0.120
30.500	108.809	79.995	19.996	100.867	20.007	2.467	0.126
31.000	108.899	79.989	19.997	100.866	20.006	2.526	0.117
31.500	108.924	79.995	19.995	100.862	20.004	2.620	0.118
32.001	108.980	79.994	19.995	100.860	20.008	2.350	0.098
32.500	109.090	79.996	19.994	100.859	20.006	2.509	0.124
33.000	109.124	79.994	19.997	100.857	20.004	2.665	0.155
33.500	109.222	79.998	19.996	100.859	20.006	2.492	0.138
34.000	109.300	79.995	19.994	100.864	20.005	2.582	0.154
34.500	109.398	79.993	19.995	100.866	20.004	2.654	0.176
35.000	109.460	79.994	20.001	100.866	20.004	2.661	0.168
35.500	109.538	79.997	19.998	100.865	20.002	2.772	0.150
36.000	109.626	79.996	19.996	100.864	20.004	2.665	0.153
36.500	109.721	79.998	19.994	100.863	20.004	2.611	0.174
37.000	109.805	79.995	19.997	100.861	20.004	2.639	0.181
37.500	109.859	79.997	19.995	100.861	20.000	2.884	0.158
38.000	109.969	79.994	19.994	100.863	20.002	2.753	0.151
38.500	110.042	79.996	19.995	100.863	20.002	2.746	0.174
39.000	110.141	79.991	19.997	100.863	20.004	2.653	0.178
39.500	110.248	79.996	19.995	100.863	20.006	2.506	0.188
40.000	110.357	79.993	19.989	100.861	20.003	2.707	0.211
40.500	110.384	79.996	19.996	100.859	20.000	2.874	0.176
41.000	110.516	79.996	19.996	100.857	20.002	2.778	0.148
41.500	110.657	79.994	19.996	100.855	20.000	2.869	0.216
42.000	110.746	79.994	19.994	100.852	20.001	2.822	0.252
42.500	110.852	79.996	19.997	100.854	20.002	2.756	0.213
43.000	110.953	79.996	19.994	100.855	20.004	2.642	0.201
43.500	111.067	79.998	19.996	100.858	20.003	2.677	0.211
44.000	111.208	79.997	19.997	100.859	20.004	2.655	0.235
44.500	111.280	79.994	19.995	100.859	20.001	2.857	0.234
45.000	111.407	79.994	19.997	100.859	19.999	2.931	0.206
45.500	111.507	79.995	19.995	100.858	20.001	2.828	0.213
46.000	111.603	79.995	19.995	100.856	19.999	2.949	0.211
46.500	111.716	79.996	19.993	100.857	19.999	2.928	0.202
47.000	111.828	79.997	19.993	100.860	20.000	2.876	0.217
47.500	111.930	79.997	19.995	100.862	19.998	3.040	0.220
48.000	112.055	79.995	19.994	100.864	20.000	2.869	0.221
48.500	112.142	79.995	19.994	100.866	19.999	2.923	0.219
49.000	112.287	79.991	19.996	100.867	19.999	2.947	0.221
49.500	112.405	79.996	19.995	100.868	19.999	2.961	0.247
50.000	112.544	79.994	19.996	100.871	20.000	2.920	0.260
50.500	112.703	79.995	19.996	100.876	19.998	2.992	0.277
51.000	112.773	79.995	19.995	100.882	19.998	3.003	0.264
51.500	112.886	79.995	19.996	100.885	19.999	2.930	0.206
52.000	113.022	79.988	20.000	100.884	19.997	3.086	0.216
52.500	113.166	79.995	19.996	100.878	19.998	3.032	0.264
53.000	113.291	79.995	19.998	100.873	19.998	3.029	0.274
53.501	113.420	79.996	19.996	100.870	19.997	3.063	0.261
54.001	113.545	79.994	19.995	100.870	19.997	3.077	0.254
54.501	113.666	79.995	19.995	100.871	20.000	2.920	0.250
55.001	113.819	79.993	19.996	100.873	19.997	3.074	0.260
55.500	113.957	79.996	19.997	100.875	19.995	3.188	0.283
56.000	114.108	79.994	19.995	100.876	20.000	2.918	0.290
56.500	114.221	79.995	19.995	100.878	19.996	3.147	0.276
57.000	114.370	79.994	19.996	100.882	19.998	3.034	0.264
57.500	114.497	79.995	19.995	100.887	19.997	3.060	0.269
58.000	114.620	79.995	19.995	100.888	19.997	3.084	0.263
58.500	114.754	79.994	19.996	100.887	19.998	3.006	0.254
59.000	114.916	79.994	19.996	100.884	19.997	3.088	0.276
59.500	115.033	79.993	19.996	100.886	19.997	3.072	0.287
60.000	115.186	79.995	19.996	100.888	19.996	3.136	0.275
60.500	115.327	79.993	19.996	100.892	19.996	3.160	0.282
61.000	115.501	79.995	19.995	100.896	19.998	3.005	0.305
61.500	115.604	79.994	19.995	100.901	19.998	2.996	0.297
62.000	115.821	79.995	19.995	100.900	19.996	3.121	0.298
62.500	115.953	79.998	19.995	100.901	19.994	3.258	0.334
63.000	116.125	79.994	19.995	100.901	19.995	3.235	0.326
63.500	116.271	79.995	19.995	100.901	19.997	3.057	0.311
64.000	116.422	79.996	19.996	100.901	19.997	3.102	0.308
64.500	116.545	79.995	19.996	100.901	19.998	3.007	0.285
65.000	116.755	79.995	19.996	100.901	19.997	3.112	0.303
65.500	116.894	79.993	19.997	100.901	19.997	3.067	0.341
66.000	116.996	79.995	19.996	100.901	19.998	3.005	0.295
66.500	117.210	79.995	19.996	100.902	19.997	3.074	0.278
67.000	117.363	79.995	19.997	100.908	19.998	3.019	0.341
67.500	117.506	79.995	19.996	100.909	19.994	3.285	0.332
68.000	117.739	79.996	19.997	100.909	19.998	3.013	0.336
68.501	117.853	79.994	19.996	100.911	19.993	3.325	0.361
69.001	118.002	79.994	19.996	100.909	19.997	3.074	0.305
69.500	118.188	79.995	19.997	100.906	19.998	3.024	0.299
70.000	118.395	79.995	19.997	100.908	19.998	3.043	0.365
70.500	118.553	79.996	19.995	100.907	19.997	3.111	0.379
71.000	118.683	79.994	19.996	100.907	19.996	3.159	0.327
71.500	118.883	79.995	19.996	100.909	19.995	3.183	0.309
72.000	119.046	79.995	19.996	100.913	19.994	3.263	0.346
72.500	119.242	79.994	19.997	100.915	19.996	3.126	0.361
73.000	119.394	79.996	19.995	100.917	19.993	3.366	0.353
73.500	119.619	79.996	19.993	100.921	19.992	3.418	0.362
74.000	119.760	79.996	19.996	100.920	19.994	3.297	0.371
74.500	119.936	79.996	19.995	100.917	19.993	3.358	0.342
75.000	120.134	79.994	19.996	100.914	19.992	3.406	0.346
75.501	120.309	79.995	19.997	100.915	19.994	3.283	0.374
76.001	120.498	79.995	19.996	100.910	19.994	3.271	0.368
76.500	120.633	79.996	19.996	100.909	19.993	3.315	0.344
77.000	120.853	79.995	19.994	100.906	19.992	3.425	0.340
77.500	121.054	79.999	19.995	100.909	19.992	3.373	0.388
78.000	121.226	79.994	19.995	100.907	19.991	3.477	0.397
78.500	121.445	79.992	19.996	100.908	19.993	3.341	0.382
79.000	121.638	79.999	19.991	100.910	19.994	3.252	0.402
79.500	121.849	79.995	19.995	100.913	19.994	3.252	0.408
80.000	122.015	79.990	19.999	100.915	19.997	3.109	0.390
80.500	122.233	79.997	19.999	100.918	19.994	3.249	0.380
81.000	122.463	79.996	19.995	100.923	19.995	3.209	0.416
81.500	122.608	79.995	19.995	100.920	19.993	3.313	0.412
82.000	122.850	79.994	19.995	100.919	19.995	3.232	0.381
82.500	123.034	79.995	19.996	100.917	19.994	3.256	0.407
83.000	123.238	79.994	19.996	100.917	19.993	3.352	0.407
83.500	123.444	79.996	19.995	100.915	19.995	3.235	0.399
84.000	123.638	79.995	19.996	100.920	19.992	3.371	0.405
84.500	123.820	79.998	19.994	100.919	19.994	3.266	0.388
85.000	124.016	79.997	19.994	100.922	19.992	3.421	0.377
85.500	124.220	79.997	19.993	100.922	19.995	3.231	0.389
86.000	124.402	79.993	19.999	100.924	19.993	3.323	0.393
86.501	124.630	79.994	19.998	100.921	19.993	3.314	0.398
87.001	124.819	79.994	19.994	100.923	19.993	3.335	0.414
87.500	125.034	79.996	19.991	100.922	19.992	3.399	0.410
88.000	125.215	79.993	19.998	100.923	19.992	3.376	0.400
88.501	125.429	79.996	19.994	100.921	19.992	3.395	0.396
89.001	125.645	79.996	19.992	100.921	19.991	3.482	0.413
89.501	125.875	79.994	19.992	100.922	19.992	3.423	0.438
90.000	126.066	79.990	19.998	100.920	19.992	3.418	0.433
90.500	126.336	79.995	19.994	100.919	19.995	3.236	0.441
91.000	126.516	79.993	19.995	100.918	19.993	3.363	0.456
91.500	126.713	79.996	19.995	100.919	19.994	3.293	0.413
92.000	126.918	79.996	19.995	100.921	19.992	3.430	0.389
92.500	127.165	79.996	19.995	100.921	19.994	3.304	0.427
93.000	127.346	79.997	19.994	100.918	19.990	3.542	0.440
93.500	127.590	79.997	19.995	100.919	19.992	3.381	0.427
94.000	127.822	79.997	19.996	100.915	19.995	3.193	0.451
94.500	128.038	79.997	19.995	100.911	19.994	3.255	0.461
95.001	128.227	79.999	19.994	100.909	19.993	3.368	0.426
95.501	128.459	79.997	19.995	100.909	19.992	3.400	0.413
96.001	128.680	79.998	19.996	100.907	19.993	3.344	0.437
96.501	128.920	79.998	19.995	100.908	19.994	3.262	0.457
97.000	129.098	79.997	19.994	100.909	19.995	3.205	0.440
97.500	129.334	79.998	19.996	100.908	19.996	3.148	0.416
98.000	129.551	79.998	19.995	100.907	19.994	3.245	0.433
98.500	129.776	79.997	19.996	100.907	19.992	3.385	0.448
99.000	129.980	79.997	19.995	100.905	19.993	3.311	0.436
99.500	130.216	79.997	19.995	100.903	19.995	3.214	0.435
100.000	130.437	79.999	19.995	100.904	19.993	3.342	0.448
100.500	130.645	79.999	19.995	100.905	19.995	3.195	0.443
101.000	130.858	79.997	19.994	100.906	19.994	3.278	0.425
101.500	131.083	79.998	19.994	100.907	19.993	3.309	0.429
102.000	131.347	79.996	19.995	100.908	19.996	3.167	0.463
102.500	131.561	79.997	19.994	100.905	19.994	3.285	0.484
103.000	131.768	79.997	19.995	100.906	19.996	3.152	0.450
103.500	131.973	79.997	19.995	100.906	19.996	3.165	0.416
104.000	132.219	79.997	19.995	100.904	19.993	3.362	0.431
104.500	132.478	79.996	19.994	100.903	19.993	3.326	0.478
105.001	132.684	79.995	19.994	100.903	19.994	3.281	0.485
105.501	132.928	79.995	19.995	100.902	19.993	3.340	0.457
106.000	133.088	79.995	19.996	100.900	19.995	3.229	0.427
106.500	133.355	79.995	19.996	100.904	19.994	3.248	0.416
107.000	133.603	79.995	19.995	100.907	19.995	3.214	0.471
107.501	133.825	79.994	19.996	100.907	19.993	3.359	0.493
108.001	134.106	79.995	19.995	100.908	19.997	3.112	0.487
108.501	134.296	79.994	19.996	100.908	19.992	3.414	0.487
109.001	134.561	79.994	19.997	100.904	19.991	3.473	0.463
109.500	134.789	79.994	19.995	100.902	19.997	3.094	0.474
110.000	135.037	79.995	19.994	100.902	19.992	3.402	0.484
110.500	135.274	79.994	19.996	100.903	19.994	3.281	0.481
111.000	135.484	79.995	19.995	100.903	19.994	3.298	0.466
111.500	135.717	79.993	19.996	100.904	19.995	3.201	0.445
112.000	135.929	79.995	19.995	100.904	19.994	3.300	0.444
112.500	136.164	79.994	19.996	100.905	19.990	3.499	0.446
113.001	136.415	79.994	19.997	100.903	19.995	3.219	0.467
113.501	136.648	79.995	19.995	100.903	19.993	3.309	0.485
114.001	136.846	79.996	19.996	100.903	19.993	3.369	0.457
114.501	137.111	79.995	19.997	100.902	19.990	3.525	0.447
115.001	137.373	79.995	19.996	100.902	19.993	3.364	0.495
115.500	137.612	79.995	19.996	100.902	19.993	3.314	0.514
116.000	137.863	79.995	19.994	100.902	19.995	3.239	0.496
116.500	138.104	79.995	19.997	100.902	19.992	3.380	0.491
117.000	138.324	79.996	19.995	100.901	19.993	3.369	0.476
117.500	138.582	79.998	19.994	100.901	19.992	3.431	0.469
118.000	138.785	80.000	19.992	100.902	19.992	3.402	0.469
118.500	139.037	79.992	19.995	100.903	19.993	3.319	0.459
119.000	139.267	79.995	19.993	100.903	19.995	3.184	0.468
119.500	139.531	79.998	19.995	100.902	19.997	3.112	0.488
120.000	139.735	79.995	19.996	100.903	19.994	3.298	0.481
120.500	139.963	79.995	19.996	100.901	19.996	3.144	0.450
121.000	140.220	79.996	19.996	100.900	19.998	3.010	0.459
121.500	140.489	79.996	19.996	100.899	19.998	3.023	0.506
122.000	140.694	79.996	19.995	100.899	19.996	3.131	0.500
122.500	140.969	79.996	19.995	100.896	19.996	3.141	0.477
123.000	141.168	79.996	19.994	100.894	19.996	3.139	0.477
123.500	141.435	79.996	19.994	100.894	19.998	2.994	0.469
124.000	141.674	79.997	19.996	100.893	19.996	3.124	0.486
124.501	141.886	79.997	19.995	100.894	19.998	3.046	0.479
125.001	142.121	79.995	19.996	100.895	20.000	2.899	0.449
125.501	142.362	79.996	19.996	100.896	19.996	3.138	0.461
126.000	142.585	79.998	19.995	100.896	19.996	3.172	0.470
126.500	142.832	79.997	19.995	100.897	19.998	2.999	0.467
127.000	143.083	79.996	19.995	100.895	19.997	3.060	0.484
127.501	143.325	79.995	19.996	100.897	20.000	2.864	0.495
128.001	143.547	79.995	19.995	100.898	19.999	2.972	0.478
128.501	143.762	79.996	19.995	100.898	19.997	3.084	0.450
129.000	144.006	79.996	19.994	100.898	20.000	2.869	0.448
129.500	144.302	79.996	19.994	100.900	19.999	2.942	0.500
130.000	144.496	79.996	19.995	100.901	20.002	2.741	0.515
130.500	144.797	79.995	19.995	100.901	19.999	2.937	0.492
131.000	145.019	79.996	19.995	100.900	19.999	2.963	0.509
131.500	145.264	79.995	19.994	100.899	19.999	2.975	0.495
132.000	145.491	79.993	19.996	100.897	20.000	2.883	0.469
132.500	145.757	79.995	19.995	100.896	19.999	2.925	0.482
133.000	145.981	79.996	19.995	100.895	19.999	2.954	0.492
133.500	146.240	79.990	19.999	100.893	19.999	2.968	0.487
134.000	146.456	79.995	19.998	100.892	19.997	3.074	0.479
134.500	146.728	79.994	19.995	100.892	19.997	3.072	0.482
135.000	146.946	79.995	19.994	100.893	20.000	2.887	0.489
135.500	147.181	79.995	19.995	100.895	20.000	2.908	0.472
136.000	147.466	79.993	19.995	100.896	19.999	2.975	0.486
136.500	147.696	79.995	19.996	100.898	20.002	2.781	0.517
137.000	147.946	79.994	19.996	100.900	19.997	3.054	0.498
137.500	148.181	79.995	19.995	100.899	19.999	2.949	0.483
138.000	148.426	79.995	19.995	100.899	20.001	2.854	0.482
138.500	148.687	79.994	19.996	100.900	19.999	2.972	0.493
139.000	148.876	79.993	19.997	100.896	19.998	2.996	0.478
139.500	149.144	79.994	19.994	100.893	19.999	2.965	0.454
140.000	149.385	79.994	19.996	100.889	19.998	3.029	0.483
140.500	149.618	79.995	19.996	100.883	20.004	2.629	0.492
141.000	149.913	79.994	19.995	100.881	19.999	2.966	0.501
141.501	150.125	79.993	19.995	100.884	19.999	2.940	0.517
142.001	150.383	79.995	19.998	100.889	19.999	2.953	0.488
142.500	150.631	79.992	19.998	100.891	20.000	2.873	0.488
143.000	150.813	79.994	19.997	100.897	20.000	2.890	0.468
143.500	151.116	79.994	19.996	100.901	20.003	2.705	0.457
144.000	151.362	79.995	19.995	100.901	20.004	2.607	0.517
144.500	151.594	79.994	19.996	100.901	20.003	2.716	0.514
145.000	151.849	79.995	19.995	100.900	20.003	2.688	0.482
145.500	152.077	79.995	19.995	100.900	20.004	2.648	0.485
146.000	152.350	79.996	19.996	100.899	19.998	3.027	0.492
146.500	152.533	79.994	19.996	100.898	20.001	2.802	0.479
147.000	152.804	79.995	19.996	100.896	20.002	2.748	0.456
147.500	153.029	79.994	19.996	100.894	20.000	2.883	0.475
148.000	153.275	79.994	19.995	100.893	20.001	2.810	0.483
148.500	153.526	79.995	19.996	100.895	19.999	2.931	0.484
149.000	153.768	79.996	19.996	100.895	20.001	2.853	0.495
149.500	153.990	79.995	19.997	100.896	20.000	2.864	0.479
150.000	154.241	79.994	19.995	100.900	20.001	2.840	0.469
150.500	154.500	79.995	19.995	100.901	19.997	3.063	0.492
151.000	154.723	79.994	19.995	100.902	19.998	3.000	0.496
151.500	154.981	79.995	19.996	100.899	19.997	3.090	0.481
152.000	155.208	79.996	19.995	100.899	19.998	2.988	0.483
152.500	155.456	79.995	19.996	100.898	19.996	3.142	0.480
153.000	155.680	79.995	19.996	100.896	19.998	2.997	0.474
153.500	155.951	79.996	19.996	100.896	20.001	2.833	0.483
154.000	156.202	79.997	19.995	100.894	19.999	2.947	0.508
154.500	156.402	79.995	19.995	100.892	19.997	3.065	0.486
155.001	156.678	79.996	19.996	100.893	19.999	2.970	0.464
155.501	156.923	79.996	19.996	100.895	19.998	3.027	0.498
156.001	157.165	79.995	19.996	100.898	20.002	2.757	0.504
156.501	157.414	79.995	19.993	100.901	20.000	2.893	0.489
157.000	157.643	79.996	19.996	100.901	19.999	2.940	0.484
157.501	157.887	79.994	19.996	100.893	19.997	3.080	0.476
158.001	158.146	79.995	19.999	100.885	19.997	3.056	0.488
158.500	158.407	79.998	19.994	100.876	19.997	3.104	0.511
159.001	158.636	80.000	19.993	100.873	19.998	3.035	0.505
159.501	158.899	79.995	19.995	100.872	19.997	3.068	0.491
160.000	159.136	79.995	19.996	100.875	19.996	3.174	0.496
160.500	159.368	79.996	19.995	100.876	19.994	3.253	0.485
161.001	159.576	79.996	19.996	100.877	19.995	3.186	0.455
161.501	159.857	79.995	19.995	100.879	19.995	3.214	0.464
162.000	160.106	79.996	19.995	100.881	19.994	3.246	0.509
162.500	160.355	79.995	19.995	100.880	19.992	3.431	0.514
163.001	160.560	79.996	19.995	100.882	19.993	3.332	0.476
163.501	160.817	79.996	19.997	100.885	19.997	3.061	0.458
164.001	161.031	79.995	19.996	100.886	19.995	3.230	0.467
164.500	161.279	79.995	19.996	100.887	19.997	3.090	0.467
165.001	161.502	79.995	19.996	100.891	19.996	3.163	0.467
165.501	161.780	79.996	19.996	100.892	19.998	3.014	0.486
166.000	162.031	79.995	19.997	100.892	19.994	3.251	0.515
166.500	162.274	79.995	19.996	100.890	19.992	3.403	0.511
167.000	162.485	79.995	19.997	100.888	19.993	3.355	0.474
167.500	162.798	79.994	19.997	100.883	19.994	3.247	0.490
168.000	162.982	79.995	19.997	100.882	19.995	3.221	0.511
168.500	163.243	79.996	19.996	100.882	19.993	3.335	0.471
169.000	163.474	79.994	19.997	100.878	19.994	3.270	0.469
169.500	163.756	79.996	19.997	100.879	19.994	3.247	0.502
170.000	164.010	79.995	19.997	100.885	19.996	3.135	0.524
170.500	164.276	79.995	19.997	100.889	19.994	3.247	0.528
171.000	164.541	79.996	19.997	100.891	19.995	3.204	0.526
171.500	164.734	79.996	19.995	100.895	19.993	3.336	0.495
172.000	164.988	79.996	19.996	100.897	19.990	3.538	0.452
172.500	165.241	79.995	19.997	100.898	19.992	3.414	0.477
173.000	165.452	79.997	19.997	100.897	19.995	3.238	0.486
173.500	165.752	79.997	19.996	100.893	19.989	3.563	0.487
174.000	165.931	79.996	19.997	100.886	19.992	3.409	0.495
174.500	166.206	79.995	19.996	100.879	19.990	3.523	0.467
175.000	166.458	79.996	19.997	100.875	19.991	3.469	0.490
175.500	166.685	79.995	19.997	100.872	19.990	3.535	0.503
176.000	166.906	79.998	19.995	100.874	19.989	3.566	0.464
176.500	167.178	79.997	19.995	100.880	19.990	3.554	0.470
177.000	167.421	79.997	19.997	100.882	19.989	3.600	0.504
177.500	167.703	79.998	19.997	100.879	19.991	3.464	0.520
178.000	167.921	79.997	19.995	100.875	19.989	3.577	0.512
178.500	168.181	79.999	19.995	100.872	19.990	3.535	0.489
179.001	168.445	79.999	19.996	100.868	19.990	3.507	0.501
179.501	168.666	79.998	19.995	100.868	19.989	3.611	0.505
180.000	168.916	79.997	19.996	100.869	19.989	3.599	0.478
180.500	169.127	79.997	19.996	100.872	19.990	3.561	0.466
181.000	169.408	79.998	19.995	100.876	19.990	3.524	0.477
181.500	169.657	79.998	19.994	100.877	19.987	3.713	0.511
182.000	169.890	79.997	19.995	100.883	19.987	3.715	0.506
182.500	170.129	79.998	19.996	100.888	19.988	3.677	0.477
183.000	170.421	79.998	19.995	100.891	19.987	3.713	0.501
183.500	170.640	79.998	19.995	100.892	19.985	3.841	0.521
184.000	170.884	79.999	19.995	100.896	19.986	3.796	0.487
184.500	171.139	79.998	19.994	100.896	19.987	3.703	0.481
185.000	171.382	79.998	19.994	100.896	19.988	3.646	0.498
185.500	171.622	79.997	19.995	100.899	19.984	3.931	0.490
186.000	171.843	79.997	19.996	100.897	19.983	3.962	0.472
186.500	172.104	79.996	19.996	100.890	19.986	3.779	0.472
187.000	172.375	79.998	19.996	100.888	19.984	3.938	0.507
187.500	172.598	79.996	19.996	100.888	19.982	4.036	0.513
188.000	172.821	79.996	19.995	100.887	19.981	4.104	0.471
188.501	173.079	79.996	19.996	100.889	19.984	3.889	0.464
189.001	173.350	79.995	19.996	100.896	19.984	3.943	0.505
189.500	173.567	79.995	19.995	100.897	19.985	3.865	0.508
190.000	173.827	79.996	19.995	100.897	19.985	3.865	0.482
190.500	174.071	79.996	19.995	100.896	19.988	3.675	0.491
191.001	174.303	79.994	19.996	100.893	19.985	3.827	0.490
191.501	174.545	79.994	19.996	100.888	19.984	3.929	0.475
192.001	174.808	79.995	19.996	100.889	19.982	4.012	0.489
192.500	175.054	79.994	19.996	100.887	19.982	4.019	0.507
193.000	175.307	79.995	19.996	100.888	19.978	4.272	0.504
193.500	175.551	79.994	19.995	100.890	19.984	3.905	0.498
194.000	175.798	79.995	19.996	100.895	19.978	4.276	0.494
194.500	176.068	79.995	19.994	100.895	19.980	4.181	0.504
195.000	176.319	79.995	19.996	100.898	19.980	4.174	0.519
195.500	176.564	79.994	19.995	100.898	19.981	4.124	0.509
196.000	176.814	79.995	19.994	100.899	19.981	4.130	0.495
196.500	177.042	79.994	19.996	100.901	19.979	4.215	0.486
197.000	177.297	79.995	19.995	100.900	19.978	4.281	0.481
197.500	177.549	79.994	19.996	100.900	19.980	4.189	0.495
198.001	177.806	79.995	19.994	100.899	19.976	4.449	0.507
198.501	178.057	79.996	19.995	100.897	19.979	4.254	0.509
199.001	178.275	79.995	19.996	100.896	19.980	4.197	0.489
199.501	178.531	79.994	19.995	100.898	19.979	4.221	0.471
200.001	178.789	79.994	19.995	100.898	19.978	4.300	0.494
200.500	179.031	79.995	19.995	100.899	19.978	4.318	0.507
201.000	179.296	79.995	19.995	100.902	19.979	4.260	0.504
201.500	179.530	79.995	19.996	100.903	19.976	4.404	0.503
202.000	179.809	79.996	19.996	100.903	19.975	4.506	0.506
202.500	180.081	79.995	19.995	100.901	19.977	4.360	0.532
203.000	180.319	79.997	19.996	100.899	19.977	4.359	0.531
203.500	180.588	79.994	19.997	100.899	19.978	4.269	0.509
204.000	180.888	79.995	19.996	100.898	19.979	4.255	0.538
204.500	181.109	79.994	19.995	100.894	19.978	4.274	0.545
205.000	181.337	79.996	19.996	100.890	19.982	4.030	0.485
205.500	181.620	79.995	19.995	100.884	19.978	4.270	0.480
206.000	181.848	79.996	19.995	100.877	19.979	4.255	0.511
206.500	182.094	79.995	19.996	100.874	19.977	4.371	0.493
207.000	182.338	79.996	19.995	100.873	19.977	4.378	0.482
207.500	182.610	79.995	19.996	100.872	19.978	4.319	0.503
208.000	182.849	79.996	19.995	100.872	19.976	4.423	0.513
208.500	183.118	79.995	19.997	100.879	19.975	4.501	0.509
209.000	183.341	79.996	19.997	100.883	19.976	4.447	0.500
209.501	183.583	79.996	19.996	100.887	19.976	4.395	0.479
210.001	183.800	79.996	19.996	100.890	19.978	4.326	0.462
210.500	184.092	79.996	19.994	100.889	19.979	4.255	0.484
211.000	184.345	79.995	19.994	100.887	19.977	4.364	0.527
211.501	184.630	79.996	19.996	100.883	19.976	4.425	0.542
212.001	184.888	79.996	19.995	100.879	19.975	4.506	0.541
212.500	185.147	79.994	19.996	100.879	19.975	4.479	0.530
213.000	185.430	79.997	19.994	100.880	19.975	4.482	0.529
213.500	185.629	79.996	19.994	100.876	19.973	4.626	0.512
214.000	185.887	79.995	19.995	100.872	19.973	4.594	0.469
214.500	186.151	79.995	19.995	100.869	19.977	4.357	0.490
215.000	186.430	79.995	19.994	100.866	19.977	4.373	0.533
215.501	186.673	79.995	19.995	100.865	19.977	4.369	0.533
216.001	186.929	79.996	19.995	100.865	19.975	4.479	0.511
216.501	187.212	79.995	19.995	100.866	19.977	4.364	0.519
217.001	187.452	79.995	19.995	100.869	19.975	4.514	0.531
217.501	187.700	79.994	19.996	100.871	19.978	4.303	0.505
218.001	187.958	79.993	19.995	100.877	19.973	4.592	0.497
218.501	188.225	79.995	19.994	100.881	19.974	4.525	0.515
219.000	188.517	79.995	19.995	100.883	19.977	4.379	0.542
219.500	188.728	79.995	19.994	100.884	19.974	4.526	0.531
220.000	188.938	79.995	19.996	100.882	19.973	4.636	0.462
220.500	189.211	79.994	19.994	100.879	19.974	4.578	0.452
221.000	189.506	79.996	19.995	100.878	19.975	4.479	0.525
221.501	189.753	79.995	19.994	100.878	19.972	4.699	0.555
222.001	189.983	79.995	19.995	100.878	19.972	4.673	0.509
222.500	190.189	79.994	19.995	100.882	19.971	4.735	0.457
223.000	190.490	79.995	19.995	100.887	19.971	4.775	0.472
223.500	190.763	79.994	19.996	100.889	19.968	4.948	0.540
224.000	190.979	79.995	19.996	100.891	19.969	4.871	0.531
224.500	191.267	79.994	19.993	100.890	19.969	4.901	0.497
225.000	191.523	79.995	19.997	100.885	19.969	4.866	0.524
225.500	191.771	79.995	19.997	100.878	19.968	4.922	0.524
226.000	191.999	79.995	19.996	100.875	19.970	4.835	0.490
226.500	192.291	79.995	19.995	100.871	19.968	4.906	0.498
227.000	192.506	79.996	19.996	100.869	19.966	5.072	0.514
227.500	192.754	79.996	19.996	100.873	19.968	4.968	0.485
228.000	193.039	79.996	19.996	100.873	19.967	5.015	0.498
228.500	193.316	79.996	19.996	100.873	19.968	4.966	0.548
229.000	193.559	79.996	19.997	100.873	19.965	5.119	0.541
229.500	193.847	79.996	19.996	100.873	19.968	4.951	0.525
230.000	194.052	79.996	19.995	100.869	19.966	5.069	0.512
230.500	194.308	79.996	19.996	100.867	19.965	5.119	0.476
231.000	194.585	79.996	19.996	100.865	19.965	5.117	0.497
231.501	194.851	79.996	19.997	100.864	19.966	5.082	0.538
232.001	195.089	79.997	19.996	100.863	19.967	5.005	0.524
232.500	195.352	79.996	19.996	100.862	19.964	5.198	0.503
233.000	195.602	79.995	19.996	100.863	19.965	5.140	0.507
233.500	195.819	79.997	19.996	100.863	19.963	5.232	0.490
234.000	196.080	79.997	19.997	100.864	19.963	5.278	0.472
234.500	196.322	79.998	19.995	100.864	19.966	5.088	0.491
235.001	196.558	79.996	19.996	100.864	19.963	5.275	0.491
235.501	196.816	79.999	19.995	100.866	19.964	5.183	0.486
236.000	197.042	79.998	19.996	100.866	19.964	5.201	0.489
236.500	197.276	79.997	19.996	100.867	19.963	5.286	0.472
237.000	197.541	79.996	19.995	100.869	19.960	5.431	0.480
237.500	197.801	79.996	19.995	100.869	19.962	5.291	0.512
238.000	198.049	79.997	19.995	100.867	19.964	5.195	0.516
238.500	198.279	79.999	19.996	100.866	19.963	5.243	0.493
239.000	198.534	79.997	19.996	100.865	19.960	5.429	0.482
239.500	198.768	79.998	19.996	100.863	19.961	5.402	0.487
240.001	199.060	79.997	19.995	100.864	19.961	5.353	0.507
240.501	199.300	79.996	19.996	100.871	19.963	5.286	0.529
241.000	199.543	79.997	19.994	100.871	19.961	5.395	0.508
241.501	199.789	79.996	19.996	100.844	19.960	5.438	0.486
242.001	200.027	79.996	19.995	100.825	19.961	5.388	0.486
242.501	200.269	79.996	19.994	100.816	19.961	5.402	0.482
243.000	200.502	79.996	19.997	100.802	19.961	5.360	0.478
243.500	200.769	79.996	19.994	100.800	19.960	5.417	0.487
244.000	201.010	79.996	19.996	100.835	19.958	5.607	0.503
244.501	201.271	79.996	19.995	100.882	19.960	5.454	0.505
245.001	201.521	79.996	19.995	100.901	19.959	5.526	0.507
245.500	201.790	79.995	19.995	100.913	19.960	5.447	0.515
246.000	202.005	79.997	19.995	100.915	19.963	5.232	0.501
246.500	202.276	79.996	19.998	100.907	19.959	5.497	0.485
247.000	202.500	79.997	19.995	100.880	19.960	5.464	0.491
247.500	202.805	79.996	19.994	100.869	19.960	5.431	0.512
248.000	203.019	79.995	19.995	100.864	19.958	5.578	0.524
248.500	203.258	79.997	19.994	100.863	19.958	5.568	0.486
249.000	203.527	79.995	19.996	100.863	19.956	5.709	0.480
249.500	203.752	79.996	19.996	100.860	19.956	5.686	0.501
250.000	204.014	79.998	19.996	100.859	19.957	5.621	0.490
250.500	204.260	79.997	19.997	100.860	19.956	5.712	0.498
251.000	204.491	79.997	19.997	100.860	19.956	5.714	0.493
251.500	204.778	79.998	19.996	100.860	19.957	5.638	0.498
252.001	205.003	79.996	19.997	100.861	19.960	5.443	0.515
252.501	205.256	79.998	19.996	100.861	19.958	5.546	0.494
253.000	205.502	79.997	19.997	100.861	19.958	5.604	0.488
253.500	205.772	79.996	19.996	100.861	19.957	5.609	0.508
254.001	206.015	79.996	19.997	100.861	19.953	5.906	0.515
254.501	206.237	79.995	19.997	100.860	19.954	5.831	0.489
255.000	206.511	79.997	19.996	100.861	19.956	5.735	0.480
255.500	206.742	79.997	19.997	100.860	19.958	5.581	0.501
256.000	207.004	79.997	19.996	100.860	19.954	5.816	0.499
256.500	207.269	79.995	19.997	100.858	19.957	5.621	0.510
257.000	207.493	79.997	19.997	100.858	19.953	5.879	0.508
257.500	207.761	79.997	19.996	100.858	19.955	5.765	0.490
258.000	208.008	79.997	19.996	100.858	19.957	5.611	0.503
258.500	208.254	79.998	19.996	100.857	19.954	5.818	0.504
259.000	208.462	79.998	19.996	100.857	19.955	5.766	0.474
259.500	208.702	79.996	19.995	100.857	19.954	5.835	0.451
260.000	208.975	79.998	19.996	100.854	19.956	5.733	0.480
260.500	209.222	79.997	19.996	100.852	19.954	5.809	0.517
261.000	209.471	79.996	19.998	100.851	19.953	5.889	0.508
261.500	209.709	79.997	19.997	100.852	19.956	5.680	0.491
262.000	209.941	79.998	19.996	100.850	19.956	5.680	0.478
262.500	210.185	79.997	19.995	100.851	19.954	5.804	0.473
263.000	210.453	79.998	19.996	100.851	19.956	5.694	0.495
263.500	210.672	79.998	19.996	100.852	19.953	5.896	0.500
264.000	210.921	79.997	19.995	100.853	19.954	5.847	0.477
264.500	211.198	79.997	19.997	100.850	19.953	5.925	0.497
265.000	211.421	79.997	19.996	100.852	19.954	5.843	0.513
265.500	211.683	79.997	19.997	100.849	19.952	5.981	0.492
266.000	211.892	79.997	19.996	100.849	19.953	5.893	0.478
266.500	212.131	79.996	19.996	100.849	19.950	6.093	0.460
267.000	212.397	79.996	19.997	100.851	19.952	5.987	0.477
267.500	212.630	79.995	19.996	100.853	19.953	5.874	0.501
268.000	212.847	79.996	19.995	100.857	19.956	5.732	0.474
268.500	213.067	79.996	19.997	100.858	19.952	5.964	0.444
269.000	213.339	79.994	19.996	100.860	19.951	6.054	0.465
269.500	213.597	79.994	19.996	100.860	19.951	6.020	0.511
270.000	213.818	79.996	19.995	100.855	19.951	6.000	0.504
270.501	214.068	79.995	19.997	100.853	19.949	6.138	0.475
271.000	214.305	79.996	19.996	100.854	19.950	6.069	0.479
271.500	214.533	79.995	19.996	100.853	19.953	5.913	0.476
272.000	214.806	79.995	19.995	100.856	19.949	6.161	0.483
272.500	215.019	79.995	19.995	100.860	19.951	6.043	0.493
273.000	215.324	79.996	19.996	100.861	19.952	5.991	0.502
273.500	215.504	79.996	19.994	100.857	19.950	6.104	0.501
274.000	215.766	79.995	19.995	100.857	19.949	6.164	0.464
274.501	215.987	79.993	19.996	100.857	19.948	6.211	0.462
275.000	216.228	79.995	19.995	100.857	19.947	6.263	0.472
275.500	216.483	79.995	19.996	100.859	19.950	6.109	0.479
276.000	216.715	79.995	19.996	100.862	19.949	6.173	0.492
276.500	216.982	79.996	19.995	100.862	19.949	6.126	0.493
277.001	217.200	79.996	19.996	100.860	19.946	6.316	0.492
277.500	217.467	79.996	19.995	100.854	19.949	6.166	0.485
278.000	217.642	79.995	19.995	100.849	19.948	6.216	0.464
278.500	217.908	79.994	19.997	100.844	19.947	6.266	0.441
279.000	218.160	79.994	19.996	100.840	19.952	5.972	0.480
279.500	218.372	79.993	19.995	100.843	19.951	6.048	0.491
280.000	218.637	79.993	19.996	100.849	19.948	6.190	0.470
280.500	218.898	79.996	19.994	100.853	19.948	6.202	0.502
281.000	219.101	79.994	19.995	100.858	19.948	6.190	0.495
281.500	219.402	79.993	19.996	100.862	19.947	6.256	0.483
282.000	219.587	79.995	19.994	100.862	19.946	6.347	0.494
282.500	219.854	79.996	19.994	100.862	19.946	6.318	0.469
283.000	220.080	79.995	19.994	100.863	19.950	6.100	0.473
283.500	220.320	79.993	19.996	100.864	19.945	6.404	0.480
284.000	220.552	79.994	19.995	100.865	19.947	6.250	0.469
284.500	220.793	79.994	19.994	100.865	19.946	6.368	0.473
285.000	221.082	79.995	19.994	100.865	19.945	6.392	0.502
285.500	221.308	79.994	19.995	100.865	19.946	6.368	0.523
286.000	221.507	79.995	19.995	100.865	19.946	6.354	0.470
286.500	221.749	79.994	19.995	100.865	19.947	6.288	0.433
287.000	222.018	79.994	19.995	100.865	19.944	6.459	0.476
287.500	222.282	79.994	19.996	100.866	19.945	6.390	0.522
288.000	222.482	79.995	19.995	100.867	19.941	6.641	0.499
288.500	222.779	79.996	19.995	100.867	19.942	6.624	0.480
289.000	222.984	79.995	19.996	100.867	19.944	6.475	0.499
289.500	223.239	79.996	19.994	100.867	19.941	6.646	0.481
290.000	223.489	79.998	19.995	100.867	19.944	6.485	0.482
290.500	223.726	79.997	19.995	100.864	19.944	6.503	0.496
291.000	223.954	79.996	19.995	100.863	19.940	6.741	0.476
291.500	224.198	79.997	19.996	100.863	19.943	6.549	0.469
292.000	224.441	79.995	19.996	100.863	19.941	6.662	0.479
292.500	224.702	79.996	19.994	100.863	19.940	6.731	0.495
293.000	224.966	79.996	19.994	100.863	19.941	6.632	0.514
293.500	225.227	79.995	19.995	100.862	19.941	6.694	0.525
294.000	225.437	79.996	19.996	100.861	19.940	6.717	0.498
294.500	225.680	79.995	19.996	100.861	19.942	6.599	0.462
295.000	225.906	79.995	19.996	100.861	19.942	6.587	0.461
295.500	226.136	79.995	19.996	100.861	19.940	6.755	0.463
296.000	226.373	79.996	19.995	100.861	19.942	6.599	0.462
296.500	226.647	79.996	19.994	100.862	19.942	6.593	0.489
297.000	226.883	79.996	19.993	100.861	19.942	6.605	0.510
297.500	227.156	79.996	19.997	100.861	19.937	6.950	0.510
298.000	227.383	79.997	19.995	100.861	19.939	6.765	0.505
298.500	227.636	79.995	19.996	100.861	19.942	6.587	0.490
299.000	227.886	79.998	19.996	100.861	19.939	6.815	0.491
299.500	228.125	79.996	19.996	100.861	19.937	6.919	0.496
300.000	228.376	79.996	19.995	100.861	19.941	6.637	0.490
300.500	228.638	79.996	19.996	100.861	19.937	6.909	0.502
301.000	228.862	79.997	19.996	100.861	19.941	6.632	0.499
301.500	229.117	79.996	19.996	100.861	19.942	6.624	0.483
302.000	229.378	79.994	19.995	100.862	19.938	6.833	0.498
302.500	229.622	79.995	19.996	100.862	19.939	6.760	0.511
303.000	229.853	79.995	19.995	100.862	19.937	6.932	0.490
303.500	230.127	79.995	19.995	100.862	19.939	6.771	0.490
304.001	230.339	79.995	19.996	100.862	19.937	6.945	0.495
304.500	230.623	79.996	19.996	100.862	19.939	6.767	0.491
305.000	230.844	79.996	19.996	100.862	19.937	6.917	0.500
305.500	231.072	79.995	19.996	100.862	19.939	6.770	0.477
306.000	231.339	79.996	19.996	100.863	19.940	6.751	0.473
306.500	231.625	79.994	19.996	100.863	19.939	6.779	0.524
307.000	231.819	79.996	19.996	100.862	19.936	6.979	0.516
307.500	232.095	79.994	19.996	100.862	19.937	6.905	0.474
308.000	232.331	79.996	19.996	100.863	19.934	7.092	0.491
308.500	232.560	79.997	19.995	100.863	19.936	6.960	0.489
309.000	232.812	79.997	19.995	100.863	19.934	7.104	0.473
309.500	233.082	79.996	19.996	100.862	19.938	6.862	0.501
310.000	233.323	79.996	19.995	100.861	19.937	6.940	0.516
310.500	233.557	79.996	19.996	100.859	19.938	6.881	0.493
311.000	233.824	79.997	19.995	100.859	19.938	6.883	0.488
311.500	234.057	79.997	19.995	100.860	19.936	6.981	0.501
312.001	234.319	79.997	19.996	100.861	19.934	7.133	0.498
312.500	234.557	79.997	19.995	100.862	19.935	7.028	0.498
313.000	234.822	79.996	19.995	100.864	19.934	7.121	0.501
313.500	235.081	79.997	19.995	100.866	19.933	7.151	0.513
314.000	235.299	79.998	19.995	100.867	19.935	7.049	0.501
314.500	235.522	79.997	19.995	100.867	19.933	7.154	0.459
315.000	235.804	79.998	19.994	100.866	19.931	7.286	0.473
315.500	236.042	79.999	19.994	100.865	19.937	6.935	0.512
316.000	236.290	79.997	19.995	100.863	19.935	7.054	0.503
316.500	236.532	79.997	19.995	100.861	19.933	7.198	0.488
317.000	236.774	79.998	19.994	100.860	19.936	7.011	0.487
317.501	237.068	79.998	19.995	100.860	19.934	7.096	0.510
318.000	237.303	79.998	19.995	100.859	19.934	7.084	0.533
318.500	237.528	79.996	19.995	100.859	19.935	7.025	0.494
319.000	237.843	79.997	19.995	100.860	19.934	7.141	0.499
319.500	238.043	79.997	19.995	100.860	19.931	7.296	0.528
320.000	238.273	79.997	19.996	100.860	19.935	7.066	0.473
320.500	238.484	79.996	19.997	100.860	19.933	7.144	0.435
321.000	238.754	79.997	19.995	100.860	19.933	7.191	0.461
321.500	238.992	79.997	19.996	100.860	19.931	7.318	0.495
322.000	239.231	79.998	19.995	100.860	19.928	7.526	0.493
322.500	239.469	79.997	19.995	100.860	19.931	7.303	0.477
323.000	239.735	79.996	19.995	100.861	19.931	7.324	0.490
323.500	239.967	79.996	19.996	100.861	19.930	7.341	0.501
324.000	240.219	79.997	19.995	100.861	19.929	7.417	0.490
324.500	240.509	79.996	19.997	100.861	19.933	7.173	0.513
325.000	240.733	79.996	19.996	100.866	19.929	7.408	0.528
325.500	240.951	79.996	19.996	100.867	19.927	7.550	0.478
326.000	241.222	79.996	19.995	100.868	19.926	7.611	0.466
326.500	241.464	79.996	19.995	100.869	19.930	7.399	0.501
327.000	241.697	79.996	19.995	100.869	19.928	7.513	0.493
327.500	241.970	79.996	19.996	100.866	19.928	7.507	0.491
328.000	242.230	79.996	19.996	100.867	19.925	7.711	0.520
328.500	242.447	79.996	19.998	100.866	19.926	7.617	0.505
329.000	242.703	79.996	19.996	100.866	19.924	7.730	0.475
329.500	242.970	79.996	19.996	100.867	19.923	7.820	0.498
330.000	243.224	79.995	19.996	100.865	19.926	7.595	0.522
330.500	243.488	79.996	19.995	100.864	19.926	7.628	0.520
331.000	243.702	79.997	19.996	100.864	19.925	7.716	0.498
331.500	243.973	79.997	19.996	100.864	19.926	7.638	0.481
332.000	244.250	79.996	19.995	100.864	19.924	7.757	0.516
332.500	244.460	79.997	19.995	100.864	19.925	7.667	0.517
333.000	244.711	79.996	19.995	100.864	19.921	7.970	0.474
333.500	244.976	79.997	19.996	100.864	19.922	7.849	0.489
334.000	245.245	79.997	19.996	100.863	19.924	7.749	0.525
334.500	245.485	79.997	19.996	100.864	19.925	7.673	0.521
335.000	245.727	79.998	19.995	100.864	19.929	7.452	0.496
335.500	245.958	79.996	19.996	100.864	19.920	8.032	0.478
336.000	246.207	79.997	19.996	100.865	19.921	7.934	0.476
336.500	246.444	79.998	19.995	100.868	19.919	8.060	0.483
337.000	246.719	79.997	19.995	100.872	19.921	7.960	0.500
337.500	246.972	79.997	19.994	100.873	19.923	7.843	0.520
338.000	247.199	79.996	19.995	100.873	19.918	8.114	0.503
338.500	247.439	79.997	19.995	100.872	19.920	8.018	0.473
339.000	247.688	79.998	19.995	100.869	19.918	8.139	0.478
339.500	247.912	79.997	19.996	100.865	19.917	8.215	0.481
340.000	248.191	79.998	19.996	100.864	19.920	7.988	0.488
340.500	248.410	79.998	19.996	100.864	19.917	8.170	0.501
341.000	248.659	79.997	19.996	100.863	19.919	8.101	0.483
341.500	248.930	79.998	19.996	100.862	19.915	8.338	0.493
342.000	249.159	79.998	19.995	100.862	19.915	8.325	0.510
342.500	249.437	79.998	19.997	100.862	19.912	8.494	0.504
343.000	249.707	79.999	19.995	100.862	19.913	8.469	0.528
343.500	249.944	79.998	19.995	100.862	19.915	8.360	0.527
344.000	250.221	79.999	19.996	100.863	19.915	8.337	0.510
344.500	250.487	79.998	19.996	100.864	19.913	8.481	0.529
345.000	250.738	79.999	19.996	100.865	19.913	8.479	0.530
345.500	250.962	79.996	19.996	100.868	19.914	8.420	0.496
346.000	251.203	79.998	19.996	100.868	19.912	8.530	0.470
346.500	251.455	79.998	19.996	100.868	19.910	8.635	0.479
347.000	251.724	79.998	19.996	100.867	19.909	8.681	0.507
347.500	251.979	79.997	19.995	100.866	19.909	8.684	0.523
348.000	252.217	79.997	19.996	100.868	19.909	8.707	0.509
348.500	252.496	79.998	19.995	100.870	19.906	8.882	0.505
349.000	252.736	79.997	19.996	100.873	19.903	9.075	0.518
349.500	252.973	79.996	19.996	100.877	19.904	9.025	0.498
350.000	253.228	79.996	19.995	100.876	19.909	8.707	0.484
350.500	253.439	79.994	19.996	100.876	19.906	8.918	0.479
351.001	253.701	79.997	19.997	100.877	19.904	9.009	0.470
351.500	253.974	79.996	19.995	100.880	19.903	9.080	0.504
352.000	254.244	79.994	19.996	100.883	19.902	9.146	0.539
352.500	254.459	79.994	19.996	100.889	19.902	9.186	0.514
353.000	254.680	79.994	19.996	100.890	19.900	9.257	0.461
353.500	254.911	79.995	19.996	100.894	19.901	9.227	0.444
354.000	255.227	79.995	19.996	100.896	19.900	9.317	0.499
354.500	255.449	79.995	19.997	100.897	19.900	9.305	0.543
355.000	255.701	79.994	19.996	100.898	19.898	9.404	0.507
355.500	255.982	79.996	19.998	100.895	19.896	9.530	0.503
356.000	256.205	79.994	19.996	100.895	19.897	9.492	0.518
356.500	256.451	79.996	19.996	100.891	19.897	9.485	0.487
357.000	256.707	79.995	19.996	100.887	19.898	9.406	0.486
357.500	256.960	79.995	19.995	100.886	19.895	9.639	0.505
358.000	257.217	79.995	19.995	100.890	19.892	9.810	0.509
358.500	257.495	79.996	19.995	100.890	19.892	9.815	0.523
359.000	257.753	79.996	19.997	100.893	19.891	9.893	0.536
359.500	257.985	79.996	19.997	100.895	19.890	9.947	0.513
360.000	258.240	79.996	19.995	100.894	19.890	9.955	0.488
360.500	258.465	79.997	19.996	100.894	19.887	10.109	0.484
361.000	258.762	79.997	19.997	100.893	19.888	10.040	0.501
361.500	258.968	79.997	19.996	100.893	19.887	10.146	0.513
362.000	259.263	79.997	19.995	100.892	19.883	10.389	0.502
362.500	259.507	79.995	19.995	100.892	19.883	10.393	0.520
363.000	259.767	79.997	19.997	100.893	19.881	10.512	0.521
363.500	259.998	79.997	19.995	100.893	19.883	10.403	0.497
364.000	260.268	79.996	19.994	100.893	19.882	10.448	0.496
364.501	260.546	79.997	19.995	100.895	19.882	10.462	0.525
365.000	260.800	79.997	19.996	100.897	19.881	10.491	0.540
365.500	261.020	79.995	19.996	100.896	19.880	10.539	0.503
366.000	261.295	79.997	19.996	100.898	19.880	10.567	0.484
366.500	261.559	79.997	19.995	100.897	19.879	10.642	0.517
367.000	261.785	79.996	19.995	100.897	19.875	10.917	0.515
367.500	262.034	79.997	19.996	100.897	19.875	10.918	0.482
368.001	262.270	79.996	19.996	100.897	19.876	10.837	0.480
368.500	262.569	79.996	19.995	100.897	19.874	10.938	0.510
369.000	262.812	79.997	19.996	100.898	19.874	10.984	0.539
369.500	263.064	79.998	19.996	100.898	19.872	11.104	0.519
370.000	263.345	79.997	19.995	100.898	19.872	11.081	0.514
370.500	263.634	79.997	19.995	100.899	19.868	11.366	0.551
371.000	263.863	79.997	19.996	100.899	19.868	11.358	0.544
371.501	264.115	79.996	19.997	100.899	19.867	11.375	0.499
372.000	264.368	79.996	19.996	100.900	19.865	11.529	0.493
372.500	264.611	79.997	19.994	100.899	19.866	11.494	0.501
373.000	264.873	79.997	19.995	100.897	19.862	11.695	0.501
373.500	265.138	79.997	19.996	100.897	19.863	11.664	0.516
374.000	265.371	79.996	19.994	100.897	19.862	11.738	0.512
374.500	265.628	79.996	19.995	100.893	19.860	11.826	0.494
375.000	265.839	79.996	19.996	100.893	19.860	11.857	0.479
375.500	266.085	79.997	19.996	100.895	19.858	11.968	0.463
376.000	266.351	79.997	19.995	100.895	19.858	11.980	0.484
376.500	266.638	79.997	19.994	100.895	19.857	12.054	0.532
377.001	266.885	79.997	19.995	100.899	19.858	11.989	0.544
377.501	267.141	79.997	19.995	100.900	19.856	12.121	0.519
378.000	267.374	79.996	19.995	100.900	19.854	12.260	0.496
378.500	267.698	79.996	19.996	100.900	19.854	12.248	0.522
379.000	267.917	79.995	19.996	100.900	19.855	12.143	0.550
379.500	268.182	79.997	19.995	100.900	19.852	12.344	0.514
380.000	268.432	79.997	19.997	100.900	19.848	12.618	0.500
380.500	268.697	79.995	19.996	100.902	19.849	12.585	0.515
381.000	268.906	79.996	19.997	100.902	19.848	12.603	0.494
381.500	269.161	79.996	19.997	100.902	19.845	12.839	0.469
382.000	269.435	79.996	19.998	100.902	19.842	12.971	0.497
382.500	269.698	79.995	19.997	100.901	19.841	13.072	0.533
383.000	269.971	79.996	19.997	100.900	19.838	13.254	0.536
383.500	270.233	79.996	19.995	100.900	19.838	13.269	0.536
384.000	270.484	79.995	19.995	100.900	19.841	13.088	0.524
384.500	270.729	79.994	19.995	100.900	19.837	13.314	0.504
385.001	270.991	79.994	19.996	100.900	19.837	13.307	0.501
385.500	271.276	79.994	19.996	100.900	19.838	13.279	0.527
386.000	271.525	79.995	19.996	100.901	19.832	13.666	0.541
386.500	271.782	79.995	19.996	100.901	19.831	13.684	0.520
387.000	272.004	79.994	19.995	100.902	19.830	13.740	0.493
387.500	272.264	79.995	19.996	100.901	19.829	13.849	0.481
388.000	272.555	79.995	19.996	100.901	19.828	13.916	0.516
388.500	272.812	79.996	19.996	100.906	19.827	13.978	0.549
389.000	272.977	79.995	19.996	100.911	19.824	14.177	0.485
389.500	273.294	79.996	19.996	100.917	19.826	14.058	0.452
390.000	273.521	79.996	19.996	100.922	19.825	14.127	0.513
390.500	273.822	79.996	19.996	100.923	19.821	14.344	0.536
391.000	274.038	79.996	19.995	100.918	19.821	14.384	0.523
391.500	274.316	79.996	19.997	100.913	19.819	14.501	0.505
392.000	274.575	79.997	19.995	100.907	19.817	14.575	0.515
392.501	274.825	79.997	19.995	100.903	19.820	14.439	0.523
393.001	275.095	79.996	19.994	100.905	19.815	14.729	0.514
393.501	275.341	79.996	19.995	100.906	19.817	14.587	0.518
394.000	275.574	79.997	19.995	100.911	19.812	14.928	0.498
394.500	275.808	79.997	19.996	100.911	19.810	15.041	0.473
395.000	276.092	79.998	19.995	100.912	19.809	15.089	0.492
395.500	276.376	79.997	19.995	100.912	19.808	15.165	0.543
396.000	276.593	79.997	19.994	100.921	19.807	15.246	0.535
396.500	276.839	79.997	19.995	100.919	19.805	15.360	0.482
397.000	277.097	79.998	19.995	100.903	19.803	15.476	0.483
397.500	277.369	79.998	19.995	100.888	19.801	15.642	0.517
398.000	277.611	79.998	19.994	100.878	19.800	15.707	0.522
398.500	277.872	79.998	19.995	100.868	19.801	15.595	0.509
399.000	278.131	79.998	19.995	100.865	19.798	15.847	0.512
399.500	278.397	79.997	19.994	100.885	19.798	15.810	0.522
400.000	278.656	79.998	19.994	100.936	19.798	15.832	0.525
400.500	278.894	79.997	19.994	100.964	19.798	15.831	0.511
401.000	279.155	79.999	19.994	100.972	19.796	15.980	0.498
401.500	279.424	79.997	19.994	100.980	19.798	15.830	0.514
402.000	279.657	79.996	19.995	100.980	19.791	16.241	0.516
402.500	279.907	79.998	19.995	100.950	19.795	16.006	0.493
403.000	280.184	79.997	19.994	100.936	19.790	16.361	0.506
403.500	280.448	79.999	19.995	100.933	19.789	16.389	0.534
404.000	280.692	79.997	19.995	100.929	19.789	16.416	0.524
404.500	280.960	79.997	19.995	100.926	19.786	16.600	0.510
405.000	281.208	79.997	19.995	100.927	19.785	16.654	0.514
405.500	281.449	79.998	19.995	100.929	19.784	16.699	0.503
406.000	281.730	79.998	19.995	100.929	19.780	16.962	0.505
406.500	281.959	79.998	19.995	100.929	19.782	16.869	0.516
407.000	282.246	79.997	19.994	100.930	19.780	16.974	0.513
407.500	282.478	79.997	19.995	100.926	19.778	17.097	0.517
408.000	282.725	79.997	19.994	100.918	19.776	17.204	0.499
408.500	283.001	79.997	19.996	100.914	19.773	17.420	0.501
409.000	283.199	79.996	19.995	100.911	19.773	17.433	0.498
409.500	283.481	79.997	19.994	100.912	19.770	17.639	0.477
410.000	283.750	79.997	19.994	100.912	19.770	17.595	0.515
410.500	284.015	79.996	19.995	100.917	19.771	17.518	0.542
411.000	284.277	79.996	19.995	100.924	19.768	17.766	0.530
411.500	284.505	79.997	19.995	100.929	19.762	18.141	0.509
412.000	284.752	79.996	19.994	100.931	19.764	17.985	0.483
412.500	284.996	79.997	19.996	100.932	19.761	18.187	0.483
413.000	285.280	79.996	19.996	100.931	19.763	18.084	0.509
413.500	285.536	79.996	19.995	100.932	19.758	18.409	0.534
414.000	285.776	79.996	19.996	100.933	19.759	18.314	0.518
414.500	286.102	79.997	19.995	100.935	19.757	18.468	0.531
415.000	286.322	79.996	19.995	100.936	19.756	18.502	0.556
415.500	286.546	79.997	19.996	100.939	19.755	18.584	0.495
416.000	286.823	79.996	19.996	100.940	19.756	18.532	0.472
416.500	287.090	79.996	19.995	100.940	19.755	18.587	0.522
417.000	287.353	79.997	19.995	100.938	19.753	18.708	0.537
417.500	287.596	79.996	19.995	100.940	19.752	18.762	0.518
418.000	287.870	79.998	19.995	100.940	19.748	19.018	0.512
418.500	288.117	79.998	19.996	100.940	19.747	19.071	0.519
419.000	288.377	79.997	19.994	100.940	19.745	19.237	0.514
419.500	288.645	79.998	19.996	100.937	19.742	19.408	0.518
420.000	288.844	79.998	19.996	100.936	19.739	19.592	0.498
420.500	289.123	79.997	19.995	100.935	19.742	19.384	0.472
421.000	289.404	79.999	19.996	100.934	19.740	19.524	0.519
421.500	289.608	79.998	19.995	100.933	19.736	19.798	0.522
422.000	289.885	79.998	19.996	100.937	19.733	20.010	0.483
422.500	290.134	79.999	19.996	100.937	19.732	20.061	0.503
423.000	290.393	79.997	19.995	100.937	19.730	20.164	0.517
423.500	290.675	79.998	19.995	100.936	19.729	20.258	0.525
424.000	290.930	79.998	19.996	100.936	19.729	20.223	0.539
424.500	291.182	79.998	19.996	100.936	19.725	20.512	0.522
425.000	291.452	79.999	19.995	100.937	19.723	20.616	0.515
425.500	291.702	79.999	19.995	100.938	19.723	20.616	0.521
426.000	291.956	79.997	19.995	100.938	19.719	20.884	0.512
426.500	292.202	79.998	19.996	100.938	19.721	20.744	0.502
427.000	292.463	79.998	19.994	100.938	19.718	20.970	0.504
427.500	292.716	79.999	19.995	100.938	19.715	21.149	0.511
428.000	292.968	79.998	19.995	100.938	19.716	21.076	0.509
428.500	293.228	79.997	19.996	100.938	19.711	21.387	0.508
429.000	293.508	79.997	19.996	100.938	19.709	21.512	0.526
429.500	293.752	79.998	19.995	100.938	19.712	21.308	0.532
430.000	294.019	79.997	19.996	100.938	19.709	21.538	0.517
430.500	294.277	79.997	19.995	100.937	19.709	21.538	0.518
431.000	294.546	79.997	19.997	100.938	19.705	21.771	0.526
431.500	294.802	79.996	19.997	100.937	19.701	22.024	0.526
432.000	295.065	79.996	19.996	100.937	19.701	22.057	0.522
432.500	295.301	79.995	19.995	100.938	19.700	22.091	0.509
433.000	295.511	79.996	19.995	100.938	19.698	22.231	0.473
433.500	295.760	79.996	19.996	100.938	19.699	22.143	0.452
434.000	296.020	79.996	19.996	100.938	19.696	22.373	0.483
434.500	296.285	79.995	19.995	100.938	19.695	22.440	0.517
435.000	296.492	79.996	19.997	100.938	19.689	22.786	0.499
435.500	296.750	79.995	19.996	100.938	19.690	22.714	0.469
436.000	297.025	79.998	19.995	100.938	19.690	22.764	0.499
436.500	297.253	79.996	19.995	100.939	19.685	23.035	0.518
437.000	297.526	79.996	19.996	100.939	19.684	23.149	0.501
437.500	297.781	79.995	19.997	100.940	19.684	23.110	0.514
438.000	298.040	79.996	19.996	100.939	19.679	23.434	0.521
438.500	298.274	79.995	19.997	100.940	19.681	23.339	0.503
439.000	298.542	79.995	19.996	100.939	19.674	23.744	0.497
439.500	298.736	79.996	19.995	100.940	19.678	23.506	0.482
440.000	298.988	79.996	19.997	100.939	19.671	23.981	0.454
440.500	299.287	79.995	19.997	100.940	19.674	23.789	0.499
441.000	299.525	79.996	19.997	100.940	19.666	24.250	0.544
441.500	299.777	79.995	19.996	100.941	19.667	24.184	0.513
442.000	300.014	79.995	19.996	100.940	19.664	24.374	0.490
442.500	300.286	79.995	19.997	100.940	19.664	24.426	0.499
443.000	300.494	79.995	19.997	100.940	19.663	24.435	0.494
443.500	300.748	79.994	19.996	100.940	19.662	24.533	0.471
444.000	300.963	79.995	19.997	100.939	19.657	24.848	0.466
444.500	301.234	79.995	19.995	100.939	19.655	24.990	0.477
445.000	301.512	79.996	19.997	100.940	19.655	24.970	0.517
445.500	301.742	79.996	19.996	100.939	19.651	25.212	0.529
446.000	301.963	79.995	19.997	100.939	19.650	25.283	0.480
446.500	302.230	79.996	19.997	100.939	19.649	25.358	0.469
447.000	302.501	79.995	19.997	100.938	19.645	25.644	0.513
447.500	302.722	79.995	19.996	100.938	19.646	25.553	0.516
448.000	302.983	79.994	19.995	100.938	19.642	25.815	0.487
448.500	303.224	79.996	19.999	100.942	19.641	25.858	0.491
449.000	303.478	79.997	19.998	100.945	19.640	25.921	0.498
449.500	303.726	79.997	19.997	100.946	19.637	26.112	0.499
450.000	303.947	79.996	19.997	100.946	19.636	26.208	0.486
450.500	304.206	79.995	19.997	100.950	19.636	26.205	0.475
451.000	304.421	79.996	19.997	100.951	19.633	26.385	0.477
451.500	304.651	79.996	19.996	100.953	19.629	26.651	0.459
452.000	304.905	79.995	19.997	100.957	19.630	26.562	0.464
452.500	305.165	79.996	19.996	100.957	19.626	26.837	0.499
453.000	305.388	79.996	19.996	100.953	19.623	27.065	0.499
453.500	305.607	79.997	19.995	100.949	19.620	27.256	0.462
454.000	305.898	79.996	19.996	100.949	19.618	27.331	0.476
454.500	306.101	79.996	19.995	100.947	19.616	27.457	0.502
455.000	306.359	79.995	19.995	100.949	19.615	27.543	0.477
455.500	306.615	79.996	19.995	100.950	19.614	27.594	0.487
456.000	306.841	79.995	19.995	100.951	19.612	27.753	0.498
456.500	307.089	79.995	19.996	100.946	19.610	27.868	0.478
457.000	307.355	79.996	19.995	100.945	19.609	27.923	0.494
457.500	307.582	79.995	19.995	100.946	19.605	28.210	0.503
458.000	307.813	79.996	19.995	100.950	19.601	28.429	0.475
458.500	308.037	79.995	19.995	100.952	19.601	28.474	0.456
459.000	308.281	79.995	19.997	100.956	19.601	28.436	0.461
459.500	308.509	79.996	19.994	100.961	19.598	28.617	0.470
460.000	308.765	79.997	19.995	100.965	19.595	28.799	0.478
460.500	308.986	79.995	19.996	100.968	19.591	29.081	0.481
461.000	309.220	79.996	19.995	100.970	19.589	29.201	0.466
461.501	309.468	79.996	19.995	100.967	19.590	29.165	0.468
462.000	309.709	79.994	19.996	100.967	19.585	29.454	0.486
462.500	309.937	79.995	19.996	100.969	19.580	29.765	0.479
463.000	310.146	79.996	19.995	100.969	19.581	29.742	0.453
463.500	310.405	79.995	19.996	100.973	19.580	29.816	0.453
464.000	310.639	79.996	19.995	100.980	19.579	29.867	0.481
464.500	310.893	79.996	19.995	100.980	19.577	29.967	0.490
465.000	311.144	79.995	19.997	100.976	19.572	30.331	0.496
465.500	311.354	79.994	19.994	100.971	19.573	30.254	0.483
466.000	311.588	79.995	19.995	100.967	19.569	30.506	0.453
466.500	311.834	79.994	19.996	100.965	19.564	30.805	0.462
467.000	312.069	79.994	19.995	100.964	19.565	30.785	0.480
467.500	312.322	79.995	19.995	100.968	19.562	30.945	0.485
468.000	312.565	79.995	19.995	100.974	19.562	30.966	0.492
468.500	312.803	79.995	19.996	100.978	19.560	31.050	0.488
469.000	313.027	79.996	19.994	100.980	19.556	31.337	0.471
469.500	313.312	79.995	19.995	100.981	19.552	31.607	0.485
470.000	313.532	79.995	19.995	100.981	19.551	31.655	0.507
470.500	313.735	79.996	19.995	100.980	19.549	31.811	0.464
471.000	313.998	79.996	19.995	100.980	19.545	32.065	0.445
471.500	314.247	79.996	19.995	100.980	19.545	32.061	0.489
472.000	314.466	79.995	19.997	100.982	19.542	32.236	0.490
472.500	314.718	79.994	19.997	100.982	19.539	32.447	0.470
473.000	314.933	79.995	19.996	100.983	19.540	32.364	0.469
473.500	315.176	79.994	19.996	100.984	19.533	32.809	0.462
474.000	315.425	79.996	19.995	100.986	19.534	32.749	0.475
474.500	315.647	79.996	19.996	100.985	19.531	32.917	0.482
475.000	315.918	79.995	19.996	100.987	19.528	33.122	0.482
475.500	316.114	79.996	19.994	100.993	19.525	33.293	0.480
476.000	316.351	79.996	19.994	100.994	19.524	33.403	0.450
476.500	316.592	79.997	19.995	100.998	19.521	33.586	0.455
477.000	316.840	79.995	19.995	101.003	19.520	33.621	0.483
477.500	317.057	79.995	19.996	101.006	19.517	33.843	0.477
478.000	317.351	79.996	19.995	101.007	19.515	33.966	0.488
478.500	317.596	79.996	19.996	101.011	19.509	34.328	0.525
479.000	317.795	79.996	19.996	101.012	19.507	34.507	0.492
479.500	318.061	79.997	19.996	101.014	19.505	34.597	0.455
480.000	318.311	79.996	19.995	101.015	19.502	34.819	0.490
480.500	318.527	79.997	19.995	101.010	19.502	34.791	0.491
481.000	318.773	79.997	19.996	101.012	19.497	35.140	0.464
481.500	319.006	79.999	19.995	101.014	19.494	35.304	0.470
482.000	319.257	79.998	19.995	101.013	19.490	35.566	0.481
482.500	319.504	79.997	19.994	101.016	19.490	35.591	0.491
483.000	319.793	79.998	19.994	101.018	19.489	35.652	0.517
483.500	319.995	79.998	19.995	101.017	19.483	36.031	0.514
484.000	320.266	79.997	19.994	101.017	19.482	36.091	0.482
484.500	320.474	79.998	19.995	101.017	19.481	36.149	0.476
485.000	320.752	79.998	19.995	101.017	19.475	36.531	0.482
485.500	320.975	79.998	19.994	101.020	19.472	36.723	0.493
486.000	321.228	79.997	19.995	101.020	19.470	36.875	0.488
486.500	321.505	79.997	19.996	101.020	19.465	37.206	0.503
487.000	321.752	79.996	19.996	101.019	19.464	37.231	0.527
487.500	321.991	79.998	19.995	101.018	19.459	37.561	0.505
488.000	322.249	79.997	19.995	101.017	19.454	37.856	0.491
488.500	322.503	79.997	19.996	101.018	19.455	37.796	0.505
489.000	322.759	79.996	19.994	101.018	19.449	38.203	0.511
489.500	323.020	79.998	19.995	101.021	19.447	38.318	0.514
490.000	323.248	79.998	19.994	101.021	19.444	38.496	0.503
490.500	323.539	79.997	19.995	101.022	19.443	38.601	0.504
491.000	323.797	79.998	19.995	101.025	19.439	38.858	0.534
491.500	324.030	79.996	19.994	101.027	19.436	39.048	0.520
492.000	324.255	79.997	19.995	101.031	19.430	39.419	0.475
492.500	324.493	79.996	19.995	101.034	19.432	39.283	0.460
493.000	324.759	79.997	19.994	101.036	19.425	39.740	0.484
493.500	325.017	79.997	19.995	101.035	19.421	39.976	0.514
494.000	325.254	79.997	19.995	101.034	19.424	39.825	0.510
494.500	325.537	79.997	19.994	101.029	19.419	40.097	0.508
495.000	325.785	79.997	19.995	101.028	19.416	40.305	0.525
495.500	326.058	79.997	19.995	101.031	19.412	40.606	0.526
496.000	326.306	79.997	19.996	101.035	19.407	40.901	0.521
496.500	326.536	79.996	19.995	101.040	19.407	40.891	0.499
497.000	326.831	79.999	19.995	101.041	19.404	41.071	0.502
497.500	327.090	79.997	19.995	101.044	19.401	41.310	0.540
498.000	327.316	79.998	19.995	101.045	19.400	41.329	0.519
498.500	327.587	79.998	19.995	101.039	19.392	41.828	0.491
499.000	327.847	79.998	19.995	101.033	19.394	41.709	0.514
499.500	328.088	79.998	19.995	101.032	19.393	41.768	0.516
500.000	328.338	79.997	19.995	101.029	19.385	42.338	0.496
500.500	328.581	79.999	19.996	101.026	19.381	42.548	0.492
501.000	328.835	79.998	19.996	101.027	19.380	42.613	0.495
501.500	329.098	79.997	19.995	101.034	19.374	43.017	0.507
502.000	329.320	79.999	19.997	101.039	19.371	43.213	0.501
502.500	329.589	79.998	19.995	101.044	19.367	43.475	0.488
503.000	329.852	79.999	19.994	101.049	19.362	43.767	0.512
503.500	330.086	79.997	19.996	101.056	19.359	43.954	0.514
504.000	330.341	79.998	19.996	101.056	19.354	44.277	0.493
504.500	330.629	79.998	19.996	101.056	19.356	44.160	0.516
505.000	330.893	79.998	19.996	101.056	19.350	44.565	0.548
505.500	331.115	79.998	19.996	101.057	19.348	44.709	0.519
506.000	331.350	79.997	19.997	101.057	19.345	44.899	0.471
506.500	331.609	79.998	19.996	101.057	19.341	45.154	0.475
507.000	331.877	79.997	19.996	101.057	19.338	45.325	0.510
507.500	332.094	79.998	19.996	101.055	19.339	45.281	0.506
508.000	332.419	79.998	19.997	101.054	19.333	45.638	0.514
508.500	332.674	79.996	19.997	101.054	19.329	45.878	0.561
509.000	332.913	79.998	19.996	101.055	19.327	46.012	0.537
509.500	333.194	79.996	19.997	101.055	19.325	46.178	0.507
510.000	333.436	79.996	19.996	101.057	19.325	46.152	0.521
510.500	333.695	79.997	19.996	101.057	19.317	46.690	0.512
511.000	333.969	79.997	19.995	101.061	19.318	46.593	0.517
511.500	334.238	79.997	19.996	101.062	19.314	46.852	0.538
512.000	334.498	79.997	19.996	101.062	19.312	46.964	0.536
512.500	334.756	79.996	19.995	101.062	19.308	47.221	0.524
513.000	335.013	79.997	19.996	101.063	19.306	47.394	0.517
513.500	335.261	79.995	19.996	101.061	19.303	47.539	0.511
514.000	335.536	79.995	19.996	101.062	19.298	47.877	0.514
514.500	335.793	79.997	19.995	101.068	19.298	47.888	0.528
515.000	336.077	79.995	19.996	101.070	19.296	48.020	0.536
515.500	336.319	79.996	19.996	101.071	19.291	48.309	0.533
516.000	336.559	79.997	19.996	101.070	19.288	48.548	0.504
516.500	336.814	79.995	19.997	101.068	19.285	48.749	0.488
517.000	337.024	79.996	19.996	101.063	19.281	48.942	0.480
517.500	337.357	79.995	19.995	101.060	19.282	48.880	0.504
518.000	337.566	79.996	19.995	101.058	19.280	49.048	0.542
518.500	337.837	79.995	19.996	101.057	19.278	49.174	0.511
519.001	338.117	79.995	19.996	101.057	19.273	49.465	0.515
519.500	338.360	79.995	19.996	101.063	19.272	49.551	0.537
520.000	338.634	79.995	19.997	101.068	19.270	49.651	0.520
520.500	338.888	79.994	19.995	101.068	19.266	49.959	0.523
521.000	339.126	79.995	19.995	101.068	19.270	49.702	0.510
521.500	339.429	79.996	19.995	101.068	19.266	49.905	0.516
522.000	339.674	79.995	19.996	101.063	19.261	50.243	0.545
522.500	339.942	79.996	19.997	101.057	19.262	50.204	0.531
523.000	340.209	79.995	19.996	101.058	19.260	50.331	0.524
523.500	340.465	79.996	19.995	101.058	19.258	50.430	0.529
524.000	340.740	79.996	19.996	101.058	19.252	50.840	0.527
524.500	340.988	79.995	19.996	101.058	19.253	50.770	0.527
525.000	341.243	79.995	19.995	101.059	19.254	50.681	0.513
525.500	341.435	79.994	19.996	101.059	19.254	50.687	0.475
526.000	341.746	79.997	19.995	101.059	19.252	50.831	0.475
526.500	342.024	79.996	19.997	101.060	19.250	50.919	0.546
527.000	342.258	79.995	19.997	101.060	19.249	51.005	0.551
527.500	342.544	79.995	19.996	101.059	19.247	51.138	0.516
528.000	342.766	79.994	19.996	101.059	19.248	51.068	0.514
528.500	343.024	79.994	19.997	101.059	19.246	51.209	0.494
529.000	343.261	79.995	19.996	101.059	19.246	51.208	0.488
529.500	343.531	79.995	19.996	101.059	19.246	51.182	0.501
530.000	343.767	79.995	19.997	101.058	19.245	51.250	0.507
530.500	343.996	79.995	19.997	101.057	19.250	50.957	0.485
531.000	344.249	79.994	19.997	101.057	19.248	51.040	0.473
531.500	344.541	79.995	19.997	101.056	19.247	51.152	0.513
532.000	344.770	79.995	19.997	101.051	19.245	51.237	0.533
532.500	345.050	79.997	19.996	101.049	19.246	51.201	0.515
533.000	345.302	79.996	19.996	101.046	19.248	51.070	0.521
533.500	345.512	79.995	19.997	101.043	19.246	51.212	0.497
534.000	345.801	79.995	19.998	101.041	19.246	51.160	0.480
534.500	346.024	79.996	19.997	101.042	19.249	51.021	0.505
535.000	346.319	79.995	19.996	101.039	19.246	51.174	0.515
535.500	346.544	79.996	19.997	101.037	19.250	50.960	0.519
536.000	346.786	79.995	19.997	101.033	19.251	50.859	0.493
536.500	347.068	79.995	19.996	101.030	19.250	50.932	0.496
537.000	347.308	79.995	19.996	101.032	19.251	50.856	0.523
537.500	347.583	79.994	19.997	101.031	19.255	50.589	0.518
538.000	347.833	79.994	19.996	101.029	19.255	50.606	0.520
538.500	348.062	79.994	19.996	101.028	19.257	50.495	0.502
539.000	348.329	79.995	19.995	101.027	19.259	50.321	0.488
539.500	348.534	79.995	19.997	101.021	19.263	50.106	0.484
540.000	348.838	79.994	19.997	101.020	19.263	50.099	0.490
540.500	349.044	79.993	19.996	101.020	19.266	49.898	0.509
541.000	349.349	79.993	19.996	101.020	19.266	49.898	0.511
541.500	349.587	79.994	19.996	101.020	19.272	49.529	0.527
542.000	349.864	79.995	19.996	101.020	19.265	49.968	0.529
542.500	350.080	79.994	19.997	101.016	19.276	49.268	0.504
543.000	350.369	79.994	19.995	101.009	19.278	49.122	0.499
543.500	350.642	79.995	19.996	101.002	19.273	49.416	0.533
544.000	350.828	79.995	19.995	100.995	19.281	48.953	0.510
544.500	351.113	79.995	19.996	100.990	19.279	49.025	0.465
545.000	351.358	79.994	19.996	100.991	19.278	49.142	0.500
545.500	351.582	79.995	19.996	100.996	19.286	48.591	0.500
546.001	351.810	79.994	19.996	100.997	19.296	47.976	0.461
546.500	352.120	79.995	19.996	100.998	19.290	48.338	0.495
547.000	352.376	79.995	19.995	100.995	19.297	47.910	0.552
547.500	352.596	79.995	19.995	100.991	19.299	47.745	0.521
548.000	352.936	79.995	19.996	100.985	19.305	47.350	0.518
548.500	353.138	79.996	19.995	100.983	19.309	47.120	0.551
549.000	353.375	79.995	19.996	100.982	19.311	47.021	0.491
549.500	353.773	79.996	19.994	100.981	19.315	46.727	0.537
550.000	353.908	79.993	19.995	100.981	19.320	46.389	0.584
550.500	354.100	79.995	19.996	100.980	19.324	46.164	0.430
551.000	354.457	79.995	19.994	100.979	19.329	45.815	0.438
551.500	354.720	79.995	19.995	100.978	19.336	45.391	0.584
552.000	354.935	79.993	19.995	100.978	19.336	45.382	0.549
552.500	355.190	79.995	19.995	100.976	19.340	45.138	0.474
553.000	355.495	79.995	19.996	100.974	19.348	44.636	0.515
553.500	355.729	79.996	19.995	100.968	19.350	44.512	0.550
554.000	355.958	79.996	19.995	100.966	19.355	44.144	0.501
554.500	356.270	79.996	19.995	100.963	19.360	43.851	0.502
555.000	356.516	79.996	19.995	100.959	19.363	43.620	0.549
555.500	356.734	79.996	19.995	100.955	19.371	43.158	0.511
556.000	356.916	79.996	19.996	100.954	19.373	43.030	0.432
556.500	357.585	79.995	19.995	100.951	19.381	42.485	0.626
557.000	357.362	79.995	19.995	100.946	19.387	42.133	0.648
557.500	357.737	79.998	19.995	100.943	19.387	42.117	0.299
558.000	358.250	79.997	19.995	100.942	19.397	41.498	0.520
558.500	358.371	79.996	19.995	100.939	19.401	41.202	0.761
559.000	358.313	79.997	19.995	100.935	19.408	40.791	0.348
559.500	358.463	79.996	19.996	100.932	19.414	40.384	0.077
560.000	359.194	79.997	19.995	100.930	19.424	39.753	0.487
560.500	359.110	79.998	19.996	100.923	19.423	39.819	0.765
561.000	359.581	79.998	19.996	100.918	19.431	39.299	0.517
561.500	359.789	79.998	19.997	100.913	19.437	38.873	0.532
562.000	360.003	79.997	19.996	100.909	19.445	38.403	0.550
562.500	360.338	79.998	19.996	100.904	19.449	38.162	0.486
563.000	360.563	79.998	19.995	100.904	19.454	37.783	0.555
563.500	360.843	79.998	19.995	100.904	19.461	37.356	0.532
564.000	361.117	79.997	19.995	100.906	19.468	36.919	0.529
564.500	361.336	79.997	19.996	100.906	19.474	36.513	0.524
565.000	361.627	79.997	19.995	100.903	19.479	36.182	0.502
565.500	361.885	79.996	19.994	100.902	19.487	35.728	0.530
566.000	362.130	79.997	19.994	100.900	19.491	35.449	0.526
566.500	362.384	79.996	19.996	100.897	19.497	35.051	0.501
567.000	362.668	79.997	19.995	100.895	19.506	34.503	0.518
567.500	362.888	79.997	19.996	100.896	19.509	34.291	0.521
568.000	363.199	79.996	19.995	100.895	19.514	33.984	0.518
568.500	363.446	79.997	19.996	100.889	19.520	33.581	0.545
569.000	363.680	79.997	19.996	100.888	19.530	32.962	0.519
569.500	363.923	79.998	19.996	100.884	19.535	32.642	0.479
570.000	364.201	79.997	19.997	100.880	19.542	32.192	0.499
570.500	364.458	79.997	19.996	100.878	19.546	31.905	0.528
571.000	364.708	79.997	19.996	100.877	19.552	31.508	0.521
571.500	364.930	79.997	19.996	100.871	19.559	31.061	0.489
572.000	365.203	79.997	19.996	100.870	19.567	30.598	0.483
572.500	365.450	79.996	19.995	100.867	19.574	30.159	0.508
573.000	365.715	79.996	19.995	100.862	19.576	30.017	0.517
573.500	365.992	79.997	19.995	100.860	19.583	29.523	0.527
574.000	366.246	79.996	19.995	100.860	19.593	28.915	0.536
574.500	366.498	79.996	19.996	100.860	19.596	28.736	0.518
575.000	366.745	79.997	19.995	100.860	19.603	28.255	0.502
575.500	367.006	79.998	19.995	100.859	19.612	27.709	0.503
576.000	367.273	79.996	19.996	100.859	19.617	27.391	0.518
576.500	367.546	79.997	19.996	100.858	19.624	26.954	0.534
577.000	367.778	79.996	19.995	100.858	19.633	26.359	0.523
577.500	368.032	79.997	19.995	100.854	19.638	26.017	0.495
578.000	368.265	79.998	19.995	100.853	19.644	25.625	0.486
578.500	368.570	79.998	19.994	100.850	19.649	25.347	0.512
579.000	368.806	79.998	19.994	100.848	19.654	25.032	0.540
579.500	369.057	79.997	19.995	100.847	19.662	24.508	0.514
580.000	369.313	79.998	19.994	100.843	19.667	24.196	0.497
580.500	369.562	79.999	19.996	100.838	19.674	23.753	0.506
581.000	369.789	79.998	19.996	100.835	19.679	23.437	0.491
581.500	370.045	79.998	19.993	100.835	19.682	23.190	0.479
582.000	370.321	79.998	19.995	100.829	19.689	22.761	0.507
582.500	370.543	79.998	19.995	100.830	19.695	22.384	0.515
583.000	370.826	79.998	19.995	100.830	19.702	21.909	0.501
583.500	371.092	79.999	19.994	100.830	19.704	21.820	0.527
584.000	371.296	79.997	19.995	100.825	19.709	21.492	0.510
584.500	371.588	79.999	19.994	100.825	19.718	20.945	0.483
585.000	371.830	79.998	19.994	100.825	19.724	20.560	0.515
585.500	372.073	79.998	19.995	100.825	19.728	20.287	0.509
586.001	372.318	79.999	19.994	100.824	19.734	19.874	0.486
586.500	372.626	79.999	19.994	100.823	19.740	19.535	0.521
587.000	372.838	79.998	19.995	100.823	19.740	19.485	0.537
587.500	373.102	79.999	19.995	100.823	19.749	18.935	0.498
588.000	373.375	79.998	19.994	100.821	19.752	18.754	0.506
588.500	373.612	79.999	19.995	100.820	19.759	18.294	0.523
589.000	373.856	79.998	19.995	100.820	19.759	18.316	0.496
589.500	374.112	79.998	19.995	100.820	19.767	17.799	0.491
590.000	374.356	79.998	19.995	100.817	19.773	17.414	0.500
590.500	374.613	79.998	19.996	100.815	19.777	17.160	0.500
591.000	374.887	79.998	19.995	100.811	19.780	16.934	0.516
591.500	375.142	79.997	19.996	100.808	19.783	16.764	0.530
592.000	375.400	79.996	19.995	100.807	19.790	16.318	0.521
592.500	375.604	79.997	19.995	100.807	19.794	16.039	0.487
593.000	375.904	79.997	19.995	100.811	19.800	15.700	0.483
593.500	376.133	79.996	19.994	100.816	19.803	15.462	0.517
594.000	376.404	79.995	19.996	100.817	19.807	15.229	0.514
594.500	376.675	79.995	19.995	100.815	19.806	15.286	0.521
595.000	376.871	79.995	19.996	100.814	19.814	14.770	0.505
595.500	377.160	79.996	19.995	100.809	19.817	14.617	0.476
596.000	377.391	79.995	19.996	100.808	19.821	14.323	0.503
596.500	377.637	79.995	19.996	100.809	19.825	14.088	0.498
597.000	377.900	79.996	19.996	100.809	19.829	13.808	0.493
597.500	378.126	79.995	19.996	100.807	19.832	13.607	0.499
598.000	378.357	79.994	19.996	100.804	19.833	13.557	0.473
598.500	378.631	79.995	19.996	100.799	19.838	13.253	0.481
599.000	378.881	79.994	19.996	100.796	19.838	13.215	0.515
599.500	379.158	79.996	19.996	100.793	19.844	12.867	0.526
600.000	379.413	79.995	19.995	100.796	19.846	12.736	0.530
600.500	379.648	79.993	19.996	100.802	19.847	12.698	0.511
601.000	379.877	79.994	19.996	100.805	19.854	12.214	0.477
601.500	380.148	79.995	19.996	100.805	19.855	12.128	0.482
602.000	380.403	79.995	19.996	100.803	19.858	11.959	0.513
602.500	380.643	79.994	19.996	100.799	19.860	11.845	0.510
603.000	380.865	79.996	19.995	100.795	19.862	11.739	0.478
603.500	381.065	79.995	19.995	100.793	19.869	11.255	0.442
604.000	381.355	79.994	19.996	100.790	19.868	11.316	0.456
604.500	381.598	79.996	19.996	100.789	19.871	11.155	0.511
605.000	381.829	79.994	19.996	100.789	19.872	11.041	0.504
605.500	382.101	79.994	19.996	100.789	19.876	10.784	0.489
606.000	382.357	79.996	19.994	100.795	19.879	10.646	0.516
606.500	382.585	79.996	19.997	100.800	19.879	10.626	0.506
607.000	382.831	79.996	19.995	100.805	19.881	10.499	0.479
607.500	383.069	79.995	19.996	100.806	19.880	10.556	0.479
608.000	383.307	79.996	19.995	100.807	19.884	10.280	0.480
608.500	383.574	79.994	19.995	100.803	19.886	10.205	0.490
609.000	383.816	79.996	19.995	100.802	19.887	10.143	0.507
609.500	384.045	79.995	19.996	100.798	19.889	9.988	0.490
610.000	384.311	79.995	19.996	100.798	19.893	9.754	0.483
610.500	384.565	79.996	19.995	100.796	19.897	9.501	0.508
611.000	384.803	79.996	19.996	100.797	19.893	9.742	0.506
611.500	385.052	79.996	19.995	100.799	19.896	9.530	0.489
612.000	385.324	79.996	19.995	100.805	19.895	9.578	0.504
612.500	385.561	79.996	19.996	100.808	19.899	9.330	0.515
613.000	385.804	79.997	19.994	100.812	19.900	9.300	0.495
613.500	386.038	79.996	19.996	100.808	19.897	9.496	0.478
614.000	386.312	79.995	19.995	100.806	19.903	9.093	0.492
614.500	386.513	79.997	19.995	100.803	19.906	8.897	0.491
615.000	386.782	79.998	19.996	100.804	19.903	9.106	0.473
615.500	387.025	79.997	19.996	100.804	19.905	8.961	0.491
616.000	387.252	79.997	19.995	100.806	19.908	8.736	0.491
616.500	387.514	79.996	19.996	100.809	19.911	8.591	0.479
617.000	387.793	79.997	19.995	100.810	19.909	8.699	0.515
617.500	388.017	79.996	19.997	100.811	19.910	8.622	0.522
618.000	388.338	79.996	19.996	100.809	19.910	8.612	0.524
618.500	388.554	79.996	19.995	100.809	19.913	8.431	0.541
619.000	388.791	79.995	19.996	100.809	19.910	8.621	0.495
619.500	389.080	79.996	19.996	100.806	19.914	8.403	0.489
620.000	389.342	79.996	19.996	100.801	19.917	8.222	0.539
620.500	389.588	79.995	19.995	100.804	19.917	8.220	0.529
621.000	389.814	79.995	19.996	100.805	19.920	8.018	0.490
621.500	390.054	79.996	19.995	100.804	19.917	8.169	0.469
622.000	390.301	79.995	19.996	100.802	19.918	8.153	0.477
622.500	390.573	79.995	19.995	100.803	19.921	7.960	0.503
623.000	390.841	79.995	19.996	100.803	19.923	7.839	0.529
623.500	391.079	79.995	19.996	100.806	19.924	7.746	0.523
624.000	391.335	79.995	19.997	100.804	19.922	7.878	0.500
624.500	391.597	79.997	19.996	100.806	19.923	7.799	0.506
625.000	391.844	79.994	19.996	100.804	19.924	7.735	0.513
625.500	392.102	79.995	19.996	100.799	19.922	7.887	0.507
626.000	392.373	79.995	19.996	100.796	19.924	7.760	0.517
626.500	392.647	79.994	19.996	100.795	19.925	7.668	0.537
627.000	392.858	79.994	19.996	100.794	19.924	7.737	0.515
627.500	393.112	79.994	19.996	100.794	19.925	7.688	0.475
628.000	393.404	79.995	19.996	100.796	19.926	7.595	0.505
628.500	393.670	79.994	19.998	100.794	19.927	7.554	0.552
629.000	393.953	79.995	19.998	100.795	19.929	7.407	0.553
629.500	394.209	79.996	19.998	100.796	19.929	7.458	0.544
630.000	394.451	79.995	19.998	100.798	19.928	7.513	0.519
630.500	394.726	79.996	19.998	100.798	19.931	7.328	0.508
631.000	394.984	79.995	19.997	100.798	19.926	7.592	0.525
631.500	395.238	79.995	19.996	100.798	19.930	7.389	0.522
632.000	395.514	79.994	19.997	100.799	19.932	7.258	0.521
632.500	395.751	79.995	19.997	100.800	19.930	7.389	0.522
633.000	395.994	79.995	19.996	100.802	19.929	7.422	0.496
633.500	396.263	79.995	19.996	100.805	19.931	7.305	0.496
634.000	396.508	79.996	19.997	100.803	19.930	7.353	0.513
634.500	396.788	79.997	19.997	100.800	19.930	7.364	0.519
635.000	397.016	79.995	19.996	100.799	19.932	7.264	0.517
635.500	397.320	79.996	19.995	100.798	19.929	7.428	0.520
636.000	397.574	79.996	19.997	100.799	19.932	7.253	0.545
636.500	397.805	79.997	19.996	100.801	19.931	7.322	0.522
637.000	398.075	79.996	19.996	100.803	19.933	7.191	0.493
637.500	398.359	79.997	19.995	100.804	19.934	7.077	0.527
638.000	398.609	79.997	19.996	100.801	19.933	7.144	0.544
638.500	398.893	79.998	19.995	100.798	19.931	7.273	0.534
639.000	399.152	79.997	19.994	100.800	19.932	7.222	0.538
639.500	399.403	79.997	19.995	100.801	19.937	6.925	0.526
640.000	399.657	79.998	19.995	100.805	19.937	6.923	0.508
640.500	399.927	79.997	19.996	100.808	19.936	6.992	0.515
641.000	400.223	79.998	19.995	100.806	19.935	7.047	0.545
641.500	400.443	79.997	19.995	100.803	19.938	6.847	0.541
642.000	400.695	79.997	19.995	100.800	19.938	6.835	0.494
642.500	400.965	79.998	19.995	100.793	19.937	6.918	0.497
643.000	401.214	79.998	19.995	100.788	19.937	6.917	0.520
643.500	401.477	79.998	19.994	100.789	19.937	6.903	0.516
644.000	401.744	79.998	19.995	100.792	19.941	6.673	0.521
644.500	402.005	79.997	19.995	100.791	19.940	6.707	0.529
645.000	402.249	79.998	19.995	100.793	19.941	6.688	0.517
645.500	402.512	79.997	19.996	100.798	19.939	6.768	0.506
646.000	402.764	79.998	19.994	100.798	19.941	6.676	0.511
646.500	403.034	79.998	19.995	100.797	19.939	6.778	0.519
647.000	403.301	79.997	19.995	100.797	19.938	6.828	0.529
647.500	403.589	79.998	19.995	100.797	19.939	6.802	0.546
648.000	403.807	79.996	19.995	100.793	19.937	6.937	0.531
648.500	404.085	79.997	19.995	100.792	19.939	6.788	0.501
649.000	404.325	79.997	19.996	100.790	19.938	6.854	0.507
649.500	404.586	79.998	19.995	100.790	19.938	6.828	0.509
650.000	404.835	79.997	19.995	100.791	19.940	6.754	0.506
650.500	405.095	79.997	19.995	100.790	19.938	6.849	0.510
651.000	405.356	79.996	19.995	100.792	19.940	6.737	0.515
651.500	405.621	79.997	19.995	100.795	19.938	6.879	0.524
652.001	405.891	79.997	19.994	100.795	19.939	6.767	0.530
652.500	406.126	79.996	19.995	100.796	19.940	6.699	0.520
653.000	406.411	79.996	19.994	100.798	19.941	6.656	0.513
653.500	406.668	79.998	19.995	100.799	19.941	6.687	0.531
654.000	406.962	79.997	19.995	100.799	19.941	6.651	0.546
654.500	407.187	79.996	19.995	100.800	19.941	6.683	0.535
655.000	407.449	79.998	19.994	100.798	19.941	6.650	0.503
655.500	407.727	79.995	19.995	100.798	19.941	6.640	0.514
656.000	407.982	79.996	19.994	100.797	19.941	6.674	0.536
656.500	408.232	79.996	19.996	100.797	19.942	6.619	0.519
657.000	408.488	79.996	19.995	100.799	19.942	6.603	0.506
657.500	408.717	79.997	19.996	100.798	19.943	6.522	0.496
658.000	409.015	79.996	19.995	100.798	19.942	6.581	0.506
658.500	409.294	79.998	19.995	100.795	19.939	6.760	0.552
659.000	409.537	79.997	19.996	100.793	19.940	6.698	0.550
659.500	409.801	79.997	19.994	100.789	19.943	6.562	0.514
660.000	410.041	79.997	19.995	100.790	19.942	6.612	0.505
660.500	410.302	79.997	19.996	100.789	19.940	6.691	0.503
661.000	410.582	79.998	19.996	100.792	19.942	6.621	0.521
661.500	410.817	79.997	19.995	100.792	19.944	6.495	0.528
662.000	411.061	79.998	19.995	100.794	19.946	6.310	0.497
662.500	411.329	79.998	19.994	100.799	19.942	6.602	0.495
663.000	411.567	79.998	19.995	100.803	19.943	6.561	0.509
663.500	411.837	79.997	19.995	100.802	19.941	6.640	0.507
664.000	412.098	79.997	19.995	100.801	19.945	6.400	0.520
664.500	412.323	79.998	19.995	100.802	19.945	6.414	0.509
665.000	412.593	79.998	19.996	100.799	19.945	6.434	0.490
665.500	412.876	79.998	19.995	100.797	19.946	6.353	0.524
666.000	413.129	79.998	19.995	100.797	19.944	6.436	0.545
666.500	413.378	79.998	19.996	100.798	19.944	6.436	0.519
667.000	413.638	79.999	19.995	100.794	19.947	6.287	0.506
667.500	413.900	79.997	19.996	100.791	19.948	6.204	0.516
668.000	414.151	79.997	19.994	100.789	19.947	6.289	0.517
668.501	414.391	79.998	19.995	100.788	19.947	6.299	0.501
669.000	414.641	79.998	19.996	100.788	19.946	6.349	0.490
669.500	414.880	79.997	19.995	100.787	19.946	6.358	0.490
670.000	415.142	79.998	19.994	100.788	19.946	6.337	0.496
670.500	415.399	79.997	19.995	100.790	19.948	6.230	0.510
671.000	415.659	79.997	19.995	100.788	19.943	6.522	0.517
671.500	415.925	79.998	19.995	100.787	19.946	6.315	0.521
672.000	416.149	79.996	19.994	100.790	19.946	6.365	0.508
672.500	416.408	79.996	19.995	100.795	19.947	6.287	0.486
673.000	416.665	79.997	19.995	100.800	19.949	6.166	0.499
673.500	416.918	79.998	19.995	100.802	19.948	6.202	0.513
674.000	417.162	79.998	19.994	100.806	19.948	6.225	0.504
674.500	417.449	79.997	19.995	100.803	19.946	6.344	0.514
675.000	417.698	79.997	19.995	100.799	19.950	6.095	0.534
675.500	417.929	79.996	19.995	100.793	19.951	6.049	0.508
676.000	418.218	79.994	19.995	100.791	19.948	6.223	0.500
676.500	418.484	79.996	19.995	100.787	19.950	6.107	0.537
677.000	418.689	79.998	19.995	100.786	19.948	6.204	0.513
677.500	418.961	79.996	19.995	100.787	19.951	6.002	0.474
678.000	419.201	79.996	19.995	100.788	19.951	6.028	0.495
678.500	419.464	79.995	19.994	100.788	19.953	5.895	0.508
679.000	419.702	79.996	19.995	100.788	19.952	5.973	0.502
679.500	419.998	79.996	19.994	100.787	19.951	6.007	0.517
680.000	420.236	79.996	19.994	100.785	19.953	5.923	0.534
680.500	420.498	79.995	19.996	100.784	19.952	5.961	0.517
681.000	420.747	79.996	19.995	100.783	19.952	5.948	0.505
681.500	421.004	79.995	19.994	100.784	19.955	5.755	0.509
682.000	421.263	79.996	19.995	100.786	19.953	5.916	0.511
682.500	421.555	79.996	19.995	100.786	19.950	6.087	0.534
683.000	421.777	79.995	19.996	100.786	19.950	6.073	0.533
683.500	422.012	79.996	19.995	100.786	19.951	6.043	0.486
684.000	422.294	79.996	19.995	100.785	19.952	5.971	0.487
684.500	422.507	79.996	19.996	100.784	19.952	5.979	0.506
685.000	422.776	79.996	19.997	100.783	19.954	5.814	0.488
685.500	423.031	79.996	19.996	100.783	19.958	5.581	0.503
686.000	423.251	79.994	19.996	100.783	19.953	5.886	0.500
686.500	423.524	79.994	19.996	100.783	19.958	5.591	0.484
687.000	423.797	79.996	19.996	100.783	19.956	5.722	0.519
687.500	424.018	79.996	19.995	100.783	19.956	5.729	0.520
688.000	424.275	79.997	19.996	100.783	19.956	5.726	0.486
688.500	424.553	79.996	19.997	100.782	19.958	5.555	0.507
689.000	424.795	79.997	19.996	100.782	19.959	5.489	0.527
689.500	425.028	79.996	19.996	100.784	19.959	5.479	0.497
690.000	425.271	79.996	19.996	100.784	19.959	5.506	0.476
690.500	425.523	79.996	19.996	100.784	19.958	5.560	0.486
691.000	425.787	79.997	19.995	100.784	19.959	5.498	0.506
691.500	426.045	79.995	19.996	100.784	19.958	5.550	0.519
692.000	426.313	79.995	19.996	100.782	19.958	5.567	0.523
692.500	426.559	79.997	19.996	100.782	19.956	5.674	0.520
693.000	426.816	79.995	19.995	100.782	19.959	5.482	0.509
693.500	427.069	79.995	19.996	100.782	19.959	5.489	0.507
694.000	427.311	79.996	19.995	100.782	19.960	5.422	0.503
694.500	427.560	79.996	19.995	100.782	19.961	5.373	0.493
695.000	427.814	79.996	19.996	100.781	19.960	5.463	0.497
695.500	428.056	79.996	19.996	100.782	19.959	5.479	0.500
696.000	428.291	79.996	19.996	100.782	19.959	5.484	0.487
696.500	428.531	79.996	19.996	100.782	19.958	5.562	0.476
697.000	428.779	79.996	19.996	100.782	19.961	5.398	0.482
697.500	429.020	79.996	19.996	100.782	19.961	5.370	0.489
698.000	429.279	79.996	19.996	100.782	19.964	5.204	0.495
698.500	429.522	79.996	19.996	100.782	19.959	5.496	0.501
699.000	429.765	79.996	19.995	100.782	19.961	5.365	0.494
699.500	430.005	79.995	19.996	100.782	19.965	5.144	0.484
700.000	430.287	79.995	19.996	100.782	19.961	5.368	0.502
700.500	430.507	79.997	19.995	100.782	19.963	5.240	0.512
701.000	430.737	79.996	19.996	100.783	19.965	5.142	0.477
701.500	431.008	79.997	19.997	100.782	19.966	5.080	0.476
702.000	431.269	79.997	19.995	100.782	19.963	5.246	0.516
702.500	431.545	79.997	19.996	100.781	19.964	5.163	0.534
703.000	431.755	79.997	19.996	100.780	19.963	5.234	0.511
703.500	431.971	79.995	19.996	100.779	19.966	5.033	0.456
704.000	432.217	79.995	19.996	100.780	19.967	4.985	0.444
704.500	432.464	79.996	19.995	100.780	19.967	5.021	0.477
705.000	432.702	79.996	19.995	100.781	19.963	5.280	0.489
705.500	432.972	79.995	19.995	100.782	19.966	5.065	0.496
706.000	433.206	79.997	19.996	100.782	19.967	5.018	0.506
706.500	433.446	79.995	19.996	100.782	19.963	5.225	0.489
707.000	433.687	79.996	19.996	100.782	19.965	5.118	0.478
707.500	433.920	79.996	19.997	100.782	19.967	4.971	0.478
708.000	434.185	79.995	19.996	100.782	19.968	4.923	0.486
708.500	434.429	79.995	19.996	100.782	19.968	4.949	0.503
709.000	434.680	79.996	19.996	100.782	19.970	4.781	0.502
709.500	434.899	79.996	19.996	100.782	19.972	4.695	0.483
710.000	435.171	79.995	19.995	100.781	19.971	4.716	0.480
710.500	435.400	79.995	19.995	100.782	19.970	4.831	0.495
711.000	435.629	79.996	19.997	100.782	19.969	4.887	0.479
711.500	435.863	79.995	19.996	100.782	19.970	4.824	0.461
712.000	436.116	79.995	19.996	100.783	19.972	4.688	0.475
712.500	436.324	79.994	19.996	100.784	19.970	4.776	0.474
713.000	436.585	79.995	19.996	100.782	19.970	4.807	0.465
713.500	436.835	79.995	19.995	100.782	19.971	4.725	0.490
714.000	437.057	79.994	19.996	100.782	19.972	4.659	0.492
714.500	437.298	79.996	19.996	100.782	19.970	4.792	0.467
715.000	437.541	79.994	19.996	100.782	19.972	4.695	0.473
715.500	437.778	79.995	19.996	100.784	19.972	4.652	0.482
716.000	438.050	79.995	19.997	100.785	19.969	4.852	0.495
716.500	438.238	79.996	19.997	100.785	19.972	4.692	0.484
717.000	438.493	79.996	19.997	100.786	19.976	4.424	0.451
717.500	438.789	79.996	19.996	100.786	19.976	4.412	0.497
718.000	439.001	79.995	19.996	100.787	19.975	4.510	0.530
718.500	439.227	79.997	19.997	100.787	19.976	4.415	0.473
719.000	439.449	79.997	19.996	100.787	19.975	4.481	0.443
719.500	439.731	79.997	19.996	100.787	19.973	4.605	0.475
720.000	439.940	79.997	19.997	100.786	19.970	4.773	0.497
720.500	440.209	79.996	19.997	100.784	19.977	4.346	0.485
721.000	440.400	79.997	19.997	100.784	19.977	4.367	0.469
721.500	440.668	79.996	19.996	100.783	19.975	4.467	0.459
722.000	440.939	79.997	19.996	100.783	19.973	4.612	0.499
722.500	441.182	79.996	19.997	100.784	19.975	4.491	0.527
723.000	441.433	79.996	19.996	100.784	19.978	4.279	0.505
723.500	441.679	79.996	19.996	100.786	19.975	4.481	0.496
724.000	441.960	79.997	19.996	100.788	19.978	4.288	0.512
724.500	442.187	79.997	19.995	100.789	19.978	4.298	0.517
725.000	442.398	79.997	19.996	100.789	19.980	4.189	0.473
725.500	442.680	79.997	19.996	100.790	19.979	4.258	0.466
726.000	442.926	79.996	19.995	100.789	19.977	4.383	0.510
726.500	443.161	79.996	19.996	100.788	19.977	4.336	0.504
727.000	443.444	79.997	19.996	100.786	19.977	4.381	0.499
727.500	443.654	79.997	19.997	100.786	19.977	4.386	0.506
728.000	443.927	79.996	19.995	100.785	19.975	4.457	0.488
728.500	444.174	79.996	19.995	100.784	19.980	4.182	0.502
729.000	444.423	79.997	19.996	100.784	19.979	4.212	0.508
729.500	444.675	79.996	19.996	100.784	19.982	4.049	0.498
730.000	444.922	79.997	19.996	100.784	19.980	4.155	0.500
730.500	445.168	79.996	19.995	100.784	19.980	4.153	0.496
731.000	445.438	79.997	19.995	100.784	19.980	4.167	0.504
731.500	445.721	79.996	19.995	100.785	19.977	4.370	0.534
732.000	445.946	79.996	19.994	100.785	19.982	4.039	0.531
732.500	446.219	79.995	19.995	100.786	19.980	4.137	0.503
733.000	446.451	79.997	19.995	100.786	19.983	3.949	0.501
733.500	446.698	79.997	19.996	100.787	19.979	4.227	0.492
734.000	446.959	79.997	19.996	100.787	19.984	3.940	0.493
734.500	447.208	79.996	19.994	100.788	19.983	3.966	0.509
735.000	447.502	79.996	19.995	100.788	19.982	4.056	0.527
735.500	447.761	79.997	19.995	100.788	19.984	3.906	0.548
736.000	447.998	79.997	19.995	100.791	19.983	3.956	0.524
736.500	448.243	79.996	19.995	100.791	19.985	3.850	0.489
737.000	448.516	79.996	19.995	100.791	19.984	3.925	0.500
737.500	448.764	79.996	19.995	100.791	19.984	3.909	0.520
738.000	449.039	79.997	19.995	100.791	19.983	3.970	0.522
738.500	449.272	79.996	19.995	100.787	19.986	3.795	0.515
739.000	449.553	79.996	19.996	100.787	19.985	3.828	0.511
739.500	449.796	79.997	19.995	100.787	19.987	3.740	0.519
740.000	450.053	79.997	19.995	100.788	19.985	3.868	0.512
740.500	450.281	79.998	19.997	100.789	19.989	3.564	0.492
741.000	450.596	79.997	19.995	100.788	19.988	3.683	0.513
741.500	450.822	79.996	19.995	100.788	19.988	3.653	0.542
742.000	451.109	79.997	19.996	100.788	19.985	3.821	0.527
742.500	451.378	79.998	19.995	100.787	19.988	3.629	0.535
743.000	451.621	79.998	19.996	100.786	19.987	3.696	0.534
743.500	451.893	79.998	19.995	100.789	19.988	3.660	0.513
744.000	452.143	79.998	19.996	100.789	19.989	3.612	0.518
744.500	452.416	79.998	19.995	100.788	19.988	3.650	0.523
745.000	452.661	79.998	19.995	100.787	19.988	3.633	0.521
745.500	452.903	79.998	19.996	100.785	19.988	3.671	0.502
746.000	453.142	79.998	19.997	100.781	19.989	3.602	0.484
746.500	453.449	79.998	19.995	100.780	19.988	3.626	0.513
747.000	453.710	79.998	19.996	100.780	19.990	3.527	0.557
747.500	453.972	79.997	19.996	100.780	19.988	3.683	0.546
748.000	454.218	79.999	19.995	100.781	19.989	3.559	0.515
748.500	454.477	79.998	19.997	100.781	19.989	3.560	0.506
749.000	454.751	79.999	19.996	100.782	19.990	3.547	0.519
749.500	455.017	79.998	19.996	100.784	19.991	3.441	0.537
750.000	455.272	79.998	19.995	100.784	19.988	3.680	0.530
750.500	455.547	79.999	19.995	100.785	19.992	3.386	0.525
751.000	455.800	79.998	19.996	100.785	19.989	3.562	0.529
751.500	456.073	79.999	19.994	100.782	19.991	3.440	0.528
752.000	456.320	79.999	19.995	100.780	19.992	3.377	0.523
752.500	456.547	79.998	19.995	100.763	19.992	3.424	0.497
753.000	456.846	79.998	19.996	100.740	19.989	3.595	0.500
753.500	457.109	79.999	19.995	100.728	19.988	3.650	0.544
754.000	457.367	79.997	19.996	100.722	19.990	3.512	0.541
754.500	457.578	79.998	19.996	100.721	19.992	3.405	0.495
755.000	457.859	79.997	19.995	100.738	19.993	3.315	0.481
755.500	458.126	79.996	19.995	100.784	19.991	3.490	0.520
756.000	458.390	79.995	19.995	100.819	19.992	3.388	0.539
756.500	458.649	79.995	19.996	100.827	19.992	3.395	0.527
757.000	458.899	79.996	19.996	100.829	19.993	3.357	0.516
757.500	459.145	79.997	19.994	100.828	19.990	3.515	0.502
758.000	459.417	79.996	19.995	100.805	19.994	3.281	0.508
758.500	459.708	79.995	19.996	100.784	19.993	3.362	0.540
759.000	459.941	79.997	19.995	100.782	19.997	3.049	0.543
759.500	460.162	79.997	19.995	100.782	19.995	3.187	0.489
760.000	460.462	79.995	19.996	100.782	19.996	3.168	0.488
760.500	460.689	79.996	19.995	100.782	19.997	3.092	0.524
761.000	460.969	79.996	19.996	100.782	19.999	2.923	0.517
761.500	461.234	79.996	19.995	100.782	19.996	3.162	0.526
762.000	461.466	79.996	19.995	100.782	19.997	3.061	0.521
762.500	461.752	79.995	19.996	100.782	19.996	3.136	0.508
763.000	461.996	79.995	19.996	100.782	19.999	2.941	0.524
763.500	462.235	79.996	19.995	100.782	19.998	3.025	0.507
764.000	462.498	79.994	19.996	100.782	19.996	3.141	0.493
764.500	462.760	79.996	19.994	100.782	19.998	3.025	0.513
765.000	463.035	79.995	19.995	100.783	19.997	3.058	0.531
765.500	463.267	79.996	19.995	100.783	19.997	3.087	0.522
766.000	463.541	79.997	19.995	100.783	19.996	3.134	0.506
766.500	463.781	79.997	19.995	100.783	19.999	2.959	0.510
767.000	464.009	79.997	19.995	100.782	20.000	2.887	0.491
767.500	464.290	79.996	19.995	100.781	20.001	2.851	0.489
768.000	464.520	79.996	19.995	100.781	19.998	2.994	0.510
768.500	464.780	79.996	19.995	100.781	20.002	2.787	0.500
769.000	465.009	79.995	19.994	100.781	20.001	2.820	0.490
769.500	465.261	79.995	19.996	100.780	20.000	2.868	0.485
770.000	465.494	79.996	19.995	100.780	19.999	2.947	0.483
770.500	465.746	79.995	19.995	100.780	20.000	2.899	0.485
771.000	466.042	79.996	19.994	100.779	20.000	2.877	0.517
771.500	466.273	79.997	19.994	100.779	19.998	2.994	0.537
772.000	466.536	79.996	19.996	100.780	20.001	2.849	0.510
772.500	466.800	79.996	19.995	100.781	20.000	2.892	0.510
773.000	467.057	79.996	19.995	100.782	20.002	2.759	0.524
773.500	467.306	79.996	19.995	100.783	20.002	2.733	0.514
774.000	467.562	79.997	19.995	100.783	20.002	2.737	0.506
774.500	467.784	79.996	19.995	100.783	20.001	2.795	0.491
775.000	468.061	79.996	19.995	100.783	20.003	2.707	0.489
775.500	468.273	79.996	19.996	100.782	20.002	2.730	0.494
776.000	468.554	79.996	19.995	100.779	20.003	2.670	0.491
776.500	468.790	79.995	19.996	100.777	20.003	2.702	0.505
777.000	469.051	79.995	19.996	100.774	20.004	2.630	0.507
777.500	469.305	79.995	19.995	100.773	20.004	2.602	0.506
778.000	469.547	79.996	19.995	100.773	20.004	2.614	0.506
778.500	469.799	79.995	19.995	100.776	20.005	2.555	0.495
779.000	470.091	79.995	19.995	100.777	20.005	2.550	0.519
779.500	470.282	79.995	19.995	100.778	20.007	2.438	0.513
780.000	470.542	79.995	19.996	100.778	20.006	2.490	0.467
780.500	470.777	79.995	19.996	100.779	20.009	2.334	0.473
781.000	471.004	79.995	19.997	100.778	20.006	2.523	0.479
781.500	471.271	79.995	19.996	100.779	20.010	2.262	0.478
782.000	471.530	79.994	19.997	100.782	20.008	2.366	0.510
782.500	471.725	79.995	19.996	100.783	20.010	2.245	0.490
783.000	471.985	79.995	19.998	100.782	20.008	2.369	0.455
783.500	472.267	79.995	19.996	100.782	20.006	2.518	0.498
784.000	472.473	79.995	19.996	100.780	20.008	2.359	0.515
784.500	472.722	79.996	19.996	100.779	20.006	2.511	0.472
785.000	472.975	79.996	19.996	100.779	20.008	2.359	0.478
785.500	473.204	79.994	19.996	100.780	20.007	2.426	0.492
786.000	473.477	79.994	19.996	100.781	20.009	2.329	0.492
786.500	473.702	79.997	19.995	100.783	20.008	2.398	0.500
787.000	473.980	79.995	19.996	100.784	20.007	2.436	0.500
787.500	474.195	79.995	19.996	100.782	20.006	2.498	0.498
788.000	474.452	79.995	19.996	100.777	20.008	2.395	0.483
788.500	474.699	79.994	19.995	100.774	20.008	2.378	0.488
789.000	474.937	79.995	19.995	100.773	20.007	2.416	0.494
789.500	475.198	79.995	19.995	100.774	20.007	2.435	0.492
790.000	475.424	79.996	19.996	100.774	20.009	2.334	0.493
790.500	475.702	79.994	19.996	100.778	20.010	2.238	0.495
791.000	475.930	79.996	19.996	100.781	20.008	2.366	0.505
791.500	476.162	79.996	19.995	100.781	20.007	2.410	0.484
792.000	476.393	79.995	19.995	100.781	20.009	2.326	0.462
792.500	476.652	79.996	19.996	100.782	20.009	2.336	0.476
793.001	476.901	79.994	19.996	100.783	20.009	2.336	0.499
793.501	477.127	79.996	19.996	100.783	20.010	2.259	0.491
794.000	477.372	79.993	19.995	100.784	20.008	2.372	0.473
794.500	477.632	79.995	19.996	100.784	20.007	2.410	0.488
795.000	477.857	79.997	19.995	100.781	20.008	2.393	0.495
795.500	478.129	79.996	19.994	100.779	20.006	2.504	0.491
796.000	478.332	79.996	19.996	100.778	20.009	2.317	0.486
796.500	478.597	79.996	19.995	100.778	20.007	2.441	0.472
797.000	478.803	79.997	19.995	100.779	20.009	2.291	0.470
797.500	479.094	79.997	19.995	100.778	20.008	2.345	0.484
798.000	479.316	79.997	19.995	100.778	20.007	2.450	0.505
798.500	479.575	79.996	19.996	100.780	20.008	2.400	0.497
799.000	479.793	79.995	19.995	100.779	20.009	2.328	0.479
799.500	480.061	79.996	19.996	100.779	20.009	2.324	0.482
800.000	480.311	79.997	19.995	100.781	20.008	2.366	0.502
800.500	480.553	79.997	19.996	100.782	20.008	2.402	0.505
801.000	480.794	79.996	19.995	100.782	20.010	2.233	0.487
801.500	481.012	79.998	19.996	100.782	20.012	2.131	0.471
802.000	481.252	79.997	19.995	100.780	20.010	2.224	0.458
802.500	481.528	79.997	19.996	100.783	20.010	2.241	0.487
803.000	481.735	79.998	19.995	100.781	20.009	2.296	0.500
803.500	482.012	79.997	19.996	100.781	20.012	2.105	0.483
804.000	482.256	79.997	19.996	100.780	20.014	2.017	0.502
804.500	482.500	79.998	19.995	100.782	20.010	2.257	0.505
805.000	482.722	79.997	19.995	100.782	20.013	2.077	0.477
805.500	482.959	79.997	19.995	100.782	20.013	2.067	0.462
806.000	483.209	79.997	19.995	100.782	20.014	1.968	0.473
806.500	483.480	79.997	19.996	100.780	20.012	2.129	0.504
807.000	483.713	79.997	19.996	100.777	20.018	1.722	0.512
807.500	483.964	79.996	19.996	100.777	20.015	1.918	0.494
808.000	484.191	79.996	19.996	100.778	20.016	1.887	0.481
808.500	484.440	79.996	19.996	100.778	20.013	2.025	0.477
809.000	484.637	79.997	19.997	100.780	20.012	2.150	0.461
809.500	484.898	79.996	19.997	100.781	20.014	2.022	0.452
810.000	485.146	79.996	19.996	100.781	20.016	1.868	0.484
810.500	485.398	79.996	19.996	100.780	20.015	1.960	0.504
811.000	485.689	79.996	19.996	100.780	20.016	1.861	0.521
811.500	485.873	79.995	19.997	100.780	20.015	1.953	0.509
812.000	486.148	79.996	19.996	100.781	20.015	1.929	0.467
812.500	486.399	79.997	19.996	100.780	20.014	1.975	0.493
813.000	486.625	79.996	19.997	100.777	20.014	2.013	0.501
813.500	486.873	79.996	19.997	100.774	20.016	1.879	0.475
814.000	487.103	79.995	19.997	100.772	20.013	2.043	0.477
814.500	487.381	79.997	19.995	100.769	20.015	1.944	0.494
815.000	487.623	79.997	19.996	100.769	20.015	1.937	0.514
815.500	487.861	79.996	19.997	100.772	20.016	1.889	0.500
816.000	488.129	79.996	19.997	100.776	20.012	2.110	0.493
816.500	488.361	79.996	19.997	100.779	20.015	1.903	0.503
817.000	488.620	79.995	19.996	100.784	20.015	1.938	0.496
817.500	488.886	79.997	19.997	100.786	20.013	2.027	0.509
818.000	489.123	79.996	19.996	100.786	20.013	2.088	0.514
818.500	489.387	79.996	19.996	100.786	20.015	1.951	0.502
819.000	489.650	79.997	19.996	100.786	20.012	2.139	0.514
819.500	489.912	79.998	19.996	100.783	20.012	2.134	0.526
820.000	490.187	79.996	19.995	100.782	20.014	1.977	0.531
820.500	490.432	79.997	19.995	100.783	20.012	2.119	0.528
821.000	490.685	79.996	19.996	100.783	20.014	1.998	0.509
821.500	490.954	79.997	19.995	100.783	20.012	2.101	0.510
822.000	491.187	79.998	19.995	100.783	20.011	2.172	0.512
822.500	491.454	79.997	19.995	100.783	20.015	1.943	0.501
823.000	491.714	79.997	19.995	100.783	20.014	1.986	0.514
823.500	491.955	79.998	19.996	100.783	20.015	1.903	0.514
824.001	492.224	79.998	19.996	100.783	20.013	2.074	0.506
824.501	492.532	79.999	19.995	100.783	20.014	1.996	0.544
825.000	492.764	79.999	19.996	100.783	20.011	2.181	0.558
825.500	493.038	79.999	19.994	100.788	20.015	1.922	0.523
826.000	493.318	79.999	19.994	100.790	20.013	2.088	0.530
826.500	493.585	79.998	19.994	100.794	20.012	2.119	0.550
827.000	493.857	80.000	19.995	100.797	20.011	2.170	0.543
827.500	494.126	79.999	19.996	100.801	20.014	1.967	0.540
828.000	494.372	79.998	19.996	100.798	20.016	1.856	0.528
828.500	494.670	79.998	19.996	100.795	20.013	2.046	0.529
829.000	494.956	80.000	19.995	100.791	20.013	2.032	0.564
829.500	495.225	80.000	19.996	100.790	20.014	1.970	0.569
830.000	495.463	79.999	19.995	100.786	20.016	1.875	0.531
830.500	495.749	79.998	19.996	100.783	20.010	2.266	0.516
831.000	496.059	79.999	19.995	100.784	20.011	2.157	0.560
831.500	496.319	79.999	19.995	100.784	20.011	2.155	0.583
832.000	496.575	79.999	19.995	100.783	20.013	2.045	0.543
832.500	496.873	79.999	19.995	100.783	20.012	2.152	0.535
833.000	497.140	79.998	19.995	100.785	20.012	2.133	0.560
833.500	497.419	79.998	19.995	100.786	20.011	2.166	0.556
834.000	497.696	79.999	19.996	100.787	20.011	2.214	0.551
834.500	497.956	79.998	19.995	100.787	20.012	2.126	0.547
835.000	498.253	79.997	19.996	100.786	20.011	2.164	0.547
835.500	498.509	79.997	19.997	100.784	20.011	2.167	0.555
836.000	498.782	79.998	19.996	100.783	20.010	2.233	0.541
836.500	499.086	79.995	19.995	100.783	20.009	2.316	0.553
837.000	499.422	79.995	19.997	100.782	20.011	2.171	0.609
837.500	499.667	79.995	19.996	100.782	20.013	2.055	0.610
838.000	499.930	79.997	19.996	100.782	20.013	2.036	0.544
838.500	500.227	79.996	19.996	100.782	20.016	1.889	0.534
839.000	500.466	79.996	19.996	100.782	20.014	1.986	0.549
839.500	500.761	79.997	19.996	100.783	20.014	2.008	0.535
840.000	501.054	79.996	19.996	100.784	20.012	2.140	0.561
840.500	501.354	79.996	19.995	100.789	20.012	2.141	0.591
841.000	501.633	79.997	19.996	100.795	20.013	2.077	0.586
841.500	501.937	79.997	19.997	100.799	20.011	2.203	0.581
842.000	502.220	79.997	19.996	100.802	20.010	2.229	0.585
842.500	502.490	79.996	19.995	100.805	20.013	2.065	0.570
843.000	502.783	79.996	19.996	100.801	20.012	2.089	0.558
843.500	503.034	79.994	19.996	100.798	20.013	2.074	0.553
844.000	503.325	79.994	19.995	100.797	20.013	2.060	0.543
844.500	503.578	79.996	19.996	100.798	20.013	2.055	0.543
845.000	503.865	79.996	19.996	100.794	20.012	2.152	0.542
845.500	504.126	79.994	19.996	100.794	20.012	2.138	0.544
846.000	504.435	79.995	19.995	100.792	20.014	1.979	0.559
846.500	504.694	79.995	19.996	100.790	20.014	1.996	0.569
847.000	504.985	79.996	19.995	100.786	20.012	2.105	0.559
847.500	505.287	79.994	19.996	100.788	20.011	2.158	0.571
848.000	505.576	79.996	19.995	100.787	20.013	2.065	0.592
848.500	505.843	79.995	19.996	100.788	20.012	2.136	0.573
849.000	506.145	79.997	19.996	100.792	20.013	2.046	0.562
849.500	506.383	79.996	19.995	100.792	20.014	2.015	0.555
850.000	506.710	79.995	19.994	100.790	20.016	1.856	0.553
850.500	506.941	79.996	19.995	100.793	20.016	1.844	0.561
851.000	507.254	79.996	19.995	100.793	20.013	2.053	0.550
851.500	507.547	79.996	19.995	100.792	20.015	1.956	0.575
852.000	507.832	79.997	19.994	100.791	20.017	1.818	0.592
852.500	508.141	79.996	19.996	100.791	20.012	2.100	0.586
853.000	508.437	79.996	19.995	100.787	20.012	2.103	0.600
853.500	508.721	79.997	19.995	100.786	20.009	2.293	0.593
854.000	508.945	79.995	19.995	100.786	20.014	1.967	0.543
854.500	509.221	79.995	19.995	100.789	20.017	1.810	0.504
855.000	509.495	79.995	19.995	100.795	20.016	1.889	0.525
855.500	509.799	79.996	19.995	100.801	20.015	1.925	0.564
856.000	510.086	79.996	19.995	100.802	20.012	2.114	0.585
856.500	510.376	79.997	19.995	100.801	20.015	1.929	0.584
857.000	510.650	79.996	19.995	100.798	20.015	1.929	0.571
857.500	510.932	79.996	19.994	100.791	20.018	1.758	0.560
858.000	511.205	79.996	19.994	100.786	20.016	1.887	0.556
858.500	511.496	79.996	19.994	100.784	20.016	1.842	0.560
859.000	511.753	79.996	19.995	100.784	20.017	1.798	0.556
859.500	512.057	79.997	19.994	100.784	20.016	1.872	0.554
860.000	512.322	79.996	19.995	100.784	20.014	1.987	0.565
860.500	512.614	79.997	19.996	100.785	20.016	1.877	0.563
861.000	512.889	79.996	19.996	100.786	20.016	1.884	0.562
861.500	513.156	79.995	19.995	100.786	20.019	1.653	0.554
862.000	513.416	79.997	19.995	100.787	20.015	1.931	0.535
862.500	513.721	79.994	19.995	100.786	20.017	1.796	0.546
863.001	514.024	79.996	19.995	100.786	20.016	1.837	0.587
863.500	514.308	79.996	19.995	100.787	20.014	2.013	0.598
864.000	514.629	79.995	19.997	100.788	20.013	2.067	0.596
864.500	514.898	79.996	19.995	100.787	20.015	1.898	0.598
865.000	515.163	79.995	19.996	100.787	20.016	1.884	0.562
865.500	515.462	79.995	19.995	100.788	20.016	1.839	0.549
866.000	515.751	79.997	19.996	100.791	20.013	2.031	0.575
866.500	515.985	79.996	19.996	100.794	20.014	2.008	0.555
867.000	516.289	79.995	19.996	100.797	20.017	1.784	0.531
867.500	516.585	79.996	19.996	100.797	20.016	1.880	0.569
868.000	516.874	79.995	19.996	100.796	20.014	1.977	0.592
868.501	517.163	79.994	19.995	100.792	20.019	1.651	0.581
869.000	517.454	79.994	19.997	100.788	20.017	1.825	0.579
869.500	517.737	79.996	19.996	100.786	20.013	2.034	0.577
870.000	517.982	79.996	19.996	100.786	20.011	2.215	0.551
870.500	518.288	79.995	19.995	100.785	20.012	2.098	0.540
871.000	518.567	79.994	19.996	100.786	20.014	1.984	0.568
871.500	518.856	79.994	19.995	100.786	20.013	2.055	0.576
872.000	519.148	79.994	19.996	100.787	20.016	1.882	0.574
872.500	519.434	79.995	19.995	100.788	20.015	1.930	0.579
873.000	519.727	79.994	19.996	100.788	20.014	1.999	0.579
873.500	519.999	79.994	19.996	100.788	20.016	1.894	0.572
874.000	520.262	79.995	19.995	100.789	20.017	1.782	0.550
874.500	520.554	79.997	19.997	100.791	20.016	1.865	0.544
875.000	520.859	79.996	19.996	100.791	20.014	1.987	0.576
875.500	521.142	79.996	19.995	100.793	20.014	1.989	0.593
876.000	521.403	79.995	19.997	100.799	20.017	1.811	0.566
876.500	521.687	79.997	19.997	100.802	20.012	2.089	0.545
877.000	521.991	79.995	19.996	100.799	20.013	2.048	0.567
877.500	522.207	79.996	19.995	100.796	20.015	1.927	0.554
878.000	522.490	79.996	19.996	100.794	20.015	1.924	0.509
878.500	522.766	79.998	19.995	100.787	20.019	1.704	0.529
879.000	523.042	79.997	19.996	100.782	20.018	1.758	0.556
879.500	523.300	79.998	19.996	100.781	20.017	1.770	0.543
880.000	523.602	79.996	19.996	100.781	20.018	1.754	0.547
880.500	523.894	79.997	19.995	100.781	20.019	1.697	0.577
881.000	524.169	79.996	19.995	100.781	20.017	1.809	0.580
881.500	524.472	79.998	19.995	100.782	20.019	1.685	0.572
882.000	524.688	79.997	19.996	100.781	20.016	1.884	0.549
882.500	525.032	79.997	19.996	100.781	20.018	1.709	0.539
883.000	525.287	79.998	19.996	100.781	20.017	1.796	0.579
883.500	525.558	79.997	19.996	100.781	20.015	1.906	0.563
884.000	525.823	79.997	19.995	100.781	20.017	1.808	0.531
884.500	526.089	79.996	19.996	100.781	20.018	1.723	0.533
885.000	526.358	79.996	19.996	100.781	20.017	1.823	0.533
885.500	526.637	79.996	19.996	100.782	20.019	1.704	0.542
886.000	526.909	79.996	19.995	100.782	20.019	1.702	0.550
886.500	527.224	79.997	19.995	100.782	20.017	1.770	0.569
887.000	527.465	79.999	19.996	100.782	20.020	1.635	0.571
887.500	527.730	79.997	19.996	100.782	20.018	1.739	0.531
888.000	528.016	79.998	19.995	100.781	20.020	1.640	0.529
888.500	528.289	79.997	19.996	100.781	20.022	1.500	0.555
889.000	528.560	79.997	19.996	100.781	20.019	1.668	0.551
889.500	528.849	79.996	19.996	100.782	20.020	1.606	0.552
890.000	529.109	79.997	19.995	100.783	20.018	1.761	0.555
890.500	529.394	79.996	19.996	100.783	20.022	1.471	0.547
891.000	529.670	79.996	19.996	100.781	20.022	1.502	0.553
891.500	529.976	79.995	19.995	100.780	20.019	1.690	0.571
892.000	530.255	79.997	19.997	100.778	20.022	1.504	0.584
892.500	530.522	79.997	19.997	100.778	20.022	1.509	0.565
893.000	530.793	79.996	19.996	100.777	20.019	1.646	0.542
893.500	531.038	79.997	19.996	100.779	20.020	1.608	0.527
894.000	531.364	79.996	19.996	100.780	20.017	1.773	0.543
894.500	531.607	79.996	19.996	100.780	20.016	1.841	0.570
895.000	531.890	79.996	19.997	100.780	20.018	1.735	0.548
895.500	532.127	79.997	19.996	100.781	20.018	1.716	0.523
896.000	532.426	79.996	19.995	100.781	20.018	1.720	0.528
896.500	532.726	79.996	19.996	100.780	20.019	1.704	0.567
897.000	532.976	79.996	19.998	100.781	20.018	1.759	0.574
897.500	533.228	79.996	19.996	100.781	20.019	1.696	0.526
898.000	533.506	79.995	19.996	100.781	20.019	1.668	0.516
898.500	533.795	79.996	19.996	100.780	20.015	1.927	0.549
899.000	534.057	79.997	19.995	100.780	20.018	1.758	0.560
899.500	534.334	79.995	19.996	100.780	20.017	1.820	0.545
900.000	534.617	79.996	19.996	100.780	20.021	1.573	0.549
900.500	534.893	79.996	19.997	100.778	20.014	1.979	0.559
901.000	535.165	79.997	19.997	100.779	20.018	1.766	0.553
901.500	535.425	79.998	19.996	100.779	20.017	1.804	0.540
902.000	535.759	79.996	19.996	100.779	20.018	1.753	0.563
902.500	536.004	79.997	19.998	100.779	20.017	1.792	0.587
903.000	536.284	79.998	19.996	100.780	20.017	1.775	0.552
903.500	536.523	79.996	19.996	100.780	20.021	1.554	0.522
904.000	536.794	79.997	19.997	100.781	20.021	1.576	0.514
904.500	537.077	79.998	19.995	100.779	20.017	1.797	0.532
905.000	537.332	79.998	19.996	100.779	20.016	1.856	0.546
905.500	537.568	79.996	19.996	100.779	20.019	1.684	0.515
906.000	537.865	79.998	19.996	100.779	20.019	1.699	0.512
906.500	538.134	79.997	19.996	100.779	20.019	1.649	0.549
907.000	538.411	79.998	19.996	100.781	20.016	1.846	0.556
907.500	538.652	79.997	19.996	100.782	20.019	1.697	0.532
908.000	538.920	79.997	19.996	100.782	20.018	1.732	0.513
908.500	539.171	79.999	19.995	100.782	20.018	1.746	0.514
909.000	539.438	79.997	19.995	100.782	20.019	1.682	0.518
909.500	539.696	79.998	19.996	100.781	20.020	1.589	0.522
910.000	539.977	79.996	19.995	100.781	20.019	1.647	0.533
910.500	540.228	79.997	19.995	100.781	20.020	1.635	0.536
911.000	540.481	79.998	19.995	100.781	20.016	1.882	0.518
911.500	540.737	79.999	19.995	100.781	20.019	1.690	0.506
912.000	540.958	79.997	19.995	100.782	20.017	1.775	0.493
912.500	541.242	79.999	19.995	100.783	20.021	1.535	0.491
913.000	541.546	79.998	19.995	100.783	20.020	1.616	0.546
913.500	541.773	79.998	19.995	100.783	20.022	1.492	0.560
914.000	542.063	79.997	19.995	100.784	20.022	1.475	0.524
914.500	542.307	79.997	19.994	100.784	20.021	1.559	0.526
915.000	542.601	79.997	19.995	100.783	20.021	1.516	0.536
915.500	542.856	79.997	19.994	100.782	20.021	1.530	0.544
916.000	543.136	79.996	19.996	100.783	20.019	1.646	0.542
916.500	543.399	79.997	19.996	100.783	20.020	1.583	0.539
917.000	543.648	79.997	19.994	100.783	20.022	1.509	0.527
917.500	543.903	79.995	19.994	100.783	20.021	1.526	0.508
918.000	544.156	79.995	19.995	100.782	20.020	1.594	0.506
918.500	544.384	79.996	19.995	100.783	20.021	1.563	0.494
919.000	544.668	79.995	19.994	100.783	20.018	1.744	0.497
919.500	544.928	79.996	19.996	100.783	20.019	1.673	0.528
920.000	545.214	79.993	19.994	100.784	20.021	1.571	0.545
920.500	545.446	79.994	19.994	100.784	20.022	1.473	0.532
921.000	545.701	79.996	19.995	100.784	20.022	1.500	0.502
921.500	545.976	79.995	19.995	100.784	20.021	1.530	0.509
922.000	546.232	79.996	19.995	100.784	20.022	1.485	0.531
922.500	546.496	79.995	19.995	100.782	20.022	1.494	0.526
923.000	546.782	79.994	19.994	100.781	20.021	1.564	0.535
923.500	547.017	79.995	19.995	100.782	20.022	1.504	0.535
924.000	547.303	79.996	19.995	100.783	20.022	1.500	0.521
924.500	547.568	79.994	19.995	100.783	20.020	1.606	0.536
925.000	547.789	79.995	19.995	100.784	20.020	1.620	0.519
925.500	548.103	79.994	19.995	100.787	20.018	1.706	0.511
926.000	548.358	79.994	19.995	100.787	20.020	1.632	0.552
926.500	548.641	79.995	19.996	100.786	20.021	1.542	0.553
927.000	548.889	79.995	19.995	100.785	20.021	1.568	0.535
927.500	549.163	79.994	19.994	100.785	20.022	1.459	0.527
928.000	549.408	79.994	19.996	100.784	20.021	1.573	0.520
928.500	549.669	79.996	19.996	100.784	20.020	1.594	0.513
929.000	549.925	79.995	19.995	100.784	20.023	1.419	0.512
929.500	550.174	79.996	19.996	100.785	20.019	1.649	0.511
930.000	550.449	79.996	19.995	100.784	20.020	1.614	0.515
930.500	550.705	79.995	19.995	100.781	20.018	1.744	0.528
931.000	550.963	79.996	19.996	100.780	20.018	1.708	0.522
931.500	551.219	79.997	19.995	100.779	20.020	1.618	0.514
932.000	551.496	79.995	19.995	100.780	20.021	1.571	0.523
932.500	551.753	79.997	19.994	100.780	20.020	1.627	0.533
933.000	552.000	79.996	19.996	100.781	20.019	1.671	0.519
933.500	552.231	79.995	19.996	100.777	20.021	1.544	0.491
934.000	552.513	79.995	19.995	100.777	20.019	1.701	0.496
934.501	552.771	79.996	19.996	100.775	20.020	1.582	0.526
935.000	553.050	79.995	19.995	100.775	20.022	1.511	0.538
935.500	553.271	79.996	19.996	100.771	20.021	1.554	0.519
936.000	553.551	79.996	19.996	100.775	20.021	1.521	0.501
936.500	553.841	79.998	19.996	100.774	20.023	1.418	0.535
937.000	554.109	79.997	19.996	100.776	20.022	1.488	0.564
937.500	554.366	79.996	19.995	100.775	20.022	1.483	0.542
938.000	554.617	79.997	19.996	100.778	20.019	1.701	0.517
938.500	554.870	79.995	19.997	100.779	20.018	1.727	0.506
939.000	555.104	79.997	19.995	100.780	20.017	1.784	0.496
939.500	555.397	79.997	19.996	100.779	20.021	1.549	0.507
940.000	555.656	79.996	19.995	100.779	20.021	1.518	0.539
940.500	555.908	79.996	19.997	100.781	20.022	1.481	0.531
941.000	556.188	79.997	19.996	100.781	20.020	1.609	0.522
941.500	556.419	79.997	19.995	100.781	20.020	1.601	0.522
942.000	556.674	79.996	19.996	100.782	20.022	1.471	0.499
942.500	556.958	79.996	19.994	100.782	20.021	1.566	0.513
943.000	557.171	79.996	19.994	100.782	20.018	1.746	0.518
943.500	557.441	79.996	19.996	100.782	20.021	1.551	0.490
944.000	557.710	79.995	19.995	100.783	20.019	1.678	0.510
944.500	557.954	79.995	19.995	100.783	20.021	1.568	0.526
945.000	558.236	79.996	19.996	100.783	20.016	1.848	0.520
945.500	558.482	79.995	19.994	100.783	20.022	1.497	0.527
946.000	558.745	79.995	19.994	100.781	20.019	1.652	0.518
946.500	558.992	79.996	19.995	100.781	20.019	1.651	0.509
947.000	559.242	79.995	19.995	100.780	20.023	1.428	0.504
947.500	559.487	79.996	19.996	100.781	20.024	1.376	0.496
948.000	559.792	79.995	19.994	100.780	20.023	1.440	0.523
948.500	560.040	79.996	19.995	100.781	20.023	1.402	0.552
949.000	560.285	79.994	19.995	100.781	20.023	1.445	0.523
949.500	560.542	79.997	19.996	100.782	20.021	1.568	0.497
950.000	560.862	79.994	19.996	100.782	20.019	1.659	0.539
950.500	561.050	79.995	19.995	100.783	20.023	1.426	0.543
951.000	561.326	79.996	19.995	100.782	20.021	1.533	0.486
951.500	561.577	79.996	19.994	100.778	20.022	1.464	0.496
952.000	561.797	79.996	19.995	100.775	20.022	1.490	0.499
952.500	562.068	79.995	19.996	100.774	20.022	1.459	0.481
953.000	562.330	79.995	19.995	100.774	20.026	1.212	0.512
953.500	562.618	79.995	19.996	100.776	20.021	1.568	0.542
954.000	562.857	79.995	19.996	100.778	20.021	1.564	0.538
954.500	563.111	79.997	19.996	100.781	20.023	1.430	0.510
955.000	563.358	79.997	19.996	100.782	20.021	1.521	0.497
955.500	563.601	79.996	19.995	100.782	20.024	1.338	0.496
956.000	563.897	79.997	19.995	100.781	20.024	1.323	0.514
956.500	564.133	79.996	19.996	100.780	20.026	1.245	0.535
957.000	564.360	79.998	19.995	100.780	20.026	1.247	0.497
957.500	564.601	79.995	19.995	100.780	20.022	1.483	0.466
958.000	564.866	79.996	19.996	100.780	20.023	1.428	0.488
958.500	565.099	79.996	19.996	100.780	20.020	1.625	0.502
959.000	565.334	79.996	19.995	100.781	20.022	1.452	0.483
959.500	565.629	79.996	19.996	100.782	20.022	1.502	0.499
960.000	565.852	79.997	19.996	100.782	20.022	1.513	0.524
960.500	566.123	79.997	19.995	100.782	20.025	1.271	0.506
961.001	566.399	79.997	19.996	100.781	20.023	1.424	0.520
961.500	566.667	79.997	19.996	100.780	20.023	1.404	0.545
962.000	566.909	79.997	19.995	100.780	20.021	1.547	0.527
962.500	567.152	79.997	19.995	100.780	20.023	1.414	0.498
963.000	567.379	79.997	19.997	100.779	20.022	1.485	0.478
963.500	567.694	79.997	19.995	100.780	20.024	1.371	0.506
964.000	567.884	79.997	19.996	100.780	20.025	1.274	0.524
964.500	568.132	79.997	19.995	100.780	20.022	1.452	0.471
965.000	568.401	79.999	19.995	100.779	20.022	1.487	0.477
965.500	568.676	79.998	19.996	100.779	20.018	1.718	0.531
966.000	568.940	79.997	19.995	100.780	20.020	1.606	0.542
966.500	569.174	79.997	19.997	100.780	20.021	1.530	0.519
967.000	569.415	79.997	19.995	100.780	20.019	1.652	0.486
967.500	569.684	79.997	19.996	100.782	20.019	1.663	0.493
968.000	569.949	79.998	19.996	100.782	20.024	1.383	0.522
968.500	570.194	79.998	19.997	100.781	20.025	1.321	0.522
969.000	570.428	79.998	19.996	100.781	20.021	1.525	0.495
969.500	570.689	79.997	19.996	100.781	20.023	1.400	0.486
970.000	570.983	79.996	19.996	100.781	20.021	1.542	0.525
970.500	571.220	79.998	19.995	100.781	20.025	1.300	0.544
971.000	571.481	79.997	19.996	100.780	20.022	1.497	0.515
971.500	571.743	79.997	19.995	100.781	20.022	1.494	0.510
972.000	571.987	79.997	19.994	100.781	20.022	1.497	0.514
972.500	572.212	79.997	19.996	100.781	20.024	1.354	0.488
973.000	572.435	79.997	19.996	100.781	20.021	1.518	0.459
973.500	572.696	79.997	19.996	100.783	20.020	1.609	0.466
974.000	572.952	79.996	19.996	100.782	20.026	1.223	0.501
974.500	573.230	79.997	19.996	100.782	20.024	1.328	0.526
975.000	573.471	79.996	19.995	100.781	20.027	1.193	0.527
975.500	573.731	79.997	19.994	100.780	20.026	1.252	0.510
976.000	574.005	79.997	19.996	100.780	20.022	1.454	0.517
976.500	574.266	79.997	19.996	100.780	20.025	1.293	0.535
977.000	574.506	79.996	19.996	100.781	20.026	1.198	0.518
977.500	574.757	79.998	19.995	100.782	20.021	1.537	0.496
978.000	575.025	79.996	19.995	100.783	20.025	1.304	0.505
978.500	575.320	79.996	19.995	100.783	20.026	1.228	0.541
979.000	575.536	79.996	19.995	100.783	20.023	1.409	0.537
979.500	575.790	79.996	19.996	100.783	20.023	1.440	0.491
980.000	576.001	79.995	19.995	100.783	20.024	1.357	0.468
980.500	576.277	79.995	19.995	100.783	20.026	1.209	0.476
981.000	576.470	79.995	19.996	100.783	20.024	1.323	0.478
981.500	576.813	79.996	19.995	100.784	20.027	1.145	0.502
982.000	576.980	79.997	19.995	100.784	20.027	1.143	0.523
982.500	577.273	79.995	19.996	100.785	20.027	1.160	0.485
983.000	577.559	79.996	19.995	100.784	20.028	1.117	0.520
983.500	577.801	79.996	19.996	100.785	20.024	1.366	0.554
984.000	578.028	79.997	19.995	100.785	20.025	1.300	0.498
984.500	578.280	79.997	19.995	100.784	20.026	1.252	0.474
985.000	578.575	79.998	19.996	100.784	20.024	1.364	0.513
985.500	578.790	79.998	19.995	100.784	20.025	1.266	0.529
986.000	579.026	79.997	19.995	100.784	20.026	1.236	0.481
986.500	579.270	79.997	19.996	100.784	20.025	1.311	0.465
987.000	579.515	79.997	19.996	100.783	20.028	1.122	0.485
987.500	579.784	79.997	19.995	100.781	20.029	1.060	0.502
988.000	580.052	79.996	19.996	100.777	20.027	1.143	0.526
988.500	580.265	79.997	19.997	100.776	20.025	1.310	0.508
989.000	580.554	79.997	19.997	100.776	20.026	1.222	0.491
989.500	580.766	79.997	19.996	100.776	20.026	1.252	0.501
990.000	581.022	79.997	19.997	100.777	20.026	1.229	0.485
990.500	581.278	79.997	19.997	100.782	20.025	1.262	0.490
991.000	581.546	79.998	19.995	100.782	20.026	1.243	0.518
991.500	581.773	79.997	19.996	100.782	20.024	1.329	0.509
992.000	582.015	79.999	19.997	100.781	20.028	1.112	0.482
992.500	582.236	79.998	19.997	100.776	20.028	1.121	0.466
993.001	582.490	79.997	19.996	100.773	20.027	1.153	0.469
993.500	582.739	79.996	19.996	100.772	20.031	0.913	0.489
994.000	582.950	79.996	19.996	100.768	20.029	1.062	0.482
994.500	583.237	79.997	19.996	100.764	20.026	1.250	0.480
995.000	583.457	79.995	19.997	100.765	20.025	1.267	0.503
995.500	583.706	79.997	19.996	100.769	20.026	1.235	0.488
996.000	583.953	79.998	19.996	100.770	20.026	1.257	0.482
996.500	584.178	79.996	19.995	100.773	20.028	1.090	0.484
997.000	584.414	79.996	19.996	100.777	20.025	1.304	0.467
997.500	584.663	79.996	19.997	100.781	20.030	0.979	0.473
998.000	584.901	79.996	19.996	100.780	20.033	0.801	0.486
998.500	585.137	79.995	19.996	100.777	20.025	1.259	0.481
999.000	585.358	79.995	19.997	100.775	20.027	1.153	0.465
999.500	585.603	79.996	19.996	100.773	20.028	1.100	0.461
1000.000	585.838	79.996	19.996	100.773	20.030	0.993	0.473
1000.500	586.077	79.995	19.997	100.773	20.029	1.060	0.477
1001.000	586.286	79.995	19.996	100.775	20.028	1.089	0.461
1001.500	586.583	79.996	19.996	100.777	20.026	1.200	0.477
1002.000	586.813	79.997	19.997	100.775	20.026	1.241	0.517
1002.500	587.002	79.995	19.996	100.773	20.029	1.032	0.472
1003.000	587.244	79.996	19.995	100.774	20.027	1.164	0.424
1003.500	587.485	79.996	19.995	100.773	20.026	1.207	0.457
1004.001	587.704	79.997	19.997	100.773	20.028	1.121	0.472
1004.500	587.942	79.996	19.996	100.778	20.025	1.319	0.459
1005.000	588.181	79.995	19.996	100.779	20.027	1.146	0.467
1005.500	588.412	79.996	19.995	100.780	20.026	1.245	0.474
1006.000	588.657	79.998	19.996	100.780	20.027	1.165	0.473
1006.500	588.881	79.996	19.995	100.781	20.029	1.039	0.473
1007.000	589.098	79.995	19.996	100.781	20.029	1.051	0.455
1007.500	589.349	79.996	19.996	100.779	20.027	1.155	0.454
1008.000	589.565	79.995	19.996	100.778	20.028	1.129	0.467
1008.500	589.817	79.995	19.996	100.778	20.029	1.031	0.467
1009.000	590.025	79.996	19.995	100.779	20.027	1.171	0.464
1009.500	590.247	79.997	19.995	100.779	20.032	0.863	0.445
1010.001	590.465	79.995	19.996	100.781	20.030	0.988	0.435
1010.500	590.740	79.995	19.995	100.781	20.030	0.974	0.466
1011.000	590.971	79.996	19.996	100.781	20.029	1.041	0.499
1011.500	591.214	79.997	19.996	100.778	20.032	0.869	0.490
1012.000	591.450	79.996	19.996	100.775	20.028	1.096	0.477
1012.500	591.707	79.996	19.995	100.775	20.030	0.991	0.486
1013.000	591.913	79.996	19.996	100.775	20.025	1.291	0.478
1013.500	592.135	79.995	19.995	100.776	20.027	1.148	0.445
1014.000	592.316	79.996	19.996	100.779	20.026	1.219	0.415
1014.500	592.588	79.996	19.995	100.782	20.027	1.186	0.428
1015.000	592.845	79.996	19.996	100.780	20.028	1.122	0.491
1015.500	593.063	79.997	19.995	100.780	20.026	1.195	0.502
1016.000	593.315	79.996	19.996	100.779	20.028	1.105	0.473
1016.500	593.539	79.997	19.995	100.778	20.026	1.247	0.473
1017.000	593.787	79.997	19.994	100.776	20.026	1.243	0.474
1017.500	593.992	79.996	19.995	100.777	20.026	1.202	0.462
1018.000	594.236	79.997	19.996	100.777	20.026	1.221	0.451
1018.500	594.467	79.996	19.996	100.777	20.025	1.281	0.462
1019.000	594.714	79.996	19.996	100.776	20.025	1.304	0.477
1019.500	594.968	79.997	19.995	100.778	20.026	1.250	0.489
1020.000	595.176	79.996	19.995	100.779	20.024	1.364	0.481
1020.500	595.455	79.996	19.995	100.779	20.025	1.264	0.474
1021.000	595.645	79.997	19.996	100.780	20.027	1.171	0.478
1021.500	595.856	79.997	19.995	100.781	20.026	1.255	0.435
1022.000	596.133	79.996	19.995	100.781	20.026	1.233	0.444
1022.500	596.366	79.996	19.994	100.782	20.025	1.278	0.499
1023.000	596.609	79.995	19.995	100.782	20.024	1.369	0.494
1023.500	596.855	79.996	19.995	100.780	20.026	1.219	0.483
1024.000	597.102	79.996	19.995	100.777	20.023	1.433	0.490
1024.500	597.311	79.997	19.996	100.776	20.024	1.352	0.474
1025.001	597.549	79.997	19.995	100.776	20.026	1.217	0.452
1025.501	597.733	79.995	19.996	100.776	20.023	1.406	0.434
1026.001	597.977	79.995	19.996	100.777	20.024	1.349	0.425
1026.500	598.219	79.997	19.997	100.777	20.026	1.248	0.457
1027.000	598.426	79.995	19.995	100.778	20.024	1.381	0.468
1027.501	598.700	79.996	19.996	100.778	20.025	1.288	0.465
1028.001	598.942	79.995	19.995	100.778	20.027	1.174	0.498
1028.500	599.170	79.996	19.997	100.775	20.028	1.088	0.493
1029.000	599.367	79.995	19.995	100.778	20.026	1.209	0.448
1029.500	599.641	79.996	19.996	100.777	20.027	1.169	0.448
1030.000	599.853	79.995	19.996	100.778	20.024	1.375	0.478
1030.500	600.092	79.996	19.996	100.778	20.024	1.338	0.469
1031.000	600.319	79.995	19.996	100.781	20.025	1.293	0.459
1031.501	600.530	79.995	19.995	100.781	20.028	1.129	0.452
1032.001	600.750	79.997	19.996	100.781	20.024	1.364	0.434
1032.501	600.975	79.994	19.996	100.781	20.025	1.264	0.438
1033.001	601.242	79.996	19.995	100.782	20.026	1.204	0.469
1033.500	601.455	79.994	19.995	100.782	20.025	1.261	0.486
1034.000	601.695	79.993	19.995	100.783	20.026	1.240	0.466
1034.500	601.919	79.994	19.995	100.784	20.028	1.095	0.459
1035.000	602.138	79.995	19.995	100.784	20.026	1.197	0.453
1035.500	602.362	79.994	19.995	100.784	20.029	1.052	0.443
1036.001	602.657	79.995	19.995	100.785	20.026	1.197	0.481
1036.501	602.834	79.995	19.995	100.785	20.027	1.193	0.496
1037.001	603.075	79.995	19.995	100.786	20.026	1.219	0.445
1037.501	603.313	79.994	19.995	100.786	20.026	1.231	0.449
1038.001	603.538	79.996	19.996	100.787	20.026	1.214	0.471
1038.500	603.793	79.996	19.995	100.786	20.027	1.141	0.471
1039.000	604.029	79.994	19.995	100.786	20.026	1.209	0.485
1039.500	604.237	79.996	19.995	100.788	20.027	1.172	0.467
1040.000	604.479	79.996	19.996	100.788	20.026	1.217	0.447
1040.500	604.732	79.996	19.996	100.788	20.026	1.228	0.473
1041.000	605.000	79.996	19.994	100.788	20.027	1.183	0.508
1041.500	605.218	79.997	19.995	100.788	20.024	1.359	0.503
1042.000	605.457	79.996	19.995	100.787	20.027	1.181	0.472
1042.500	605.730	79.996	19.996	100.787	20.026	1.243	0.485
1043.001	605.933	79.996	19.995	100.787	20.026	1.228	0.494
1043.501	606.152	79.996	19.994	100.787	20.027	1.183	0.449
1044.000	606.423	79.997	19.995	100.786	20.028	1.129	0.456
1044.500	606.647	79.997	19.994	100.786	20.030	0.984	0.492
1045.000	606.918	79.996	19.995	100.787	20.027	1.150	0.495
1045.500	607.147	79.998	19.995	100.786	20.026	1.252	0.498
1046.000	607.395	79.996	19.996	100.786	20.029	1.026	0.488
1046.500	607.652	79.998	19.996	100.786	20.027	1.186	0.491
1047.000	607.852	79.998	19.995	100.786	20.028	1.129	0.481
1047.500	608.089	79.998	19.996	100.786	20.030	0.977	0.447
1048.000	608.367	79.997	19.996	100.785	20.026	1.207	0.476
1048.500	608.619	79.996	19.997	100.784	20.027	1.193	0.522
1049.000	608.829	79.999	19.996	100.785	20.024	1.338	0.496
1049.500	609.088	79.997	19.996	100.785	20.027	1.145	0.466
1050.000	609.293	79.997	19.995	100.785	20.026	1.195	0.466
1050.500	609.583	79.996	19.995	100.786	20.026	1.240	0.479
1051.000	609.791	79.996	19.996	100.786	20.027	1.138	0.497
1051.500	610.087	79.997	19.997	100.786	20.026	1.200	0.502
1052.000	610.342	79.996	19.995	100.786	20.026	1.245	0.528
1052.500	610.524	79.995	19.995	100.786	20.028	1.086	0.494
1053.000	610.785	79.995	19.996	100.787	20.026	1.236	0.439
1053.501	611.036	79.997	19.996	100.787	20.028	1.121	0.477
1054.001	611.317	79.996	19.996	100.786	20.028	1.093	0.522
1054.500	611.557	79.995	19.996	100.786	20.026	1.228	0.527
1055.000	611.779	79.995	19.996	100.785	20.027	1.178	0.491
1055.500	612.042	79.995	19.995	100.785	20.027	1.176	0.473
1056.001	612.271	79.995	19.996	100.786	20.027	1.136	0.488
1056.501	612.554	79.996	19.996	100.786	20.023	1.387	0.502
1057.001	612.805	79.995	19.996	100.786	20.025	1.293	0.523
1057.501	613.016	79.997	19.996	100.786	20.024	1.357	0.498
1058.001	613.277	79.996	19.996	100.786	20.026	1.209	0.467
1058.501	613.565	79.996	19.997	100.786	20.026	1.205	0.510
1059.001	613.789	79.996	19.997	100.786	20.028	1.128	0.530
1059.501	614.061	79.997	19.996	100.786	20.025	1.314	0.504
1060.001	614.284	79.998	19.996	100.788	20.026	1.214	0.496
1060.501	614.559	79.998	19.995	100.787	20.027	1.186	0.497
1061.001	614.816	79.995	19.996	100.787	20.024	1.371	0.515
1061.501	615.060	79.995	19.997	100.787	20.023	1.392	0.516
1062.000	615.324	79.997	19.996	100.786	20.024	1.354	0.504
1062.501	615.545	79.995	19.995	100.784	20.027	1.190	0.497
1063.001	615.792	79.996	19.996	100.785	20.028	1.126	0.476
1063.500	616.051	79.996	19.996	100.785	20.024	1.330	0.487
1064.000	616.321	79.996	19.997	100.785	20.021	1.540	0.518
1064.500	616.571	79.996	19.997	100.788	20.026	1.224	0.525
1065.000	616.829	79.996	19.996	100.791	20.027	1.148	0.514
1065.500	617.055	79.996	19.996	100.791	20.025	1.295	0.496
1066.000	617.282	79.997	19.996	100.790	20.024	1.324	0.468
1066.500	617.549	79.997	19.996	100.790	20.023	1.409	0.474
1067.000	617.853	79.998	19.995	100.787	20.022	1.497	0.533
1067.500	618.062	79.998	19.995	100.783	20.024	1.347	0.542
1068.000	618.322	79.997	19.997	100.781	20.024	1.349	0.491
1068.500	618.585	79.998	19.996	100.781	20.027	1.176	0.496
1069.000	618.843	79.999	19.995	100.781	20.021	1.540	0.522
1069.500	619.081	79.998	19.995	100.781	20.024	1.362	0.508
1070.000	619.348	79.998	19.997	100.781	20.024	1.323	0.500
1070.500	619.558	80.000	19.996	100.780	20.022	1.457	0.491
1071.000	619.838	79.998	19.996	100.778	20.023	1.416	0.484
1071.500	620.049	79.998	19.996	100.777	20.026	1.240	0.490
1072.000	620.297	79.997	19.996	100.778	20.024	1.345	0.475
1072.500	620.592	79.998	19.995	100.778	20.026	1.240	0.501
1073.000	620.857	79.999	19.996	100.779	20.025	1.286	0.552
1073.500	621.049	79.998	19.996	100.781	20.026	1.197	0.509
1074.000	621.332	79.996	19.997	100.782	20.026	1.257	0.466
1074.501	621.585	79.998	19.996	100.781	20.026	1.203	0.505
1075.001	621.856	79.999	19.996	100.781	20.027	1.190	0.530
1075.500	622.100	79.997	19.996	100.781	20.026	1.241	0.519
1076.000	622.359	79.997	19.995	100.781	20.024	1.366	0.509
1076.500	622.641	79.998	19.996	100.780	20.027	1.164	0.522
1077.001	622.860	79.998	19.997	100.781	20.027	1.133	0.522
1077.501	623.132	79.997	19.995	100.781	20.026	1.214	0.496
1078.000	623.385	79.997	19.996	100.782	20.027	1.152	0.508
1078.500	623.641	79.997	19.996	100.781	20.023	1.431	0.517
1079.000	623.880	79.996	19.996	100.782	20.024	1.366	0.502
1079.500	624.156	79.995	19.996	100.780	20.026	1.240	0.505
1080.000	624.406	79.996	19.997	100.781	20.024	1.324	0.520
1080.500	624.638	79.995	19.996	100.781	20.022	1.511	0.503
1081.000	624.919	79.995	19.996	100.781	20.024	1.352	0.497
1081.500	625.186	79.995	19.996	100.779	20.024	1.324	0.531
1082.000	625.416	79.995	19.997	100.779	20.024	1.359	0.523
1082.500	625.680	79.996	19.996	100.778	20.027	1.193	0.496
1083.000	625.961	79.995	19.996	100.778	20.026	1.252	0.520
1083.500	626.223	79.995	19.997	100.778	20.024	1.352	0.544
1084.000	626.466	79.996	19.997	100.779	20.027	1.191	0.523
1084.500	626.725	79.996	19.996	100.779	20.028	1.108	0.503
1085.000	627.012	79.996	19.996	100.778	20.024	1.336	0.524
1085.500	627.257	79.996	19.997	100.777	20.026	1.235	0.539
1086.000	627.554	79.994	19.997	100.778	20.026	1.210	0.537
1086.500	627.782	79.994	19.997	100.779	20.025	1.283	0.533
1087.000	628.024	79.994	19.997	100.781	20.027	1.162	0.498
1087.500	628.277	79.995	19.997	100.782	20.025	1.286	0.483
1088.000	628.561	79.996	19.997	100.782	20.027	1.134	0.516
1088.500	628.798	79.995	19.996	100.782	20.027	1.164	0.529
1089.000	629.077	79.995	19.996	100.780	20.028	1.128	0.518
1089.500	629.341	79.996	19.996	100.779	20.025	1.276	0.529
1090.000	629.581	79.995	19.997	100.779	20.027	1.148	0.524
1090.500	629.869	79.995	19.996	100.779	20.026	1.235	0.516
1091.000	630.110	79.995	19.996	100.779	20.027	1.166	0.529
1091.500	630.403	79.995	19.996	100.780	20.026	1.214	0.531
1092.000	630.636	79.996	19.996	100.781	20.030	0.970	0.530
1092.500	630.900	79.996	19.995	100.781	20.026	1.238	0.512
1093.000	631.166	79.994	19.996	100.781	20.030	0.957	0.513
1093.500	631.424	79.997	19.995	100.780	20.027	1.138	0.527
1094.000	631.665	79.996	19.996	100.781	20.029	1.024	0.511
1094.500	631.918	79.995	19.996	100.781	20.029	1.053	0.496
1095.000	632.211	79.997	19.996	100.781	20.029	1.029	0.520
1095.500	632.473	79.997	19.995	100.779	20.028	1.090	0.551
1096.001	632.734	79.997	19.995	100.780	20.028	1.096	0.539
1096.501	632.976	79.996	19.996	100.776	20.026	1.197	0.513
1097.000	633.254	79.997	19.996	100.775	20.029	1.050	0.511
1097.500	633.507	79.996	19.994	100.775	20.030	0.960	0.525
1098.000	633.763	79.997	19.995	100.776	20.027	1.141	0.520
1098.500	634.038	79.996	19.994	100.776	20.030	0.977	0.520
1099.000	634.303	79.997	19.995	100.779	20.027	1.157	0.535
1099.500	634.578	79.997	19.996	100.781	20.030	0.991	0.539
1100.000	634.828	79.996	19.995	100.782	20.032	0.825	0.532
1100.501	635.132	79.996	19.995	100.784	20.030	0.948	0.540
1101.001	635.385	79.996	19.995	100.785	20.029	1.039	0.556
1101.500	635.668	79.996	19.995	100.785	20.032	0.872	0.546
1102.000	635.944	79.996	19.995	100.786	20.029	1.034	0.547
1102.501	636.182	79.996	19.996	100.785	20.030	0.996	0.536
1103.001	636.427	79.995	19.996	100.784	20.030	0.951	0.499
1103.500	636.719	79.995	19.995	100.783	20.031	0.889	0.510
1104.000	636.954	79.996	19.995	100.783	20.031	0.893	0.532
1104.500	637.244	79.995	19.995	100.783	20.032	0.860	0.526
1105.000	637.500	79.996	19.996	100.784	20.027	1.136	0.535
1105.500	637.756	79.996	19.995	100.784	20.029	1.012	0.529
1106.000	638.039	79.995	19.995	100.784	20.033	0.808	0.526
1106.500	638.274	79.995	19.996	100.784	20.030	0.993	0.528
1107.000	638.559	79.995	19.995	100.783	20.031	0.913	0.519
1107.500	638.820	79.997	19.995	100.782	20.028	1.088	0.533
1108.001	639.080	79.996	19.997	100.781	20.029	1.055	0.534
1108.501	639.354	79.996	19.996	100.781	20.026	1.231	0.527
1109.001	639.595	79.996	19.994	100.781	20.028	1.109	0.524
1109.501	639.880	79.996	19.997	100.782	20.026	1.202	0.520
1110.000	640.134	79.995	19.996	100.782	20.029	1.048	0.532
1110.500	640.379	79.997	19.995	100.783	20.029	1.062	0.519
1111.000	640.662	79.997	19.996	100.783	20.026	1.202	0.514
1111.500	640.897	79.995	19.997	100.783	20.028	1.071	0.523
1112.000	641.157	79.996	19.996	100.782	20.028	1.115	0.507
1112.500	641.436	79.996	19.996	100.782	20.027	1.172	0.517
1113.000	641.693	79.995	19.995	100.782	20.028	1.079	0.537
1113.500	641.948	79.995	19.995	100.780	20.023	1.398	0.524
1114.000	642.242	79.996	19.995	100.779	20.027	1.167	0.531
1114.500	642.474	79.996	19.995	100.779	20.028	1.096	0.537
1115.001	642.751	79.996	19.996	100.777	20.026	1.198	0.517
1115.501	643.010	79.995	19.995	100.776	20.024	1.370	0.522
1116.001	643.245	79.996	19.997	100.777	20.027	1.183	0.516
1116.500	643.535	79.997	19.996	100.779	20.027	1.166	0.510
1117.000	643.795	79.996	19.996	100.780	20.027	1.180	0.537
1117.501	644.041	79.996	19.996	100.783	20.026	1.244	0.528
1118.001	644.337	79.996	19.995	100.786	20.027	1.154	0.524
1118.500	644.608	79.995	19.996	100.787	20.030	0.952	0.554
1119.000	644.841	79.996	19.995	100.789	20.028	1.071	0.535
1119.500	645.044	79.995	19.995	100.789	20.029	1.024	0.470
1120.000	645.334	79.996	19.996	100.789	20.027	1.179	0.465
1120.500	645.580	79.997	19.996	100.787	20.027	1.190	0.515
1121.000	645.877	79.996	19.995	100.787	20.024	1.348	0.539
1121.500	646.106	79.996	19.996	100.786	20.025	1.302	0.535
1122.000	646.346	79.996	19.995	100.786	20.027	1.172	0.498
1122.500	646.574	79.995	19.996	100.786	20.025	1.262	0.468
1123.000	646.862	79.997	19.995	100.786	20.024	1.329	0.492
1123.500	647.154	79.996	19.994	100.786	20.023	1.409	0.548
1124.000	647.381	79.997	19.995	100.782	20.026	1.228	0.550
1124.500	647.630	79.997	19.996	100.762	20.023	1.440	0.497
1125.000	647.860	79.997	19.995	100.744	20.025	1.266	0.477
1125.501	648.132	79.997	19.996	100.732	20.024	1.340	0.490
1126.001	648.386	79.997	19.996	100.726	20.025	1.269	0.514
1126.501	648.645	79.997	19.996	100.728	20.024	1.326	0.520
1127.001	648.921	79.997	19.995	100.771	20.027	1.186	0.524
1127.500	649.182	79.999	19.995	100.804	20.026	1.222	0.536
1128.000	649.447	79.998	19.994	100.818	20.026	1.252	0.532
1128.500	649.682	79.997	19.995	100.824	20.024	1.381	0.513
1129.000	649.954	79.999	19.995	100.823	20.024	1.329	0.503
1129.500	650.216	79.999	19.995	100.799	20.026	1.212	0.520
1130.000	650.447	79.998	19.995	100.784	20.023	1.426	0.513
1130.500	650.749	79.999	19.996	100.781	20.026	1.234	0.514
1131.000	651.009	79.999	19.995	100.780	20.022	1.471	0.548
1131.500	651.286	79.997	19.996	100.782	20.023	1.447	0.549
1132.000	651.525	79.996	19.995	100.779	20.027	1.139	0.526
1132.501	651.785	79.998	19.995	100.778	20.027	1.133	0.508
1133.001	652.025	79.999	19.995	100.777	20.023	1.440	0.499
1133.501	652.304	79.997	19.995	100.774	20.025	1.269	0.510
1134.000	652.552	79.999	19.995	100.770	20.026	1.252	0.523
1134.500	652.787	79.998	19.996	100.770	20.026	1.243	0.505
1135.000	653.016	79.998	19.996	100.770	20.027	1.188	0.473
1135.500	653.270	79.998	19.996	100.771	20.023	1.407	0.474
1136.000	653.556	79.999	19.995	100.774	20.026	1.214	0.512
1136.500	653.828	79.998	19.995	100.775	20.025	1.272	0.549
1137.000	654.048	79.999	19.996	100.776	20.025	1.267	0.525
1137.500	654.326	79.998	19.996	100.776	20.026	1.200	0.495
1138.000	654.591	79.998	19.996	100.777	20.027	1.191	0.520
1138.500	654.850	79.996	19.996	100.775	20.023	1.430	0.533
1139.000	655.102	79.998	19.996	100.777	20.027	1.141	0.518
1139.501	655.395	79.997	19.996	100.775	20.028	1.081	0.528
1140.001	655.615	79.997	19.995	100.772	20.028	1.124	0.529
1140.501	655.878	79.997	19.997	100.766	20.025	1.259	0.498
1141.001	656.109	79.997	19.996	100.762	20.028	1.117	0.489
1141.501	656.364	79.997	19.997	100.760	20.030	0.972	0.490
1142.001	656.613	79.996	19.996	100.765	20.031	0.925	0.495
1142.500	656.869	79.998	19.995	100.767	20.028	1.088	0.505
1143.000	657.139	79.997	19.996	100.771	20.027	1.188	0.516
1143.500	657.386	79.998	19.997	100.776	20.029	1.051	0.521
1144.000	657.620	79.997	19.996	100.777	20.030	0.974	0.499
1144.500	657.870	79.998	19.995	100.777	20.028	1.096	0.482
1145.000	658.120	79.998	19.996	100.778	20.027	1.150	0.492
1145.500	658.392	79.998	19.995	100.780	20.028	1.119	0.511
1146.000	658.648	79.998	19.997	100.780	20.028	1.089	0.524
1146.500	658.890	79.998	19.997	100.778	20.030	0.981	0.513
1147.000	659.114	79.999	19.996	100.777	20.028	1.089	0.483
1147.500	659.426	79.997	19.996	100.776	20.029	1.015	0.501
1148.000	659.679	79.999	19.996	100.773	20.027	1.148	0.550
1148.500	659.905	79.999	19.996	100.772	20.024	1.337	0.522
1149.001	660.157	79.998	19.995	100.774	20.025	1.299	0.479
1149.501	660.387	79.998	19.997	100.769	20.026	1.206	0.480
1150.000	660.629	79.998	19.996	100.765	20.029	1.063	0.477
1150.500	660.904	79.998	19.996	100.764	20.029	1.050	0.495
1151.000	661.173	79.999	19.997	100.767	20.025	1.319	0.531
1151.500	661.427	79.998	19.997	100.767	20.028	1.126	0.533
1152.001	661.675	79.999	19.996	100.773	20.028	1.067	0.512
1152.501	661.909	79.998	19.996	100.778	20.027	1.143	0.492
1153.000	662.156	79.997	19.996	100.777	20.026	1.226	0.482
1153.500	662.389	79.999	19.996	100.777	20.027	1.148	0.480
1154.000	662.686	79.999	19.996	100.775	20.025	1.262	0.505
1154.501	662.895	80.000	19.996	100.773	20.026	1.205	0.519
1155.001	663.143	79.999	19.996	100.771	20.025	1.281	0.482
1155.500	663.453	79.999	19.996	100.771	20.025	1.293	0.507
1156.000	663.711	80.000	19.996	100.772	20.026	1.229	0.563
1156.500	663.922	79.998	19.995	100.772	20.025	1.321	0.519
1157.000	664.156	79.998	19.996	100.773	20.023	1.421	0.457
1157.500	664.426	80.000	19.996	100.774	20.025	1.271	0.474
1158.000	664.679	79.998	19.996	100.767	20.024	1.324	0.514
1158.500	664.875	79.999	19.996	100.745	20.023	1.430	0.487
1159.000	665.185	79.998	19.996	100.729	20.023	1.406	0.477
1159.500	665.415	79.998	19.997	100.720	20.023	1.416	0.523
1160.000	665.637	79.997	19.996	100.718	20.020	1.623	0.496
1160.500	665.913	79.997	19.996	100.728	20.021	1.549	0.475
1161.000	666.188	79.998	19.994	100.750	20.025	1.316	0.524
1161.500	666.447	79.996	19.997	100.768	20.025	1.295	0.543
1162.000	666.671	79.997	19.996	100.793	20.027	1.136	0.509
1162.500	666.895	79.997	19.995	100.819	20.022	1.480	0.465
1163.000	667.140	79.996	19.997	100.819	20.025	1.281	0.459
1163.501	667.352	79.997	19.997	100.820	20.025	1.274	0.464
1164.001	667.657	79.995	19.995	100.820	20.023	1.400	0.487
1164.500	667.905	79.996	19.997	100.802	20.025	1.317	0.534
1165.000	668.128	79.996	19.996	100.781	20.023	1.440	0.512
1165.500	668.353	79.995	19.997	100.780	20.028	1.109	0.460
1166.000	668.603	79.996	19.995	100.776	20.022	1.494	0.462
1166.500	668.840	79.996	19.996	100.770	20.028	1.126	0.481
1167.000	669.109	79.997	19.997	100.766	20.028	1.071	0.496
1167.500	669.386	79.996	19.995	100.765	20.026	1.216	0.526
1168.000	669.637	79.996	19.995	100.765	20.025	1.288	0.537
1168.500	669.852	79.996	19.997	100.768	20.025	1.286	0.497
1169.000	670.120	79.996	19.997	100.775	20.025	1.264	0.475
1169.500	670.342	79.997	19.997	100.782	20.026	1.238	0.487
1170.001	670.582	79.997	19.997	100.784	20.026	1.212	0.476
1170.501	670.853	79.997	19.997	100.784	20.026	1.202	0.486
1171.000	671.086	79.996	19.997	100.784	20.022	1.456	0.507
1171.500	671.341	79.997	19.997	100.784	20.027	1.174	0.496
1172.000	671.553	79.995	19.996	100.784	20.024	1.345	0.478
1172.500	671.820	79.997	19.997	100.784	20.025	1.279	0.473
1173.000	672.078	79.994	19.996	100.785	20.026	1.241	0.502
1173.500	672.295	79.995	19.996	100.785	20.022	1.469	0.500
1174.000	672.504	79.996	19.996	100.785	20.024	1.331	0.450
1174.500	672.805	79.996	19.997	100.785	20.026	1.228	0.468
1175.000	673.046	79.995	19.997	100.785	20.024	1.340	0.526
1175.500	673.265	79.994	19.997	100.784	20.024	1.326	0.501
1176.000	673.513	79.995	19.997	100.784	20.026	1.205	0.464
1176.500	673.742	79.995	19.997	100.784	20.025	1.267	0.472
1177.001	674.025	79.996	19.997	100.784	20.027	1.191	0.494
1177.501	674.267	79.996	19.996	100.781	20.024	1.362	0.519
1178.001	674.531	79.995	19.997	100.780	20.024	1.328	0.516
1178.500	674.778	79.995	19.998	100.778	20.026	1.198	0.508
1179.000	674.997	79.993	19.997	100.774	20.025	1.314	0.488
1179.500	675.276	79.995	19.997	100.772	20.022	1.469	0.482
1180.000	675.499	79.996	19.996	100.773	20.024	1.354	0.500
1180.500	675.764	79.997	19.997	100.773	20.026	1.207	0.495
1181.000	675.999	79.996	19.996	100.774	20.024	1.369	0.494
1181.500	676.247	79.995	19.997	100.779	20.026	1.209	0.492
1182.000	676.464	79.996	19.998	100.781	20.025	1.302	0.474
1182.500	676.708	79.995	19.997	100.782	20.028	1.124	0.463
1183.000	676.965	79.996	19.996	100.782	20.030	0.984	0.481
1183.500	677.143	79.995	19.996	100.783	20.026	1.219	0.468
1184.000	677.430	79.996	19.997	100.782	20.031	0.924	0.449
1184.500	677.632	79.997	19.997	100.782	20.025	1.281	0.477
1185.000	677.874	79.997	19.996	100.783	20.027	1.157	0.467
1185.500	678.113	79.995	19.997	100.785	20.023	1.404	0.463
1186.000	678.347	79.996	19.997	100.784	20.022	1.499	0.477
1186.500	678.598	79.997	19.997	100.785	20.025	1.264	0.479
1187.000	678.803	79.996	19.996	100.785	20.026	1.210	0.470
1187.500	679.057	79.996	19.995	100.784	20.027	1.179	0.457
1188.001	679.322	79.995	19.996	100.785	20.028	1.081	0.489
1188.501	679.532	79.996	19.995	100.786	20.027	1.148	0.498
1189.000	679.792	79.996	19.996	100.786	20.024	1.347	0.473
1189.500	680.039	79.995	19.996	100.787	20.027	1.145	0.489
1190.000	680.256	79.997	19.997	100.787	20.028	1.114	0.485
1190.500	680.539	79.995	19.997	100.786	20.025	1.307	0.482
1191.000	680.770	79.996	19.997	100.786	20.030	0.951	0.507
1191.500	680.983	79.996	19.996	100.786	20.028	1.102	0.479
1192.000	681.208	79.995	19.995	100.786	20.028	1.095	0.442
1192.500	681.462	79.995	19.997	100.785	20.029	1.005	0.458
1193.000	681.715	79.995	19.995	100.783	20.029	1.060	0.492
1193.500	681.976	79.995	19.996	100.778	20.026	1.219	0.510
1194.000	682.229	79.997	19.996	100.772	20.023	1.423	0.515
1194.500	682.435	79.995	19.996	100.768	20.027	1.148	0.487
1195.000	682.688	79.994	19.996	100.768	20.027	1.190	0.459
1195.500	682.928	79.996	19.997	100.770	20.026	1.243	0.475
1196.001	683.179	79.997	19.997	100.773	20.025	1.274	0.492
1196.501	683.448	79.996	19.996	100.779	20.023	1.393	0.505
1197.001	683.695	79.997	19.996	100.782	20.026	1.216	0.518
1197.500	683.931	79.996	19.996	100.782	20.027	1.179	0.500
1198.001	684.202	79.996	19.995	100.782	20.028	1.090	0.495
1198.501	684.413	79.995	19.996	100.783	20.028	1.069	0.495
1199.000	684.683	79.996	19.996	100.783	20.025	1.318	0.482
1199.500	684.920	79.996	19.995	100.783	20.027	1.160	0.494
1200.000	685.195	79.996	19.996	100.784	20.024	1.380	0.509
1200.500	685.467	79.996	19.996	100.788	20.024	1.343	0.529
1201.000	685.740	79.997	19.996	100.793	20.022	1.482	0.546
1201.500	685.973	79.998	19.996	100.792	20.023	1.437	0.526
1202.000	686.209	79.997	19.995	100.792	20.025	1.314	0.488
1202.500	686.498	79.995	19.995	100.792	20.025	1.264	0.497
1203.000	686.764	79.996	19.996	100.789	20.025	1.319	0.540
1203.500	687.061	79.996	19.997	100.784	20.025	1.297	0.559
1204.000	687.299	79.996	19.996	100.784	20.024	1.323	0.549
1204.500	687.577	79.998	19.996	100.784	20.026	1.219	0.525
1205.000	687.840	79.997	19.996	100.784	20.026	1.214	0.529
1205.500	688.078	79.997	19.996	100.783	20.028	1.115	0.521
1206.000	688.387	79.998	19.995	100.784	20.026	1.217	0.524
1206.501	688.687	79.997	19.995	100.784	20.026	1.222	0.578
1207.001	688.973	79.998	19.996	100.784	20.024	1.374	0.597
1207.500	689.220	79.997	19.995	100.784	20.024	1.330	0.560
1208.000	689.475	79.997	19.995	100.783	20.024	1.350	0.518
1208.500	689.742	79.998	19.996	100.785	20.027	1.134	0.512
1209.000	690.025	79.997	19.995	100.788	20.029	1.060	0.536
1209.500	690.297	79.996	19.997	100.788	20.026	1.200	0.553
1210.000	690.572	79.997	19.997	100.789	20.022	1.456	0.551
1210.500	690.858	79.998	19.996	100.789	20.022	1.480	0.554
1211.000	691.167	79.998	19.995	100.786	20.023	1.435	0.578
1211.500	691.416	79.997	19.994	100.784	20.024	1.371	0.576
1212.000	691.723	79.996	19.996	100.783	20.026	1.257	0.557
1212.500	691.996	79.996	19.997	100.785	20.025	1.269	0.568
1213.000	692.279	79.998	19.995	100.786	20.024	1.333	0.568
1213.500	692.572	79.995	19.996	100.786	20.025	1.274	0.566
1214.000	692.850	79.998	19.996	100.786	20.020	1.627	0.573
1214.501	693.131	79.998	19.996	100.785	20.025	1.321	0.565
1215.001	693.394	79.997	19.996	100.783	20.022	1.464	0.552
1215.501	693.704	79.998	19.997	100.782	20.024	1.374	0.559
1216.001	693.960	79.998	19.995	100.782	20.022	1.478	0.569
1216.500	694.280	79.997	19.996	100.782	20.022	1.459	0.571
1217.000	694.553	79.996	19.996	100.782	20.022	1.471	0.585
1217.500	694.857	79.997	19.996	100.782	20.020	1.608	0.585
1218.000	695.165	79.996	19.995	100.782	20.026	1.228	0.594
1218.500	695.459	79.997	19.996	100.783	20.024	1.369	0.607
1219.000	695.732	79.997	19.995	100.783	20.021	1.549	0.585
1219.500	696.037	79.998	19.996	100.784	20.022	1.475	0.573
1220.000	696.342	79.997	19.996	100.785	20.024	1.352	0.594
1220.500	696.605	79.998	19.995	100.785	20.024	1.326	0.589
1221.000	696.921	79.997	19.996	100.785	20.024	1.324	0.573
1221.500	697.184	79.998	19.995	100.786	20.020	1.589	0.579
1222.000	697.474	79.996	19.995	100.786	20.024	1.354	0.566
1222.501	697.781	79.998	19.995	100.786	20.026	1.250	0.575
1223.001	698.090	79.998	19.995	100.790	20.024	1.364	0.607
1223.500	698.369	79.997	19.995	100.794	20.023	1.440	0.602
1224.000	698.647	79.999	19.995	100.797	20.022	1.495	0.572
1224.500	698.910	79.998	19.995	100.798	20.027	1.174	0.549
1225.000	699.239	79.998	19.995	100.798	20.024	1.381	0.566
1225.500	699.537	79.998	19.996	100.793	20.025	1.269	0.609
1226.000	699.828	79.998	19.995	100.789	20.024	1.342	0.608
1226.500	700.135	80.000	19.995	100.785	20.024	1.371	0.594
1227.000	700.413	79.999	19.995	100.784	20.026	1.217	0.592
1227.500	700.687	79.998	19.994	100.783	20.025	1.300	0.569
1228.000	700.950	79.998	19.997	100.784	20.023	1.406	0.544
1228.500	701.254	79.998	19.996	100.785	20.023	1.433	0.552
1229.000	701.566	79.998	19.995	100.785	20.020	1.633	0.592
1229.500	701.872	79.998	19.995	100.785	20.028	1.072	0.617
1230.000	702.151	79.998	19.995	100.786	20.021	1.519	0.601
1230.500	702.428	79.998	19.997	100.786	20.022	1.507	0.570
1231.000	702.773	79.999	19.995	100.785	20.022	1.502	0.589
1231.500	702.980	79.998	19.994	100.786	20.020	1.582	0.587
1232.000	703.312	79.998	19.997	100.787	20.026	1.235	0.545
1232.500	703.590	79.999	19.994	100.787	20.023	1.399	0.575
1233.000	703.886	79.998	19.995	100.790	20.023	1.433	0.593
1233.500	704.181	79.998	19.996	100.792	20.025	1.261	0.582
1234.000	704.500	79.998	19.995	100.794	20.023	1.406	0.602
1234.500	704.769	79.998	19.995	100.793	20.020	1.632	0.601
1235.000	705.027	79.998	19.996	100.792	20.023	1.411	0.558
1235.501	705.316	79.998	19.995	100.791	20.023	1.409	0.537
1236.001	705.631	79.997	19.996	100.789	20.021	1.532	0.576
1236.500	705.916	79.998	19.996	100.787	20.021	1.523	0.602
1237.000	706.203	79.997	19.996	100.787	20.020	1.592	0.586
1237.500	706.486	79.998	19.996	100.786	20.021	1.521	0.571
1238.000	706.803	79.997	19.996	100.785	20.024	1.373	0.585
1238.500	707.118	79.996	19.996	100.784	20.020	1.585	0.616
1239.000	707.387	79.997	19.996	100.784	20.020	1.582	0.609
1239.500	707.656	79.997	19.997	100.784	20.021	1.535	0.561
1240.000	707.958	79.997	19.996	100.784	20.022	1.501	0.554
1240.500	708.259	79.997	19.995	100.784	20.021	1.528	0.587
1241.000	708.526	79.995	19.998	100.783	20.023	1.426	0.585
1241.500	708.797	79.994	19.997	100.783	20.021	1.516	0.553
1242.000	709.099	79.996	19.996	100.783	20.020	1.580	0.555
1242.500	709.389	79.996	19.995	100.783	20.018	1.708	0.583
1243.000	709.688	79.995	19.996	100.783	20.019	1.661	0.591
1243.500	709.975	79.996	19.997	100.784	20.021	1.523	0.588
1244.001	710.291	79.995	19.997	100.787	20.019	1.651	0.594
1244.501	710.507	79.996	19.998	100.788	20.018	1.749	0.567
1245.000	710.825	79.995	19.997	100.788	20.021	1.563	0.533
1245.500	711.127	79.995	19.995	100.788	20.018	1.739	0.577
1246.001	711.422	79.996	19.997	100.788	20.020	1.582	0.609
1246.501	711.725	79.996	19.996	100.786	20.019	1.642	0.597
1247.000	712.034	79.995	19.997	100.786	20.019	1.647	0.605
1247.500	712.276	79.994	19.996	100.786	20.020	1.597	0.582
1248.001	712.575	79.995	19.996	100.786	20.019	1.684	0.545
1248.501	712.836	79.995	19.996	100.786	20.021	1.526	0.550
1249.000	713.140	79.995	19.996	100.786	20.016	1.842	0.563
1249.500	713.436	79.995	19.995	100.786	20.020	1.623	0.582
1250.000	713.694	79.995	19.995	100.786	20.021	1.571	0.577
1250.500	713.988	79.996	19.995	100.787	20.020	1.621	0.553
1251.000	714.268	79.996	19.996	100.787	20.016	1.867	0.563
1251.500	714.554	79.995	19.996	100.787	20.020	1.618	0.571
1252.000	714.822	79.996	19.997	100.793	20.016	1.841	0.560
1252.500	715.176	79.995	19.996	100.798	20.018	1.761	0.588
1253.000	715.440	79.995	19.996	100.800	20.019	1.658	0.620
1253.500	715.721	79.995	19.995	100.800	20.015	1.955	0.581
1254.000	715.997	79.994	19.995	100.799	20.018	1.727	0.551
1254.500	716.293	79.996	19.996	100.795	20.018	1.734	0.565
1255.000	716.578	79.995	19.996	100.792	20.020	1.630	0.577
1255.500	716.845	79.996	19.996	100.791	20.019	1.684	0.566
1256.000	717.119	79.995	19.997	100.790	20.019	1.689	0.546
1256.500	717.389	79.996	19.996	100.790	20.021	1.544	0.542
1257.000	717.707	79.995	19.997	100.789	20.020	1.613	0.566
1257.500	717.971	79.995	19.996	100.786	20.019	1.690	0.585
1258.000	718.241	79.996	19.997	100.785	20.020	1.618	0.558
1258.501	718.495	79.995	19.997	100.784	20.018	1.709	0.529
1259.001	718.790	79.995	19.996	100.784	20.020	1.582	0.537
1259.500	719.050	79.996	19.997	100.784	20.019	1.651	0.552
1260.000	719.357	79.996	19.996	100.783	20.016	1.868	0.561
1260.500	719.625	79.996	19.996	100.783	20.018	1.711	0.571
1261.000	719.892	79.997	19.996	100.783	20.018	1.749	0.555
1261.500	720.177	79.995	19.997	100.783	20.019	1.670	0.544
1262.001	720.441	79.995	19.996	100.784	20.021	1.575	0.551
1262.501	720.742	79.995	19.997	100.783	20.020	1.582	0.557
1263.000	720.972	79.995	19.996	100.784	20.018	1.754	0.548
1263.500	721.279	79.996	19.996	100.784	20.018	1.741	0.534
1264.000	721.556	79.995	19.997	100.784	20.020	1.601	0.560
1264.500	721.871	79.996	19.997	100.782	20.023	1.412	0.588
1265.000	722.124	79.996	19.995	100.782	20.019	1.675	0.580
1265.500	722.401	79.995	19.997	100.782	20.022	1.450	0.549
1266.000	722.648	79.995	19.996	100.782	20.021	1.538	0.527
1266.501	722.936	79.996	19.997	100.782	20.019	1.696	0.529
1267.001	723.190	79.996	19.998	100.782	20.021	1.566	0.538
1267.500	723.468	79.995	19.996	100.785	20.020	1.578	0.537
1268.001	723.757	79.994	19.997	100.785	20.020	1.604	0.550
1268.501	724.030	79.996	19.997	100.785	20.021	1.521	0.565
1269.000	724.290	79.995	19.998	100.785	20.022	1.485	0.547
1269.500	724.591	79.996	19.997	100.785	20.023	1.433	0.547
1270.000	724.878	79.995	19.998	100.782	20.023	1.393	0.575
1270.500	725.108	79.994	19.996	100.782	20.022	1.483	0.553
1271.000	725.418	79.995	19.997	100.781	20.021	1.568	0.529
1271.500	725.674	79.995	19.997	100.781	20.021	1.551	0.553
1272.000	725.989	79.996	19.997	100.781	20.025	1.278	0.568
1272.500	726.205	79.994	19.996	100.783	20.021	1.549	0.551
1273.000	726.510	79.995	19.997	100.783	20.023	1.411	0.526
1273.500	726.786	79.994	19.997	100.783	20.021	1.551	0.551
1274.000	727.035	79.995	19.997	100.783	20.023	1.402	0.553
1274.500	727.311	79.996	19.996	100.783	20.020	1.606	0.525
1275.000	727.569	79.995	19.998	100.782	20.024	1.362	0.530
1275.500	727.835	79.995	19.998	100.782	20.024	1.345	0.529
1276.000	728.107	79.995	19.997	100.783	20.021	1.518	0.531
1276.500	728.403	79.995	19.996	100.783	20.023	1.445	0.553
1277.000	728.640	79.995	19.996	100.783	20.022	1.487	0.550
1277.501	728.942	79.996	19.996	100.783	20.022	1.473	0.536
1278.001	729.219	79.996	19.996	100.782	20.019	1.651	0.559
1278.501	729.445	79.997	19.997	100.782	20.019	1.646	0.541
1279.000	729.736	79.997	19.995	100.781	20.022	1.489	0.510
1279.500	730.022	79.996	19.996	100.781	20.018	1.725	0.547
1280.000	730.259	79.997	19.996	100.781	20.016	1.875	0.551
1280.500	730.541	79.996	19.996	100.782	20.018	1.711	0.521
1281.001	730.822	79.996	19.996	100.782	20.021	1.542	0.541
1281.501	731.067	79.996	19.996	100.782	20.019	1.685	0.545
1282.000	731.368	79.996	19.996	100.783	20.020	1.585	0.536
1282.500	731.613	79.997	19.996	100.784	20.017	1.798	0.546
1283.000	731.890	79.997	19.996	100.784	20.018	1.732	0.534
1283.500	732.147	79.997	19.995	100.784	20.017	1.773	0.528
1284.000	732.428	79.998	19.998	100.784	20.019	1.682	0.536
1284.501	732.724	79.997	19.996	100.784	20.019	1.701	0.557
1285.001	732.965	79.997	19.996	100.784	20.018	1.737	0.557
1285.500	733.240	79.998	19.996	100.785	20.017	1.798	0.527
1286.000	733.491	79.998	19.996	100.786	20.019	1.703	0.521
1286.500	733.759	79.998	19.996	100.786	20.019	1.699	0.523
1287.000	734.028	79.996	19.997	100.787	20.019	1.697	0.528
1287.500	734.318	79.999	19.995	100.789	20.016	1.887	0.548
1288.000	734.555	79.997	19.995	100.789	20.018	1.727	0.543
1288.500	734.816	79.998	19.996	100.788	20.018	1.749	0.512
1289.000	735.102	79.997	19.995	100.788	20.014	1.962	0.522
1289.501	735.358	79.998	19.995	100.793	20.016	1.837	0.544
1290.001	735.614	79.997	19.995	100.794	20.017	1.777	0.527
1290.501	735.885	79.997	19.997	100.794	20.016	1.863	0.520
1291.001	736.142	79.997	19.997	100.796	20.018	1.718	0.528
1291.501	736.429	79.998	19.997	100.797	20.016	1.886	0.536
1292.000	736.639	79.996	19.995	100.790	20.020	1.627	0.520
1292.500	736.918	79.996	19.996	100.789	20.014	2.015	0.493
1293.000	737.174	79.997	19.996	100.790	20.016	1.839	0.512
1293.500	737.413	79.996	19.996	100.788	20.017	1.825	0.515
1294.000	737.687	79.998	19.996	100.788	20.014	2.003	0.504
1294.500	737.946	79.997	19.995	100.787	20.017	1.792	0.522
1295.000	738.245	79.998	19.995	100.785	20.013	2.077	0.545
1295.500	738.491	79.997	19.995	100.783	20.014	2.003	0.552
1296.000	738.727	79.997	19.995	100.784	20.016	1.877	0.514
1296.501	739.030	79.996	19.997	100.784	20.015	1.936	0.511
1297.001	739.252	79.997	19.995	100.784	20.016	1.835	0.532
1297.500	739.502	79.996	19.994	100.784	20.017	1.777	0.498
1298.000	739.804	79.996	19.996	100.787	20.017	1.825	0.512
1298.500	740.048	79.998	19.996	100.791	20.019	1.687	0.549
1299.000	740.287	79.997	19.996	100.790	20.016	1.854	0.515
1299.500	740.559	79.997	19.997	100.792	20.017	1.773	0.497
1300.000	740.848	79.996	19.994	100.791	20.021	1.571	0.536
1300.500	741.062	79.997	19.996	100.790	20.018	1.718	0.532
1301.000	741.316	79.997	19.996	100.787	20.019	1.677	0.485
1301.500	741.595	79.996	19.995	100.787	20.018	1.725	0.500
1302.000	741.870	79.996	19.996	100.787	20.017	1.792	0.544
1302.500	742.109	79.997	19.997	100.790	20.019	1.690	0.534
1303.000	742.402	79.996	19.995	100.792	20.017	1.792	0.523
1303.500	742.667	79.996	19.995	100.791	20.017	1.806	0.545
1304.001	742.898	79.997	19.995	100.791	20.017	1.770	0.527
1304.501	743.164	79.996	19.996	100.791	20.021	1.545	0.496
1305.000	743.423	79.997	19.994	100.789	20.020	1.594	0.511
