Sample ID:	C:\MCC\MCC Cal\Test\Polyester_Microfiber_81A_MCC_30K_min_220228_R3.txt
Sample Weight (mg):	4.34
Heating Rate (C/s):	0.5
Combustor Temp (C):	900
N2 Flow Rate (cc/min):	80
O2 Flow Rate (cc/min):	20
Calibration File:	C:\MCC\MCC Cal\Coeff1 JN10440_30_210304.txt.txt
T Correction Coefficients:	0	1.024463	0
Time Shift (s):	14
*
Time (s)	Temperature (C)	N2 flow rate (cc/min)	O2 flow rate (cc/min)	Flow Rate (cc/min)	Oxygen (%)	HRR (W/g)	Heating rate (C/s)
0.000	112.375	80.010	19.995	103.671	20.094	-0.209	-0.009
0.500	112.408	80.011	19.994	103.671	20.091	0.065	-0.027
1.000	112.430	80.010	19.994	103.670	20.093	-0.152	0.016
1.500	112.412	80.010	19.994	103.668	20.088	0.241	0.030
2.000	112.419	80.010	19.994	103.667	20.092	-0.022	-0.003
2.500	112.412	80.011	19.993	103.667	20.092	-0.028	-0.006
3.000	112.405	80.011	19.992	103.666	20.094	-0.172	-0.007
3.500	112.400	80.010	19.995	103.667	20.093	-0.089	-0.013
4.000	112.421	80.010	19.996	103.667	20.092	-0.008	0.002
4.501	112.420	80.010	19.994	103.667	20.090	0.124	0.018
5.000	112.435	80.009	19.995	103.668	20.092	-0.030	0.017
5.500	112.424	80.009	19.995	103.668	20.091	0.049	0.009
6.000	112.440	80.010	19.995	103.668	20.091	0.041	0.005
6.500	112.384	80.010	19.995	103.668	20.092	-0.051	-0.018
7.000	112.412	80.010	19.994	103.667	20.093	-0.097	-0.035
7.500	112.409	80.009	19.994	103.666	20.096	-0.336	-0.002
8.000	112.438	80.011	19.993	103.667	20.091	0.012	0.025
8.500	112.416	80.010	19.994	103.667	20.092	-0.045	0.017
9.000	112.430	80.011	19.994	103.668	20.090	0.079	-0.000
9.500	112.445	80.009	19.994	103.673	20.088	0.243	0.011
10.000	112.436	80.009	19.994	103.675	20.092	-0.057	0.018
10.500	112.447	80.010	19.994	103.675	20.089	0.156	0.004
11.000	112.420	80.008	19.993	103.675	20.089	0.166	-0.007
11.500	112.450	80.010	19.994	103.677	20.084	0.549	-0.006
12.000	112.433	80.010	19.994	103.680	20.086	0.379	0.009
12.500	112.411	80.009	19.995	103.685	20.084	0.576	-0.013
13.000	112.396	80.009	19.994	103.693	20.086	0.381	-0.038
13.500	112.445	80.009	19.993	103.702	20.085	0.501	-0.001
14.000	112.426	80.009	19.993	103.707	20.085	0.487	0.032
14.500	112.445	80.009	19.993	103.709	20.085	0.491	0.015
15.000	112.436	80.010	19.993	103.710	20.086	0.391	0.005
15.500	112.460	80.008	19.994	103.713	20.083	0.627	0.013
16.000	112.478	80.009	19.994	103.718	20.082	0.695	0.028
16.500	112.449	80.011	19.994	103.726	20.081	0.772	0.016
17.000	112.463	80.010	19.993	103.738	20.081	0.801	-0.013
17.500	112.462	80.011	19.994	103.752	20.082	0.706	-0.001
18.000	112.482	80.011	19.993	103.763	20.080	0.829	0.016
18.500	112.496	80.010	19.992	103.772	20.077	1.044	0.026
19.000	112.509	80.010	19.993	103.784	20.077	1.069	0.030
19.500	112.557	80.010	19.994	103.791	20.080	0.876	0.044
20.000	112.575	80.011	19.994	103.791	20.077	1.109	0.064
20.500	112.583	80.011	19.993	103.796	20.073	1.387	0.046
21.000	112.622	80.011	19.993	103.801	20.072	1.416	0.036
21.500	112.621	80.010	19.993	103.805	20.072	1.434	0.042
22.000	112.646	80.011	19.994	103.807	20.069	1.685	0.031
22.500	112.691	80.011	19.994	103.814	20.070	1.574	0.047
23.000	112.652	80.011	19.993	103.818	20.071	1.562	0.038
23.500	112.734	80.011	19.994	103.821	20.069	1.657	0.024
24.000	112.779	80.011	19.995	103.826	20.067	1.793	0.085
24.500	112.802	80.012	19.994	103.831	20.068	1.789	0.098
25.000	112.804	80.012	19.994	103.833	20.064	2.026	0.047
25.500	112.847	80.011	19.994	103.833	20.068	1.761	0.035
26.000	112.904	80.012	19.992	103.828	20.069	1.700	0.073
26.501	112.939	80.012	19.993	103.822	20.066	1.923	0.096
27.001	112.986	80.010	19.994	103.818	20.065	2.006	0.087
27.500	112.999	80.012	19.993	103.817	20.063	2.126	0.071
28.000	113.073	80.013	19.992	103.818	20.062	2.193	0.073
28.500	113.124	80.011	19.993	103.826	20.062	2.179	0.105
29.000	113.185	80.010	19.993	103.835	20.060	2.333	0.118
29.500	113.240	80.012	19.992	103.840	20.064	2.055	0.114
30.000	113.259	80.012	19.993	103.844	20.062	2.207	0.095
30.500	113.360	80.011	19.992	103.850	20.059	2.461	0.097
31.000	113.420	80.012	19.993	103.854	20.060	2.369	0.141
31.500	113.443	80.010	19.993	103.855	20.063	2.105	0.122
32.000	113.529	80.010	19.992	103.855	20.060	2.329	0.096
32.501	113.562	80.008	19.993	103.857	20.055	2.692	0.114
33.001	113.657	80.011	19.994	103.858	20.059	2.428	0.123
33.500	113.724	80.010	19.993	103.858	20.060	2.337	0.145
34.001	113.769	80.011	19.994	103.859	20.056	2.643	0.137
34.501	113.817	80.009	19.995	103.862	20.062	2.233	0.102
35.001	113.887	80.009	19.994	103.863	20.058	2.485	0.106
35.501	113.972	80.009	19.992	103.864	20.059	2.400	0.137
36.000	114.060	80.009	19.993	103.864	20.059	2.404	0.164
36.500	114.102	80.008	19.993	103.864	20.057	2.603	0.151
37.000	114.198	80.009	19.993	103.864	20.057	2.544	0.134
37.500	114.243	80.008	19.993	103.864	20.057	2.550	0.140
38.000	114.371	80.008	19.993	103.865	20.058	2.510	0.157
38.500	114.424	80.009	19.994	103.865	20.058	2.482	0.177
39.000	114.479	80.009	19.992	103.865	20.057	2.548	0.145
39.500	114.599	80.009	19.993	103.867	20.059	2.461	0.141
40.001	114.716	80.008	19.993	103.869	20.056	2.611	0.206
40.501	114.746	80.008	19.993	103.869	20.056	2.627	0.192
41.000	114.860	80.008	19.994	103.869	20.056	2.664	0.145
41.500	114.913	80.008	19.994	103.869	20.057	2.546	0.155
42.000	115.021	80.008	19.994	103.868	20.056	2.638	0.164
42.500	115.097	80.007	19.994	103.866	20.057	2.587	0.173
43.000	115.215	80.008	19.992	103.868	20.054	2.788	0.189
43.500	115.267	80.008	19.994	103.870	20.055	2.691	0.182
44.000	115.404	80.008	19.994	103.870	20.055	2.758	0.179
44.500	115.486	80.007	19.994	103.870	20.055	2.735	0.203
45.000	115.571	80.008	19.993	103.872	20.050	3.092	0.193
45.500	115.689	80.008	19.994	103.870	20.053	2.869	0.185
46.000	115.759	80.008	19.993	103.869	20.054	2.784	0.196
46.500	115.897	80.008	19.993	103.874	20.053	2.894	0.198
47.000	115.980	80.008	19.994	103.881	20.054	2.821	0.214
47.500	116.113	80.009	19.994	103.883	20.053	2.855	0.219
48.000	116.191	80.009	19.994	103.890	20.051	3.040	0.214
48.500	116.316	80.009	19.994	103.897	20.048	3.281	0.207
49.000	116.437	80.008	19.994	103.900	20.048	3.251	0.224
49.500	116.579	80.007	19.994	103.899	20.052	2.975	0.254
50.000	116.676	80.008	19.994	103.898	20.050	3.121	0.251
50.500	116.792	80.008	19.994	103.894	20.052	2.950	0.227
51.000	116.856	80.008	19.993	103.892	20.050	3.133	0.197
51.500	117.035	80.009	19.995	103.892	20.053	2.879	0.211
52.000	117.095	80.008	19.993	103.894	20.050	3.076	0.241
52.500	117.207	80.009	19.994	103.898	20.051	3.007	0.205
53.000	117.340	80.011	19.993	103.903	20.049	3.202	0.209
53.500	117.451	80.007	19.994	103.905	20.052	2.970	0.244
54.000	117.589	80.007	19.993	103.905	20.050	3.080	0.247
54.500	117.733	80.008	19.993	103.905	20.049	3.198	0.266
55.000	117.801	80.009	19.993	103.905	20.050	3.076	0.247
55.500	117.939	80.008	19.994	103.905	20.051	3.058	0.209
56.001	118.063	80.009	19.993	103.905	20.050	3.064	0.234
56.501	118.208	80.008	19.993	103.905	20.046	3.372	0.265
57.001	118.359	80.008	19.994	103.907	20.050	3.068	0.282
57.500	118.471	80.008	19.994	103.907	20.050	3.084	0.279
58.001	118.599	80.009	19.994	103.907	20.050	3.107	0.252
58.501	118.740	80.009	19.994	103.906	20.047	3.340	0.255
59.001	118.894	80.008	19.994	103.906	20.049	3.143	0.282
59.500	118.998	80.009	19.994	103.903	20.046	3.395	0.276
60.000	119.120	80.008	19.994	103.903	20.046	3.393	0.242
60.500	119.286	80.008	19.994	103.903	20.046	3.393	0.257
61.000	119.450	80.009	19.994	103.903	20.046	3.399	0.309
61.500	119.569	80.008	19.993	103.903	20.045	3.488	0.307
62.000	119.704	80.009	19.995	103.902	20.046	3.383	0.268
62.500	119.829	80.010	19.994	103.902	20.046	3.415	0.257
63.000	119.980	80.008	19.994	103.901	20.046	3.395	0.268
63.500	120.134	80.009	19.994	103.900	20.050	3.094	0.290
64.000	120.278	80.008	19.994	103.899	20.046	3.421	0.301
64.500	120.483	80.010	19.994	103.895	20.044	3.555	0.323
65.000	120.625	80.009	19.994	103.892	20.047	3.297	0.348
65.500	120.764	80.008	19.995	103.892	20.046	3.368	0.314
66.000	120.932	80.008	19.995	103.892	20.049	3.198	0.294
66.500	121.064	80.008	19.995	103.893	20.048	3.247	0.304
67.000	121.197	80.009	19.994	103.898	20.051	3.050	0.282
67.500	121.348	80.008	19.994	103.902	20.049	3.194	0.274
68.000	121.459	80.010	19.993	103.902	20.050	3.113	0.273
68.500	121.648	80.008	19.995	103.902	20.049	3.208	0.281
69.000	121.822	80.009	19.994	103.902	20.052	2.965	0.331
69.500	121.977	80.009	19.994	103.904	20.047	3.300	0.346
70.000	122.130	80.008	19.994	103.905	20.049	3.140	0.319
70.500	122.303	80.008	19.994	103.905	20.051	3.053	0.317
71.000	122.490	80.008	19.993	103.907	20.049	3.166	0.343
71.500	122.644	80.009	19.994	103.907	20.043	3.655	0.350
72.000	122.801	80.009	19.994	103.905	20.048	3.221	0.326
72.500	122.957	80.007	19.994	103.904	20.051	3.030	0.313
73.000	123.131	80.009	19.994	103.903	20.048	3.252	0.322
73.501	123.286	80.007	19.995	103.902	20.050	3.114	0.329
74.001	123.411	80.009	19.994	103.901	20.048	3.264	0.304
74.500	123.599	80.007	19.994	103.901	20.047	3.288	0.297
75.000	123.747	80.008	19.995	103.902	20.046	3.416	0.324
75.500	123.909	80.009	19.995	103.901	20.045	3.444	0.323
76.000	124.088	80.009	19.995	103.902	20.049	3.176	0.325
76.500	124.253	80.009	19.994	103.903	20.048	3.225	0.342
77.001	124.425	80.007	19.996	103.903	20.046	3.367	0.341
77.501	124.597	80.008	19.994	103.903	20.046	3.414	0.341
78.001	124.775	80.009	19.994	103.906	20.045	3.451	0.347
78.501	124.940	80.008	19.995	103.907	20.047	3.323	0.346
79.000	125.103	80.009	19.995	103.908	20.045	3.438	0.336
79.500	125.256	80.009	19.994	103.910	20.045	3.461	0.322
80.000	125.472	80.008	19.994	103.915	20.045	3.449	0.342
80.500	125.637	80.009	19.995	103.918	20.041	3.757	0.375
81.000	125.813	80.008	19.993	103.923	20.044	3.583	0.361
81.500	125.992	80.008	19.995	103.928	20.042	3.711	0.348
82.000	126.192	80.009	19.995	103.929	20.043	3.601	0.367
82.500	126.345	80.009	19.995	103.930	20.042	3.666	0.366
83.001	126.532	80.010	19.994	103.930	20.042	3.711	0.347
83.501	126.736	80.010	19.993	103.929	20.043	3.603	0.366
84.000	126.894	80.009	19.994	103.930	20.042	3.711	0.377
84.500	127.084	80.009	19.994	103.932	20.041	3.761	0.355
85.000	127.253	80.009	19.995	103.934	20.042	3.719	0.353
85.500	127.451	80.009	19.995	103.935	20.040	3.863	0.363
86.000	127.649	80.010	19.994	103.933	20.041	3.766	0.381
86.500	127.800	80.010	19.994	103.931	20.042	3.717	0.372
87.000	128.000	80.009	19.993	103.930	20.041	3.802	0.351
87.500	128.212	80.010	19.993	103.930	20.040	3.871	0.382
88.000	128.390	80.010	19.995	103.929	20.040	3.869	0.401
88.500	128.597	80.009	19.994	103.931	20.037	4.034	0.387
89.000	128.779	80.009	19.994	103.933	20.041	3.782	0.386
89.500	128.977	80.010	19.993	103.934	20.040	3.867	0.384
90.000	129.163	80.010	19.994	103.934	20.041	3.806	0.382
90.500	129.334	80.009	19.993	103.936	20.040	3.824	0.371
91.000	129.541	80.010	19.993	103.938	20.040	3.871	0.368
91.501	129.716	80.009	19.993	103.938	20.040	3.857	0.380
92.001	129.932	80.009	19.992	103.938	20.039	3.928	0.386
92.500	130.111	80.009	19.993	103.938	20.037	4.066	0.392
93.000	130.312	80.009	19.995	103.938	20.040	3.835	0.387
93.501	130.513	80.010	19.994	103.939	20.039	3.888	0.391
94.001	130.698	80.009	19.994	103.939	20.042	3.681	0.394
94.501	130.891	80.009	19.993	103.939	20.040	3.825	0.382
95.000	131.124	80.010	19.994	103.942	20.039	3.920	0.402
95.500	131.295	80.008	19.994	103.943	20.041	3.770	0.415
96.001	131.509	80.009	19.993	103.944	20.041	3.744	0.395
96.501	131.698	80.008	19.994	103.948	20.035	4.213	0.394
97.000	131.910	80.010	19.993	103.951	20.042	3.730	0.402
97.500	132.126	80.010	19.993	103.952	20.041	3.748	0.414
98.000	132.299	80.009	19.993	103.951	20.040	3.827	0.408
98.500	132.518	80.010	19.993	103.950	20.039	3.910	0.391
99.000	132.702	80.009	19.993	103.947	20.038	4.011	0.398
99.500	132.927	80.010	19.993	103.945	20.037	4.072	0.406
100.000	133.121	80.010	19.993	103.944	20.040	3.843	0.414
100.500	133.364	80.010	19.993	103.944	20.036	4.113	0.428
101.000	133.557	80.011	19.992	103.945	20.038	4.008	0.437
101.500	133.732	80.010	19.993	103.946	20.036	4.111	0.402
102.000	133.987	80.010	19.993	103.946	20.037	4.103	0.399
102.500	134.220	80.008	19.992	103.949	20.037	4.064	0.459
103.000	134.409	80.011	19.994	103.950	20.039	3.906	0.455
103.500	134.635	80.009	19.993	103.953	20.038	4.028	0.419
104.000	134.857	80.010	19.994	103.953	20.037	4.075	0.432
104.500	135.071	80.011	19.993	103.956	20.037	4.089	0.442
105.000	135.286	80.012	19.992	103.954	20.039	3.928	0.432
105.500	135.500	80.010	19.993	103.953	20.042	3.707	0.429
106.000	135.701	80.010	19.993	103.951	20.039	3.896	0.422
106.500	135.933	80.010	19.994	103.955	20.042	3.667	0.424
107.000	136.152	80.010	19.993	103.958	20.039	3.941	0.442
107.500	136.362	80.011	19.993	103.962	20.041	3.782	0.440
108.001	136.633	80.011	19.992	103.965	20.040	3.851	0.455
108.501	136.829	80.010	19.994	103.964	20.038	3.977	0.474
109.000	137.052	80.012	19.994	103.961	20.040	3.829	0.443
109.500	137.276	80.011	19.993	103.957	20.035	4.190	0.433
110.000	137.531	80.012	19.993	103.952	20.034	4.284	0.463
110.500	137.747	80.011	19.993	103.952	20.038	4.024	0.475
111.000	137.974	80.011	19.993	103.956	20.038	4.020	0.457
111.501	138.201	80.012	19.992	103.959	20.040	3.854	0.448
112.001	138.456	80.011	19.993	103.964	20.040	3.845	0.468
112.501	138.675	80.011	19.994	103.962	20.040	3.849	0.478
113.000	138.891	80.011	19.993	103.959	20.038	4.001	0.454
113.500	139.100	80.009	19.993	103.958	20.037	4.056	0.430
114.000	139.325	80.009	19.993	103.957	20.036	4.121	0.430
114.500	139.555	80.009	19.994	103.956	20.040	3.841	0.445
115.000	139.798	80.009	19.993	103.956	20.041	3.755	0.464
115.500	140.058	80.007	19.993	103.958	20.038	4.007	0.488
116.000	140.270	80.008	19.993	103.957	20.038	3.977	0.488
116.500	140.503	80.010	19.993	103.956	20.042	3.697	0.458
117.000	140.779	80.009	19.994	103.956	20.039	3.920	0.477
117.500	140.982	80.009	19.994	103.957	20.038	3.960	0.494
118.000	141.226	80.008	19.992	103.955	20.041	3.761	0.463
118.500	141.455	80.008	19.994	103.954	20.038	4.023	0.460
119.000	141.736	80.008	19.993	103.952	20.036	4.163	0.491
119.501	141.967	80.008	19.992	103.947	20.038	3.969	0.511
120.001	142.204	80.008	19.995	103.946	20.037	4.042	0.490
120.500	142.442	80.009	19.993	103.948	20.040	3.867	0.471
121.001	142.664	80.008	19.993	103.954	20.039	3.896	0.467
121.501	142.924	80.008	19.994	103.961	20.039	3.948	0.471
122.001	143.164	80.009	19.993	103.963	20.039	3.918	0.491
122.501	143.377	80.009	19.994	103.963	20.037	4.080	0.476
123.000	143.638	80.009	19.993	103.960	20.041	3.778	0.463
123.500	143.892	80.008	19.994	103.955	20.040	3.837	0.494
124.000	144.096	80.008	19.994	103.948	20.036	4.131	0.487
124.500	144.357	80.008	19.993	103.946	20.034	4.287	0.462
125.000	144.653	80.008	19.992	103.946	20.038	3.989	0.511
125.500	144.873	80.009	19.994	103.945	20.037	4.090	0.536
126.000	145.107	80.010	19.993	103.943	20.036	4.115	0.485
126.500	145.379	80.008	19.993	103.943	20.037	4.064	0.480
127.000	145.611	80.010	19.993	103.943	20.033	4.344	0.505
127.500	145.874	80.008	19.993	103.945	20.039	3.912	0.499
128.000	146.120	80.007	19.993	103.946	20.038	4.021	0.502
128.500	146.322	80.009	19.992	103.946	20.035	4.208	0.479
129.000	146.644	80.010	19.994	103.944	20.036	4.169	0.486
129.500	146.835	80.009	19.994	103.944	20.037	4.060	0.519
130.000	147.071	80.009	19.993	103.943	20.037	4.082	0.470
130.500	147.319	80.010	19.992	103.945	20.038	3.993	0.455
131.000	147.564	80.011	19.994	103.947	20.038	3.997	0.488
131.500	147.825	80.010	19.994	103.949	20.035	4.224	0.500
132.000	148.072	80.010	19.993	103.950	20.037	4.033	0.507
132.500	148.330	80.008	19.994	103.950	20.035	4.196	0.507
133.000	148.553	80.009	19.995	103.948	20.039	3.926	0.493
133.500	148.822	80.010	19.994	103.946	20.040	3.861	0.486
134.000	149.042	80.011	19.994	103.944	20.040	3.830	0.490
134.500	149.347	80.010	19.994	103.943	20.037	4.048	0.507
135.000	149.583	80.010	19.994	103.941	20.040	3.845	0.534
135.500	149.858	80.008	19.995	103.944	20.039	3.883	0.526
136.000	150.097	80.009	19.993	103.945	20.037	4.060	0.512
136.501	150.330	80.010	19.992	103.945	20.038	3.989	0.492
137.000	150.591	80.009	19.994	103.947	20.039	3.948	0.483
137.500	150.840	80.008	19.993	103.947	20.040	3.849	0.502
138.000	151.093	80.008	19.994	103.944	20.036	4.108	0.505
138.500	151.330	80.009	19.993	103.942	20.036	4.137	0.496
139.000	151.603	80.010	19.992	103.941	20.039	3.950	0.500
139.500	151.842	80.009	19.995	103.940	20.036	4.137	0.511
140.000	152.097	80.009	19.994	103.940	20.036	4.112	0.503
140.500	152.352	80.008	19.995	103.939	20.035	4.222	0.502
141.000	152.615	80.008	19.994	103.940	20.034	4.307	0.514
141.500	152.861	80.007	19.995	103.941	20.038	4.027	0.514
142.000	153.112	80.008	19.994	103.940	20.036	4.135	0.503
142.500	153.355	80.009	19.994	103.941	20.037	4.047	0.495
143.000	153.614	80.008	19.993	103.941	20.035	4.234	0.498
143.500	153.864	80.009	19.994	103.942	20.037	4.100	0.506
144.000	154.099	80.008	19.995	103.941	20.036	4.117	0.497
144.500	154.345	80.008	19.994	103.941	20.038	4.023	0.483
145.000	154.621	80.008	19.994	103.941	20.037	4.076	0.501
145.500	154.841	80.008	19.994	103.941	20.038	4.031	0.509
146.000	155.132	80.008	19.994	103.940	20.034	4.283	0.503
146.500	155.359	80.007	19.995	103.940	20.038	3.960	0.514
147.000	155.630	80.007	19.995	103.940	20.039	3.930	0.508
147.500	155.880	80.008	19.994	103.938	20.041	3.747	0.510
148.000	156.150	80.007	19.993	103.938	20.040	3.848	0.521
148.500	156.361	80.007	19.995	103.938	20.039	3.899	0.501
149.000	156.652	80.007	19.994	103.938	20.037	4.072	0.492
149.500	156.901	80.007	19.994	103.938	20.039	3.952	0.521
150.000	157.163	80.008	19.995	103.938	20.040	3.873	0.525
150.500	157.412	80.009	19.993	103.938	20.036	4.181	0.511
151.000	157.658	80.008	19.994	103.939	20.039	3.930	0.503
151.500	157.932	80.009	19.993	103.939	20.037	4.041	0.508
152.000	158.193	80.007	19.994	103.939	20.038	3.994	0.527
152.500	158.441	80.006	19.995	103.938	20.041	3.749	0.522
153.000	158.655	80.008	19.995	103.938	20.041	3.805	0.486
153.500	158.935	80.008	19.996	103.938	20.041	3.783	0.478
154.000	159.175	80.008	19.994	103.938	20.040	3.812	0.507
154.500	159.441	80.008	19.995	103.939	20.044	3.570	0.513
155.000	159.675	80.008	19.994	103.941	20.043	3.647	0.503
155.500	159.945	80.009	19.994	103.941	20.040	3.840	0.502
156.000	160.202	80.009	19.995	103.941	20.042	3.694	0.516
156.500	160.453	80.008	19.995	103.941	20.037	4.047	0.517
157.000	160.706	80.008	19.993	103.940	20.038	4.019	0.506
157.500	160.974	80.008	19.994	103.940	20.039	3.926	0.512
158.000	161.233	80.009	19.994	103.940	20.036	4.151	0.524
158.500	161.483	80.009	19.994	103.940	20.040	3.851	0.518
159.000	161.749	80.010	19.994	103.935	20.037	4.043	0.513
159.500	162.012	80.008	19.994	103.934	20.039	3.924	0.522
160.000	162.267	80.008	19.994	103.933	20.038	4.003	0.523
160.500	162.538	80.009	19.995	103.933	20.038	4.012	0.522
161.000	162.777	80.009	19.993	103.933	20.041	3.775	0.518
161.500	163.022	80.011	19.994	103.937	20.043	3.610	0.498
162.000	163.296	80.009	19.993	103.939	20.038	3.957	0.502
162.500	163.568	80.009	19.994	103.933	20.042	3.659	0.532
163.000	163.828	80.010	19.993	103.931	20.038	3.957	0.539
163.501	164.056	80.009	19.994	103.930	20.039	3.904	0.510
164.001	164.359	80.008	19.993	103.926	20.040	3.862	0.509
164.500	164.613	80.009	19.994	103.924	20.040	3.833	0.544
165.000	164.856	80.009	19.993	103.927	20.037	4.081	0.527
165.500	165.124	80.009	19.995	103.927	20.039	3.923	0.504
166.000	165.354	80.010	19.993	103.925	20.040	3.824	0.504
166.500	165.646	80.009	19.993	103.929	20.039	3.923	0.510
167.000	165.878	80.010	19.994	103.933	20.040	3.844	0.523
167.500	166.154	80.010	19.994	103.936	20.039	3.886	0.516
168.000	166.429	80.009	19.994	103.939	20.041	3.789	0.530
168.500	166.695	80.008	19.995	103.941	20.039	3.884	0.546
169.000	166.940	80.008	19.994	103.940	20.039	3.882	0.525
169.500	167.146	80.008	19.994	103.936	20.041	3.805	0.481
170.000	167.443	80.009	19.994	103.936	20.040	3.815	0.477
170.500	167.671	80.008	19.994	103.934	20.041	3.783	0.514
171.000	167.954	80.008	19.994	103.931	20.042	3.659	0.518
171.500	168.190	80.008	19.994	103.925	20.044	3.562	0.515
172.000	168.423	80.009	19.993	103.923	20.041	3.740	0.494
172.500	168.677	80.008	19.993	103.917	20.041	3.756	0.478
173.000	168.910	80.008	19.994	103.912	20.042	3.677	0.487
173.500	169.194	80.008	19.995	103.907	20.041	3.738	0.502
174.000	169.479	80.008	19.994	103.907	20.038	3.967	0.543
174.500	169.691	80.008	19.993	103.907	20.040	3.866	0.533
175.000	169.982	80.008	19.994	103.909	20.039	3.902	0.500
175.500	170.258	80.009	19.993	103.915	20.040	3.821	0.535
176.000	170.538	80.009	19.995	103.919	20.042	3.693	0.562
176.500	170.784	80.010	19.995	103.922	20.039	3.894	0.541
177.000	171.040	80.007	19.995	103.925	20.041	3.768	0.514
177.500	171.252	80.008	19.994	103.926	20.042	3.722	0.485
178.000	171.534	80.009	19.994	103.921	20.041	3.778	0.481
178.500	171.784	80.009	19.994	103.917	20.044	3.575	0.513
179.000	172.027	80.009	19.993	103.918	20.042	3.707	0.512
179.500	172.301	80.008	19.993	103.915	20.040	3.861	0.504
180.000	172.534	80.009	19.995	103.916	20.043	3.590	0.512
180.500	172.810	80.009	19.994	103.919	20.038	3.975	0.508
181.000	173.066	80.009	19.994	103.919	20.037	4.034	0.521
181.500	173.276	80.010	19.992	103.918	20.042	3.703	0.499
182.000	173.574	80.009	19.993	103.922	20.040	3.837	0.487
182.500	173.796	80.010	19.994	103.917	20.041	3.782	0.513
183.000	174.093	80.010	19.993	103.914	20.040	3.821	0.519
183.500	174.325	80.010	19.992	103.916	20.041	3.756	0.524
184.000	174.608	80.010	19.993	103.913	20.039	3.918	0.522
184.500	174.859	80.010	19.992	103.910	20.042	3.725	0.525
185.000	175.081	80.012	19.992	103.913	20.039	3.940	0.504
185.500	175.348	80.010	19.994	103.914	20.040	3.813	0.481
186.000	175.633	80.011	19.994	103.913	20.046	3.431	0.521
186.500	175.861	80.010	19.993	103.913	20.038	3.997	0.532
187.000	176.119	80.009	19.993	103.911	20.040	3.825	0.499
187.500	176.365	80.012	19.993	103.908	20.037	4.060	0.495
188.000	176.628	80.011	19.993	103.905	20.039	3.947	0.507
188.500	176.856	80.012	19.994	103.905	20.041	3.742	0.500
189.000	177.133	80.011	19.993	103.905	20.040	3.859	0.497
189.500	177.363	80.011	19.992	103.904	20.041	3.750	0.506
190.000	177.608	80.013	19.992	103.904	20.040	3.831	0.491
190.500	177.877	80.011	19.994	103.903	20.040	3.851	0.495
191.000	178.158	80.012	19.993	103.902	20.039	3.900	0.532
191.500	178.399	80.013	19.992	103.902	20.041	3.744	0.536
192.000	178.631	80.012	19.991	103.901	20.041	3.762	0.498
192.500	178.927	80.011	19.994	103.900	20.040	3.841	0.501
193.000	179.174	80.011	19.993	103.901	20.042	3.693	0.535
193.500	179.388	80.011	19.993	103.900	20.038	3.993	0.502
194.000	179.698	80.011	19.993	103.900	20.039	3.947	0.493
194.500	179.903	80.011	19.994	103.900	20.039	3.928	0.520
195.000	180.159	80.009	19.995	103.900	20.041	3.736	0.488
195.500	180.387	80.010	19.991	103.900	20.038	3.983	0.472
196.000	180.636	80.011	19.994	103.899	20.040	3.865	0.480
196.500	180.888	80.010	19.994	103.899	20.041	3.762	0.489
197.000	181.185	80.010	19.992	103.900	20.040	3.839	0.525
197.500	181.434	80.010	19.993	103.900	20.041	3.796	0.547
198.000	181.661	80.009	19.995	103.899	20.043	3.646	0.511
198.500	181.917	80.008	19.993	103.899	20.037	4.050	0.480
199.000	182.147	80.008	19.994	103.899	20.040	3.839	0.484
199.500	182.411	80.008	19.994	103.899	20.042	3.701	0.490
200.000	182.677	80.009	19.994	103.899	20.041	3.788	0.512
200.500	182.919	80.009	19.994	103.899	20.042	3.699	0.520
201.000	183.135	80.009	19.994	103.900	20.041	3.778	0.483
201.500	183.375	80.008	19.994	103.900	20.041	3.736	0.457
202.000	183.645	80.008	19.994	103.900	20.043	3.592	0.483
202.500	183.858	80.008	19.993	103.901	20.041	3.788	0.496
203.000	184.147	80.009	19.994	103.902	20.041	3.740	0.492
203.500	184.377	80.009	19.994	103.902	20.044	3.516	0.511
204.000	184.645	80.008	19.995	103.902	20.042	3.670	0.508
204.500	184.898	80.007	19.994	103.902	20.044	3.530	0.510
205.000	185.141	80.009	19.995	103.902	20.041	3.772	0.509
205.500	185.397	80.009	19.994	103.902	20.045	3.466	0.497
206.000	185.637	80.009	19.994	103.900	20.043	3.642	0.497
206.501	185.908	80.009	19.994	103.900	20.043	3.596	0.504
207.001	186.199	80.009	19.994	103.900	20.041	3.805	0.537
207.500	186.418	80.009	19.994	103.900	20.045	3.500	0.536
208.000	186.678	80.009	19.994	103.900	20.043	3.604	0.494
208.500	186.899	80.008	19.994	103.901	20.045	3.494	0.480
209.000	187.172	80.009	19.993	103.901	20.044	3.547	0.488
209.500	187.438	80.009	19.994	103.901	20.039	3.894	0.516
210.000	187.657	80.009	19.994	103.901	20.041	3.792	0.512
210.500	187.889	80.010	19.994	103.902	20.044	3.512	0.468
211.000	188.194	80.010	19.994	103.901	20.045	3.460	0.494
211.500	188.431	80.009	19.993	103.902	20.043	3.624	0.540
212.000	188.642	80.009	19.993	103.902	20.041	3.766	0.495
212.500	188.897	80.008	19.991	103.902	20.042	3.658	0.457
213.000	189.198	80.009	19.994	103.902	20.041	3.743	0.511
213.500	189.424	80.009	19.995	103.901	20.043	3.618	0.542
214.000	189.633	80.010	19.994	103.900	20.041	3.735	0.481
214.500	189.905	80.009	19.995	103.896	20.041	3.754	0.458
215.000	190.152	80.007	19.994	103.896	20.045	3.494	0.500
215.500	190.410	80.009	19.994	103.896	20.044	3.514	0.512
216.000	190.661	80.009	19.994	103.895	20.045	3.484	0.507
216.500	190.905	80.010	19.995	103.897	20.044	3.518	0.502
217.000	191.128	80.010	19.995	103.902	20.045	3.466	0.481
217.500	191.403	80.011	19.993	103.902	20.045	3.439	0.483
218.000	191.645	80.010	19.994	103.902	20.043	3.654	0.508
218.500	191.927	80.009	19.994	103.902	20.044	3.512	0.520
219.000	192.119	80.009	19.992	103.900	20.043	3.595	0.499
219.500	192.396	80.009	19.995	103.899	20.043	3.627	0.471
220.000	192.614	80.009	19.993	103.899	20.044	3.565	0.482
220.500	192.882	80.008	19.993	103.899	20.046	3.396	0.491
221.000	193.133	80.009	19.994	103.900	20.045	3.457	0.502
221.500	193.353	80.009	19.992	103.901	20.046	3.421	0.495
222.000	193.615	80.010	19.993	103.900	20.045	3.441	0.477
222.500	193.846	80.009	19.992	103.898	20.046	3.362	0.488
223.000	194.084	80.010	19.993	103.897	20.045	3.468	0.481
223.500	194.385	80.009	19.993	103.894	20.047	3.329	0.504
224.000	194.583	80.009	19.994	103.891	20.048	3.277	0.519
224.500	194.828	80.009	19.993	103.893	20.047	3.301	0.471
225.000	195.069	80.010	19.992	103.895	20.049	3.197	0.464
225.500	195.342	80.010	19.993	103.897	20.050	3.088	0.500
226.000	195.542	80.008	19.993	103.900	20.049	3.165	0.494
226.500	195.792	80.008	19.993	103.902	20.048	3.246	0.462
227.000	196.056	80.008	19.993	103.902	20.049	3.149	0.482
227.500	196.300	80.008	19.992	103.901	20.048	3.260	0.511
228.000	196.559	80.008	19.993	103.901	20.049	3.179	0.505
228.500	196.799	80.009	19.993	103.899	20.046	3.370	0.500
229.000	197.055	80.009	19.992	103.897	20.046	3.431	0.497
229.500	197.289	80.008	19.993	103.894	20.049	3.139	0.493
230.000	197.542	80.008	19.993	103.887	20.049	3.167	0.488
230.500	197.787	80.008	19.993	103.884	20.048	3.263	0.492
231.000	198.025	80.008	19.994	103.887	20.045	3.484	0.491
231.500	198.272	80.008	19.993	103.889	20.049	3.171	0.484
232.000	198.493	80.009	19.992	103.893	20.046	3.372	0.477
232.500	198.796	80.008	19.995	103.900	20.049	3.181	0.496
233.000	198.973	80.008	19.994	103.902	20.049	3.165	0.502
233.500	199.269	80.008	19.994	103.899	20.048	3.244	0.477
234.000	199.486	80.009	19.994	103.896	20.049	3.183	0.493
234.500	199.731	80.008	19.994	103.892	20.048	3.220	0.488
235.000	199.951	80.009	19.994	103.888	20.047	3.321	0.464
235.500	200.205	80.009	19.993	103.883	20.045	3.476	0.469
236.000	200.468	80.009	19.994	103.882	20.045	3.460	0.495
236.500	200.708	80.009	19.994	103.882	20.045	3.455	0.510
237.000	200.957	80.008	19.994	103.883	20.046	3.360	0.496
237.500	201.200	80.009	19.994	103.887	20.048	3.256	0.491
238.000	201.445	80.008	19.996	103.891	20.044	3.552	0.490
238.500	201.706	80.008	19.995	103.892	20.045	3.479	0.497
239.000	201.901	80.009	19.995	103.895	20.045	3.439	0.481
239.500	202.179	80.010	19.993	103.892	20.046	3.419	0.465
240.000	202.389	80.008	19.993	103.891	20.046	3.394	0.480
240.500	202.654	80.009	19.995	103.893	20.045	3.504	0.481
241.000	202.931	80.008	19.994	103.894	20.049	3.185	0.509
241.500	203.094	80.010	19.994	103.893	20.048	3.242	0.491
242.000	203.344	80.010	19.993	103.899	20.047	3.355	0.426
242.500	203.625	80.009	19.994	103.900	20.048	3.246	0.472
243.000	203.832	80.010	19.994	103.897	20.046	3.392	0.509
243.500	204.093	80.010	19.993	103.896	20.047	3.353	0.478
244.000	204.375	80.011	19.993	103.895	20.045	3.445	0.505
244.500	204.594	80.010	19.996	103.891	20.045	3.479	0.522
245.000	204.821	80.009	19.994	103.891	20.045	3.453	0.474
245.500	205.032	80.009	19.994	103.893	20.046	3.378	0.442
246.000	205.309	80.009	19.992	103.894	20.046	3.376	0.463
246.500	205.526	80.010	19.992	103.896	20.042	3.715	0.491
247.000	205.794	80.011	19.993	103.900	20.043	3.627	0.489
247.500	206.045	80.011	19.993	103.897	20.045	3.435	0.502
248.000	206.258	80.009	19.994	103.893	20.046	3.416	0.492
248.500	206.545	80.009	19.994	103.887	20.046	3.374	0.482
249.000	206.778	80.010	19.993	103.886	20.047	3.341	0.510
249.500	206.972	80.010	19.995	103.886	20.046	3.424	0.473
250.000	207.170	80.011	19.994	103.887	20.046	3.431	0.409
250.500	207.480	80.010	19.994	103.892	20.046	3.406	0.450
251.000	207.700	80.010	19.992	103.891	20.043	3.613	0.520
251.500	207.958	80.010	19.993	103.887	20.045	3.445	0.504
252.000	208.170	80.010	19.994	103.885	20.047	3.335	0.474
252.500	208.442	80.010	19.994	103.883	20.045	3.499	0.476
253.000	208.668	80.010	19.994	103.878	20.046	3.412	0.491
253.500	208.895	80.010	19.995	103.881	20.047	3.351	0.476
254.000	209.152	80.010	19.994	103.883	20.045	3.446	0.468
254.500	209.399	80.009	19.995	103.879	20.045	3.455	0.494
255.000	209.608	80.010	19.993	103.879	20.049	3.193	0.480
255.500	209.914	80.010	19.993	103.881	20.045	3.481	0.485
256.000	210.131	80.011	19.993	103.882	20.048	3.237	0.519
256.500	210.355	80.010	19.993	103.880	20.047	3.315	0.482
257.000	210.598	80.009	19.995	103.883	20.046	3.366	0.454
257.500	210.863	80.010	19.994	103.884	20.047	3.354	0.488
258.000	211.112	80.010	19.994	103.881	20.047	3.307	0.511
258.500	211.353	80.011	19.995	103.878	20.048	3.246	0.502
259.000	211.602	80.009	19.995	103.879	20.050	3.114	0.490
259.500	211.799	80.011	19.993	103.880	20.048	3.264	0.468
260.000	212.073	80.010	19.995	103.880	20.049	3.163	0.458
260.500	212.255	80.010	19.995	103.882	20.047	3.349	0.463
261.000	212.542	80.010	19.995	103.881	20.052	2.970	0.462
261.500	212.724	80.010	19.995	103.880	20.050	3.114	0.469
262.000	212.980	80.010	19.995	103.880	20.045	3.463	0.454
262.500	213.233	80.009	19.995	103.876	20.046	3.416	0.474
263.000	213.499	80.010	19.994	103.875	20.046	3.364	0.514
263.500	213.799	80.011	19.994	103.874	20.045	3.485	0.542
264.000	213.977	80.010	19.995	103.873	20.044	3.518	0.522
264.500	214.238	80.010	19.994	103.872	20.044	3.538	0.459
265.000	214.482	80.010	19.995	103.872	20.045	3.487	0.472
265.500	214.747	80.010	19.996	103.870	20.047	3.323	0.507
266.000	214.934	80.011	19.993	103.869	20.045	3.467	0.481
266.500	215.181	80.011	19.994	103.868	20.048	3.213	0.443
267.000	215.451	80.011	19.995	103.869	20.046	3.418	0.476
267.500	215.678	80.010	19.996	103.875	20.048	3.233	0.507
268.000	215.934	80.009	19.995	103.882	20.047	3.288	0.490
268.500	216.141	80.011	19.995	103.888	20.049	3.201	0.473
269.000	216.399	80.011	19.995	103.894	20.048	3.211	0.464
269.500	216.657	80.012	19.994	103.893	20.047	3.293	0.490
270.000	216.898	80.011	19.994	103.887	20.048	3.260	0.508
270.500	217.107	80.011	19.993	103.886	20.046	3.398	0.475
271.000	217.375	80.010	19.993	103.885	20.046	3.364	0.463
271.500	217.613	80.012	19.994	103.881	20.047	3.342	0.491
272.000	217.908	80.011	19.993	103.880	20.044	3.557	0.519
272.500	218.119	80.010	19.994	103.881	20.045	3.475	0.519
273.000	218.358	80.010	19.994	103.879	20.042	3.668	0.478
273.500	218.597	80.011	19.995	103.880	20.047	3.346	0.464
274.000	218.841	80.013	19.994	103.881	20.045	3.451	0.481
274.500	219.074	80.012	19.994	103.883	20.048	3.252	0.480
275.000	219.317	80.012	19.994	103.879	20.047	3.342	0.477
275.500	219.566	80.011	19.994	103.875	20.045	3.492	0.484
276.000	219.794	80.011	19.994	103.875	20.045	3.488	0.484
276.500	220.017	80.011	19.994	103.873	20.043	3.624	0.464
277.000	220.275	80.010	19.994	103.870	20.047	3.289	0.466
277.500	220.493	80.010	19.995	103.873	20.048	3.230	0.479
278.000	220.744	80.009	19.994	103.875	20.044	3.516	0.472
278.500	220.999	80.010	19.995	103.868	20.049	3.163	0.487
279.000	221.240	80.009	19.993	103.868	20.048	3.230	0.501
279.501	221.470	80.010	19.994	103.872	20.047	3.323	0.484
280.000	221.724	80.010	19.993	103.874	20.047	3.291	0.477
280.500	221.974	80.010	19.992	103.880	20.048	3.242	0.493
281.000	222.249	80.009	19.994	103.884	20.047	3.352	0.514
281.500	222.508	80.010	19.992	103.886	20.048	3.278	0.530
282.000	222.735	80.009	19.995	103.889	20.047	3.333	0.510
282.500	222.982	80.011	19.992	103.890	20.049	3.148	0.480
283.000	223.221	80.011	19.993	103.887	20.049	3.167	0.480
283.500	223.486	80.010	19.993	103.887	20.049	3.201	0.495
284.000	223.743	80.010	19.993	103.891	20.050	3.070	0.514
284.500	223.986	80.010	19.994	103.891	20.047	3.339	0.511
285.000	224.212	80.009	19.993	103.889	20.049	3.187	0.484
285.500	224.400	80.009	19.993	103.888	20.049	3.203	0.441
286.000	224.719	80.009	19.993	103.888	20.048	3.224	0.461
286.500	224.966	80.009	19.993	103.890	20.048	3.266	0.536
287.000	225.202	80.007	19.994	103.889	20.047	3.329	0.525
287.500	225.452	80.008	19.994	103.889	20.047	3.352	0.484
288.000	225.718	80.008	19.994	103.891	20.047	3.311	0.501
288.500	225.955	80.008	19.993	103.893	20.047	3.307	0.510
289.000	226.193	80.008	19.993	103.889	20.046	3.416	0.489
289.500	226.436	80.008	19.994	103.888	20.044	3.579	0.478
290.000	226.691	80.009	19.992	103.891	20.047	3.323	0.490
290.500	226.909	80.009	19.994	103.892	20.046	3.425	0.486
291.000	227.169	80.008	19.994	103.889	20.047	3.301	0.475
291.500	227.469	80.008	19.993	103.890	20.048	3.262	0.519
292.000	227.695	80.009	19.994	103.887	20.049	3.171	0.543
292.500	227.944	80.010	19.993	103.882	20.045	3.492	0.500
293.000	228.202	80.011	19.994	103.881	20.047	3.313	0.491
293.500	228.440	80.009	19.994	103.877	20.048	3.211	0.502
294.000	228.731	80.009	19.993	103.879	20.049	3.191	0.513
294.500	228.969	80.009	19.994	103.881	20.048	3.282	0.529
295.000	229.223	80.011	19.993	103.884	20.046	3.378	0.511
295.500	229.484	80.009	19.993	103.883	20.046	3.378	0.504
296.000	229.715	80.009	19.993	103.882	20.052	2.966	0.503
296.500	229.985	80.009	19.992	103.879	20.049	3.195	0.497
297.000	230.265	80.010	19.992	103.879	20.049	3.155	0.526
297.500	230.466	80.009	19.994	103.880	20.048	3.281	0.515
298.000	230.729	80.009	19.993	103.883	20.050	3.104	0.472
298.500	230.983	80.009	19.994	103.886	20.050	3.064	0.491
299.000	231.205	80.009	19.993	103.887	20.048	3.218	0.496
299.500	231.486	80.008	19.993	103.887	20.048	3.211	0.489
300.000	231.715	80.010	19.993	103.885	20.046	3.384	0.507
300.500	231.958	80.009	19.994	103.882	20.047	3.301	0.491
301.000	232.214	80.009	19.994	103.883	20.046	3.378	0.485
301.500	232.457	80.011	19.992	103.883	20.046	3.407	0.499
302.000	232.681	80.010	19.994	103.884	20.048	3.271	0.483
302.500	232.956	80.008	19.994	103.886	20.047	3.323	0.483
303.000	233.171	80.009	19.993	103.886	20.045	3.459	0.495
303.500	233.466	80.008	19.995	103.884	20.047	3.315	0.500
304.000	233.702	80.009	19.994	103.884	20.044	3.512	0.520
304.501	233.943	80.009	19.992	103.882	20.049	3.192	0.504
305.000	234.224	80.008	19.993	103.882	20.046	3.411	0.500
305.500	234.475	80.008	19.992	103.882	20.047	3.299	0.527
306.000	234.708	80.008	19.994	103.883	20.047	3.348	0.508
306.500	234.966	80.008	19.994	103.885	20.048	3.283	0.487
307.000	235.240	80.009	19.993	103.888	20.048	3.218	0.511
307.500	235.452	80.009	19.995	103.889	20.045	3.441	0.509
308.000	235.754	80.009	19.992	103.892	20.046	3.402	0.500
308.500	235.964	80.008	19.993	103.894	20.046	3.372	0.513
309.000	236.209	80.009	19.995	103.890	20.047	3.303	0.484
309.500	236.471	80.008	19.994	103.888	20.048	3.212	0.481
310.000	236.754	80.009	19.994	103.885	20.045	3.486	0.526
310.500	236.971	80.007	19.993	103.882	20.047	3.313	0.522
311.000	237.221	80.010	19.993	103.882	20.046	3.402	0.484
311.500	237.450	80.008	19.993	103.887	20.047	3.329	0.474
312.000	237.754	80.008	19.993	103.890	20.047	3.317	0.506
312.500	238.003	80.007	19.992	103.890	20.046	3.367	0.543
313.000	238.253	80.007	19.995	103.889	20.045	3.493	0.526
313.500	238.496	80.008	19.994	103.889	20.047	3.325	0.496
314.000	238.721	80.008	19.993	103.889	20.047	3.285	0.480
314.500	238.947	80.009	19.993	103.889	20.049	3.208	0.459
315.000	239.230	80.007	19.993	103.891	20.047	3.315	0.480
315.500	239.467	80.009	19.993	103.897	20.045	3.435	0.514
316.000	239.699	80.009	19.993	103.900	20.048	3.236	0.494
316.500	239.955	80.009	19.994	103.898	20.048	3.262	0.479
317.000	240.177	80.008	19.993	103.893	20.047	3.284	0.483
317.500	240.464	80.009	19.993	103.889	20.050	3.114	0.493
318.000	240.735	80.009	19.993	103.885	20.051	3.023	0.534
318.500	240.944	80.009	19.994	103.885	20.047	3.329	0.519
319.000	241.178	80.009	19.995	103.887	20.048	3.276	0.461
319.500	241.435	80.009	19.994	103.892	20.047	3.323	0.467
320.000	241.691	80.009	19.996	103.898	20.051	3.006	0.502
320.500	241.955	80.009	19.993	103.899	20.047	3.349	0.516
321.001	242.191	80.009	19.993	103.895	20.049	3.201	0.510
321.501	242.459	80.009	19.995	103.888	20.048	3.260	0.502
322.000	242.704	80.009	19.994	103.880	20.048	3.213	0.509
322.500	242.970	80.009	19.993	103.872	20.048	3.260	0.512
323.001	243.193	80.011	19.994	103.868	20.050	3.116	0.500
323.500	243.479	80.010	19.995	103.867	20.050	3.074	0.498
324.000	243.693	80.009	19.994	103.872	20.046	3.372	0.505
324.500	243.967	80.011	19.993	103.880	20.046	3.412	0.494
325.000	244.194	80.011	19.995	103.887	20.045	3.433	0.495
325.500	244.460	80.010	19.993	103.893	20.044	3.554	0.497
326.000	244.719	80.010	19.994	103.898	20.048	3.238	0.509
326.500	244.951	80.011	19.995	103.896	20.047	3.308	0.508
327.000	245.206	80.009	19.993	103.888	20.046	3.396	0.489
327.500	245.463	80.010	19.995	103.885	20.045	3.453	0.499
328.000	245.728	80.010	19.994	103.881	20.046	3.410	0.517
328.500	245.962	80.009	19.993	103.882	20.044	3.561	0.510
329.000	246.196	80.010	19.994	103.880	20.047	3.313	0.484
329.500	246.504	80.011	19.994	103.880	20.047	3.297	0.505
330.000	246.701	80.009	19.993	103.878	20.047	3.321	0.524
330.500	246.974	80.009	19.993	103.876	20.045	3.475	0.488
331.000	247.223	80.009	19.994	103.870	20.047	3.341	0.496
331.500	247.457	80.009	19.994	103.867	20.046	3.374	0.502
332.000	247.707	80.009	19.993	103.870	20.045	3.496	0.483
332.500	247.945	80.009	19.995	103.875	20.047	3.297	0.486
333.000	248.218	80.009	19.996	103.876	20.045	3.439	0.500
333.500	248.452	80.010	19.994	103.880	20.044	3.566	0.509
334.000	248.732	80.009	19.995	103.887	20.046	3.369	0.511
334.500	248.963	80.010	19.993	103.891	20.047	3.345	0.512
335.000	249.241	80.009	19.994	103.888	20.045	3.491	0.510
335.500	249.510	80.009	19.995	103.886	20.045	3.471	0.528
336.000	249.764	80.009	19.994	103.885	20.046	3.392	0.535
336.500	249.998	80.010	19.993	103.879	20.048	3.280	0.506
337.000	250.274	80.010	19.994	103.871	20.044	3.554	0.499
337.500	250.532	80.009	19.995	103.869	20.048	3.221	0.522
338.000	250.770	80.010	19.994	103.873	20.046	3.402	0.515
338.500	251.031	80.009	19.993	103.876	20.047	3.284	0.497
339.000	251.261	80.009	19.994	103.882	20.046	3.398	0.495
339.500	251.534	80.008	19.993	103.888	20.045	3.447	0.497
340.001	251.811	80.010	19.994	103.888	20.045	3.467	0.526
340.500	252.012	80.010	19.994	103.883	20.047	3.298	0.514
341.000	252.323	80.009	19.995	103.879	20.046	3.369	0.495
341.500	252.496	80.008	19.994	103.877	20.048	3.249	0.498
342.000	252.794	80.010	19.994	103.875	20.046	3.422	0.478
342.500	253.042	80.009	19.994	103.880	20.048	3.254	0.509
343.000	253.287	80.009	19.995	103.883	20.045	3.471	0.519
343.500	253.483	80.010	19.994	103.882	20.047	3.339	0.467
344.000	253.783	80.010	19.995	103.879	20.045	3.469	0.469
344.500	254.014	80.011	19.993	103.875	20.043	3.605	0.513
345.000	254.259	80.009	19.994	103.871	20.045	3.495	0.504
345.500	254.539	80.008	19.993	103.870	20.043	3.653	0.501
346.000	254.781	80.010	19.993	103.872	20.044	3.513	0.523
346.500	255.069	80.009	19.994	103.873	20.048	3.266	0.526
347.000	255.271	80.010	19.994	103.875	20.045	3.499	0.510
347.500	255.528	80.010	19.993	103.876	20.047	3.298	0.475
348.000	255.831	80.011	19.993	103.872	20.048	3.280	0.510
348.500	256.088	80.010	19.993	103.875	20.044	3.550	0.560
349.000	256.288	80.010	19.994	103.877	20.045	3.501	0.508
349.500	256.513	80.012	19.993	103.880	20.045	3.493	0.441
350.000	256.775	80.011	19.994	103.880	20.043	3.602	0.456
350.500	257.032	80.009	19.995	103.879	20.044	3.525	0.503
351.000	257.297	80.011	19.993	103.874	20.046	3.388	0.520
351.500	257.589	80.010	19.994	103.870	20.044	3.515	0.539
352.000	257.853	80.010	19.993	103.865	20.046	3.383	0.557
352.500	258.041	80.012	19.993	103.862	20.044	3.529	0.504
353.000	258.321	80.010	19.993	103.863	20.044	3.513	0.460
353.500	258.581	80.012	19.992	103.865	20.045	3.454	0.504
354.000	258.844	80.009	19.995	103.867	20.044	3.513	0.532
354.500	259.116	80.010	19.994	103.872	20.047	3.296	0.529
355.000	259.308	80.009	19.994	103.873	20.045	3.479	0.500
355.500	259.605	80.010	19.995	103.872	20.041	3.781	0.476
356.000	259.846	80.009	19.994	103.870	20.046	3.428	0.513
356.500	260.136	80.010	19.994	103.869	20.043	3.594	0.535
357.000	260.332	80.010	19.994	103.864	20.042	3.661	0.509
357.500	260.591	80.009	19.994	103.863	20.042	3.690	0.470
358.000	260.828	80.010	19.994	103.863	20.042	3.667	0.475
358.500	261.041	80.008	19.993	103.863	20.043	3.623	0.473
359.000	261.328	80.008	19.994	103.863	20.049	3.166	0.475
359.500	261.555	80.008	19.994	103.864	20.046	3.416	0.507
360.001	261.827	80.008	19.994	103.865	20.043	3.592	0.507
360.500	262.085	80.008	19.994	103.865	20.043	3.617	0.515
361.000	262.313	80.008	19.994	103.867	20.042	3.669	0.508
361.500	262.606	80.006	19.994	103.867	20.043	3.613	0.503
362.000	262.795	80.007	19.994	103.868	20.042	3.669	0.501
362.500	263.084	80.007	19.994	103.868	20.044	3.529	0.480
363.000	263.343	80.007	19.994	103.868	20.044	3.576	0.513
363.500	263.580	80.006	19.994	103.866	20.042	3.674	0.522
364.000	263.846	80.006	19.995	103.865	20.042	3.714	0.500
364.500	264.088	80.006	19.994	103.864	20.040	3.840	0.505
365.000	264.331	80.008	19.994	103.864	20.044	3.570	0.497
365.500	264.621	80.006	19.995	103.863	20.042	3.714	0.510
366.000	264.803	80.007	19.994	103.863	20.042	3.686	0.503
366.500	265.079	80.007	19.994	103.862	20.043	3.596	0.465
367.000	265.317	80.006	19.996	103.863	20.044	3.548	0.486
367.500	265.555	80.006	19.995	103.863	20.043	3.584	0.495
368.000	265.842	80.008	19.994	103.864	20.044	3.531	0.500
368.500	266.089	80.008	19.994	103.865	20.044	3.523	0.530
369.000	266.287	80.006	19.995	103.865	20.043	3.621	0.490
369.500	266.538	80.007	19.995	103.865	20.045	3.495	0.447
370.000	266.781	80.007	19.994	103.865	20.043	3.641	0.471
370.500	267.049	80.008	19.993	103.867	20.042	3.730	0.502
371.000	267.286	80.007	19.994	103.868	20.042	3.730	0.508
371.501	267.528	80.007	19.994	103.868	20.043	3.623	0.493
372.000	267.804	80.006	19.994	103.868	20.040	3.866	0.499
372.500	268.029	80.007	19.994	103.868	20.044	3.572	0.509
373.000	268.282	80.009	19.993	103.866	20.042	3.728	0.489
373.500	268.532	80.007	19.994	103.865	20.042	3.726	0.491
374.000	268.764	80.007	19.993	103.868	20.043	3.602	0.493
374.500	269.041	80.008	19.993	103.869	20.041	3.740	0.495
375.000	269.248	80.008	19.993	103.869	20.042	3.710	0.496
375.500	269.511	80.008	19.993	103.869	20.043	3.625	0.477
376.000	269.747	80.007	19.994	103.869	20.040	3.878	0.485
376.500	270.035	80.009	19.994	103.867	20.042	3.706	0.512
377.000	270.301	80.009	19.993	103.866	20.040	3.876	0.539
377.500	270.536	80.009	19.993	103.866	20.041	3.803	0.528
378.000	270.766	80.008	19.993	103.866	20.040	3.844	0.483
378.500	271.013	80.008	19.995	103.866	20.040	3.817	0.471
379.000	271.317	80.008	19.993	103.867	20.042	3.726	0.514
379.500	271.548	80.008	19.994	103.866	20.043	3.602	0.543
380.000	271.797	80.008	19.993	103.867	20.041	3.757	0.507
380.500	272.027	80.007	19.993	103.867	20.040	3.852	0.479
381.000	272.311	80.007	19.994	103.868	20.041	3.785	0.496
381.500	272.565	80.008	19.995	103.868	20.042	3.716	0.526
382.000	272.766	80.008	19.993	103.868	20.041	3.755	0.497
382.500	273.027	80.009	19.994	103.867	20.043	3.602	0.458
383.000	273.265	80.008	19.993	103.866	20.040	3.830	0.480
383.500	273.501	80.008	19.994	103.865	20.044	3.576	0.486
384.000	273.776	80.008	19.994	103.864	20.041	3.744	0.493
384.500	274.015	80.008	19.993	103.864	20.039	3.921	0.513
385.000	274.254	80.008	19.994	103.864	20.039	3.911	0.496
385.500	274.483	80.008	19.994	103.864	20.041	3.769	0.473
386.000	274.723	80.008	19.994	103.864	20.040	3.842	0.469
386.501	274.968	80.008	19.994	103.864	20.043	3.645	0.477
387.000	275.235	80.007	19.993	103.864	20.043	3.637	0.498
387.500	275.476	80.009	19.994	103.863	20.040	3.842	0.510
388.000	275.760	80.009	19.993	103.863	20.044	3.521	0.517
388.500	275.997	80.008	19.994	103.863	20.040	3.813	0.523
389.000	276.248	80.009	19.994	103.863	20.045	3.452	0.505
389.500	276.481	80.007	19.994	103.865	20.044	3.546	0.486
390.000	276.724	80.009	19.994	103.866	20.046	3.379	0.480
390.500	276.983	80.009	19.993	103.866	20.047	3.294	0.489
391.000	277.233	80.007	19.994	103.866	20.049	3.180	0.505
391.500	277.474	80.008	19.993	103.866	20.047	3.335	0.499
392.000	277.685	80.008	19.994	103.865	20.046	3.418	0.472
392.500	277.944	80.005	19.994	103.863	20.047	3.298	0.462
393.000	278.195	80.008	19.996	103.864	20.044	3.533	0.490
393.500	278.433	80.009	19.996	103.864	20.044	3.574	0.499
394.000	278.716	80.008	19.995	103.864	20.044	3.570	0.505
394.500	278.947	80.008	19.995	103.863	20.042	3.700	0.518
395.000	279.163	80.007	19.995	103.863	20.043	3.611	0.481
395.500	279.458	80.007	19.995	103.863	20.045	3.471	0.479
396.000	279.655	80.007	19.996	103.863	20.048	3.282	0.502
396.500	279.968	80.008	19.995	103.865	20.047	3.337	0.502
397.000	280.216	80.008	19.995	103.868	20.050	3.107	0.536
397.500	280.449	80.007	19.994	103.868	20.047	3.292	0.521
398.000	280.669	80.009	19.994	103.869	20.044	3.578	0.467
398.500	280.872	80.008	19.993	103.869	20.041	3.789	0.438
399.000	281.133	80.009	19.995	103.866	20.046	3.395	0.444
399.500	281.393	80.009	19.994	103.864	20.045	3.493	0.492
400.000	281.682	80.008	19.995	103.864	20.045	3.452	0.535
400.500	281.881	80.008	19.994	103.863	20.044	3.556	0.519
401.000	282.166	80.008	19.993	103.863	20.044	3.538	0.486
401.500	282.407	80.008	19.994	103.863	20.048	3.213	0.505
402.000	282.678	80.009	19.994	103.863	20.043	3.608	0.519
402.500	282.920	80.010	19.995	103.863	20.043	3.613	0.512
403.000	283.183	80.009	19.995	103.863	20.045	3.489	0.508
403.500	283.429	80.009	19.993	103.864	20.043	3.641	0.507
404.000	283.652	80.009	19.994	103.864	20.044	3.513	0.489
404.500	283.937	80.010	19.994	103.864	20.042	3.706	0.488
405.000	284.184	80.010	19.994	103.864	20.040	3.846	0.520
405.500	284.437	80.010	19.995	103.864	20.041	3.771	0.516
406.000	284.647	80.010	19.994	103.864	20.042	3.665	0.481
406.500	284.907	80.009	19.994	103.864	20.040	3.805	0.467
407.000	285.161	80.010	19.995	103.864	20.043	3.647	0.493
407.500	285.408	80.009	19.994	103.863	20.044	3.566	0.508
408.000	285.629	80.009	19.993	103.863	20.045	3.497	0.484
408.500	285.943	80.010	19.994	103.862	20.043	3.596	0.501
409.000	286.168	80.011	19.994	103.862	20.042	3.688	0.537
409.500	286.378	80.010	19.994	103.862	20.041	3.775	0.487
410.000	286.690	80.011	19.993	103.863	20.042	3.682	0.478
410.500	286.875	80.010	19.994	103.865	20.042	3.722	0.509
411.000	287.157	80.010	19.993	103.865	20.045	3.462	0.482
411.500	287.415	80.010	19.993	103.866	20.042	3.716	0.504
412.000	287.688	80.010	19.994	103.867	20.042	3.714	0.536
412.500	287.897	80.009	19.993	103.866	20.038	3.955	0.507
413.000	288.187	80.011	19.993	103.865	20.041	3.748	0.490
413.500	288.369	80.011	19.993	103.865	20.038	4.012	0.486
414.000	288.618	80.010	19.993	103.864	20.041	3.781	0.451
414.500	288.927	80.011	19.992	103.862	20.040	3.858	0.494
415.000	289.145	80.009	19.994	103.862	20.040	3.834	0.543
415.500	289.401	80.010	19.993	103.863	20.041	3.767	0.501
416.000	289.609	80.009	19.993	103.864	20.043	3.655	0.469
416.500	289.855	80.010	19.994	103.864	20.038	3.974	0.459
417.000	290.136	80.010	19.993	103.864	20.042	3.661	0.491
417.500	290.364	80.010	19.993	103.865	20.041	3.759	0.518
418.000	290.619	80.009	19.993	103.865	20.038	3.972	0.496
418.500	290.886	80.010	19.993	103.864	20.038	3.968	0.503
419.000	291.116	80.009	19.993	103.864	20.040	3.870	0.509
419.500	291.380	80.010	19.993	103.866	20.036	4.124	0.496
420.000	291.654	80.009	19.993	103.865	20.040	3.834	0.516
420.500	291.884	80.010	19.993	103.865	20.040	3.876	0.521
421.000	292.143	80.008	19.993	103.865	20.042	3.710	0.497
421.500	292.359	80.009	19.995	103.865	20.042	3.698	0.482
422.000	292.642	80.009	19.994	103.864	20.038	4.012	0.487
422.500	292.880	80.009	19.993	103.864	20.039	3.937	0.510
423.000	293.143	80.009	19.993	103.864	20.041	3.803	0.511
423.500	293.358	80.008	19.993	103.864	20.039	3.905	0.489
424.000	293.597	80.008	19.995	103.864	20.039	3.898	0.465
424.500	293.910	80.008	19.994	103.865	20.040	3.852	0.503
425.000	294.127	80.008	19.994	103.866	20.043	3.610	0.542
425.500	294.389	80.008	19.995	103.867	20.039	3.886	0.505
426.000	294.630	80.009	19.994	103.867	20.041	3.736	0.491
426.500	294.863	80.009	19.994	103.867	20.041	3.763	0.488
427.000	295.111	80.009	19.994	103.866	20.040	3.830	0.477
427.500	295.343	80.009	19.994	103.866	20.038	4.018	0.481
428.000	295.617	80.009	19.994	103.866	20.039	3.884	0.493
428.500	295.899	80.009	19.994	103.867	20.039	3.882	0.531
429.000	296.145	80.008	19.993	103.866	20.038	4.024	0.542
429.500	296.421	80.009	19.993	103.866	20.039	3.884	0.525
430.000	296.627	80.010	19.993	103.865	20.039	3.929	0.502
430.500	296.869	80.011	19.994	103.863	20.038	3.970	0.465
431.000	297.137	80.008	19.994	103.861	20.039	3.905	0.479
431.500	297.377	80.011	19.993	103.862	20.039	3.927	0.509
432.000	297.621	80.012	19.994	103.862	20.039	3.931	0.496
432.500	297.850	80.011	19.994	103.864	20.038	3.980	0.479
433.000	298.107	80.010	19.992	103.864	20.039	3.927	0.480
433.500	298.409	80.009	19.993	103.864	20.039	3.917	0.522
434.000	298.677	80.010	19.992	103.864	20.035	4.201	0.565
434.500	298.907	80.010	19.994	103.863	20.035	4.183	0.535
435.000	299.166	80.010	19.993	103.863	20.036	4.144	0.494
435.500	299.430	80.010	19.993	103.864	20.037	4.079	0.506
436.000	299.651	80.010	19.993	103.864	20.034	4.270	0.504
436.500	299.858	80.010	19.994	103.863	20.038	4.000	0.457
437.000	300.169	80.010	19.994	103.863	20.037	4.069	0.473
437.500	300.444	80.010	19.993	103.863	20.037	4.069	0.552
438.000	300.668	80.009	19.993	103.862	20.038	3.974	0.542
438.500	300.909	80.009	19.994	103.864	20.037	4.091	0.482
439.000	301.186	80.010	19.993	103.865	20.037	4.065	0.492
439.500	301.412	80.010	19.993	103.868	20.036	4.126	0.511
440.000	301.694	80.009	19.994	103.869	20.039	3.917	0.506
440.500	301.902	80.008	19.992	103.868	20.036	4.138	0.499
441.000	302.176	80.009	19.994	103.867	20.039	3.913	0.486
441.500	302.415	80.008	19.994	103.866	20.038	4.020	0.497
442.001	302.658	80.008	19.994	103.864	20.038	3.967	0.497
442.500	302.930	80.007	19.994	103.864	20.037	4.089	0.498
443.000	303.178	80.008	19.993	103.864	20.037	4.036	0.518
443.500	303.426	80.008	19.994	103.865	20.036	4.136	0.508
444.000	303.704	80.007	19.993	103.865	20.033	4.398	0.511
444.500	303.948	80.007	19.993	103.865	20.039	3.945	0.524
445.000	304.214	80.008	19.993	103.865	20.036	4.158	0.516
445.500	304.432	80.007	19.993	103.865	20.037	4.036	0.497
446.000	304.681	80.007	19.993	103.864	20.036	4.115	0.476
446.500	304.946	80.008	19.994	103.866	20.033	4.351	0.491
447.000	305.217	80.009	19.993	103.866	20.035	4.209	0.525
447.500	305.447	80.007	19.993	103.867	20.035	4.247	0.519
448.000	305.653	80.007	19.994	103.867	20.035	4.233	0.468
448.500	305.926	80.007	19.995	103.867	20.036	4.160	0.457
449.000	306.165	80.007	19.993	103.865	20.038	4.018	0.496
449.500	306.472	80.007	19.993	103.864	20.035	4.225	0.529
450.000	306.684	80.008	19.994	103.863	20.033	4.338	0.532
450.500	306.957	80.007	19.994	103.862	20.034	4.255	0.502
451.000	307.221	80.007	19.995	103.861	20.032	4.426	0.511
451.500	307.461	80.008	19.994	103.860	20.035	4.215	0.520
452.000	307.740	80.007	19.994	103.860	20.030	4.606	0.512
452.500	307.979	80.007	19.994	103.860	20.030	4.568	0.519
453.000	308.254	80.008	19.995	103.861	20.032	4.450	0.516
453.500	308.481	80.007	19.995	103.862	20.031	4.547	0.508
454.000	308.716	80.007	19.994	103.863	20.030	4.562	0.483
454.500	309.008	80.007	19.995	103.864	20.032	4.418	0.495
455.000	309.259	80.007	19.994	103.864	20.032	4.420	0.534
455.500	309.521	80.007	19.995	103.864	20.035	4.225	0.527
456.000	309.752	80.008	19.996	103.862	20.033	4.355	0.503
456.500	310.027	80.007	19.995	103.862	20.034	4.304	0.500
457.000	310.243	80.008	19.995	103.861	20.032	4.407	0.499
457.500	310.522	80.007	19.995	103.861	20.031	4.535	0.493
458.000	310.769	80.008	19.994	103.859	20.035	4.239	0.511
458.500	311.028	80.007	19.995	103.860	20.029	4.641	0.516
459.000	311.261	80.009	19.994	103.860	20.028	4.722	0.499
459.500	311.516	80.008	19.993	103.860	20.030	4.600	0.490
460.000	311.778	80.008	19.994	103.859	20.031	4.527	0.503
460.500	312.048	80.008	19.994	103.857	20.031	4.543	0.525
461.000	312.302	80.008	19.995	103.856	20.028	4.712	0.528
461.500	312.579	80.008	19.995	103.857	20.031	4.548	0.527
462.000	312.838	80.007	19.995	103.857	20.030	4.612	0.534
462.500	313.089	80.008	19.995	103.857	20.032	4.403	0.523
463.000	313.349	80.008	19.994	103.860	20.031	4.519	0.510
463.500	313.595	80.008	19.994	103.860	20.032	4.440	0.508
464.000	313.866	80.008	19.994	103.860	20.031	4.480	0.511
464.500	314.069	80.008	19.995	103.860	20.031	4.515	0.496
465.000	314.346	80.007	19.994	103.860	20.030	4.558	0.477
465.500	314.591	80.008	19.994	103.860	20.030	4.625	0.501
466.000	314.876	80.007	19.994	103.860	20.032	4.440	0.526
466.500	315.122	80.008	19.994	103.860	20.031	4.511	0.531
467.000	315.330	80.009	19.995	103.861	20.032	4.473	0.492
467.500	315.584	80.009	19.993	103.860	20.033	4.397	0.458
468.000	315.851	80.008	19.994	103.860	20.034	4.272	0.492
468.501	316.112	80.009	19.994	103.861	20.031	4.546	0.525
469.000	316.373	80.009	19.995	103.861	20.033	4.397	0.525
469.500	316.607	80.009	19.994	103.860	20.029	4.653	0.508
470.000	316.856	80.007	19.995	103.861	20.030	4.574	0.489
470.500	317.109	80.009	19.992	103.862	20.030	4.600	0.493
471.000	317.386	80.009	19.994	103.862	20.032	4.405	0.516
471.500	317.610	80.009	19.993	103.863	20.030	4.616	0.515
472.000	317.878	80.009	19.993	103.863	20.031	4.501	0.496
472.500	318.109	80.008	19.995	103.863	20.032	4.456	0.495
473.000	318.355	80.009	19.994	103.861	20.028	4.738	0.488
473.500	318.644	80.007	19.994	103.858	20.029	4.657	0.506
474.000	318.834	80.008	19.993	103.858	20.030	4.582	0.507
474.500	319.131	80.007	19.994	103.858	20.026	4.884	0.483
475.000	319.359	80.007	19.994	103.858	20.030	4.574	0.506
475.500	319.622	80.007	19.995	103.858	20.030	4.623	0.508
476.000	319.853	80.007	19.994	103.861	20.031	4.535	0.493
476.500	320.152	80.008	19.994	103.862	20.030	4.623	0.512
477.000	320.425	80.008	19.993	103.862	20.030	4.590	0.551
477.500	320.632	80.007	19.994	103.862	20.029	4.689	0.526
478.000	320.903	80.008	19.993	103.863	20.029	4.679	0.479
478.500	321.146	80.008	19.993	103.863	20.028	4.748	0.497
479.000	321.412	80.007	19.993	103.862	20.028	4.736	0.512
479.500	321.666	80.007	19.994	103.863	20.028	4.760	0.514
480.000	321.946	80.008	19.994	103.862	20.029	4.663	0.527
480.500	322.179	80.008	19.994	103.861	20.028	4.752	0.524
481.000	322.408	80.008	19.994	103.859	20.027	4.778	0.487
481.500	322.721	80.008	19.993	103.858	20.025	4.945	0.502
482.000	322.948	80.008	19.993	103.858	20.026	4.921	0.541
482.500	323.165	80.008	19.993	103.859	20.028	4.760	0.492
483.000	323.433	80.009	19.993	103.861	20.027	4.785	0.465
483.500	323.703	80.009	19.993	103.863	20.028	4.756	0.511
484.000	323.956	80.009	19.994	103.864	20.029	4.663	0.530
484.500	324.224	80.008	19.993	103.864	20.029	4.647	0.522
485.000	324.429	80.009	19.992	103.864	20.030	4.582	0.497
485.500	324.714	80.009	19.993	103.864	20.029	4.659	0.482
486.000	324.973	80.009	19.994	103.863	20.026	4.854	0.517
486.500	325.206	80.010	19.994	103.864	20.028	4.750	0.518
487.000	325.478	80.010	19.993	103.863	20.028	4.728	0.498
487.500	325.732	80.010	19.992	103.862	20.026	4.892	0.516
488.000	325.973	80.010	19.994	103.861	20.026	4.882	0.511
488.500	326.193	80.009	19.993	103.860	20.027	4.819	0.478
489.000	326.469	80.011	19.994	103.860	20.026	4.909	0.479
489.500	326.739	80.009	19.993	103.861	20.027	4.793	0.521
490.000	327.005	80.010	19.994	103.862	20.026	4.874	0.541
490.500	327.220	80.011	19.994	103.859	20.026	4.919	0.508
491.000	327.490	80.010	19.993	103.857	20.024	5.014	0.483
491.500	327.742	80.010	19.993	103.854	20.025	4.990	0.503
492.000	327.949	80.010	19.994	103.853	20.025	4.939	0.490
492.500	328.244	80.010	19.993	103.853	20.026	4.925	0.481
493.000	328.501	80.010	19.994	103.857	20.026	4.852	0.528
493.500	328.710	80.009	19.994	103.861	20.028	4.704	0.509
494.000	328.987	80.009	19.994	103.864	20.027	4.840	0.476
494.500	329.251	80.010	19.994	103.862	20.025	4.947	0.514
495.000	329.527	80.011	19.993	103.862	20.025	4.990	0.541
495.500	329.765	80.010	19.994	103.861	20.022	5.154	0.526
496.000	330.018	80.009	19.995	103.861	20.028	4.714	0.502
496.500	330.264	80.010	19.994	103.860	20.022	5.177	0.495
497.000	330.488	80.009	19.993	103.862	20.025	4.982	0.484
497.500	330.766	80.010	19.993	103.862	20.020	5.308	0.486
498.000	331.007	80.009	19.994	103.861	20.023	5.083	0.510
498.500	331.276	80.009	19.993	103.861	20.020	5.312	0.515
499.000	331.510	80.010	19.994	103.861	20.024	5.047	0.507
499.500	331.790	80.009	19.994	103.862	20.025	4.982	0.508
500.001	332.033	80.009	19.993	103.861	20.022	5.158	0.518
500.500	332.304	80.008	19.992	103.863	20.023	5.140	0.519
501.000	332.541	80.009	19.993	103.863	20.025	4.937	0.511
501.500	332.841	80.008	19.994	103.862	20.025	4.984	0.522
502.000	333.055	80.009	19.994	103.862	20.023	5.077	0.525
502.500	333.322	80.009	19.994	103.861	20.022	5.152	0.498
503.000	333.543	80.008	19.993	103.861	20.022	5.156	0.485
503.500	333.813	80.009	19.992	103.861	20.024	5.061	0.490
504.000	334.077	80.009	19.994	103.862	20.023	5.142	0.512
504.500	334.325	80.008	19.994	103.863	20.026	4.890	0.523
505.000	334.594	80.008	19.993	103.863	20.023	5.085	0.515
505.500	334.849	80.008	19.994	103.864	20.024	5.010	0.521
506.000	335.118	80.009	19.993	103.865	20.020	5.345	0.524
506.500	335.372	80.010	19.992	103.866	20.022	5.170	0.523
507.000	335.655	80.008	19.994	103.866	20.022	5.209	0.530
507.500	335.871	80.009	19.993	103.866	20.023	5.101	0.517
508.000	336.144	80.009	19.993	103.866	20.022	5.190	0.494
508.500	336.347	80.010	19.993	103.866	20.019	5.379	0.483
509.000	336.598	80.009	19.993	103.866	20.022	5.172	0.465
509.500	336.841	80.011	19.992	103.866	20.020	5.306	0.474
510.000	337.132	80.011	19.993	103.865	20.020	5.326	0.514
510.500	337.377	80.011	19.994	103.865	20.019	5.387	0.535
511.000	337.623	80.010	19.993	103.865	20.018	5.468	0.513
511.500	337.871	80.011	19.992	103.864	20.016	5.612	0.493
512.000	338.148	80.011	19.992	103.864	20.018	5.503	0.510
512.500	338.405	80.012	19.993	103.864	20.016	5.653	0.529
513.000	338.678	80.012	19.994	103.864	20.014	5.769	0.532
513.500	338.901	80.011	19.994	103.864	20.015	5.730	0.513
514.000	339.113	80.011	19.994	103.864	20.015	5.675	0.466
514.500	339.437	80.011	19.994	103.864	20.014	5.787	0.486
515.000	339.700	80.010	19.993	103.863	20.018	5.495	0.562
515.500	339.937	80.011	19.993	103.862	20.016	5.661	0.544
516.000	340.180	80.012	19.993	103.861	20.015	5.724	0.490
516.500	340.457	80.012	19.994	103.861	20.017	5.547	0.500
517.000	340.686	80.011	19.994	103.860	20.014	5.803	0.513
517.500	340.971	80.011	19.994	103.860	20.015	5.712	0.510
518.000	341.252	80.011	19.994	103.861	20.013	5.886	0.540
518.500	341.449	80.010	19.994	103.861	20.012	5.913	0.522
519.000	341.736	80.011	19.993	103.860	20.013	5.844	0.481
519.500	341.979	80.011	19.993	103.861	20.012	5.919	0.507
520.000	342.235	80.011	19.993	103.861	20.013	5.821	0.515
520.500	342.481	80.011	19.994	103.862	20.013	5.864	0.501
521.000	342.736	80.012	19.994	103.862	20.013	5.892	0.501
521.500	342.980	80.011	19.994	103.862	20.014	5.819	0.500
522.000	343.210	80.011	19.995	103.862	20.009	6.154	0.486
522.500	343.473	80.010	19.994	103.862	20.008	6.223	0.484
523.000	343.735	80.011	19.994	103.862	20.013	5.827	0.509
523.500	343.980	80.010	19.994	103.861	20.009	6.124	0.516
524.000	344.218	80.009	19.994	103.861	20.007	6.341	0.495
524.500	344.465	80.009	19.995	103.861	20.007	6.337	0.484
525.001	344.734	80.007	19.995	103.860	20.006	6.404	0.500
525.500	344.984	80.008	19.993	103.861	20.004	6.513	0.517
526.000	345.211	80.009	19.992	103.861	20.006	6.397	0.498
526.500	345.495	80.008	19.994	103.860	20.007	6.343	0.494
527.000	345.729	80.008	19.995	103.860	20.008	6.197	0.515
527.500	345.988	80.011	19.994	103.860	20.005	6.485	0.506
528.000	346.256	80.008	19.993	103.860	20.003	6.604	0.510
528.500	346.518	80.010	19.994	103.860	20.005	6.468	0.528
529.000	346.793	80.009	19.994	103.861	20.007	6.280	0.533
529.500	347.030	80.009	19.993	103.861	20.004	6.509	0.524
530.000	347.249	80.008	19.994	103.861	20.004	6.564	0.484
530.500	347.522	80.009	19.994	103.861	20.003	6.580	0.474
531.000	347.770	80.008	19.993	103.861	20.004	6.509	0.507
531.500	348.039	80.009	19.993	103.861	20.002	6.681	0.519
532.000	348.317	80.009	19.993	103.861	20.003	6.578	0.532
532.500	348.585	80.008	19.993	103.862	19.999	6.923	0.546
533.000	348.822	80.009	19.993	103.862	20.001	6.773	0.525
533.500	349.081	80.008	19.994	103.862	19.998	6.943	0.500
534.000	349.336	80.009	19.995	103.862	19.999	6.868	0.505
534.500	349.627	80.009	19.994	103.863	19.996	7.118	0.530
535.000	349.841	80.010	19.994	103.863	19.996	7.124	0.526
535.500	350.118	80.008	19.994	103.863	19.997	7.083	0.498
536.000	350.362	80.010	19.994	103.863	19.996	7.117	0.506
536.500	350.648	80.009	19.993	103.863	19.997	7.052	0.525
537.000	350.877	80.009	19.993	103.863	19.994	7.290	0.523
537.500	351.100	80.007	19.994	103.863	19.995	7.198	0.484
538.000	351.391	80.008	19.994	103.863	19.993	7.355	0.483
538.500	351.602	80.008	19.995	103.862	19.992	7.438	0.507
539.000	351.883	80.008	19.993	103.862	19.991	7.511	0.497
539.500	352.177	80.009	19.995	103.862	19.993	7.377	0.534
540.000	352.442	80.009	19.995	103.863	19.993	7.338	0.567
540.500	352.686	80.009	19.994	103.863	19.989	7.641	0.534
541.000	352.934	80.010	19.993	103.863	19.992	7.442	0.501
541.500	353.186	80.009	19.994	103.863	19.990	7.545	0.496
542.000	353.502	80.009	19.993	103.863	19.990	7.610	0.534
542.500	353.733	80.009	19.993	103.862	19.989	7.661	0.557
543.000	354.001	80.007	19.993	103.862	19.994	7.300	0.523
543.500	354.237	80.010	19.994	103.862	19.991	7.511	0.502
544.000	354.526	80.009	19.993	103.863	19.989	7.651	0.514
544.500	354.758	80.008	19.994	103.863	19.989	7.669	0.523
545.000	355.035	80.008	19.994	103.863	19.990	7.564	0.515
545.500	355.275	80.009	19.994	103.863	19.990	7.564	0.513
546.000	355.529	80.009	19.993	103.863	19.987	7.769	0.505
546.500	355.766	80.009	19.994	103.862	19.987	7.823	0.493
547.000	356.040	80.009	19.993	103.861	19.987	7.799	0.502
547.500	356.267	80.008	19.994	103.861	19.986	7.903	0.506
548.000	356.538	80.009	19.994	103.861	19.984	8.042	0.499
548.500	356.818	80.008	19.995	103.861	19.982	8.148	0.524
549.000	357.039	80.008	19.994	103.861	19.979	8.371	0.526
549.500	357.336	80.008	19.993	103.862	19.982	8.197	0.510
550.000	357.570	80.007	19.995	103.862	19.982	8.169	0.525
550.500	357.818	80.008	19.994	103.862	19.980	8.357	0.506
551.000	358.083	80.007	19.994	103.861	19.980	8.301	0.497
551.500	358.367	80.008	19.994	103.862	19.981	8.256	0.531
552.000	358.597	80.008	19.995	103.861	19.981	8.266	0.532
552.500	358.850	80.007	19.995	103.862	19.978	8.507	0.498
553.000	359.103	80.008	19.994	103.863	19.977	8.572	0.494
553.500	359.368	80.007	19.995	103.864	19.977	8.527	0.512
554.000	359.649	80.008	19.994	103.864	19.976	8.647	0.532
554.500	359.888	80.008	19.994	103.865	19.974	8.765	0.533
555.000	360.171	80.007	19.993	103.864	19.972	8.945	0.521
555.501	360.423	80.007	19.994	103.863	19.975	8.718	0.528
556.000	360.652	80.007	19.995	103.863	19.970	9.075	0.508
556.500	360.883	80.006	19.994	103.863	19.969	9.136	0.471
557.000	361.164	80.007	19.994	103.863	19.971	9.018	0.486
557.500	361.466	80.007	19.995	103.864	19.969	9.112	0.548
558.000	361.713	80.008	19.994	103.864	19.967	9.312	0.566
558.500	361.989	80.007	19.994	103.864	19.966	9.381	0.536
559.000	362.205	80.006	19.994	103.864	19.966	9.337	0.507
559.500	362.424	80.007	19.995	103.863	19.967	9.319	0.463
560.000	362.738	80.006	19.995	103.864	19.966	9.377	0.485
560.500	362.998	80.006	19.994	103.865	19.963	9.580	0.554
561.000	363.211	80.006	19.994	103.870	19.965	9.422	0.523
561.500	363.505	80.006	19.994	103.870	19.961	9.763	0.489
562.000	363.765	80.007	19.994	103.870	19.958	9.944	0.530
562.500	363.968	80.007	19.995	103.869	19.961	9.740	0.508
563.000	364.238	80.007	19.994	103.869	19.959	9.892	0.468
563.501	364.478	80.007	19.993	103.865	19.960	9.833	0.491
564.000	364.726	80.007	19.994	103.865	19.955	10.198	0.499
564.500	364.985	80.007	19.995	103.865	19.957	10.074	0.498
565.000	365.260	80.009	19.994	103.865	19.955	10.226	0.520
565.500	365.479	80.006	19.996	103.865	19.953	10.323	0.514
566.000	365.750	80.008	19.994	103.865	19.954	10.301	0.492
566.500	365.999	80.008	19.993	103.865	19.955	10.224	0.505
567.000	366.255	80.009	19.992	103.865	19.953	10.348	0.513
567.500	366.511	80.008	19.993	103.865	19.953	10.353	0.508
568.000	366.756	80.008	19.994	103.865	19.950	10.598	0.506
568.500	367.003	80.009	19.994	103.865	19.951	10.508	0.497
569.000	367.251	80.008	19.994	103.865	19.948	10.744	0.494
569.500	367.484	80.009	19.995	103.866	19.950	10.527	0.488
570.000	367.783	80.009	19.992	103.866	19.947	10.825	0.507
570.500	368.001	80.008	19.993	103.867	19.946	10.867	0.524
571.000	368.247	80.008	19.993	103.867	19.944	11.003	0.490
571.500	368.489	80.008	19.993	103.867	19.943	11.068	0.476
572.000	368.747	80.008	19.993	103.866	19.941	11.267	0.494
572.500	369.000	80.008	19.993	103.868	19.936	11.610	0.505
573.000	369.253	80.010	19.994	103.874	19.937	11.545	0.508
573.500	369.529	80.009	19.994	103.879	19.935	11.718	0.518
574.000	369.789	80.009	19.993	103.881	19.932	11.874	0.532
574.500	370.035	80.010	19.993	103.882	19.931	11.968	0.521
575.000	370.314	80.011	19.993	103.880	19.932	11.887	0.516
575.500	370.518	80.009	19.993	103.875	19.929	12.131	0.504
576.000	370.773	80.009	19.994	103.872	19.927	12.309	0.471
576.500	371.042	80.009	19.994	103.871	19.928	12.192	0.491
577.000	371.289	80.008	19.993	103.877	19.926	12.352	0.520
577.500	371.542	80.009	19.993	103.879	19.926	12.334	0.508
578.000	371.761	80.009	19.994	103.881	19.923	12.575	0.486
578.500	372.054	80.009	19.993	103.882	19.921	12.715	0.492
579.000	372.272	80.009	19.994	103.880	19.918	12.932	0.511
579.500	372.534	80.010	19.993	103.877	19.919	12.916	0.495
580.000	372.814	80.010	19.994	103.877	19.918	12.947	0.511
580.500	373.023	80.010	19.994	103.878	19.917	13.002	0.516
581.000	373.302	80.010	19.994	103.876	19.916	13.083	0.488
581.500	373.586	80.010	19.993	103.878	19.913	13.355	0.525
582.000	373.829	80.011	19.993	103.877	19.913	13.334	0.545
582.500	374.090	80.009	19.994	103.878	19.907	13.768	0.515
583.000	374.330	80.009	19.993	103.877	19.908	13.681	0.503
583.500	374.566	80.010	19.994	103.876	19.904	13.999	0.489
584.000	374.823	80.009	19.993	103.875	19.905	13.921	0.484
584.501	375.097	80.009	19.994	103.878	19.902	14.127	0.512
585.000	375.326	80.009	19.993	103.880	19.901	14.257	0.517
585.500	375.597	80.007	19.993	103.884	19.900	14.300	0.501
586.000	375.801	80.010	19.994	103.890	19.897	14.547	0.487
586.500	376.084	80.009	19.994	103.893	19.895	14.658	0.481
587.000	376.316	80.010	19.994	103.892	19.894	14.737	0.501
587.500	376.564	80.008	19.993	103.893	19.894	14.775	0.497
588.000	376.840	80.010	19.994	103.893	19.892	14.926	0.502
588.500	377.077	80.011	19.993	103.892	19.889	15.092	0.518
589.000	377.354	80.010	19.994	103.890	19.887	15.245	0.514
589.500	377.612	80.010	19.993	103.893	19.886	15.369	0.524
590.000	377.858	80.010	19.994	103.893	19.882	15.617	0.520
590.500	378.077	80.009	19.992	103.893	19.881	15.749	0.485
591.000	378.340	80.011	19.994	103.895	19.882	15.615	0.474
591.500	378.613	80.011	19.993	103.896	19.876	16.102	0.509
592.000	378.837	80.010	19.994	103.896	19.875	16.183	0.516
592.500	379.127	80.010	19.994	103.894	19.873	16.305	0.506
593.000	379.339	80.011	19.994	103.893	19.871	16.460	0.508
593.500	379.596	80.009	19.993	103.894	19.869	16.582	0.485
594.000	379.855	80.011	19.992	103.892	19.868	16.707	0.492
594.500	380.121	80.010	19.993	103.890	19.865	16.945	0.521
595.000	380.388	80.010	19.993	103.893	19.862	17.131	0.529
595.500	380.661	80.010	19.993	103.892	19.863	17.079	0.536
596.000	380.906	80.010	19.993	103.890	19.863	17.066	0.529
596.500	381.133	80.011	19.993	103.891	19.863	17.096	0.495
597.000	381.396	80.011	19.993	103.889	19.860	17.293	0.481
597.500	381.677	80.013	19.992	103.884	19.861	17.246	0.517
598.000	381.971	80.012	19.992	103.882	19.856	17.551	0.560
598.500	382.199	80.012	19.994	103.881	19.858	17.437	0.548
599.000	382.456	80.012	19.993	103.884	19.856	17.598	0.503
599.500	382.678	80.012	19.993	103.887	19.855	17.679	0.482
600.000	382.937	80.011	19.993	103.890	19.852	17.920	0.480
600.500	383.218	80.011	19.992	103.894	19.850	18.046	0.510
601.000	383.502	80.011	19.992	103.895	19.850	18.055	0.552
601.500	383.713	80.011	19.992	103.896	19.848	18.221	0.530
602.000	384.002	80.012	19.993	103.894	19.845	18.412	0.498
602.500	384.218	80.010	19.993	103.895	19.843	18.545	0.503
603.000	384.497	80.011	19.992	103.896	19.841	18.686	0.500
603.500	384.736	80.011	19.993	103.898	19.840	18.806	0.506
604.000	384.996	80.011	19.994	103.898	19.840	18.810	0.509
604.500	385.265	80.010	19.993	103.900	19.837	18.982	0.514
605.000	385.544	80.010	19.994	103.900	19.836	19.102	0.538
605.500	385.759	80.009	19.992	103.900	19.834	19.204	0.521
606.000	386.040	80.010	19.993	103.900	19.832	19.367	0.495
606.500	386.312	80.010	19.993	103.899	19.831	19.459	0.524
607.000	386.554	80.008	19.993	103.899	19.828	19.680	0.534
607.500	386.826	80.009	19.993	103.896	19.825	19.884	0.515
608.000	387.074	80.008	19.993	103.896	19.827	19.729	0.517
608.500	387.334	80.007	19.993	103.896	19.823	20.075	0.513
609.000	387.580	80.008	19.993	103.897	19.821	20.211	0.507
609.500	387.828	80.008	19.992	103.896	19.820	20.302	0.500
610.000	388.071	80.009	19.993	103.899	19.817	20.524	0.493
610.500	388.365	80.009	19.993	103.899	19.815	20.630	0.514
611.000	388.630	80.008	19.993	103.898	19.814	20.695	0.548
611.500	388.876	80.009	19.993	103.898	19.810	20.999	0.535
612.000	389.128	80.008	19.993	103.899	19.810	21.034	0.505
612.500	389.377	80.008	19.993	103.900	19.806	21.354	0.500
613.000	389.634	80.008	19.993	103.901	19.807	21.239	0.503
613.500	389.901	80.008	19.994	103.906	19.803	21.569	0.515
614.000	390.167	80.008	19.994	103.913	19.800	21.754	0.528
614.500	390.385	80.007	19.993	103.914	19.796	22.040	0.508
615.000	390.644	80.008	19.994	103.915	19.794	22.254	0.480
615.500	390.904	80.007	19.992	103.921	19.792	22.412	0.498
616.000	391.158	80.008	19.993	103.925	19.788	22.653	0.517
616.500	391.409	80.008	19.994	103.925	19.786	22.845	0.509
617.000	391.686	80.008	19.994	103.932	19.778	23.438	0.516
617.500	391.950	80.008	19.993	103.936	19.778	23.442	0.534
618.000	392.195	80.008	19.994	103.932	19.773	23.779	0.526
618.500	392.433	80.007	19.994	103.927	19.774	23.750	0.496
619.000	392.668	80.007	19.993	103.920	19.767	24.284	0.478
619.500	392.943	80.007	19.994	103.918	19.767	24.263	0.492
620.000	393.210	80.006	19.992	103.919	19.762	24.618	0.526
620.500	393.456	80.008	19.993	103.925	19.760	24.790	0.527
621.000	393.701	80.008	19.994	103.929	19.760	24.747	0.502
621.500	393.959	80.007	19.994	103.933	19.755	25.120	0.497
622.000	394.184	80.007	19.994	103.933	19.754	25.234	0.493
622.500	394.507	80.008	19.995	103.932	19.755	25.132	0.515
623.000	394.741	80.007	19.995	103.931	19.751	25.436	0.553
623.501	394.996	80.008	19.994	103.931	19.748	25.680	0.523
624.000	395.251	80.006	19.994	103.935	19.747	25.712	0.500
624.500	395.511	80.007	19.994	103.937	19.742	26.135	0.512
625.000	395.757	80.008	19.994	103.939	19.739	26.359	0.510
625.500	395.985	80.007	19.995	103.939	19.738	26.384	0.490
626.000	396.242	80.007	19.994	103.941	19.732	26.837	0.480
626.500	396.491	80.007	19.994	103.941	19.728	27.144	0.495
627.000	396.777	80.008	19.995	103.941	19.722	27.638	0.520
627.500	397.042	80.009	19.993	103.942	19.719	27.817	0.543
628.000	397.268	80.008	19.994	103.944	19.715	28.155	0.521
628.500	397.524	80.008	19.994	103.946	19.712	28.376	0.487
629.000	397.767	80.008	19.993	103.953	19.708	28.646	0.491
629.500	398.064	80.008	19.994	103.961	19.706	28.856	0.519
630.000	398.295	80.008	19.995	103.969	19.700	29.310	0.533
630.500	398.557	80.008	19.994	103.975	19.695	29.645	0.511
631.000	398.792	80.009	19.994	103.981	19.690	30.037	0.495
631.500	399.033	80.008	19.994	103.979	19.684	30.485	0.486
632.000	399.292	80.008	19.993	103.977	19.680	30.757	0.488
632.500	399.546	80.007	19.993	103.977	19.672	31.396	0.506
633.000	399.770	80.008	19.995	103.977	19.670	31.502	0.496
633.500	400.024	80.006	19.996	103.975	19.665	31.909	0.478
634.000	400.307	80.008	19.996	103.975	19.662	32.102	0.507
634.500	400.514	80.008	19.994	103.974	19.659	32.346	0.513
635.000	400.779	80.008	19.994	103.973	19.653	32.798	0.481
635.500	401.040	80.008	19.995	103.974	19.647	33.227	0.499
636.000	401.308	80.007	19.993	103.976	19.641	33.654	0.528
636.500	401.544	80.007	19.993	103.978	19.634	34.212	0.517
637.000	401.811	80.007	19.994	103.982	19.629	34.547	0.503
637.500	402.037	80.007	19.994	103.982	19.622	35.068	0.497
638.000	402.297	80.008	19.994	103.983	19.615	35.636	0.490
638.500	402.551	80.007	19.994	103.984	19.608	36.121	0.500
639.000	402.806	80.007	19.994	103.988	19.599	36.867	0.512
639.500	403.030	80.007	19.993	103.995	19.588	37.671	0.494
640.000	403.326	80.007	19.993	104.003	19.581	38.225	0.499
640.500	403.567	80.008	19.993	104.010	19.570	39.001	0.528
641.000	403.821	80.007	19.995	104.021	19.565	39.432	0.516
641.500	404.056	80.007	19.994	104.028	19.554	40.243	0.492
642.000	404.287	80.007	19.995	104.029	19.550	40.519	0.478
642.500	404.580	80.008	19.995	104.027	19.545	40.877	0.495
643.000	404.792	80.008	19.994	104.023	19.540	41.284	0.514
643.500	405.053	80.008	19.995	104.015	19.532	41.832	0.489
644.000	405.317	80.007	19.995	104.011	19.529	42.105	0.499
644.500	405.578	80.006	19.994	104.004	19.524	42.444	0.525
645.000	405.803	80.008	19.994	103.999	19.515	43.122	0.506
645.500	406.035	80.009	19.995	103.994	19.508	43.589	0.471
646.000	406.308	80.007	19.995	103.989	19.504	43.867	0.481
646.500	406.531	80.008	19.994	103.987	19.501	44.129	0.501
647.000	406.802	80.007	19.995	103.993	19.492	44.759	0.495
647.500	407.050	80.008	19.995	103.999	19.481	45.635	0.506
648.000	407.319	80.007	19.994	104.003	19.473	46.226	0.518
648.500	407.601	80.007	19.995	104.011	19.462	47.056	0.534
649.000	407.855	80.008	19.995	104.018	19.441	48.623	0.543
649.500	408.074	80.008	19.995	104.026	19.421	50.120	0.505
650.000	408.342	80.008	19.995	104.040	19.402	51.614	0.480
650.501	408.625	80.008	19.995	104.059	19.379	53.350	0.519
651.001	408.884	80.008	19.995	104.076	19.363	54.559	0.546
651.500	409.139	80.009	19.994	104.112	19.346	55.809	0.528
652.000	409.360	80.008	19.995	104.143	19.334	56.741	0.495
652.500	409.642	80.009	19.995	104.149	19.321	57.687	0.489
653.000	409.885	80.009	19.995	104.140	19.313	58.349	0.514
653.500	410.120	80.009	19.994	104.130	19.307	58.763	0.502
654.000	410.425	80.009	19.994	104.101	19.303	59.062	0.509
654.500	410.662	80.009	19.995	104.067	19.297	59.528	0.541
655.000	410.925	80.010	19.993	104.044	19.294	59.729	0.521
655.500	411.176	80.009	19.994	104.023	19.290	60.000	0.507
656.000	411.442	80.009	19.994	103.999	19.284	60.495	0.515
656.500	411.657	80.009	19.995	103.973	19.282	60.606	0.499
657.000	411.900	80.010	19.994	103.953	19.275	61.129	0.470
657.500	412.172	80.010	19.995	103.945	19.274	61.208	0.487
658.000	412.420	80.009	19.995	103.943	19.270	61.530	0.517
658.500	412.729	80.009	19.993	103.935	19.268	61.678	0.538
659.000	412.952	80.009	19.993	103.936	19.264	61.970	0.545
659.500	413.170	80.008	19.993	103.953	19.261	62.193	0.487
660.000	413.413	80.010	19.994	103.982	19.255	62.655	0.451
660.500	413.689	80.010	19.994	104.025	19.251	62.968	0.490
661.000	413.934	80.010	19.994	104.082	19.244	63.470	0.520
661.500	414.164	80.010	19.994	104.133	19.239	63.849	0.498
662.000	414.422	80.010	19.994	104.169	19.235	64.180	0.481
662.500	414.683	80.010	19.994	104.191	19.223	65.038	0.503
663.000	414.937	80.009	19.994	104.202	19.221	65.235	0.517
663.500	415.191	80.010	19.993	104.209	19.213	65.796	0.512
664.000	415.461	80.008	19.993	104.210	19.205	66.384	0.516
664.500	415.678	80.009	19.993	104.204	19.200	66.743	0.506
665.000	415.906	80.009	19.994	104.197	19.191	67.462	0.466
665.500	416.197	80.007	19.993	104.190	19.181	68.198	0.482
666.000	416.466	80.008	19.994	104.181	19.171	68.956	0.540
666.500	416.716	80.008	19.994	104.175	19.159	69.870	0.540
667.000	416.952	80.009	19.993	104.174	19.150	70.573	0.502
667.500	417.249	80.008	19.994	104.175	19.139	71.376	0.509
668.000	417.500	80.010	19.994	104.175	19.129	72.146	0.540
668.500	417.757	80.009	19.994	104.178	19.114	73.260	0.528
669.000	417.979	80.008	19.994	104.178	19.105	73.990	0.493
669.500	418.217	80.008	19.993	104.178	19.088	75.239	0.470
670.000	418.488	80.008	19.994	104.180	19.079	75.962	0.484
670.500	418.760	80.009	19.993	104.188	19.067	76.800	0.526
671.000	419.008	80.009	19.993	104.192	19.052	77.938	0.532
671.500	419.248	80.010	19.995	104.194	19.043	78.671	0.504
672.000	419.527	80.010	19.993	104.201	19.030	79.604	0.503
672.500	419.778	80.008	19.993	104.202	19.019	80.465	0.525
673.000	420.052	80.010	19.994	104.194	19.006	81.406	0.528
673.500	420.290	80.009	19.994	104.192	18.992	82.452	0.518
674.000	420.573	80.008	19.993	104.192	18.984	83.091	0.516
674.500	420.829	80.009	19.994	104.191	18.968	84.299	0.530
675.000	421.099	80.010	19.994	104.195	18.952	85.480	0.533
675.500	421.311	80.009	19.994	104.202	18.937	86.551	0.504
676.000	421.584	80.009	19.993	104.209	18.919	87.943	0.483
676.500	421.826	80.009	19.995	104.220	18.906	88.874	0.500
677.000	422.070	80.009	19.992	104.227	18.887	90.285	0.501
677.500	422.289	80.011	19.993	104.234	18.873	91.364	0.475
678.000	422.596	80.010	19.993	104.245	18.856	92.635	0.494
678.500	422.861	80.010	19.993	104.257	18.838	93.971	0.549
679.000	423.098	80.009	19.993	104.270	18.821	95.295	0.537
679.500	423.338	80.011	19.992	104.287	18.800	96.819	0.490
680.000	423.600	80.011	19.993	104.304	18.775	98.747	0.490
680.500	423.855	80.011	19.994	104.317	18.752	100.469	0.509
681.000	424.101	80.009	19.993	104.325	18.729	102.265	0.509
681.500	424.318	80.010	19.994	104.329	18.706	104.022	0.482
682.000	424.628	80.010	19.993	104.342	18.682	105.829	0.495
682.500	424.934	80.010	19.993	104.354	18.659	107.592	0.572
683.000	425.187	80.010	19.993	104.354	18.639	109.082	0.588
683.500	425.443	80.009	19.993	104.355	18.617	110.783	0.534
684.000	425.687	80.008	19.993	104.355	18.600	112.087	0.504
684.500	425.929	80.009	19.994	104.344	18.583	113.368	0.493
685.000	426.164	80.009	19.993	104.334	18.566	114.613	0.482
685.501	426.435	80.010	19.993	104.330	18.548	115.980	0.492
686.000	426.647	80.009	19.994	104.323	18.537	116.812	0.494
686.500	426.938	80.009	19.992	104.316	18.517	118.304	0.493
687.000	427.222	80.008	19.994	104.310	18.505	119.183	0.539
687.500	427.470	80.009	19.994	104.308	18.491	120.270	0.553
688.000	427.672	80.009	19.993	104.309	18.477	121.301	0.491
688.500	427.906	80.009	19.994	104.310	18.461	122.439	0.443
689.000	428.182	80.008	19.994	104.309	18.446	123.576	0.473
689.500	428.434	80.008	19.992	104.306	18.434	124.453	0.519
690.000	428.712	80.007	19.993	104.308	18.422	125.388	0.529
690.500	428.964	80.007	19.993	104.320	18.409	126.347	0.530
691.000	429.217	80.007	19.993	104.343	18.393	127.546	0.517
691.500	429.424	80.008	19.993	104.375	18.378	128.667	0.482
692.000	429.679	80.008	19.993	104.409	18.356	130.278	0.461
692.500	429.965	80.006	19.992	104.439	18.341	131.476	0.501
693.000	430.176	80.006	19.995	104.464	18.318	133.250	0.519
693.500	430.436	80.007	19.994	104.486	18.298	134.773	0.485
694.000	430.749	80.007	19.994	104.501	18.276	136.426	0.522
694.500	430.962	80.007	19.994	104.518	18.255	138.035	0.549
695.000	431.232	80.007	19.993	104.534	18.234	139.624	0.504
695.500	431.486	80.007	19.994	104.541	18.217	140.944	0.503
696.000	431.732	80.008	19.993	104.541	18.199	142.319	0.512
696.500	432.008	80.006	19.992	104.540	18.186	143.329	0.511
697.000	432.250	80.008	19.993	104.536	18.170	144.513	0.520
697.500	432.526	80.008	19.993	104.524	18.154	145.689	0.518
698.000	432.755	80.008	19.993	104.515	18.143	146.533	0.512
698.500	433.057	80.008	19.993	104.507	18.131	147.402	0.518
699.000	433.321	80.008	19.994	104.493	18.121	148.183	0.548
699.500	433.558	80.006	19.993	104.482	18.111	148.966	0.533
700.000	433.806	80.008	19.993	104.471	18.101	149.666	0.493
700.500	434.143	80.008	19.993	104.462	18.093	150.270	0.535
701.000	434.332	80.007	19.992	104.452	18.083	151.041	0.556
701.500	434.634	80.006	19.993	104.444	18.077	151.527	0.509
702.000	434.837	80.008	19.993	104.438	18.069	152.098	0.498
702.500	435.147	80.008	19.993	104.440	18.057	153.026	0.508
703.000	435.345	80.008	19.993	104.449	18.050	153.549	0.510
703.500	435.620	80.007	19.992	104.466	18.043	154.088	0.490
704.000	435.943	80.009	19.992	104.491	18.033	154.818	0.536
704.500	436.179	80.008	19.994	104.517	18.024	155.499	0.579
705.000	436.429	80.008	19.993	104.540	18.019	155.882	0.523
705.500	436.682	80.007	19.992	104.562	18.007	156.751	0.494
706.000	436.927	80.007	19.994	104.578	18.001	157.248	0.500
706.500	437.240	80.008	19.994	104.593	17.988	158.172	0.528
707.000	437.495	80.009	19.993	104.601	17.985	158.443	0.564
707.500	437.713	80.008	19.992	104.607	17.974	159.225	0.520
708.000	438.013	80.007	19.993	104.608	17.967	159.806	0.495
708.500	438.230	80.008	19.993	104.609	17.958	160.481	0.518
709.000	438.497	80.009	19.994	104.611	17.948	161.207	0.501
709.500	438.748	80.007	19.993	104.614	17.937	162.017	0.501
710.000	439.010	80.008	19.993	104.613	17.927	162.776	0.515
710.500	439.216	80.008	19.993	104.612	17.921	163.286	0.490
711.000	439.555	80.008	19.994	104.613	17.913	163.881	0.507
711.500	439.783	80.009	19.994	104.611	17.901	164.752	0.556
712.000	440.026	80.009	19.994	104.607	17.889	165.635	0.519
712.500	440.316	80.009	19.993	104.607	17.884	166.045	0.502
713.000	440.568	80.009	19.994	104.608	17.876	166.642	0.537
713.500	440.810	80.008	19.994	104.606	17.868	167.231	0.518
714.000	441.099	80.008	19.994	104.608	17.861	167.784	0.512
714.500	441.350	80.009	19.993	104.611	17.850	168.566	0.536
715.000	441.594	80.009	19.994	104.615	17.843	169.077	0.517
715.500	441.809	80.008	19.993	104.616	17.836	169.628	0.477
716.000	442.080	80.008	19.994	104.620	17.830	170.081	0.473
716.500	442.322	80.007	19.994	104.618	17.822	170.652	0.500
717.000	442.605	80.008	19.994	104.616	17.816	171.143	0.519
717.500	442.875	80.007	19.994	104.614	17.811	171.513	0.539
718.000	443.088	80.007	19.993	104.616	17.805	171.969	0.518
718.500	443.344	80.007	19.994	104.613	17.802	172.215	0.476
719.000	443.612	80.008	19.994	104.615	17.798	172.521	0.496
719.500	443.850	80.008	19.994	104.619	17.796	172.646	0.515
720.000	444.092	80.009	19.994	104.621	17.789	173.160	0.493
720.500	444.332	80.007	19.994	104.623	17.788	173.244	0.481
721.000	444.655	80.008	19.995	104.625	17.788	173.243	0.522
721.500	444.843	80.007	19.994	104.627	17.789	173.153	0.537
722.000	445.143	80.007	19.994	104.626	17.786	173.341	0.500
722.500	445.392	80.006	19.995	104.625	17.785	173.413	0.518
723.000	445.650	80.008	19.994	104.626	17.788	173.241	0.528
723.500	445.933	80.007	19.994	104.631	17.791	172.962	0.524
724.000	446.148	80.007	19.994	104.631	17.788	173.214	0.519
724.500	446.399	80.007	19.994	104.630	17.791	172.936	0.482
725.000	446.654	80.008	19.995	104.629	17.797	172.472	0.486
725.500	446.938	80.008	19.993	104.626	17.798	172.395	0.523
726.000	447.186	80.008	19.995	104.622	17.802	172.109	0.536
726.500	447.386	80.008	19.995	104.621	17.807	171.715	0.489
727.000	447.675	80.008	19.994	104.619	17.813	171.276	0.468
727.500	447.928	80.008	19.994	104.618	17.817	170.952	0.516
728.000	448.233	80.008	19.992	104.616	17.826	170.238	0.550
728.500	448.444	80.008	19.994	104.615	17.831	169.857	0.537
729.000	448.737	80.008	19.994	104.615	17.836	169.487	0.510
729.500	448.945	80.007	19.992	104.617	17.847	168.663	0.502
730.000	449.199	80.008	19.994	104.616	17.853	168.148	0.481
730.500	449.434	80.008	19.994	104.615	17.863	167.385	0.476
731.000	449.698	80.008	19.995	104.613	17.874	166.544	0.494
731.500	449.926	80.008	19.994	104.608	17.883	165.863	0.495
732.000	450.195	80.009	19.993	104.605	17.893	165.139	0.495
732.500	450.470	80.009	19.994	104.603	17.907	164.042	0.521
733.000	450.747	80.009	19.993	104.602	17.920	163.085	0.548
733.500	451.009	80.009	19.994	104.600	17.929	162.374	0.546
734.000	451.209	80.009	19.994	104.600	17.944	161.284	0.501
734.500	451.486	80.008	19.993	104.599	17.961	159.965	0.470
735.000	451.774	80.009	19.994	104.594	17.970	159.300	0.521
735.500	452.005	80.010	19.994	104.587	17.989	157.821	0.542
736.000	452.263	80.008	19.993	104.581	18.004	156.692	0.504
736.500	452.456	80.009	19.995	104.571	18.019	155.564	0.470
737.000	452.715	80.008	19.994	104.560	18.039	154.035	0.451
737.500	453.006	80.009	19.994	104.552	18.052	153.079	0.501
738.000	453.309	80.009	19.994	104.548	18.071	151.630	0.572
738.500	453.481	80.011	19.993	104.540	18.091	150.115	0.535
739.000	453.818	80.008	19.994	104.532	18.111	148.624	0.492
739.500	454.036	80.009	19.994	104.528	18.129	147.260	0.532
740.000	454.294	80.009	19.994	104.521	18.149	145.719	0.516
740.500	454.569	80.009	19.995	104.510	18.168	144.293	0.504
741.000	454.826	80.010	19.995	104.502	18.194	142.297	0.533
741.500	455.045	80.009	19.994	104.494	18.211	141.058	0.504
742.000	455.362	80.009	19.995	104.484	18.231	139.481	0.506
742.500	455.578	80.009	19.995	104.478	18.253	137.867	0.534
743.000	455.812	80.009	19.994	104.477	18.277	136.078	0.492
743.500	456.106	80.009	19.995	104.472	18.304	133.997	0.490
744.000	456.356	80.009	19.993	104.469	18.316	133.116	0.536
744.500	456.653	80.008	19.994	104.465	18.346	130.844	0.545
745.000	456.874	80.008	19.994	104.458	18.371	128.942	0.533
745.500	457.080	80.008	19.995	104.446	18.384	127.992	0.473
746.000	457.419	80.009	19.994	104.435	18.409	126.093	0.486
746.500	457.612	80.007	19.994	104.424	18.430	124.492	0.539
747.000	457.860	80.009	19.995	104.416	18.454	122.721	0.487
747.500	458.155	80.007	19.995	104.408	18.482	120.589	0.492
748.000	458.316	80.007	19.996	104.402	18.518	117.926	0.499
748.500	458.678	80.008	19.995	104.396	18.549	115.580	0.489
749.000	458.888	80.007	19.994	104.389	18.569	114.032	0.547
749.501	459.210	80.007	19.994	104.381	18.591	112.375	0.552
750.000	459.442	80.008	19.994	104.372	18.629	109.543	0.543
750.500	459.727	80.008	19.995	104.366	18.657	107.465	0.535
751.000	460.053	80.007	19.994	104.357	18.684	105.454	0.564
751.500	460.176	80.007	19.994	104.349	18.715	103.073	0.530
752.000	460.424	80.008	19.994	104.334	18.742	101.066	0.410
752.500	460.710	80.007	19.994	104.324	18.774	98.628	0.453
753.000	461.051	80.009	19.996	104.313	18.800	96.713	0.581
753.500	461.186	80.009	19.995	104.304	18.830	94.461	0.552
754.000	461.477	80.007	19.995	104.295	18.855	92.598	0.451
754.500	461.854	80.009	19.995	104.286	18.886	90.238	0.547
755.000	462.063	80.008	19.995	104.277	18.914	88.163	0.627
755.500	462.242	80.009	19.994	104.269	18.940	86.215	0.487
756.000	462.531	80.009	19.993	104.261	18.966	84.242	0.428
756.500	462.663	80.010	19.994	104.255	18.994	82.127	0.444
757.000	463.054	80.009	19.994	104.256	19.017	80.387	0.472
757.500	463.503	80.009	19.994	104.253	19.043	78.461	0.682
758.000	463.229	80.010	19.993	104.247	19.071	76.341	0.508
758.500	464.205	80.009	19.994	104.239	19.091	74.833	0.439
759.000	464.514	80.010	19.995	104.232	19.116	73.003	0.994
759.500	464.335	80.010	19.993	104.224	19.136	71.497	0.708
760.000	464.389	80.010	19.993	104.217	19.161	69.625	0.002
760.500	464.763	80.011	19.993	104.213	19.185	67.821	0.151
761.000	464.598	80.010	19.994	104.208	19.204	66.393	0.318
761.500	464.738	80.009	19.993	104.200	19.230	64.452	0.092
762.000	465.270	80.010	19.994	104.192	19.246	63.198	0.323
762.500	465.953	80.010	19.993	104.183	19.272	61.318	0.944
763.001	466.224	80.010	19.995	104.175	19.288	60.096	1.085
763.501	465.807	80.009	19.994	104.164	19.311	58.340	0.404
764.000	466.408	80.009	19.994	104.157	19.324	57.368	0.019
764.500	466.987	80.009	19.993	104.150	19.346	55.774	0.682
765.000	467.036	80.009	19.994	104.145	19.362	54.522	0.904
765.500	467.293	80.009	19.994	104.137	19.379	53.280	0.467
766.000	467.521	80.011	19.993	104.130	19.393	52.204	0.396
766.500	467.874	80.011	19.993	104.122	19.410	50.920	0.533
767.000	468.162	80.011	19.993	104.114	19.428	49.597	0.611
767.500	468.325	80.007	19.994	104.106	19.444	48.392	0.546
768.000	468.515	80.009	19.993	104.098	19.458	47.384	0.402
768.500	468.856	80.010	19.993	104.092	19.471	46.366	0.442
769.000	469.115	80.010	19.993	104.084	19.486	45.253	0.565
769.500	469.328	80.009	19.992	104.076	19.500	44.232	0.536
770.000	469.501	80.009	19.992	104.069	19.512	43.311	0.429
770.500	469.908	80.008	19.992	104.062	19.526	42.231	0.483
771.000	470.016	80.007	19.992	104.060	19.536	41.544	0.548
771.500	470.416	80.008	19.993	104.055	19.550	40.494	0.512
772.000	470.607	80.010	19.993	104.049	19.565	39.365	0.550
772.500	470.842	80.009	19.993	104.042	19.574	38.658	0.509
773.000	471.052	80.009	19.992	104.034	19.586	37.792	0.436
773.500	471.336	80.007	19.994	104.027	19.596	37.000	0.469
774.000	471.569	80.008	19.993	104.024	19.607	36.188	0.505
774.500	471.808	80.008	19.993	104.022	19.615	35.616	0.494
775.000	472.046	80.008	19.994	104.021	19.626	34.796	0.474
775.500	472.397	80.009	19.994	104.020	19.640	33.774	0.533
776.000	472.544	80.009	19.993	104.017	19.645	33.331	0.544
776.500	472.871	80.006	19.994	104.016	19.654	32.694	0.486
777.000	473.088	80.008	19.994	104.013	19.665	31.895	0.508
777.500	473.351	80.008	19.994	104.008	19.677	31.004	0.512
778.000	473.558	80.008	19.993	104.003	19.684	30.470	0.475
778.500	473.829	80.008	19.994	103.998	19.689	30.036	0.474
779.000	474.080	80.009	19.993	103.991	19.698	29.396	0.500
779.500	474.338	80.008	19.992	103.985	19.707	28.754	0.516
780.000	474.567	80.008	19.995	103.984	19.716	28.035	0.498
780.500	474.804	80.010	19.993	103.981	19.721	27.709	0.477
781.000	475.049	80.008	19.993	103.980	19.731	26.968	0.474
781.500	475.315	80.009	19.994	103.975	19.739	26.309	0.496
782.000	475.524	80.008	19.993	103.973	19.743	26.035	0.493
782.500	475.815	80.008	19.995	103.972	19.751	25.463	0.487
783.000	476.072	80.009	19.994	103.972	19.757	24.975	0.524
783.500	476.304	80.009	19.993	103.972	19.766	24.322	0.518
784.000	476.524	80.008	19.994	103.974	19.771	23.943	0.471
784.500	476.776	80.010	19.994	103.975	19.778	23.436	0.462
785.000	477.024	80.007	19.994	103.974	19.781	23.224	0.486
785.500	477.295	80.009	19.994	103.971	19.786	22.821	0.510
786.000	477.488	80.009	19.994	103.964	19.793	22.314	0.491
786.500	477.796	80.009	19.993	103.957	19.798	21.923	0.482
787.000	478.011	80.009	19.992	103.950	19.806	21.356	0.513
787.500	478.192	80.009	19.993	103.945	19.809	21.099	0.460
788.000	478.439	80.009	19.993	103.940	19.813	20.817	0.412
788.500	478.759	80.009	19.993	103.939	19.818	20.415	0.497
789.000	478.959	80.009	19.994	103.940	19.826	19.829	0.544
789.501	479.240	80.009	19.992	103.940	19.827	19.737	0.501
790.000	479.488	80.009	19.994	103.937	19.836	19.108	0.505
790.500	479.698	80.007	19.993	103.937	19.838	18.932	0.494
791.000	479.953	80.009	19.994	103.934	19.843	18.548	0.462
791.500	480.239	80.008	19.993	103.931	19.847	18.265	0.503
792.000	480.447	80.009	19.993	103.930	19.850	18.060	0.517
792.500	480.658	80.009	19.992	103.932	19.855	17.677	0.457
793.000	480.932	80.009	19.993	103.932	19.860	17.295	0.452
793.500	481.201	80.008	19.994	103.935	19.858	17.416	0.514
794.000	481.454	80.008	19.993	103.932	19.867	16.801	0.533
794.500	481.698	80.008	19.995	103.925	19.867	16.731	0.510
795.000	481.959	80.010	19.993	103.918	19.872	16.412	0.501
795.500	482.203	80.008	19.993	103.912	19.874	16.213	0.505
796.000	482.410	80.009	19.992	103.904	19.877	16.000	0.478
796.500	482.669	80.008	19.994	103.902	19.884	15.477	0.458
797.000	482.891	80.009	19.994	103.902	19.882	15.631	0.473
797.500	483.145	80.009	19.993	103.902	19.888	15.231	0.478
798.000	483.409	80.009	19.992	103.902	19.891	14.979	0.497
798.500	483.692	80.009	19.993	103.903	19.895	14.683	0.533
799.000	483.922	80.010	19.993	103.903	19.895	14.676	0.530
799.500	484.122	80.010	19.993	103.902	19.900	14.298	0.472
800.000	484.391	80.010	19.993	103.902	19.899	14.375	0.450
800.500	484.662	80.009	19.995	103.903	19.903	14.049	0.504
801.000	484.927	80.009	19.994	103.902	19.906	13.854	0.538
801.500	485.180	80.009	19.994	103.902	19.909	13.592	0.527
802.000	485.413	80.008	19.994	103.899	19.913	13.347	0.502
802.500	485.660	80.009	19.994	103.898	19.914	13.228	0.483
803.000	485.915	80.009	19.993	103.898	19.916	13.124	0.491
803.500	486.160	80.010	19.993	103.897	19.919	12.905	0.501
804.000	486.424	80.008	19.993	103.894	19.916	13.076	0.504
804.500	486.659	80.007	19.993	103.892	19.924	12.532	0.504
805.000	486.944	80.009	19.994	103.887	19.925	12.394	0.509
805.500	487.154	80.010	19.993	103.882	19.924	12.515	0.507
806.000	487.430	80.009	19.995	103.878	19.929	12.148	0.491
806.500	487.685	80.008	19.995	103.877	19.929	12.130	0.509
807.001	487.875	80.008	19.996	103.875	19.931	11.974	0.488
807.500	488.182	80.009	19.996	103.878	19.933	11.852	0.471
808.000	488.422	80.009	19.994	103.879	19.936	11.580	0.521
808.500	488.653	80.008	19.994	103.877	19.939	11.416	0.509
809.000	488.917	80.008	19.994	103.874	19.939	11.383	0.484
809.500	489.155	80.009	19.993	103.874	19.939	11.357	0.499
810.000	489.389	80.009	19.995	103.869	19.942	11.156	0.487
810.500	489.681	80.007	19.994	103.866	19.943	11.061	0.499
811.000	489.910	80.007	19.994	103.864	19.945	10.900	0.523
811.500	490.182	80.008	19.994	103.865	19.949	10.671	0.511
812.000	490.434	80.007	19.993	103.867	19.948	10.691	0.512
812.500	490.722	80.008	19.994	103.867	19.951	10.472	0.531
813.000	490.934	80.008	19.996	103.869	19.951	10.492	0.520
813.500	491.171	80.009	19.994	103.872	19.957	10.036	0.475
814.000	491.411	80.009	19.996	103.871	19.954	10.235	0.463
814.500	491.697	80.008	19.995	103.870	19.954	10.251	0.502
815.000	491.980	80.008	19.994	103.870	19.955	10.199	0.547
815.501	492.215	80.008	19.995	103.869	19.956	10.113	0.543
816.001	492.452	80.009	19.995	103.865	19.957	10.072	0.495
816.501	492.718	80.008	19.996	103.865	19.957	10.054	0.488
817.000	492.979	80.010	19.995	103.865	19.961	9.746	0.515
817.500	493.228	80.009	19.995	103.865	19.961	9.715	0.519
818.000	493.442	80.008	19.992	103.865	19.961	9.756	0.487
818.500	493.768	80.009	19.994	103.865	19.963	9.590	0.502
819.000	494.024	80.010	19.995	103.865	19.963	9.578	0.561
819.500	494.305	80.010	19.995	103.865	19.962	9.691	0.559
820.000	494.542	80.010	19.995	103.863	19.966	9.329	0.528
820.500	494.794	80.010	19.994	103.863	19.964	9.500	0.504
821.000	495.049	80.010	19.993	103.863	19.968	9.252	0.498
821.500	495.302	80.010	19.994	103.862	19.970	9.084	0.507
822.000	495.541	80.010	19.995	103.862	19.967	9.299	0.500
822.500	495.862	80.010	19.994	103.862	19.971	9.022	0.526
823.000	496.089	80.010	19.994	103.861	19.971	8.969	0.555
823.500	496.325	80.011	19.993	103.861	19.970	9.056	0.505
824.000	496.610	80.010	19.995	103.860	19.974	8.771	0.492
824.500	496.860	80.009	19.994	103.860	19.973	8.830	0.528
825.000	497.120	80.011	19.992	103.861	19.973	8.880	0.523
825.500	497.400	80.009	19.994	103.862	19.974	8.732	0.525
826.000	497.644	80.010	19.994	103.863	19.977	8.539	0.532
826.500	497.894	80.009	19.995	103.862	19.976	8.584	0.509
827.000	498.151	80.009	19.994	103.858	19.976	8.584	0.501
827.500	498.418	80.009	19.995	103.857	19.977	8.511	0.515
828.000	498.625	80.008	19.994	103.856	19.977	8.528	0.499
828.500	498.898	80.009	19.994	103.855	19.981	8.254	0.477
829.001	499.143	80.009	19.993	103.856	19.978	8.499	0.499
829.500	499.399	80.010	19.993	103.860	19.980	8.348	0.509
830.000	499.674	80.009	19.993	103.859	19.979	8.383	0.516
830.500	499.917	80.010	19.994	103.854	19.976	8.585	0.525
831.000	500.179	80.008	19.994	103.850	19.980	8.333	0.512
831.500	500.439	80.009	19.993	103.850	19.980	8.303	0.513
832.001	500.711	80.009	19.994	103.850	19.980	8.291	0.527
832.500	500.978	80.009	19.994	103.852	19.980	8.303	0.536
833.000	501.259	80.008	19.995	103.855	19.980	8.295	0.544
833.500	501.512	80.008	19.995	103.859	19.981	8.208	0.541
834.000	501.749	80.008	19.993	103.857	19.982	8.186	0.512
834.500	501.985	80.009	19.994	103.855	19.982	8.160	0.482
835.000	502.284	80.008	19.994	103.849	19.982	8.204	0.504
835.500	502.532	80.008	19.995	103.847	19.983	8.084	0.541
836.000	502.768	80.007	19.993	103.843	19.982	8.204	0.516
836.500	503.061	80.007	19.993	103.839	19.984	8.047	0.507
837.000	503.293	80.007	19.995	103.835	19.983	8.098	0.527
837.500	503.579	80.008	19.993	103.839	19.983	8.070	0.522
838.000	503.856	80.009	19.995	103.842	19.980	8.291	0.541
838.500	504.073	80.009	19.995	103.844	19.983	8.120	0.529
839.000	504.356	80.009	19.995	103.845	19.985	7.911	0.497
839.500	504.599	80.009	19.994	103.846	19.981	8.244	0.513
840.000	504.858	80.008	19.994	103.840	19.983	8.064	0.514
840.500	505.105	80.009	19.994	103.834	19.981	8.281	0.504
841.000	505.365	80.009	19.994	103.830	19.979	8.386	0.507
841.500	505.643	80.010	19.995	103.827	19.983	8.103	0.523
842.000	505.882	80.009	19.994	103.825	19.983	8.117	0.527
842.500	506.150	80.009	19.995	103.827	19.981	8.236	0.511
843.000	506.439	80.009	19.994	103.827	19.982	8.200	0.532
843.500	506.687	80.010	19.994	103.827	19.981	8.265	0.547
844.000	506.888	80.010	19.994	103.829	19.986	7.861	0.493
844.500	507.165	80.009	19.994	103.831	19.985	7.982	0.464
845.000	507.391	80.009	19.993	103.833	19.982	8.147	0.490
845.500	507.688	80.011	19.994	103.833	19.983	8.100	0.513
846.000	507.972	80.010	19.995	103.832	19.987	7.800	0.552
846.500	508.234	80.010	19.994	103.830	19.983	8.074	0.564
847.000	508.492	80.011	19.993	103.826	19.981	8.226	0.533
847.500	508.723	80.010	19.994	103.823	19.986	7.881	0.505
848.000	508.995	80.011	19.993	103.822	19.986	7.834	0.496
848.500	509.243	80.011	19.995	103.822	19.988	7.749	0.511
849.000	509.509	80.012	19.994	103.822	19.987	7.770	0.517
849.500	509.761	80.010	19.993	103.822	19.987	7.760	0.516
850.000	510.023	80.011	19.994	103.820	19.988	7.717	0.516
850.500	510.276	80.011	19.993	103.822	19.987	7.816	0.515
851.000	510.521	80.011	19.993	103.826	19.988	7.721	0.507
851.500	510.778	80.010	19.996	103.827	19.986	7.890	0.500
852.000	511.040	80.011	19.993	103.827	19.989	7.632	0.510
852.500	511.294	80.010	19.995	103.830	19.987	7.805	0.517
853.000	511.588	80.010	19.992	103.830	19.989	7.624	0.532
853.500	511.794	80.010	19.994	103.827	19.988	7.741	0.524
854.000	512.067	80.009	19.995	103.827	19.989	7.671	0.489
854.500	512.332	80.009	19.994	103.827	19.990	7.589	0.509
855.000	512.564	80.009	19.993	103.824	19.993	7.342	0.517
855.500	512.823	80.010	19.993	103.822	19.988	7.743	0.494
856.000	513.058	80.008	19.993	103.821	19.987	7.762	0.493
856.500	513.347	80.008	19.993	103.821	19.988	7.693	0.509
857.000	513.583	80.008	19.994	103.821	19.989	7.678	0.525
857.500	513.857	80.009	19.992	103.821	19.989	7.644	0.517
858.000	514.132	80.009	19.992	103.821	19.989	7.634	0.529
858.500	514.406	80.008	19.994	103.822	19.990	7.579	0.549
859.000	514.672	80.009	19.994	103.822	19.991	7.496	0.544
859.500	514.923	80.008	19.993	103.823	19.990	7.597	0.528
860.000	515.190	80.009	19.993	103.823	19.988	7.717	0.518
860.500	515.387	80.008	19.992	103.823	19.992	7.439	0.491
861.000	515.679	80.009	19.993	103.823	19.991	7.494	0.476
861.500	515.991	80.007	19.994	103.823	19.992	7.449	0.547
862.000	516.251	80.008	19.994	103.826	19.990	7.602	0.588
862.501	516.507	80.008	19.994	103.826	19.990	7.537	0.544
863.000	516.751	80.008	19.994	103.827	19.983	8.079	0.508
863.500	516.988	80.008	19.995	103.828	19.987	7.799	0.490
864.000	517.255	80.009	19.994	103.828	19.990	7.586	0.493
864.500	517.500	80.010	19.993	103.825	19.989	7.614	0.508
865.000	517.782	80.008	19.994	103.826	19.989	7.612	0.520
865.500	518.033	80.007	19.994	103.826	19.990	7.597	0.530
866.000	518.313	80.009	19.993	103.825	19.988	7.707	0.532
866.500	518.561	80.008	19.994	103.824	19.990	7.593	0.529
867.000	518.824	80.008	19.994	103.825	19.991	7.488	0.519
867.500	519.084	80.009	19.993	103.823	19.990	7.605	0.517
868.000	519.370	80.008	19.994	103.823	19.991	7.520	0.534
868.500	519.579	80.009	19.994	103.822	19.990	7.549	0.521
869.000	519.885	80.008	19.993	103.822	19.990	7.601	0.505
869.500	520.125	80.009	19.995	103.822	19.987	7.766	0.530
870.000	520.371	80.008	19.993	103.822	19.988	7.756	0.515
870.500	520.638	80.008	19.993	103.822	19.989	7.638	0.500
871.000	520.897	80.009	19.994	103.822	19.986	7.867	0.520
871.500	521.163	80.008	19.995	103.822	19.989	7.622	0.526
872.000	521.418	80.008	19.994	103.822	19.989	7.668	0.523
872.500	521.705	80.008	19.995	103.823	19.988	7.749	0.531
873.000	521.964	80.009	19.997	103.828	19.992	7.437	0.544
873.500	522.202	80.008	19.995	103.832	19.992	7.452	0.522
874.000	522.488	80.009	19.994	103.832	19.993	7.330	0.510
874.500	522.722	80.008	19.994	103.832	19.991	7.498	0.522
875.000	522.966	80.007	19.995	103.831	19.990	7.561	0.499
875.500	523.263	80.009	19.994	103.827	19.986	7.871	0.509
876.000	523.504	80.008	19.994	103.823	19.990	7.541	0.540
876.500	523.756	80.009	19.994	103.823	19.986	7.899	0.516
877.000	523.985	80.009	19.993	103.824	19.989	7.658	0.487
877.500	524.292	80.009	19.994	103.824	19.988	7.701	0.508
878.000	524.519	80.008	19.992	103.823	19.986	7.841	0.535
878.500	524.809	80.010	19.993	103.823	19.985	7.920	0.526
879.000	525.025	80.008	19.993	103.823	19.987	7.760	0.511
879.500	525.288	80.009	19.994	103.824	19.986	7.869	0.493
880.000	525.532	80.010	19.993	103.824	19.987	7.765	0.493
880.500	525.801	80.008	19.993	103.825	19.988	7.733	0.510
881.000	526.082	80.009	19.993	103.824	19.989	7.624	0.532
881.500	526.335	80.008	19.993	103.824	19.988	7.707	0.541
882.000	526.567	80.008	19.994	103.822	19.986	7.885	0.509
882.500	526.847	80.009	19.992	103.822	19.989	7.679	0.499
883.000	527.089	80.008	19.994	103.822	19.990	7.600	0.517
883.500	527.325	80.009	19.993	103.824	19.987	7.786	0.500
884.000	527.650	80.010	19.993	103.824	19.987	7.814	0.519
884.500	527.849	80.008	19.993	103.826	19.989	7.670	0.542
885.000	528.159	80.008	19.994	103.826	19.988	7.701	0.516
885.500	528.365	80.008	19.994	103.826	19.989	7.648	0.513
886.000	528.637	80.009	19.994	103.825	19.989	7.625	0.498
886.500	528.898	80.008	19.993	103.825	19.987	7.824	0.506
887.000	529.158	80.009	19.993	103.825	19.991	7.526	0.527
887.500	529.446	80.009	19.993	103.824	19.989	7.613	0.534
888.000	529.713	80.009	19.994	103.824	19.988	7.733	0.552
888.500	529.929	80.008	19.993	103.824	19.986	7.838	0.519
889.000	530.207	80.009	19.994	103.823	19.986	7.869	0.488
889.500	530.429	80.008	19.994	103.824	19.988	7.693	0.497
890.000	530.716	80.010	19.993	103.825	19.986	7.837	0.504
890.500	530.950	80.008	19.994	103.823	19.985	7.981	0.515
891.000	531.234	80.010	19.993	103.821	19.984	8.009	0.519
891.500	531.454	80.009	19.994	103.821	19.987	7.808	0.511
892.000	531.728	80.008	19.995	103.821	19.987	7.798	0.499
892.500	531.971	80.008	19.993	103.823	19.984	7.999	0.506
893.000	532.222	80.008	19.994	103.825	19.988	7.743	0.505
893.500	532.441	80.009	19.993	103.826	19.986	7.883	0.482
894.000	532.721	80.009	19.993	103.825	19.986	7.883	0.485
894.500	532.961	80.007	19.995	103.824	19.985	7.910	0.510
895.000	533.225	80.009	19.993	103.823	19.985	7.977	0.512
895.500	533.497	80.007	19.993	103.823	19.986	7.889	0.519
896.000	533.726	80.009	19.994	103.825	19.982	8.175	0.519
896.500	533.999	80.009	19.993	103.825	19.985	7.932	0.501
897.000	534.251	80.008	19.993	103.820	19.983	8.094	0.513
897.500	534.503	80.009	19.993	103.819	19.983	8.113	0.515
898.000	534.772	80.009	19.994	103.817	19.981	8.265	0.513
898.500	535.013	80.009	19.992	103.813	19.983	8.110	0.516
899.000	535.253	80.008	19.993	103.814	19.981	8.210	0.495
899.500	535.543	80.010	19.993	103.821	19.982	8.159	0.506
900.000	535.802	80.009	19.993	103.821	19.983	8.078	0.539
900.500	536.018	80.009	19.992	103.823	19.984	7.993	0.512
901.000	536.289	80.009	19.993	103.828	19.984	8.031	0.481
901.500	536.548	80.011	19.993	103.827	19.985	7.958	0.509
902.000	536.765	80.010	19.993	103.827	19.986	7.895	0.503
902.500	537.006	80.010	19.993	103.825	19.983	8.086	0.467
903.000	537.281	80.010	19.993	103.825	19.986	7.883	0.487
903.500	537.495	80.009	19.994	103.825	19.987	7.763	0.502
904.000	537.777	80.010	19.994	103.825	19.986	7.869	0.492
904.500	538.016	80.011	19.994	103.825	19.986	7.857	0.508
905.000	538.242	80.010	19.994	103.827	19.982	8.139	0.493
905.500	538.522	80.010	19.994	103.826	19.988	7.755	0.486
906.000	538.782	80.011	19.993	103.825	19.988	7.688	0.523
906.500	538.996	80.011	19.993	103.825	19.984	8.003	0.507
907.000	539.252	80.011	19.994	103.825	19.984	8.019	0.472
907.500	539.497	80.011	19.993	103.825	19.985	7.976	0.485
908.000	539.753	80.013	19.993	103.826	19.990	7.587	0.501
908.500	540.014	80.010	19.993	103.826	19.984	8.007	0.509
909.000	540.253	80.010	19.993	103.825	19.983	8.074	0.509
909.500	540.525	80.011	19.994	103.825	19.986	7.861	0.506
910.000	540.732	80.010	19.994	103.824	19.980	8.319	0.495
910.500	541.016	80.011	19.993	103.823	19.981	8.260	0.485
911.000	541.251	80.009	19.993	103.822	19.983	8.122	0.505
911.500	541.461	80.011	19.993	103.822	19.983	8.104	0.482
912.000	541.736	80.009	19.994	103.821	19.980	8.341	0.465
912.500	542.009	80.010	19.993	103.821	19.982	8.142	0.517
913.000	542.229	80.008	19.995	103.821	19.983	8.086	0.521
913.500	542.484	80.010	19.993	103.821	19.983	8.092	0.484
914.000	542.736	80.009	19.995	103.821	19.981	8.262	0.491
914.500	542.980	80.009	19.994	103.821	19.982	8.185	0.501
915.000	543.214	80.008	19.995	103.821	19.982	8.145	0.487
915.500	543.479	80.009	19.995	103.821	19.980	8.295	0.489
916.000	543.738	80.008	19.993	103.821	19.983	8.110	0.511
916.500	543.967	80.010	19.995	103.822	19.982	8.185	0.506
917.000	544.247	80.009	19.994	103.821	19.982	8.139	0.499
917.500	544.512	80.009	19.994	103.821	19.980	8.293	0.527
918.000	544.732	80.009	19.995	103.821	19.980	8.351	0.515
918.500	544.988	80.010	19.993	103.821	19.983	8.118	0.481
919.000	545.202	80.010	19.994	103.821	19.980	8.351	0.473
919.500	545.466	80.010	19.993	103.821	19.982	8.203	0.474
920.000	545.732	80.010	19.993	103.822	19.978	8.455	0.504
920.500	546.009	80.011	19.994	103.823	19.980	8.345	0.536
921.000	546.267	80.011	19.994	103.823	19.979	8.408	0.539
921.500	546.530	80.010	19.994	103.822	19.983	8.104	0.528
922.000	546.746	80.010	19.994	103.822	19.979	8.412	0.499
922.500	547.008	80.009	19.993	103.819	19.981	8.216	0.478
923.000	547.249	80.011	19.994	103.818	19.980	8.329	0.491
923.500	547.529	80.011	19.993	103.818	19.977	8.558	0.512
924.000	547.770	80.010	19.994	103.818	19.979	8.400	0.522
924.500	548.026	80.011	19.994	103.818	19.979	8.362	0.509
925.000	548.302	80.012	19.994	103.821	19.979	8.421	0.514
925.500	548.503	80.011	19.994	103.822	19.981	8.224	0.505
926.000	548.791	80.010	19.994	103.822	19.976	8.617	0.483
926.500	549.016	80.011	19.993	103.822	19.980	8.339	0.501
927.000	549.252	80.011	19.994	103.822	19.977	8.513	0.487
927.500	549.515	80.010	19.993	103.822	19.981	8.258	0.480
928.000	549.785	80.011	19.994	103.822	19.981	8.274	0.516
928.500	550.036	80.012	19.993	103.822	19.982	8.203	0.527
929.000	550.322	80.011	19.993	103.822	19.981	8.211	0.529
929.500	550.572	80.011	19.993	103.822	19.979	8.422	0.537
930.000	550.810	80.012	19.993	103.821	19.981	8.238	0.513
930.500	551.080	80.011	19.992	103.821	19.980	8.293	0.498
931.000	551.305	80.013	19.994	103.821	19.981	8.250	0.502
931.500	551.580	80.011	19.994	103.820	19.981	8.242	0.497
932.000	551.810	80.011	19.993	103.820	19.983	8.106	0.502
932.500	552.059	80.011	19.993	103.820	19.981	8.215	0.492
933.000	552.342	80.011	19.994	103.820	19.980	8.288	0.506
933.500	552.596	80.011	19.995	103.821	19.980	8.309	0.534
934.000	552.851	80.010	19.997	103.822	19.983	8.108	0.523
934.500	553.062	80.010	19.994	103.824	19.979	8.394	0.488
935.000	553.310	80.010	19.994	103.825	19.979	8.412	0.462
935.500	553.627	80.010	19.995	103.827	19.981	8.262	0.512
936.000	553.842	80.011	19.994	103.827	19.978	8.483	0.549
936.500	554.081	80.011	19.994	103.824	19.977	8.579	0.493
937.000	554.329	80.009	19.995	103.822	19.979	8.380	0.470
937.500	554.643	80.009	19.995	103.821	19.978	8.488	0.525
938.000	554.849	80.009	19.994	103.818	19.976	8.629	0.541
938.500	555.126	80.009	19.994	103.817	19.976	8.597	0.501
939.000	555.375	80.009	19.995	103.818	19.978	8.485	0.504
939.500	555.630	80.009	19.995	103.819	19.977	8.507	0.515
940.000	555.916	80.008	19.994	103.818	19.980	8.337	0.523
940.500	556.157	80.007	19.994	103.819	19.978	8.487	0.534
941.000	556.384	80.007	19.995	103.819	19.977	8.556	0.498
941.500	556.691	80.008	19.994	103.820	19.976	8.654	0.501
942.000	556.910	80.008	19.994	103.820	19.977	8.544	0.530
942.500	557.148	80.007	19.994	103.821	19.976	8.650	0.491
943.000	557.405	80.009	19.995	103.820	19.976	8.615	0.476
943.500	557.635	80.008	19.994	103.820	19.975	8.712	0.491
944.000	557.910	80.007	19.994	103.820	19.975	8.674	0.496
944.500	558.151	80.008	19.994	103.820	19.975	8.662	0.510
945.000	558.447	80.007	19.995	103.820	19.977	8.564	0.526
945.500	558.653	80.008	19.993	103.822	19.977	8.508	0.519
946.000	558.934	80.009	19.993	103.823	19.977	8.522	0.494
946.500	559.214	80.008	19.995	103.824	19.976	8.652	0.524
947.000	559.439	80.008	19.994	103.824	19.978	8.439	0.534
947.500	559.682	80.008	19.994	103.824	19.976	8.630	0.487
948.000	559.940	80.008	19.995	103.824	19.976	8.619	0.484
948.500	560.181	80.009	19.993	103.824	19.978	8.485	0.500
949.000	560.456	80.008	19.994	103.824	19.975	8.706	0.508
949.500	560.692	80.008	19.993	103.824	19.976	8.595	0.514
950.000	560.957	80.008	19.993	103.821	19.976	8.605	0.506
950.500	561.169	80.008	19.993	103.819	19.974	8.753	0.489
951.000	561.448	80.008	19.993	103.819	19.977	8.572	0.484
951.500	561.661	80.008	19.994	103.820	19.976	8.606	0.491
952.000	561.921	80.008	19.994	103.820	19.976	8.627	0.482
952.500	562.209	80.009	19.993	103.823	19.974	8.775	0.511
953.000	562.457	80.008	19.993	103.825	19.974	8.759	0.542
953.500	562.683	80.008	19.993	103.825	19.977	8.536	0.505
954.000	562.951	80.009	19.992	103.825	19.977	8.544	0.484
954.500	563.175	80.008	19.993	103.823	19.974	8.800	0.493
955.000	563.442	80.008	19.993	103.824	19.974	8.745	0.491
955.500	563.705	80.009	19.994	103.823	19.977	8.544	0.511
956.000	563.957	80.009	19.994	103.822	19.978	8.441	0.523
956.500	564.188	80.009	19.994	103.821	19.976	8.654	0.499
957.000	564.404	80.008	19.993	103.824	19.975	8.664	0.464
957.500	564.678	80.009	19.993	103.824	19.975	8.670	0.468
958.000	564.942	80.008	19.992	103.824	19.976	8.645	0.515
958.500	565.192	80.009	19.992	103.825	19.975	8.706	0.526
959.001	565.445	80.008	19.993	103.825	19.973	8.818	0.508
959.500	565.693	80.009	19.993	103.823	19.974	8.745	0.502
960.000	565.959	80.009	19.993	103.824	19.974	8.797	0.507
960.500	566.177	80.009	19.993	103.823	19.975	8.676	0.498
961.000	566.443	80.007	19.993	103.823	19.974	8.779	0.484
961.500	566.665	80.009	19.994	103.820	19.972	8.901	0.486
962.000	566.904	80.009	19.993	103.817	19.976	8.651	0.474
962.500	567.181	80.009	19.994	103.813	19.974	8.773	0.489
963.000	567.402	80.007	19.993	103.813	19.977	8.570	0.507
963.500	567.651	80.008	19.994	103.814	19.972	8.907	0.484
964.000	567.917	80.007	19.994	103.817	19.971	9.020	0.493
964.500	568.180	80.008	19.993	103.821	19.972	8.903	0.522
965.000	568.430	80.008	19.993	103.826	19.972	8.893	0.521
965.500	568.701	80.008	19.993	103.826	19.971	8.976	0.517
966.000	568.932	80.007	19.994	103.826	19.972	8.931	0.512
966.500	569.177	80.008	19.993	103.826	19.977	8.552	0.489
967.000	569.423	80.008	19.994	103.823	19.970	9.057	0.483
967.500	569.680	80.007	19.992	103.821	19.973	8.877	0.497
968.000	569.956	80.008	19.992	103.822	19.969	9.142	0.518
968.500	570.189	80.009	19.993	103.822	19.972	8.913	0.521
969.000	570.426	80.008	19.992	103.821	19.970	9.063	0.490
969.500	570.671	80.009	19.993	103.822	19.970	9.036	0.476
970.000	570.911	80.007	19.993	103.824	19.970	9.036	0.483
970.500	571.180	80.008	19.993	103.823	19.971	8.995	0.497
971.000	571.433	80.008	19.992	103.821	19.972	8.947	0.516
971.500	571.660	80.008	19.994	103.823	19.973	8.860	0.502
972.000	571.926	80.009	19.993	103.823	19.973	8.831	0.487
972.500	572.164	80.008	19.993	103.821	19.971	9.010	0.498
973.000	572.426	80.006	19.994	103.819	19.972	8.937	0.502
973.500	572.674	80.008	19.994	103.821	19.970	9.061	0.505
974.000	572.939	80.008	19.993	103.818	19.973	8.856	0.511
974.500	573.172	80.008	19.995	103.818	19.969	9.140	0.505
975.000	573.391	80.009	19.993	103.820	19.973	8.856	0.475
975.500	573.664	80.008	19.993	103.820	19.971	9.006	0.472
976.000	573.924	80.008	19.992	103.820	19.969	9.131	0.512
976.500	574.143	80.008	19.994	103.821	19.971	8.955	0.506
977.000	574.408	80.009	19.993	103.822	19.971	8.963	0.482
977.500	574.710	80.009	19.994	103.822	19.969	9.144	0.525
978.000	574.930	80.008	19.993	103.823	19.973	8.828	0.545
978.500	575.165	80.009	19.995	103.824	19.969	9.141	0.489
979.000	575.435	80.008	19.994	103.824	19.971	8.975	0.480
979.500	575.701	80.007	19.994	103.822	19.967	9.319	0.521
980.000	575.969	80.008	19.994	103.816	19.971	9.005	0.535
980.500	576.201	80.007	19.993	103.816	19.971	8.991	0.516
981.000	576.428	80.008	19.994	103.813	19.972	8.941	0.479
981.500	576.690	80.008	19.993	103.812	19.971	8.990	0.474
982.000	576.908	80.009	19.993	103.813	19.969	9.171	0.485
982.500	577.174	80.008	19.995	103.818	19.969	9.159	0.482
983.000	577.452	80.008	19.994	103.815	19.969	9.126	0.514
983.500	577.693	80.008	19.993	103.816	19.968	9.209	0.531
984.000	577.953	80.011	19.994	103.815	19.967	9.270	0.510
984.500	578.178	80.009	19.994	103.816	19.969	9.156	0.493
985.000	578.440	80.010	19.993	103.813	19.968	9.203	0.486
985.500	578.678	80.010	19.994	103.815	19.964	9.501	0.494
986.000	578.943	80.010	19.995	103.816	19.965	9.404	0.501
986.500	579.201	80.011	19.994	103.815	19.971	8.986	0.513
987.000	579.435	80.009	19.993	103.814	19.965	9.438	0.508
987.500	579.703	80.010	19.993	103.815	19.964	9.501	0.497
988.000	579.913	80.011	19.994	103.815	19.966	9.365	0.490
988.500	580.204	80.010	19.992	103.816	19.963	9.572	0.490
989.000	580.478	80.010	19.994	103.817	19.963	9.584	0.533
989.500	580.674	80.011	19.993	103.812	19.961	9.717	0.517
990.000	580.956	80.010	19.993	103.810	19.964	9.490	0.474
990.500	581.193	80.011	19.994	103.806	19.966	9.371	0.498
991.000	581.448	80.011	19.992	103.805	19.965	9.448	0.505
991.500	581.717	80.011	19.994	103.807	19.965	9.472	0.508
992.000	581.955	80.011	19.993	103.813	19.963	9.624	0.516
992.500	582.205	80.010	19.992	103.817	19.965	9.428	0.498
993.000	582.433	80.011	19.994	103.821	19.965	9.422	0.483
993.500	582.693	80.010	19.995	103.822	19.967	9.300	0.483
994.000	582.932	80.010	19.994	103.822	19.965	9.466	0.493
994.500	583.211	80.011	19.994	103.822	19.962	9.631	0.508
995.000	583.468	80.010	19.994	103.822	19.965	9.473	0.527
995.500	583.744	80.012	19.993	103.822	19.964	9.514	0.535
996.000	583.974	80.011	19.993	103.822	19.964	9.508	0.520
996.500	584.215	80.011	19.993	103.823	19.968	9.185	0.488
997.000	584.430	80.010	19.994	103.823	19.966	9.359	0.464
997.500	584.747	80.011	19.992	103.822	19.965	9.461	0.494
998.000	584.983	80.010	19.994	103.822	19.962	9.651	0.542
998.500	585.218	80.010	19.993	103.820	19.965	9.432	0.512
999.000	585.474	80.010	19.994	103.819	19.964	9.501	0.481
999.500	585.725	80.010	19.993	103.818	19.961	9.734	0.499
1000.000	585.968	80.009	19.993	103.816	19.963	9.570	0.501
1000.500	586.243	80.010	19.994	103.814	19.964	9.507	0.506
1001.000	586.497	80.008	19.994	103.815	19.965	9.467	0.523
1001.500	586.748	80.010	19.994	103.816	19.966	9.335	0.517
1002.000	586.957	80.009	19.994	103.815	19.961	9.750	0.482
1002.500	587.198	80.010	19.993	103.816	19.962	9.643	0.455
1003.000	587.473	80.009	19.993	103.817	19.966	9.357	0.483
1003.500	587.781	80.010	19.994	103.818	19.966	9.334	0.549
1004.000	588.011	80.010	19.994	103.818	19.966	9.393	0.560
1004.500	588.264	80.010	19.994	103.820	19.965	9.469	0.511
1005.000	588.559	80.009	19.994	103.820	19.963	9.596	0.516
1005.500	588.783	80.011	19.993	103.821	19.966	9.371	0.534
1006.000	589.046	80.009	19.994	103.822	19.963	9.614	0.503
1006.500	589.301	80.011	19.993	103.825	19.962	9.676	0.502
1007.001	589.602	80.010	19.994	103.826	19.964	9.483	0.537
1007.501	589.835	80.009	19.995	103.826	19.962	9.652	0.545
1008.000	590.095	80.011	19.994	103.825	19.963	9.583	0.513
1008.500	590.359	80.010	19.993	103.825	19.964	9.510	0.509
1009.000	590.611	80.009	19.994	103.821	19.962	9.697	0.521
1009.500	590.873	80.011	19.994	103.821	19.963	9.598	0.515
1010.000	591.133	80.011	19.993	103.821	19.963	9.580	0.518
1010.500	591.380	80.011	19.994	103.822	19.962	9.671	0.514
1011.000	591.648	80.009	19.993	103.822	19.966	9.332	0.511
1011.500	591.893	80.011	19.993	103.823	19.963	9.604	0.514
1012.000	592.172	80.010	19.994	103.823	19.966	9.395	0.519
1012.500	592.426	80.011	19.994	103.823	19.966	9.383	0.528
1013.000	592.691	80.011	19.993	103.820	19.966	9.373	0.526
1013.500	592.952	80.010	19.994	103.819	19.961	9.748	0.522
1014.000	593.190	80.012	19.993	103.818	19.962	9.671	0.512
1014.500	593.451	80.010	19.993	103.817	19.966	9.392	0.499
1015.000	593.739	80.011	19.993	103.817	19.963	9.592	0.524
1015.500	593.979	80.011	19.994	103.820	19.960	9.775	0.538
1016.000	594.236	80.012	19.993	103.820	19.963	9.616	0.513
1016.500	594.512	80.011	19.993	103.819	19.963	9.620	0.515
1017.000	594.747	80.011	19.993	103.812	19.962	9.649	0.522
1017.500	595.037	80.011	19.993	103.806	19.964	9.492	0.518
1018.000	595.313	80.012	19.993	103.806	19.960	9.833	0.545
1018.501	595.578	80.011	19.994	103.805	19.960	9.793	0.554
1019.001	595.829	80.011	19.993	103.804	19.961	9.728	0.529
1019.500	596.062	80.011	19.993	103.810	19.962	9.695	0.500
1020.000	596.317	80.010	19.993	103.815	19.961	9.756	0.485
1020.500	596.615	80.010	19.993	103.813	19.959	9.884	0.520
1021.000	596.859	80.011	19.994	103.815	19.958	9.931	0.548
1021.500	597.111	80.009	19.994	103.817	19.960	9.842	0.519
1022.000	597.357	80.010	19.994	103.818	19.960	9.820	0.497
1022.500	597.667	80.009	19.994	103.820	19.960	9.781	0.527
1023.000	597.894	80.009	19.993	103.818	19.962	9.670	0.547
1023.500	598.149	80.009	19.993	103.817	19.960	9.788	0.509
1024.000	598.432	80.009	19.993	103.817	19.963	9.556	0.509
1024.500	598.668	80.009	19.994	103.817	19.962	9.689	0.528
1025.000	598.946	80.008	19.993	103.817	19.959	9.864	0.517
1025.501	599.210	80.008	19.993	103.822	19.960	9.838	0.528
1026.001	599.471	80.009	19.994	103.821	19.960	9.797	0.533
1026.500	599.753	80.008	19.994	103.819	19.962	9.696	0.534
1027.000	600.015	80.008	19.993	103.816	19.962	9.694	0.544
1027.500	600.258	80.007	19.993	103.817	19.959	9.905	0.524
1028.000	600.542	80.008	19.994	103.817	19.959	9.911	0.516
1028.500	600.809	80.007	19.995	103.816	19.958	9.954	0.539
1029.000	601.053	80.008	19.994	103.817	19.961	9.738	0.531
1029.500	601.302	80.008	19.994	103.818	19.958	9.949	0.502
1030.000	601.564	80.008	19.994	103.818	19.959	9.923	0.502
1030.500	601.802	80.007	19.994	103.818	19.953	10.328	0.506
1031.000	602.102	80.008	19.995	103.820	19.957	10.054	0.519
1031.500	602.345	80.007	19.994	103.822	19.955	10.172	0.541
1032.000	602.607	80.007	19.994	103.822	19.956	10.098	0.524
1032.500	602.861	80.007	19.995	103.823	19.957	10.037	0.510
1033.000	603.136	80.008	19.994	103.823	19.959	9.922	0.523
1033.500	603.384	80.007	19.994	103.819	19.955	10.169	0.526
1034.000	603.648	80.007	19.995	103.811	19.956	10.103	0.517
1034.500	603.909	80.007	19.995	103.808	19.957	10.018	0.519
1035.000	604.180	80.008	19.995	103.800	19.956	10.095	0.529
1035.500	604.409	80.007	19.994	103.797	19.955	10.216	0.516
1036.000	604.703	80.009	19.995	103.798	19.954	10.259	0.511
1036.500	604.960	80.006	19.995	103.803	19.956	10.143	0.537
1037.001	605.182	80.008	19.994	103.801	19.956	10.086	0.515
1037.501	605.456	80.007	19.995	103.804	19.954	10.291	0.488
1038.000	605.723	80.008	19.994	103.806	19.957	10.060	0.519
1038.500	605.997	80.008	19.995	103.808	19.954	10.258	0.541
1039.000	606.244	80.008	19.995	103.808	19.954	10.240	0.531
1039.500	606.521	80.008	19.995	103.813	19.957	10.068	0.523
1040.000	606.739	80.008	19.994	103.818	19.954	10.249	0.510
1040.500	607.035	80.008	19.994	103.818	19.952	10.392	0.504
1041.000	607.272	80.008	19.994	103.820	19.953	10.352	0.523
1041.501	607.544	80.008	19.995	103.821	19.953	10.303	0.521
1042.001	607.800	80.008	19.994	103.820	19.957	10.051	0.519
1042.500	608.008	80.009	19.994	103.816	19.953	10.301	0.496
1043.000	608.330	80.010	19.995	103.813	19.955	10.188	0.497
1043.500	608.583	80.009	19.994	103.813	19.953	10.304	0.553
1044.000	608.829	80.008	19.995	103.812	19.953	10.365	0.537
1044.500	609.127	80.009	19.994	103.814	19.955	10.196	0.522
1045.000	609.351	80.009	19.994	103.817	19.953	10.330	0.533
1045.500	609.595	80.009	19.994	103.819	19.954	10.245	0.495
1046.000	609.862	80.009	19.994	103.820	19.955	10.221	0.490
1046.501	610.093	80.010	19.994	103.818	19.955	10.201	0.505
1047.001	610.359	80.010	19.994	103.818	19.953	10.328	0.497
1047.500	610.609	80.009	19.995	103.816	19.952	10.423	0.506
1048.000	610.876	80.009	19.994	103.811	19.953	10.348	0.516
1048.500	611.156	80.009	19.993	103.810	19.953	10.335	0.533
1049.000	611.398	80.009	19.993	103.811	19.956	10.103	0.535
1049.500	611.652	80.010	19.993	103.812	19.953	10.365	0.509
1050.000	611.946	80.008	19.994	103.815	19.950	10.536	0.522
1050.500	612.139	80.010	19.993	103.819	19.953	10.339	0.517
1051.000	612.424	80.010	19.994	103.818	19.955	10.172	0.482
1051.500	612.692	80.010	19.994	103.814	19.952	10.387	0.516
1052.000	612.935	80.008	19.992	103.811	19.956	10.079	0.532
1052.501	613.205	80.007	19.992	103.810	19.955	10.154	0.512
1053.001	613.490	80.009	19.994	103.810	19.951	10.452	0.534
1053.500	613.718	80.010	19.993	103.813	19.954	10.257	0.534
1054.000	613.978	80.009	19.994	103.817	19.953	10.338	0.501
1054.500	614.254	80.009	19.994	103.818	19.956	10.097	0.512
1055.000	614.485	80.009	19.994	103.820	19.953	10.338	0.521
1055.501	614.774	80.008	19.993	103.819	19.953	10.348	0.513
1056.001	615.009	80.007	19.993	103.819	19.953	10.337	0.522
1056.500	615.315	80.009	19.993	103.820	19.953	10.333	0.533
1057.000	615.545	80.008	19.994	103.823	19.950	10.584	0.539
1057.500	615.806	80.009	19.993	103.822	19.953	10.301	0.514
1058.000	616.078	80.008	19.994	103.821	19.952	10.435	0.512
1058.500	616.316	80.008	19.994	103.816	19.952	10.431	0.521
1059.000	616.566	80.008	19.993	103.813	19.950	10.570	0.499
1059.501	616.858	80.008	19.994	103.804	19.950	10.540	0.515
1060.001	617.103	80.008	19.994	103.802	19.949	10.651	0.540
1060.500	617.362	80.009	19.994	103.803	19.952	10.428	0.520
1061.000	617.583	80.008	19.993	103.807	19.951	10.446	0.492
1061.500	617.880	80.010	19.994	103.809	19.951	10.479	0.499
1062.001	618.119	80.008	19.993	103.817	19.952	10.386	0.527
1062.501	618.418	80.009	19.994	103.821	19.955	10.193	0.537
1063.000	618.641	80.009	19.993	103.821	19.952	10.398	0.530
1063.500	618.874	80.009	19.994	103.820	19.952	10.433	0.489
1064.000	619.139	80.010	19.995	103.820	19.951	10.455	0.478
1064.500	619.373	80.009	19.993	103.820	19.953	10.305	0.499
1065.000	619.630	80.008	19.994	103.820	19.952	10.406	0.495
1065.500	619.942	80.009	19.993	103.818	19.955	10.199	0.530
1066.000	620.203	80.010	19.994	103.816	19.953	10.310	0.571
1066.500	620.469	80.010	19.994	103.812	19.953	10.308	0.550
1067.000	620.702	80.011	19.994	103.809	19.953	10.347	0.513
1067.500	620.963	80.009	19.993	103.808	19.951	10.484	0.496
1068.000	621.195	80.009	19.994	103.807	19.953	10.336	0.494
1068.500	621.476	80.010	19.993	103.808	19.949	10.665	0.503
1069.000	621.748	80.011	19.993	103.810	19.951	10.458	0.533
1069.500	621.975	80.010	19.993	103.810	19.952	10.385	0.526
1070.001	622.218	80.009	19.993	103.806	19.953	10.311	0.485
1070.501	622.462	80.010	19.994	103.808	19.954	10.263	0.479
1071.000	622.732	80.010	19.993	103.806	19.954	10.271	0.500
1071.500	622.988	80.011	19.993	103.803	19.951	10.468	0.520
1072.000	623.219	80.011	19.992	103.803	19.953	10.332	0.507
1072.500	623.488	80.011	19.993	103.809	19.953	10.330	0.493
1073.000	623.704	80.011	19.994	103.809	19.954	10.246	0.492
1073.500	623.987	80.010	19.993	103.811	19.952	10.387	0.492
1074.000	624.222	80.011	19.993	103.811	19.951	10.456	0.509
1074.500	624.480	80.011	19.995	103.813	19.952	10.425	0.505
1075.000	624.749	80.010	19.993	103.810	19.949	10.620	0.510
1075.500	625.022	80.011	19.993	103.811	19.953	10.343	0.534
1076.000	625.256	80.012	19.994	103.810	19.952	10.421	0.524
1076.500	625.518	80.010	19.994	103.807	19.953	10.327	0.502
1077.000	625.762	80.010	19.994	103.803	19.953	10.317	0.501
1077.501	626.016	80.010	19.993	103.802	19.952	10.385	0.502
1078.001	626.252	80.011	19.994	103.802	19.951	10.452	0.494
1078.500	626.487	80.011	19.994	103.801	19.951	10.496	0.481
1079.000	626.770	80.010	19.994	103.801	19.952	10.387	0.495
1079.500	627.055	80.012	19.993	103.803	19.952	10.399	0.543
1080.000	627.266	80.010	19.993	103.805	19.949	10.661	0.531
1080.501	627.533	80.009	19.993	103.805	19.950	10.562	0.487
1081.001	627.771	80.009	19.993	103.809	19.950	10.560	0.492
1081.500	628.023	80.010	19.993	103.817	19.951	10.467	0.497
1082.000	628.268	80.009	19.993	103.818	19.949	10.595	0.493
1082.500	628.525	80.010	19.993	103.818	19.950	10.536	0.500
1083.000	628.809	80.011	19.993	103.816	19.951	10.459	0.521
1083.500	629.044	80.009	19.994	103.814	19.950	10.583	0.530
1084.000	629.322	80.010	19.993	103.814	19.949	10.626	0.516
1084.500	629.578	80.009	19.993	103.817	19.949	10.597	0.524
1085.000	629.789	80.010	19.993	103.819	19.950	10.531	0.501
1085.501	630.072	80.009	19.993	103.817	19.946	10.866	0.481
1086.001	630.341	80.010	19.992	103.814	19.949	10.637	0.523
1086.500	630.600	80.010	19.994	103.808	19.950	10.582	0.540
1087.000	630.833	80.010	19.993	103.800	19.946	10.837	0.510
1087.501	631.108	80.010	19.994	103.793	19.947	10.781	0.500
1088.001	631.348	80.009	19.993	103.793	19.949	10.633	0.512
1088.500	631.590	80.009	19.993	103.799	19.949	10.655	0.498
1089.001	631.828	80.010	19.992	103.806	19.952	10.381	0.481
1089.501	632.129	80.010	19.993	103.813	19.950	10.580	0.509
1090.000	632.368	80.011	19.993	103.816	19.950	10.543	0.540
1090.500	632.582	80.010	19.993	103.814	19.948	10.704	0.497
1091.000	632.847	80.010	19.993	103.806	19.949	10.649	0.466
1091.500	633.141	80.009	19.993	103.803	19.949	10.610	0.519
1092.000	633.402	80.010	19.993	103.802	19.952	10.381	0.557
1092.500	633.665	80.011	19.994	103.806	19.950	10.569	0.539
1093.000	633.918	80.011	19.993	103.814	19.951	10.456	0.520
1093.500	634.163	80.011	19.992	103.815	19.953	10.348	0.507
1094.000	634.407	80.011	19.994	103.812	19.951	10.500	0.494
1094.500	634.673	80.010	19.993	103.813	19.954	10.281	0.499
1095.001	634.947	80.011	19.992	103.813	19.952	10.387	0.524
1095.501	635.184	80.011	19.992	103.814	19.955	10.218	0.525
1096.000	635.452	80.012	19.993	103.819	19.951	10.463	0.508
1096.500	635.752	80.010	19.993	103.824	19.951	10.517	0.537
1097.000	635.988	80.011	19.993	103.824	19.949	10.649	0.552
1097.500	636.255	80.011	19.993	103.823	19.951	10.515	0.519
1098.000	636.489	80.011	19.993	103.823	19.950	10.549	0.502
1098.500	636.760	80.011	19.993	103.824	19.951	10.490	0.503
1099.000	637.011	80.011	19.993	103.824	19.951	10.470	0.514
1099.500	637.263	80.012	19.993	103.824	19.948	10.733	0.513
1100.000	637.533	80.010	19.992	103.824	19.952	10.376	0.513
1100.500	637.773	80.011	19.993	103.824	19.951	10.445	0.516
1101.000	638.021	80.011	19.993	103.824	19.949	10.621	0.499
1101.501	638.281	80.011	19.994	103.825	19.952	10.425	0.498
1102.001	638.515	80.010	19.994	103.824	19.949	10.620	0.501
1102.500	638.808	80.010	19.994	103.823	19.951	10.497	0.511
1103.000	639.055	80.010	19.994	103.819	19.953	10.359	0.533
1103.500	639.344	80.009	19.992	103.818	19.953	10.315	0.538
1104.000	639.602	80.010	19.995	103.819	19.953	10.342	0.541
1104.501	639.883	80.010	19.994	103.819	19.953	10.332	0.543
1105.001	640.124	80.009	19.994	103.816	19.952	10.396	0.531
1105.501	640.414	80.009	19.994	103.819	19.952	10.392	0.527
1106.000	640.661	80.009	19.993	103.818	19.953	10.331	0.534
1106.500	640.915	80.008	19.994	103.815	19.953	10.299	0.519
1107.000	641.161	80.008	19.995	103.810	19.953	10.366	0.500
1107.501	641.409	80.010	19.993	103.807	19.951	10.449	0.497
1108.001	641.687	80.009	19.994	103.805	19.950	10.536	0.510
1108.501	641.937	80.009	19.994	103.803	19.950	10.560	0.527
1109.001	642.205	80.009	19.994	103.802	19.952	10.387	0.523
1109.500	642.496	80.009	19.994	103.800	19.955	10.213	0.538
1110.000	642.722	80.008	19.995	103.798	19.951	10.467	0.538
1110.500	642.934	80.008	19.993	103.794	19.951	10.502	0.478
1111.000	643.230	80.008	19.994	103.793	19.951	10.471	0.473
1111.501	643.466	80.009	19.995	103.788	19.950	10.526	0.520
1112.001	643.728	80.009	19.994	103.790	19.952	10.376	0.515
1112.500	643.983	80.007	19.994	103.792	19.952	10.397	0.507
1113.001	644.228	80.008	19.995	103.795	19.951	10.506	0.508
1113.501	644.458	80.008	19.996	103.801	19.946	10.837	0.488
1114.000	644.759	80.009	19.995	103.806	19.950	10.549	0.503
1114.500	644.990	80.009	19.994	103.809	19.949	10.620	0.531
1115.000	645.272	80.008	19.994	103.813	19.951	10.462	0.522
1115.500	645.512	80.010	19.994	103.814	19.951	10.470	0.518
1116.000	645.810	80.008	19.995	103.809	19.948	10.703	0.531
1116.500	646.059	80.007	19.993	103.807	19.949	10.600	0.543
1117.000	646.309	80.008	19.995	103.806	19.953	10.360	0.523
1117.500	646.555	80.010	19.994	103.808	19.951	10.483	0.498
1118.000	646.809	80.009	19.994	103.809	19.950	10.560	0.498
1118.500	647.070	80.009	19.993	103.811	19.949	10.599	0.507
1119.000	647.326	80.009	19.994	103.809	19.948	10.736	0.516
1119.500	647.610	80.009	19.994	103.805	19.952	10.440	0.528
1120.000	647.869	80.009	19.995	103.803	19.948	10.710	0.542
1120.500	648.133	80.009	19.993	103.803	19.951	10.509	0.533
1121.000	648.398	80.008	19.994	103.807	19.949	10.619	0.526
1121.501	648.635	80.008	19.994	103.810	19.947	10.745	0.516
1122.001	648.870	80.008	19.994	103.810	19.949	10.666	0.487
1122.500	649.160	80.010	19.994	103.809	19.949	10.640	0.498
1123.000	649.400	80.008	19.993	103.808	19.950	10.557	0.527
1123.500	649.637	80.009	19.995	103.804	19.949	10.618	0.504
1124.001	649.919	80.009	19.995	103.799	19.948	10.710	0.498
1124.501	650.183	80.009	19.995	103.802	19.951	10.463	0.532
1125.000	650.439	80.008	19.994	103.802	19.949	10.633	0.533
1125.501	650.685	80.009	19.994	103.798	19.945	10.943	0.511
1126.001	650.951	80.009	19.994	103.796	19.949	10.627	0.507
1126.500	651.214	80.008	19.994	103.800	19.946	10.838	0.520
1127.000	651.460	80.010	19.994	103.799	19.949	10.633	0.519
1127.500	651.738	80.008	19.994	103.797	19.948	10.682	0.517
1128.000	651.974	80.009	19.995	103.798	19.949	10.637	0.519
1128.500	652.233	80.009	19.995	103.803	19.949	10.657	0.505
1129.000	652.500	80.008	19.994	103.805	19.947	10.805	0.511
1129.500	652.749	80.008	19.994	103.808	19.946	10.882	0.521
1130.000	652.981	80.010	19.993	103.807	19.948	10.701	0.498
1130.500	653.261	80.009	19.994	103.807	19.949	10.636	0.496
1131.000	653.534	80.009	19.994	103.804	19.945	10.937	0.533
1131.500	653.782	80.010	19.995	103.801	19.950	10.586	0.537
1132.000	654.033	80.009	19.995	103.793	19.950	10.573	0.511
1132.500	654.311	80.009	19.994	103.792	19.951	10.496	0.514
1133.001	654.545	80.009	19.994	103.790	19.950	10.566	0.520
1133.501	654.824	80.009	19.994	103.793	19.948	10.696	0.512
1134.000	655.067	80.008	19.996	103.797	19.952	10.423	0.518
1134.500	655.339	80.007	19.995	103.802	19.949	10.597	0.518
1135.001	655.602	80.008	19.995	103.804	19.948	10.703	0.525
1135.501	655.842	80.008	19.996	103.807	19.950	10.531	0.519
1136.001	656.094	80.009	19.996	103.808	19.950	10.561	0.498
1136.501	656.329	80.007	19.995	103.806	19.953	10.313	0.489
1137.000	656.620	80.008	19.996	103.804	19.952	10.425	0.506
1137.500	656.865	80.008	19.995	103.809	19.950	10.538	0.531
1138.000	657.150	80.007	19.995	103.809	19.948	10.712	0.533
1138.500	657.386	80.008	19.996	103.807	19.950	10.583	0.526
1139.000	657.649	80.007	19.995	103.808	19.947	10.758	0.509
1139.500	657.886	80.006	19.995	103.807	19.950	10.555	0.499
1140.000	658.185	80.007	19.994	103.802	19.948	10.737	0.518
1140.500	658.437	80.008	19.995	103.800	19.947	10.772	0.543
1141.000	658.663	80.008	19.994	103.799	19.949	10.606	0.514
1141.500	658.938	80.007	19.995	103.801	19.948	10.699	0.490
1142.000	659.180	80.008	19.995	103.805	19.951	10.452	0.509
1142.500	659.467	80.009	19.995	103.806	19.947	10.768	0.522
1143.000	659.720	80.007	19.994	103.811	19.948	10.727	0.535
1143.500	659.959	80.008	19.995	103.812	19.948	10.721	0.516
1144.000	660.223	80.008	19.994	103.809	19.946	10.825	0.498
1144.500	660.509	80.008	19.993	103.810	19.947	10.814	0.527
1145.000	660.761	80.008	19.994	103.813	19.949	10.614	0.544
1145.500	661.019	80.007	19.994	103.815	19.951	10.468	0.524
1146.000	661.284	80.008	19.993	103.818	19.947	10.792	0.517
1146.501	661.554	80.008	19.995	103.822	19.947	10.791	0.529
1147.001	661.787	80.008	19.993	103.820	19.948	10.740	0.518
1147.500	662.034	80.008	19.993	103.815	19.948	10.675	0.491
1148.000	662.342	80.009	19.993	103.812	19.949	10.598	0.518
1148.500	662.562	80.009	19.993	103.811	19.948	10.710	0.542
1149.001	662.884	80.010	19.994	103.811	19.949	10.624	0.534
1149.501	663.118	80.009	19.994	103.813	19.950	10.525	0.549
1150.001	663.348	80.009	19.993	103.817	19.950	10.539	0.510
1150.500	663.616	80.009	19.994	103.816	19.950	10.563	0.481
1151.000	663.892	80.010	19.993	103.817	19.950	10.581	0.521
1151.500	664.162	80.010	19.994	103.817	19.950	10.588	0.545
1152.000	664.427	80.009	19.994	103.817	19.951	10.468	0.541
1152.500	664.676	80.010	19.993	103.818	19.950	10.531	0.524
1153.000	664.924	80.010	19.993	103.821	19.950	10.591	0.506
1153.501	665.169	80.012	19.993	103.818	19.948	10.731	0.495
1154.001	665.415	80.010	19.993	103.815	19.951	10.504	0.492
1154.500	665.682	80.011	19.993	103.816	19.949	10.660	0.502
1155.000	665.940	80.012	19.993	103.817	19.948	10.669	0.519
1155.500	666.172	80.012	19.993	103.817	19.950	10.568	0.507
1156.000	666.441	80.010	19.993	103.819	19.946	10.861	0.495
1156.501	666.725	80.010	19.993	103.821	19.948	10.681	0.527
1157.001	666.949	80.010	19.993	103.820	19.951	10.504	0.531
1157.500	667.225	80.010	19.993	103.821	19.951	10.508	0.504
1158.000	667.479	80.010	19.993	103.821	19.948	10.715	0.515
1158.500	667.755	80.010	19.994	103.823	19.946	10.826	0.530
1159.000	667.994	80.008	19.993	103.824	19.948	10.737	0.523
1159.500	668.252	80.009	19.992	103.824	19.947	10.764	0.506
1160.000	668.550	80.009	19.992	103.823	19.943	11.076	0.526
1160.500	668.741	80.009	19.993	103.819	19.948	10.682	0.523
1161.000	669.057	80.009	19.993	103.817	19.948	10.721	0.498
1161.500	669.296	80.009	19.993	103.816	19.948	10.713	0.531
1162.001	669.578	80.009	19.994	103.812	19.950	10.555	0.539
1162.501	669.839	80.008	19.992	103.806	19.950	10.543	0.532
1163.000	670.055	80.009	19.993	103.802	19.949	10.626	0.510
1163.500	670.406	80.009	19.993	103.797	19.948	10.729	0.522
1164.000	670.669	80.009	19.994	103.792	19.948	10.727	0.590
1164.500	670.919	80.010	19.994	103.794	19.946	10.840	0.563
1165.000	671.148	80.010	19.992	103.795	19.945	10.899	0.496
1165.500	671.375	80.010	19.993	103.797	19.946	10.871	0.468
1166.000	671.625	80.009	19.992	103.801	19.949	10.626	0.467
1166.500	671.918	80.009	19.993	103.802	19.948	10.679	0.510
1167.000	672.152	80.008	19.994	103.797	19.946	10.873	0.535
1167.500	672.416	80.009	19.993	103.798	19.948	10.715	0.512
1168.000	672.688	80.009	19.993	103.797	19.946	10.844	0.517
1168.501	672.928	80.010	19.993	103.795	19.947	10.803	0.524
1169.001	673.181	80.009	19.993	103.794	19.944	11.025	0.502
1169.501	673.455	80.009	19.993	103.794	19.947	10.804	0.510
1170.001	673.746	80.009	19.994	103.795	19.946	10.831	0.546
1170.501	673.979	80.008	19.993	103.796	19.949	10.609	0.545
1171.000	674.227	80.009	19.994	103.795	19.951	10.498	0.503
1171.500	674.475	80.009	19.994	103.795	19.950	10.557	0.488
1172.000	674.749	80.009	19.992	103.798	19.951	10.488	0.509
1172.500	674.990	80.008	19.993	103.798	19.950	10.563	0.518
1173.000	675.274	80.010	19.994	103.801	19.949	10.628	0.520
1173.500	675.492	80.010	19.995	103.804	19.953	10.330	0.514
1174.000	675.771	80.010	19.994	103.802	19.949	10.636	0.499
1174.500	676.037	80.011	19.994	103.799	19.950	10.567	0.521
1175.000	676.276	80.010	19.993	103.796	19.949	10.596	0.525
1175.501	676.549	80.012	19.994	103.792	19.947	10.777	0.509
1176.001	676.794	80.010	19.994	103.790	19.952	10.422	0.515
1176.501	677.080	80.010	19.993	103.798	19.952	10.416	0.524
1177.001	677.307	80.011	19.993	103.798	19.952	10.405	0.522
1177.500	677.532	80.012	19.993	103.798	19.949	10.643	0.482
1178.000	677.776	80.011	19.992	103.796	19.952	10.431	0.461
1178.500	678.053	80.012	19.993	103.795	19.948	10.676	0.495
1179.000	678.288	80.010	19.993	103.787	19.952	10.437	0.517
1179.500	678.487	80.012	19.993	103.788	19.949	10.599	0.473
1180.001	678.804	80.012	19.993	103.793	19.948	10.694	0.475
1180.501	679.040	80.013	19.993	103.799	19.950	10.525	0.534
1181.000	679.308	80.011	19.993	103.803	19.950	10.569	0.529
1181.500	679.552	80.012	19.993	103.808	19.950	10.591	0.509
1182.000	679.822	80.011	19.993	103.811	19.951	10.512	0.513
1182.501	680.064	80.011	19.992	103.814	19.949	10.595	0.513
1183.001	680.343	80.013	19.992	103.814	19.950	10.569	0.516
1183.500	680.544	80.011	19.991	103.815	19.950	10.526	0.501
1184.000	680.845	80.011	19.992	103.817	19.949	10.619	0.491
1184.500	681.124	80.012	19.992	103.816	19.949	10.609	0.541
1185.000	681.409	80.011	19.993	103.813	19.949	10.633	0.572
1185.500	681.648	80.011	19.994	103.813	19.949	10.608	0.544
1186.000	681.880	80.011	19.993	103.807	19.948	10.670	0.498
1186.500	682.118	80.011	19.992	103.804	19.948	10.725	0.471
1187.000	682.403	80.011	19.994	103.807	19.947	10.762	0.496
1187.500	682.651	80.009	19.993	103.804	19.948	10.723	0.528
1188.000	682.891	80.009	19.992	103.800	19.949	10.650	0.511
1188.500	683.182	80.010	19.993	103.806	19.947	10.779	0.509
1189.000	683.429	80.009	19.993	103.810	19.947	10.761	0.535
1189.500	683.650	80.010	19.992	103.812	19.947	10.779	0.503
1190.000	683.906	80.010	19.993	103.814	19.945	10.929	0.472
1190.500	684.170	80.009	19.993	103.813	19.945	10.925	0.498
1191.000	684.438	80.009	19.993	103.806	19.947	10.745	0.526
1191.501	684.701	80.009	19.992	103.799	19.951	10.491	0.532
1192.001	684.977	80.009	19.994	103.794	19.950	10.564	0.535
1192.501	685.173	80.008	19.994	103.790	19.947	10.794	0.505
1193.001	685.452	80.009	19.993	103.791	19.948	10.735	0.474
1193.501	685.715	80.010	19.993	103.792	19.949	10.599	0.509
1194.001	685.987	80.009	19.993	103.792	19.949	10.619	0.539
1194.501	686.249	80.008	19.994	103.791	19.951	10.515	0.534
1195.001	686.534	80.010	19.993	103.791	19.953	10.335	0.540
1195.500	686.756	80.008	19.993	103.788	19.948	10.675	0.527
1196.000	687.011	80.008	19.994	103.790	19.948	10.714	0.492
1196.500	687.233	80.010	19.993	103.796	19.949	10.649	0.477
1197.000	687.517	80.010	19.993	103.797	19.949	10.595	0.491
1197.500	687.774	80.009	19.993	103.800	19.948	10.737	0.523
1198.000	688.020	80.009	19.994	103.801	19.949	10.651	0.522
1198.501	688.301	80.008	19.993	103.800	19.951	10.481	0.515
1199.001	688.549	80.007	19.994	103.794	19.947	10.781	0.528
1199.500	688.793	80.007	19.992	103.791	19.950	10.562	0.510
1200.000	689.064	80.008	19.994	103.787	19.947	10.752	0.503
1200.500	689.310	80.008	19.994	103.786	19.948	10.734	0.516
1201.000	689.565	80.009	19.994	103.786	19.949	10.643	0.509
1201.500	689.822	80.009	19.994	103.786	19.948	10.737	0.507
1202.001	690.075	80.007	19.994	103.788	19.946	10.857	0.511
1202.501	690.305	80.009	19.995	103.789	19.949	10.644	0.496
1203.001	690.576	80.009	19.994	103.791	19.949	10.648	0.492
1203.501	690.866	80.010	19.994	103.792	19.947	10.816	0.531
1204.001	691.059	80.009	19.993	103.791	19.948	10.729	0.522
1204.501	691.374	80.009	19.994	103.789	19.948	10.698	0.495
1205.000	691.632	80.010	19.995	103.788	19.949	10.597	0.541
1205.500	691.878	80.009	19.994	103.786	19.948	10.712	0.539
1206.000	692.186	80.008	19.994	103.784	19.948	10.686	0.529
1206.500	692.466	80.009	19.994	103.785	19.950	10.554	0.571
1207.000	692.690	80.008	19.993	103.786	19.947	10.755	0.546
1207.500	692.959	80.010	19.994	103.789	19.948	10.680	0.499
1208.000	693.224	80.009	19.994	103.789	19.948	10.701	0.514
1208.500	693.495	80.010	19.994	103.790	19.944	11.012	0.535
1209.000	693.743	80.009	19.993	103.789	19.948	10.707	0.528
1209.500	693.981	80.008	19.994	103.788	19.944	10.991	0.502
1210.000	694.253	80.011	19.994	103.786	19.946	10.875	0.498
1210.500	694.490	80.010	19.994	103.785	19.948	10.686	0.510
1211.000	694.761	80.009	19.994	103.785	19.944	11.001	0.509
1211.500	695.052	80.009	19.993	103.789	19.947	10.760	0.535
1212.000	695.295	80.008	19.995	103.791	19.947	10.808	0.548
1212.500	695.514	80.008	19.993	103.795	19.951	10.504	0.498
1213.000	695.829	80.009	19.993	103.800	19.949	10.635	0.498
1213.500	696.056	80.009	19.994	103.799	19.946	10.846	0.538
1214.000	696.317	80.011	19.994	103.796	19.944	10.972	0.515
1214.501	696.588	80.010	19.993	103.795	19.946	10.851	0.510
1215.001	696.851	80.009	19.993	103.791	19.943	11.084	0.533
1215.501	697.107	80.009	19.994	103.788	19.946	10.853	0.527
1216.000	697.368	80.010	19.994	103.789	19.946	10.862	0.518
1216.500	697.588	80.010	19.994	103.791	19.943	11.097	0.499
1217.000	697.879	80.009	19.993	103.795	19.944	11.035	0.496
1217.500	698.131	80.009	19.994	103.803	19.945	10.903	0.527
1218.000	698.398	80.007	19.994	103.810	19.946	10.848	0.530
1218.500	698.659	80.010	19.993	103.815	19.945	10.940	0.524
1219.000	698.944	80.008	19.994	103.821	19.944	11.025	0.538
1219.500	699.205	80.009	19.995	103.821	19.945	10.961	0.546
1220.000	699.396	80.007	19.994	103.816	19.943	11.048	0.499
1220.500	699.656	80.008	19.994	103.816	19.944	11.009	0.451
1221.001	699.936	80.008	19.993	103.814	19.945	10.925	0.495
1221.501	700.219	80.011	19.993	103.807	19.944	10.994	0.552
1222.000	700.452	80.009	19.994	103.802	19.947	10.812	0.540
1222.500	700.705	80.007	19.994	103.800	19.946	10.861	0.501
1223.001	700.938	80.006	19.994	103.794	19.944	10.989	0.486
1223.501	701.205	80.009	19.994	103.796	19.945	10.928	0.494
1224.000	701.430	80.008	19.993	103.803	19.945	10.916	0.496
1224.500	701.720	80.007	19.995	103.811	19.946	10.864	0.503
1225.000	701.954	80.009	19.995	103.816	19.943	11.084	0.519
1225.500	702.227	80.008	19.994	103.818	19.945	10.944	0.516
1226.000	702.474	80.007	19.995	103.815	19.947	10.773	0.514
1226.500	702.706	80.008	19.994	103.815	19.948	10.690	0.499
1227.000	703.040	80.009	19.994	103.811	19.944	10.984	0.522
1227.500	703.269	80.008	19.994	103.809	19.944	10.966	0.565
1228.000	703.508	80.008	19.993	103.812	19.945	10.919	0.516
1228.500	703.753	80.007	19.994	103.815	19.945	10.955	0.476
1229.000	704.058	80.007	19.993	103.813	19.948	10.736	0.517
1229.500	704.332	80.008	19.994	103.815	19.944	11.011	0.565
1230.000	704.526	80.007	19.995	103.812	19.949	10.600	0.524
1230.500	704.805	80.007	19.994	103.807	19.944	10.965	0.471
1231.000	705.051	80.008	19.993	103.800	19.943	11.062	0.499
1231.500	705.334	80.007	19.994	103.798	19.949	10.649	0.527
1232.000	705.591	80.007	19.994	103.793	19.949	10.615	0.534
1232.500	705.816	80.007	19.994	103.792	19.943	11.083	0.511
1233.000	706.083	80.007	19.996	103.792	19.957	10.027	0.487
1233.501	706.364	80.008	19.995	103.797	19.956	10.108	0.520
1234.001	706.614	80.009	19.994	103.799	19.939	11.384	0.539
1234.500	706.849	80.008	19.995	103.800	19.952	10.375	0.508
1235.000	707.122	80.009	19.996	103.802	19.952	10.400	0.497
1235.500	707.383	80.010	19.994	103.802	19.956	10.140	0.521
1236.000	707.661	80.010	19.994	103.797	19.951	10.497	0.536
1236.500	707.886	80.011	19.994	103.792	19.937	11.543	0.521
1237.000	708.148	80.011	19.994	103.791	19.940	11.293	0.495
1237.500	708.433	80.010	19.995	103.793	19.938	11.441	0.517
1238.000	708.666	80.009	19.994	103.795	19.938	11.439	0.533
1238.500	708.909	80.009	19.993	103.795	19.939	11.382	0.497
1239.000	709.225	80.012	19.995	103.793	19.941	11.245	0.518
1239.500	709.446	80.010	19.993	103.789	19.941	11.204	0.548
1240.000	709.701	80.011	19.995	103.784	19.942	11.166	0.507
1240.500	709.950	80.010	19.994	103.782	19.942	11.140	0.490
1241.000	710.210	80.011	19.994	103.780	19.938	11.462	0.506
1241.500	710.471	80.011	19.993	103.782	19.942	11.142	0.515
1242.000	710.726	80.011	19.993	103.784	19.941	11.246	0.519
1242.500	711.016	80.011	19.994	103.786	19.940	11.323	0.531
1243.001	711.311	80.011	19.995	103.785	19.938	11.433	0.565
1243.501	711.570	80.009	19.993	103.785	19.935	11.692	0.569
1244.000	711.791	80.009	19.993	103.785	19.940	11.325	0.517
1244.500	712.032	80.011	19.993	103.785	19.938	11.453	0.471
1245.000	712.295	80.011	19.994	103.782	19.939	11.383	0.483
1245.501	712.574	80.008	19.994	103.782	19.943	11.089	0.523
1246.001	712.792	80.010	19.992	103.784	19.939	11.348	0.520
1246.501	713.074	80.010	19.993	103.784	19.940	11.277	0.499
1247.001	713.294	80.011	19.993	103.784	19.940	11.271	0.501
1247.501	713.538	80.008	19.993	103.785	19.942	11.176	0.483
1248.000	713.867	80.010	19.993	103.785	19.939	11.387	0.519
1248.500	714.073	80.009	19.994	103.783	19.938	11.462	0.554
1249.000	714.346	80.010	19.993	103.783	19.940	11.285	0.507
1249.500	714.613	80.011	19.993	103.783	19.938	11.474	0.509
1250.000	714.868	80.012	19.994	103.783	19.937	11.508	0.531
1250.500	715.126	80.010	19.993	103.784	19.937	11.494	0.518
1251.000	715.397	80.009	19.994	103.785	19.939	11.350	0.521
1251.500	715.664	80.009	19.992	103.786	19.939	11.397	0.533
1252.000	715.918	80.011	19.993	103.788	19.940	11.324	0.529
1252.500	716.212	80.011	19.993	103.792	19.940	11.326	0.535
1253.000	716.510	80.009	19.993	103.793	19.939	11.371	0.570
1253.500	716.784	80.009	19.992	103.796	19.940	11.308	0.582
1254.000	717.005	80.010	19.994	103.800	19.942	11.180	0.534
1254.500	717.235	80.008	19.993	103.800	19.941	11.211	0.473
1255.001	717.514	80.009	19.993	103.797	19.939	11.350	0.480
1255.501	717.742	80.009	19.993	103.795	19.940	11.319	0.508
1256.000	717.982	80.010	19.993	103.791	19.936	11.634	0.487
1256.500	718.258	80.011	19.994	103.786	19.939	11.383	0.491
1257.000	718.497	80.011	19.993	103.784	19.935	11.703	0.515
1257.500	718.782	80.008	19.994	103.784	19.935	11.646	0.520
1258.000	719.016	80.010	19.992	103.784	19.935	11.673	0.522
1258.500	719.271	80.010	19.991	103.784	19.937	11.549	0.504
1259.001	719.520	80.010	19.993	103.784	19.936	11.626	0.496
1259.501	719.774	80.008	19.993	103.783	19.937	11.526	0.503
1260.000	720.058	80.010	19.994	103.783	19.938	11.486	0.521
1260.500	720.315	80.011	19.994	103.783	19.940	11.336	0.539
1261.000	720.575	80.013	19.993	103.782	19.940	11.336	0.529
1261.500	720.843	80.013	19.993	103.782	19.937	11.551	0.523
1262.000	721.076	80.013	19.993	103.782	19.937	11.549	0.515
1262.500	721.336	80.012	19.993	103.782	19.940	11.322	0.497
1263.000	721.581	80.012	19.993	103.782	19.940	11.277	0.499
1263.500	721.870	80.012	19.993	103.784	19.938	11.441	0.520
1264.000	722.098	80.011	19.993	103.788	19.937	11.490	0.526
1264.500	722.330	80.011	19.994	103.788	19.942	11.170	0.489
1265.000	722.562	80.013	19.993	103.787	19.938	11.464	0.462
1265.500	722.855	80.011	19.993	103.787	19.940	11.296	0.494
1266.000	723.096	80.012	19.993	103.785	19.941	11.223	0.529
1266.500	723.367	80.011	19.993	103.781	19.938	11.421	0.523
1267.001	723.630	80.010	19.993	103.783	19.938	11.462	0.523
1267.501	723.896	80.012	19.993	103.785	19.938	11.484	0.532
1268.001	724.146	80.014	19.992	103.787	19.939	11.397	0.522
1268.501	724.370	80.012	19.993	103.787	19.939	11.403	0.495
1269.001	724.632	80.010	19.993	103.786	19.940	11.294	0.480
1269.500	724.883	80.011	19.991	103.784	19.937	11.505	0.499
1270.000	725.125	80.010	19.993	103.782	19.939	11.357	0.503
1270.500	725.383	80.010	19.994	103.780	19.939	11.371	0.497
1271.000	725.638	80.009	19.993	103.780	19.942	11.152	0.507
1271.500	725.880	80.010	19.993	103.780	19.937	11.507	0.505
1272.000	726.146	80.008	19.993	103.780	19.940	11.308	0.503
1272.500	726.356	80.011	19.992	103.782	19.939	11.379	0.492
1273.001	726.665	80.010	19.994	103.783	19.940	11.294	0.497
1273.501	726.933	80.009	19.993	103.782	19.939	11.363	0.548
1274.000	727.144	80.008	19.994	103.783	19.939	11.340	0.529
1274.500	727.383	80.008	19.993	103.785	19.939	11.352	0.464
1275.000	727.679	80.008	19.994	103.785	19.941	11.196	0.493
1275.500	727.910	80.009	19.993	103.785	19.941	11.222	0.531
1276.000	728.139	80.009	19.994	103.787	19.940	11.275	0.493
1276.500	728.396	80.010	19.994	103.787	19.940	11.326	0.473
1277.000	728.631	80.009	19.993	103.786	19.938	11.425	0.489
1277.500	728.930	80.010	19.992	103.786	19.937	11.527	0.513
1278.000	729.161	80.009	19.994	103.787	19.941	11.217	0.532
1278.500	729.421	80.009	19.992	103.786	19.940	11.314	0.510
1279.000	729.647	80.010	19.994	103.786	19.936	11.622	0.488
1279.500	729.901	80.010	19.992	103.786	19.936	11.592	0.483
1280.000	730.153	80.009	19.992	103.787	19.935	11.708	0.493
1280.501	730.419	80.010	19.994	103.787	19.933	11.791	0.512
1281.001	730.661	80.008	19.993	103.787	19.935	11.664	0.513
1281.501	730.930	80.009	19.993	103.788	19.938	11.485	0.510
1282.000	731.178	80.009	19.994	103.788	19.935	11.654	0.514
1282.500	731.407	80.008	19.993	103.790	19.933	11.796	0.497
1283.001	731.638	80.008	19.993	103.789	19.935	11.689	0.468
1283.501	731.889	80.008	19.993	103.789	19.936	11.604	0.471
1284.001	732.171	80.011	19.992	103.789	19.933	11.853	0.508
1284.500	732.406	80.012	19.993	103.788	19.933	11.800	0.525
1285.000	732.662	80.009	19.994	103.784	19.931	11.955	0.504
1285.501	732.910	80.009	19.993	103.784	19.933	11.829	0.497
1286.001	733.174	80.010	19.993	103.784	19.930	12.062	0.508
1286.500	733.428	80.013	19.994	103.784	19.930	12.032	0.515
1287.001	733.699	80.009	19.993	103.786	19.932	11.932	0.522
1287.501	733.930	80.010	19.993	103.787	19.934	11.744	0.513
1288.000	734.158	80.010	19.993	103.787	19.933	11.837	0.481
1288.500	734.425	80.011	19.993	103.789	19.930	12.070	0.477
1289.001	734.668	80.010	19.992	103.789	19.931	11.953	0.502
1289.501	734.930	80.010	19.992	103.789	19.934	11.754	0.507
1290.000	735.170	80.007	19.992	103.790	19.931	11.976	0.504
1290.500	735.409	80.010	19.993	103.792	19.932	11.917	0.491
1291.001	735.646	80.012	19.994	103.794	19.933	11.842	0.478
1291.501	735.904	80.010	19.994	103.797	19.931	11.998	0.486
1292.000	736.166	80.009	19.992	103.796	19.932	11.931	0.507
1292.500	736.394	80.010	19.993	103.796	19.931	11.987	0.505
1293.000	736.622	80.010	19.994	103.799	19.934	11.713	0.473
1293.500	736.889	80.010	19.994	103.803	19.933	11.843	0.476
1294.000	737.149	80.009	19.994	103.804	19.932	11.932	0.511
1294.500	737.396	80.010	19.995	103.804	19.932	11.888	0.517
1295.000	737.617	80.009	19.995	103.802	19.931	11.973	0.487
1295.500	737.864	80.011	19.996	103.797	19.929	12.104	0.468
1296.001	738.127	80.009	19.994	103.791	19.929	12.094	0.489
1296.501	738.378	80.009	19.995	103.787	19.931	11.997	0.512
1297.001	738.555	80.011	19.993	103.788	19.931	12.005	0.471
1297.500	738.869	80.010	19.994	103.789	19.928	12.230	0.460
1298.000	739.137	80.009	19.994	103.789	19.932	11.897	0.537
1298.500	739.349	80.007	19.993	103.789	19.933	11.818	0.531
1299.000	739.587	80.008	19.994	103.788	19.930	12.027	0.465
1299.501	739.858	80.009	19.994	103.789	19.930	12.029	0.480
1300.001	740.093	80.009	19.993	103.789	19.931	11.973	0.507
1300.501	740.376	80.008	19.995	103.792	19.931	11.936	0.512
1301.000	740.593	80.009	19.994	103.796	19.931	11.989	0.509
1301.500	740.862	80.009	19.994	103.798	19.933	11.796	0.493
1302.000	741.124	80.007	19.994	103.798	19.930	12.062	0.508
1302.500	741.337	80.010	19.995	103.797	19.931	11.946	0.503
1303.000	741.580	80.009	19.996	103.794	19.931	11.991	0.465
1303.500	741.894	80.009	19.996	103.790	19.930	12.061	0.506
1304.000	742.111	80.011	19.995	103.787	19.930	12.053	0.544
1304.500	742.392	80.010	19.995	103.787	19.929	12.149	0.515
1305.000	742.578	80.007	19.994	103.787	19.927	12.240	0.483
1305.500	742.856	80.008	19.995	103.787	19.930	12.059	0.466
1306.000	743.087	80.009	19.996	103.787	19.931	11.984	0.487
1306.500	743.333	80.009	19.994	103.786	19.931	12.007	0.493
1307.000	743.618	80.008	19.995	103.786	19.928	12.181	0.504
1307.500	743.847	80.010	19.994	103.786	19.928	12.193	0.523
1308.001	744.082	80.008	19.994	103.785	19.931	11.986	0.489
1308.501	744.334	80.007	19.993	103.784	19.931	11.942	0.475
1309.000	744.569	80.011	19.994	103.784	19.927	12.296	0.487
1309.500	744.842	80.008	19.994	103.784	19.927	12.303	0.497
1310.000	745.080	80.008	19.993	103.784	19.927	12.274	0.510
1310.500	745.304	80.009	19.994	103.785	19.927	12.305	0.486
