Sample ID:	C:\MCC\MCC Cal\Test\Polyester_Microfiber_81A_MCC_30K)min_220224_R1.txt
Sample Weight (mg):	4.34
Heating Rate (C/s):	0.5
Combustor Temp (C):	900
N2 Flow Rate (cc/min):	80
O2 Flow Rate (cc/min):	20
Calibration File:	C:\MCC\MCC Cal\Coeff1 JN10440_30_210304.txt.txt
T Correction Coefficients:	0	1.024463	0
Time Shift (s):	14
*
Time (s)	Temperature (C)	N2 flow rate (cc/min)	O2 flow rate (cc/min)	Flow Rate (cc/min)	Oxygen (%)	HRR (W/g)	Heating rate (C/s)
0.000	113.686	80.004	19.993	103.732	20.122	-0.059	-0.020
0.500	113.681	80.004	19.993	103.728	20.122	-0.084	-0.013
1.000	113.654	80.004	19.993	103.732	20.123	-0.151	-0.012
1.500	113.711	80.003	19.994	103.729	20.126	-0.367	-0.001
2.000	113.670	80.005	19.992	103.727	20.125	-0.283	0.023
2.500	113.643	80.004	19.993	103.730	20.125	-0.295	-0.026
3.000	113.673	80.004	19.993	103.732	20.127	-0.412	-0.033
3.500	113.670	80.004	19.993	103.730	20.124	-0.234	0.015
4.000	113.684	80.003	19.993	103.730	20.123	-0.173	0.019
4.501	113.661	80.003	19.993	103.729	20.122	-0.071	0.000
5.000	113.682	80.005	19.992	103.727	20.123	-0.175	-0.005
5.500	113.672	80.003	19.994	103.724	20.125	-0.293	0.005
6.001	113.669	80.004	19.993	103.724	20.124	-0.251	-0.001
6.500	113.649	80.002	19.993	103.728	20.123	-0.132	-0.018
7.000	113.703	80.002	19.992	103.730	20.126	-0.353	0.005
7.500	113.678	80.003	19.993	103.731	20.123	-0.141	0.031
8.000	113.673	80.003	19.993	103.733	20.128	-0.495	-0.000
8.501	113.657	80.003	19.993	103.731	20.122	-0.059	-0.025
9.001	113.654	80.003	19.993	103.728	20.124	-0.238	-0.020
9.501	113.654	80.004	19.993	103.729	20.124	-0.226	-0.011
10.001	113.661	80.003	19.995	103.730	20.122	-0.053	0.002
10.500	113.667	80.002	19.992	103.729	20.121	-0.010	0.010
11.000	113.645	80.002	19.993	103.733	20.123	-0.147	-0.001
11.500	113.644	80.003	19.993	103.738	20.122	-0.051	-0.019
12.000	113.640	80.003	19.994	103.742	20.123	-0.135	-0.014
12.500	113.650	80.003	19.994	103.741	20.123	-0.186	0.001
13.001	113.643	80.003	19.993	103.739	20.120	0.043	0.005
13.501	113.644	80.002	19.992	103.738	20.122	-0.110	-0.001
14.001	113.636	80.002	19.993	103.736	20.123	-0.143	-0.007
14.501	113.646	80.002	19.993	103.732	20.123	-0.147	-0.003
15.000	113.641	80.001	19.993	103.737	20.121	0.006	0.003
15.500	113.631	80.003	19.993	103.744	20.120	0.090	-0.005
16.000	113.630	80.003	19.993	103.747	20.122	-0.059	-0.013
16.500	113.652	80.004	19.994	103.751	20.119	0.118	0.005
17.000	113.661	80.003	19.992	103.755	20.121	-0.022	0.026
17.500	113.635	80.003	19.993	103.757	20.122	-0.088	0.007
18.000	113.636	80.003	19.992	103.758	20.120	0.049	-0.021
18.500	113.660	80.004	19.992	103.758	20.118	0.220	0.000
19.000	113.654	80.004	19.993	103.758	20.120	0.047	0.021
19.501	113.632	80.004	19.994	103.758	20.119	0.139	-0.005
20.001	113.676	80.004	19.994	103.763	20.119	0.182	-0.003
20.500	113.642	80.004	19.993	103.767	20.118	0.206	0.017
21.000	113.653	80.004	19.993	103.774	20.117	0.306	-0.006
21.500	113.658	80.004	19.993	103.780	20.119	0.177	-0.004
22.000	113.691	80.004	19.994	103.785	20.122	-0.049	0.027
22.500	113.669	80.003	19.992	103.787	20.117	0.300	0.024
23.000	113.646	80.004	19.993	103.791	20.116	0.365	-0.018
23.500	113.693	80.004	19.994	103.791	20.115	0.443	-0.010
24.000	113.696	80.004	19.992	103.795	20.113	0.592	0.037
24.500	113.670	80.004	19.993	103.804	20.113	0.610	0.013
25.000	113.656	80.004	19.993	103.812	20.113	0.632	-0.031
25.500	113.672	80.004	19.993	103.819	20.107	1.014	-0.019
26.000	113.707	80.004	19.993	103.827	20.110	0.789	0.027
26.500	113.750	80.004	19.993	103.833	20.111	0.716	0.065
27.000	113.781	80.005	19.993	103.836	20.112	0.696	0.076
27.500	113.767	80.005	19.993	103.839	20.110	0.814	0.045
28.000	113.828	80.004	19.995	103.840	20.108	0.959	0.032
28.500	113.836	80.004	19.994	103.840	20.110	0.830	0.058
29.000	113.830	80.002	19.993	103.840	20.106	1.157	0.035
29.500	113.870	80.004	19.993	103.838	20.107	1.034	0.018
30.000	113.867	80.004	19.994	103.837	20.107	1.049	0.036
30.500	113.904	80.004	19.995	103.839	20.104	1.304	0.036
31.000	113.945	80.003	19.995	103.839	20.104	1.277	0.056
31.500	113.916	80.004	19.994	103.838	20.106	1.118	0.045
32.000	113.957	80.002	19.994	103.840	20.099	1.624	0.012
32.500	114.008	80.003	19.993	103.845	20.099	1.649	0.052
33.000	114.030	80.003	19.995	103.850	20.104	1.259	0.083
33.500	114.058	80.003	19.993	103.858	20.101	1.514	0.061
34.000	114.098	80.004	19.993	103.867	20.105	1.230	0.059
34.500	114.141	80.003	19.993	103.873	20.102	1.410	0.076
35.000	114.175	80.003	19.993	103.873	20.100	1.542	0.080
35.500	114.260	80.003	19.994	103.873	20.098	1.681	0.098
36.000	114.291	80.003	19.994	103.871	20.099	1.628	0.118
36.500	114.288	80.004	19.993	103.868	20.096	1.834	0.072
37.000	114.338	80.004	19.994	103.866	20.100	1.550	0.037
37.500	114.380	80.003	19.994	103.860	20.098	1.752	0.070
38.000	114.400	80.003	19.994	103.858	20.097	1.803	0.077
38.500	114.464	80.003	19.993	103.860	20.097	1.775	0.073
39.000	114.543	80.003	19.994	103.864	20.100	1.579	0.114
39.500	114.546	80.003	19.994	103.867	20.099	1.675	0.113
40.000	114.589	80.004	19.993	103.873	20.095	1.916	0.064
40.500	114.654	80.004	19.993	103.874	20.096	1.871	0.077
41.000	114.704	80.004	19.994	103.878	20.094	2.024	0.112
41.500	114.766	80.004	19.993	103.880	20.096	1.845	0.114
42.000	114.775	80.003	19.993	103.880	20.095	1.941	0.091
42.500	114.838	80.002	19.993	103.883	20.098	1.739	0.072
43.000	114.919	80.005	19.994	103.886	20.096	1.869	0.108
43.500	114.968	80.003	19.993	103.883	20.095	1.926	0.137
44.000	115.007	80.004	19.993	103.880	20.094	1.998	0.108
44.501	115.082	80.005	19.994	103.880	20.095	1.934	0.101
45.001	115.150	80.004	19.993	103.873	20.093	2.104	0.129
45.500	115.237	80.005	19.993	103.864	20.095	1.979	0.149
46.000	115.269	80.005	19.994	103.862	20.092	2.165	0.137
46.500	115.325	80.005	19.993	103.862	20.096	1.890	0.104
47.000	115.367	80.005	19.993	103.862	20.096	1.896	0.093
47.500	115.411	80.005	19.992	103.865	20.095	1.949	0.092
48.000	115.508	80.005	19.993	103.869	20.094	1.998	0.113
48.500	115.575	80.006	19.993	103.870	20.094	2.015	0.153
49.000	115.645	80.005	19.992	103.871	20.097	1.774	0.151
49.501	115.708	80.005	19.993	103.875	20.093	2.123	0.135
50.001	115.773	80.005	19.995	103.877	20.092	2.146	0.130
50.501	115.846	80.005	19.995	103.884	20.095	1.909	0.133
51.000	115.916	80.006	19.994	103.890	20.094	1.982	0.140
51.500	115.972	80.005	19.994	103.895	20.089	2.380	0.134
52.000	116.056	80.006	19.993	103.894	20.092	2.182	0.133
52.500	116.140	80.004	19.994	103.895	20.091	2.221	0.154
53.000	116.213	80.004	19.993	103.893	20.092	2.205	0.163
53.500	116.247	80.006	19.994	103.893	20.089	2.374	0.132
54.000	116.363	80.003	19.993	103.888	20.092	2.193	0.128
54.500	116.442	80.005	19.993	103.885	20.090	2.309	0.172
55.001	116.552	80.004	19.994	103.886	20.089	2.428	0.192
55.501	116.606	80.005	19.995	103.887	20.089	2.391	0.177
56.000	116.700	80.006	19.994	103.888	20.090	2.285	0.156
56.500	116.797	80.004	19.994	103.894	20.090	2.285	0.169
57.000	116.873	80.004	19.995	103.901	20.090	2.322	0.183
57.500	116.954	80.003	19.993	103.906	20.088	2.465	0.165
58.001	117.042	80.003	19.994	103.913	20.091	2.248	0.163
58.501	117.136	80.003	19.994	103.920	20.087	2.554	0.176
59.000	117.216	80.004	19.995	103.927	20.092	2.197	0.178
59.500	117.327	80.002	19.994	103.933	20.088	2.470	0.182
60.000	117.396	80.002	19.995	103.939	20.086	2.603	0.185
60.500	117.465	80.002	19.994	103.943	20.087	2.560	0.159
61.000	117.601	80.002	19.995	103.944	20.082	2.940	0.172
61.501	117.656	80.002	19.994	103.944	20.082	2.891	0.198
62.001	117.824	80.002	19.995	103.946	20.084	2.785	0.207
62.501	117.880	80.001	19.994	103.947	20.084	2.793	0.224
63.000	117.991	80.003	19.994	103.948	20.084	2.798	0.195
63.500	118.087	80.002	19.994	103.948	20.083	2.814	0.187
64.000	118.178	80.002	19.995	103.950	20.082	2.916	0.197
64.500	118.325	80.002	19.994	103.952	20.083	2.844	0.213
65.000	118.440	80.003	19.994	103.955	20.083	2.808	0.250
65.501	118.527	80.001	19.994	103.956	20.083	2.840	0.232
66.001	118.620	80.002	19.994	103.957	20.082	2.942	0.191
66.500	118.708	80.003	19.994	103.958	20.082	2.938	0.180
67.000	118.862	80.003	19.995	103.959	20.080	3.081	0.211
67.500	118.966	80.003	19.994	103.959	20.081	2.983	0.250
68.000	119.089	80.003	19.993	103.960	20.079	3.112	0.242
68.501	119.214	80.004	19.994	103.959	20.082	2.891	0.238
69.001	119.363	80.004	19.994	103.957	20.080	3.077	0.261
69.500	119.427	80.004	19.994	103.954	20.076	3.336	0.244
70.000	119.570	80.003	19.995	103.952	20.074	3.514	0.210
70.500	119.709	80.003	19.994	103.950	20.078	3.232	0.244
71.000	119.815	80.003	19.993	103.949	20.075	3.416	0.264
71.500	119.965	80.002	19.993	103.949	20.079	3.151	0.251
72.000	120.100	80.004	19.993	103.951	20.076	3.329	0.271
72.500	120.249	80.003	19.993	103.958	20.080	3.037	0.284
73.000	120.361	80.004	19.994	103.961	20.077	3.290	0.273
73.501	120.496	80.004	19.994	103.964	20.078	3.245	0.254
74.001	120.628	80.004	19.994	103.967	20.076	3.341	0.257
74.500	120.788	80.004	19.993	103.967	20.077	3.319	0.279
75.000	120.914	80.002	19.993	103.962	20.077	3.319	0.289
75.500	121.053	80.003	19.993	103.961	20.077	3.278	0.276
76.000	121.161	80.003	19.994	103.959	20.081	2.984	0.256
76.500	121.313	80.003	19.994	103.958	20.073	3.612	0.253
77.000	121.472	80.002	19.993	103.957	20.077	3.318	0.286
77.500	121.612	80.004	19.994	103.956	20.078	3.231	0.305
78.000	121.802	80.002	19.993	103.958	20.076	3.398	0.314
78.500	121.893	80.004	19.993	103.962	20.076	3.351	0.305
79.000	122.019	80.004	19.994	103.961	20.077	3.305	0.249
79.500	122.170	80.003	19.993	103.962	20.075	3.470	0.247
80.000	122.357	80.004	19.994	103.964	20.078	3.233	0.308
80.500	122.491	80.003	19.994	103.962	20.073	3.552	0.330
81.000	122.650	80.004	19.993	103.960	20.075	3.470	0.307
81.501	122.806	80.003	19.992	103.962	20.079	3.125	0.304
82.001	122.946	80.004	19.994	103.964	20.076	3.360	0.305
82.501	123.099	80.002	19.994	103.965	20.074	3.523	0.294
83.000	123.237	80.002	19.993	103.970	20.077	3.305	0.292
83.500	123.378	80.003	19.995	103.974	20.076	3.378	0.285
84.000	123.565	80.003	19.994	103.980	20.072	3.658	0.304
84.500	123.740	80.003	19.994	103.983	20.072	3.656	0.345
85.001	123.899	80.003	19.993	103.987	20.076	3.330	0.348
85.501	124.048	80.002	19.994	103.984	20.076	3.399	0.321
86.001	124.185	80.002	19.993	103.980	20.079	3.156	0.297
86.501	124.313	80.002	19.993	103.977	20.078	3.187	0.276
87.000	124.512	80.002	19.994	103.972	20.075	3.477	0.296
87.501	124.697	80.002	19.993	103.966	20.075	3.409	0.355
88.001	124.830	80.003	19.993	103.967	20.076	3.337	0.351
88.500	125.020	80.003	19.994	103.970	20.076	3.352	0.321
89.000	125.162	80.002	19.992	103.973	20.076	3.350	0.328
89.500	125.324	80.002	19.994	103.978	20.074	3.495	0.318
90.001	125.536	80.003	19.995	103.986	20.075	3.438	0.339
90.501	125.664	80.001	19.994	103.989	20.075	3.466	0.357
91.001	125.853	80.002	19.994	103.990	20.069	3.913	0.329
91.500	126.033	80.002	19.995	103.990	20.071	3.750	0.343
92.000	126.199	80.002	19.994	103.990	20.075	3.442	0.357
92.500	126.374	80.001	19.996	103.990	20.072	3.634	0.344
93.000	126.559	80.004	19.993	103.990	20.074	3.542	0.351
93.500	126.705	80.002	19.993	103.990	20.073	3.566	0.345
94.000	126.932	80.002	19.994	103.992	20.071	3.705	0.352
94.500	127.090	80.001	19.992	103.995	20.071	3.744	0.379
95.001	127.249	80.002	19.993	103.996	20.071	3.726	0.350
95.501	127.432	80.002	19.994	103.998	20.073	3.562	0.330
96.000	127.593	80.002	19.992	104.002	20.070	3.838	0.343
96.500	127.786	80.003	19.994	104.001	20.068	3.932	0.349
97.000	127.955	80.002	19.993	104.001	20.068	3.930	0.358
97.500	128.178	80.003	19.994	104.001	20.068	3.962	0.377
98.000	128.353	80.001	19.994	103.999	20.074	3.484	0.396
98.500	128.548	80.002	19.992	103.996	20.071	3.758	0.384
99.000	128.718	80.003	19.993	103.994	20.072	3.679	0.367
99.500	128.909	80.003	19.993	103.992	20.072	3.689	0.363
100.000	129.110	80.003	19.992	103.991	20.067	4.067	0.377
100.500	129.288	80.002	19.993	103.994	20.068	3.954	0.385
101.000	129.482	80.001	19.993	103.994	20.070	3.809	0.376
101.500	129.678	80.002	19.992	103.994	20.070	3.793	0.381
102.001	129.895	80.003	19.993	103.995	20.072	3.648	0.401
102.501	130.095	80.003	19.992	103.995	20.070	3.826	0.415
103.000	130.239	80.004	19.993	103.993	20.070	3.850	0.381
103.500	130.427	80.003	19.992	103.993	20.068	3.934	0.338
104.000	130.618	80.004	19.993	103.994	20.069	3.858	0.355
104.500	130.825	80.003	19.992	103.994	20.073	3.601	0.388
105.000	131.026	80.005	19.992	103.995	20.067	4.017	0.403
105.500	131.208	80.004	19.993	103.994	20.068	3.962	0.396
106.000	131.434	80.004	19.992	103.994	20.072	3.642	0.396
106.500	131.616	80.003	19.993	103.993	20.070	3.836	0.408
107.000	131.812	80.005	19.993	103.993	20.070	3.817	0.393
107.500	132.038	80.005	19.993	103.991	20.072	3.658	0.400
108.001	132.235	80.005	19.993	103.991	20.072	3.631	0.422
108.501	132.459	80.006	19.993	103.991	20.071	3.707	0.422
109.000	132.627	80.007	19.994	103.990	20.073	3.607	0.406
109.501	132.800	80.006	19.992	103.993	20.072	3.691	0.367
110.001	133.029	80.006	19.993	103.994	20.072	3.691	0.372
110.501	133.267	80.004	19.994	103.993	20.070	3.789	0.434
111.001	133.449	80.005	19.992	103.993	20.070	3.834	0.443
111.500	133.676	80.005	19.993	103.993	20.073	3.621	0.414
112.000	133.859	80.005	19.994	103.990	20.068	3.999	0.409
112.500	134.058	80.005	19.995	103.991	20.073	3.562	0.396
113.000	134.286	80.005	19.994	103.992	20.070	3.813	0.405
113.500	134.500	80.005	19.994	103.991	20.071	3.736	0.435
114.000	134.695	80.003	19.993	103.990	20.071	3.750	0.426
114.500	134.902	80.004	19.993	103.990	20.070	3.805	0.406
115.001	135.119	80.004	19.994	103.988	20.071	3.717	0.413
115.501	135.323	80.004	19.994	103.988	20.073	3.601	0.422
116.000	135.531	80.005	19.994	103.989	20.069	3.860	0.416
116.500	135.737	80.004	19.994	103.987	20.070	3.801	0.413
117.000	135.967	80.004	19.994	103.987	20.073	3.609	0.425
117.500	136.133	80.004	19.993	103.986	20.070	3.840	0.416
118.000	136.385	80.004	19.993	103.985	20.071	3.744	0.407
118.500	136.643	80.004	19.992	103.985	20.071	3.720	0.464
119.000	136.814	80.003	19.992	103.987	20.069	3.864	0.469
119.500	137.044	80.003	19.994	103.987	20.069	3.868	0.415
120.000	137.237	80.005	19.995	103.988	20.065	4.214	0.412
120.501	137.488	80.002	19.993	103.989	20.068	3.934	0.433
121.001	137.721	80.004	19.993	103.988	20.066	4.138	0.464
121.500	137.948	80.004	19.993	103.987	20.070	3.803	0.472
122.000	138.155	80.004	19.994	103.987	20.068	3.934	0.447
122.500	138.361	80.003	19.994	103.987	20.069	3.877	0.424
123.000	138.562	80.004	19.994	103.987	20.067	4.071	0.410
123.500	138.793	80.004	19.994	103.987	20.069	3.858	0.419
124.000	139.031	80.003	19.993	103.988	20.068	3.963	0.451
124.500	139.238	80.004	19.994	103.988	20.069	3.877	0.457
125.000	139.497	80.003	19.993	103.989	20.070	3.818	0.455
125.500	139.681	80.005	19.995	103.989	20.070	3.820	0.454
126.000	139.899	80.003	19.994	103.989	20.070	3.799	0.423
126.500	140.115	80.006	19.995	103.989	20.068	3.956	0.418
127.000	140.365	80.004	19.994	103.989	20.069	3.874	0.450
127.500	140.576	80.006	19.995	103.992	20.067	4.040	0.463
128.000	140.813	80.004	19.994	103.994	20.067	4.032	0.455
128.500	141.018	80.006	19.995	103.996	20.066	4.103	0.445
129.000	141.271	80.005	19.994	103.996	20.066	4.128	0.450
129.500	141.488	80.007	19.995	103.997	20.065	4.214	0.464
130.000	141.726	80.006	19.994	103.994	20.065	4.154	0.463
130.500	141.936	80.005	19.995	103.992	20.068	3.938	0.452
131.000	142.173	80.007	19.994	103.990	20.068	3.952	0.448
131.501	142.400	80.006	19.994	103.989	20.068	3.932	0.455
132.000	142.617	80.006	19.992	103.988	20.067	4.052	0.454
132.500	142.873	80.006	19.995	103.988	20.068	3.997	0.459
133.000	143.100	80.006	19.993	103.990	20.062	4.430	0.478
133.500	143.331	80.007	19.994	103.992	20.064	4.257	0.470
134.000	143.570	80.006	19.992	103.991	20.065	4.175	0.463
134.500	143.789	80.005	19.993	103.994	20.066	4.146	0.464
135.000	143.994	80.006	19.993	103.998	20.064	4.228	0.441
135.500	144.251	80.006	19.993	103.996	20.067	4.060	0.443
136.000	144.472	80.006	19.993	103.995	20.060	4.536	0.470
136.500	144.715	80.006	19.993	103.996	20.061	4.457	0.471
137.000	144.941	80.005	19.992	103.992	20.065	4.193	0.466
137.500	145.224	80.005	19.993	103.986	20.063	4.312	0.489
138.000	145.437	80.004	19.993	103.987	20.060	4.577	0.503
138.500	145.657	80.005	19.993	103.986	20.065	4.195	0.464
139.000	145.928	80.005	19.993	103.988	20.064	4.247	0.462
139.500	146.154	80.005	19.992	103.990	20.060	4.547	0.494
140.000	146.400	80.004	19.994	103.990	20.062	4.402	0.485
140.500	146.616	80.005	19.995	103.991	20.062	4.382	0.467
141.000	146.834	80.004	19.994	103.991	20.061	4.461	0.448
141.501	147.070	80.005	19.993	103.989	20.059	4.622	0.444
142.000	147.299	80.003	19.994	103.988	20.062	4.432	0.459
142.500	147.542	80.003	19.993	103.989	20.061	4.510	0.468
143.000	147.793	80.002	19.993	103.989	20.060	4.538	0.483
143.500	148.072	80.001	19.993	103.991	20.059	4.626	0.512
144.000	148.341	80.003	19.993	103.991	20.063	4.312	0.539
144.500	148.526	80.003	19.994	103.992	20.063	4.320	0.501
145.000	148.767	80.004	19.994	103.992	20.063	4.326	0.440
145.500	149.035	80.003	19.993	103.992	20.062	4.391	0.468
146.000	149.294	80.003	19.994	103.991	20.061	4.463	0.518
146.500	149.487	80.003	19.994	103.991	20.065	4.193	0.489
147.000	149.716	80.002	19.993	103.991	20.062	4.385	0.437
147.500	149.981	80.003	19.995	103.991	20.063	4.371	0.458
148.000	150.253	80.003	19.994	103.993	20.062	4.411	0.516
148.501	150.503	80.004	19.994	103.994	20.064	4.279	0.529
149.000	150.716	80.000	19.992	103.996	20.064	4.234	0.492
149.500	150.968	80.002	19.997	103.998	20.062	4.407	0.464
150.000	151.178	80.002	19.996	104.001	20.063	4.352	0.463
150.500	151.450	80.003	19.995	104.006	20.062	4.438	0.471
151.000	151.719	80.002	19.995	104.006	20.066	4.144	0.511
151.500	151.932	80.002	19.995	104.006	20.062	4.377	0.511
152.000	152.213	80.003	19.994	104.003	20.063	4.342	0.488
152.500	152.470	80.002	19.994	103.999	20.063	4.342	0.516
153.000	152.717	80.002	19.994	103.992	20.063	4.355	0.521
153.500	152.928	80.001	19.995	103.990	20.066	4.126	0.481
154.000	153.194	80.002	19.996	103.989	20.062	4.385	0.468
154.500	153.402	80.001	19.994	103.989	20.064	4.271	0.476
155.000	153.676	80.002	19.996	103.990	20.064	4.246	0.478
155.500	153.887	80.002	19.994	103.991	20.064	4.297	0.484
156.000	154.171	80.002	19.995	103.993	20.067	4.073	0.490
156.500	154.393	80.002	19.995	103.994	20.063	4.328	0.500
157.000	154.622	80.003	19.994	103.994	20.065	4.195	0.478
157.500	154.878	80.003	19.993	103.993	20.064	4.236	0.468
158.000	155.154	80.004	19.995	103.993	20.064	4.232	0.508
158.500	155.374	80.003	19.994	103.989	20.065	4.179	0.514
159.000	155.664	80.003	19.995	103.985	20.065	4.167	0.503
159.500	155.878	80.003	19.995	103.984	20.067	4.073	0.507
160.000	156.116	80.003	19.993	103.985	20.064	4.275	0.478
160.500	156.396	80.003	19.994	103.986	20.064	4.273	0.485
161.000	156.681	80.003	19.994	103.988	20.063	4.324	0.542
161.500	156.897	80.004	19.994	103.992	20.066	4.093	0.533
162.000	157.108	80.002	19.994	103.994	20.067	4.066	0.464
162.500	157.415	80.004	19.994	103.993	20.066	4.111	0.472
163.000	157.687	80.002	19.993	103.993	20.060	4.555	0.548
163.501	157.920	80.004	19.993	103.992	20.061	4.487	0.542
164.000	158.165	80.002	19.993	103.991	20.062	4.395	0.492
164.500	158.406	80.004	19.994	103.989	20.065	4.215	0.482
165.000	158.706	80.004	19.994	103.990	20.062	4.399	0.513
165.500	158.932	80.003	19.993	103.990	20.063	4.369	0.534
166.000	159.173	80.004	19.993	103.991	20.063	4.344	0.497
166.500	159.409	80.003	19.992	103.990	20.066	4.109	0.471
167.000	159.658	80.004	19.992	103.990	20.064	4.291	0.481
167.500	159.910	80.002	19.993	103.990	20.066	4.089	0.494
168.000	160.159	80.003	19.993	103.991	20.065	4.220	0.501
168.500	160.448	80.003	19.993	103.991	20.066	4.113	0.519
169.000	160.677	80.003	19.993	103.992	20.066	4.091	0.528
169.500	160.973	80.003	19.993	103.992	20.064	4.240	0.521
170.000	161.200	80.002	19.993	103.991	20.064	4.274	0.524
170.500	161.473	80.003	19.994	103.990	20.064	4.278	0.511
171.000	161.706	80.002	19.993	103.990	20.065	4.166	0.503
171.500	161.953	80.004	19.994	103.990	20.062	4.430	0.494
172.000	162.246	80.003	19.993	103.990	20.067	4.031	0.510
172.500	162.482	80.003	19.994	103.990	20.064	4.293	0.535
173.000	162.746	80.003	19.994	103.990	20.065	4.215	0.514
173.500	162.995	80.001	19.993	103.988	20.063	4.340	0.506
174.000	163.243	80.004	19.993	103.987	20.062	4.387	0.505
174.500	163.502	80.001	19.994	103.987	20.062	4.442	0.502
175.000	163.766	80.001	19.993	103.986	20.063	4.356	0.514
175.500	164.026	80.001	19.994	103.987	20.063	4.321	0.524
176.000	164.249	80.003	19.994	103.987	20.064	4.225	0.504
176.500	164.527	80.003	19.993	103.988	20.062	4.436	0.492
177.000	164.763	80.002	19.993	103.988	20.067	4.058	0.507
177.500	165.054	80.002	19.994	103.988	20.064	4.238	0.520
178.000	165.300	80.002	19.993	103.988	20.063	4.344	0.532
178.500	165.520	80.002	19.994	103.988	20.069	3.884	0.501
179.000	165.815	80.001	19.994	103.987	20.067	4.031	0.490
179.500	166.059	80.002	19.993	103.981	20.067	4.043	0.527
180.000	166.321	80.001	19.993	103.978	20.065	4.214	0.523
180.500	166.600	80.001	19.993	103.978	20.069	3.871	0.523
181.000	166.831	80.003	19.992	103.977	20.068	3.957	0.526
181.500	167.088	80.003	19.995	103.976	20.072	3.657	0.499
182.000	167.363	80.003	19.993	103.982	20.067	4.010	0.510
182.500	167.617	80.004	19.994	103.980	20.067	4.002	0.531
183.000	167.878	80.004	19.993	103.978	20.066	4.082	0.522
183.500	168.124	80.003	19.993	103.979	20.070	3.810	0.511
184.000	168.397	80.003	19.993	103.979	20.070	3.819	0.513
184.500	168.642	80.003	19.994	103.975	20.068	3.967	0.519
185.000	168.902	80.003	19.993	103.978	20.068	3.939	0.511
185.500	169.146	80.004	19.993	103.978	20.066	4.139	0.504
186.000	169.392	80.004	19.993	103.977	20.065	4.188	0.497
186.500	169.636	80.004	19.993	103.975	20.069	3.873	0.491
187.000	169.926	80.004	19.993	103.976	20.065	4.180	0.512
187.500	170.188	80.005	19.992	103.974	20.067	4.045	0.542
188.000	170.436	80.005	19.994	103.975	20.065	4.153	0.531
188.500	170.644	80.004	19.994	103.977	20.071	3.773	0.483
189.000	170.949	80.006	19.993	103.976	20.066	4.106	0.485
189.500	171.195	80.005	19.992	103.972	20.069	3.859	0.532
190.000	171.457	80.006	19.993	103.971	20.068	3.957	0.529
190.500	171.668	80.005	19.994	103.967	20.069	3.910	0.490
191.000	171.959	80.004	19.994	103.960	20.071	3.759	0.487
191.500	172.220	80.006	19.994	103.956	20.068	3.951	0.527
192.000	172.526	80.006	19.993	103.956	20.067	4.039	0.560
192.500	172.783	80.006	19.993	103.957	20.068	3.985	0.565
193.000	173.021	80.006	19.993	103.962	20.068	3.953	0.529
193.500	173.240	80.005	19.993	103.966	20.069	3.916	0.476
194.000	173.483	80.007	19.993	103.966	20.065	4.163	0.459
194.500	173.787	80.006	19.994	103.970	20.070	3.818	0.504
195.000	174.040	80.006	19.993	103.967	20.066	4.135	0.552
195.500	174.267	80.004	19.993	103.960	20.069	3.857	0.518
196.000	174.569	80.006	19.992	103.957	20.067	4.022	0.505
196.500	174.771	80.005	19.994	103.962	20.066	4.126	0.517
197.000	175.070	80.004	19.993	103.960	20.070	3.808	0.503
197.500	175.311	80.005	19.994	103.958	20.066	4.139	0.521
198.000	175.567	80.005	19.994	103.957	20.064	4.241	0.519
198.500	175.823	80.004	19.992	103.956	20.070	3.847	0.504
199.000	176.057	80.004	19.993	103.951	20.066	4.104	0.500
199.500	176.298	80.004	19.994	103.949	20.069	3.910	0.483
200.000	176.549	80.004	19.992	103.951	20.070	3.786	0.484
200.500	176.839	80.004	19.993	103.955	20.070	3.812	0.516
201.000	177.061	80.005	19.993	103.960	20.070	3.796	0.526
201.500	177.326	80.005	19.993	103.960	20.075	3.471	0.500
202.000	177.566	80.005	19.993	103.960	20.072	3.632	0.496
202.500	177.846	80.004	19.993	103.961	20.073	3.559	0.512
203.000	178.123	80.005	19.993	103.957	20.071	3.702	0.538
203.500	178.364	80.005	19.994	103.953	20.069	3.904	0.537
204.000	178.581	80.004	19.993	103.953	20.068	3.994	0.488
204.500	178.854	80.004	19.995	103.954	20.068	3.959	0.474
205.000	179.106	80.004	19.993	103.954	20.069	3.875	0.508
205.500	179.398	80.004	19.994	103.956	20.069	3.863	0.535
206.000	179.625	80.005	19.993	103.956	20.070	3.777	0.532
206.500	179.895	80.006	19.993	103.956	20.071	3.740	0.508
207.000	180.126	80.004	19.993	103.956	20.073	3.593	0.499
207.500	180.384	80.004	19.992	103.956	20.074	3.526	0.495
208.000	180.580	80.005	19.993	103.955	20.073	3.622	0.471
208.500	180.896	80.005	19.993	103.956	20.069	3.869	0.482
209.000	181.130	80.004	19.992	103.956	20.074	3.510	0.531
209.501	181.352	80.005	19.993	103.957	20.071	3.732	0.503
210.000	181.616	80.005	19.994	103.960	20.070	3.816	0.471
210.500	181.878	80.005	19.993	103.960	20.071	3.714	0.507
211.000	182.144	80.006	19.994	103.960	20.070	3.838	0.527
211.500	182.371	80.007	19.994	103.961	20.071	3.742	0.510
212.000	182.649	80.005	19.994	103.960	20.073	3.589	0.499
212.500	182.915	80.007	19.994	103.955	20.073	3.616	0.524
213.000	183.142	80.006	19.994	103.954	20.072	3.661	0.518
213.500	183.392	80.007	19.993	103.954	20.071	3.726	0.485
214.000	183.644	80.005	19.994	103.953	20.074	3.530	0.490
214.500	183.900	80.006	19.993	103.953	20.072	3.634	0.505
215.000	184.176	80.005	19.993	103.953	20.072	3.671	0.520
215.500	184.415	80.005	19.993	103.952	20.071	3.751	0.524
216.001	184.677	80.006	19.994	103.951	20.071	3.744	0.508
216.501	184.911	80.004	19.993	103.950	20.070	3.826	0.499
217.001	185.179	80.006	19.994	103.950	20.072	3.694	0.499
217.500	185.434	80.005	19.993	103.950	20.072	3.675	0.512
218.000	185.673	80.005	19.994	103.950	20.071	3.747	0.509
218.500	185.910	80.005	19.994	103.950	20.071	3.767	0.485
219.000	186.182	80.005	19.995	103.950	20.069	3.918	0.492
219.500	186.457	80.006	19.994	103.950	20.070	3.791	0.528
220.000	186.699	80.005	19.994	103.951	20.068	3.959	0.532
220.500	186.977	80.004	19.994	103.951	20.070	3.834	0.519
221.000	187.227	80.004	19.994	103.951	20.069	3.863	0.524
221.500	187.467	80.004	19.994	103.951	20.071	3.748	0.509
222.000	187.724	80.003	19.996	103.951	20.070	3.797	0.494
222.500	187.956	80.004	19.995	103.950	20.073	3.604	0.493
223.000	188.179	80.004	19.996	103.950	20.073	3.614	0.472
223.500	188.459	80.004	19.995	103.951	20.070	3.781	0.479
224.000	188.691	80.003	19.995	103.952	20.070	3.824	0.507
224.500	188.928	80.004	19.994	103.953	20.070	3.816	0.491
225.000	189.191	80.004	19.994	103.953	20.070	3.781	0.485
225.500	189.447	80.003	19.994	103.951	20.070	3.775	0.509
226.000	189.714	80.003	19.993	103.951	20.072	3.697	0.521
226.500	189.915	80.003	19.994	103.950	20.072	3.683	0.495
227.000	190.180	80.002	19.994	103.951	20.071	3.750	0.467
227.500	190.427	80.003	19.994	103.951	20.070	3.806	0.489
228.000	190.674	80.003	19.994	103.955	20.070	3.832	0.503
228.500	190.921	80.003	19.994	103.958	20.068	3.985	0.494
229.000	191.141	80.004	19.993	103.957	20.072	3.642	0.481
229.500	191.445	80.004	19.994	103.957	20.072	3.679	0.495
230.000	191.643	80.003	19.993	103.956	20.071	3.756	0.512
230.500	191.952	80.003	19.994	103.953	20.072	3.666	0.504
231.000	192.152	80.003	19.994	103.947	20.070	3.832	0.508
231.500	192.427	80.003	19.993	103.948	20.073	3.601	0.492
232.000	192.683	80.003	19.993	103.948	20.070	3.795	0.504
232.500	192.908	80.004	19.994	103.948	20.071	3.736	0.506
233.000	193.160	80.002	19.993	103.948	20.072	3.648	0.478
233.500	193.376	80.003	19.992	103.951	20.072	3.693	0.472
234.000	193.624	80.003	19.994	103.951	20.072	3.675	0.466
234.501	193.907	80.004	19.993	103.950	20.074	3.519	0.498
235.000	194.107	80.002	19.994	103.950	20.073	3.615	0.507
235.500	194.400	80.005	19.993	103.950	20.070	3.781	0.487
236.000	194.617	80.003	19.994	103.950	20.071	3.730	0.501
236.500	194.852	80.003	19.994	103.950	20.074	3.528	0.482
237.000	195.083	80.004	19.994	103.950	20.072	3.689	0.459
237.500	195.369	80.003	19.994	103.949	20.071	3.701	0.492
238.000	195.582	80.004	19.995	103.948	20.074	3.534	0.508
238.500	195.837	80.005	19.994	103.947	20.073	3.611	0.483
239.000	196.079	80.002	19.993	103.946	20.073	3.615	0.483
239.500	196.330	80.001	19.995	103.946	20.072	3.672	0.495
240.000	196.559	80.003	19.994	103.946	20.071	3.752	0.487
240.500	196.804	80.002	19.994	103.947	20.070	3.799	0.477
241.000	197.038	80.002	19.993	103.945	20.067	4.008	0.476
241.500	197.305	80.003	19.994	103.939	20.069	3.899	0.490
242.000	197.550	80.002	19.993	103.935	20.069	3.873	0.506
242.500	197.773	80.003	19.993	103.935	20.067	4.000	0.490
243.000	198.048	80.004	19.995	103.935	20.069	3.908	0.483
243.500	198.272	80.004	19.994	103.936	20.069	3.901	0.498
244.000	198.534	80.004	19.993	103.939	20.070	3.834	0.493
244.500	198.817	80.003	19.994	103.941	20.073	3.599	0.515
245.000	199.000	80.003	19.994	103.941	20.072	3.683	0.505
245.500	199.297	80.004	19.994	103.940	20.073	3.591	0.473
246.000	199.523	80.004	19.995	103.941	20.073	3.615	0.502
246.500	199.732	80.002	19.994	103.944	20.071	3.718	0.479
247.000	199.995	80.003	19.994	103.945	20.071	3.742	0.454
247.500	200.275	80.002	19.993	103.941	20.071	3.744	0.508
248.000	200.469	80.003	19.994	103.940	20.070	3.810	0.509
248.500	200.757	80.003	19.994	103.937	20.070	3.781	0.478
249.000	201.000	80.004	19.994	103.934	20.072	3.632	0.506
249.500	201.259	80.003	19.994	103.933	20.072	3.667	0.516
250.000	201.511	80.003	19.994	103.936	20.071	3.758	0.506
250.500	201.730	80.003	19.994	103.937	20.069	3.856	0.491
251.000	201.967	80.004	19.995	103.940	20.070	3.789	0.464
251.500	202.175	80.003	19.994	103.943	20.071	3.750	0.451
252.000	202.443	80.004	19.994	103.945	20.069	3.881	0.461
252.500	202.719	80.003	19.995	103.946	20.069	3.859	0.510
253.000	202.928	80.004	19.995	103.948	20.069	3.889	0.514
253.500	203.186	80.002	19.993	103.949	20.069	3.850	0.476
254.000	203.440	80.003	19.995	103.947	20.071	3.771	0.489
254.500	203.633	80.003	19.994	103.946	20.072	3.632	0.479
255.000	203.918	80.002	19.994	103.943	20.066	4.095	0.463
255.500	204.178	80.003	19.994	103.940	20.070	3.779	0.512
256.000	204.353	80.003	19.994	103.939	20.070	3.834	0.490
256.500	204.619	80.002	19.993	103.941	20.069	3.881	0.438
257.000	204.842	80.003	19.994	103.942	20.069	3.864	0.465
257.500	205.079	80.003	19.993	103.945	20.071	3.752	0.475
258.000	205.359	80.005	19.993	103.946	20.071	3.720	0.489
258.500	205.601	80.003	19.993	103.947	20.069	3.850	0.519
259.000	205.887	80.003	19.994	103.947	20.069	3.914	0.525
259.500	206.104	80.003	19.994	103.947	20.067	4.067	0.516
260.000	206.347	80.003	19.993	103.947	20.068	3.983	0.481
260.500	206.565	80.003	19.994	103.944	20.070	3.793	0.460
261.000	206.847	80.003	19.993	103.942	20.072	3.667	0.481
261.500	207.095	80.003	19.993	103.942	20.071	3.732	0.514
262.001	207.319	80.003	19.992	103.943	20.070	3.846	0.501
262.500	207.571	80.005	19.994	103.943	20.068	3.942	0.474
263.000	207.835	80.004	19.993	103.947	20.067	4.072	0.496
263.500	208.122	80.004	19.992	103.947	20.069	3.919	0.533
264.000	208.353	80.004	19.993	103.947	20.072	3.646	0.535
264.500	208.581	80.005	19.993	103.947	20.069	3.866	0.489
265.000	208.810	80.003	19.993	103.945	20.071	3.769	0.458
265.500	209.048	80.003	19.993	103.941	20.067	4.060	0.461
266.000	209.293	80.005	19.993	103.942	20.075	3.456	0.475
266.500	209.523	80.005	19.993	103.937	20.070	3.809	0.479
267.000	209.794	80.005	19.993	103.936	20.068	3.956	0.488
267.500	210.043	80.005	19.992	103.936	20.068	3.942	0.511
268.000	210.266	80.004	19.993	103.938	20.074	3.511	0.496
268.500	210.504	80.004	19.993	103.938	20.070	3.830	0.467
269.000	210.750	80.003	19.992	103.943	20.071	3.709	0.472
269.500	211.039	80.006	19.994	103.943	20.073	3.585	0.509
270.000	211.238	80.004	19.994	103.944	20.067	4.024	0.512
270.500	211.468	80.004	19.992	103.946	20.071	3.750	0.458
271.000	211.742	80.004	19.994	103.943	20.073	3.623	0.466
271.500	211.969	80.004	19.994	103.944	20.070	3.817	0.503
272.000	212.222	80.005	19.993	103.946	20.070	3.823	0.491
272.500	212.476	80.004	19.993	103.943	20.071	3.705	0.494
273.000	212.693	80.005	19.992	103.939	20.070	3.809	0.489
273.500	212.969	80.004	19.994	103.936	20.073	3.595	0.482
274.000	213.205	80.005	19.994	103.935	20.073	3.601	0.502
274.500	213.461	80.005	19.993	103.933	20.070	3.823	0.502
275.000	213.686	80.004	19.994	103.936	20.069	3.915	0.486
275.500	213.947	80.004	19.993	103.938	20.066	4.099	0.484
276.000	214.211	80.005	19.993	103.941	20.071	3.754	0.505
276.500	214.435	80.004	19.994	103.940	20.072	3.680	0.506
277.000	214.690	80.004	19.993	103.939	20.072	3.688	0.484
277.500	214.924	80.006	19.992	103.936	20.072	3.699	0.484
278.000	215.171	80.004	19.993	103.936	20.067	4.035	0.485
278.500	215.401	80.004	19.992	103.938	20.069	3.891	0.479
279.000	215.640	80.004	19.993	103.940	20.069	3.917	0.473
279.500	215.902	80.004	19.992	103.943	20.070	3.803	0.485
280.000	216.148	80.005	19.993	103.944	20.071	3.744	0.504
280.500	216.390	80.004	19.992	103.944	20.071	3.764	0.498
281.000	216.598	80.004	19.992	103.945	20.069	3.887	0.469
281.500	216.894	80.005	19.992	103.942	20.071	3.709	0.477
282.000	217.130	80.005	19.993	103.936	20.073	3.615	0.518
282.500	217.410	80.005	19.993	103.932	20.071	3.701	0.524
283.000	217.611	80.005	19.992	103.930	20.073	3.591	0.498
283.500	217.850	80.004	19.993	103.927	20.071	3.703	0.460
284.000	218.107	80.004	19.993	103.927	20.070	3.778	0.468
284.500	218.361	80.003	19.994	103.930	20.071	3.764	0.503
285.000	218.577	80.003	19.993	103.932	20.067	4.009	0.490
285.500	218.817	80.003	19.993	103.931	20.071	3.735	0.463
286.000	219.086	80.004	19.993	103.930	20.071	3.721	0.483
286.500	219.352	80.004	19.992	103.931	20.070	3.825	0.522
287.000	219.574	80.004	19.992	103.928	20.072	3.676	0.512
287.500	219.796	80.004	19.992	103.925	20.068	3.968	0.466
288.000	220.076	80.004	19.992	103.927	20.071	3.715	0.473
288.500	220.276	80.005	19.991	103.925	20.071	3.732	0.491
289.000	220.551	80.004	19.992	103.923	20.070	3.848	0.478
289.501	220.760	80.004	19.991	103.928	20.070	3.815	0.479
290.001	221.026	80.004	19.992	103.930	20.071	3.705	0.479
290.500	221.253	80.004	19.993	103.928	20.071	3.713	0.484
291.000	221.507	80.004	19.992	103.933	20.071	3.768	0.487
291.500	221.774	80.005	19.992	103.936	20.067	4.004	0.501
292.000	221.994	80.005	19.992	103.934	20.068	3.951	0.504
292.500	222.264	80.003	19.991	103.938	20.070	3.784	0.489
293.000	222.508	80.005	19.992	103.939	20.070	3.780	0.502
293.500	222.740	80.005	19.992	103.940	20.068	3.937	0.495
294.000	223.013	80.005	19.992	103.937	20.068	3.948	0.491
294.500	223.274	80.005	19.992	103.937	20.066	4.076	0.520
295.000	223.485	80.006	19.993	103.933	20.070	3.780	0.503
295.500	223.729	80.006	19.992	103.930	20.068	3.980	0.463
296.000	223.987	80.006	19.993	103.924	20.070	3.823	0.478
296.500	224.229	80.006	19.993	103.921	20.066	4.108	0.501
297.000	224.441	80.005	19.993	103.922	20.068	3.964	0.477
297.500	224.707	80.006	19.992	103.924	20.068	3.953	0.466
298.000	224.978	80.005	19.992	103.928	20.069	3.861	0.507
298.500	225.212	80.004	19.992	103.932	20.069	3.861	0.521
299.000	225.460	80.005	19.992	103.936	20.068	3.931	0.494
299.500	225.684	80.006	19.993	103.933	20.065	4.156	0.477
300.000	225.944	80.006	19.992	103.929	20.067	4.009	0.478
300.500	226.195	80.006	19.992	103.928	20.070	3.843	0.497
301.000	226.451	80.007	19.993	103.926	20.065	4.156	0.509
301.500	226.686	80.004	19.992	103.921	20.067	3.998	0.500
302.000	226.935	80.005	19.993	103.919	20.068	3.984	0.488
302.500	227.170	80.005	19.992	103.918	20.069	3.921	0.484
303.000	227.449	80.003	19.992	103.917	20.069	3.896	0.499
303.500	227.681	80.005	19.993	103.917	20.067	4.051	0.512
304.000	227.951	80.004	19.993	103.919	20.067	4.008	0.506
304.500	228.176	80.005	19.994	103.921	20.068	3.935	0.499
305.000	228.493	80.005	19.993	103.927	20.066	4.086	0.519
305.500	228.686	80.003	19.992	103.926	20.068	3.976	0.526
306.000	228.953	80.003	19.994	103.924	20.068	3.968	0.485
306.500	229.218	80.003	19.994	103.920	20.071	3.747	0.496
307.000	229.479	80.003	19.993	103.919	20.071	3.764	0.528
307.500	229.679	80.003	19.994	103.914	20.073	3.582	0.494
308.000	229.941	80.003	19.993	103.914	20.067	4.002	0.462
308.500	230.188	80.003	19.992	103.913	20.070	3.821	0.486
309.000	230.431	80.004	19.993	103.913	20.070	3.835	0.499
309.500	230.695	80.003	19.993	103.914	20.069	3.853	0.498
310.000	230.931	80.003	19.993	103.917	20.072	3.698	0.503
310.500	231.157	80.003	19.992	103.917	20.070	3.798	0.481
311.000	231.450	80.003	19.993	103.918	20.070	3.792	0.491
311.500	231.682	80.003	19.992	103.921	20.071	3.754	0.522
312.000	231.934	80.002	19.993	103.919	20.070	3.841	0.504
312.500	232.176	80.004	19.995	103.915	20.070	3.776	0.489
313.000	232.423	80.003	19.993	103.914	20.070	3.796	0.492
313.500	232.634	80.003	19.993	103.913	20.068	3.984	0.473
314.000	232.919	80.004	19.993	103.910	20.067	4.062	0.476
314.500	233.166	80.003	19.993	103.909	20.070	3.843	0.514
315.000	233.405	80.003	19.994	103.911	20.066	4.096	0.509
315.500	233.684	80.003	19.993	103.911	20.068	3.986	0.502
316.000	233.936	80.003	19.993	103.911	20.066	4.112	0.525
316.500	234.182	80.003	19.994	103.912	20.071	3.717	0.515
317.000	234.442	80.003	19.993	103.917	20.066	4.113	0.502
317.500	234.660	80.004	19.993	103.917	20.068	3.931	0.492
318.000	234.915	80.003	19.993	103.918	20.066	4.123	0.476
318.500	235.158	80.003	19.993	103.917	20.070	3.798	0.485
319.000	235.438	80.004	19.993	103.917	20.069	3.904	0.510
319.500	235.683	80.004	19.994	103.911	20.066	4.102	0.524
320.000	235.926	80.003	19.993	103.909	20.072	3.688	0.507
320.500	236.193	80.004	19.993	103.909	20.067	4.019	0.499
321.000	236.452	80.004	19.994	103.913	20.066	4.123	0.518
321.500	236.706	80.004	19.995	103.917	20.069	3.915	0.520
322.000	236.961	80.004	19.994	103.919	20.071	3.753	0.511
322.500	237.193	80.004	19.995	103.920	20.070	3.800	0.498
323.000	237.450	80.003	19.993	103.924	20.066	4.119	0.488
323.500	237.734	80.003	19.993	103.921	20.069	3.919	0.514
324.000	237.968	80.004	19.993	103.918	20.072	3.637	0.529
324.500	238.193	80.004	19.993	103.918	20.070	3.827	0.489
325.000	238.452	80.004	19.994	103.918	20.067	4.029	0.471
325.500	238.707	80.004	19.993	103.914	20.070	3.786	0.498
326.000	238.950	80.004	19.993	103.914	20.068	3.953	0.506
326.500	239.192	80.003	19.993	103.913	20.070	3.841	0.492
327.000	239.425	80.004	19.995	103.912	20.073	3.596	0.480
327.500	239.700	80.003	19.993	103.913	20.069	3.866	0.492
328.000	239.936	80.003	19.993	103.914	20.069	3.919	0.509
328.500	240.192	80.003	19.993	103.915	20.071	3.700	0.501
329.000	240.416	80.003	19.992	103.914	20.070	3.798	0.486
329.500	240.693	80.003	19.995	103.913	20.069	3.917	0.490
330.000	240.917	80.004	19.995	103.912	20.071	3.731	0.501
330.500	241.132	80.005	19.996	103.910	20.068	3.955	0.470
331.000	241.436	80.002	19.994	103.910	20.069	3.863	0.479
331.500	241.661	80.003	19.994	103.911	20.068	3.927	0.524
332.000	241.917	80.002	19.994	103.914	20.068	3.955	0.505
332.500	242.175	80.003	19.994	103.918	20.070	3.821	0.498
333.000	242.445	80.002	19.994	103.918	20.069	3.872	0.521
333.500	242.683	80.003	19.994	103.917	20.069	3.880	0.518
334.000	242.931	80.003	19.994	103.916	20.069	3.888	0.497
334.500	243.162	80.002	19.994	103.914	20.072	3.684	0.482
335.000	243.404	80.002	19.995	103.911	20.069	3.904	0.476
335.500	243.686	80.003	19.994	103.911	20.069	3.880	0.499
336.000	243.944	80.003	19.994	103.913	20.070	3.819	0.532
336.501	244.182	80.003	19.995	103.915	20.071	3.733	0.518
337.000	244.435	80.002	19.994	103.916	20.068	3.945	0.494
337.500	244.702	80.002	19.994	103.917	20.068	3.966	0.505
338.000	244.934	80.000	19.994	103.918	20.068	3.955	0.510
338.500	245.151	80.001	19.994	103.917	20.068	3.945	0.474
339.000	245.403	80.001	19.993	103.916	20.068	3.966	0.459
339.500	245.656	80.001	19.995	103.916	20.072	3.633	0.487
340.000	245.949	80.001	19.993	103.914	20.075	3.406	0.525
340.500	246.181	80.001	19.994	103.913	20.070	3.788	0.536
341.000	246.455	80.001	19.994	103.913	20.070	3.806	0.516
341.500	246.705	80.000	19.995	103.912	20.075	3.464	0.515
342.000	246.941	80.001	19.993	103.912	20.069	3.870	0.505
342.500	247.184	80.002	19.994	103.913	20.074	3.508	0.482
343.000	247.443	80.002	19.995	103.913	20.070	3.804	0.491
343.500	247.680	80.002	19.994	103.914	20.071	3.759	0.499
344.000	247.953	80.002	19.995	103.914	20.073	3.621	0.503
344.500	248.186	80.002	19.994	103.913	20.070	3.786	0.508
345.001	248.416	80.001	19.994	103.913	20.068	3.988	0.484
345.500	248.692	80.002	19.994	103.913	20.071	3.704	0.484
346.000	248.937	80.002	19.994	103.913	20.072	3.643	0.513
346.500	249.204	80.003	19.994	103.913	20.070	3.843	0.517
347.000	249.441	80.002	19.995	103.913	20.074	3.523	0.508
347.500	249.677	80.001	19.995	103.913	20.069	3.884	0.489
348.000	249.932	80.003	19.994	103.913	20.072	3.668	0.482
348.500	250.217	80.003	19.994	103.913	20.070	3.788	0.515
349.000	250.447	80.003	19.995	103.913	20.072	3.637	0.527
349.500	250.701	80.004	19.994	103.914	20.069	3.896	0.499
350.000	250.962	80.005	19.994	103.915	20.070	3.839	0.500
350.500	251.205	80.004	19.994	103.917	20.065	4.209	0.509
351.000	251.482	80.005	19.993	103.917	20.069	3.911	0.512
351.500	251.700	80.004	19.993	103.916	20.073	3.562	0.508
352.000	251.991	80.004	19.993	103.916	20.074	3.506	0.502
352.500	252.240	80.003	19.993	103.915	20.074	3.533	0.524
353.000	252.496	80.004	19.993	103.913	20.077	3.314	0.522
353.500	252.758	80.005	19.993	103.913	20.071	3.731	0.511
354.000	252.985	80.005	19.993	103.913	20.073	3.588	0.503
354.500	253.220	80.003	19.992	103.915	20.070	3.802	0.476
355.000	253.515	80.004	19.991	103.917	20.072	3.686	0.496
355.500	253.726	80.004	19.994	103.916	20.073	3.590	0.518
356.000	253.991	80.005	19.993	103.917	20.072	3.645	0.491
356.500	254.242	80.003	19.992	103.917	20.075	3.431	0.496
357.000	254.486	80.003	19.992	103.916	20.071	3.712	0.506
357.500	254.729	80.003	19.993	103.915	20.074	3.504	0.491
358.000	255.003	80.005	19.992	103.915	20.069	3.857	0.502
358.500	255.251	80.004	19.993	103.917	20.071	3.702	0.520
359.000	255.516	80.004	19.991	103.918	20.072	3.696	0.518
359.500	255.772	80.003	19.993	103.917	20.069	3.853	0.517
360.000	256.019	80.003	19.993	103.915	20.069	3.900	0.512
360.500	256.248	80.004	19.993	103.914	20.071	3.704	0.489
361.000	256.460	80.003	19.994	103.913	20.071	3.759	0.459
361.500	256.750	80.004	19.992	103.916	20.076	3.396	0.471
362.000	256.966	80.005	19.995	103.915	20.070	3.776	0.504
362.500	257.270	80.004	19.992	103.916	20.071	3.735	0.513
363.000	257.518	80.004	19.993	103.916	20.072	3.671	0.536
363.500	257.767	80.003	19.993	103.913	20.072	3.637	0.525
364.000	257.953	80.004	19.993	103.909	20.072	3.673	0.466
364.500	258.183	80.003	19.992	103.909	20.071	3.767	0.425
365.000	258.508	80.004	19.994	103.909	20.075	3.473	0.486
365.500	258.800	80.004	19.993	103.908	20.068	3.939	0.586
366.000	259.015	80.004	19.993	103.911	20.073	3.592	0.562
366.500	259.299	80.004	19.995	103.910	20.075	3.459	0.502
367.000	259.507	80.005	19.996	103.910	20.075	3.433	0.495
367.500	259.752	80.004	19.994	103.910	20.071	3.751	0.473
368.000	260.026	80.004	19.994	103.910	20.072	3.663	0.486
368.500	260.280	80.003	19.993	103.909	20.070	3.829	0.524
369.000	260.487	80.004	19.994	103.909	20.072	3.678	0.494
369.500	260.777	80.003	19.994	103.908	20.073	3.551	0.479
370.000	261.013	80.004	19.994	103.908	20.071	3.714	0.511
370.500	261.283	80.004	19.994	103.908	20.070	3.778	0.516
371.000	261.518	80.004	19.993	103.909	20.069	3.900	0.505
371.500	261.760	80.004	19.993	103.909	20.069	3.916	0.491
372.000	262.018	80.003	19.992	103.910	20.069	3.863	0.489
372.500	262.282	80.005	19.993	103.910	20.076	3.378	0.511
373.000	262.521	80.005	19.994	103.910	20.067	4.043	0.513
373.500	262.758	80.005	19.993	103.910	20.073	3.594	0.490
374.000	263.010	80.004	19.993	103.905	20.075	3.461	0.482
374.500	263.282	80.004	19.993	103.902	20.072	3.639	0.506
375.000	263.522	80.004	19.993	103.901	20.071	3.741	0.518
375.500	263.763	80.005	19.993	103.901	20.070	3.833	0.497
376.000	264.013	80.004	19.993	103.900	20.069	3.890	0.486
376.500	264.279	80.005	19.993	103.904	20.071	3.704	0.504
377.000	264.539	80.007	19.992	103.907	20.069	3.863	0.520
377.500	264.733	80.006	19.994	103.908	20.073	3.602	0.490
378.000	265.008	80.006	19.993	103.908	20.069	3.869	0.462
378.500	265.273	80.006	19.993	103.909	20.076	3.361	0.504
379.000	265.500	80.004	19.992	103.910	20.067	4.008	0.516
379.500	265.750	80.005	19.992	103.910	20.068	3.925	0.485
380.000	265.977	80.006	19.994	103.909	20.071	3.708	0.477
380.500	266.258	80.007	19.992	103.908	20.068	3.929	0.493
381.000	266.548	80.006	19.994	103.908	20.067	4.069	0.540
381.500	266.745	80.004	19.993	103.909	20.070	3.788	0.529
382.001	267.009	80.006	19.992	103.909	20.071	3.735	0.474
382.500	267.248	80.005	19.992	103.909	20.073	3.549	0.482
383.000	267.515	80.005	19.994	103.909	20.070	3.808	0.504
383.500	267.773	80.006	19.993	103.909	20.072	3.692	0.515
384.000	268.031	80.005	19.992	103.908	20.071	3.751	0.521
384.500	268.290	80.005	19.993	103.908	20.069	3.908	0.517
385.000	268.549	80.004	19.993	103.908	20.069	3.898	0.518
385.500	268.784	80.005	19.992	103.909	20.069	3.876	0.506
386.000	269.015	80.005	19.992	103.909	20.066	4.088	0.480
386.500	269.300	80.006	19.993	103.909	20.066	4.078	0.491
387.000	269.529	80.006	19.992	103.909	20.072	3.661	0.515
387.500	269.779	80.004	19.994	103.909	20.067	4.041	0.497
388.000	270.042	80.003	19.993	103.909	20.067	4.018	0.496
388.500	270.262	80.002	19.993	103.910	20.073	3.594	0.498
389.000	270.546	80.002	19.991	103.910	20.071	3.741	0.494
389.500	270.830	80.003	19.993	103.910	20.068	3.996	0.536
390.000	271.077	80.003	19.992	103.910	20.071	3.731	0.549
390.501	271.319	80.003	19.993	103.910	20.067	4.014	0.510
391.000	271.590	80.003	19.994	103.909	20.069	3.851	0.501
391.500	271.850	80.004	19.992	103.909	20.073	3.578	0.522
392.000	272.085	80.003	19.991	103.910	20.069	3.914	0.513
392.500	272.367	80.005	19.993	103.910	20.071	3.769	0.506
393.000	272.614	80.001	19.991	103.911	20.066	4.124	0.523
393.500	272.852	80.005	19.994	103.910	20.072	3.665	0.507
394.000	273.118	80.003	19.993	103.909	20.075	3.449	0.495
394.500	273.347	80.003	19.993	103.909	20.068	3.951	0.499
395.000	273.603	80.003	19.992	103.907	20.070	3.827	0.490
395.500	273.823	80.003	19.994	103.905	20.065	4.165	0.481
396.000	274.119	80.004	19.993	103.906	20.071	3.723	0.496
396.500	274.359	80.003	19.994	103.907	20.073	3.610	0.526
397.000	274.596	80.004	19.994	103.907	20.067	4.031	0.506
397.500	274.841	80.004	19.993	103.909	20.063	4.316	0.480
398.000	275.124	80.004	19.993	103.909	20.068	3.943	0.505
398.500	275.362	80.002	19.992	103.908	20.068	3.961	0.524
399.000	275.603	80.003	19.992	103.910	20.064	4.225	0.500
399.500	275.861	80.005	19.992	103.908	20.067	4.051	0.489
400.000	276.090	80.003	19.992	103.906	20.074	3.545	0.493
400.500	276.392	80.004	19.992	103.905	20.067	4.065	0.509
401.000	276.594	80.002	19.992	103.906	20.070	3.802	0.518
401.500	276.884	80.001	19.992	103.904	20.069	3.896	0.498
402.000	277.106	80.004	19.992	103.906	20.067	4.045	0.502
402.500	277.341	80.003	19.994	103.909	20.066	4.143	0.484
403.000	277.610	80.003	19.994	103.909	20.069	3.896	0.480
403.500	277.862	80.002	19.994	103.907	20.074	3.525	0.512
404.000	278.107	80.003	19.992	103.906	20.068	3.949	0.509
404.500	278.356	80.003	19.993	103.906	20.069	3.896	0.495
405.000	278.629	80.002	19.993	103.905	20.063	4.336	0.508
405.500	278.879	80.002	19.994	103.906	20.065	4.151	0.523
406.000	279.132	80.002	19.994	103.908	20.072	3.657	0.513
406.500	279.370	80.003	19.994	103.910	20.074	3.502	0.497
407.000	279.628	80.002	19.994	103.911	20.068	3.978	0.493
407.500	279.872	80.002	19.994	103.910	20.069	3.867	0.498
408.000	280.137	80.004	19.995	103.910	20.070	3.796	0.505
408.500	280.375	80.002	19.995	103.910	20.067	4.061	0.506
409.000	280.623	80.003	19.994	103.909	20.068	3.965	0.495
409.501	280.843	80.001	19.993	103.908	20.070	3.790	0.477
410.000	281.132	80.002	19.993	103.909	20.065	4.155	0.489
410.500	281.422	80.003	19.994	103.908	20.068	3.957	0.544
411.000	281.643	80.002	19.993	103.905	20.063	4.306	0.544
411.500	281.880	80.002	19.993	103.905	20.070	3.774	0.484
412.000	282.135	80.003	19.994	103.905	20.070	3.835	0.475
412.500	282.404	80.001	19.993	103.906	20.068	3.982	0.508
413.000	282.586	80.003	19.993	103.907	20.071	3.727	0.488
413.500	282.893	80.003	19.993	103.910	20.069	3.896	0.470
414.000	283.146	80.002	19.994	103.911	20.064	4.235	0.524
414.500	283.408	80.004	19.994	103.912	20.065	4.200	0.537
415.000	283.650	80.003	19.993	103.910	20.071	3.737	0.510
415.500	283.900	80.002	19.993	103.903	20.070	3.788	0.498
416.000	284.162	80.000	19.993	103.900	20.069	3.863	0.502
416.500	284.364	80.003	19.993	103.899	20.067	4.045	0.488
417.000	284.660	80.004	19.994	103.899	20.068	3.922	0.481
417.500	284.892	80.003	19.994	103.902	20.066	4.135	0.513
418.000	285.148	80.002	19.993	103.907	20.070	3.818	0.508
418.500	285.420	80.003	19.994	103.907	20.068	3.967	0.508
419.000	285.657	80.003	19.993	103.909	20.071	3.771	0.518
419.500	285.934	80.003	19.992	103.909	20.062	4.383	0.511
420.000	286.194	80.002	19.993	103.909	20.067	4.000	0.526
420.500	286.426	80.003	19.993	103.910	20.069	3.910	0.515
421.000	286.638	80.003	19.993	103.912	20.066	4.145	0.468
421.500	286.932	80.001	19.994	103.913	20.070	3.822	0.475
422.000	287.176	80.003	19.993	103.913	20.070	3.810	0.522
422.500	287.425	80.002	19.994	103.912	20.065	4.206	0.515
423.000	287.694	80.001	19.993	103.912	20.068	3.949	0.505
423.500	287.928	80.002	19.993	103.911	20.069	3.914	0.511
424.000	288.160	80.001	19.993	103.911	20.068	3.963	0.485
424.500	288.429	80.001	19.994	103.911	20.065	4.220	0.483
425.000	288.684	80.002	19.993	103.910	20.065	4.208	0.512
425.500	288.954	80.002	19.994	103.911	20.067	4.012	0.525
426.000	289.145	80.002	19.994	103.909	20.067	4.010	0.493
426.500	289.432	80.001	19.993	103.908	20.064	4.270	0.470
427.000	289.682	80.002	19.993	103.908	20.070	3.796	0.507
427.500	289.928	80.002	19.994	103.907	20.064	4.282	0.517
428.000	290.174	80.002	19.994	103.904	20.066	4.110	0.494
428.500	290.426	80.002	19.993	103.905	20.067	4.022	0.495
429.000	290.708	80.003	19.995	103.902	20.070	3.781	0.516
429.500	290.930	80.002	19.994	103.898	20.067	4.049	0.520
430.000	291.181	80.002	19.994	103.896	20.068	3.981	0.489
430.500	291.469	80.003	19.993	103.900	20.066	4.122	0.505
431.000	291.711	80.003	19.994	103.899	20.065	4.153	0.534
431.500	291.957	80.004	19.995	103.901	20.067	4.051	0.509
432.000	292.199	80.004	19.994	103.904	20.065	4.167	0.488
432.500	292.436	80.003	19.993	103.906	20.071	3.761	0.484
433.000	292.691	80.003	19.994	103.906	20.068	3.934	0.486
433.500	292.934	80.004	19.994	103.908	20.066	4.108	0.495
434.000	293.193	80.003	19.994	103.907	20.070	3.775	0.501
434.500	293.487	80.003	19.994	103.908	20.066	4.115	0.528
435.000	293.672	80.004	19.994	103.907	20.064	4.277	0.516
435.501	293.949	80.004	19.994	103.909	20.066	4.107	0.470
436.000	294.240	80.004	19.993	103.908	20.066	4.105	0.515
436.500	294.474	80.004	19.993	103.910	20.066	4.124	0.547
437.000	294.714	80.004	19.994	103.910	20.071	3.761	0.499
437.501	294.980	80.003	19.994	103.910	20.067	4.041	0.490
438.000	295.208	80.002	19.994	103.909	20.067	4.061	0.500
438.500	295.486	80.004	19.994	103.905	20.068	3.975	0.500
439.000	295.731	80.002	19.993	103.904	20.067	4.014	0.515
439.500	295.982	80.004	19.995	103.902	20.065	4.212	0.510
440.000	296.228	80.004	19.994	103.898	20.063	4.359	0.496
440.500	296.485	80.003	19.993	103.896	20.064	4.293	0.500
441.000	296.725	80.003	19.994	103.898	20.068	3.971	0.500
441.500	297.008	80.002	19.994	103.897	20.068	3.971	0.510
442.000	297.212	80.003	19.994	103.896	20.065	4.183	0.505
442.500	297.462	80.004	19.994	103.900	20.065	4.152	0.470
443.000	297.721	80.004	19.994	103.901	20.064	4.281	0.481
443.500	297.994	80.003	19.995	103.898	20.063	4.364	0.521
444.000	298.212	80.003	19.993	103.898	20.068	3.991	0.512
444.500	298.481	80.002	19.991	103.899	20.072	3.660	0.489
445.000	298.712	80.003	19.994	103.892	20.063	4.324	0.493
445.500	298.939	80.005	19.995	103.886	20.063	4.297	0.479
446.000	299.215	80.004	19.993	103.888	20.066	4.087	0.480
446.500	299.481	80.004	19.994	103.888	20.064	4.243	0.523
447.000	299.703	80.004	19.993	103.891	20.066	4.120	0.516
447.500	299.996	80.003	19.993	103.898	20.066	4.120	0.502
448.000	300.217	80.006	19.993	103.901	20.063	4.308	0.514
448.500	300.471	80.004	19.993	103.903	20.060	4.522	0.494
449.000	300.708	80.003	19.991	103.900	20.065	4.217	0.483
449.500	300.949	80.004	19.996	103.895	20.067	4.044	0.485
450.000	301.230	80.004	19.994	103.896	20.062	4.370	0.500
450.500	301.468	80.004	19.994	103.899	20.068	3.924	0.521
451.000	301.721	80.006	19.994	103.896	20.061	4.497	0.505
451.500	301.971	80.004	19.993	103.894	20.066	4.108	0.497
452.000	302.243	80.005	19.993	103.895	20.065	4.173	0.513
452.500	302.480	80.005	19.994	103.893	20.060	4.558	0.516
453.000	302.689	80.005	19.993	103.887	20.067	4.054	0.478
453.500	302.987	80.005	19.993	103.885	20.061	4.483	0.476
454.000	303.224	80.003	19.992	103.888	20.066	4.118	0.520
454.500	303.481	80.004	19.993	103.886	20.064	4.285	0.514
455.000	303.711	80.005	19.995	103.882	20.060	4.559	0.491
455.500	303.944	80.006	19.994	103.883	20.063	4.328	0.475
456.000	304.195	80.005	19.993	103.887	20.056	4.836	0.474
456.500	304.453	80.004	19.992	103.891	20.057	4.787	0.496
457.000	304.682	80.005	19.993	103.896	20.068	3.979	0.498
457.500	304.949	80.005	19.993	103.901	20.064	4.291	0.492
458.000	305.217	80.006	19.994	103.903	20.064	4.269	0.516
458.500	305.441	80.008	19.994	103.899	20.061	4.516	0.514
459.000	305.733	80.005	19.994	103.893	20.062	4.375	0.504
459.500	305.983	80.006	19.992	103.888	20.068	3.975	0.529
460.000	306.224	80.007	19.993	103.883	20.063	4.367	0.517
460.500	306.452	80.006	19.994	103.881	20.065	4.153	0.480
461.000	306.725	80.006	19.993	103.883	20.061	4.518	0.485
461.500	306.953	80.007	19.992	103.885	20.059	4.614	0.501
462.000	307.216	80.006	19.993	103.887	20.062	4.408	0.496
462.500	307.503	80.006	19.992	103.892	20.065	4.191	0.520
463.000	307.742	80.006	19.993	103.893	20.065	4.183	0.538
463.500	307.943	80.006	19.993	103.889	20.063	4.316	0.484
464.000	308.185	80.005	19.993	103.889	20.061	4.469	0.442
464.500	308.440	80.005	19.993	103.890	20.056	4.858	0.470
465.000	308.709	80.003	19.992	103.890	20.062	4.391	0.510
465.500	308.940	80.004	19.992	103.891	20.056	4.873	0.512
466.000	309.195	80.004	19.992	103.898	20.064	4.291	0.493
466.500	309.481	80.004	19.992	103.898	20.060	4.592	0.513
467.000	309.716	80.005	19.993	103.895	20.059	4.598	0.531
467.500	309.950	80.004	19.993	103.892	20.060	4.533	0.495
468.000	310.183	80.003	19.993	103.894	20.058	4.679	0.468
468.500	310.455	80.004	19.994	103.894	20.062	4.430	0.486
469.000	310.740	80.004	19.993	103.898	20.060	4.534	0.532
469.500	310.968	80.003	19.995	103.900	20.059	4.622	0.535
470.000	311.255	80.003	19.993	103.903	20.065	4.199	0.514
470.500	311.506	80.005	19.992	103.901	20.059	4.628	0.526
471.000	311.723	80.003	19.993	103.900	20.060	4.585	0.504
471.500	312.001	80.002	19.991	103.895	20.059	4.657	0.482
472.000	312.231	80.004	19.993	103.894	20.058	4.677	0.502
472.500	312.486	80.003	19.993	103.893	20.063	4.338	0.497
473.000	312.767	80.003	19.992	103.894	20.059	4.628	0.510
473.500	313.018	80.002	19.994	103.891	20.056	4.887	0.534
474.000	313.288	80.001	19.993	103.892	20.058	4.697	0.526
474.500	313.536	80.000	19.993	103.891	20.056	4.831	0.519
475.000	313.809	80.004	19.992	103.892	20.053	5.066	0.520
475.500	314.040	80.004	19.993	103.887	20.063	4.346	0.513
476.000	314.311	80.003	19.993	103.891	20.061	4.456	0.503
476.500	314.541	80.004	19.995	103.894	20.061	4.511	0.501
477.000	314.792	80.002	19.992	103.898	20.057	4.748	0.491
477.500	315.057	80.002	19.994	103.901	20.061	4.448	0.499
478.000	315.286	80.002	19.993	103.906	20.057	4.803	0.505
478.500	315.539	80.004	19.992	103.904	20.057	4.785	0.488
479.000	315.809	80.001	19.993	103.903	20.057	4.779	0.503
479.500	316.042	80.000	19.992	103.901	20.059	4.597	0.514
480.000	316.294	80.004	19.993	103.895	20.060	4.581	0.494
480.500	316.578	80.003	19.993	103.889	20.055	4.916	0.510
481.000	316.794	80.006	19.993	103.890	20.052	5.167	0.518
481.500	317.086	80.003	19.994	103.893	20.059	4.656	0.504
482.000	317.311	80.004	19.993	103.890	20.054	5.022	0.513
482.501	317.566	80.004	19.994	103.895	20.055	4.919	0.499
483.000	317.861	80.003	19.993	103.896	20.055	4.958	0.515
483.500	318.092	80.003	19.993	103.892	20.054	5.003	0.537
484.000	318.338	80.005	19.994	103.885	20.059	4.666	0.501
484.500	318.598	80.001	19.992	103.884	20.052	5.145	0.492
485.000	318.877	80.001	19.993	103.878	20.051	5.219	0.523
485.500	319.111	80.003	19.993	103.876	20.049	5.352	0.526
486.000	319.343	80.002	19.992	103.881	20.057	4.818	0.489
486.500	319.586	80.004	19.994	103.884	20.053	5.091	0.471
487.000	319.864	80.003	19.992	103.884	20.053	5.101	0.498
487.500	320.070	80.003	19.992	103.889	20.054	4.983	0.502
488.000	320.346	80.003	19.994	103.892	20.052	5.129	0.483
488.500	320.598	80.004	19.993	103.888	20.055	4.931	0.505
489.000	320.872	80.003	19.991	103.889	20.059	4.648	0.527
489.500	321.159	80.005	19.992	103.894	20.054	4.984	0.543
490.000	321.387	80.002	19.992	103.891	20.051	5.223	0.538
490.500	321.604	80.004	19.993	103.891	20.057	4.793	0.480
491.000	321.876	80.003	19.993	103.895	20.051	5.252	0.468
491.500	322.121	80.004	19.993	103.898	20.051	5.215	0.503
492.000	322.361	80.002	19.993	103.893	20.047	5.511	0.501
492.500	322.637	80.004	19.993	103.891	20.053	5.099	0.501
493.000	322.911	80.003	19.993	103.888	20.050	5.283	0.533
493.500	323.141	80.004	19.993	103.883	20.046	5.601	0.527
494.000	323.403	80.004	19.993	103.876	20.051	5.244	0.498
494.500	323.644	80.002	19.992	103.875	20.052	5.191	0.497
495.000	323.916	80.004	19.993	103.876	20.054	5.037	0.508
495.500	324.135	80.003	19.993	103.878	20.049	5.397	0.502
496.000	324.378	80.003	19.993	103.884	20.050	5.305	0.477
496.500	324.648	80.004	19.994	103.890	20.050	5.303	0.488
497.000	324.881	80.002	19.995	103.890	20.052	5.145	0.508
497.500	325.121	80.001	19.993	103.891	20.049	5.407	0.488
498.000	325.395	80.003	19.994	103.892	20.052	5.190	0.493
498.500	325.609	80.002	19.994	103.887	20.052	5.148	0.501
499.000	325.895	80.002	19.993	103.881	20.049	5.382	0.494
499.500	326.140	80.003	19.993	103.879	20.046	5.589	0.516
500.000	326.409	80.002	19.994	103.878	20.049	5.346	0.522
500.500	326.685	80.001	19.994	103.877	20.051	5.258	0.529
501.000	326.921	80.002	19.994	103.877	20.051	5.248	0.528
501.500	327.155	80.002	19.992	103.878	20.050	5.278	0.491
502.000	327.423	80.002	19.993	103.878	20.047	5.501	0.486
502.500	327.672	80.002	19.994	103.885	20.048	5.453	0.510
503.000	327.916	80.002	19.994	103.883	20.050	5.268	0.506
503.500	328.190	80.001	19.994	103.887	20.049	5.368	0.506
504.000	328.449	80.002	19.994	103.887	20.045	5.643	0.525
504.500	328.679	80.001	19.993	103.887	20.049	5.362	0.511
505.000	328.927	80.001	19.994	103.882	20.047	5.542	0.483
505.500	329.162	80.000	19.994	103.882	20.049	5.399	0.481
506.000	329.453	80.002	19.994	103.878	20.046	5.591	0.505
506.500	329.679	80.002	19.994	103.881	20.044	5.725	0.521
507.000	329.934	80.001	19.994	103.881	20.044	5.748	0.499
507.500	330.183	80.001	19.994	103.879	20.045	5.666	0.493
508.001	330.430	80.001	19.993	103.878	20.051	5.254	0.500
508.500	330.698	80.002	19.993	103.877	20.046	5.600	0.505
509.000	330.900	80.003	19.993	103.876	20.047	5.553	0.493
509.500	331.172	80.003	19.995	103.878	20.051	5.248	0.473
510.000	331.406	80.002	19.995	103.884	20.046	5.572	0.490
510.500	331.707	80.003	19.995	103.889	20.044	5.782	0.520
511.000	331.925	80.002	19.995	103.892	20.048	5.456	0.527
511.500	332.215	80.002	19.993	103.892	20.047	5.540	0.514
512.000	332.432	80.002	19.994	103.892	20.049	5.384	0.508
512.500	332.719	80.002	19.993	103.885	20.046	5.615	0.506
513.000	332.974	80.002	19.994	103.879	20.040	6.025	0.523
513.500	333.243	80.003	19.992	103.877	20.045	5.707	0.534
514.000	333.472	80.003	19.993	103.874	20.045	5.678	0.511
514.500	333.689	80.003	19.993	103.875	20.046	5.621	0.471
515.000	334.018	80.003	19.993	103.879	20.048	5.474	0.496
515.500	334.205	80.005	19.993	103.884	20.048	5.464	0.531
516.000	334.483	80.002	19.994	103.890	20.043	5.849	0.490
516.500	334.754	80.004	19.993	103.892	20.040	6.061	0.507
517.000	335.016	80.002	19.993	103.891	20.042	5.907	0.542
517.500	335.265	80.004	19.993	103.888	20.045	5.650	0.522
518.000	335.523	80.004	19.993	103.883	20.045	5.680	0.509
518.500	335.773	80.003	19.994	103.879	20.042	5.902	0.507
519.001	335.999	80.004	19.993	103.878	20.045	5.639	0.492
519.500	336.310	80.006	19.994	103.876	20.045	5.672	0.507
520.000	336.518	80.003	19.993	103.877	20.043	5.810	0.528
520.500	336.754	80.004	19.993	103.880	20.043	5.839	0.481
521.000	337.048	80.004	19.993	103.879	20.044	5.733	0.487
521.500	337.247	80.004	19.993	103.878	20.042	5.896	0.511
522.000	337.528	80.004	19.995	103.879	20.044	5.784	0.486
522.500	337.776	80.005	19.993	103.885	20.044	5.764	0.505
523.000	338.033	80.004	19.993	103.883	20.042	5.927	0.517
523.500	338.294	80.005	19.994	103.883	20.045	5.682	0.512
524.000	338.547	80.005	19.994	103.884	20.044	5.729	0.516
524.500	338.800	80.003	19.993	103.883	20.043	5.829	0.510
525.000	339.025	80.003	19.994	103.879	20.040	6.037	0.492
525.500	339.287	80.003	19.993	103.878	20.039	6.121	0.483
526.000	339.557	80.003	19.994	103.878	20.040	6.044	0.509
526.500	339.810	80.002	19.994	103.877	20.041	5.948	0.528
527.001	340.034	80.003	19.993	103.876	20.040	6.025	0.500
527.501	340.285	80.003	19.993	103.875	20.039	6.129	0.476
528.000	340.540	80.002	19.993	103.880	20.037	6.253	0.490
528.500	340.796	80.001	19.993	103.880	20.040	6.045	0.508
529.000	341.083	80.003	19.995	103.880	20.040	6.031	0.527
529.500	341.332	80.003	19.995	103.879	20.041	5.974	0.540
530.000	341.609	80.003	19.994	103.879	20.038	6.225	0.531
530.500	341.884	80.001	19.995	103.874	20.042	5.896	0.539
531.000	342.058	80.001	19.995	103.873	20.037	6.276	0.500
531.500	342.347	80.001	19.994	103.872	20.039	6.143	0.456
532.000	342.592	80.003	19.994	103.873	20.044	5.776	0.498
532.500	342.818	80.001	19.995	103.873	20.039	6.147	0.502
533.000	343.056	80.003	19.995	103.873	20.036	6.345	0.468
533.500	343.296	80.002	19.994	103.878	20.037	6.249	0.471
534.001	343.598	80.002	19.994	103.879	20.035	6.402	0.510
534.501	343.826	80.001	19.994	103.879	20.037	6.296	0.535
535.000	344.079	80.004	19.996	103.880	20.039	6.129	0.505
535.500	344.336	80.002	19.993	103.880	20.037	6.244	0.496
536.000	344.590	80.003	19.993	103.877	20.037	6.242	0.510
536.500	344.835	80.004	19.994	103.880	20.036	6.336	0.505
537.000	345.073	80.003	19.994	103.883	20.039	6.150	0.491
537.500	345.309	80.005	19.994	103.882	20.037	6.292	0.478
538.000	345.569	80.004	19.993	103.882	20.037	6.292	0.485
538.500	345.851	80.004	19.994	103.880	20.037	6.245	0.519
539.000	346.062	80.005	19.994	103.876	20.037	6.284	0.518
539.500	346.340	80.003	19.992	103.873	20.038	6.174	0.491
540.000	346.624	80.006	19.995	103.873	20.035	6.445	0.525
540.500	346.866	80.006	19.994	103.876	20.033	6.605	0.544
541.000	347.088	80.005	19.993	103.877	20.035	6.419	0.495
541.500	347.353	80.005	19.992	103.877	20.032	6.637	0.475
542.000	347.607	80.006	19.993	103.877	20.030	6.790	0.503
542.500	347.816	80.006	19.993	103.877	20.036	6.360	0.492
543.000	348.088	80.006	19.993	103.874	20.031	6.729	0.472
543.500	348.359	80.006	19.993	103.875	20.028	6.947	0.512
544.000	348.618	80.006	19.992	103.877	20.031	6.694	0.536
544.500	348.861	80.006	19.993	103.876	20.033	6.551	0.516
545.000	349.092	80.005	19.992	103.877	20.032	6.615	0.488
545.500	349.406	80.004	19.992	103.878	20.028	6.959	0.509
546.000	349.645	80.005	19.993	103.883	20.032	6.637	0.549
546.500	349.900	80.004	19.994	103.886	20.028	6.941	0.524
547.000	350.122	80.005	19.992	103.888	20.029	6.895	0.486
547.500	350.409	80.004	19.992	103.891	20.027	7.058	0.493
548.000	350.638	80.005	19.992	103.889	20.030	6.821	0.512
548.500	350.909	80.006	19.992	103.883	20.029	6.880	0.508
549.000	351.136	80.004	19.992	103.879	20.028	6.912	0.499
549.500	351.379	80.004	19.992	103.878	20.025	7.157	0.484
550.000	351.656	80.003	19.992	103.879	20.027	7.021	0.495
550.500	351.913	80.003	19.992	103.880	20.031	6.731	0.528
551.000	352.161	80.003	19.993	103.882	20.027	6.984	0.519
551.500	352.429	80.003	19.992	103.882	20.024	7.230	0.510
552.000	352.695	80.004	19.992	103.882	20.027	7.049	0.525
552.500	352.949	80.002	19.992	103.878	20.024	7.259	0.527
553.000	353.194	80.003	19.993	103.881	20.029	6.908	0.510
553.500	353.448	80.003	19.992	103.882	20.023	7.329	0.499
554.000	353.683	80.003	19.992	103.882	20.027	7.054	0.494
554.500	353.974	80.002	19.992	103.882	20.023	7.345	0.507
555.000	354.206	80.002	19.992	103.882	20.022	7.417	0.524
555.500	354.450	80.004	19.993	103.879	20.025	7.194	0.499
556.000	354.733	80.002	19.993	103.879	20.021	7.482	0.501
556.500	354.963	80.002	19.993	103.880	20.020	7.513	0.520
557.000	355.220	80.002	19.992	103.885	20.018	7.664	0.500
557.500	355.449	80.003	19.993	103.887	20.017	7.784	0.487
558.000	355.690	80.003	19.993	103.886	20.019	7.612	0.478
558.500	355.964	80.003	19.993	103.883	20.018	7.718	0.492
559.000	356.208	80.004	19.993	103.884	20.017	7.733	0.516
559.500	356.458	80.001	19.993	103.880	20.015	7.937	0.506
560.000	356.715	80.002	19.995	103.878	20.015	7.884	0.501
560.500	356.946	80.002	19.993	103.879	20.022	7.386	0.497
561.000	357.218	80.004	19.994	103.880	20.018	7.705	0.495
561.501	357.456	80.004	19.993	103.880	20.010	8.303	0.507
562.000	357.732	80.004	19.993	103.877	20.015	7.929	0.512
562.500	358.002	80.003	19.992	103.876	20.013	8.101	0.530
563.000	358.226	80.003	19.993	103.878	20.010	8.284	0.520
563.500	358.507	80.003	19.993	103.878	20.012	8.139	0.500
564.000	358.758	80.003	19.994	103.880	20.011	8.205	0.518
564.500	359.003	80.004	19.993	103.883	20.014	8.025	0.514
565.000	359.228	80.003	19.993	103.885	20.009	8.331	0.483
565.500	359.460	80.003	19.993	103.885	20.008	8.454	0.464
566.000	359.726	80.004	19.994	103.883	20.012	8.141	0.478
566.500	359.995	80.003	19.994	103.886	20.006	8.618	0.516
567.000	360.243	80.004	19.993	103.887	20.005	8.690	0.526
567.500	360.536	80.004	19.993	103.888	20.007	8.506	0.529
568.000	360.777	80.004	19.992	103.888	20.007	8.492	0.538
568.500	361.001	80.003	19.993	103.887	20.005	8.637	0.500
569.000	361.261	80.003	19.992	103.881	19.999	9.109	0.474
569.500	361.482	80.004	19.995	103.876	20.003	8.832	0.482
570.000	361.759	80.004	19.994	103.878	20.004	8.748	0.489
570.500	362.029	80.003	19.993	103.878	20.002	8.899	0.523
571.000	362.265	80.004	19.993	103.882	20.000	9.027	0.527
571.500	362.505	80.002	19.993	103.883	20.000	9.050	0.491
572.000	362.767	80.003	19.994	103.889	20.003	8.830	0.489
572.500	363.023	80.003	19.994	103.889	19.995	9.432	0.510
573.000	363.283	80.004	19.993	103.889	19.995	9.403	0.517
573.500	363.503	80.005	19.993	103.889	19.996	9.349	0.498
574.000	363.801	80.004	19.992	103.891	19.993	9.570	0.499
574.500	363.998	80.005	19.994	103.889	20.000	9.070	0.506
575.000	364.276	80.003	19.993	103.889	19.995	9.444	0.485
575.500	364.531	80.004	19.993	103.890	19.994	9.481	0.505
576.000	364.765	80.006	19.994	103.889	19.988	9.910	0.511
576.500	365.010	80.004	19.993	103.889	19.994	9.473	0.484
577.000	365.256	80.005	19.992	103.886	19.994	9.498	0.485
577.500	365.528	80.004	19.993	103.883	19.994	9.518	0.505
578.000	365.784	80.004	19.993	103.880	19.992	9.671	0.523
578.500	366.069	80.003	19.994	103.882	19.992	9.618	0.535
579.000	366.293	80.004	19.993	103.886	19.988	9.953	0.525
579.500	366.525	80.003	19.993	103.891	19.988	9.949	0.483
580.000	366.775	80.003	19.993	103.895	19.990	9.796	0.469
580.500	367.037	80.003	19.993	103.897	19.986	10.090	0.497
581.000	367.273	80.003	19.994	103.896	19.981	10.455	0.505
581.500	367.525	80.004	19.993	103.895	19.983	10.300	0.492
582.000	367.754	80.004	19.994	103.894	19.982	10.414	0.484
582.500	368.014	80.003	19.993	103.894	19.985	10.170	0.485
583.000	368.245	80.002	19.993	103.897	19.976	10.814	0.491
583.500	368.505	80.003	19.994	103.896	19.979	10.633	0.491
584.000	368.783	80.002	19.993	103.893	19.976	10.835	0.514
584.500	369.029	80.003	19.994	103.888	19.980	10.570	0.531
585.000	369.296	80.003	19.993	103.888	19.975	10.872	0.518
585.500	369.552	80.003	19.993	103.889	19.975	10.903	0.518
586.000	369.785	80.003	19.992	103.893	19.974	10.984	0.506
586.500	370.037	80.003	19.992	103.899	19.971	11.201	0.487
587.000	370.271	80.003	19.993	103.905	19.972	11.149	0.485
587.500	370.504	80.003	19.993	103.906	19.971	11.209	0.476
588.000	370.758	80.003	19.994	103.906	19.965	11.662	0.477
588.500	371.044	80.004	19.993	103.903	19.969	11.347	0.513
589.000	371.293	80.003	19.992	103.903	19.967	11.523	0.538
589.500	371.532	80.004	19.993	103.904	19.964	11.723	0.512
590.000	371.780	80.002	19.993	103.906	19.964	11.729	0.487
590.500	372.044	80.003	19.993	103.907	19.965	11.658	0.499
591.000	372.276	80.005	19.994	103.904	19.959	12.121	0.504
591.500	372.562	80.004	19.994	103.904	19.957	12.243	0.507
592.000	372.815	80.004	19.995	103.905	19.955	12.405	0.528
592.500	373.076	80.003	19.994	103.905	19.952	12.593	0.526
593.000	373.377	80.004	19.993	103.905	19.956	12.295	0.538
593.500	373.603	80.004	19.994	103.910	19.954	12.471	0.545
594.000	373.827	80.004	19.994	103.909	19.952	12.599	0.489
594.500	374.076	80.004	19.993	103.908	19.950	12.779	0.462
595.000	374.370	80.004	19.994	103.909	19.954	12.498	0.508
595.500	374.621	80.004	19.994	103.910	19.947	13.034	0.544
596.000	374.874	80.004	19.993	103.910	19.948	12.900	0.524
596.500	375.134	80.003	19.994	103.912	19.946	13.092	0.508
597.000	375.344	80.003	19.993	103.912	19.942	13.382	0.492
597.500	375.600	80.003	19.993	103.912	19.941	13.435	0.468
598.000	375.857	80.004	19.993	103.912	19.942	13.365	0.489
598.500	376.165	80.005	19.993	103.912	19.938	13.641	0.539
599.000	376.415	80.005	19.994	103.911	19.936	13.831	0.562
599.500	376.616	80.005	19.993	103.911	19.936	13.804	0.505
600.000	376.895	80.005	19.994	103.911	19.931	14.192	0.466
600.500	377.157	80.004	19.993	103.910	19.927	14.521	0.511
601.000	377.385	80.005	19.994	103.910	19.927	14.492	0.516
601.500	377.675	80.005	19.994	103.911	19.924	14.735	0.504
602.000	377.868	80.005	19.993	103.911	19.927	14.515	0.501
602.500	378.167	80.006	19.994	103.911	19.921	14.948	0.488
603.000	378.400	80.006	19.994	103.915	19.921	14.969	0.512
603.500	378.687	80.004	19.994	103.917	19.919	15.063	0.526
604.000	378.909	80.004	19.993	103.917	19.918	15.143	0.514
604.500	379.184	80.004	19.994	103.918	19.915	15.405	0.502
605.000	379.424	80.003	19.993	103.920	19.913	15.544	0.506
605.500	379.696	80.004	19.992	103.918	19.912	15.594	0.514
606.000	379.957	80.005	19.993	103.921	19.909	15.833	0.523
606.500	380.199	80.004	19.994	103.921	19.907	15.993	0.518
607.000	380.464	80.004	19.993	103.923	19.907	15.978	0.504
607.500	380.734	80.005	19.993	103.923	19.906	16.064	0.521
608.000	380.989	80.004	19.993	103.924	19.907	15.998	0.531
608.500	381.232	80.004	19.993	103.922	19.904	16.210	0.512
609.001	381.507	80.003	19.994	103.923	19.898	16.682	0.508
609.500	381.765	80.004	19.993	103.924	19.902	16.391	0.526
610.000	382.039	80.003	19.992	103.922	19.898	16.687	0.533
610.500	382.276	80.003	19.993	103.919	19.903	16.301	0.521
611.000	382.564	80.004	19.993	103.923	19.896	16.793	0.518
611.500	382.812	80.003	19.993	103.924	19.897	16.711	0.531
612.000	383.074	80.003	19.994	103.924	19.901	16.470	0.523
612.500	383.297	80.004	19.992	103.924	19.902	16.390	0.498
613.000	383.579	80.004	19.994	103.925	19.896	16.811	0.495
613.500	383.822	80.004	19.994	103.926	19.898	16.686	0.515
614.000	384.103	80.004	19.993	103.931	19.897	16.770	0.524
614.500	384.367	80.003	19.992	103.931	19.896	16.796	0.534
615.000	384.621	80.004	19.993	103.935	19.894	16.936	0.532
615.500	384.885	80.003	19.994	103.940	19.896	16.797	0.518
616.000	385.151	80.005	19.993	103.940	19.894	16.991	0.523
616.500	385.427	80.003	19.993	103.936	19.894	16.960	0.536
617.000	385.653	80.003	19.993	103.939	19.895	16.921	0.522
617.500	385.935	80.003	19.993	103.939	19.894	16.952	0.505
618.000	386.168	80.005	19.994	103.940	19.891	17.187	0.511
618.500	386.445	80.003	19.993	103.941	19.891	17.209	0.513
619.000	386.701	80.005	19.994	103.946	19.891	17.183	0.521
619.500	386.978	80.002	19.993	103.948	19.889	17.300	0.533
620.000	387.253	80.004	19.994	103.951	19.883	17.773	0.542
620.500	387.518	80.004	19.994	103.951	19.885	17.641	0.546
621.000	387.787	80.005	19.994	103.951	19.882	17.829	0.537
621.500	388.048	80.003	19.994	103.950	19.876	18.274	0.532
622.000	388.314	80.005	19.994	103.950	19.875	18.397	0.528
622.500	388.564	80.004	19.994	103.949	19.873	18.548	0.521
623.000	388.825	80.005	19.993	103.948	19.872	18.620	0.513
623.500	389.118	80.006	19.994	103.948	19.866	19.030	0.532
624.000	389.384	80.006	19.994	103.948	19.867	18.999	0.556
624.500	389.624	80.004	19.993	103.947	19.866	19.085	0.533
625.000	389.909	80.005	19.993	103.946	19.865	19.155	0.516
625.500	390.151	80.006	19.993	103.945	19.861	19.470	0.526
626.000	390.405	80.006	19.994	103.943	19.857	19.769	0.511
626.500	390.642	80.007	19.994	103.941	19.856	19.802	0.493
627.000	390.945	80.005	19.993	103.941	19.857	19.722	0.515
627.500	391.183	80.006	19.994	103.939	19.855	19.888	0.540
628.000	391.446	80.007	19.994	103.939	19.852	20.136	0.521
628.500	391.711	80.007	19.993	103.940	19.848	20.412	0.515
629.000	392.015	80.004	19.992	103.941	19.846	20.532	0.549
629.500	392.243	80.005	19.996	103.938	19.849	20.321	0.550
630.000	392.529	80.004	19.996	103.941	19.844	20.691	0.523
630.500	392.793	80.005	19.994	103.943	19.840	20.989	0.532
631.000	393.071	80.003	19.994	103.943	19.840	21.027	0.546
631.500	393.337	80.004	19.995	103.944	19.835	21.372	0.543
632.000	393.573	80.004	19.994	103.948	19.833	21.506	0.523
632.500	393.824	80.004	19.993	103.947	19.826	22.057	0.495
633.000	394.108	80.004	19.994	103.947	19.829	21.800	0.511
633.500	394.401	80.003	19.994	103.948	19.823	22.251	0.556
634.000	394.652	80.003	19.994	103.951	19.819	22.588	0.561
634.500	394.926	80.004	19.994	103.951	19.819	22.588	0.534
635.000	395.160	80.004	19.993	103.956	19.812	23.087	0.517
635.500	395.424	80.003	19.993	103.961	19.807	23.448	0.503
636.000	395.701	80.004	19.993	103.964	19.808	23.372	0.519
636.500	395.955	80.002	19.992	103.963	19.803	23.801	0.536
637.000	396.223	80.003	19.993	103.968	19.797	24.202	0.526
637.500	396.491	80.003	19.993	103.971	19.796	24.330	0.529
638.000	396.749	80.003	19.993	103.970	19.790	24.743	0.531
638.500	397.021	80.003	19.993	103.975	19.786	25.087	0.529
639.000	397.271	80.003	19.993	103.979	19.780	25.479	0.526
639.500	397.509	80.004	19.992	103.979	19.777	25.756	0.505
640.000	397.759	80.003	19.994	103.977	19.773	25.985	0.488
640.500	398.022	80.003	19.993	103.973	19.774	25.976	0.500
641.000	398.300	80.004	19.993	103.967	19.767	26.475	0.527
641.500	398.552	80.004	19.993	103.964	19.763	26.765	0.536
642.000	398.761	80.005	19.993	103.968	19.758	27.141	0.495
642.500	399.046	80.003	19.992	103.971	19.755	27.328	0.477
643.000	399.311	80.004	19.993	103.977	19.751	27.674	0.522
643.500	399.596	80.004	19.992	103.982	19.745	28.083	0.550
644.000	399.844	80.003	19.993	103.984	19.743	28.265	0.541
644.500	400.093	80.004	19.992	103.983	19.738	28.661	0.515
645.000	400.327	80.005	19.992	103.983	19.734	28.969	0.490
645.500	400.565	80.004	19.992	103.984	19.728	29.347	0.478
646.000	400.834	80.004	19.992	103.986	19.718	30.171	0.489
646.500	401.125	80.004	19.993	103.992	19.713	30.532	0.533
647.000	401.384	80.005	19.994	103.999	19.706	31.049	0.555
647.500	401.627	80.004	19.993	104.003	19.699	31.530	0.526
648.000	401.902	80.003	19.992	104.003	19.690	32.209	0.510
648.500	402.181	80.005	19.993	104.007	19.683	32.753	0.536
649.000	402.383	80.004	19.993	104.013	19.675	33.384	0.517
649.500	402.646	80.004	19.993	104.014	19.671	33.687	0.473
650.000	402.933	80.005	19.992	104.012	19.667	34.000	0.508
650.500	403.197	80.004	19.994	104.011	19.660	34.477	0.550
651.000	403.429	80.004	19.993	104.010	19.654	34.951	0.523
651.500	403.682	80.004	19.993	104.006	19.654	34.915	0.491
652.000	403.924	80.003	19.994	104.003	19.645	35.632	0.491
652.500	404.193	80.004	19.993	104.002	19.641	35.894	0.503
653.000	404.475	80.004	19.992	104.002	19.638	36.161	0.531
653.500	404.702	80.004	19.993	103.998	19.632	36.554	0.530
654.000	404.949	80.003	19.994	103.992	19.627	36.930	0.492
654.500	405.221	80.005	19.993	103.988	19.626	37.063	0.496
655.000	405.492	80.004	19.993	103.989	19.620	37.466	0.531
655.500	405.722	80.004	19.993	103.990	19.616	37.783	0.522
656.000	405.968	80.005	19.993	103.995	19.612	38.102	0.489
656.500	406.246	80.004	19.994	104.003	19.607	38.478	0.500
657.000	406.480	80.004	19.993	104.013	19.599	39.018	0.518
657.500	406.733	80.002	19.993	104.024	19.595	39.343	0.500
658.000	407.018	80.004	19.993	104.037	19.582	40.289	0.513
658.500	407.266	80.004	19.992	104.048	19.583	40.279	0.535
659.000	407.525	80.003	19.993	104.056	19.576	40.792	0.520
659.500	407.764	80.003	19.993	104.061	19.571	41.181	0.502
660.000	408.002	80.002	19.993	104.067	19.564	41.707	0.488
660.500	408.283	80.003	19.993	104.069	19.557	42.186	0.498
661.000	408.513	80.003	19.992	104.070	19.546	42.994	0.515
661.500	408.808	80.003	19.994	104.071	19.537	43.718	0.518
662.000	409.061	80.004	19.992	104.071	19.527	44.457	0.536
662.501	409.276	80.004	19.993	104.068	19.521	44.946	0.508
663.000	409.550	80.003	19.994	104.068	19.510	45.765	0.479
663.500	409.798	80.003	19.993	104.074	19.502	46.314	0.506
664.001	410.086	80.003	19.993	104.078	19.494	46.932	0.529
664.501	410.323	80.005	19.993	104.078	19.484	47.694	0.530
665.000	410.575	80.003	19.993	104.079	19.479	48.092	0.507
665.500	410.834	80.003	19.994	104.079	19.474	48.410	0.500
666.000	411.111	80.003	19.993	104.073	19.468	48.892	0.524
666.500	411.351	80.003	19.993	104.069	19.462	49.376	0.527
667.000	411.603	80.003	19.993	104.070	19.452	50.066	0.505
667.500	411.833	80.003	19.993	104.070	19.447	50.495	0.487
668.000	412.076	80.003	19.993	104.070	19.441	50.930	0.477
668.500	412.339	80.003	19.992	104.069	19.431	51.647	0.489
669.000	412.577	80.004	19.993	104.069	19.424	52.187	0.504
669.500	412.876	80.003	19.993	104.069	19.421	52.403	0.519
670.000	413.080	80.003	19.994	104.070	19.415	52.887	0.520
670.500	413.346	80.002	19.993	104.071	19.407	53.465	0.487
671.000	413.598	80.002	19.992	104.077	19.401	53.941	0.494
671.500	413.816	80.002	19.991	104.085	19.391	54.687	0.494
672.000	414.075	80.003	19.992	104.094	19.384	55.202	0.473
672.500	414.317	80.003	19.993	104.107	19.376	55.795	0.489
673.000	414.556	80.003	19.992	104.121	19.370	56.244	0.491
673.500	414.813	80.003	19.992	104.132	19.360	57.021	0.489
674.000	415.057	80.003	19.992	104.139	19.356	57.277	0.499
674.500	415.293	80.003	19.993	104.144	19.342	58.345	0.491
675.000	415.536	80.003	19.993	104.147	19.334	58.935	0.479
675.500	415.798	80.004	19.993	104.147	19.328	59.443	0.492
676.000	416.062	80.005	19.993	104.147	19.317	60.229	0.516
676.501	416.290	80.003	19.993	104.149	19.307	61.013	0.509
677.000	416.542	80.003	19.993	104.152	19.297	61.761	0.486
677.500	416.810	80.004	19.992	104.157	19.290	62.301	0.499
678.000	417.047	80.003	19.992	104.163	19.277	63.264	0.512
678.500	417.287	80.004	19.992	104.170	19.265	64.129	0.491
679.000	417.575	80.003	19.992	104.178	19.256	64.835	0.502
679.500	417.821	80.005	19.992	104.183	19.249	65.393	0.531
680.000	418.087	80.004	19.993	104.186	19.235	66.448	0.523
680.500	418.325	80.006	19.993	104.190	19.227	67.039	0.508
681.000	418.554	80.005	19.993	104.190	19.217	67.729	0.486
681.500	418.794	80.005	19.993	104.190	19.209	68.379	0.468
682.001	419.073	80.005	19.992	104.187	19.196	69.334	0.494
682.500	419.276	80.005	19.993	104.185	19.189	69.873	0.501
683.000	419.518	80.006	19.993	104.184	19.177	70.749	0.463
683.500	419.754	80.005	19.992	104.184	19.163	71.815	0.461
684.000	420.008	80.005	19.993	104.186	19.155	72.423	0.484
684.500	420.274	80.003	19.993	104.195	19.140	73.589	0.506
685.000	420.522	80.006	19.993	104.203	19.122	74.901	0.517
685.500	420.776	80.004	19.994	104.211	19.106	76.115	0.508
686.000	421.032	80.004	19.994	104.218	19.091	77.291	0.506
686.500	421.282	80.004	19.993	104.223	19.075	78.469	0.507
687.000	421.543	80.004	19.993	104.234	19.062	79.431	0.508
687.500	421.785	80.004	19.993	104.246	19.045	80.760	0.507
688.000	422.054	80.004	19.993	104.252	19.031	81.764	0.507
688.500	422.321	80.005	19.993	104.260	19.020	82.627	0.524
689.000	422.528	80.003	19.992	104.268	19.005	83.791	0.505
689.500	422.825	80.004	19.995	104.270	18.994	84.618	0.489
690.000	423.053	80.003	19.994	104.268	18.980	85.715	0.515
690.500	423.283	80.004	19.994	104.270	18.968	86.634	0.492
691.000	423.529	80.004	19.993	104.267	18.955	87.743	0.468
691.500	423.798	80.005	19.994	104.266	18.939	88.960	0.495
692.000	424.012	80.004	19.995	104.263	18.928	89.832	0.499
692.500	424.286	80.006	19.993	104.258	18.912	91.029	0.486
693.000	424.535	80.004	19.993	104.259	18.900	91.847	0.505
693.500	424.766	80.006	19.994	104.263	18.888	92.704	0.501
694.000	425.005	80.005	19.994	104.269	18.874	93.734	0.475
694.500	425.246	80.004	19.995	104.278	18.860	94.735	0.475
695.000	425.524	80.005	19.994	104.293	18.851	95.378	0.500
695.500	425.750	80.003	19.994	104.311	18.842	95.983	0.512
696.000	425.997	80.005	19.993	104.332	18.830	96.824	0.488
696.500	426.311	80.004	19.993	104.350	18.819	97.554	0.516
697.000	426.530	80.006	19.994	104.364	18.807	98.413	0.547
697.500	426.739	80.004	19.994	104.372	18.793	99.458	0.481
698.000	426.974	80.004	19.993	104.377	18.776	100.764	0.437
698.500	427.221	80.004	19.993	104.378	18.743	103.204	0.463
699.000	427.457	80.004	19.993	104.380	18.704	106.230	0.482
699.500	427.740	80.005	19.993	104.388	18.658	109.769	0.501
700.000	427.961	80.004	19.992	104.400	18.601	114.119	0.511
700.500	428.251	80.005	19.993	104.420	18.539	118.859	0.507
701.000	428.520	80.004	19.993	104.460	18.478	123.518	0.535
701.500	428.785	80.004	19.993	104.549	18.426	127.554	0.547
702.000	428.995	80.004	19.994	104.632	18.382	130.877	0.504
702.500	429.277	80.005	19.993	104.681	18.341	133.964	0.483
703.000	429.514	80.005	19.993	104.708	18.308	136.451	0.506
703.500	429.770	80.006	19.993	104.715	18.276	138.853	0.506
704.000	430.046	80.007	19.993	104.671	18.250	140.815	0.512
704.500	430.277	80.005	19.993	104.614	18.231	142.160	0.520
705.000	430.533	80.004	19.994	104.567	18.215	143.378	0.497
705.500	430.762	80.006	19.993	104.513	18.200	144.440	0.486
706.000	431.052	80.005	19.993	104.442	18.190	145.170	0.502
706.500	431.263	80.006	19.993	104.364	18.183	145.688	0.510
707.000	431.561	80.005	19.993	104.298	18.176	146.252	0.505
707.500	431.777	80.006	19.993	104.247	18.168	146.823	0.511
708.000	432.034	80.005	19.993	104.208	18.161	147.385	0.493
708.500	432.315	80.006	19.993	104.186	18.154	147.912	0.506
709.000	432.593	80.006	19.993	104.189	18.146	148.467	0.548
709.501	432.818	80.007	19.993	104.213	18.138	149.120	0.531
710.000	433.056	80.006	19.994	104.265	18.130	149.764	0.483
710.500	433.335	80.005	19.992	104.343	18.116	150.804	0.490
711.000	433.601	80.006	19.993	104.435	18.106	151.591	0.531
711.500	433.848	80.005	19.992	104.522	18.102	151.897	0.529
712.000	434.106	80.006	19.993	104.602	18.092	152.658	0.509
712.500	434.364	80.005	19.994	104.662	18.084	153.218	0.511
713.000	434.649	80.005	19.992	104.699	18.078	153.681	0.529
713.501	434.909	80.005	19.994	104.714	18.069	154.397	0.544
714.001	435.169	80.005	19.993	104.714	18.065	154.685	0.533
714.500	435.396	80.004	19.994	104.698	18.059	155.104	0.503
715.000	435.682	80.005	19.993	104.676	18.049	155.877	0.500
715.500	435.926	80.005	19.994	104.653	18.044	156.237	0.522
716.000	436.185	80.003	19.995	104.636	18.038	156.699	0.516
716.500	436.443	80.003	19.994	104.616	18.034	156.983	0.510
717.000	436.687	80.003	19.994	104.600	18.029	157.384	0.510
717.500	436.945	80.002	19.994	104.587	18.018	158.232	0.503
718.000	437.197	80.003	19.995	104.579	18.015	158.442	0.506
718.500	437.442	80.003	19.995	104.577	18.009	158.890	0.503
719.000	437.682	80.001	19.995	104.576	17.998	159.696	0.491
719.500	437.948	80.003	19.995	104.577	17.989	160.443	0.495
720.000	438.204	80.002	19.993	104.584	17.985	160.705	0.514
720.500	438.466	80.003	19.994	104.594	17.977	161.331	0.520
721.000	438.748	80.001	19.994	104.608	17.964	162.300	0.531
721.500	438.991	80.003	19.995	104.624	17.960	162.642	0.535
722.000	439.249	80.003	19.995	104.638	17.948	163.492	0.513
722.500	439.490	80.003	19.994	104.646	17.942	163.931	0.500
723.000	439.743	80.002	19.993	104.652	17.932	164.701	0.496
723.501	440.004	80.003	19.993	104.653	17.928	165.018	0.504
724.000	440.274	80.003	19.994	104.653	17.916	165.919	0.523
724.500	440.508	80.003	19.993	104.654	17.910	166.362	0.517
725.000	440.768	80.003	19.995	104.654	17.900	167.113	0.499
725.500	441.000	80.003	19.993	104.654	17.893	167.696	0.493
726.000	441.255	80.003	19.994	104.653	17.888	168.066	0.490
726.500	441.562	80.003	19.994	104.654	17.876	168.987	0.524
727.000	441.787	80.003	19.994	104.654	17.870	169.432	0.547
727.500	442.017	80.003	19.993	104.654	17.863	169.919	0.493
728.000	442.301	80.004	19.992	104.654	17.856	170.465	0.484
728.500	442.567	80.003	19.993	104.655	17.852	170.753	0.532
729.000	442.817	80.004	19.994	104.655	17.845	171.271	0.533
729.500	443.067	80.004	19.994	104.655	17.839	171.705	0.508
730.000	443.330	80.004	19.992	104.655	17.830	172.340	0.507
730.500	443.589	80.004	19.993	104.657	17.825	172.790	0.517
731.000	443.847	80.003	19.992	104.664	17.821	173.079	0.519
731.501	444.120	80.004	19.993	104.670	17.815	173.514	0.524
732.000	444.381	80.002	19.991	104.672	17.811	173.790	0.532
732.500	444.601	80.004	19.992	104.673	17.808	174.051	0.508
733.000	444.899	80.004	19.993	104.673	17.800	174.644	0.500
733.500	445.156	80.004	19.991	104.667	17.795	174.990	0.537
734.000	445.397	80.004	19.993	104.667	17.794	175.080	0.527
734.500	445.666	80.002	19.992	104.667	17.793	175.172	0.504
735.000	445.905	80.003	19.992	104.673	17.785	175.755	0.509
735.500	446.172	80.003	19.993	104.677	17.782	175.980	0.507
736.000	446.426	80.003	19.992	104.683	17.783	175.896	0.514
736.500	446.680	80.003	19.993	104.684	17.781	176.062	0.515
737.000	446.908	80.002	19.992	104.687	17.778	176.257	0.495
737.500	447.161	80.003	19.993	104.686	17.781	176.046	0.482
738.000	447.415	80.003	19.992	104.686	17.777	176.319	0.494
738.500	447.714	80.002	19.993	104.683	17.782	175.899	0.529
739.000	447.936	80.002	19.991	104.677	17.784	175.717	0.537
739.500	448.198	80.003	19.993	104.672	17.784	175.760	0.503
740.000	448.453	80.003	19.993	104.666	17.787	175.475	0.501
740.500	448.712	80.003	19.992	104.661	17.791	175.189	0.515
741.000	448.959	80.003	19.993	104.659	17.796	174.812	0.510
741.501	449.211	80.002	19.993	104.665	17.801	174.416	0.503
742.000	449.515	80.004	19.992	104.666	17.805	174.088	0.527
742.500	449.757	80.004	19.992	104.667	17.813	173.460	0.551
743.000	449.987	80.003	19.992	104.666	17.819	172.971	0.509
743.500	450.271	80.003	19.993	104.663	17.827	172.421	0.493
744.000	450.515	80.004	19.993	104.655	17.833	171.971	0.521
744.500	450.764	80.003	19.993	104.654	17.843	171.147	0.510
745.000	451.020	80.003	19.993	104.651	17.851	170.546	0.499
745.500	451.311	80.002	19.993	104.648	17.861	169.754	0.526
746.000	451.554	80.002	19.993	104.646	17.873	168.889	0.541
746.500	451.848	80.002	19.993	104.647	17.884	168.033	0.536
747.000	452.065	80.004	19.992	104.645	17.897	166.997	0.524
747.500	452.298	80.002	19.993	104.642	17.913	165.843	0.480
748.000	452.551	80.002	19.994	104.637	17.925	164.897	0.468
748.500	452.831	80.002	19.992	104.631	17.938	163.926	0.509
749.000	453.047	80.001	19.993	104.623	17.952	162.882	0.514
749.500	453.335	80.002	19.995	104.615	17.968	161.680	0.500
750.000	453.549	80.003	19.994	104.611	17.984	160.422	0.503
750.500	453.804	80.003	19.995	104.608	18.003	158.954	0.486
751.000	454.113	80.002	19.994	104.599	18.019	157.768	0.516
751.500	454.340	80.003	19.995	104.590	18.037	156.416	0.550
752.000	454.594	80.003	19.994	104.580	18.050	155.423	0.508
752.500	454.877	80.004	19.993	104.566	18.071	153.797	0.509
753.000	455.102	80.002	19.994	104.553	18.094	152.122	0.522
753.500	455.368	80.002	19.992	104.545	18.110	150.863	0.500
754.000	455.618	80.003	19.993	104.538	18.127	149.551	0.503
754.500	455.875	80.003	19.993	104.536	18.148	148.023	0.511
755.000	456.124	80.004	19.993	104.531	18.169	146.356	0.506
755.501	456.383	80.004	19.992	104.523	18.190	144.787	0.507
756.000	456.598	80.003	19.993	104.514	18.208	143.429	0.491
756.500	456.876	80.003	19.993	104.502	18.234	141.465	0.484
757.000	457.155	80.004	19.993	104.490	18.257	139.740	0.525
757.500	457.377	80.003	19.994	104.481	18.280	138.088	0.529
758.000	457.592	80.005	19.994	104.474	18.301	136.527	0.469
758.500	457.883	80.004	19.994	104.466	18.322	134.928	0.472
759.000	458.145	80.005	19.994	104.463	18.348	133.079	0.530
759.500	458.376	80.003	19.993	104.458	18.368	131.564	0.523
760.000	458.640	80.003	19.994	104.452	18.394	129.577	0.494
760.500	458.905	80.005	19.993	104.444	18.420	127.652	0.512
761.000	459.170	80.004	19.994	104.432	18.444	125.782	0.529
761.500	459.405	80.006	19.993	104.419	18.471	123.660	0.515
762.000	459.656	80.005	19.993	104.403	18.496	121.763	0.494
762.500	459.898	80.005	19.994	104.392	18.526	119.530	0.489
763.001	460.165	80.005	19.992	104.384	18.554	117.411	0.501
763.501	460.425	80.005	19.993	104.381	18.582	115.310	0.518
764.000	460.667	80.005	19.993	104.372	18.613	112.958	0.514
764.500	460.898	80.005	19.993	104.363	18.647	110.421	0.488
765.000	461.136	80.006	19.994	104.350	18.673	108.409	0.471
765.500	461.404	80.005	19.993	104.335	18.705	106.053	0.487
766.000	461.643	80.005	19.992	104.320	18.734	103.850	0.507
766.500	461.912	80.006	19.992	104.311	18.770	101.126	0.508
767.000	462.163	80.005	19.992	104.304	18.798	99.063	0.514
767.500	462.394	80.005	19.992	104.301	18.829	96.736	0.500
768.000	462.623	80.005	19.992	104.302	18.857	94.585	0.471
768.500	462.872	80.004	19.993	104.310	18.890	92.148	0.469
769.000	463.146	80.006	19.992	104.323	18.918	90.026	0.501
769.500	463.348	80.005	19.994	104.346	18.946	87.920	0.500
770.001	463.678	80.005	19.992	104.384	18.974	85.843	0.504
770.500	463.892	80.006	19.993	104.400	18.997	84.074	0.537
771.000	464.155	80.005	19.993	104.392	19.030	81.650	0.510
771.500	464.404	80.004	19.992	104.367	19.054	79.838	0.495
772.000	464.668	80.006	19.992	104.329	19.078	78.063	0.513
772.500	464.878	80.005	19.992	104.276	19.102	76.197	0.493
773.000	465.138	80.004	19.993	104.243	19.129	74.197	0.472
773.500	465.388	80.005	19.994	104.227	19.153	72.436	0.490
774.000	465.640	80.004	19.992	104.220	19.176	70.707	0.506
774.500	465.858	80.005	19.992	104.211	19.201	68.823	0.486
775.000	466.130	80.005	19.993	104.200	19.225	67.026	0.480
775.500	466.391	80.004	19.993	104.187	19.247	65.356	0.512
776.000	466.651	80.006	19.993	104.175	19.264	64.110	0.527
776.500	466.857	80.004	19.993	104.162	19.286	62.456	0.494
777.000	467.105	80.006	19.993	104.154	19.310	60.670	0.460
777.500	467.375	80.005	19.993	104.148	19.328	59.298	0.486
778.000	467.638	80.005	19.993	104.143	19.346	57.941	0.525
778.500	467.851	80.005	19.994	104.137	19.367	56.403	0.505
779.000	468.105	80.004	19.993	104.129	19.385	55.021	0.472
779.500	468.356	80.004	19.995	104.121	19.402	53.772	0.487
780.000	468.598	80.004	19.994	104.110	19.421	52.307	0.499
780.500	468.835	80.004	19.994	104.100	19.439	51.023	0.486
781.000	469.114	80.004	19.993	104.091	19.450	50.156	0.498
781.500	469.351	80.005	19.994	104.083	19.471	48.592	0.516
782.000	469.573	80.006	19.992	104.075	19.484	47.637	0.488
782.500	469.838	80.005	19.993	104.071	19.499	46.512	0.473
783.000	470.142	80.004	19.993	104.068	19.514	45.365	0.528
783.500	470.367	80.004	19.994	104.065	19.529	44.277	0.549
784.000	470.603	80.005	19.993	104.061	19.542	43.301	0.494
784.500	470.839	80.005	19.993	104.053	19.555	42.279	0.466
785.000	471.124	80.007	19.994	104.046	19.570	41.172	0.497
785.500	471.375	80.006	19.993	104.041	19.582	40.293	0.529
786.000	471.579	80.006	19.992	104.033	19.594	39.382	0.495
786.500	471.852	80.007	19.993	104.029	19.608	38.332	0.466
787.000	472.094	80.007	19.993	104.026	19.619	37.474	0.496
787.500	472.344	80.005	19.993	104.025	19.631	36.622	0.503
788.000	472.566	80.006	19.993	104.017	19.637	36.109	0.482
788.500	472.835	80.004	19.994	104.011	19.648	35.297	0.482
789.000	473.133	80.007	19.994	104.003	19.659	34.525	0.529
789.500	473.359	80.006	19.992	103.999	19.670	33.687	0.545
790.000	473.611	80.007	19.994	103.993	19.680	32.945	0.501
790.500	473.857	80.007	19.994	103.991	19.689	32.280	0.488
791.000	474.110	80.006	19.993	103.990	19.693	31.981	0.498
791.500	474.370	80.006	19.994	103.991	19.710	30.743	0.506
792.000	474.623	80.006	19.993	103.990	19.721	29.913	0.513
792.500	474.883	80.006	19.994	103.990	19.726	29.480	0.513
793.000	475.074	80.007	19.993	103.989	19.732	29.096	0.482
793.500	475.397	80.005	19.991	103.988	19.742	28.317	0.483
794.000	475.635	80.007	19.994	103.986	19.748	27.870	0.538
794.500	475.855	80.005	19.993	103.983	19.759	27.075	0.510
795.000	476.063	80.006	19.995	103.983	19.763	26.773	0.443
795.500	476.374	80.006	19.993	103.982	19.776	25.796	0.473
796.000	476.595	80.006	19.993	103.981	19.780	25.500	0.526
796.500	476.841	80.005	19.992	103.974	19.786	25.011	0.500
797.000	477.090	80.003	19.993	103.952	19.794	24.444	0.481
797.500	477.319	80.004	19.994	103.923	19.797	24.213	0.486
798.000	477.588	80.003	19.994	103.902	19.800	23.953	0.488
798.500	477.834	80.004	19.992	103.883	19.808	23.347	0.507
799.000	478.081	80.003	19.993	103.876	19.815	22.828	0.504
799.500	478.321	80.003	19.993	103.887	19.817	22.697	0.490
800.000	478.592	80.003	19.995	103.901	19.827	21.999	0.499
800.500	478.824	80.004	19.993	103.912	19.833	21.499	0.507
801.000	479.080	80.003	19.993	103.921	19.839	21.097	0.496
801.500	479.300	80.003	19.993	103.928	19.843	20.764	0.483
802.000	479.547	80.003	19.994	103.933	19.851	20.202	0.471
802.500	479.763	80.004	19.993	103.935	19.855	19.859	0.465
803.000	480.047	80.003	19.993	103.938	19.855	19.883	0.481
803.500	480.292	80.003	19.993	103.939	19.860	19.528	0.514
804.000	480.565	80.003	19.992	103.938	19.862	19.366	0.523
804.500	480.796	80.003	19.993	103.941	19.873	18.552	0.511
805.000	481.052	80.003	19.994	103.946	19.876	18.330	0.496
805.500	481.267	80.002	19.992	103.945	19.880	18.036	0.479
806.000	481.559	80.003	19.994	103.943	19.882	17.850	0.488
806.500	481.799	80.003	19.993	103.940	19.891	17.190	0.520
807.000	482.041	80.003	19.993	103.933	19.894	16.953	0.507
807.500	482.272	80.004	19.993	103.926	19.900	16.540	0.478
808.000	482.495	80.003	19.994	103.921	19.903	16.272	0.463
808.500	482.727	80.004	19.993	103.919	19.905	16.157	0.455
809.000	483.018	80.001	19.992	103.916	19.908	15.936	0.489
809.500	483.260	80.003	19.995	103.915	19.915	15.373	0.528
810.000	483.504	80.004	19.995	103.916	19.918	15.144	0.510
810.500	483.776	80.004	19.994	103.914	19.918	15.156	0.501
811.000	484.010	80.005	19.995	103.913	19.920	14.991	0.511
811.500	484.259	80.003	19.995	103.913	19.926	14.593	0.494
812.000	484.471	80.003	19.993	103.912	19.928	14.397	0.472
812.500	484.759	80.002	19.994	103.911	19.927	14.450	0.481
813.000	484.980	80.003	19.995	103.908	19.933	14.020	0.504
813.501	485.229	80.003	19.993	103.905	19.937	13.766	0.489
814.000	485.441	80.002	19.995	103.903	19.939	13.577	0.465
814.500	485.730	80.004	19.993	103.902	19.943	13.287	0.481
815.000	485.943	80.003	19.994	103.900	19.943	13.306	0.501
815.500	486.197	80.004	19.994	103.903	19.943	13.306	0.485
816.000	486.465	80.003	19.995	103.904	19.952	12.641	0.495
816.500	486.727	80.003	19.993	103.904	19.952	12.606	0.527
817.000	486.962	80.004	19.995	103.900	19.955	12.422	0.513
817.500	487.222	80.003	19.994	103.897	19.957	12.226	0.496
818.000	487.462	80.004	19.993	103.892	19.959	12.090	0.497
818.500	487.714	80.004	19.994	103.887	19.958	12.190	0.496
819.000	487.962	80.004	19.993	103.882	19.962	11.890	0.496
819.500	488.209	80.004	19.993	103.880	19.962	11.853	0.498
820.000	488.455	80.005	19.993	103.879	19.965	11.631	0.494
820.500	488.752	80.004	19.994	103.876	19.967	11.473	0.518
821.000	488.999	80.003	19.994	103.874	19.969	11.320	0.544
821.500	489.227	80.003	19.995	103.874	19.972	11.119	0.510
822.000	489.510	80.005	19.992	103.874	19.969	11.318	0.493
822.500	489.772	80.005	19.993	103.872	19.972	11.133	0.528
823.000	490.036	80.004	19.994	103.873	19.977	10.751	0.535
823.500	490.300	80.004	19.993	103.871	19.979	10.637	0.527
824.000	490.535	80.005	19.994	103.870	19.977	10.722	0.514
824.500	490.797	80.005	19.993	103.870	19.983	10.332	0.498
825.000	491.038	80.005	19.994	103.870	19.984	10.259	0.500
825.500	491.277	80.005	19.993	103.870	19.985	10.167	0.491
826.000	491.552	80.004	19.993	103.871	19.986	10.103	0.498
826.500	491.762	80.004	19.994	103.871	19.987	9.988	0.500
827.000	492.019	80.003	19.993	103.872	19.989	9.833	0.476
827.500	492.309	80.004	19.993	103.872	19.992	9.606	0.507
828.000	492.550	80.002	19.992	103.872	19.991	9.718	0.539
828.500	492.825	80.004	19.994	103.872	19.994	9.483	0.524
829.000	493.047	80.003	19.993	103.872	19.996	9.316	0.506
829.500	493.328	80.004	19.992	103.871	19.995	9.383	0.500
830.000	493.582	80.004	19.993	103.871	19.997	9.250	0.519
830.500	493.872	80.004	19.992	103.871	20.000	8.996	0.540
831.000	494.108	80.003	19.993	103.870	20.001	8.934	0.535
831.500	494.367	80.001	19.993	103.871	20.004	8.767	0.510
832.000	494.663	80.002	19.993	103.870	20.002	8.855	0.525
832.500	494.923	80.004	19.992	103.871	20.006	8.616	0.556
833.000	495.139	80.002	19.993	103.871	20.002	8.847	0.516
833.500	495.389	80.004	19.993	103.869	20.007	8.510	0.471
834.000	495.655	80.004	19.993	103.868	20.005	8.633	0.491
834.500	495.918	80.003	19.993	103.868	20.008	8.447	0.522
835.000	496.188	80.003	19.993	103.866	20.007	8.490	0.531
835.500	496.460	80.004	19.993	103.864	20.011	8.235	0.538
836.000	496.661	80.004	19.993	103.863	20.010	8.323	0.508
836.500	496.963	80.004	19.993	103.858	20.010	8.266	0.488
837.000	497.223	80.005	19.993	103.852	20.011	8.196	0.532
837.500	497.504	80.004	19.992	103.849	20.016	7.864	0.551
838.000	497.734	80.004	19.994	103.843	20.016	7.811	0.526
838.500	498.042	80.005	19.993	103.838	20.016	7.864	0.525
839.000	498.294	80.005	19.992	103.836	20.015	7.933	0.549
839.500	498.525	80.004	19.992	103.835	20.018	7.662	0.522
840.000	498.778	80.004	19.991	103.833	20.016	7.845	0.483
840.500	499.051	80.005	19.995	103.832	20.017	7.788	0.505
841.000	499.330	80.007	19.994	103.833	20.019	7.652	0.539
841.500	499.629	80.004	19.993	103.834	20.022	7.401	0.565
842.000	499.830	80.005	19.993	103.833	20.019	7.633	0.538
842.501	500.112	80.006	19.992	103.834	20.022	7.405	0.491
843.000	500.390	80.005	19.993	103.835	20.022	7.415	0.522
843.500	500.616	80.007	19.993	103.835	20.025	7.162	0.533
844.000	500.901	80.006	19.993	103.833	20.025	7.189	0.508
844.500	501.147	80.006	19.993	103.835	20.019	7.599	0.521
845.000	501.424	80.005	19.994	103.836	20.038	6.210	0.527
845.500	501.676	80.005	19.993	103.837	20.039	6.124	0.526
846.000	501.947	80.004	19.991	103.837	20.026	7.069	0.526
846.500	502.204	80.006	19.993	103.838	20.035	6.412	0.525
847.000	502.439	80.004	19.992	103.838	20.029	6.861	0.510
847.500	502.713	80.005	19.993	103.838	20.028	6.918	0.501
848.000	503.013	80.006	19.993	103.836	20.031	6.716	0.542
848.500	503.280	80.004	19.993	103.836	20.029	6.891	0.571
849.000	503.528	80.005	19.992	103.835	20.028	6.973	0.541
849.500	503.794	80.005	19.993	103.832	20.026	7.079	0.514
850.000	504.060	80.004	19.993	103.832	20.033	6.563	0.523
850.500	504.290	80.005	19.993	103.832	20.028	6.924	0.514
851.000	504.580	80.004	19.992	103.832	20.030	6.763	0.508
851.500	504.855	80.003	19.992	103.832	20.033	6.593	0.543
852.000	505.125	80.005	19.992	103.832	20.030	6.787	0.555
852.500	505.384	80.004	19.993	103.833	20.034	6.506	0.537
853.000	505.656	80.005	19.992	103.832	20.031	6.708	0.530
853.500	505.915	80.005	19.993	103.833	20.029	6.842	0.531
854.000	506.165	80.004	19.993	103.833	20.028	6.958	0.520
854.500	506.418	80.005	19.993	103.834	20.027	6.981	0.506
855.000	506.730	80.004	19.993	103.834	20.030	6.822	0.534
855.500	506.948	80.005	19.992	103.834	20.031	6.687	0.547
856.000	507.212	80.004	19.993	103.834	20.031	6.740	0.505
856.500	507.513	80.006	19.993	103.834	20.035	6.430	0.524
857.000	507.716	80.004	19.992	103.835	20.032	6.651	0.535
857.500	508.025	80.005	19.993	103.835	20.033	6.606	0.508
858.000	508.279	80.003	19.992	103.835	20.031	6.700	0.537
858.500	508.515	80.005	19.991	103.836	20.034	6.528	0.526
859.000	508.785	80.005	19.993	103.836	20.030	6.806	0.498
859.500	509.054	80.004	19.993	103.836	20.035	6.390	0.522
860.000	509.329	80.005	19.991	103.837	20.033	6.600	0.542
860.500	509.591	80.005	19.992	103.837	20.036	6.341	0.541
861.000	509.879	80.005	19.993	103.837	20.034	6.528	0.544
861.500	510.153	80.005	19.994	103.837	20.034	6.512	0.556
862.000	510.415	80.005	19.993	103.837	20.036	6.357	0.549
862.500	510.661	80.006	19.993	103.836	20.037	6.247	0.523
863.000	510.926	80.003	19.992	103.836	20.036	6.318	0.510
863.500	511.215	80.004	19.992	103.835	20.036	6.367	0.532
864.000	511.456	80.005	19.992	103.835	20.034	6.481	0.542
864.500	511.732	80.004	19.991	103.835	20.039	6.106	0.524
865.000	511.993	80.005	19.992	103.835	20.038	6.163	0.527
865.500	512.214	80.004	19.991	103.835	20.038	6.194	0.510
866.000	512.510	80.006	19.993	103.835	20.035	6.449	0.499
866.500	512.792	80.005	19.993	103.835	20.035	6.457	0.547
867.000	513.019	80.004	19.991	103.836	20.036	6.318	0.543
867.500	513.290	80.005	19.992	103.837	20.038	6.220	0.504
868.000	513.526	80.005	19.992	103.837	20.037	6.257	0.503
868.500	513.851	80.004	19.992	103.836	20.037	6.240	0.534
869.000	514.087	80.005	19.991	103.838	20.034	6.497	0.561
869.500	514.352	80.005	19.993	103.841	20.035	6.416	0.531
870.000	514.645	80.005	19.994	103.845	20.036	6.367	0.530
870.500	514.929	80.005	19.992	103.847	20.038	6.224	0.568
871.000	515.182	80.004	19.992	103.847	20.038	6.175	0.557
871.500	515.443	80.006	19.993	103.845	20.034	6.513	0.525
872.000	515.698	80.007	19.993	103.841	20.039	6.122	0.515
872.500	515.952	80.005	19.993	103.838	20.037	6.303	0.512
873.000	516.231	80.006	19.992	103.836	20.038	6.173	0.521
873.500	516.515	80.005	19.992	103.836	20.040	6.038	0.548
874.000	516.791	80.005	19.993	103.837	20.039	6.103	0.561
874.500	517.077	80.005	19.994	103.837	20.037	6.241	0.561
875.000	517.278	80.003	19.993	103.836	20.035	6.396	0.525
875.500	517.584	80.004	19.994	103.835	20.038	6.186	0.497
876.000	517.862	80.005	19.994	103.835	20.040	6.035	0.546
876.500	518.096	80.003	19.994	103.834	20.040	6.014	0.548
877.000	518.380	80.005	19.993	103.834	20.042	5.922	0.515
877.500	518.642	80.004	19.993	103.833	20.040	6.052	0.532
878.000	518.904	80.003	19.994	103.832	20.036	6.348	0.535
878.500	519.163	80.004	19.993	103.831	20.039	6.154	0.523
879.000	519.431	80.002	19.993	103.831	20.038	6.191	0.524
879.500	519.706	80.003	19.992	103.831	20.040	6.034	0.535
880.000	519.954	80.004	19.993	103.832	20.040	6.081	0.534
880.500	520.237	80.004	19.994	103.832	20.038	6.214	0.527
881.000	520.457	80.003	19.994	103.830	20.040	6.063	0.516
881.500	520.750	80.004	19.995	103.829	20.038	6.189	0.508
882.000	521.045	80.002	19.992	103.829	20.038	6.193	0.551
882.500	521.274	80.003	19.995	103.828	20.038	6.220	0.556
883.000	521.525	80.003	19.994	103.829	20.037	6.257	0.502
883.500	521.802	80.003	19.993	103.830	20.038	6.169	0.504
884.000	522.107	80.002	19.993	103.826	20.035	6.418	0.555
884.500	522.316	80.002	19.993	103.822	20.039	6.133	0.548
885.000	522.579	80.004	19.992	103.821	20.041	5.943	0.493
885.500	522.844	80.003	19.994	103.814	20.038	6.167	0.500
886.000	523.104	80.003	19.994	103.810	20.039	6.122	0.526
886.500	523.390	80.002	19.994	103.807	20.039	6.122	0.535
887.000	523.652	80.004	19.993	103.803	20.039	6.130	0.547
887.500	523.884	80.004	19.994	103.793	20.038	6.197	0.521
888.000	524.168	80.004	19.992	103.791	20.038	6.218	0.505
888.500	524.448	80.003	19.993	103.789	20.037	6.242	0.540
889.000	524.716	80.003	19.994	103.788	20.040	6.073	0.556
889.500	524.964	80.003	19.993	103.789	20.038	6.172	0.532
890.000	525.235	80.003	19.993	103.792	20.035	6.423	0.518
890.500	525.493	80.003	19.993	103.797	20.039	6.084	0.524
891.000	525.775	80.002	19.993	103.797	20.036	6.374	0.534
891.500	526.039	80.003	19.993	103.797	20.040	6.037	0.543
892.000	526.260	80.004	19.994	103.797	20.038	6.158	0.516
892.500	526.518	80.004	19.993	103.797	20.037	6.268	0.482
893.000	526.773	80.003	19.993	103.797	20.037	6.231	0.496
893.500	527.053	80.003	19.994	103.799	20.037	6.251	0.524
894.000	527.325	80.003	19.993	103.799	20.039	6.089	0.544
894.500	527.574	80.003	19.992	103.800	20.036	6.326	0.537
895.000	527.824	80.002	19.992	103.806	20.038	6.201	0.510
895.500	528.077	80.004	19.993	103.803	20.042	5.887	0.501
896.000	528.329	80.001	19.993	103.801	20.037	6.246	0.504
896.500	528.589	80.003	19.993	103.801	20.037	6.238	0.509
897.000	528.850	80.002	19.993	103.800	20.037	6.246	0.517
897.500	529.151	80.003	19.994	103.794	20.039	6.110	0.541
898.001	529.423	80.001	19.994	103.792	20.040	6.025	0.567
898.500	529.638	80.003	19.994	103.792	20.039	6.139	0.530
899.000	529.887	80.002	19.993	103.793	20.039	6.103	0.476
899.500	530.156	80.003	19.993	103.792	20.034	6.464	0.491
900.000	530.403	80.002	19.993	103.790	20.040	6.055	0.517
900.500	530.670	80.002	19.994	103.785	20.037	6.301	0.515
901.000	530.952	80.001	19.994	103.783	20.036	6.342	0.531
901.500	531.204	80.001	19.994	103.782	20.039	6.085	0.541
902.000	531.462	80.002	19.993	103.778	20.034	6.491	0.522
902.500	531.739	80.003	19.993	103.780	20.032	6.626	0.522
903.000	531.955	80.002	19.994	103.782	20.035	6.438	0.514
903.500	532.223	80.002	19.993	103.781	20.035	6.384	0.489
904.000	532.491	80.003	19.995	103.774	20.036	6.365	0.510
904.500	532.748	80.002	19.993	103.769	20.036	6.355	0.530
905.000	532.984	80.003	19.993	103.761	20.034	6.526	0.509
905.500	533.254	80.002	19.993	103.757	20.033	6.597	0.500
906.000	533.552	80.001	19.994	103.753	20.034	6.516	0.537
906.500	533.767	80.002	19.993	103.751	20.031	6.716	0.541
907.000	534.050	80.002	19.995	103.752	20.034	6.505	0.506
907.500	534.327	80.001	19.994	103.752	20.033	6.565	0.529
908.000	534.586	80.003	19.994	103.756	20.035	6.438	0.547
908.500	534.828	80.002	19.995	103.763	20.034	6.459	0.518
909.000	535.116	80.003	19.994	103.770	20.033	6.555	0.516
909.500	535.399	80.002	19.994	103.778	20.035	6.394	0.550
910.000	535.652	80.003	19.993	103.787	20.037	6.260	0.553
910.500	535.871	80.002	19.994	103.792	20.036	6.344	0.504
911.000	536.141	80.002	19.995	103.792	20.034	6.489	0.481
911.500	536.435	80.003	19.995	103.793	20.038	6.221	0.527
912.000	536.676	80.003	19.994	103.793	20.032	6.609	0.549
912.500	536.955	80.000	19.995	103.797	20.038	6.185	0.527
913.000	537.192	80.001	19.995	103.799	20.041	5.958	0.518
913.501	537.458	80.002	19.994	103.803	20.040	6.054	0.509
914.000	537.713	80.000	19.994	103.804	20.038	6.178	0.512
914.500	537.992	80.002	19.994	103.806	20.037	6.292	0.527
915.000	538.206	80.004	19.994	103.804	20.036	6.312	0.514
915.500	538.476	80.001	19.994	103.804	20.037	6.279	0.489
916.000	538.732	80.002	19.995	103.803	20.038	6.210	0.505
916.500	539.017	80.000	19.994	103.803	20.035	6.414	0.533
917.000	539.251	80.002	19.993	103.802	20.038	6.184	0.530
917.500	539.532	80.003	19.993	103.801	20.036	6.310	0.517
918.000	539.811	80.003	19.994	103.799	20.036	6.325	0.538
918.500	540.069	80.003	19.992	103.801	20.034	6.531	0.549
919.000	540.335	80.002	19.992	103.801	20.038	6.165	0.530
919.500	540.576	80.002	19.993	103.804	20.038	6.230	0.515
920.000	540.830	80.003	19.995	103.810	20.039	6.132	0.501
920.500	541.125	80.004	19.995	103.814	20.037	6.256	0.522
921.000	541.343	80.002	19.992	103.818	20.039	6.146	0.531
921.500	541.629	80.003	19.994	103.824	20.039	6.127	0.509
922.000	541.818	80.003	19.993	103.823	20.042	5.927	0.489
922.500	542.150	80.003	19.995	103.823	20.037	6.245	0.498
923.000	542.395	80.004	19.995	103.823	20.040	6.037	0.549
923.500	542.654	80.003	19.994	103.820	20.040	6.028	0.540
924.000	542.928	80.003	19.993	103.814	20.041	5.983	0.519
924.500	543.189	80.005	19.993	103.812	20.042	5.920	0.534
925.000	543.431	80.002	19.994	103.809	20.043	5.846	0.519
925.500	543.681	80.004	19.992	103.806	20.042	5.869	0.498
926.000	543.963	80.005	19.993	103.805	20.037	6.264	0.512
926.500	544.185	80.005	19.993	103.805	20.040	6.076	0.518
927.000	544.489	80.005	19.992	103.804	20.038	6.170	0.515
927.500	544.726	80.004	19.993	103.804	20.037	6.244	0.534
928.000	544.961	80.005	19.993	103.807	20.044	5.742	0.507
928.500	545.226	80.004	19.992	103.809	20.039	6.123	0.486
929.000	545.477	80.003	19.992	103.816	20.039	6.125	0.508
929.501	545.711	80.004	19.995	103.822	20.042	5.921	0.501
930.000	546.011	80.004	19.994	103.827	20.038	6.227	0.509
930.500	546.251	80.005	19.993	103.830	20.037	6.274	0.536
931.000	546.545	80.005	19.994	103.831	20.040	6.062	0.537
931.500	546.759	80.003	19.993	103.826	20.038	6.225	0.521
932.000	547.043	80.005	19.994	103.819	20.038	6.206	0.503
932.500	547.289	80.003	19.993	103.814	20.036	6.339	0.514
933.000	547.543	80.004	19.993	103.808	20.040	6.031	0.515
933.500	547.788	80.003	19.993	103.807	20.040	6.015	0.499
934.000	548.064	80.004	19.993	103.811	20.040	6.035	0.510
934.500	548.366	80.004	19.993	103.819	20.036	6.323	0.550
935.000	548.572	80.004	19.994	103.822	20.040	6.060	0.543
935.500	548.863	80.004	19.994	103.821	20.042	5.888	0.503
936.000	549.151	80.003	19.994	103.822	20.037	6.247	0.538
936.500	549.368	80.003	19.993	103.819	20.040	6.023	0.542
937.000	549.672	80.003	19.993	103.815	20.038	6.182	0.513
937.500	549.898	80.003	19.993	103.815	20.039	6.092	0.525
938.000	550.156	80.003	19.993	103.822	20.037	6.279	0.507
938.500	550.413	80.001	19.992	103.823	20.040	6.022	0.500
939.000	550.698	80.002	19.993	103.819	20.035	6.389	0.529
939.500	550.974	80.004	19.994	103.817	20.040	6.059	0.551
940.000	551.210	80.003	19.992	103.813	20.033	6.562	0.536
940.500	551.452	80.003	19.993	103.806	20.041	5.996	0.495
941.000	551.729	80.004	19.993	103.805	20.039	6.116	0.498
941.500	551.971	80.002	19.992	103.808	20.038	6.177	0.519
942.000	552.240	80.003	19.993	103.809	20.039	6.126	0.515
942.500	552.454	80.005	19.993	103.807	20.038	6.192	0.497
943.000	552.727	80.004	19.993	103.809	20.038	6.159	0.485
943.500	552.969	80.005	19.994	103.805	20.038	6.188	0.501
944.000	553.235	80.004	19.991	103.807	20.043	5.808	0.512
944.500	553.454	80.004	19.992	103.810	20.038	6.177	0.497
945.000	553.729	80.004	19.992	103.815	20.040	6.020	0.489
945.500	554.004	80.004	19.993	103.813	20.042	5.926	0.522
946.000	554.246	80.004	19.992	103.814	20.037	6.234	0.533
946.500	554.512	80.004	19.993	103.809	20.039	6.151	0.513
947.000	554.804	80.006	19.992	103.806	20.044	5.771	0.533
947.500	555.066	80.005	19.992	103.803	20.044	5.745	0.556
948.000	555.282	80.005	19.993	103.803	20.042	5.894	0.516
948.500	555.524	80.006	19.993	103.800	20.041	6.004	0.468
949.000	555.819	80.005	19.993	103.799	20.042	5.903	0.497
949.500	556.068	80.006	19.993	103.798	20.043	5.823	0.541
950.000	556.341	80.006	19.993	103.795	20.042	5.923	0.533
950.500	556.601	80.005	19.992	103.795	20.041	5.998	0.527
951.000	556.837	80.008	19.992	103.795	20.040	6.059	0.514
951.500	557.112	80.005	19.992	103.796	20.041	5.938	0.504
952.000	557.346	80.006	19.992	103.798	20.041	5.969	0.510
952.500	557.569	80.006	19.993	103.798	20.039	6.085	0.483
953.000	557.862	80.006	19.993	103.799	20.040	6.067	0.486
953.500	558.097	80.006	19.993	103.801	20.039	6.130	0.522
954.000	558.364	80.006	19.993	103.803	20.036	6.320	0.516
954.500	558.578	80.005	19.993	103.802	20.036	6.366	0.491
955.000	558.867	80.005	19.992	103.802	20.039	6.101	0.492
955.500	559.143	80.006	19.993	103.801	20.041	5.987	0.534
956.000	559.371	80.006	19.993	103.799	20.037	6.285	0.534
956.500	559.642	80.005	19.992	103.795	20.041	5.955	0.502
957.000	559.870	80.006	19.993	103.795	20.040	6.079	0.499
957.500	560.107	80.006	19.993	103.797	20.040	6.040	0.482
958.000	560.400	80.004	19.993	103.796	20.042	5.920	0.498
958.500	560.623	80.004	19.993	103.799	20.042	5.906	0.523
959.000	560.903	80.004	19.993	103.804	20.038	6.230	0.509
959.500	561.150	80.005	19.994	103.806	20.038	6.183	0.515
960.000	561.409	80.005	19.994	103.809	20.040	6.014	0.516
960.500	561.643	80.004	19.992	103.811	20.041	5.955	0.499
961.000	561.959	80.005	19.993	103.807	20.041	5.964	0.522
961.500	562.232	80.003	19.993	103.802	20.042	5.868	0.570
962.000	562.451	80.004	19.993	103.800	20.041	5.990	0.541
962.500	562.681	80.003	19.992	103.795	20.039	6.135	0.470
963.000	562.949	80.004	19.992	103.792	20.040	6.018	0.473
963.500	563.227	80.005	19.993	103.793	20.039	6.118	0.522
964.000	563.458	80.004	19.993	103.793	20.039	6.140	0.527
964.500	563.724	80.003	19.992	103.792	20.037	6.248	0.503
965.000	563.952	80.003	19.994	103.792	20.041	5.943	0.496
965.500	564.215	80.003	19.993	103.793	20.040	6.059	0.493
966.000	564.436	80.004	19.994	103.794	20.037	6.291	0.488
966.500	564.675	80.003	19.994	103.795	20.038	6.163	0.472
967.000	564.929	80.001	19.993	103.795	20.039	6.147	0.476
967.500	565.190	80.003	19.993	103.796	20.036	6.340	0.504
968.000	565.434	80.002	19.995	103.795	20.039	6.097	0.511
968.500	565.687	80.004	19.993	103.795	20.041	5.957	0.501
969.000	565.914	80.002	19.993	103.795	20.041	5.943	0.488
969.500	566.163	80.004	19.993	103.799	20.044	5.768	0.478
970.000	566.427	80.004	19.994	103.800	20.039	6.157	0.494
970.500	566.692	80.002	19.993	103.801	20.042	5.925	0.521
971.000	566.956	80.003	19.994	103.803	20.039	6.090	0.529
971.500	567.190	80.004	19.992	103.806	20.041	5.968	0.514
972.000	567.471	80.004	19.993	103.808	20.044	5.747	0.507
972.500	567.717	80.005	19.993	103.810	20.042	5.900	0.521
973.000	567.949	80.004	19.994	103.808	20.039	6.144	0.503
973.500	568.223	80.004	19.993	103.807	20.042	5.859	0.492
974.000	568.426	80.002	19.992	103.804	20.041	5.988	0.491
974.500	568.725	80.002	19.993	103.797	20.039	6.116	0.490
975.000	568.989	80.003	19.993	103.794	20.041	5.996	0.533
975.500	569.198	80.003	19.993	103.794	20.041	5.996	0.518
976.000	569.469	80.004	19.994	103.797	20.038	6.167	0.476
976.500	569.726	80.002	19.993	103.799	20.040	6.051	0.503
977.000	570.020	80.004	19.994	103.799	20.043	5.808	0.539
977.500	570.240	80.005	19.994	103.799	20.040	6.071	0.533
978.000	570.507	80.003	19.994	103.800	20.046	5.624	0.501
978.500	570.764	80.003	19.993	103.797	20.039	6.083	0.506
979.000	571.017	80.004	19.993	103.795	20.040	6.018	0.517
979.500	571.264	80.003	19.993	103.795	20.041	5.934	0.505
980.000	571.467	80.004	19.993	103.796	20.040	6.020	0.475
980.500	571.772	80.005	19.994	103.800	20.043	5.810	0.479
981.000	572.001	80.003	19.994	103.803	20.042	5.877	0.521
981.500	572.267	80.003	19.993	103.804	20.040	6.077	0.514
982.000	572.525	80.005	19.993	103.804	20.043	5.855	0.509
982.500	572.799	80.004	19.993	103.804	20.042	5.906	0.527
983.000	573.065	80.003	19.992	103.799	20.040	6.030	0.536
983.500	573.283	80.003	19.993	103.797	20.040	6.018	0.512
984.000	573.543	80.001	19.991	103.797	20.040	6.059	0.481
984.500	573.825	80.004	19.993	103.798	20.041	5.953	0.510
985.000	574.105	80.003	19.993	103.798	20.040	6.024	0.552
985.500	574.330	80.003	19.994	103.798	20.040	6.022	0.534
986.000	574.653	80.003	19.994	103.798	20.039	6.144	0.526
986.500	574.917	80.004	19.993	103.798	20.045	5.661	0.567
987.000	575.142	80.003	19.992	103.798	20.040	6.014	0.538
987.500	575.408	80.003	19.993	103.796	20.041	5.990	0.490
988.000	575.692	80.003	19.992	103.796	20.043	5.824	0.521
988.500	575.965	80.004	19.992	103.795	20.037	6.246	0.554
989.000	576.186	80.002	19.992	103.794	20.043	5.853	0.526
989.500	576.417	80.003	19.994	103.794	20.038	6.214	0.473
990.000	576.690	80.003	19.994	103.794	20.039	6.124	0.478
990.501	576.958	80.003	19.994	103.795	20.039	6.110	0.523
991.000	577.244	80.003	19.994	103.796	20.039	6.142	0.548
991.500	577.445	80.004	19.995	103.795	20.042	5.861	0.520
992.000	577.720	80.002	19.994	103.797	20.037	6.301	0.481
992.500	577.971	80.002	19.994	103.799	20.040	6.077	0.501
993.000	578.238	80.003	19.994	103.799	20.036	6.371	0.522
993.500	578.491	80.003	19.993	103.799	20.040	6.024	0.519
994.000	578.739	80.003	19.993	103.799	20.037	6.283	0.511
994.500	579.002	80.002	19.993	103.798	20.042	5.906	0.506
995.000	579.256	80.002	19.994	103.798	20.046	5.610	0.514
995.500	579.516	80.002	19.994	103.797	20.042	5.881	0.515
996.000	579.772	80.001	19.994	103.797	20.044	5.777	0.515
996.500	579.974	80.002	19.992	103.797	20.043	5.786	0.487
997.000	580.288	80.002	19.994	103.796	20.044	5.724	0.487
997.500	580.540	80.002	19.994	103.796	20.044	5.735	0.541
998.000	580.765	80.002	19.994	103.796	20.042	5.877	0.522
998.501	581.042	80.001	19.994	103.796	20.041	6.000	0.490
999.000	581.312	80.001	19.993	103.796	20.041	5.983	0.524
999.500	581.566	80.001	19.994	103.797	20.044	5.761	0.536
1000.000	581.837	80.002	19.994	103.798	20.044	5.745	0.524
1000.500	582.078	80.003	19.993	103.798	20.042	5.883	0.518
1001.000	582.316	80.001	19.993	103.798	20.042	5.867	0.496
1001.500	582.597	80.002	19.993	103.798	20.036	6.334	0.499
1002.000	582.848	80.002	19.995	103.797	20.046	5.590	0.526
1002.500	583.091	80.003	19.995	103.796	20.044	5.741	0.513
1003.000	583.332	80.003	19.993	103.796	20.042	5.932	0.488
1003.500	583.613	80.003	19.994	103.796	20.041	5.977	0.503
1004.000	583.885	80.005	19.994	103.796	20.044	5.724	0.538
1004.500	584.118	80.003	19.994	103.796	20.040	6.014	0.529
1005.000	584.360	80.003	19.993	103.796	20.039	6.083	0.490
1005.500	584.606	80.004	19.995	103.795	20.042	5.881	0.481
1006.000	584.877	80.005	19.995	103.796	20.039	6.136	0.503
1006.500	585.163	80.004	19.994	103.797	20.044	5.743	0.537
1007.000	585.389	80.006	19.995	103.796	20.040	6.044	0.534
1007.500	585.672	80.006	19.995	103.797	20.044	5.775	0.510
1008.000	585.945	80.007	19.995	103.796	20.044	5.716	0.533
1008.500	586.186	80.005	19.994	103.796	20.042	5.932	0.535
1009.000	586.477	80.004	19.994	103.795	20.042	5.922	0.523
1009.500	586.729	80.007	19.993	103.795	20.041	5.953	0.537
1010.000	586.988	80.005	19.994	103.794	20.042	5.881	0.526
1010.500	587.234	80.005	19.994	103.793	20.043	5.822	0.508
1011.000	587.499	80.005	19.995	103.793	20.043	5.832	0.509
1011.500	587.745	80.005	19.993	103.793	20.043	5.851	0.511
1012.000	587.970	80.005	19.993	103.793	20.046	5.572	0.491
1012.500	588.236	80.005	19.993	103.793	20.041	5.981	0.481
1013.000	588.552	80.007	19.992	103.793	20.042	5.881	0.536
1013.500	588.793	80.005	19.994	103.792	20.042	5.873	0.570
1014.000	589.049	80.004	19.993	103.792	20.041	5.934	0.527
1014.500	589.295	80.005	19.993	103.793	20.047	5.547	0.500
1015.000	589.561	80.004	19.994	103.794	20.044	5.767	0.507
1015.500	589.813	80.003	19.993	103.794	20.046	5.610	0.514
1016.000	590.112	80.004	19.994	103.795	20.041	5.963	0.534
1016.500	590.330	80.003	19.993	103.795	20.044	5.765	0.534
1017.000	590.618	80.005	19.995	103.794	20.046	5.626	0.512
1017.500	590.877	80.004	19.995	103.794	20.047	5.559	0.527
1018.000	591.100	80.003	19.993	103.794	20.045	5.659	0.515
1018.500	591.355	80.004	19.992	103.794	20.044	5.710	0.480
1019.000	591.645	80.006	19.993	103.793	20.041	5.983	0.511
1019.500	591.852	80.004	19.994	103.793	20.042	5.881	0.521
1020.000	592.128	80.003	19.993	103.793	20.047	5.529	0.490
1020.500	592.398	80.005	19.994	103.793	20.043	5.808	0.514
1021.000	592.656	80.003	19.993	103.793	20.043	5.798	0.537
1021.500	592.946	80.004	19.993	103.793	20.046	5.594	0.538
1022.000	593.186	80.005	19.994	103.794	20.046	5.596	0.540
1022.500	593.459	80.005	19.994	103.795	20.045	5.694	0.522
1023.000	593.734	80.005	19.994	103.795	20.040	6.018	0.530
1023.500	593.996	80.004	19.993	103.795	20.044	5.730	0.543
1024.000	594.232	80.004	19.993	103.796	20.046	5.588	0.517
1024.500	594.510	80.004	19.994	103.798	20.044	5.753	0.505
1025.000	594.740	80.004	19.993	103.797	20.046	5.630	0.511
1025.500	595.017	80.005	19.993	103.796	20.044	5.751	0.508
1026.000	595.315	80.006	19.995	103.796	20.045	5.657	0.541
1026.500	595.575	80.006	19.994	103.794	20.047	5.545	0.567
1027.001	595.828	80.006	19.992	103.792	20.049	5.386	0.535
1027.501	596.048	80.006	19.994	103.792	20.048	5.457	0.493
1028.000	596.331	80.005	19.994	103.793	20.045	5.657	0.488
1028.500	596.580	80.005	19.993	103.793	20.053	5.094	0.517
1029.000	596.873	80.007	19.993	103.793	20.047	5.510	0.537
1029.500	597.104	80.006	19.993	103.794	20.046	5.582	0.533
1030.000	597.365	80.005	19.994	103.793	20.043	5.806	0.508
1030.500	597.635	80.006	19.993	103.792	20.042	5.885	0.512
1031.000	597.860	80.005	19.993	103.792	20.044	5.749	0.513
1031.500	598.147	80.006	19.993	103.792	20.046	5.584	0.503
1032.000	598.459	80.007	19.993	103.791	20.041	5.991	0.556
1032.500	598.666	80.006	19.994	103.791	20.040	6.036	0.559
1033.000	598.944	80.007	19.993	103.791	20.044	5.755	0.502
1033.500	599.169	80.006	19.993	103.791	20.043	5.794	0.494
1034.001	599.429	80.005	19.993	103.791	20.046	5.586	0.494
1034.501	599.719	80.005	19.993	103.791	20.045	5.694	0.518
1035.000	599.916	80.006	19.993	103.791	20.041	5.971	0.519
1035.500	600.264	80.007	19.994	103.791	20.041	5.977	0.516
1036.000	600.467	80.005	19.993	103.791	20.044	5.742	0.548
1036.500	600.727	80.004	19.992	103.790	20.043	5.789	0.506
1037.000	600.973	80.007	19.993	103.790	20.043	5.843	0.484
1037.501	601.226	80.004	19.995	103.790	20.047	5.559	0.503
1038.001	601.447	80.007	19.994	103.788	20.047	5.533	0.487
1038.501	601.723	80.005	19.993	103.787	20.043	5.804	0.485
1039.000	601.996	80.005	19.993	103.789	20.043	5.855	0.523
1039.500	602.243	80.004	19.993	103.789	20.044	5.716	0.535
1040.000	602.441	80.004	19.992	103.791	20.047	5.496	0.483
1040.500	602.727	80.002	19.994	103.792	20.043	5.812	0.464
1041.000	602.978	80.002	19.994	103.793	20.044	5.755	0.510
1041.501	603.251	80.003	19.993	103.793	20.050	5.325	0.531
1042.001	603.494	80.003	19.993	103.793	20.043	5.806	0.521
1042.500	603.751	80.002	19.992	103.792	20.050	5.304	0.508
1043.001	604.013	80.002	19.992	103.795	20.041	6.005	0.509
1043.501	604.256	80.004	19.994	103.796	20.047	5.514	0.512
1044.000	604.518	80.002	19.992	103.797	20.047	5.536	0.506
1044.501	604.740	80.004	19.993	103.797	20.044	5.746	0.495
1045.001	605.008	80.004	19.993	103.796	20.042	5.917	0.487
1045.500	605.277	80.002	19.992	103.789	20.049	5.385	0.513
1046.000	605.519	80.003	19.991	103.788	20.043	5.785	0.524
1046.500	605.762	80.004	19.994	103.788	20.044	5.746	0.498
1047.000	606.010	80.002	19.992	103.787	20.047	5.553	0.488
1047.500	606.267	80.003	19.992	103.788	20.047	5.547	0.498
1048.000	606.510	80.002	19.992	103.793	20.044	5.746	0.503
1048.500	606.773	80.005	19.994	103.794	20.045	5.638	0.503
1049.000	607.014	80.002	19.992	103.793	20.045	5.655	0.505
1049.501	607.234	80.003	19.993	103.794	20.050	5.282	0.482
1050.001	607.488	80.004	19.994	103.794	20.050	5.270	0.468
1050.500	607.741	80.003	19.994	103.794	20.047	5.494	0.491
1051.000	607.983	80.001	19.994	103.795	20.046	5.627	0.501
1051.500	608.253	80.003	19.994	103.795	20.050	5.268	0.504
1052.001	608.518	80.003	19.993	103.795	20.052	5.119	0.523
1052.501	608.793	80.004	19.993	103.794	20.049	5.379	0.538
1053.000	609.038	80.005	19.992	103.793	20.046	5.565	0.530
1053.500	609.266	80.004	19.993	103.792	20.051	5.243	0.496
1054.000	609.512	80.004	19.993	103.789	20.045	5.691	0.473
1054.500	609.792	80.003	19.992	103.787	20.044	5.722	0.500
1055.000	610.019	80.003	19.992	103.782	20.047	5.502	0.516
1055.500	610.279	80.004	19.993	103.780	20.046	5.573	0.497
1056.000	610.498	80.002	19.993	103.779	20.046	5.631	0.483
1056.500	610.784	80.003	19.994	103.783	20.047	5.500	0.492
1057.000	610.993	80.003	19.992	103.784	20.045	5.647	0.500
1057.501	611.267	80.002	19.993	103.787	20.048	5.445	0.489
1058.001	611.543	80.003	19.993	103.783	20.050	5.333	0.517
1058.500	611.796	80.003	19.993	103.785	20.047	5.502	0.539
1059.000	612.006	80.003	19.992	103.783	20.046	5.596	0.496
1059.500	612.315	80.002	19.993	103.783	20.047	5.555	0.491
1060.000	612.530	80.002	19.993	103.786	20.050	5.331	0.522
1060.500	612.757	80.003	19.993	103.792	20.047	5.518	0.483
1061.000	613.029	80.004	19.992	103.791	20.052	5.174	0.471
1061.500	613.300	80.004	19.994	103.794	20.048	5.419	0.521
1062.000	613.536	80.002	19.993	103.794	20.054	4.990	0.525
1062.500	613.794	80.003	19.993	103.791	20.049	5.386	0.500
1063.000	614.035	80.003	19.994	103.787	20.049	5.390	0.496
1063.500	614.293	80.003	19.993	103.784	20.053	5.107	0.499
1064.000	614.546	80.002	19.994	103.783	20.047	5.547	0.505
1064.500	614.771	80.002	19.994	103.783	20.049	5.351	0.494
1065.000	615.057	80.003	19.993	103.785	20.056	4.842	0.494
1065.500	615.297	80.002	19.993	103.787	20.052	5.127	0.519
1066.000	615.538	80.003	19.993	103.791	20.054	5.027	0.504
1066.500	615.777	80.002	19.992	103.792	20.049	5.400	0.480
1067.000	616.033	80.003	19.994	103.792	20.050	5.317	0.488
1067.501	616.278	80.002	19.993	103.794	20.051	5.211	0.498
1068.001	616.529	80.004	19.994	103.795	20.052	5.113	0.498
1068.500	616.802	80.004	19.993	103.795	20.050	5.298	0.510
1069.000	617.036	80.005	19.994	103.795	20.054	5.005	0.515
1069.500	617.285	80.002	19.992	103.794	20.052	5.145	0.495
1070.000	617.527	80.004	19.993	103.794	20.054	4.964	0.488
1070.501	617.782	80.003	19.993	103.794	20.049	5.408	0.494
1071.001	618.032	80.002	19.993	103.794	20.056	4.878	0.501
1071.500	618.277	80.004	19.994	103.794	20.050	5.282	0.500
1072.000	618.516	80.003	19.994	103.794	20.055	4.954	0.489
1072.500	618.775	80.003	19.994	103.794	20.052	5.184	0.491
1073.000	619.036	80.003	19.993	103.793	20.053	5.088	0.510
1073.500	619.304	80.004	19.995	103.793	20.054	5.009	0.524
1074.000	619.532	80.002	19.993	103.793	20.052	5.137	0.512
1074.500	619.769	80.002	19.994	103.793	20.053	5.106	0.480
1075.000	620.043	80.003	19.994	103.793	20.054	4.982	0.488
1075.501	620.253	80.003	19.993	103.793	20.058	4.674	0.498
1076.001	620.518	80.003	19.993	103.793	20.054	5.021	0.480
1076.500	620.773	80.002	19.994	103.793	20.054	5.006	0.497
1077.000	621.012	80.002	19.994	103.792	20.056	4.819	0.507
1077.500	621.267	80.002	19.995	103.792	20.051	5.235	0.494
1078.000	621.526	80.003	19.992	103.793	20.054	5.029	0.504
1078.500	621.757	80.003	19.993	103.793	20.054	5.013	0.501
1079.000	622.004	80.003	19.994	103.793	20.055	4.951	0.484
1079.500	622.287	80.002	19.994	103.793	20.057	4.772	0.505
1080.000	622.520	80.003	19.993	103.793	20.057	4.780	0.523
1080.501	622.755	80.003	19.994	103.793	20.059	4.637	0.492
1081.001	623.000	80.002	19.994	103.793	20.059	4.648	0.474
1081.500	623.285	80.003	19.995	103.792	20.061	4.480	0.505
1082.000	623.529	80.003	19.995	103.791	20.055	4.898	0.530
1082.500	623.793	80.002	19.993	103.790	20.053	5.047	0.519
1083.001	624.019	80.003	19.993	103.791	20.058	4.705	0.499
1083.501	624.293	80.002	19.993	103.791	20.058	4.721	0.495
1084.000	624.532	80.003	19.995	103.790	20.059	4.621	0.506
1084.500	624.770	80.004	19.993	103.790	20.058	4.670	0.495
1085.000	625.034	80.002	19.993	103.791	20.054	4.980	0.490
1085.500	625.207	80.005	19.992	103.790	20.057	4.751	0.470
1086.000	625.520	80.004	19.994	103.790	20.062	4.423	0.461
1086.500	625.757	80.005	19.994	103.787	20.056	4.819	0.518
1087.001	626.004	80.005	19.993	103.787	20.058	4.717	0.517
1087.501	626.254	80.004	19.994	103.786	20.059	4.593	0.490
1088.000	626.506	80.004	19.993	103.785	20.061	4.487	0.499
1088.500	626.743	80.003	19.993	103.784	20.058	4.689	0.496
1089.000	627.003	80.003	19.993	103.787	20.057	4.803	0.493
1089.500	627.289	80.003	19.993	103.788	20.057	4.754	0.521
1090.000	627.514	80.004	19.994	103.789	20.058	4.729	0.528
1090.500	627.784	80.003	19.994	103.788	20.056	4.886	0.503
1091.000	628.038	80.004	19.994	103.788	20.059	4.590	0.510
1091.500	628.308	80.006	19.993	103.786	20.058	4.714	0.524
1092.000	628.515	80.004	19.994	103.786	20.061	4.443	0.501
1092.500	628.775	80.002	19.994	103.785	20.060	4.543	0.472
1093.000	629.035	80.004	19.994	103.787	20.062	4.386	0.494
1093.500	629.289	80.003	19.994	103.787	20.059	4.641	0.517
1094.000	629.538	80.004	19.994	103.785	20.058	4.711	0.508
1094.500	629.790	80.003	19.994	103.783	20.062	4.409	0.502
1095.000	630.054	80.004	19.995	103.781	20.056	4.855	0.508
1095.500	630.319	80.002	19.995	103.780	20.058	4.705	0.522
1096.000	630.544	80.005	19.994	103.780	20.059	4.619	0.509
1096.500	630.820	80.004	19.994	103.782	20.056	4.886	0.495
1097.000	631.058	80.004	19.993	103.782	20.057	4.804	0.507
1097.500	631.277	80.003	19.993	103.783	20.060	4.574	0.486
1098.000	631.604	80.003	19.994	103.784	20.057	4.788	0.502
1098.501	631.844	80.004	19.994	103.784	20.060	4.551	0.557
1099.001	632.083	80.005	19.994	103.786	20.060	4.521	0.523
1099.501	632.325	80.001	19.994	103.789	20.056	4.859	0.480
1100.000	632.604	80.002	19.993	103.788	20.055	4.941	0.501
1100.500	632.839	80.004	19.993	103.786	20.058	4.676	0.517
1101.001	633.086	80.002	19.995	103.784	20.060	4.543	0.498
1101.501	633.349	80.003	19.993	103.781	20.059	4.625	0.496
1102.001	633.599	80.003	19.994	103.780	20.063	4.337	0.511
1102.501	633.840	80.004	19.995	103.777	20.062	4.409	0.502
1103.001	634.093	80.003	19.993	103.778	20.059	4.629	0.492
1103.501	634.327	80.004	19.992	103.777	20.067	4.042	0.490
1104.001	634.592	80.005	19.994	103.778	20.060	4.554	0.493
1104.500	634.884	80.004	19.993	103.779	20.056	4.839	0.528
1105.000	635.130	80.004	19.992	103.782	20.063	4.335	0.548
1105.500	635.381	80.005	19.993	103.782	20.061	4.496	0.518
1106.000	635.657	80.004	19.992	103.783	20.062	4.439	0.512
1106.500	635.894	80.006	19.994	103.785	20.062	4.427	0.520
1107.000	636.183	80.005	19.993	103.783	20.060	4.554	0.520
1107.500	636.408	80.005	19.993	103.780	20.064	4.258	0.520
1108.000	636.671	80.004	19.993	103.780	20.064	4.238	0.501
1108.500	636.942	80.004	19.993	103.778	20.064	4.236	0.511
1109.000	637.126	80.003	19.992	103.775	20.063	4.344	0.495
1109.500	637.414	80.004	19.994	103.777	20.061	4.466	0.463
1110.000	637.663	80.006	19.995	103.781	20.063	4.321	0.504
1110.500	637.920	80.004	19.994	103.783	20.062	4.415	0.522
1111.000	638.152	80.004	19.994	103.784	20.062	4.439	0.498
1111.500	638.415	80.005	19.993	103.782	20.065	4.207	0.492
1112.000	638.639	80.006	19.994	103.780	20.064	4.246	0.491
1112.500	638.918	80.005	19.994	103.778	20.065	4.176	0.495
1113.000	639.195	80.004	19.993	103.779	20.067	4.028	0.530
1113.500	639.445	80.004	19.994	103.782	20.066	4.115	0.541
1114.000	639.699	80.006	19.993	103.785	20.066	4.133	0.515
1114.500	639.959	80.006	19.993	103.785	20.064	4.239	0.509
1115.000	640.220	80.005	19.994	103.784	20.062	4.378	0.518
1115.500	640.481	80.007	19.995	103.780	20.066	4.111	0.522
1116.001	640.743	80.005	19.994	103.777	20.066	4.137	0.522
1116.501	641.028	80.005	19.992	103.775	20.066	4.117	0.535
1117.000	641.243	80.006	19.993	103.777	20.064	4.239	0.523
1117.500	641.502	80.004	19.992	103.779	20.064	4.288	0.487
1118.000	641.718	80.005	19.992	103.781	20.066	4.131	0.475
1118.500	642.029	80.004	19.993	103.785	20.069	3.887	0.501
1119.000	642.251	80.002	19.992	103.787	20.065	4.182	0.530
1119.500	642.540	80.004	19.993	103.785	20.064	4.272	0.522
1120.000	642.786	80.004	19.994	103.781	20.061	4.453	0.523
1120.500	643.027	80.003	19.993	103.782	20.066	4.084	0.511
1121.000	643.287	80.003	19.993	103.775	20.066	4.068	0.494
1121.500	643.559	80.002	19.994	103.771	20.066	4.078	0.516
1122.000	643.802	80.001	19.993	103.773	20.067	4.009	0.523
1122.500	644.080	80.003	19.993	103.776	20.069	3.903	0.518
1123.000	644.313	80.003	19.992	103.775	20.067	3.998	0.516
1123.500	644.557	80.003	19.994	103.779	20.065	4.163	0.494
1124.000	644.811	80.003	19.993	103.782	20.070	3.842	0.487
1124.500	645.076	80.002	19.994	103.778	20.068	3.970	0.508
1125.000	645.315	80.002	19.992	103.772	20.066	4.078	0.511
1125.500	645.562	80.003	19.993	103.772	20.070	3.834	0.495
1126.000	645.809	80.002	19.993	103.772	20.071	3.695	0.490
1126.500	646.091	80.001	19.993	103.769	20.070	3.829	0.511
1127.000	646.354	80.002	19.992	103.769	20.069	3.850	0.537
1127.500	646.637	80.002	19.993	103.772	20.067	3.995	0.545
1128.000	646.873	80.001	19.992	103.768	20.068	3.972	0.532
1128.500	647.117	80.001	19.992	103.765	20.068	3.952	0.499
1129.000	647.372	80.002	19.993	103.765	20.070	3.809	0.490
1129.500	647.641	80.003	19.993	103.765	20.069	3.864	0.512
1130.000	647.870	80.002	19.992	103.763	20.071	3.711	0.511
1130.501	648.138	80.001	19.993	103.764	20.071	3.758	0.498
1131.001	648.401	80.003	19.992	103.763	20.070	3.835	0.514
1131.501	648.648	80.004	19.993	103.763	20.070	3.776	0.520
1132.001	648.887	80.003	19.991	103.760	20.074	3.524	0.498
1132.500	649.157	80.003	19.994	103.760	20.070	3.811	0.498
1133.000	649.385	80.003	19.992	103.759	20.069	3.868	0.503
1133.500	649.680	80.004	19.995	103.758	20.072	3.654	0.510
1134.000	649.933	80.003	19.993	103.758	20.072	3.621	0.536
1134.501	650.177	80.004	19.993	103.758	20.068	3.976	0.523
1135.001	650.416	80.004	19.993	103.760	20.068	3.931	0.490
1135.500	650.676	80.004	19.993	103.766	20.069	3.850	0.491
1136.000	650.928	80.004	19.994	103.766	20.068	3.950	0.506
1136.501	651.219	80.004	19.993	103.767	20.064	4.274	0.528
1137.001	651.449	80.003	19.992	103.766	20.068	3.970	0.532
1137.500	651.736	80.005	19.992	103.765	20.070	3.803	0.519
1138.000	651.955	80.002	19.993	103.761	20.073	3.591	0.511
1138.500	652.252	80.004	19.992	103.765	20.068	3.980	0.511
1139.000	652.494	80.003	19.993	103.768	20.070	3.801	0.528
1139.501	652.728	80.004	19.992	103.770	20.066	4.086	0.508
1140.001	653.005	80.004	19.991	103.769	20.066	4.090	0.493
1140.501	653.263	80.004	19.994	103.767	20.071	3.697	0.523
1141.001	653.519	80.004	19.995	103.764	20.069	3.899	0.524
1141.501	653.746	80.003	19.993	103.764	20.068	3.919	0.499
1142.000	654.012	80.005	19.994	103.762	20.073	3.580	0.488
1142.500	654.283	80.004	19.992	103.761	20.068	3.957	0.515
1143.000	654.503	80.004	19.993	103.761	20.072	3.660	0.514
1143.501	654.805	80.004	19.992	103.759	20.072	3.635	0.507
1144.001	655.063	80.002	19.992	103.756	20.075	3.448	0.541
1144.500	655.284	80.004	19.993	103.758	20.076	3.385	0.519
1145.000	655.592	80.004	19.993	103.758	20.074	3.524	0.504
1145.500	655.820	80.002	19.992	103.759	20.076	3.391	0.533
1146.000	656.066	80.004	19.993	103.760	20.075	3.438	0.505
1146.500	656.346	80.004	19.994	103.765	20.076	3.358	0.500
1147.001	656.578	80.003	19.994	103.766	20.076	3.371	0.519
1147.501	656.815	80.004	19.991	103.767	20.080	3.038	0.491
1148.001	657.083	80.003	19.993	103.769	20.075	3.405	0.487
1148.500	657.327	80.003	19.994	103.770	20.079	3.120	0.509
1149.000	657.591	80.003	19.993	103.769	20.075	3.414	0.510
1149.501	657.833	80.004	19.993	103.769	20.078	3.177	0.507
1150.001	658.102	80.003	19.994	103.767	20.076	3.393	0.509
1150.500	658.364	80.002	19.994	103.768	20.078	3.240	0.521
1151.000	658.586	80.003	19.994	103.767	20.075	3.460	0.507
1151.500	658.890	80.003	19.994	103.763	20.074	3.481	0.505
1152.000	659.118	80.003	19.994	103.760	20.073	3.607	0.529
1152.500	659.348	80.005	19.993	103.760	20.076	3.379	0.495
1153.000	659.634	80.002	19.993	103.756	20.074	3.475	0.487
1153.500	659.849	80.004	19.993	103.754	20.080	3.080	0.509
1154.000	660.119	80.003	19.994	103.755	20.078	3.232	0.493
1154.501	660.388	80.003	19.993	103.754	20.076	3.391	0.512
1155.001	660.622	80.003	19.993	103.755	20.074	3.487	0.521
1155.500	660.839	80.003	19.994	103.759	20.080	3.096	0.477
1156.000	661.191	80.003	19.994	103.760	20.077	3.306	0.510
1156.500	661.383	80.004	19.995	103.760	20.079	3.102	0.557
1157.000	661.694	80.002	19.994	103.760	20.077	3.265	0.523
1157.500	661.943	80.003	19.994	103.760	20.078	3.228	0.531
1158.000	662.195	80.003	19.993	103.758	20.079	3.153	0.531
1158.500	662.422	80.004	19.995	103.758	20.078	3.218	0.490
1159.000	662.752	80.004	19.995	103.758	20.078	3.241	0.518
1159.500	662.985	80.003	19.994	103.759	20.078	3.202	0.560
1160.000	663.250	80.005	19.994	103.760	20.077	3.310	0.530
1160.500	663.490	80.004	19.994	103.759	20.077	3.308	0.502
1161.000	663.756	80.003	19.994	103.757	20.076	3.385	0.506
1161.501	663.999	80.003	19.994	103.757	20.077	3.304	0.508
1162.001	664.251	80.003	19.994	103.756	20.077	3.246	0.501
1162.500	664.498	80.005	19.993	103.754	20.077	3.287	0.497
1163.000	664.720	80.004	19.994	103.755	20.078	3.214	0.485
1163.500	664.972	80.003	19.993	103.760	20.075	3.438	0.472
1164.000	665.272	80.004	19.992	103.763	20.076	3.381	0.513
1164.500	665.477	80.005	19.993	103.767	20.079	3.132	0.528
1165.000	665.759	80.005	19.992	103.768	20.078	3.193	0.496
1165.500	665.961	80.005	19.994	103.768	20.080	3.026	0.486
1166.000	666.232	80.005	19.993	103.764	20.078	3.222	0.479
1166.500	666.503	80.005	19.993	103.761	20.081	2.949	0.507
1167.000	666.744	80.004	19.993	103.760	20.078	3.202	0.527
1167.500	667.011	80.004	19.993	103.761	20.079	3.134	0.510
1168.000	667.270	80.006	19.995	103.766	20.085	2.706	0.517
1168.500	667.537	80.004	19.994	103.772	20.081	3.004	0.526
1169.000	667.750	80.004	19.992	103.773	20.079	3.151	0.503
1169.500	668.026	80.005	19.995	103.772	20.081	3.008	0.484
1170.001	668.282	80.005	19.994	103.775	20.082	2.912	0.510
1170.501	668.531	80.004	19.995	103.770	20.080	3.059	0.519
1171.001	668.753	80.005	19.995	103.765	20.085	2.719	0.488
1171.500	669.038	80.004	19.994	103.764	20.082	2.900	0.489
1172.001	669.300	80.006	19.994	103.764	20.085	2.692	0.527
1172.501	669.537	80.004	19.993	103.763	20.078	3.181	0.523
1173.000	669.797	80.004	19.993	103.763	20.082	2.941	0.499
1173.500	670.082	80.003	19.995	103.762	20.085	2.715	0.521
1174.000	670.333	80.004	19.993	103.762	20.083	2.831	0.540
1174.500	670.571	80.002	19.993	103.761	20.083	2.855	0.512
1175.000	670.836	80.005	19.993	103.759	20.081	2.979	0.496
1175.501	671.083	80.004	19.994	103.758	20.083	2.855	0.507
1176.001	671.344	80.003	19.993	103.759	20.083	2.841	0.510
1176.500	671.620	80.005	19.993	103.758	20.085	2.706	0.523
1177.000	671.865	80.003	19.994	103.759	20.082	2.937	0.529
1177.500	672.110	80.004	19.994	103.761	20.082	2.930	0.506
1178.000	672.377	80.002	19.993	103.763	20.079	3.114	0.501
1178.500	672.622	80.004	19.994	103.762	20.083	2.849	0.512
1179.000	672.870	80.002	19.994	103.763	20.082	2.888	0.503
1179.500	673.163	80.002	19.994	103.764	20.086	2.619	0.517
1180.000	673.394	80.003	19.994	103.764	20.083	2.818	0.532
1180.500	673.682	80.002	19.994	103.764	20.083	2.829	0.522
1181.000	673.921	80.004	19.994	103.764	20.084	2.796	0.523
1181.501	674.189	80.003	19.993	103.764	20.084	2.737	0.517
1182.001	674.466	80.003	19.994	103.762	20.087	2.568	0.526
1182.500	674.712	80.003	19.994	103.762	20.083	2.869	0.533
1183.000	674.972	80.003	19.993	103.764	20.083	2.820	0.514
1183.500	675.230	80.004	19.994	103.763	20.085	2.716	0.512
1184.000	675.508	80.003	19.994	103.763	20.084	2.796	0.527
1184.500	675.754	80.003	19.993	103.763	20.082	2.882	0.530
1185.000	676.015	80.002	19.993	103.759	20.087	2.568	0.516
1185.500	676.247	80.003	19.994	103.756	20.084	2.778	0.500
1186.000	676.505	80.003	19.994	103.757	20.083	2.818	0.491
1186.500	676.752	80.004	19.994	103.757	20.085	2.721	0.498
1187.000	677.029	80.005	19.994	103.756	20.085	2.661	0.514
1187.500	677.276	80.003	19.993	103.757	20.085	2.721	0.524
1188.000	677.553	80.004	19.994	103.756	20.082	2.875	0.524
1188.500	677.814	80.005	19.994	103.755	20.086	2.635	0.531
1189.000	678.090	80.004	19.993	103.755	20.083	2.808	0.538
1189.500	678.350	80.005	19.993	103.755	20.083	2.822	0.536
1190.000	678.550	80.004	19.994	103.755	20.084	2.759	0.498
1190.500	678.823	80.005	19.993	103.757	20.085	2.696	0.466
1191.001	679.088	80.006	19.994	103.757	20.086	2.637	0.505
1191.501	679.328	80.004	19.993	103.757	20.086	2.612	0.521
1192.001	679.606	80.006	19.994	103.759	20.088	2.451	0.512
1192.500	679.857	80.005	19.993	103.759	20.088	2.429	0.524
1193.000	680.112	80.004	19.993	103.758	20.086	2.608	0.517
1193.500	680.366	80.005	19.992	103.758	20.083	2.800	0.507
1194.000	680.602	80.006	19.993	103.757	20.084	2.727	0.500
1194.500	680.876	80.004	19.993	103.756	20.085	2.676	0.500
1195.001	681.157	80.005	19.992	103.756	20.089	2.403	0.532
1195.501	681.402	80.004	19.992	103.756	20.088	2.425	0.540
1196.000	681.638	80.006	19.995	103.756	20.087	2.574	0.504
1196.501	681.892	80.005	19.993	103.757	20.087	2.511	0.486
1197.001	682.166	80.004	19.992	103.758	20.087	2.519	0.509
1197.500	682.414	80.005	19.993	103.758	20.083	2.806	0.525
1198.000	682.663	80.004	19.993	103.758	20.085	2.653	0.510
1198.501	682.923	80.003	19.993	103.757	20.088	2.466	0.503
1199.001	683.162	80.003	19.994	103.756	20.086	2.610	0.504
1199.501	683.427	80.005	19.993	103.754	20.087	2.506	0.502
1200.001	683.669	80.004	19.994	103.753	20.088	2.484	0.506
1200.500	683.924	80.003	19.993	103.753	20.085	2.665	0.502
1201.000	684.161	80.004	19.993	103.752	20.087	2.543	0.494
1201.501	684.433	80.002	19.992	103.752	20.085	2.674	0.500
1202.001	684.669	80.004	19.993	103.751	20.088	2.482	0.508
1202.501	684.968	80.004	19.992	103.752	20.086	2.590	0.522
1203.001	685.181	80.003	19.993	103.752	20.088	2.494	0.523
1203.500	685.461	80.003	19.993	103.752	20.087	2.543	0.502
1204.000	685.721	80.002	19.992	103.753	20.090	2.337	0.517
1204.500	685.971	80.005	19.993	103.753	20.089	2.417	0.525
1205.000	686.241	80.003	19.993	103.754	20.087	2.535	0.514
1205.500	686.474	80.004	19.992	103.754	20.090	2.303	0.511
1206.000	686.699	80.004	19.993	103.754	20.089	2.372	0.481
1206.500	686.921	80.002	19.994	103.754	20.092	2.199	0.453
1207.000	687.193	80.002	19.993	103.755	20.089	2.388	0.470
1207.500	687.488	80.003	19.992	103.754	20.091	2.242	0.530
1208.000	687.765	80.004	19.992	103.753	20.089	2.398	0.570
1208.500	687.994	80.003	19.994	103.753	20.089	2.358	0.539
1209.001	688.232	80.002	19.993	103.753	20.089	2.362	0.487
1209.501	688.479	80.005	19.993	103.752	20.088	2.439	0.476
1210.000	688.684	80.004	19.992	103.753	20.095	1.966	0.469
1210.500	689.013	80.004	19.994	103.754	20.092	2.134	0.493
1211.000	689.250	80.005	19.994	103.754	20.087	2.551	0.550
1211.500	689.470	80.003	19.993	103.754	20.085	2.670	0.511
1212.000	689.741	80.004	19.993	103.753	20.092	2.154	0.474
1212.500	689.999	80.004	19.994	103.754	20.087	2.511	0.510
1213.001	690.290	80.003	19.993	103.754	20.087	2.525	0.539
1213.501	690.539	80.003	19.993	103.753	20.092	2.189	0.544
1214.000	690.782	80.003	19.992	103.753	20.092	2.132	0.516
1214.500	691.015	80.004	19.993	103.753	20.092	2.189	0.484
1215.000	691.280	80.003	19.992	103.753	20.088	2.460	0.487
1215.500	691.546	80.003	19.993	103.754	20.091	2.203	0.515
1216.000	691.788	80.003	19.993	103.755	20.088	2.441	0.520
1216.500	692.030	80.006	19.993	103.755	20.092	2.185	0.495
1217.000	692.290	80.004	19.994	103.755	20.088	2.486	0.492
1217.500	692.513	80.003	19.994	103.755	20.088	2.439	0.492
1218.000	692.826	80.004	19.993	103.754	20.092	2.195	0.510
1218.500	693.039	80.003	19.993	103.754	20.091	2.221	0.532
1219.000	693.332	80.004	19.994	103.754	20.092	2.197	0.516
1219.500	693.587	80.004	19.992	103.754	20.093	2.058	0.527
1220.000	693.846	80.004	19.994	103.755	20.091	2.211	0.531
1220.500	694.101	80.004	19.993	103.755	20.095	1.956	0.514
1221.000	694.354	80.005	19.994	103.754	20.089	2.376	0.511
1221.500	694.615	80.005	19.994	103.754	20.097	1.759	0.511
1222.000	694.816	80.005	19.992	103.755	20.095	1.942	0.488
1222.500	695.139	80.007	19.993	103.754	20.095	1.950	0.493
1223.000	695.370	80.003	19.993	103.754	20.093	2.111	0.539
1223.500	695.609	80.005	19.992	103.755	20.095	1.907	0.512
1224.000	695.969	80.004	19.992	103.755	20.093	2.089	0.534
1224.500	695.859	80.003	19.993	103.754	20.094	2.046	0.425
1225.000	696.783	80.006	19.993	103.754	20.094	1.979	0.533
1225.501	696.371	80.004	19.993	103.754	20.093	2.068	0.664
1226.001	696.949	80.003	19.992	103.754	20.093	2.087	0.339
1226.500	697.186	80.005	19.994	103.754	20.097	1.795	0.490
1227.000	697.402	80.003	19.994	103.755	20.091	2.240	0.634
1227.500	697.726	80.003	19.993	103.755	20.092	2.150	0.497
1228.000	697.917	80.004	19.992	103.755	20.091	2.211	0.528
1228.500	698.185	80.003	19.992	103.756	20.093	2.107	0.487
1229.000	698.425	80.002	19.991	103.756	20.093	2.077	0.484
1229.501	698.704	80.004	19.993	103.756	20.095	1.938	0.513
1230.001	698.953	80.003	19.995	103.757	20.095	1.944	0.524
1230.500	699.214	80.002	19.994	103.757	20.096	1.901	0.519
1231.000	699.468	80.004	19.993	103.757	20.095	1.934	0.512
1231.500	699.709	80.003	19.993	103.757	20.088	2.447	0.504
1232.000	700.008	80.003	19.993	103.758	20.095	1.942	0.517
1232.500	700.222	80.003	19.994	103.757	20.093	2.117	0.527
1233.000	700.523	80.003	19.992	103.757	20.093	2.089	0.514
1233.500	700.742	80.004	19.993	103.757	20.094	1.985	0.517
1234.000	700.992	80.004	19.992	103.757	20.093	2.066	0.495
1234.500	701.298	80.002	19.992	103.757	20.095	1.912	0.512
1235.000	701.502	80.003	19.993	103.757	20.090	2.307	0.533
1235.500	701.751	80.002	19.993	103.757	20.095	1.952	0.481
1236.000	702.057	80.004	19.993	103.758	20.091	2.268	0.504
1236.500	702.272	80.003	19.993	103.758	20.094	1.987	0.538
1237.000	702.515	80.002	19.993	103.758	20.089	2.352	0.490
1237.500	702.790	80.003	19.993	103.758	20.092	2.195	0.488
1238.000	703.051	80.003	19.993	103.758	20.092	2.146	0.527
1238.500	703.282	80.003	19.993	103.758	20.094	2.048	0.514
1239.000	703.553	80.003	19.992	103.759	20.095	1.926	0.497
1239.500	703.819	80.005	19.992	103.758	20.093	2.083	0.520
1240.000	704.041	80.004	19.993	103.758	20.093	2.060	0.513
1240.500	704.327	80.004	19.994	103.758	20.098	1.746	0.498
1241.000	704.532	80.005	19.993	103.758	20.097	1.828	0.499
1241.500	704.811	80.004	19.993	103.757	20.095	1.971	0.487
1242.000	705.080	80.004	19.993	103.757	20.096	1.877	0.516
1242.500	705.334	80.004	19.994	103.757	20.095	1.952	0.536
1243.000	705.580	80.004	19.994	103.757	20.095	1.930	0.511
1243.500	705.799	80.004	19.992	103.757	20.095	1.922	0.483
1244.000	706.082	80.004	19.993	103.757	20.092	2.191	0.484
1244.501	706.302	80.004	19.993	103.757	20.096	1.850	0.502
1245.001	706.575	80.005	19.993	103.757	20.094	2.048	0.498
1245.501	706.819	80.005	19.993	103.756	20.096	1.863	0.505
1246.001	707.061	80.003	19.993	103.754	20.095	1.956	0.502
1246.500	707.292	80.005	19.993	103.754	20.094	2.001	0.479
1247.000	707.575	80.004	19.993	103.752	20.093	2.095	0.493
1247.500	707.861	80.004	19.993	103.752	20.095	1.956	0.541
1248.000	708.098	80.004	19.993	103.752	20.095	1.971	0.546
1248.501	708.348	80.004	19.993	103.754	20.099	1.626	0.505
1249.001	708.579	80.003	19.994	103.755	20.097	1.775	0.484
1249.500	708.857	80.004	19.993	103.755	20.097	1.801	0.495
1250.000	709.067	80.005	19.994	103.757	20.095	1.926	0.498
1250.500	709.352	80.005	19.995	103.757	20.096	1.881	0.491
1251.000	709.582	80.005	19.993	103.758	20.098	1.744	0.505
1251.500	709.841	80.004	19.993	103.758	20.096	1.850	0.502
1252.000	710.141	80.005	19.993	103.758	20.099	1.616	0.524
1252.501	710.306	80.004	19.993	103.757	20.095	1.952	0.512
1253.001	710.592	80.004	19.993	103.757	20.093	2.066	0.458
1253.500	710.838	80.004	19.993	103.757	20.096	1.891	0.492
1254.000	711.054	80.004	19.993	103.757	20.095	1.948	0.497
1254.500	711.345	80.005	19.994	103.757	20.098	1.697	0.484
1255.000	711.602	80.004	19.994	103.757	20.093	2.091	0.527
1255.500	711.849	80.004	19.994	103.757	20.098	1.746	0.526
1256.001	712.084	80.003	19.993	103.757	20.095	1.944	0.493
1256.501	712.353	80.005	19.993	103.757	20.097	1.797	0.493
1257.000	712.596	80.005	19.994	103.757	20.097	1.759	0.508
1257.500	712.834	80.004	19.994	103.758	20.098	1.724	0.496
1258.000	713.076	80.006	19.993	103.757	20.097	1.759	0.480
1258.500	713.373	80.003	19.991	103.757	20.101	1.518	0.510
1259.000	713.594	80.004	19.995	103.756	20.096	1.899	0.529
1259.500	713.857	80.004	19.993	103.756	20.097	1.805	0.501
1260.000	714.073	80.004	19.993	103.756	20.096	1.878	0.481
1260.500	714.334	80.003	19.994	103.755	20.099	1.656	0.478
1261.000	714.588	80.004	19.993	103.754	20.097	1.783	0.496
1261.500	714.861	80.004	19.992	103.751	20.097	1.822	0.521
1262.000	715.098	80.004	19.994	103.751	20.101	1.502	0.519
1262.500	715.377	80.003	19.993	103.751	20.101	1.490	0.513
1263.000	715.617	80.004	19.993	103.751	20.100	1.565	0.518
1263.500	715.922	80.004	19.993	103.752	20.097	1.814	0.532
1264.000	716.100	80.005	19.993	103.754	20.097	1.783	0.514
1264.500	716.400	80.004	19.994	103.754	20.099	1.661	0.481
1265.000	716.622	80.006	19.993	103.753	20.099	1.642	0.499
1265.501	716.900	80.004	19.992	103.751	20.099	1.675	0.511
1266.001	717.112	80.004	19.992	103.749	20.096	1.881	0.495
1266.500	717.372	80.006	19.993	103.747	20.099	1.628	0.481
1267.001	717.606	80.006	19.994	103.745	20.099	1.675	0.483
1267.501	717.904	80.005	19.994	103.744	20.097	1.797	0.513
1268.000	718.120	80.005	19.993	103.748	20.099	1.648	0.523
1268.500	718.347	80.006	19.993	103.755	20.101	1.467	0.478
1269.000	718.600	80.006	19.994	103.753	20.100	1.571	0.461
1269.500	718.897	80.005	19.994	103.746	20.102	1.430	0.515
1270.000	719.128	80.007	19.994	103.741	20.103	1.343	0.539
1270.500	719.382	80.006	19.993	103.734	20.100	1.581	0.507
1271.000	719.632	80.006	19.993	103.727	20.099	1.624	0.494
1271.500	719.875	80.007	19.994	103.728	20.100	1.530	0.498
1272.000	720.159	80.005	19.993	103.732	20.101	1.518	0.510
1272.501	720.365	80.006	19.993	103.738	20.100	1.577	0.508
1273.001	720.672	80.005	19.995	103.747	20.099	1.671	0.502
1273.501	720.915	80.008	19.994	103.752	20.100	1.557	0.532
1274.000	721.152	80.007	19.995	103.753	20.101	1.516	0.515
1274.500	721.396	80.007	19.994	103.756	20.097	1.756	0.480
1275.000	721.698	80.007	19.993	103.757	20.098	1.697	0.513
1275.500	721.934	80.005	19.995	103.751	20.105	1.219	0.542
1276.001	722.184	80.005	19.994	103.748	20.103	1.365	0.512
1276.501	722.409	80.006	19.994	103.749	20.099	1.677	0.481
1277.000	722.656	80.003	19.994	103.749	20.101	1.526	0.474
1277.500	722.888	80.004	19.994	103.749	20.100	1.600	0.475
1278.000	723.174	80.005	19.994	103.746	20.104	1.257	0.498
1278.500	723.447	80.003	19.993	103.745	20.097	1.761	0.539
1279.000	723.652	80.005	19.994	103.744	20.100	1.543	0.518
1279.500	723.947	80.004	19.993	103.740	20.102	1.441	0.489
1280.000	724.203	80.003	19.996	103.738	20.098	1.706	0.526
1280.500	724.430	80.004	19.994	103.741	20.102	1.414	0.517
1281.000	724.717	80.004	19.993	103.742	20.101	1.469	0.499
1281.501	724.932	80.003	19.993	103.738	20.105	1.225	0.508
1282.001	725.182	80.004	19.993	103.741	20.101	1.475	0.483
1282.500	725.458	80.004	19.994	103.740	20.102	1.422	0.496
1283.000	725.723	80.004	19.993	103.738	20.101	1.512	0.533
1283.500	725.943	80.003	19.993	103.738	20.101	1.518	0.513
1284.000	726.218	80.004	19.994	103.743	20.100	1.587	0.490
1284.500	726.482	80.002	19.992	103.744	20.100	1.555	0.518
1285.000	726.715	80.003	19.993	103.746	20.097	1.777	0.518
1285.501	726.981	80.003	19.994	103.747	20.099	1.630	0.498
1286.001	727.217	80.004	19.993	103.748	20.099	1.636	0.500
1286.500	727.466	80.005	19.992	103.748	20.102	1.424	0.493
1287.000	727.700	80.003	19.992	103.750	20.101	1.475	0.484
1287.500	727.964	80.004	19.993	103.750	20.101	1.461	0.491
1288.000	728.201	80.005	19.993	103.752	20.102	1.426	0.500
1288.500	728.436	80.003	19.993	103.752	20.102	1.428	0.487
1289.000	728.692	80.004	19.992	103.751	20.103	1.355	0.481
1289.500	728.984	80.004	19.994	103.751	20.103	1.320	0.519
1290.000	729.212	80.005	19.993	103.752	20.104	1.257	0.534
1290.500	729.468	80.004	19.994	103.750	20.101	1.488	0.502
1291.000	729.722	80.005	19.993	103.750	20.104	1.265	0.497
1291.500	729.974	80.004	19.994	103.751	20.103	1.322	0.508
1292.000	730.202	80.003	19.992	103.750	20.104	1.294	0.493
1292.500	730.429	80.003	19.993	103.750	20.102	1.431	0.468
1293.000	730.698	80.004	19.993	103.750	20.102	1.435	0.475
1293.500	730.974	80.004	19.993	103.748	20.103	1.367	0.520
1294.000	731.203	80.004	19.993	103.746	20.101	1.490	0.525
1294.500	731.484	80.002	19.993	103.746	20.103	1.378	0.507
1295.001	731.724	80.004	19.994	103.746	20.101	1.467	0.515
1295.501	731.980	80.004	19.993	103.748	20.103	1.377	0.509
1296.001	732.231	80.004	19.993	103.750	20.099	1.640	0.502
1296.501	732.444	80.004	19.994	103.752	20.104	1.298	0.486
1297.000	732.707	80.004	19.993	103.752	20.101	1.481	0.470
1297.500	732.981	80.005	19.993	103.752	20.101	1.490	0.506
1298.000	733.209	80.004	19.993	103.751	20.104	1.261	0.519
1298.500	733.427	80.003	19.994	103.751	20.102	1.439	0.474
1299.000	733.711	80.003	19.993	103.753	20.103	1.357	0.474
1299.500	733.955	80.004	19.993	103.754	20.099	1.622	0.515
1300.001	734.218	80.005	19.993	103.754	20.099	1.647	0.517
1300.501	734.464	80.003	19.993	103.754	20.101	1.526	0.508
1301.000	734.728	80.004	19.994	103.750	20.101	1.494	0.510
1301.500	735.005	80.004	19.993	103.750	20.099	1.667	0.525
1302.000	735.246	80.004	19.993	103.751	20.101	1.504	0.530
1302.500	735.489	80.004	19.993	103.748	20.100	1.541	0.502
1303.000	735.781	80.002	19.993	103.750	20.100	1.537	0.510
1303.500	736.007	80.003	19.993	103.754	20.100	1.557	0.526
1304.000	736.308	80.003	19.993	103.754	20.099	1.628	0.522
1304.500	736.530	80.003	19.994	103.753	20.102	1.410	0.525
1305.001	736.777	80.004	19.993	103.751	20.102	1.394	0.496
1305.501	737.038	80.003	19.993	103.750	20.102	1.439	0.489
1306.000	737.287	80.004	19.993	103.749	20.095	1.918	0.509
1306.500	737.559	80.004	19.993	103.747	20.102	1.443	0.516
1307.000	737.773	80.004	19.994	103.747	20.098	1.700	0.504
1307.500	738.070	80.004	19.993	103.747	20.098	1.706	0.498
1308.000	738.359	80.003	19.993	103.745	20.100	1.577	0.549
1308.500	738.633	80.002	19.993	103.745	20.097	1.769	0.575
1309.000	738.861	80.004	19.994	103.744	20.103	1.339	0.532
1309.501	739.131	80.003	19.992	103.743	20.098	1.751	0.500
1310.001	739.376	80.003	19.993	103.747	20.099	1.626	0.507
1310.500	739.676	80.004	19.994	103.750	20.099	1.608	0.530
1311.000	739.877	80.003	19.993	103.753	20.102	1.410	0.523
1311.500	740.155	80.002	19.993	103.755	20.101	1.528	0.490
1312.000	740.389	80.003	19.993	103.757	20.100	1.591	0.496
1312.500	740.628	80.003	19.993	103.758	20.100	1.539	0.493
1313.000	740.906	80.004	19.993	103.758	20.103	1.361	0.495
1313.500	741.197	80.002	19.994	103.758	20.100	1.545	0.543
1314.000	741.478	80.004	19.993	103.758	20.101	1.485	0.571
1314.500	741.713	80.003	19.993	103.758	20.104	1.241	0.543
1315.000	741.995	80.004	19.992	103.758	20.101	1.467	0.516
1315.500	742.202	80.003	19.994	103.758	20.103	1.359	0.503
1316.000	742.505	80.004	19.994	103.757	20.103	1.361	0.499
1316.500	742.773	80.004	19.992	103.757	20.102	1.402	0.540
1317.000	742.997	80.004	19.993	103.757	20.104	1.245	0.532
1317.500	743.286	80.004	19.992	103.757	20.098	1.716	0.503
