Sample ID:	C:\MCC\MCC Cal\Test\Black_PMMA_MCC_30K_min_220325_R1.txt
Sample Weight (mg):	4.35
Heating Rate (C/s):	0.5
Combustor Temp (C):	900
N2 Flow Rate (cc/min):	80
O2 Flow Rate (cc/min):	20
Calibration File:	C:\MCC\MCC Cal\Coeff1 JN10440_30_210304.txt.txt
T Correction Coefficients:	0	1.024463	0
Time Shift (s):	14
*
Time (s)	Temperature (C)	N2 flow rate (cc/min)	O2 flow rate (cc/min)	Flow Rate (cc/min)	Oxygen (%)	HRR (W/g)	Heating rate (C/s)
0.000	109.421	79.998	19.993	103.667	19.963	-0.091	0.022
0.500	109.395	80.000	19.995	103.667	19.966	-0.289	0.011
1.000	109.390	80.002	19.995	103.666	19.967	-0.370	-0.014
1.500	109.394	80.001	19.996	103.660	19.967	-0.407	-0.016
2.000	109.409	80.003	19.995	103.655	19.963	-0.044	0.009
2.500	109.396	80.002	19.995	103.655	19.965	-0.228	0.010
3.000	109.404	80.002	19.996	103.654	19.966	-0.278	-0.002
3.500	109.365	80.001	19.994	103.655	19.966	-0.318	-0.018
4.000	109.404	80.002	19.995	103.662	19.967	-0.345	-0.015
4.500	109.387	80.002	19.996	103.668	19.967	-0.337	0.011
5.000	109.402	80.002	19.995	103.668	19.964	-0.148	0.010
5.500	109.374	80.002	19.995	103.669	19.967	-0.405	-0.008
6.000	109.414	80.003	19.995	103.670	19.966	-0.297	-0.001
6.500	109.398	80.003	19.995	103.669	19.962	-0.023	0.018
7.000	109.386	80.003	19.995	103.671	19.965	-0.218	-0.002
7.500	109.421	80.003	19.993	103.672	19.963	-0.050	-0.002
8.000	109.406	80.002	19.994	103.676	19.964	-0.183	0.022
8.500	109.395	80.003	19.995	103.678	19.968	-0.412	-0.004
9.001	109.441	80.004	19.994	103.681	19.962	-0.027	0.004
9.501	109.389	80.003	19.994	103.686	19.964	-0.141	0.015
10.001	109.443	80.004	19.994	103.691	19.962	-0.015	-0.001
10.500	109.421	80.003	19.993	103.694	19.958	0.326	0.017
11.000	109.463	80.003	19.994	103.699	19.954	0.590	0.026
11.500	109.439	80.004	19.995	103.703	19.957	0.343	0.019
12.000	109.470	80.004	19.995	103.705	19.955	0.505	0.013
12.500	109.480	80.004	19.995	103.710	19.953	0.675	0.025
13.000	109.455	80.005	19.994	103.715	19.952	0.767	0.013
13.500	109.486	80.003	19.994	103.719	19.953	0.666	-0.005
14.000	109.471	80.002	19.995	103.726	19.947	1.115	0.010
14.500	109.484	80.004	19.994	103.733	19.952	0.743	0.006
15.000	109.503	80.002	19.994	103.744	19.949	0.951	0.015
15.500	109.538	80.003	19.994	103.762	19.952	0.716	0.044
16.000	109.579	80.004	19.994	103.781	19.950	0.922	0.065
16.500	109.569	80.003	19.994	103.797	19.948	1.055	0.053
17.000	109.543	80.003	19.995	103.813	19.948	1.017	-0.003
17.500	109.622	80.002	19.994	103.819	19.947	1.094	0.009
18.000	109.638	80.001	19.993	103.815	19.947	1.138	0.074
18.500	109.699	80.001	19.995	103.814	19.942	1.477	0.086
19.000	109.686	80.002	19.996	103.818	19.944	1.344	0.063
19.500	109.727	80.002	19.996	103.818	19.940	1.656	0.038
20.000	109.781	80.000	19.994	103.818	19.939	1.687	0.061
20.500	109.769	80.001	19.995	103.815	19.939	1.693	0.069
21.000	109.835	80.001	19.996	103.791	19.937	1.853	0.048
21.500	109.876	80.002	19.995	103.765	19.941	1.548	0.080
22.000	109.908	80.002	19.995	103.752	19.938	1.783	0.090
22.500	109.967	80.002	19.995	103.746	19.938	1.768	0.083
23.000	110.002	80.001	19.994	103.754	19.934	2.080	0.092
23.500	110.052	80.000	19.994	103.780	19.935	2.047	0.089
24.000	110.071	80.003	19.996	103.810	19.936	1.907	0.077
24.500	110.104	80.002	19.995	103.870	19.936	1.951	0.061
25.000	110.154	80.003	19.995	103.904	19.939	1.729	0.067
25.500	110.212	80.002	19.995	103.915	19.938	1.810	0.095
26.000	110.278	80.002	19.995	103.922	19.934	2.095	0.116
26.500	110.277	80.002	19.995	103.921	19.935	1.995	0.095
27.000	110.343	80.002	19.995	103.879	19.939	1.748	0.065
27.500	110.428	80.003	19.995	103.858	19.937	1.831	0.108
28.000	110.450	80.002	19.995	103.854	19.933	2.168	0.129
28.500	110.524	80.003	19.995	103.854	19.931	2.324	0.102
29.000	110.606	80.002	19.995	103.858	19.935	2.008	0.126
29.500	110.652	80.002	19.995	103.865	19.935	1.983	0.142
30.000	110.731	80.002	19.995	103.871	19.931	2.345	0.126
30.500	110.807	80.003	19.995	103.877	19.932	2.264	0.140
31.000	110.850	80.003	19.995	103.878	19.933	2.191	0.137
31.500	110.946	80.004	19.995	103.875	19.933	2.164	0.129
32.001	111.017	80.003	19.995	103.869	19.932	2.222	0.153
32.501	111.104	80.003	19.994	103.863	19.930	2.353	0.163
33.001	111.160	80.004	19.995	103.857	19.929	2.439	0.150
33.500	111.256	80.005	19.994	103.854	19.932	2.258	0.148
34.000	111.326	80.003	19.994	103.854	19.930	2.360	0.159
34.500	111.388	80.003	19.993	103.855	19.931	2.341	0.149
35.000	111.497	80.004	19.994	103.856	19.929	2.457	0.151
35.500	111.583	80.005	19.994	103.858	19.931	2.333	0.183
36.000	111.661	80.003	19.995	103.868	19.929	2.451	0.179
36.500	111.769	80.002	19.993	103.877	19.928	2.518	0.175
37.000	111.816	80.004	19.993	103.884	19.927	2.611	0.171
37.500	111.913	80.002	19.993	103.885	19.929	2.495	0.149
38.000	112.055	80.003	19.993	103.883	19.931	2.343	0.191
38.500	112.133	80.003	19.994	103.876	19.930	2.380	0.230
39.000	112.219	80.001	19.995	103.872	19.927	2.593	0.192
39.500	112.305	80.003	19.995	103.872	19.926	2.657	0.168
40.000	112.398	80.003	19.995	103.878	19.926	2.718	0.175
40.500	112.530	80.002	19.994	103.884	19.924	2.815	0.202
41.000	112.629	80.003	19.994	103.890	19.924	2.828	0.228
41.500	112.720	80.003	19.995	103.895	19.923	2.891	0.210
42.000	112.804	80.001	19.993	103.896	19.925	2.737	0.182
42.500	112.937	80.001	19.994	103.895	19.927	2.604	0.196
43.000	113.075	80.001	19.994	103.896	19.926	2.689	0.244
43.500	113.197	80.002	19.994	103.897	19.924	2.814	0.265
44.000	113.290	80.001	19.994	103.897	19.929	2.462	0.237
44.500	113.428	80.001	19.995	103.897	19.925	2.776	0.223
45.000	113.539	80.001	19.995	103.902	19.919	3.241	0.240
45.500	113.676	80.000	19.994	103.903	19.922	2.981	0.248
46.000	113.806	80.001	19.994	103.897	19.925	2.743	0.257
46.501	113.913	80.001	19.993	103.897	19.919	3.178	0.252
47.001	114.023	80.001	19.994	103.898	19.924	2.865	0.227
47.500	114.143	80.000	19.993	103.894	19.925	2.784	0.223
48.000	114.226	80.001	19.994	103.892	19.920	3.118	0.216
48.500	114.388	80.001	19.994	103.898	19.924	2.862	0.224
49.000	114.547	79.999	19.995	103.899	19.923	2.918	0.283
49.500	114.648	80.002	19.994	103.900	19.921	3.059	0.290
50.000	114.810	80.001	19.994	103.900	19.926	2.658	0.262
50.500	114.878	80.002	19.994	103.901	19.925	2.776	0.247
51.000	115.029	80.000	19.994	103.902	19.923	2.914	0.224
51.500	115.128	80.000	19.994	103.902	19.920	3.126	0.234
52.000	115.283	80.002	19.994	103.908	19.922	2.965	0.252
52.500	115.452	80.000	19.994	103.909	19.925	2.778	0.289
53.000	115.561	80.001	19.994	103.915	19.921	3.032	0.301
53.501	115.733	80.002	19.994	103.923	19.924	2.797	0.279
54.001	115.877	80.000	19.995	103.927	19.919	3.188	0.298
54.500	116.006	80.001	19.995	103.929	19.920	3.107	0.295
55.000	116.117	80.000	19.994	103.934	19.919	3.190	0.256
55.500	116.327	80.001	19.995	103.905	19.926	2.666	0.281
56.000	116.397	80.001	19.995	103.874	19.924	2.820	0.301
56.500	116.592	80.000	19.994	103.863	19.922	3.007	0.272
57.000	116.778	80.001	19.994	103.856	19.925	2.774	0.323
57.500	116.921	80.001	19.993	103.854	19.923	2.922	0.355
58.000	117.048	80.002	19.994	103.890	19.922	2.957	0.300
58.500	117.194	80.001	19.994	103.962	19.924	2.858	0.272
59.000	117.318	80.001	19.993	103.992	19.923	2.906	0.271
59.500	117.524	80.002	19.994	104.002	19.925	2.747	0.300
60.000	117.649	80.001	19.994	104.002	19.920	3.114	0.330
60.500	117.845	80.000	19.993	103.992	19.923	2.872	0.325
61.000	117.987	80.000	19.994	103.944	19.921	3.055	0.329
61.500	118.172	80.001	19.994	103.921	19.926	2.693	0.333
62.000	118.308	80.001	19.993	103.913	19.920	3.147	0.324
62.500	118.481	80.001	19.994	103.907	19.925	2.752	0.315
63.000	118.680	80.001	19.993	103.907	19.922	2.995	0.340
63.500	118.816	80.001	19.994	103.906	19.922	2.974	0.354
64.000	118.992	80.002	19.993	103.905	19.923	2.907	0.324
64.500	119.147	80.002	19.994	103.904	19.922	3.003	0.321
65.000	119.309	79.999	19.994	103.904	19.921	3.082	0.324
65.501	119.495	80.002	19.994	103.903	19.925	2.749	0.333
66.001	119.680	80.002	19.994	103.904	19.920	3.155	0.359
66.500	119.866	80.002	19.994	103.905	19.920	3.116	0.371
67.000	120.022	80.001	19.993	103.907	19.922	2.991	0.357
67.500	120.198	80.001	19.995	103.909	19.921	3.089	0.337
68.000	120.386	80.002	19.993	103.912	19.924	2.862	0.348
68.500	120.554	80.002	19.994	103.914	19.921	3.058	0.360
69.000	120.722	80.001	19.993	103.916	19.923	2.931	0.346
69.500	120.894	80.001	19.993	103.921	19.919	3.243	0.338
70.000	121.092	80.001	19.994	103.926	19.924	2.854	0.355
70.500	121.248	80.002	19.993	103.927	19.922	2.985	0.362
71.000	121.465	80.002	19.995	103.927	19.924	2.802	0.363
71.500	121.640	80.002	19.994	103.926	19.920	3.123	0.382
72.000	121.818	80.002	19.994	103.923	19.919	3.237	0.373
72.500	121.998	80.001	19.994	103.922	19.918	3.312	0.356
73.000	122.189	80.001	19.994	103.920	19.918	3.308	0.365
73.500	122.398	80.001	19.994	103.924	19.919	3.243	0.385
74.000	122.582	80.000	19.993	103.928	19.915	3.542	0.397
74.501	122.783	80.001	19.994	103.924	19.916	3.455	0.389
75.001	122.931	80.001	19.994	103.920	19.921	3.032	0.367
75.500	123.158	80.000	19.994	103.921	19.917	3.367	0.362
76.001	123.348	80.001	19.994	103.919	19.915	3.496	0.396
76.501	123.543	80.001	19.994	103.914	19.919	3.239	0.401
77.001	123.705	80.002	19.996	103.914	19.925	2.775	0.371
77.501	123.911	80.000	19.993	103.916	19.924	2.827	0.363
78.001	124.137	80.000	19.993	103.920	19.918	3.289	0.400
78.501	124.313	80.001	19.995	103.921	19.918	3.305	0.417
79.000	124.498	80.001	19.994	103.928	19.925	2.752	0.381
79.500	124.676	80.003	19.994	103.937	19.920	3.101	0.362
80.000	124.886	80.003	19.995	103.945	19.923	2.933	0.376
80.500	125.089	80.001	19.993	103.948	19.920	3.122	0.400
81.000	125.289	80.001	19.995	103.950	19.921	3.076	0.408
81.500	125.495	80.001	19.995	103.951	19.919	3.228	0.405
82.000	125.701	80.002	19.994	103.948	19.920	3.118	0.409
82.500	125.931	80.001	19.994	103.943	19.918	3.287	0.424
83.000	126.140	80.002	19.995	103.940	19.916	3.399	0.438
83.500	126.322	80.002	19.994	103.937	19.918	3.270	0.415
84.001	126.526	80.001	19.994	103.933	19.923	2.931	0.388
84.501	126.755	80.002	19.995	103.927	19.917	3.353	0.410
85.000	126.936	80.002	19.994	103.920	19.917	3.322	0.422
85.500	127.121	80.002	19.995	103.912	19.916	3.437	0.388
86.001	127.331	80.002	19.995	103.910	19.918	3.297	0.380
86.501	127.550	80.001	19.995	103.913	19.917	3.368	0.412
87.000	127.730	80.002	19.994	103.917	19.918	3.276	0.414
87.500	127.958	80.003	19.995	103.925	19.918	3.295	0.403
88.000	128.157	80.001	19.994	103.933	19.917	3.376	0.417
88.500	128.386	80.004	19.994	103.935	19.918	3.259	0.428
89.000	128.601	80.002	19.994	103.933	19.918	3.289	0.436
89.500	128.834	80.004	19.995	103.934	19.920	3.151	0.446
90.000	129.040	80.004	19.994	103.932	19.920	3.151	0.444
90.500	129.237	80.002	19.994	103.932	19.916	3.434	0.422
91.000	129.447	80.002	19.995	103.932	19.918	3.251	0.405
91.501	129.677	80.003	19.995	103.933	19.919	3.218	0.423
92.001	129.895	80.002	19.994	103.932	19.916	3.405	0.444
92.500	130.145	80.002	19.994	103.933	19.912	3.713	0.458
93.000	130.343	80.004	19.994	103.933	19.917	3.364	0.458
93.500	130.516	80.001	19.995	103.934	19.920	3.129	0.410
94.000	130.775	80.002	19.996	103.932	19.915	3.535	0.401
94.500	130.975	80.003	19.995	103.927	19.916	3.408	0.445
95.000	131.185	80.001	19.994	103.927	19.919	3.235	0.434
95.500	131.402	80.003	19.994	103.929	19.919	3.220	0.419
96.000	131.607	80.002	19.993	103.930	19.922	2.976	0.425
96.500	131.858	80.003	19.993	103.934	19.923	2.932	0.439
97.000	132.065	80.002	19.994	103.939	19.921	3.022	0.457
97.500	132.301	80.002	19.994	103.939	19.924	2.837	0.450
98.000	132.497	80.003	19.995	103.937	19.919	3.231	0.437
98.501	132.727	80.003	19.995	103.935	19.924	2.871	0.429
99.001	132.952	80.002	19.995	103.929	19.920	3.097	0.440
99.500	133.184	80.002	19.994	103.928	19.920	3.120	0.456
100.000	133.421	80.001	19.993	103.927	19.919	3.177	0.463
100.500	133.641	80.002	19.993	103.928	19.923	2.875	0.463
101.001	133.859	80.002	19.994	103.928	19.917	3.326	0.448
101.501	134.118	80.002	19.994	103.931	19.919	3.241	0.458
102.000	134.290	80.001	19.994	103.932	19.915	3.474	0.454
102.500	134.533	80.001	19.994	103.930	19.920	3.113	0.422
103.000	134.754	80.003	19.994	103.927	19.917	3.324	0.439
103.500	134.957	80.002	19.994	103.930	19.919	3.241	0.444
104.000	135.212	80.004	19.994	103.941	19.917	3.366	0.441
104.500	135.427	80.001	19.995	103.948	19.920	3.168	0.464
105.000	135.647	80.002	19.994	103.950	19.919	3.232	0.452
105.501	135.883	80.001	19.994	103.947	19.918	3.257	0.445
106.001	136.104	80.001	19.994	103.938	19.919	3.193	0.456
106.500	136.334	80.002	19.994	103.922	19.925	2.787	0.454
107.001	136.557	80.003	19.993	103.915	19.923	2.895	0.452
107.501	136.841	80.002	19.994	103.915	19.918	3.316	0.480
108.000	137.054	80.002	19.994	103.922	19.924	2.837	0.502
108.500	137.318	80.002	19.994	103.931	19.919	3.181	0.487
109.001	137.514	80.003	19.996	103.939	19.917	3.364	0.468
109.501	137.757	80.002	19.995	103.939	19.917	3.378	0.449
110.000	138.018	80.003	19.994	103.939	19.915	3.524	0.472
110.500	138.251	80.002	19.995	103.939	19.917	3.359	0.499
111.000	138.494	80.003	19.995	103.937	19.918	3.274	0.485
111.500	138.739	80.002	19.995	103.932	19.917	3.341	0.482
112.000	138.973	80.003	19.994	103.926	19.922	2.985	0.483
112.500	139.222	80.002	19.994	103.921	19.915	3.478	0.481
113.000	139.451	80.002	19.994	103.920	19.916	3.408	0.481
113.500	139.670	80.002	19.994	103.915	19.919	3.210	0.463
114.000	139.894	80.002	19.995	103.918	19.913	3.678	0.445
114.501	140.159	80.002	19.995	103.925	19.910	3.845	0.466
115.001	140.373	80.002	19.994	103.930	19.913	3.632	0.484
115.501	140.584	80.002	19.994	103.926	19.913	3.685	0.452
116.000	140.820	80.001	19.994	103.923	19.912	3.717	0.436
116.500	141.085	80.002	19.995	103.923	19.912	3.721	0.474
117.000	141.311	80.000	19.994	103.923	19.909	3.960	0.496
117.500	141.572	80.002	19.995	103.922	19.912	3.695	0.489
118.000	141.810	80.000	19.994	103.926	19.911	3.815	0.493
118.500	142.040	80.001	19.994	103.934	19.916	3.435	0.483
119.000	142.237	80.002	19.995	103.935	19.909	3.984	0.448
119.500	142.513	80.000	19.995	103.933	19.910	3.912	0.450
120.000	142.727	79.999	19.995	103.935	19.906	4.186	0.482
120.500	143.038	79.999	19.996	103.931	19.910	3.916	0.508
121.000	143.269	80.000	19.995	103.927	19.913	3.641	0.534
121.500	143.497	80.001	19.995	103.923	19.910	3.911	0.500
122.000	143.764	80.001	19.996	103.925	19.910	3.871	0.476
122.500	143.990	80.000	19.995	103.926	19.905	4.215	0.494
123.001	144.249	80.001	19.995	103.930	19.904	4.338	0.489
123.501	144.486	80.000	19.995	103.933	19.907	4.065	0.491
124.000	144.686	79.999	19.994	103.937	19.902	4.465	0.467
124.500	144.920	79.999	19.994	103.935	19.904	4.361	0.435
125.000	145.246	80.001	19.995	103.923	19.906	4.194	0.497
125.500	145.492	80.000	19.994	103.883	19.902	4.496	0.566
126.000	145.685	80.000	19.994	103.859	19.900	4.587	0.506
126.500	145.922	80.000	19.994	103.849	19.905	4.283	0.435
127.000	146.158	80.000	19.994	103.846	19.903	4.416	0.452
127.500	146.436	80.001	19.994	103.858	19.902	4.502	0.493
128.000	146.652	80.000	19.994	103.899	19.899	4.722	0.504
128.500	146.894	80.001	19.993	103.941	19.902	4.494	0.476
129.000	147.111	80.001	19.994	103.989	19.902	4.485	0.458
129.500	147.390	80.001	19.994	104.000	19.902	4.461	0.478
130.000	147.618	80.000	19.993	104.000	19.903	4.419	0.501
130.500	147.853	80.001	19.994	103.999	19.902	4.458	0.485
131.001	148.111	80.000	19.994	103.980	19.900	4.618	0.478
131.500	148.348	80.001	19.995	103.941	19.903	4.420	0.494
132.000	148.626	80.001	19.994	103.932	19.898	4.784	0.505
132.500	148.854	80.002	19.994	103.927	19.902	4.484	0.510
133.000	149.098	80.002	19.994	103.927	19.898	4.741	0.489
133.500	149.319	80.002	19.994	103.929	19.901	4.535	0.468
134.000	149.570	80.001	19.993	103.931	19.901	4.512	0.468
134.500	149.844	80.001	19.994	103.932	19.897	4.855	0.499
135.000	150.105	80.001	19.994	103.937	19.900	4.610	0.530
135.500	150.331	80.003	19.994	103.937	19.900	4.591	0.511
136.000	150.574	80.002	19.995	103.938	19.898	4.770	0.478
136.500	150.819	80.002	19.994	103.936	19.900	4.651	0.478
137.000	151.072	80.000	19.993	103.929	19.896	4.918	0.493
137.500	151.297	80.002	19.994	103.923	19.899	4.726	0.488
138.000	151.533	80.001	19.992	103.917	19.894	5.070	0.470
138.500	151.777	80.002	19.994	103.916	19.892	5.232	0.471
139.000	152.029	80.001	19.995	103.916	19.894	5.099	0.488
139.500	152.280	80.001	19.994	103.924	19.894	5.041	0.499
140.000	152.530	80.000	19.993	103.929	19.896	4.943	0.502
140.500	152.784	80.001	19.994	103.929	19.894	5.055	0.503
141.000	153.039	80.001	19.994	103.925	19.892	5.199	0.507
141.500	153.230	80.000	19.994	103.918	19.894	5.096	0.478
142.000	153.504	80.001	19.993	103.913	19.898	4.774	0.455
142.500	153.730	80.001	19.994	103.906	19.892	5.221	0.482
143.000	153.989	80.000	19.994	103.906	19.889	5.431	0.493
143.500	154.242	80.000	19.994	103.906	19.891	5.302	0.499
144.000	154.483	80.000	19.994	103.910	19.893	5.136	0.503
144.500	154.747	80.001	19.994	103.914	19.888	5.544	0.500
145.000	155.001	80.000	19.995	103.917	19.888	5.546	0.511
145.500	155.215	80.000	19.995	103.916	19.884	5.833	0.492
146.000	155.474	80.000	19.995	103.917	19.889	5.477	0.471
146.500	155.733	80.001	19.994	103.912	19.884	5.802	0.496
147.000	155.981	80.001	19.994	103.907	19.883	5.854	0.512
147.500	156.226	80.001	19.994	103.911	19.881	6.022	0.500
148.000	156.511	80.001	19.994	103.917	19.884	5.800	0.512
148.500	156.714	80.000	19.994	103.918	19.885	5.729	0.510
149.000	156.959	79.999	19.994	103.921	19.885	5.725	0.469
149.500	157.235	79.999	19.995	103.924	19.883	5.856	0.485
150.000	157.476	80.000	19.994	103.922	19.884	5.779	0.519
150.500	157.726	80.000	19.994	103.916	19.883	5.872	0.504
151.000	157.971	80.000	19.994	103.913	19.885	5.722	0.493
151.500	158.212	80.000	19.994	103.915	19.878	6.232	0.490
152.000	158.471	80.000	19.994	103.912	19.883	5.901	0.493
152.500	158.698	79.999	19.995	103.910	19.877	6.372	0.493
153.000	158.930	80.000	19.994	103.910	19.882	5.941	0.472
153.500	159.200	79.999	19.994	103.912	19.874	6.563	0.480
154.000	159.464	79.998	19.995	103.907	19.881	6.041	0.518
154.500	159.688	80.000	19.994	103.906	19.878	6.251	0.511
155.000	159.953	80.000	19.995	103.908	19.876	6.443	0.489
155.500	160.240	80.001	19.995	103.909	19.874	6.555	0.521
156.000	160.442	80.001	19.995	103.907	19.876	6.430	0.520
156.500	160.718	80.001	19.995	103.912	19.877	6.372	0.483
157.000	160.972	80.001	19.994	103.913	19.873	6.620	0.504
157.500	161.242	80.000	19.994	103.909	19.873	6.601	0.527
158.000	161.433	80.001	19.994	103.908	19.875	6.468	0.493
158.501	161.712	80.000	19.994	103.907	19.872	6.694	0.466
159.000	161.982	80.001	19.995	103.904	19.869	6.907	0.509
159.500	162.177	80.001	19.993	103.904	19.869	6.942	0.507
160.000	162.455	80.002	19.995	103.905	19.869	6.909	0.469
160.500	162.676	80.002	19.994	103.905	19.872	6.730	0.486
161.000	162.943	80.000	19.993	103.904	19.866	7.127	0.494
161.500	163.179	80.001	19.992	103.903	19.869	6.954	0.495
162.000	163.449	80.001	19.994	103.902	19.867	7.117	0.504
162.500	163.693	80.002	19.994	103.902	19.864	7.333	0.510
163.000	163.909	80.002	19.994	103.901	19.864	7.327	0.487
163.500	164.175	80.002	19.994	103.902	19.866	7.173	0.471
164.000	164.419	80.003	19.994	103.902	19.865	7.262	0.496
164.500	164.677	80.003	19.994	103.904	19.863	7.358	0.507
165.000	164.983	80.001	19.994	103.904	19.863	7.343	0.533
165.500	165.161	80.003	19.994	103.905	19.859	7.643	0.524
166.000	165.442	80.003	19.994	103.908	19.864	7.321	0.471
166.500	165.684	80.002	19.993	103.907	19.860	7.624	0.491
167.000	165.899	80.003	19.994	103.906	19.859	7.649	0.490
167.500	166.185	80.003	19.993	103.907	19.857	7.812	0.480
168.000	166.478	80.003	19.994	103.907	19.855	7.982	0.540
168.500	166.731	80.002	19.994	103.904	19.858	7.720	0.562
169.000	167.022	80.002	19.994	103.904	19.856	7.916	0.545
169.500	167.263	80.002	19.994	103.904	19.857	7.832	0.538
170.000	167.458	80.002	19.993	103.903	19.853	8.134	0.484
170.500	167.691	80.001	19.994	103.902	19.849	8.448	0.432
171.000	167.924	80.001	19.993	103.902	19.854	8.074	0.447
171.500	168.190	80.002	19.994	103.901	19.852	8.226	0.483
172.000	168.440	80.002	19.994	103.902	19.854	8.043	0.508
172.500	168.706	80.000	19.994	103.902	19.850	8.340	0.517
173.000	168.873	80.002	19.994	103.902	19.857	7.795	0.474
173.500	169.149	80.001	19.994	103.902	19.851	8.244	0.437
174.000	169.417	80.001	19.994	103.901	19.852	8.227	0.493
174.500	169.661	80.001	19.994	103.900	19.855	7.971	0.528
175.000	169.911	80.000	19.995	103.901	19.852	8.186	0.503
175.500	170.147	80.001	19.994	103.900	19.852	8.234	0.490
176.000	170.415	80.000	19.994	103.901	19.846	8.625	0.495
176.500	170.638	80.001	19.994	103.901	19.851	8.290	0.497
177.001	170.890	80.000	19.995	103.902	19.850	8.369	0.483
177.500	171.157	80.001	19.995	103.902	19.849	8.445	0.497
178.000	171.380	80.001	19.995	103.902	19.847	8.549	0.505
178.500	171.669	80.002	19.995	103.901	19.845	8.718	0.501
179.000	171.873	80.001	19.994	103.902	19.850	8.370	0.502
179.500	172.160	80.001	19.993	103.903	19.845	8.720	0.492
180.000	172.367	80.002	19.995	103.902	19.845	8.738	0.493
180.500	172.625	80.002	19.995	103.903	19.845	8.727	0.479
181.000	172.920	80.002	19.995	103.902	19.850	8.381	0.509
181.500	173.127	80.002	19.994	103.901	19.848	8.502	0.528
182.000	173.372	80.001	19.993	103.901	19.849	8.400	0.477
182.500	173.601	80.001	19.994	103.901	19.848	8.514	0.462
183.000	173.860	80.000	19.994	103.901	19.846	8.658	0.481
183.500	174.106	80.002	19.995	103.898	19.849	8.402	0.497
184.000	174.316	80.001	19.994	103.896	19.848	8.512	0.481
184.500	174.608	80.001	19.993	103.894	19.846	8.683	0.479
185.000	174.838	80.002	19.994	103.894	19.845	8.739	0.512
185.500	175.100	80.000	19.994	103.893	19.845	8.725	0.507
186.000	175.325	80.001	19.994	103.896	19.849	8.427	0.489
186.500	175.589	80.002	19.993	103.899	19.851	8.255	0.488
187.000	175.854	80.003	19.994	103.900	19.853	8.157	0.509
187.500	176.091	80.003	19.994	103.903	19.843	8.906	0.515
188.000	176.310	80.001	19.994	103.903	19.847	8.575	0.479
188.500	176.601	80.002	19.994	103.908	19.842	8.939	0.483
189.000	176.831	80.002	19.995	103.912	19.845	8.710	0.516
189.500	177.090	80.002	19.994	103.912	19.843	8.887	0.505
190.000	177.288	80.003	19.994	103.910	19.843	8.895	0.473
190.500	177.555	80.003	19.994	103.910	19.845	8.728	0.461
191.000	177.776	80.002	19.994	103.904	19.841	9.032	0.476
191.500	178.069	80.002	19.994	103.899	19.838	9.210	0.501
192.000	178.280	80.003	19.994	103.898	19.840	9.107	0.509
192.500	178.525	80.002	19.994	103.897	19.844	8.820	0.480
193.000	178.769	80.003	19.994	103.896	19.839	9.199	0.472
193.500	178.996	80.003	19.993	103.893	19.839	9.155	0.481
194.000	179.298	80.003	19.993	103.891	19.841	9.038	0.500
194.500	179.519	80.003	19.993	103.891	19.846	8.655	0.526
195.000	179.765	80.002	19.995	103.891	19.840	9.060	0.495
195.500	180.037	80.002	19.995	103.892	19.842	8.945	0.492
196.000	180.247	80.003	19.994	103.895	19.841	9.019	0.500
196.500	180.543	80.002	19.995	103.898	19.841	9.003	0.494
197.000	180.767	80.001	19.994	103.898	19.843	8.899	0.513
197.500	181.059	80.000	19.994	103.898	19.843	8.883	0.518
198.000	181.303	80.001	19.993	103.898	19.842	8.935	0.526
198.500	181.515	80.000	19.994	103.897	19.840	9.059	0.495
199.000	181.781	80.000	19.994	103.897	19.840	9.081	0.467
199.500	182.013	80.000	19.994	103.898	19.839	9.152	0.488
200.000	182.278	80.001	19.994	103.897	19.840	9.104	0.498
200.500	182.511	80.000	19.995	103.894	19.843	8.905	0.498
201.000	182.773	80.000	19.996	103.890	19.844	8.761	0.496
201.500	182.996	80.000	19.994	103.887	19.842	8.957	0.490
202.000	183.235	80.000	19.995	103.884	19.843	8.851	0.474
202.500	183.478	80.001	19.995	103.882	19.841	9.033	0.472
203.000	183.690	79.999	19.995	103.885	19.839	9.158	0.469
203.500	183.955	80.000	19.996	103.889	19.841	9.000	0.466
204.000	184.183	79.999	19.995	103.891	19.840	9.089	0.484
204.500	184.423	80.001	19.996	103.887	19.838	9.220	0.480
205.000	184.666	80.000	19.995	103.886	19.843	8.870	0.476
205.500	184.935	80.000	19.994	103.885	19.842	8.979	0.498
206.000	185.136	80.001	19.995	103.882	19.843	8.866	0.491
206.500	185.433	80.001	19.996	103.874	19.841	8.999	0.484
207.000	185.675	80.000	19.995	103.881	19.844	8.800	0.519
207.501	185.877	80.001	19.995	103.893	19.849	8.444	0.492
208.001	186.163	80.000	19.996	103.895	19.845	8.748	0.466
208.501	186.398	80.001	19.996	103.895	19.849	8.388	0.505
209.001	186.680	80.000	19.995	103.896	19.846	8.654	0.519
209.500	186.921	80.000	19.995	103.892	19.847	8.569	0.520
210.000	187.190	80.001	19.996	103.883	19.844	8.764	0.516
210.500	187.398	80.000	19.995	103.878	19.845	8.746	0.493
211.000	187.672	80.000	19.996	103.877	19.843	8.851	0.480
211.500	187.887	80.000	19.996	103.882	19.844	8.783	0.486
212.001	188.174	80.001	19.994	103.887	19.845	8.716	0.496
212.501	188.401	80.000	19.995	103.889	19.847	8.558	0.507
213.001	188.662	80.001	19.994	103.892	19.848	8.477	0.501
213.500	188.859	80.000	19.996	103.897	19.847	8.573	0.473
214.001	189.104	80.000	19.995	103.899	19.847	8.574	0.450
214.501	189.386	80.001	19.995	103.899	19.844	8.825	0.484
215.001	189.598	80.000	19.996	103.899	19.843	8.840	0.511
215.500	189.874	80.001	19.995	103.899	19.848	8.524	0.491
216.000	190.106	80.001	19.995	103.896	19.845	8.724	0.498
216.500	190.364	80.002	19.995	103.896	19.842	8.953	0.499
217.000	190.618	80.001	19.994	103.896	19.841	9.032	0.501
217.500	190.833	80.001	19.994	103.896	19.847	8.582	0.490
218.000	191.107	80.000	19.995	103.896	19.843	8.852	0.479
218.500	191.344	80.001	19.994	103.898	19.847	8.548	0.500
219.000	191.607	80.001	19.994	103.897	19.844	8.808	0.505
219.500	191.831	79.999	19.994	103.897	19.845	8.712	0.494
220.000	192.098	80.000	19.994	103.897	19.841	9.041	0.490
220.500	192.327	80.001	19.994	103.897	19.844	8.766	0.494
221.000	192.582	80.000	19.994	103.896	19.843	8.895	0.490
221.500	192.856	80.001	19.995	103.897	19.843	8.874	0.506
222.000	193.104	80.001	19.995	103.890	19.845	8.730	0.526
222.500	193.323	80.000	19.993	103.877	19.845	8.745	0.495
223.000	193.576	80.000	19.994	103.871	19.844	8.815	0.469
223.500	193.808	80.000	19.994	103.871	19.843	8.848	0.479
224.000	194.069	80.001	19.994	103.870	19.845	8.721	0.489
224.500	194.292	80.001	19.994	103.877	19.843	8.886	0.488
225.000	194.563	80.000	19.995	103.891	19.846	8.615	0.489
225.500	194.792	80.001	19.994	103.898	19.844	8.803	0.498
226.000	195.045	80.001	19.994	103.905	19.843	8.848	0.491
226.500	195.290	80.000	19.994	103.912	19.844	8.765	0.490
227.000	195.538	79.999	19.994	103.913	19.840	9.064	0.495
227.500	195.804	80.002	19.995	103.913	19.845	8.709	0.504
228.000	196.015	79.998	19.995	103.913	19.844	8.765	0.496
228.500	196.254	80.000	19.995	103.908	19.844	8.825	0.464
229.001	196.497	80.001	19.994	103.903	19.846	8.630	0.466
229.501	196.735	80.000	19.994	103.902	19.843	8.897	0.481
230.000	196.977	80.000	19.994	103.900	19.844	8.830	0.481
230.500	197.228	80.003	19.994	103.896	19.845	8.701	0.487
231.000	197.479	80.000	19.994	103.896	19.843	8.868	0.497
231.500	197.745	80.001	19.995	103.894	19.846	8.622	0.509
232.000	197.971	79.999	19.993	103.893	19.842	8.925	0.505
232.500	198.215	80.000	19.995	103.893	19.842	8.912	0.481
233.000	198.455	80.001	19.995	103.891	19.843	8.866	0.477
233.500	198.711	79.998	19.994	103.887	19.845	8.754	0.490
234.000	198.966	80.000	19.994	103.884	19.846	8.630	0.504
234.500	199.213	80.001	19.995	103.882	19.843	8.859	0.506
235.001	199.464	79.998	19.994	103.881	19.841	9.037	0.499
235.501	199.733	80.000	19.995	103.885	19.848	8.519	0.509
236.000	199.949	80.000	19.994	103.884	19.843	8.851	0.503
236.500	200.183	80.001	19.995	103.887	19.841	8.988	0.468
237.000	200.415	80.001	19.993	103.883	19.840	9.095	0.459
237.500	200.656	80.000	19.994	103.881	19.839	9.177	0.470
238.000	200.925	79.999	19.994	103.879	19.841	9.044	0.491
238.500	201.172	80.001	19.994	103.882	19.843	8.855	0.513
239.000	201.386	80.001	19.994	103.881	19.842	8.970	0.489
239.500	201.707	80.002	19.995	103.880	19.844	8.794	0.498
240.000	201.892	80.000	19.994	103.884	19.840	9.104	0.521
240.500	202.173	80.001	19.993	103.887	19.841	9.019	0.486
241.001	202.398	80.002	19.994	103.887	19.838	9.247	0.486
241.501	202.673	80.001	19.995	103.889	19.839	9.166	0.502
242.000	202.934	80.002	19.994	103.891	19.838	9.227	0.518
242.500	203.157	80.003	19.994	103.884	19.835	9.487	0.510
243.000	203.417	80.002	19.994	103.875	19.838	9.264	0.483
243.500	203.644	80.000	19.994	103.870	19.838	9.225	0.485
244.000	203.882	80.003	19.994	103.873	19.833	9.605	0.476
244.500	204.128	80.003	19.994	103.875	19.835	9.455	0.474
245.000	204.406	80.002	19.993	103.880	19.838	9.249	0.504
245.500	204.647	80.002	19.994	103.881	19.834	9.541	0.522
246.000	204.904	80.004	19.994	103.880	19.836	9.409	0.508
246.500	205.144	80.001	19.994	103.873	19.837	9.350	0.497
247.000	205.409	80.001	19.994	103.870	19.835	9.483	0.501
247.500	205.668	80.002	19.993	103.867	19.835	9.472	0.514
248.000	205.883	80.003	19.994	103.870	19.835	9.432	0.499
248.500	206.178	80.001	19.993	103.877	19.837	9.351	0.492
249.000	206.408	80.002	19.993	103.883	19.836	9.426	0.517
249.500	206.682	80.002	19.995	103.889	19.837	9.343	0.515
250.000	206.904	80.002	19.994	103.896	19.835	9.493	0.500
250.500	207.114	80.001	19.994	103.901	19.835	9.488	0.464
251.000	207.388	80.003	19.993	103.902	19.836	9.354	0.458
251.501	207.639	80.001	19.993	103.902	19.835	9.456	0.504
252.001	207.905	79.999	19.993	103.902	19.835	9.429	0.521
252.500	208.129	80.002	19.995	103.902	19.839	9.180	0.503
253.000	208.364	80.002	19.994	103.902	19.838	9.221	0.475
253.500	208.614	80.002	19.995	103.902	19.839	9.177	0.472
254.000	208.854	80.001	19.994	103.902	19.834	9.552	0.488
254.500	209.124	80.003	19.995	103.901	19.835	9.477	0.500
255.000	209.387	80.001	19.994	103.901	19.836	9.393	0.521
255.500	209.603	80.001	19.994	103.899	19.832	9.693	0.506
256.000	209.839	80.001	19.994	103.891	19.833	9.619	0.466
256.500	210.150	80.002	19.994	103.883	19.836	9.426	0.500
257.000	210.342	80.002	19.994	103.874	19.835	9.493	0.525
257.500	210.597	80.002	19.993	103.864	19.832	9.670	0.475
258.000	210.837	80.001	19.992	103.858	19.831	9.735	0.471
258.500	211.106	80.002	19.994	103.860	19.835	9.454	0.502
259.000	211.322	80.003	19.995	103.869	19.837	9.291	0.497
259.500	211.547	80.003	19.994	103.875	19.839	9.174	0.463
260.000	211.820	80.002	19.994	103.877	19.832	9.717	0.469
260.500	212.054	80.003	19.994	103.878	19.832	9.678	0.503
261.000	212.306	80.002	19.994	103.875	19.836	9.361	0.497
261.500	212.591	80.002	19.994	103.867	19.833	9.588	0.512
262.000	212.842	80.002	19.994	103.864	19.833	9.606	0.536
262.500	213.082	80.002	19.993	103.865	19.834	9.535	0.513
263.000	213.335	80.004	19.994	103.866	19.829	9.920	0.492
263.500	213.587	80.004	19.995	103.867	19.828	9.988	0.499
264.000	213.809	80.001	19.994	103.866	19.831	9.757	0.489
264.500	214.061	80.005	19.994	103.862	19.828	9.955	0.474
265.000	214.352	80.003	19.994	103.860	19.829	9.942	0.509
265.500	214.588	80.005	19.995	103.859	19.827	10.088	0.535
266.000	214.832	80.003	19.995	103.858	19.831	9.756	0.504
266.500	215.084	80.005	19.995	103.858	19.833	9.646	0.488
267.000	215.349	80.004	19.994	103.865	19.829	9.925	0.506
267.500	215.596	80.003	19.994	103.870	19.832	9.689	0.514
268.000	215.833	80.003	19.994	103.876	19.836	9.398	0.498
268.500	216.080	80.004	19.994	103.882	19.832	9.712	0.484
269.000	216.327	80.003	19.994	103.886	19.830	9.833	0.489
269.500	216.614	80.004	19.994	103.885	19.834	9.569	0.514
270.000	216.836	80.004	19.994	103.879	19.831	9.746	0.521
270.500	217.072	80.002	19.995	103.875	19.832	9.697	0.483
271.000	217.341	80.003	19.994	103.873	19.835	9.450	0.481
271.500	217.589	80.003	19.994	103.874	19.834	9.519	0.511
272.000	217.831	80.003	19.995	103.870	19.830	9.847	0.504
272.500	218.077	80.003	19.995	103.870	19.830	9.841	0.489
273.000	218.320	80.003	19.995	103.867	19.833	9.611	0.488
273.500	218.598	80.003	19.994	103.863	19.834	9.553	0.505
274.000	218.866	80.003	19.994	103.858	19.830	9.819	0.534
274.500	219.068	80.003	19.995	103.858	19.835	9.478	0.508
275.000	219.325	80.001	19.994	103.858	19.834	9.573	0.464
275.500	219.591	80.002	19.995	103.859	19.834	9.549	0.491
276.000	219.827	80.002	19.995	103.859	19.831	9.785	0.512
276.500	220.042	80.001	19.995	103.859	19.832	9.718	0.477
277.000	220.300	80.000	19.994	103.862	19.831	9.749	0.462
277.500	220.598	80.001	19.994	103.870	19.831	9.772	0.514
278.000	220.831	79.999	19.995	103.876	19.828	9.961	0.543
278.500	221.104	80.001	19.995	103.883	19.834	9.533	0.519
279.001	221.317	80.002	19.994	103.889	19.828	10.013	0.496
279.500	221.591	80.001	19.994	103.888	19.831	9.770	0.487
280.000	221.838	80.001	19.994	103.887	19.831	9.764	0.504
280.500	222.094	80.001	19.994	103.888	19.826	10.101	0.512
281.000	222.325	80.000	19.994	103.888	19.834	9.538	0.495
281.500	222.610	80.000	19.995	103.882	19.833	9.600	0.501
282.000	222.872	80.002	19.995	103.885	19.834	9.571	0.532
282.500	223.136	80.001	19.994	103.886	19.835	9.440	0.537
283.000	223.391	80.002	19.995	103.886	19.833	9.627	0.522
283.500	223.634	80.001	19.994	103.887	19.832	9.679	0.508
284.000	223.893	80.000	19.994	103.895	19.835	9.481	0.500
284.500	224.137	79.999	19.994	103.899	19.833	9.614	0.503
285.000	224.409	80.001	19.995	103.899	19.834	9.539	0.509
285.500	224.667	80.002	19.995	103.892	19.834	9.506	0.522
286.000	224.915	80.001	19.994	103.884	19.832	9.654	0.518
286.500	225.134	80.000	19.995	103.877	19.833	9.591	0.487
287.000	225.410	79.999	19.995	103.870	19.834	9.512	0.481
287.500	225.673	80.000	19.994	103.861	19.835	9.479	0.517
288.000	225.913	80.001	19.994	103.859	19.834	9.518	0.521
288.500	226.161	80.001	19.995	103.859	19.834	9.545	0.495
289.000	226.428	80.002	19.994	103.859	19.834	9.510	0.502
289.500	226.681	79.999	19.994	103.858	19.834	9.525	0.518
290.000	226.941	80.001	19.994	103.858	19.836	9.408	0.516
290.500	227.181	80.000	19.994	103.858	19.838	9.275	0.506
291.000	227.427	80.000	19.994	103.859	19.833	9.645	0.493
291.500	227.640	80.000	19.995	103.860	19.838	9.250	0.473
292.000	227.894	80.000	19.995	103.866	19.835	9.492	0.463
292.500	228.141	80.001	19.996	103.869	19.833	9.587	0.484
293.000	228.430	79.999	19.994	103.869	19.835	9.458	0.518
293.500	228.681	80.000	19.994	103.869	19.834	9.529	0.538
294.000	228.903	79.999	19.995	103.867	19.837	9.298	0.506
294.500	229.194	79.999	19.994	103.862	19.833	9.631	0.493
295.000	229.490	80.001	19.995	103.861	19.834	9.537	0.550
295.500	229.738	80.000	19.996	103.861	19.837	9.286	0.566
296.000	229.978	80.001	19.995	103.861	19.833	9.625	0.516
296.500	230.256	80.002	19.995	103.862	19.835	9.444	0.503
297.000	230.503	80.000	19.996	103.863	19.833	9.602	0.521
297.500	230.753	80.002	19.995	103.863	19.836	9.356	0.511
298.000	230.977	80.001	19.996	103.862	19.835	9.439	0.486
298.500	231.256	79.999	19.995	103.862	19.837	9.346	0.489
299.000	231.543	80.001	19.996	103.862	19.835	9.447	0.534
299.500	231.799	80.000	19.995	103.861	19.833	9.608	0.555
300.000	232.008	80.001	19.995	103.861	19.835	9.481	0.504
300.500	232.295	79.999	19.995	103.861	19.834	9.556	0.480
301.001	232.524	80.000	19.995	103.863	19.835	9.431	0.506
301.500	232.781	79.997	19.996	103.862	19.836	9.421	0.501
302.000	233.062	80.000	19.994	103.863	19.835	9.482	0.512
302.500	233.282	79.998	19.995	103.863	19.842	8.949	0.520
303.000	233.552	80.000	19.996	103.863	19.834	9.522	0.496
303.500	233.780	79.998	19.995	103.861	19.834	9.566	0.494
304.000	234.059	80.000	19.996	103.861	19.836	9.359	0.502
304.500	234.293	79.999	19.995	103.863	19.839	9.197	0.510
305.000	234.576	80.001	19.994	103.863	19.836	9.407	0.515
305.500	234.813	80.000	19.995	103.864	19.839	9.151	0.518
306.000	235.054	80.000	19.995	103.864	19.837	9.288	0.499
306.500	235.307	80.000	19.995	103.864	19.839	9.128	0.486
307.000	235.539	79.999	19.994	103.862	19.839	9.184	0.490
307.500	235.817	79.999	19.994	103.863	19.836	9.380	0.498
308.000	236.068	80.000	19.994	103.863	19.836	9.415	0.519
308.500	236.331	79.997	19.995	103.862	19.839	9.130	0.521
309.000	236.568	79.999	19.994	103.862	19.839	9.167	0.507
309.500	236.758	79.997	19.994	103.859	19.838	9.240	0.464
310.000	237.058	80.000	19.994	103.858	19.839	9.156	0.459
310.500	237.314	79.999	19.993	103.858	19.834	9.509	0.523
311.000	237.568	79.999	19.994	103.859	19.840	9.107	0.533
311.500	237.825	80.000	19.994	103.860	19.835	9.460	0.511
312.000	238.101	80.000	19.994	103.865	19.837	9.296	0.522
312.500	238.291	80.001	19.995	103.868	19.840	9.080	0.499
313.000	238.544	80.000	19.993	103.869	19.840	9.076	0.454
313.500	238.782	80.000	19.994	103.868	19.840	9.078	0.467
314.000	239.037	80.002	19.994	103.874	19.840	9.081	0.492
314.500	239.297	80.001	19.994	103.877	19.840	9.122	0.504
315.000	239.591	80.001	19.994	103.875	19.840	9.060	0.534
315.500	239.783	80.001	19.994	103.874	19.843	8.850	0.520
316.000	240.038	80.002	19.994	103.875	19.844	8.792	0.466
316.500	240.318	80.000	19.995	103.873	19.845	8.721	0.491
317.000	240.523	80.000	19.994	103.869	19.844	8.827	0.510
317.500	240.793	80.000	19.994	103.869	19.847	8.572	0.480
318.000	241.032	80.000	19.992	103.869	19.848	8.509	0.493
318.500	241.246	80.000	19.994	103.867	19.847	8.555	0.481
319.000	241.492	80.002	19.995	103.864	19.844	8.785	0.456
319.500	241.776	80.004	19.995	103.862	19.846	8.635	0.495
320.000	242.050	80.001	19.993	103.861	19.843	8.866	0.544
320.501	242.295	80.003	19.995	103.860	19.845	8.743	0.538
321.001	242.543	80.003	19.995	103.852	19.843	8.858	0.506
321.500	242.807	80.002	19.994	103.847	19.846	8.642	0.503
322.000	243.061	80.003	19.995	103.841	19.846	8.645	0.515
322.500	243.277	80.002	19.994	103.839	19.845	8.686	0.494
323.000	243.560	80.003	19.995	103.837	19.846	8.659	0.485
323.500	243.801	80.001	19.994	103.840	19.843	8.861	0.511
324.000	244.022	80.003	19.994	103.844	19.847	8.543	0.492
324.500	244.274	80.001	19.993	103.847	19.843	8.882	0.467
325.000	244.537	80.002	19.994	103.849	19.848	8.484	0.495
325.500	244.707	80.002	19.994	103.851	19.849	8.447	0.475
326.000	244.999	80.001	19.994	103.855	19.851	8.245	0.447
326.500	245.227	80.003	19.994	103.856	19.847	8.564	0.491
327.000	245.502	80.003	19.994	103.857	19.849	8.420	0.512
327.500	245.755	80.002	19.994	103.856	19.850	8.357	0.516
328.000	246.023	80.001	19.995	103.855	19.851	8.270	0.524
328.500	246.234	80.000	19.995	103.858	19.850	8.346	0.500
329.000	246.515	80.002	19.994	103.860	19.851	8.252	0.486
329.500	246.748	80.000	19.995	103.856	19.850	8.374	0.503
330.000	247.014	80.001	19.996	103.850	19.850	8.318	0.506
330.500	247.250	80.005	19.994	103.848	19.849	8.414	0.500
331.000	247.491	80.002	19.994	103.846	19.849	8.406	0.490
331.500	247.759	80.000	19.994	103.845	19.851	8.286	0.493
332.000	247.989	80.004	19.995	103.849	19.848	8.509	0.504
332.500	248.270	80.003	19.995	103.857	19.849	8.401	0.505
333.000	248.467	80.001	19.995	103.860	19.852	8.189	0.495
333.500	248.734	80.001	19.994	103.858	19.856	7.898	0.471
334.000	248.977	80.004	19.994	103.858	19.856	7.900	0.487
334.500	249.214	80.001	19.995	103.857	19.858	7.783	0.495
335.000	249.506	80.000	19.995	103.859	19.854	8.056	0.505
335.500	249.739	80.002	19.994	103.867	19.859	7.692	0.527
336.000	249.990	80.003	19.994	103.876	19.862	7.476	0.505
336.500	250.277	80.002	19.995	103.881	19.858	7.750	0.511
337.000	250.509	80.001	19.995	103.884	19.858	7.784	0.528
337.500	250.783	80.002	19.994	103.889	19.860	7.607	0.512
338.000	251.001	80.003	19.994	103.884	19.859	7.666	0.499
338.500	251.265	80.002	19.993	103.873	19.863	7.366	0.487
339.000	251.543	80.002	19.994	103.861	19.863	7.364	0.512
339.500	251.742	80.002	19.994	103.850	19.863	7.389	0.509
340.000	252.001	80.004	19.995	103.835	19.866	7.153	0.467
340.500	252.271	80.002	19.993	103.829	19.866	7.177	0.494
341.000	252.515	80.002	19.993	103.829	19.864	7.273	0.522
341.500	252.745	80.002	19.993	103.834	19.863	7.354	0.494
342.000	252.988	80.003	19.993	103.842	19.863	7.367	0.474
342.500	253.263	80.003	19.994	103.850	19.864	7.338	0.495
343.000	253.477	80.005	19.994	103.853	19.866	7.175	0.503
343.500	253.752	80.001	19.993	103.856	19.866	7.146	0.489
344.000	253.936	80.004	19.993	103.856	19.871	6.747	0.474
344.500	254.196	80.003	19.993	103.855	19.865	7.192	0.452
345.000	254.449	80.004	19.992	103.855	19.870	6.820	0.479
345.500	254.679	80.004	19.993	103.855	19.868	7.020	0.498
346.000	254.929	80.003	19.994	103.855	19.872	6.728	0.481
346.500	255.194	80.003	19.993	103.858	19.871	6.761	0.497
347.000	255.415	80.006	19.993	103.859	19.874	6.563	0.500
347.500	255.704	80.004	19.993	103.859	19.875	6.503	0.498
348.000	255.966	80.004	19.994	103.861	19.877	6.336	0.531
348.500	256.169	80.002	19.994	103.866	19.875	6.469	0.509
349.000	256.466	80.005	19.992	103.871	19.875	6.455	0.482
349.500	256.710	80.004	19.993	103.873	19.876	6.395	0.520
350.000	256.923	80.004	19.993	103.873	19.873	6.609	0.499
350.500	257.168	80.003	19.995	103.866	19.877	6.343	0.458
351.000	257.389	80.004	19.994	103.856	19.874	6.572	0.462
351.500	257.659	80.004	19.992	103.849	19.877	6.326	0.478
352.000	257.966	80.002	19.994	103.843	19.877	6.342	0.534
352.500	258.190	80.002	19.993	103.840	19.879	6.187	0.554
353.000	258.422	80.001	19.993	103.847	19.879	6.216	0.494
353.500	258.702	79.999	19.994	103.849	19.878	6.227	0.484
354.000	258.920	80.000	19.993	103.847	19.876	6.385	0.505
354.500	259.178	80.002	19.994	103.848	19.879	6.194	0.488
355.000	259.426	80.002	19.993	103.851	19.881	6.040	0.491
355.500	259.698	80.001	19.993	103.851	19.880	6.125	0.513
356.000	259.904	79.999	19.995	103.852	19.881	6.036	0.498
356.500	260.164	79.999	19.994	103.855	19.881	6.045	0.472
357.000	260.383	80.001	19.994	103.851	19.887	5.620	0.473
357.500	260.649	80.003	19.995	103.846	19.884	5.842	0.482
358.000	260.888	80.002	19.995	103.841	19.887	5.586	0.495
358.500	261.139	80.001	19.994	103.836	19.884	5.848	0.498
359.000	261.417	79.999	19.997	103.831	19.887	5.582	0.510
359.500	261.635	80.000	19.994	103.829	19.887	5.624	0.512
360.000	261.897	80.000	19.995	103.832	19.891	5.314	0.487
360.500	262.162	80.002	19.994	103.835	19.887	5.606	0.503
361.001	262.425	80.001	19.995	103.839	19.890	5.344	0.528
361.501	262.658	80.000	19.995	103.839	19.884	5.805	0.512
362.000	262.875	80.000	19.995	103.839	19.885	5.734	0.473
362.500	263.137	79.999	19.994	103.834	19.889	5.434	0.464
363.000	263.379	80.000	19.995	103.832	19.889	5.422	0.491
363.500	263.642	80.004	19.995	103.835	19.893	5.172	0.504
364.000	263.874	80.001	19.994	103.841	19.889	5.434	0.500
364.500	264.095	80.000	19.995	103.848	19.889	5.411	0.474
365.000	264.358	80.000	19.995	103.849	19.892	5.210	0.469
365.500	264.594	80.001	19.994	103.852	19.894	5.075	0.491
366.000	264.841	80.002	19.994	103.854	19.891	5.256	0.491
366.500	265.119	80.002	19.995	103.855	19.894	5.067	0.504
367.000	265.362	80.000	19.995	103.857	19.893	5.123	0.523
367.500	265.586	80.001	19.996	103.863	19.897	4.848	0.494
368.000	265.831	80.000	19.994	103.858	19.894	5.042	0.468
368.500	266.084	80.000	19.995	103.850	19.894	5.091	0.484
369.000	266.336	80.001	19.994	103.849	19.891	5.279	0.501
369.500	266.558	80.000	19.995	103.847	19.890	5.366	0.489
370.000	266.800	79.999	19.995	103.847	19.895	5.017	0.469
370.500	267.112	80.000	19.995	103.852	19.892	5.235	0.509
371.000	267.313	80.001	19.994	103.858	19.894	5.059	0.534
371.500	267.587	80.000	19.995	103.859	19.890	5.354	0.494
372.000	267.816	80.000	19.994	103.860	19.895	4.984	0.489
372.500	268.064	80.002	19.994	103.860	19.895	4.963	0.490
373.000	268.355	79.999	19.994	103.854	19.891	5.314	0.508
373.500	268.571	80.001	19.996	103.847	19.894	5.089	0.524
374.000	268.814	79.999	19.994	103.843	19.890	5.380	0.483
374.500	269.068	80.001	19.995	103.839	19.894	5.075	0.478
375.000	269.306	80.002	19.995	103.837	19.895	4.996	0.495
375.500	269.526	80.000	19.993	103.844	19.892	5.220	0.475
376.000	269.839	80.000	19.994	103.851	19.890	5.341	0.495
376.500	270.082	80.002	19.994	103.855	19.890	5.341	0.545
377.000	270.324	80.001	19.995	103.858	19.896	4.927	0.521
377.500	270.596	80.000	19.995	103.859	19.893	5.150	0.499
378.000	270.867	80.001	19.993	103.857	19.889	5.437	0.528
378.500	271.108	79.998	19.993	103.856	19.893	5.168	0.528
379.000	271.339	80.000	19.995	103.850	19.894	5.062	0.492
379.500	271.618	80.000	19.996	103.850	19.890	5.368	0.491
380.000	271.825	80.002	19.995	103.850	19.891	5.318	0.498
380.500	272.100	80.000	19.993	103.852	19.893	5.133	0.484
381.000	272.356	80.001	19.995	103.854	19.895	5.029	0.506
381.500	272.589	80.002	19.996	103.858	19.893	5.162	0.510
382.000	272.835	80.002	19.996	103.860	19.896	4.904	0.484
382.500	273.081	80.000	19.995	103.860	19.893	5.131	0.486
383.000	273.337	79.999	19.995	103.856	19.891	5.291	0.498
383.500	273.614	80.002	19.995	103.854	19.891	5.287	0.518
384.000	273.833	80.003	19.996	103.854	19.888	5.487	0.514
384.500	274.070	80.001	19.995	103.849	19.889	5.464	0.476
385.000	274.310	80.002	19.996	103.847	19.890	5.380	0.467
385.500	274.581	80.000	19.996	103.850	19.887	5.592	0.494
386.000	274.820	79.999	19.995	103.851	19.884	5.830	0.510
386.500	275.023	80.000	19.996	103.850	19.887	5.587	0.476
387.000	275.316	80.001	19.995	103.854	19.883	5.911	0.469
387.500	275.575	79.999	19.996	103.851	19.884	5.792	0.524
388.000	275.785	80.000	19.994	103.848	19.881	6.048	0.511
388.500	276.030	80.000	19.996	103.848	19.880	6.118	0.462
389.000	276.313	80.000	19.996	103.848	19.879	6.193	0.491
389.500	276.549	79.999	19.994	103.843	19.877	6.338	0.523
390.000	276.776	80.001	19.996	103.843	19.879	6.187	0.491
390.500	277.030	80.001	19.996	103.843	19.878	6.247	0.472
391.000	277.290	79.999	19.995	103.842	19.873	6.642	0.497
391.500	277.515	80.000	19.995	103.840	19.875	6.484	0.499
392.000	277.779	80.001	19.996	103.841	19.874	6.534	0.487
392.500	278.052	79.999	19.995	103.842	19.879	6.205	0.513
393.000	278.282	80.002	19.996	103.846	19.875	6.515	0.520
393.500	278.510	80.000	19.995	103.846	19.875	6.473	0.480
394.000	278.789	80.001	19.995	103.848	19.870	6.889	0.482
394.500	279.046	79.999	19.995	103.849	19.866	7.125	0.522
395.000	279.279	80.003	19.994	103.849	19.867	7.084	0.513
395.500	279.569	80.002	19.994	103.849	19.871	6.749	0.506
396.000	279.793	80.000	19.994	103.846	19.865	7.221	0.518
396.500	280.057	80.001	19.995	103.846	19.865	7.225	0.501
397.000	280.289	80.001	19.995	103.850	19.867	7.044	0.492
397.500	280.535	80.002	19.995	103.853	19.862	7.443	0.487
398.000	280.784	80.001	19.994	103.847	19.862	7.422	0.487
398.500	281.035	80.003	19.995	103.844	19.862	7.485	0.498
399.000	281.249	80.003	19.996	103.840	19.856	7.868	0.482
399.500	281.485	80.003	19.995	103.837	19.861	7.490	0.457
400.000	281.708	80.002	19.994	103.834	19.863	7.359	0.455
400.500	281.956	80.005	19.995	103.833	19.864	7.332	0.465
401.000	282.216	80.002	19.995	103.833	19.858	7.746	0.490
401.500	282.442	80.002	19.994	103.833	19.861	7.498	0.497
402.000	282.723	80.002	19.994	103.835	19.857	7.859	0.496
402.500	282.971	80.002	19.993	103.833	19.858	7.770	0.518
403.000	283.199	80.003	19.993	103.836	19.858	7.741	0.503
403.500	283.471	80.004	19.994	103.835	19.857	7.793	0.488
404.000	283.685	80.003	19.994	103.834	19.856	7.912	0.493
404.500	283.910	80.002	19.995	103.831	19.854	8.057	0.462
405.000	284.180	80.002	19.993	103.834	19.857	7.816	0.467
405.501	284.441	80.002	19.993	103.838	19.856	7.882	0.513
406.000	284.703	80.005	19.993	103.845	19.857	7.813	0.527
406.500	284.960	80.001	19.995	103.850	19.859	7.704	0.521
407.000	285.188	80.003	19.994	103.850	19.856	7.860	0.502
407.500	285.410	80.001	19.994	103.851	19.853	8.106	0.468
408.000	285.667	80.002	19.993	103.847	19.852	8.172	0.465
408.500	285.892	80.001	19.994	103.844	19.857	7.858	0.480
409.000	286.148	80.002	19.994	103.843	19.850	8.345	0.481
409.500	286.379	80.003	19.995	103.846	19.852	8.218	0.484
410.000	286.651	79.999	19.994	103.848	19.844	8.758	0.495
410.500	286.895	80.003	19.994	103.853	19.850	8.355	0.510
411.000	287.163	80.002	19.995	103.856	19.846	8.618	0.514
411.500	287.404	80.001	19.993	103.857	19.847	8.552	0.510
412.000	287.656	80.002	19.994	103.856	19.847	8.556	0.501
412.500	287.866	80.003	19.993	103.851	19.843	8.885	0.477
413.000	288.145	80.000	19.993	103.846	19.840	9.101	0.476
413.500	288.394	80.004	19.993	103.843	19.839	9.149	0.509
414.000	288.645	80.002	19.995	103.841	19.844	8.774	0.514
414.500	288.899	80.003	19.994	103.845	19.845	8.684	0.502
415.000	289.145	80.001	19.994	103.847	19.844	8.778	0.502
415.500	289.396	80.004	19.994	103.845	19.841	9.001	0.498
416.000	289.610	80.002	19.995	103.843	19.838	9.245	0.481
416.500	289.897	80.002	19.994	103.839	19.840	9.089	0.483
417.000	290.163	80.000	19.993	103.831	19.839	9.133	0.527
417.500	290.398	80.002	19.995	103.827	19.836	9.410	0.527
418.000	290.649	80.002	19.994	103.827	19.837	9.297	0.493
418.500	290.924	80.001	19.993	103.831	19.834	9.547	0.506
419.000	291.197	80.003	19.994	103.830	19.833	9.615	0.537
419.500	291.435	80.004	19.993	103.830	19.829	9.939	0.529
420.000	291.677	80.003	19.994	103.831	19.828	10.001	0.495
420.500	291.971	80.004	19.994	103.831	19.831	9.755	0.508
421.000	292.223	80.004	19.994	103.826	19.831	9.753	0.541
421.500	292.457	80.004	19.993	103.829	19.826	10.146	0.516
422.000	292.705	80.005	19.993	103.835	19.824	10.252	0.484
422.500	292.947	80.003	19.994	103.841	19.824	10.311	0.486
423.000	293.212	80.003	19.993	103.848	19.823	10.331	0.498
423.500	293.419	80.005	19.994	103.853	19.828	10.000	0.489
424.000	293.685	80.003	19.993	103.851	19.823	10.342	0.473
424.500	293.929	80.004	19.994	103.845	19.825	10.183	0.492
425.001	294.171	80.004	19.994	103.840	19.822	10.453	0.498
425.501	294.418	80.006	19.994	103.836	19.820	10.545	0.488
426.000	294.665	80.004	19.993	103.837	19.819	10.657	0.492
426.500	294.923	80.003	19.994	103.843	19.818	10.740	0.499
427.000	295.209	80.004	19.992	103.850	19.818	10.701	0.525
427.500	295.426	80.003	19.993	103.852	19.814	11.012	0.524
428.000	295.696	80.004	19.994	103.856	19.812	11.182	0.495
428.500	295.914	80.002	19.993	103.857	19.813	11.122	0.487
429.000	296.203	80.005	19.994	103.856	19.812	11.208	0.497
429.500	296.438	80.004	19.994	103.855	19.810	11.312	0.516
430.000	296.665	80.002	19.994	103.851	19.806	11.595	0.493
430.500	296.910	80.003	19.994	103.844	19.805	11.672	0.466
431.000	297.109	80.003	19.994	103.836	19.807	11.530	0.458
431.500	297.384	80.004	19.995	103.830	19.805	11.671	0.459
432.000	297.627	80.001	19.994	103.830	19.799	12.123	0.496
432.500	297.868	80.003	19.994	103.833	19.803	11.854	0.501
433.000	298.128	80.000	19.994	103.838	19.801	11.962	0.493
433.500	298.365	80.000	19.994	103.845	19.801	11.979	0.499
434.000	298.603	80.003	19.994	103.852	19.801	12.014	0.486
434.500	298.873	80.002	19.994	103.854	19.797	12.268	0.491
435.000	299.092	80.000	19.994	103.856	19.792	12.669	0.499
435.500	299.319	80.000	19.994	103.855	19.795	12.430	0.468
436.000	299.589	80.003	19.994	103.852	19.795	12.457	0.471
436.500	299.800	80.003	19.993	103.851	19.790	12.809	0.489
437.000	300.089	80.003	19.994	103.850	19.788	12.932	0.490
437.500	300.325	80.003	19.994	103.851	19.786	13.125	0.512
438.000	300.578	80.002	19.992	103.856	19.785	13.210	0.507
438.500	300.854	80.002	19.994	103.859	19.783	13.343	0.509
439.000	301.086	80.002	19.994	103.861	19.781	13.511	0.518
439.500	301.342	79.999	19.993	103.863	19.779	13.646	0.498
440.000	301.571	80.001	19.994	103.865	19.773	14.093	0.487
440.500	301.778	80.001	19.994	103.865	19.777	13.802	0.461
441.000	302.060	80.000	19.994	103.865	19.777	13.765	0.462
441.500	302.276	79.999	19.995	103.864	19.769	14.341	0.493
442.000	302.511	80.000	19.994	103.864	19.771	14.250	0.474
442.500	302.761	80.003	19.995	103.863	19.768	14.455	0.468
443.000	302.985	80.003	19.994	103.862	19.767	14.534	0.479
443.500	303.254	80.002	19.994	103.862	19.760	15.015	0.483
444.000	303.514	80.004	19.994	103.860	19.760	15.034	0.511
444.500	303.721	80.002	19.995	103.859	19.757	15.284	0.498
445.000	303.964	80.002	19.994	103.859	19.757	15.238	0.458
445.500	304.230	80.003	19.995	103.859	19.757	15.259	0.480
446.000	304.458	80.001	19.995	103.859	19.751	15.694	0.501
446.500	304.689	80.000	19.995	103.860	19.747	15.991	0.476
447.000	304.958	80.002	19.995	103.860	19.748	15.947	0.479
447.500	305.167	80.001	19.995	103.860	19.746	16.072	0.489
448.000	305.409	80.004	19.995	103.860	19.743	16.313	0.465
448.500	305.673	80.000	19.995	103.860	19.740	16.575	0.478
449.000	305.920	80.000	19.995	103.859	19.734	16.950	0.508
449.500	306.205	80.003	19.995	103.857	19.732	17.129	0.522
450.000	306.417	80.002	19.995	103.855	19.727	17.535	0.515
450.500	306.677	80.003	19.995	103.852	19.725	17.691	0.484
451.000	306.931	80.002	19.994	103.852	19.719	18.074	0.493
451.500	307.137	80.002	19.995	103.852	19.715	18.422	0.487
452.000	307.389	80.004	19.995	103.853	19.717	18.251	0.459
452.500	307.611	80.000	19.993	103.854	19.712	18.656	0.466
453.000	307.894	80.002	19.994	103.854	19.707	19.026	0.489
453.500	308.101	80.000	19.995	103.853	19.705	19.174	0.497
454.000	308.341	80.002	19.995	103.854	19.703	19.320	0.469
454.500	308.597	80.002	19.995	103.854	19.702	19.349	0.472
455.000	308.821	80.002	19.996	103.855	19.691	20.211	0.488
455.500	309.095	80.000	19.995	103.857	19.690	20.263	0.489
456.000	309.313	80.000	19.995	103.858	19.684	20.739	0.495
456.500	309.568	80.004	19.995	103.858	19.676	21.325	0.483
457.000	309.795	80.002	19.995	103.859	19.676	21.310	0.478
457.500	310.060	79.999	19.994	103.859	19.672	21.580	0.487
458.000	310.288	80.003	19.994	103.857	19.670	21.778	0.492
458.500	310.520	80.000	19.995	103.856	19.668	21.930	0.476
459.000	310.813	80.001	19.996	103.855	19.658	22.623	0.492
459.500	311.082	80.002	19.996	103.855	19.656	22.785	0.543
460.000	311.281	80.001	19.995	103.855	19.650	23.236	0.515
460.500	311.561	80.001	19.994	103.860	19.644	23.673	0.474
461.000	311.815	80.003	19.995	103.861	19.640	23.998	0.507
461.500	312.024	80.001	19.994	103.864	19.635	24.339	0.498
462.000	312.318	80.002	19.994	103.864	19.632	24.602	0.483
462.500	312.535	80.000	19.994	103.865	19.631	24.666	0.507
463.000	312.806	80.001	19.994	103.863	19.619	25.535	0.500
463.500	313.010	80.002	19.994	103.863	19.619	25.593	0.482
464.000	313.262	80.001	19.995	103.862	19.614	25.906	0.465
464.500	313.485	80.000	19.994	103.862	19.606	26.492	0.466
465.000	313.748	80.000	19.995	103.863	19.602	26.823	0.481
465.500	313.984	79.999	19.995	103.865	19.596	27.242	0.492
466.000	314.223	79.997	19.996	103.866	19.590	27.706	0.486
466.500	314.465	80.001	19.996	103.866	19.583	28.271	0.478
467.000	314.684	80.000	19.996	103.865	19.581	28.368	0.471
467.500	314.944	79.998	19.995	103.864	19.572	29.053	0.470
468.000	315.212	80.000	19.995	103.861	19.568	29.349	0.504
468.500	315.446	80.001	19.995	103.860	19.562	29.792	0.515
469.000	315.708	79.999	19.994	103.860	19.556	30.263	0.499
469.500	315.942	80.002	19.996	103.860	19.551	30.621	0.496
470.000	316.169	80.002	19.996	103.861	19.543	31.236	0.478
470.500	316.432	80.000	19.995	103.861	19.533	31.989	0.475
471.000	316.624	80.002	19.995	103.861	19.529	32.303	0.473
471.500	316.901	79.999	19.995	103.861	19.521	32.832	0.462
472.000	317.137	80.002	19.995	103.861	19.516	33.242	0.490
472.500	317.393	80.000	19.996	103.862	19.503	34.201	0.502
473.000	317.622	80.001	19.995	103.867	19.495	34.787	0.489
473.500	317.878	80.005	19.995	103.874	19.495	34.813	0.485
474.000	318.099	80.002	19.995	103.878	19.487	35.382	0.481
474.500	318.325	80.002	19.994	103.885	19.479	35.985	0.462
475.000	318.578	80.001	19.995	103.888	19.469	36.744	0.463
475.500	318.853	80.001	19.996	103.885	19.461	37.341	0.503
476.000	319.070	80.003	19.996	103.886	19.453	37.975	0.509
476.500	319.310	80.003	19.996	103.889	19.454	37.887	0.474
477.000	319.561	80.002	19.996	103.890	19.441	38.837	0.474
477.500	319.802	80.002	19.995	103.893	19.435	39.319	0.492
478.000	320.092	80.003	19.995	103.900	19.423	40.154	0.511
478.500	320.303	80.001	19.994	103.903	19.417	40.642	0.516
479.000	320.576	80.002	19.996	103.903	19.406	41.415	0.493
479.500	320.815	80.002	19.995	103.903	19.402	41.761	0.498
480.000	321.039	80.002	19.995	103.903	19.393	42.449	0.488
480.500	321.285	80.003	19.996	103.903	19.385	43.001	0.467
481.000	321.560	80.004	19.996	103.901	19.375	43.783	0.496
481.500	321.808	80.001	19.995	103.901	19.364	44.617	0.522
482.000	322.052	80.003	19.996	103.901	19.354	45.315	0.507
482.500	322.278	80.003	19.995	103.901	19.342	46.248	0.481
483.000	322.518	80.001	19.996	103.903	19.336	46.687	0.468
483.500	322.784	80.004	19.996	103.906	19.324	47.553	0.487
484.000	323.037	80.002	19.995	103.910	19.317	48.114	0.513
484.500	323.232	80.001	19.995	103.914	19.310	48.609	0.483
485.000	323.546	80.003	19.994	103.916	19.299	49.462	0.478
485.500	323.741	80.003	19.996	103.916	19.292	49.987	0.509
486.000	323.987	80.001	19.994	103.918	19.277	51.032	0.476
486.500	324.250	80.004	19.994	103.918	19.270	51.599	0.475
487.000	324.472	80.001	19.994	103.921	19.260	52.307	0.496
487.500	324.719	80.001	19.995	103.925	19.250	53.067	0.477
488.000	325.000	80.004	19.995	103.929	19.247	53.315	0.499
488.500	325.212	80.002	19.995	103.931	19.237	54.057	0.511
489.000	325.462	80.001	19.995	103.931	19.223	55.132	0.477
489.500	325.681	80.003	19.994	103.930	19.207	56.286	0.465
490.000	325.920	80.002	19.993	103.927	19.202	56.659	0.464
490.500	326.220	80.002	19.995	103.928	19.189	57.682	0.499
491.000	326.474	80.004	19.994	103.930	19.179	58.416	0.546
491.500	326.688	80.003	19.993	103.932	19.163	59.574	0.511
492.000	326.990	80.000	19.993	103.935	19.157	60.010	0.492
492.500	327.199	80.002	19.994	103.937	19.144	61.006	0.513
493.000	327.416	80.001	19.993	103.935	19.133	61.787	0.468
493.500	327.669	80.003	19.994	103.935	19.121	62.701	0.448
494.000	327.932	80.003	19.994	103.935	19.109	63.577	0.493
494.500	328.163	80.001	19.996	103.936	19.098	64.402	0.505
495.000	328.393	80.004	19.994	103.938	19.090	65.005	0.478
495.500	328.638	80.001	19.994	103.941	19.077	66.011	0.468
496.000	328.874	80.002	19.994	103.941	19.067	66.779	0.478
496.500	329.136	80.003	19.993	103.941	19.054	67.720	0.490
497.000	329.386	80.003	19.994	103.942	19.043	68.551	0.505
497.500	329.623	80.004	19.993	103.942	19.031	69.429	0.499
498.000	329.895	80.002	19.993	103.943	19.020	70.276	0.498
498.500	330.105	80.000	19.994	103.943	19.003	71.553	0.496
499.000	330.409	80.002	19.994	103.944	18.994	72.213	0.498
499.500	330.638	80.004	19.995	103.950	18.981	73.195	0.523
500.000	330.875	80.003	19.993	103.958	18.961	74.619	0.499
500.500	331.081	80.006	19.993	103.963	18.949	75.583	0.455
501.000	331.392	80.003	19.993	103.967	18.940	76.247	0.480
501.500	331.627	80.003	19.995	103.969	18.923	77.505	0.531
502.000	331.912	80.005	19.993	103.965	18.913	78.210	0.533
502.500	332.170	80.002	19.995	103.964	18.901	79.136	0.532
503.000	332.390	80.004	19.993	103.965	18.894	79.631	0.511
503.500	332.643	80.003	19.993	103.967	18.876	80.980	0.475
504.000	332.902	80.002	19.994	103.968	18.862	82.041	0.492
504.500	333.128	80.005	19.994	103.967	18.849	82.998	0.498
505.000	333.371	80.003	19.994	103.967	18.831	84.376	0.477
505.500	333.606	80.005	19.993	103.967	18.824	84.872	0.474
506.000	333.871	80.003	19.995	103.968	18.812	85.804	0.489
506.500	334.188	80.003	19.994	103.972	18.796	86.979	0.541
507.000	334.427	80.006	19.994	103.978	18.786	87.737	0.569
507.500	334.668	80.003	19.993	103.978	18.774	88.635	0.519
508.000	334.909	80.005	19.994	103.979	18.760	89.661	0.481
508.500	335.168	80.002	19.994	103.978	18.747	90.664	0.491
509.000	335.366	80.003	19.994	103.977	18.735	91.553	0.478
509.500	335.646	80.003	19.993	103.976	18.723	92.442	0.467
510.000	335.907	80.003	19.994	103.977	18.709	93.487	0.509
510.500	336.118	80.001	19.995	103.976	18.697	94.375	0.507
511.000	336.408	80.002	19.995	103.978	18.683	95.433	0.487
511.500	336.633	80.004	19.995	103.981	18.669	96.462	0.508
512.000	336.861	80.003	19.995	103.983	18.653	97.641	0.484
512.501	337.120	80.002	19.994	103.984	18.645	98.271	0.470
513.001	337.360	80.001	19.994	103.985	18.632	99.244	0.493
513.500	337.604	79.998	19.994	103.987	18.619	100.217	0.491
514.000	337.863	80.000	19.994	103.991	18.601	101.558	0.493
514.500	338.099	79.999	19.993	103.996	18.590	102.375	0.500
515.000	338.375	80.001	19.995	104.002	18.580	103.143	0.504
515.500	338.634	80.002	19.994	104.009	18.565	104.254	0.523
516.000	338.846	80.001	19.994	104.012	18.554	105.035	0.503
516.500	339.171	80.001	19.994	104.014	18.537	106.314	0.504
517.000	339.389	80.001	19.995	104.014	18.527	107.086	0.540
517.500	339.659	80.000	19.995	104.015	18.516	107.884	0.515
518.000	339.893	80.002	19.993	104.014	18.500	109.080	0.496
518.500	340.142	80.000	19.994	104.011	18.485	110.179	0.494
519.000	340.387	80.000	19.994	104.006	18.472	111.180	0.488
519.500	340.630	80.001	19.994	104.002	18.462	111.917	0.491
520.000	340.908	80.001	19.994	103.995	18.454	112.544	0.505
520.500	341.135	80.002	19.995	103.994	18.437	113.784	0.513
521.000	341.445	80.002	19.994	103.998	18.423	114.847	0.521
521.500	341.703	80.000	19.994	104.002	18.413	115.577	0.553
522.000	341.945	80.000	19.995	104.004	18.407	116.036	0.534
522.500	342.226	80.002	19.994	104.006	18.385	117.663	0.511
523.000	342.469	80.002	19.994	104.006	18.374	118.474	0.523
523.500	342.720	80.003	19.994	104.007	18.362	119.386	0.508
524.000	342.982	80.003	19.994	104.009	18.348	120.426	0.504
524.500	343.225	80.002	19.994	104.012	18.343	120.850	0.510
525.000	343.480	80.000	19.995	104.017	18.325	122.154	0.501
525.500	343.723	80.002	19.995	104.018	18.316	122.892	0.498
526.000	343.978	80.003	19.994	104.018	18.302	123.907	0.498
526.500	344.245	80.002	19.994	104.018	18.292	124.650	0.510
527.000	344.516	80.003	19.993	104.020	18.278	125.694	0.530
527.500	344.749	80.004	19.994	104.021	18.266	126.611	0.521
528.000	345.017	80.003	19.994	104.021	18.257	127.277	0.502
528.500	345.247	79.999	19.994	104.021	18.244	128.267	0.500
529.000	345.512	80.002	19.995	104.025	18.231	129.197	0.497
529.500	345.805	80.005	19.994	104.028	18.220	130.044	0.526
530.000	346.065	80.002	19.994	104.033	18.205	131.180	0.555
530.500	346.271	80.002	19.994	104.041	18.198	131.660	0.509
531.000	346.587	80.001	19.995	104.046	18.188	132.409	0.494
531.500	346.842	80.003	19.994	104.044	18.176	133.308	0.547
532.000	347.099	80.003	19.994	104.040	18.164	134.205	0.542
532.500	347.336	80.004	19.994	104.041	18.150	135.255	0.503
533.000	347.592	80.000	19.994	104.042	18.136	136.320	0.493
533.500	347.840	80.001	19.994	104.043	18.129	136.809	0.499
534.000	348.125	80.004	19.996	104.049	18.114	137.929	0.519
534.500	348.381	80.001	19.994	104.056	18.101	138.966	0.537
535.000	348.633	80.001	19.994	104.056	18.085	140.144	0.525
535.500	348.878	80.000	19.995	104.059	18.074	140.980	0.502
536.000	349.174	80.002	19.995	104.063	18.057	142.246	0.519
536.500	349.402	80.004	19.995	104.067	18.048	142.904	0.533
537.000	349.694	80.000	19.994	104.070	18.032	144.036	0.522
537.500	349.922	80.002	19.995	104.073	18.016	145.256	0.520
538.000	350.210	80.001	19.995	104.071	18.002	146.319	0.518
538.500	350.516	80.001	19.995	104.071	17.988	147.365	0.555
539.000	350.756	80.000	19.995	104.072	17.971	148.670	0.570
539.500	350.997	80.001	19.995	104.074	17.957	149.706	0.514
540.000	351.237	80.000	19.995	104.072	17.947	150.428	0.481
540.500	351.488	80.001	19.995	104.074	17.929	151.805	0.486
541.000	351.768	80.001	19.995	104.073	17.912	153.042	0.511
541.500	352.000	80.001	19.995	104.072	17.900	153.919	0.522
542.000	352.276	80.000	19.995	104.069	17.885	155.097	0.510
542.500	352.515	80.001	19.996	104.071	17.873	155.992	0.511
543.000	352.788	80.000	19.995	104.070	17.850	157.682	0.513
543.500	353.057	80.000	19.995	104.070	17.841	158.364	0.527
544.000	353.354	80.000	19.994	104.068	17.827	159.445	0.554
544.500	353.608	80.001	19.995	104.072	17.807	160.952	0.559
545.000	353.879	80.000	19.995	104.076	17.795	161.796	0.538
545.500	354.159	80.000	19.995	104.083	17.783	162.712	0.538
546.000	354.412	80.001	19.995	104.088	17.768	163.809	0.542
546.500	354.664	80.000	19.996	104.091	17.757	164.614	0.520
547.000	354.921	80.000	19.995	104.087	17.742	165.753	0.507
547.500	355.146	80.000	19.995	104.080	17.727	166.824	0.495
548.000	355.435	80.001	19.995	104.076	17.717	167.602	0.498
548.500	355.676	80.002	19.995	104.073	17.693	169.378	0.522
549.000	355.897	80.001	19.995	104.075	17.681	170.269	0.496
549.500	356.180	80.001	19.994	104.080	17.668	171.255	0.483
550.000	356.419	80.001	19.994	104.085	17.657	172.049	0.513
550.500	356.708	80.001	19.996	104.086	17.641	173.252	0.525
551.000	356.965	80.001	19.995	104.090	17.625	174.444	0.537
551.500	357.196	80.001	19.993	104.091	17.608	175.727	0.516
552.000	357.508	80.003	19.993	104.091	17.594	176.735	0.515
552.500	357.685	80.002	19.994	104.094	17.584	177.480	0.516
553.000	357.950	80.003	19.994	104.102	17.566	178.896	0.466
553.500	358.203	80.001	19.994	104.108	17.551	179.967	0.481
554.000	358.425	80.002	19.996	104.112	17.539	180.874	0.497
554.500	358.732	80.002	19.995	104.113	17.527	181.810	0.502
555.000	358.972	80.002	19.994	104.116	17.511	182.989	0.538
555.500	359.225	80.002	19.994	104.113	17.501	183.681	0.520
556.000	359.472	80.001	19.994	104.109	17.490	184.522	0.497
556.500	359.765	80.003	19.995	104.105	17.477	185.485	0.520
557.000	359.997	80.001	19.995	104.104	17.464	186.444	0.533
557.500	360.229	80.001	19.994	104.099	17.453	187.233	0.494
558.000	360.474	80.002	19.993	104.094	17.445	187.843	0.470
558.500	360.747	80.001	19.993	104.090	17.434	188.661	0.498
559.000	361.023	80.003	19.995	104.087	17.426	189.257	0.534
559.500	361.256	80.001	19.994	104.081	17.420	189.709	0.529
560.000	361.538	80.001	19.994	104.076	17.409	190.510	0.512
560.500	361.793	80.003	19.996	104.070	17.400	191.176	0.526
561.000	362.051	80.002	19.995	104.065	17.388	192.054	0.525
561.500	362.285	80.002	19.995	104.061	17.388	192.098	0.502
562.000	362.548	80.003	19.994	104.061	17.379	192.744	0.494
562.500	362.782	80.001	19.994	104.066	17.371	193.375	0.497
563.000	363.055	80.001	19.994	104.073	17.366	193.729	0.503
563.500	363.317	80.000	19.994	104.076	17.358	194.393	0.521
564.000	363.557	80.003	19.996	104.081	17.357	194.454	0.518
564.500	363.798	80.002	19.995	104.086	17.350	194.927	0.491
565.000	364.024	80.001	19.995	104.085	17.346	195.183	0.474
565.500	364.276	80.001	19.995	104.083	17.342	195.494	0.473
566.000	364.532	79.999	19.995	104.082	17.341	195.588	0.493
566.500	364.833	80.002	19.996	104.076	17.339	195.682	0.532
567.000	365.050	80.002	19.995	104.069	17.340	195.637	0.538
567.500	365.312	80.001	19.994	104.065	17.334	196.020	0.499
568.000	365.581	80.000	19.995	104.059	17.342	195.448	0.505
568.500	365.796	80.002	19.996	104.057	17.345	195.246	0.507
569.000	366.077	79.999	19.995	104.051	17.341	195.535	0.490
569.500	366.324	80.001	19.995	104.043	17.343	195.349	0.512
570.000	366.571	80.002	19.995	104.036	17.345	195.259	0.511
570.500	366.835	80.002	19.996	104.033	17.343	195.402	0.502
571.000	367.105	80.000	19.996	104.032	17.346	195.169	0.522
571.500	367.343	80.001	19.995	104.037	17.348	195.080	0.521
572.000	367.598	80.001	19.996	104.045	17.349	195.014	0.501
572.500	367.852	80.002	19.995	104.051	17.352	194.794	0.501
573.000	368.098	80.000	19.996	104.055	17.355	194.570	0.504
573.500	368.362	80.000	19.997	104.062	17.365	193.827	0.505
574.000	368.629	80.003	19.995	104.063	17.372	193.245	0.521
574.500	368.860	80.001	19.995	104.064	17.376	192.933	0.514
575.000	369.098	79.998	19.995	104.061	17.388	192.062	0.484
575.500	369.393	80.001	19.996	104.053	17.398	191.228	0.502
576.000	369.617	80.002	19.996	104.044	17.410	190.395	0.526
576.500	369.892	80.003	19.995	104.039	17.419	189.658	0.508
577.000	370.145	80.003	19.995	104.026	17.429	188.857	0.513
577.500	370.404	80.002	19.994	104.020	17.437	188.217	0.521
578.000	370.631	80.003	19.995	104.017	17.449	187.321	0.499
578.500	370.862	80.004	19.994	104.008	17.459	186.590	0.472
579.000	371.114	80.004	19.995	104.005	17.469	185.794	0.470
579.500	371.404	80.003	19.994	104.006	17.480	184.988	0.513
580.000	371.640	80.005	19.995	104.004	17.488	184.434	0.534
580.500	371.905	80.004	19.994	104.014	17.502	183.351	0.513
581.000	372.147	80.004	19.995	104.017	17.511	182.713	0.504
581.500	372.388	80.002	19.994	104.017	17.525	181.693	0.495
582.000	372.654	80.001	19.995	104.023	17.531	181.232	0.495
582.500	372.844	80.003	19.994	104.045	17.547	180.077	0.481
583.000	373.169	80.003	19.994	104.039	17.559	179.151	0.485
583.500	373.405	80.006	19.994	104.043	17.571	178.274	0.538
584.000	373.721	80.002	19.995	104.053	17.577	177.819	0.556
584.500	373.967	80.003	19.995	104.042	17.597	176.365	0.557
585.000	374.202	80.003	19.994	104.024	17.611	175.251	0.522
585.500	374.415	80.004	19.994	104.032	17.630	173.852	0.464
586.000	374.686	80.001	19.995	104.020	17.650	172.400	0.466
586.500	374.906	80.004	19.994	104.003	17.667	171.114	0.488
587.000	375.159	80.000	19.994	103.998	17.682	169.992	0.482
587.500	375.380	80.001	19.994	103.985	17.705	168.255	0.473
588.000	375.664	80.001	19.994	103.961	17.726	166.660	0.489
588.500	375.904	80.001	19.994	103.947	17.747	165.070	0.515
589.000	376.161	80.000	19.994	103.946	17.767	163.632	0.511
589.500	376.453	80.001	19.995	103.937	17.786	162.174	0.523
590.000	376.666	80.002	19.995	103.927	17.810	160.379	0.527
590.500	376.906	80.002	19.994	103.926	17.832	158.752	0.479
591.000	377.188	80.002	19.994	103.937	17.853	157.257	0.487
591.500	377.423	80.001	19.994	103.927	17.871	155.908	0.519
592.000	377.705	79.999	19.995	103.932	17.892	154.356	0.517
592.500	377.911	80.001	19.995	103.938	17.917	152.440	0.503
593.001	378.201	80.001	19.994	103.945	17.942	150.621	0.492
593.500	378.426	80.000	19.995	103.947	17.964	148.975	0.505
594.000	378.653	80.003	19.994	103.956	17.989	147.097	0.484
594.500	378.942	79.997	19.994	103.962	18.015	145.126	0.484
595.000	379.188	80.001	19.993	103.963	18.033	143.755	0.525
595.500	379.425	80.000	19.995	103.957	18.054	142.191	0.509
596.000	379.693	80.000	19.993	103.951	18.081	140.222	0.494
596.500	379.910	80.002	19.996	103.947	18.100	138.808	0.495
597.000	380.173	80.003	19.996	103.942	18.125	136.936	0.482
597.500	380.438	80.001	19.996	103.943	18.143	135.575	0.504
598.000	380.681	80.000	19.994	103.936	18.168	133.671	0.519
598.500	380.947	80.000	19.994	103.932	18.186	132.343	0.509
599.000	381.202	79.999	19.995	103.929	18.206	130.870	0.515
599.500	381.434	80.000	19.995	103.919	18.224	129.497	0.504
600.000	381.699	79.999	19.995	103.920	18.240	128.294	0.492
600.500	381.940	80.001	19.995	103.924	18.262	126.691	0.502
601.000	382.179	79.999	19.993	103.927	18.282	125.201	0.493
601.500	382.439	80.002	19.994	103.930	18.305	123.480	0.490
602.000	382.672	80.001	19.995	103.945	18.326	121.886	0.496
602.500	382.924	80.002	19.995	103.951	18.342	120.679	0.489
603.000	383.204	80.001	19.994	103.948	18.360	119.374	0.509
603.500	383.439	80.001	19.994	103.946	18.373	118.381	0.523
604.000	383.702	80.002	19.996	103.947	18.396	116.664	0.506
604.500	383.990	80.002	19.995	103.945	18.418	115.045	0.524
605.000	384.209	80.001	19.995	103.930	18.434	113.828	0.529
605.500	384.477	80.003	19.995	103.925	18.456	112.235	0.497
606.000	384.757	80.003	19.995	103.927	18.470	111.143	0.517
606.500	385.019	80.000	19.995	103.919	18.487	109.931	0.545
607.000	385.240	80.001	19.994	103.910	18.505	108.534	0.513
607.500	385.500	80.002	19.995	103.910	18.522	107.263	0.482
608.000	385.786	80.001	19.995	103.909	18.540	105.972	0.513
608.500	386.035	80.001	19.995	103.900	18.560	104.419	0.540
609.000	386.271	80.001	19.994	103.900	18.576	103.239	0.510
609.501	386.552	80.001	19.993	103.901	18.594	101.903	0.501
610.000	386.770	80.002	19.994	103.898	18.614	100.427	0.508
610.500	387.069	80.001	19.994	103.898	18.626	99.492	0.508
611.000	387.325	80.004	19.994	103.898	18.644	98.150	0.536
611.500	387.632	80.000	19.993	103.894	18.665	96.590	0.559
612.000	387.851	80.001	19.994	103.885	18.677	95.714	0.545
612.500	388.122	80.002	19.994	103.886	18.696	94.328	0.508
613.000	388.363	80.001	19.994	103.884	18.711	93.207	0.501
613.500	388.587	80.001	19.995	103.883	18.731	91.721	0.489
614.000	388.851	80.001	19.994	103.882	18.748	90.461	0.477
614.500	389.113	80.000	19.994	103.889	18.765	89.179	0.507
615.000	389.417	80.002	19.994	103.891	18.781	87.982	0.546
615.500	389.664	80.001	19.994	103.890	18.799	86.663	0.558
616.000	389.895	80.003	19.994	103.887	18.811	85.738	0.515
616.500	390.153	80.001	19.994	103.887	18.825	84.683	0.484
617.000	390.401	79.999	19.994	103.881	18.839	83.650	0.498
617.500	390.632	80.001	19.993	103.876	18.857	82.335	0.493
618.000	390.914	80.000	19.993	103.875	18.872	81.182	0.496
618.500	391.181	79.999	19.995	103.875	18.891	79.754	0.531
619.000	391.418	79.999	19.995	103.872	18.905	78.723	0.527
619.500	391.655	80.000	19.995	103.873	18.922	77.471	0.489
620.000	391.930	80.000	19.995	103.870	18.938	76.280	0.493
620.500	392.213	80.000	19.995	103.865	18.954	75.063	0.535
621.000	392.458	80.000	19.995	103.860	18.969	73.988	0.543
621.500	392.765	80.000	19.995	103.855	18.986	72.716	0.540
622.000	392.996	79.999	19.994	103.848	18.998	71.798	0.545
622.500	393.243	80.000	19.995	103.848	19.018	70.262	0.508
623.000	393.464	80.000	19.995	103.850	19.034	69.128	0.473
623.500	393.755	79.998	19.994	103.855	19.049	68.004	0.490
624.000	394.009	80.000	19.994	103.861	19.062	67.019	0.528
624.500	394.295	79.999	19.994	103.865	19.078	65.833	0.542
625.000	394.512	80.001	19.995	103.864	19.091	64.843	0.521
625.500	394.789	80.001	19.995	103.864	19.103	63.934	0.499
626.000	395.059	80.001	19.995	103.860	19.122	62.530	0.521
626.500	395.330	80.000	19.994	103.857	19.131	61.885	0.544
627.000	395.562	80.000	19.995	103.851	19.145	60.810	0.522
627.500	395.795	80.000	19.995	103.847	19.163	59.496	0.485
628.000	396.074	80.001	19.996	103.845	19.177	58.431	0.489
628.500	396.304	80.003	19.995	103.842	19.194	57.223	0.510
629.000	396.588	80.002	19.996	103.841	19.207	56.245	0.511
629.500	396.843	80.000	19.995	103.843	19.218	55.401	0.526
630.000	397.103	80.001	19.995	103.843	19.231	54.464	0.527
630.500	397.328	80.001	19.995	103.841	19.247	53.220	0.500
631.000	397.610	80.001	19.995	103.842	19.263	52.045	0.496
631.500	397.874	80.002	19.995	103.840	19.274	51.209	0.526
632.000	398.104	80.001	19.995	103.838	19.281	50.713	0.520
632.500	398.354	80.002	19.995	103.831	19.300	49.254	0.487
633.000	398.594	80.002	19.996	103.822	19.311	48.438	0.485
633.500	398.856	80.002	19.995	103.814	19.326	47.330	0.496
634.000	399.099	80.001	19.995	103.806	19.342	46.134	0.504
634.500	399.380	80.002	19.994	103.804	19.352	45.417	0.515
635.000	399.608	80.002	19.994	103.805	19.369	44.157	0.516
635.500	399.863	80.003	19.995	103.810	19.377	43.526	0.496
636.000	400.107	80.002	19.995	103.813	19.398	41.998	0.491
636.500	400.356	80.002	19.995	103.816	19.404	41.514	0.496
637.000	400.591	80.003	19.995	103.815	19.418	40.490	0.489
637.500	400.865	80.003	19.995	103.814	19.431	39.531	0.497
638.000	401.126	80.002	19.997	103.814	19.438	39.032	0.522
638.500	401.364	80.002	19.996	103.814	19.459	37.471	0.517
639.000	401.618	80.001	19.994	103.816	19.466	36.916	0.495
639.500	401.851	80.001	19.993	103.816	19.480	35.915	0.489
640.000	402.107	80.002	19.995	103.815	19.489	35.175	0.488
640.500	402.351	80.002	19.994	103.816	19.500	34.365	0.495
641.000	402.611	80.001	19.994	103.816	19.516	33.203	0.502
641.500	402.876	80.002	19.994	103.815	19.526	32.459	0.515
642.000	403.104	80.001	19.995	103.814	19.534	31.843	0.509
642.500	403.352	80.001	19.994	103.810	19.546	30.935	0.485
643.000	403.596	80.002	19.995	103.808	19.558	30.080	0.484
643.500	403.831	80.000	19.994	103.804	19.572	29.053	0.485
644.000	404.102	80.002	19.994	103.802	19.576	28.716	0.493
644.500	404.353	80.002	19.995	103.798	19.587	27.895	0.514
645.000	404.569	80.000	19.995	103.801	19.603	26.712	0.494
645.500	404.826	80.002	19.994	103.802	19.610	26.234	0.470
646.000	405.090	80.000	19.993	103.805	19.617	25.677	0.497
646.500	405.330	80.002	19.995	103.809	19.628	24.871	0.513
647.000	405.594	80.000	19.995	103.812	19.640	23.991	0.504
647.500	405.814	80.001	19.994	103.814	19.648	23.350	0.494
648.000	406.079	80.002	19.995	103.812	19.659	22.540	0.484
648.500	406.335	79.999	19.994	103.805	19.665	22.130	0.503
649.000	406.581	80.002	19.995	103.798	19.676	21.297	0.511
649.500	406.843	80.002	19.994	103.793	19.681	20.906	0.505
650.000	407.092	80.001	19.995	103.787	19.692	20.128	0.510
650.500	407.342	80.001	19.994	103.783	19.700	19.483	0.505
651.000	407.580	80.001	19.995	103.786	19.714	18.482	0.493
651.500	407.829	80.002	19.995	103.786	19.719	18.081	0.488
652.000	408.083	80.002	19.995	103.785	19.725	17.623	0.495
652.500	408.321	80.003	19.995	103.786	19.734	16.948	0.497
653.000	408.576	80.001	19.995	103.786	19.741	16.457	0.493
653.500	408.820	80.002	19.995	103.784	19.747	16.025	0.496
654.000	409.054	80.002	19.995	103.784	19.760	15.023	0.488
654.500	409.299	80.003	19.995	103.784	19.763	14.801	0.478
655.000	409.562	80.003	19.995	103.782	19.775	13.936	0.494
655.500	409.783	80.002	19.995	103.780	19.778	13.712	0.496
656.000	410.024	80.002	19.995	103.779	19.783	13.331	0.473
656.500	410.307	80.004	19.996	103.779	19.796	12.355	0.493
657.000	410.531	80.002	19.996	103.779	19.798	12.188	0.515
657.500	410.812	80.004	19.996	103.779	19.808	11.436	0.506
658.000	411.055	80.003	19.995	103.779	19.813	11.066	0.515
658.500	411.288	80.004	19.995	103.776	19.816	10.850	0.500
659.000	411.532	80.003	19.996	103.776	19.827	10.083	0.476
659.500	411.786	80.004	19.996	103.775	19.829	9.888	0.488
660.000	412.010	80.003	19.995	103.775	19.836	9.372	0.488
660.500	412.232	80.002	19.995	103.775	19.842	8.926	0.462
661.000	412.509	80.003	19.995	103.781	19.849	8.408	0.472
661.500	412.773	80.002	19.996	103.781	19.852	8.185	0.520
662.000	412.976	80.003	19.995	103.781	19.858	7.764	0.504
662.500	413.233	80.002	19.995	103.782	19.863	7.379	0.464
663.000	413.460	80.003	19.995	103.782	19.867	7.059	0.472
663.500	413.732	80.001	19.995	103.780	19.870	6.822	0.491
664.000	413.961	80.000	19.995	103.780	19.877	6.354	0.500
664.500	414.157	80.003	19.995	103.780	19.880	6.090	0.463
665.000	414.457	80.002	19.995	103.780	19.888	5.514	0.460
665.500	414.684	80.002	19.995	103.780	19.887	5.575	0.512
666.000	414.899	80.001	19.994	103.781	19.895	4.976	0.485
666.500	415.181	80.001	19.996	103.781	19.897	4.823	0.470
667.000	415.385	80.001	19.994	103.782	19.901	4.567	0.491
667.501	415.642	79.999	19.995	103.782	19.906	4.139	0.473
668.001	415.887	79.998	19.996	103.783	19.914	3.603	0.481
668.500	416.122	80.001	19.994	103.783	19.915	3.509	0.491
669.000	416.374	80.002	19.995	103.783	19.915	3.509	0.484
669.500	416.606	80.000	19.995	103.785	19.924	2.817	0.486
670.000	416.835	80.002	19.995	103.788	19.927	2.627	0.472
670.500	417.072	80.001	19.995	103.788	19.931	2.343	0.463
671.001	417.354	80.001	19.995	103.788	19.936	1.908	0.492
671.500	417.618	80.001	19.995	103.788	19.937	1.831	0.533
672.000	417.855	80.000	19.994	103.787	19.941	1.574	0.523
672.500	418.053	80.001	19.994	103.787	19.945	1.285	0.467
673.000	418.293	80.001	19.994	103.788	19.945	1.301	0.437
673.500	418.526	80.001	19.994	103.789	19.949	0.944	0.456
674.000	418.795	80.001	19.995	103.789	19.951	0.784	0.488
674.500	418.998	80.001	19.995	103.789	19.951	0.798	0.487
675.000	419.275	80.000	19.995	103.787	19.951	0.800	0.476
675.500	419.505	80.002	19.994	103.785	19.958	0.318	0.493
676.000	419.733	80.001	19.994	103.784	19.959	0.247	0.482
676.500	419.989	80.001	19.994	103.785	19.961	0.110	0.472
677.000	420.240	79.999	19.994	103.786	19.965	-0.200	0.496
677.500	420.463	80.002	19.993	103.794	19.968	-0.439	0.490
678.001	420.707	80.000	19.994	103.797	19.969	-0.513	0.470
678.500	420.980	80.002	19.995	103.796	19.975	-0.931	0.492
679.000	421.230	80.001	19.995	103.800	19.975	-0.979	0.520
679.500	421.430	80.001	19.994	103.802	19.976	-1.012	0.487
680.000	421.684	80.001	19.994	103.794	19.981	-1.393	0.452
680.500	421.930	80.003	19.994	103.791	19.986	-1.786	0.477
681.000	422.218	80.002	19.994	103.791	19.986	-1.813	0.517
681.500	422.426	80.002	19.995	103.790	19.987	-1.867	0.515
682.000	422.687	80.001	19.994	103.790	19.991	-2.179	0.482
682.500	422.937	80.000	19.994	103.792	19.992	-2.212	0.489
683.000	423.191	80.001	19.994	103.793	19.995	-2.459	0.507
683.500	423.394	80.001	19.995	103.794	19.993	-2.324	0.481
684.000	423.668	80.002	19.994	103.792	19.996	-2.565	0.467
684.500	423.917	80.001	19.995	103.789	19.997	-2.600	0.500
685.000	424.138	80.003	19.994	103.790	20.000	-2.856	0.497
685.500	424.366	80.003	19.994	103.790	20.002	-2.977	0.459
686.000	424.635	80.000	19.994	103.790	20.007	-3.359	0.473
686.500	424.892	80.002	19.994	103.790	20.006	-3.241	0.511
687.000	425.097	80.001	19.994	103.791	20.006	-3.297	0.494
687.500	425.321	80.001	19.994	103.788	20.005	-3.205	0.446
688.000	425.611	80.001	19.993	103.788	20.006	-3.251	0.471
688.500	425.841	79.999	19.993	103.788	20.006	-3.299	0.517
689.000	426.066	80.001	19.994	103.793	20.009	-3.463	0.488
689.500	426.334	80.001	19.994	103.792	20.009	-3.500	0.474
690.000	426.593	79.999	19.994	103.792	20.014	-3.843	0.510
690.500	426.812	79.999	19.994	103.792	20.010	-3.588	0.503
691.000	427.057	79.999	19.994	103.792	20.015	-3.928	0.471
691.500	427.313	80.000	19.994	103.788	20.017	-4.099	0.482
692.000	427.549	80.000	19.993	103.792	20.020	-4.313	0.496
692.500	427.795	80.002	19.994	103.796	20.019	-4.267	0.487
693.000	428.091	80.001	19.995	103.798	20.021	-4.423	0.512
693.500	428.257	80.000	19.993	103.797	20.019	-4.232	0.502
694.000	428.534	80.000	19.994	103.796	20.023	-4.517	0.453
694.500	428.812	80.000	19.996	103.793	20.021	-4.357	0.499
695.000	429.014	80.002	19.996	103.789	20.020	-4.296	0.517
695.500	429.300	80.002	19.996	103.790	20.022	-4.454	0.484
696.000	429.555	80.000	19.995	103.792	20.026	-4.799	0.515
696.500	429.797	80.001	19.995	103.795	20.026	-4.772	0.519
697.000	429.983	80.000	19.994	103.797	20.024	-4.616	0.463
697.500	430.257	80.000	19.994	103.797	20.023	-4.546	0.444
698.000	430.516	80.000	19.994	103.793	20.028	-4.922	0.496
698.500	430.750	80.000	19.994	103.790	20.026	-4.743	0.513
699.000	431.018	79.998	19.994	103.787	20.026	-4.795	0.497
699.500	431.232	79.999	19.995	103.784	20.029	-5.007	0.492
700.000	431.472	80.001	19.995	103.784	20.027	-4.866	0.468
700.500	431.715	80.000	19.995	103.784	20.028	-4.880	0.468
701.000	431.979	79.999	19.994	103.784	20.025	-4.666	0.495
701.500	432.211	79.999	19.994	103.783	20.030	-5.094	0.502
702.000	432.467	80.000	19.994	103.783	20.035	-5.396	0.492
702.500	432.721	80.001	19.994	103.783	20.034	-5.338	0.499
703.000	432.916	80.001	19.994	103.788	20.035	-5.435	0.479
703.500	433.213	80.002	19.994	103.790	20.039	-5.755	0.471
704.000	433.448	80.001	19.995	103.793	20.036	-5.473	0.513
704.500	433.704	80.000	19.995	103.793	20.035	-5.464	0.512
705.000	433.931	80.001	19.996	103.792	20.039	-5.755	0.487
705.500	434.182	80.003	19.994	103.787	20.036	-5.514	0.480
706.000	434.450	80.003	19.995	103.786	20.035	-5.408	0.498
706.500	434.667	80.002	19.994	103.784	20.040	-5.788	0.502
707.000	434.915	80.002	19.995	103.783	20.040	-5.841	0.475
707.500	435.200	80.002	19.994	103.785	20.040	-5.774	0.499
708.000	435.437	80.003	19.994	103.785	20.036	-5.512	0.528
708.500	435.679	80.002	19.994	103.783	20.042	-5.930	0.500
709.000	435.911	80.002	19.994	103.783	20.038	-5.647	0.476
709.500	436.170	80.003	19.993	103.783	20.039	-5.747	0.483
710.000	436.432	80.003	19.995	103.781	20.033	-5.319	0.506
710.500	436.662	80.002	19.994	103.781	20.039	-5.720	0.506
711.000	436.911	80.003	19.992	103.782	20.040	-5.801	0.485
711.500	437.124	80.002	19.995	103.781	20.037	-5.585	0.470
712.000	437.396	80.003	19.994	103.781	20.041	-5.913	0.473
712.500	437.623	80.002	19.993	103.782	20.040	-5.772	0.492
713.000	437.886	80.003	19.993	103.782	20.041	-5.851	0.495
713.500	438.105	80.003	19.994	103.782	20.036	-5.479	0.486
714.000	438.378	80.004	19.994	103.782	20.036	-5.539	0.487
714.500	438.602	80.005	19.994	103.781	20.039	-5.761	0.494
715.000	438.882	80.003	19.992	103.781	20.039	-5.714	0.501
715.500	439.088	80.003	19.994	103.779	20.044	-6.111	0.495
716.000	439.369	80.004	19.995	103.779	20.036	-5.528	0.486
716.500	439.642	80.002	19.995	103.779	20.039	-5.717	0.520
717.000	439.864	80.003	19.996	103.781	20.039	-5.760	0.525
717.500	440.108	80.003	19.999	103.781	20.041	-5.841	0.480
718.000	440.359	80.001	19.997	103.782	20.039	-5.748	0.480
718.500	440.627	80.001	19.996	103.782	20.042	-5.940	0.507
719.000	440.856	80.002	19.993	103.782	20.046	-6.269	0.508
719.500	441.113	80.002	19.995	103.781	20.044	-6.134	0.491
720.000	441.344	80.002	19.995	103.782	20.043	-6.006	0.487
720.500	441.621	80.002	19.994	103.781	20.045	-6.145	0.498
721.001	441.830	80.001	19.995	103.783	20.044	-6.097	0.497
721.500	442.097	80.001	19.995	103.783	20.044	-6.105	0.481
722.000	442.364	80.001	19.995	103.783	20.047	-6.325	0.505
722.500	442.594	80.001	19.996	103.782	20.046	-6.262	0.515
723.000	442.840	80.001	19.996	103.783	20.043	-6.050	0.487
723.500	443.066	80.001	19.996	103.781	20.044	-6.110	0.475
724.000	443.321	80.003	19.994	103.781	20.044	-6.129	0.477
724.500	443.563	80.002	19.995	103.781	20.041	-5.909	0.489
725.000	443.812	80.002	19.995	103.778	20.044	-6.113	0.493
725.500	444.105	80.002	19.994	103.777	20.040	-5.774	0.517
726.000	444.342	80.001	19.996	103.778	20.047	-6.294	0.536
726.500	444.551	80.002	19.995	103.778	20.045	-6.180	0.488
727.000	444.832	80.002	19.996	103.773	20.047	-6.323	0.468
727.500	445.038	80.001	19.993	103.763	20.047	-6.319	0.489
728.000	445.321	80.002	19.994	103.762	20.046	-6.217	0.488
728.500	445.573	80.001	19.995	103.761	20.045	-6.192	0.512
729.000	445.830	80.001	19.995	103.764	20.046	-6.250	0.522
729.500	446.085	80.002	19.994	103.772	20.049	-6.443	0.511
730.000	446.327	80.001	19.994	103.785	20.043	-6.020	0.504
730.500	446.577	80.001	19.994	103.796	20.050	-6.521	0.494
731.000	446.800	80.003	19.994	103.800	20.051	-6.648	0.482
731.500	447.080	80.002	19.994	103.797	20.048	-6.399	0.488
732.000	447.298	80.003	19.993	103.796	20.048	-6.436	0.501
732.500	447.579	80.003	19.994	103.793	20.047	-6.334	0.499
733.000	447.854	80.003	19.995	103.784	20.046	-6.267	0.527
733.500	448.090	80.002	19.994	103.774	20.049	-6.448	0.533
734.000	448.349	80.002	19.995	103.769	20.051	-6.611	0.503
734.500	448.581	80.003	19.994	103.769	20.048	-6.372	0.493
735.000	448.814	80.003	19.995	103.772	20.051	-6.621	0.478
735.500	449.112	80.003	19.992	103.773	20.049	-6.449	0.498
736.000	449.389	80.003	19.995	103.778	20.044	-6.131	0.553
736.500	449.597	80.002	19.994	103.784	20.047	-6.292	0.530
737.000	449.866	80.003	19.995	103.787	20.046	-6.278	0.481
737.500	450.107	80.003	19.994	103.792	20.054	-6.817	0.493
738.000	450.363	80.002	19.993	103.792	20.048	-6.379	0.503
738.500	450.616	80.003	19.998	103.793	20.047	-6.363	0.503
739.000	450.854	80.002	19.995	103.793	20.047	-6.353	0.500
739.500	451.115	80.003	19.993	103.791	20.050	-6.587	0.495
740.000	451.410	80.003	19.995	103.785	20.048	-6.373	0.527
740.500	451.654	80.001	19.995	103.785	20.052	-6.697	0.547
741.000	451.913	80.001	19.995	103.787	20.052	-6.707	0.521
741.500	452.182	80.001	19.993	103.792	20.048	-6.368	0.516
742.000	452.406	80.002	19.995	103.797	20.049	-6.451	0.511
742.500	452.702	80.001	19.994	103.804	20.049	-6.469	0.507
743.000	452.919	80.000	19.995	103.806	20.048	-6.378	0.516
743.500	453.201	80.001	19.995	103.802	20.047	-6.336	0.506
744.000	453.441	80.000	19.994	103.796	20.046	-6.234	0.511
744.500	453.737	80.001	19.997	103.788	20.049	-6.506	0.529
745.000	453.990	80.001	19.996	103.774	20.051	-6.614	0.543
745.500	454.265	79.998	19.995	103.771	20.047	-6.361	0.539
746.000	454.495	80.001	19.995	103.772	20.047	-6.332	0.516
746.501	454.735	80.000	19.994	103.772	20.050	-6.544	0.487
747.001	455.013	80.000	19.995	103.776	20.047	-6.352	0.494
747.500	455.284	79.999	19.995	103.789	20.051	-6.627	0.533
748.000	455.538	80.000	19.995	103.798	20.050	-6.560	0.537
748.500	455.830	79.999	19.996	103.805	20.049	-6.483	0.536
749.000	456.097	79.999	19.996	103.816	20.049	-6.472	0.552
749.500	456.365	80.000	19.995	103.825	20.055	-6.896	0.547
750.000	456.624	79.998	19.994	103.828	20.050	-6.541	0.531
750.500	456.849	80.001	19.994	103.825	20.050	-6.572	0.506
751.000	457.135	80.000	19.994	103.820	20.050	-6.559	0.498
751.500	457.416	80.000	19.995	103.812	20.048	-6.365	0.539
752.000	457.644	80.000	19.996	103.805	20.050	-6.573	0.538
752.500	457.921	80.000	19.996	103.802	20.046	-6.271	0.507
753.000	458.195	80.000	19.995	103.801	20.047	-6.333	0.528
753.500	458.466	80.000	19.996	103.801	20.049	-6.483	0.548
754.000	458.753	79.999	19.994	103.800	20.050	-6.528	0.551
754.501	458.993	80.000	19.994	103.798	20.052	-6.715	0.542
755.000	459.294	80.001	19.997	103.795	20.050	-6.568	0.534
755.500	459.539	79.999	19.994	103.791	20.049	-6.514	0.543
756.000	459.835	80.001	19.995	103.790	20.047	-6.354	0.544
756.500	460.102	80.001	19.994	103.793	20.050	-6.518	0.552
757.000	460.386	80.001	19.994	103.792	20.052	-6.705	0.557
757.500	460.640	80.001	19.994	103.790	20.052	-6.677	0.544
758.000	460.897	80.001	19.998	103.790	20.051	-6.591	0.524
758.500	461.166	80.000	19.995	103.790	20.049	-6.473	0.519
759.000	461.448	80.002	19.996	103.786	20.053	-6.799	0.539
759.500	461.662	80.001	19.994	103.783	20.046	-6.252	0.524
760.001	461.963	80.000	19.995	103.780	20.043	-6.034	0.506
760.500	462.233	80.002	19.995	103.779	20.046	-6.250	0.543
761.000	462.514	80.002	19.995	103.778	20.044	-6.105	0.561
761.500	462.791	80.002	19.995	103.777	20.048	-6.408	0.555
762.000	463.081	80.001	19.994	103.778	20.044	-6.117	0.562
762.500	463.309	80.003	19.995	103.762	20.042	-5.951	0.543
763.000	463.605	80.002	19.994	103.735	20.043	-6.005	0.521
763.500	463.833	80.002	19.994	103.723	20.045	-6.210	0.524
764.000	464.067	80.001	19.994	103.719	20.041	-5.861	0.493
764.500	464.353	80.001	19.994	103.719	20.045	-6.188	0.492
765.000	464.648	80.001	19.994	103.745	20.045	-6.178	0.550
765.500	464.883	80.001	19.993	103.811	20.046	-6.267	0.555
766.000	465.183	80.001	19.994	103.840	20.048	-6.423	0.532
766.500	465.446	80.001	19.995	103.849	20.046	-6.275	0.549
767.000	465.678	80.002	19.996	103.850	20.047	-6.294	0.529
767.500	465.948	80.001	19.994	103.843	20.050	-6.533	0.499
768.000	466.259	80.002	19.993	103.805	20.047	-6.358	0.541
768.500	466.524	80.002	19.995	103.789	20.046	-6.273	0.578
769.000	466.769	80.001	19.995	103.786	20.049	-6.439	0.543
769.500	467.039	80.002	19.995	103.786	20.051	-6.660	0.513
770.000	467.324	80.000	19.995	103.786	20.049	-6.491	0.535
770.500	467.535	80.000	19.995	103.786	20.043	-6.026	0.525
771.000	467.845	80.000	19.994	103.787	20.051	-6.660	0.508
771.500	468.104	80.001	19.994	103.789	20.051	-6.632	0.545
772.000	468.389	80.000	19.995	103.790	20.048	-6.374	0.557
772.500	468.690	79.999	19.993	103.790	20.048	-6.399	0.565
773.000	468.889	80.001	19.997	103.788	20.051	-6.599	0.543
773.500	469.159	80.001	19.995	103.786	20.047	-6.301	0.485
774.000	469.434	79.999	19.992	103.783	20.051	-6.620	0.507
774.500	469.674	80.000	19.995	103.782	20.054	-6.876	0.530
775.000	469.969	80.001	19.996	103.782	20.051	-6.589	0.525
775.500	470.237	80.000	19.995	103.786	20.052	-6.664	0.549
776.000	470.506	80.000	19.996	103.787	20.050	-6.545	0.550
776.500	470.775	80.000	19.994	103.787	20.052	-6.678	0.538
777.000	471.046	80.001	19.994	103.787	20.045	-6.177	0.539
777.500	471.288	80.000	19.994	103.790	20.047	-6.302	0.527
778.000	471.606	80.000	19.994	103.787	20.051	-6.634	0.537
778.500	471.838	80.001	19.997	103.786	20.048	-6.412	0.555
779.000	472.146	80.000	19.995	103.786	20.044	-6.102	0.545
779.500	472.429	80.000	19.994	103.786	20.045	-6.206	0.565
780.000	472.704	80.001	19.994	103.784	20.048	-6.420	0.574
780.500	472.954	80.001	19.996	103.783	20.046	-6.246	0.541
781.000	473.222	80.000	19.993	103.784	20.043	-6.053	0.522
781.500	473.508	80.001	19.996	103.784	20.048	-6.402	0.536
782.000	473.808	80.001	19.994	103.783	20.046	-6.215	0.570
782.500	474.036	80.003	19.993	103.776	20.044	-6.119	0.557
783.000	474.343	80.001	19.995	103.772	20.044	-6.108	0.532
783.500	474.629	80.002	19.995	103.771	20.052	-6.723	0.564
784.000	474.907	80.001	19.994	103.772	20.048	-6.372	0.579
784.500	475.172	80.001	19.992	103.772	20.044	-6.094	0.554
785.000	475.412	80.002	19.993	103.777	20.043	-6.040	0.524
785.500	475.714	80.001	19.993	103.782	20.046	-6.244	0.524
786.000	475.977	80.001	19.994	103.783	20.048	-6.404	0.553
786.500	476.228	80.001	19.993	103.782	20.044	-6.107	0.539
787.000	476.460	80.003	19.994	103.781	20.046	-6.233	0.498
787.500	476.751	80.002	19.994	103.780	20.043	-6.015	0.503
788.000	477.025	80.003	19.994	103.779	20.049	-6.437	0.544
788.500	477.273	80.004	19.993	103.777	20.043	-6.026	0.544
789.000	477.563	80.002	19.994	103.777	20.048	-6.406	0.530
789.500	477.846	80.002	19.994	103.777	20.049	-6.495	0.556
790.000	478.090	80.003	19.994	103.779	20.048	-6.427	0.550
790.500	478.394	80.002	19.993	103.780	20.047	-6.329	0.537
791.000	478.624	80.003	19.993	103.782	20.048	-6.393	0.541
791.500	478.885	80.003	19.994	103.783	20.050	-6.543	0.512
792.000	479.111	80.002	19.995	103.783	20.051	-6.603	0.489
792.500	479.421	80.002	19.993	103.783	20.051	-6.618	0.512
793.000	479.699	80.002	19.993	103.783	20.049	-6.456	0.562
793.500	479.949	80.000	19.994	103.779	20.048	-6.393	0.558
794.000	480.202	80.001	19.994	103.774	20.049	-6.454	0.515
794.500	480.440	80.002	19.994	103.774	20.048	-6.375	0.497
795.000	480.747	80.001	19.993	103.772	20.051	-6.624	0.518
795.500	480.974	80.002	19.995	103.772	20.053	-6.753	0.539
796.000	481.220	80.003	19.993	103.776	20.053	-6.741	0.503
796.500	481.496	80.002	19.994	103.781	20.053	-6.799	0.498
797.000	481.775	80.000	19.994	103.782	20.050	-6.546	0.539
797.500	482.036	80.003	19.995	103.783	20.051	-6.626	0.547
798.000	482.313	80.002	19.992	103.784	20.054	-6.853	0.539
798.500	482.556	80.001	19.993	103.785	20.056	-6.988	0.529
799.000	482.805	80.003	19.992	103.784	20.056	-7.027	0.506
799.500	483.096	80.001	19.994	103.784	20.055	-6.937	0.516
800.000	483.321	80.001	19.994	103.785	20.054	-6.881	0.528
800.500	483.537	80.002	19.993	103.784	20.054	-6.840	0.478
801.000	483.842	80.002	19.995	103.782	20.057	-7.085	0.481
801.500	484.112	80.002	19.993	103.780	20.056	-7.021	0.548
802.000	484.326	80.002	19.994	103.780	20.056	-7.027	0.530
802.500	484.607	80.002	19.992	103.780	20.059	-7.202	0.490
803.000	484.856	80.002	19.993	103.779	20.059	-7.216	0.512
803.500	485.120	80.002	19.995	103.779	20.055	-6.941	0.521
804.000	485.324	80.002	19.994	103.781	20.057	-7.105	0.491
804.500	485.613	80.001	19.993	103.781	20.056	-6.963	0.481
805.000	485.886	80.001	19.995	103.780	20.059	-7.198	0.527
805.500	486.133	80.002	19.993	103.783	20.055	-6.920	0.541
806.000	486.426	80.002	19.993	103.787	20.059	-7.242	0.530
806.500	486.648	80.003	19.994	103.790	20.060	-7.259	0.528
807.000	486.919	80.003	19.993	103.790	20.059	-7.199	0.504
807.500	487.134	80.002	19.995	103.791	20.059	-7.224	0.489
808.000	487.423	80.003	19.994	103.789	20.058	-7.118	0.495
808.500	487.667	80.002	19.994	103.786	20.061	-7.349	0.519
809.000	487.913	80.003	19.994	103.785	20.057	-7.104	0.511
809.500	488.136	80.003	19.995	103.783	20.057	-7.053	0.480
810.000	488.418	80.002	19.994	103.778	20.053	-6.793	0.487
810.500	488.664	80.003	19.995	103.774	20.055	-6.924	0.517
811.000	488.891	80.003	19.995	103.773	20.057	-7.057	0.500
811.500	489.182	80.002	19.993	103.772	20.056	-7.018	0.495
812.000	489.456	80.003	19.994	103.771	20.058	-7.120	0.542
812.500	489.676	80.003	19.994	103.775	20.059	-7.249	0.529
813.000	489.908	80.003	19.994	103.778	20.058	-7.172	0.473
813.500	490.141	80.003	19.995	103.776	20.054	-6.848	0.458
814.000	490.349	80.002	19.993	103.770	20.056	-7.029	0.453
814.500	490.659	80.002	19.994	103.765	20.055	-6.938	0.480
815.000	490.869	80.003	19.994	103.760	20.057	-7.094	0.519
815.500	491.133	80.003	19.994	103.754	20.060	-7.295	0.497
816.000	491.352	80.003	19.994	103.752	20.059	-7.210	0.478
816.500	491.621	80.003	19.996	103.757	20.057	-7.098	0.485
817.000	491.856	80.003	19.995	103.762	20.057	-7.066	0.496
817.500	492.119	80.002	19.995	103.765	20.063	-7.479	0.502
818.000	492.379	80.002	19.995	103.771	20.060	-7.294	0.511
818.500	492.648	80.002	19.994	103.776	20.062	-7.472	0.526
819.000	492.813	80.003	19.994	103.776	20.059	-7.212	0.481
819.500	493.070	80.003	19.994	103.777	20.058	-7.114	0.428
820.000	493.332	80.002	19.992	103.773	20.054	-6.856	0.471
820.500	493.576	80.002	19.994	103.768	20.057	-7.061	0.513
821.000	493.808	80.001	19.995	103.763	20.058	-7.137	0.491
821.500	494.069	80.001	19.995	103.760	20.058	-7.117	0.484
822.000	494.328	80.001	19.994	103.758	20.057	-7.078	0.506
822.500	494.573	80.000	19.995	103.762	20.056	-7.008	0.512
823.000	494.803	80.001	19.996	103.766	20.057	-7.069	0.490
823.500	495.059	80.000	19.992	103.770	20.060	-7.318	0.481
824.000	495.303	79.999	19.996	103.773	20.063	-7.495	0.493
824.500	495.538	80.001	19.995	103.774	20.059	-7.239	0.489
825.000	495.783	80.000	19.995	103.778	20.060	-7.278	0.479
825.500	496.015	80.000	19.994	103.779	20.057	-7.072	0.479
826.000	496.231	79.999	19.995	103.779	20.058	-7.167	0.462
826.500	496.532	80.000	19.993	103.779	20.061	-7.348	0.482
827.000	496.751	80.000	19.995	103.780	20.059	-7.205	0.519
827.500	497.015	80.000	19.994	103.776	20.061	-7.369	0.502
828.000	497.258	80.002	19.995	103.769	20.056	-7.025	0.495
828.500	497.554	80.000	19.992	103.765	20.057	-7.096	0.523
829.000	497.783	80.000	19.994	103.765	20.055	-6.906	0.532
829.500	497.960	80.000	19.994	103.754	20.053	-6.773	0.466
830.000	498.280	80.001	19.993	103.721	20.055	-6.933	0.451
830.500	498.489	80.001	19.992	103.710	20.055	-6.944	0.513
831.000	498.722	80.002	19.995	103.705	20.052	-6.692	0.486
831.500	498.964	80.001	19.994	103.703	20.056	-6.990	0.458
832.001	499.177	80.000	19.994	103.715	20.057	-7.056	0.465
832.501	499.460	80.000	19.995	103.751	20.057	-7.071	0.475
833.000	499.668	80.001	19.996	103.797	20.057	-7.100	0.494
833.500	499.931	80.000	19.995	103.834	20.059	-7.187	0.481
834.000	500.141	80.000	19.994	103.841	20.059	-7.231	0.472
834.500	500.407	80.000	19.996	103.841	20.057	-7.054	0.475
835.000	500.638	80.000	19.996	103.839	20.061	-7.366	0.486
835.500	500.934	80.000	19.995	103.806	20.059	-7.191	0.512
836.000	501.125	80.001	19.997	103.776	20.054	-6.839	0.507
836.500	501.396	80.001	19.996	103.768	20.057	-7.080	0.474
837.000	501.617	80.001	19.995	103.763	20.057	-7.049	0.477
837.500	501.851	80.001	19.996	103.763	20.055	-6.904	0.474
838.000	502.108	80.001	19.995	103.770	20.058	-7.178	0.473
838.500	502.391	80.000	19.996	103.769	20.060	-7.305	0.515
839.000	502.627	79.999	19.996	103.772	20.056	-7.027	0.530
839.500	502.854	80.000	19.996	103.777	20.059	-7.199	0.491
840.000	503.068	80.001	19.995	103.773	20.055	-6.937	0.452
840.500	503.323	80.002	19.995	103.772	20.058	-7.126	0.455
841.000	503.578	80.000	19.995	103.774	20.059	-7.221	0.489
841.500	503.829	80.002	19.996	103.774	20.058	-7.144	0.508
842.000	504.050	80.001	19.995	103.775	20.056	-6.962	0.489
842.500	504.297	80.000	19.996	103.779	20.058	-7.141	0.470
843.000	504.537	80.001	19.994	103.779	20.056	-6.991	0.477
843.500	504.781	79.999	19.995	103.778	20.057	-7.045	0.485
844.000	505.016	80.000	19.995	103.779	20.061	-7.347	0.482
844.500	505.272	80.000	19.995	103.778	20.058	-7.141	0.486
845.000	505.493	80.001	19.994	103.780	20.058	-7.144	0.484
845.500	505.721	80.002	19.996	103.780	20.059	-7.189	0.462
846.000	506.010	80.000	19.995	103.776	20.059	-7.224	0.483
846.500	506.230	80.002	19.995	103.772	20.060	-7.290	0.513
847.000	506.489	80.000	19.994	103.770	20.060	-7.305	0.494
847.500	506.674	80.001	19.996	103.767	20.062	-7.407	0.462
848.000	506.928	80.002	19.995	103.767	20.058	-7.110	0.441
848.500	507.212	80.000	19.995	103.767	20.060	-7.307	0.488
849.000	507.430	80.001	19.995	103.770	20.060	-7.270	0.520
849.500	507.664	80.001	19.995	103.773	20.062	-7.457	0.477
850.000	507.943	80.000	19.994	103.770	20.058	-7.174	0.482
850.500	508.168	80.001	19.995	103.764	20.057	-7.051	0.508
851.000	508.382	80.000	19.994	103.767	20.059	-7.186	0.472
851.500	508.642	80.000	19.994	103.765	20.059	-7.228	0.456
852.000	508.936	80.000	19.993	103.762	20.060	-7.257	0.514
852.500	509.171	79.999	19.994	103.762	20.057	-7.040	0.542
853.000	509.438	80.000	19.993	103.768	20.060	-7.293	0.515
853.500	509.668	80.000	19.994	103.766	20.061	-7.393	0.499
854.000	509.867	79.999	19.993	103.769	20.060	-7.303	0.463
854.500	510.160	79.999	19.995	103.771	20.063	-7.499	0.460
855.000	510.402	80.000	19.995	103.776	20.062	-7.410	0.513
855.500	510.635	79.999	19.993	103.778	20.057	-7.087	0.505
856.000	510.858	80.000	19.995	103.781	20.060	-7.270	0.465
856.500	511.127	79.999	19.993	103.781	20.064	-7.617	0.474
857.000	511.345	79.999	19.993	103.775	20.061	-7.370	0.489
857.500	511.610	79.998	19.994	103.768	20.060	-7.303	0.485
858.000	511.853	79.998	19.993	103.766	20.057	-7.089	0.496
858.500	512.125	80.000	19.993	103.766	20.060	-7.318	0.512
859.000	512.353	79.999	19.994	103.769	20.061	-7.362	0.508
859.500	512.599	80.001	19.995	103.775	20.059	-7.229	0.487
860.000	512.855	80.001	19.994	103.776	20.061	-7.387	0.488
860.500	513.111	80.000	19.995	103.774	20.062	-7.426	0.507
861.000	513.369	80.000	19.994	103.769	20.060	-7.271	0.513
861.500	513.627	80.001	19.993	103.768	20.057	-7.052	0.515
862.000	513.859	79.999	19.994	103.764	20.055	-6.953	0.503
862.500	514.043	80.000	19.994	103.765	20.062	-7.431	0.453
863.000	514.360	80.001	19.994	103.763	20.055	-6.907	0.459
863.500	514.640	80.001	19.994	103.759	20.059	-7.219	0.549
864.000	514.772	80.001	19.994	103.753	20.059	-7.212	0.504
864.500	515.114	80.002	19.995	103.749	20.068	-7.911	0.443
865.000	515.389	80.001	19.994	103.748	20.064	-7.595	0.545
865.500	515.603	80.001	19.994	103.753	20.058	-7.123	0.553
866.000	515.836	80.001	19.994	103.760	20.062	-7.477	0.469
866.500	516.051	80.002	19.995	103.767	20.063	-7.510	0.447
867.000	516.309	80.003	19.994	103.773	20.063	-7.489	0.460
867.500	516.631	80.002	19.994	103.778	20.065	-7.674	0.527
868.000	516.800	80.003	19.994	103.779	20.062	-7.447	0.536
868.500	517.206	80.002	19.994	103.778	20.064	-7.568	0.533
869.000	517.312	80.002	19.994	103.776	20.059	-7.188	0.544
869.500	517.641	80.000	19.994	103.777	20.059	-7.185	0.474
870.000	517.890	80.003	19.995	103.777	20.058	-7.181	0.506
870.500	518.172	80.003	19.994	103.779	20.059	-7.244	0.554
871.000	518.419	80.002	19.994	103.780	20.058	-7.109	0.530
871.500	518.607	80.002	19.993	103.783	20.072	-8.213	0.482
872.000	518.879	80.003	19.993	103.783	20.072	-8.156	0.448
872.500	519.047	80.001	19.993	103.783	20.065	-7.699	0.450
873.000	519.334	80.002	19.995	103.782	20.058	-7.136	0.448
873.500	519.750	80.002	19.994	103.783	20.065	-7.641	0.579
874.000	519.819	80.001	19.994	103.783	20.067	-7.792	0.594
874.500	520.148	80.001	19.994	103.784	20.070	-8.056	0.441
875.001	520.434	80.001	19.994	103.784	20.060	-7.324	0.506
875.501	520.647	80.002	19.995	103.785	20.070	-8.052	0.557
876.000	520.825	80.001	19.994	103.784	20.066	-7.771	0.445
876.500	521.173	80.002	19.994	103.785	20.061	-7.368	0.459
877.000	521.378	80.002	19.994	103.785	20.068	-7.884	0.540
877.500	521.601	80.001	19.994	103.785	20.062	-7.474	0.490
878.000	522.022	80.002	19.993	103.785	20.067	-7.800	0.535
878.500	522.243	80.001	19.995	103.785	20.064	-7.572	0.643
879.000	522.463	80.000	19.994	103.784	20.066	-7.719	0.542
879.500	522.666	80.001	19.992	103.784	20.066	-7.765	0.432
880.000	522.927	80.002	19.995	103.784	20.065	-7.659	0.443
880.500	523.332	80.001	19.993	103.784	20.065	-7.701	0.565
881.000	523.630	80.001	19.993	103.784	20.069	-7.990	0.684
881.500	523.512	80.002	19.994	103.784	20.061	-7.379	0.441
882.000	524.181	80.004	19.994	103.785	20.057	-7.048	0.366
882.500	523.894	80.002	19.995	103.787	20.064	-7.561	0.467
883.000	524.153	80.002	19.993	103.788	20.064	-7.578	0.177
883.500	524.771	80.003	19.994	103.788	20.062	-7.463	0.424
884.000	525.049	80.004	19.994	103.788	20.064	-7.611	0.886
884.500	524.889	80.002	19.994	103.786	20.059	-7.212	0.507
885.000	525.004	80.002	19.995	103.782	20.062	-7.425	0.037
885.500	525.710	80.002	19.995	103.781	20.062	-7.471	0.388
886.000	526.408	80.003	19.993	103.781	20.059	-7.211	1.113
886.500	526.665	80.005	19.994	103.780	20.062	-7.407	1.180
887.000	526.233	80.003	19.993	103.781	20.066	-7.712	0.390
887.500	526.506	80.002	19.994	103.781	20.061	-7.383	-0.167
888.000	526.924	80.001	19.994	103.782	20.062	-7.420	0.266
888.500	527.874	80.003	19.994	103.781	20.062	-7.472	1.030
889.000	527.398	80.005	19.995	103.781	20.060	-7.271	0.921
889.500	528.163	80.004	19.994	103.781	20.058	-7.157	0.381
890.000	528.025	80.004	19.996	103.781	20.062	-7.417	0.458
890.500	528.488	80.003	19.994	103.781	20.060	-7.296	0.476
891.000	528.921	80.005	19.994	103.781	20.057	-7.093	0.611
891.500	528.995	80.005	19.994	103.782	20.063	-7.493	0.702
892.000	529.260	80.004	19.994	103.782	20.058	-7.159	0.423
892.500	529.615	80.004	19.993	103.781	20.062	-7.437	0.480
893.000	529.821	80.003	19.993	103.778	20.062	-7.468	0.591
893.500	530.232	80.003	19.995	103.777	20.064	-7.563	0.589
894.000	530.312	80.004	19.996	103.777	20.062	-7.442	0.553
894.500	530.560	80.004	19.994	103.777	20.061	-7.377	0.409
895.000	531.043	80.003	19.995	103.777	20.064	-7.575	0.530
895.500	531.117	80.002	19.994	103.780	20.064	-7.560	0.644
896.000	531.350	80.002	19.993	103.785	20.065	-7.627	0.432
896.500	531.732	80.003	19.995	103.792	20.066	-7.707	0.461
897.000	532.012	80.003	19.995	103.795	20.061	-7.354	0.638
897.500	532.245	80.003	19.995	103.795	20.063	-7.528	0.587
898.000	532.497	80.002	19.994	103.796	20.063	-7.528	0.499
898.500	532.759	80.001	19.995	103.792	20.064	-7.603	0.500
899.000	533.048	80.000	19.995	103.785	20.059	-7.220	0.532
899.500	533.318	80.000	19.995	103.784	20.061	-7.368	0.555
900.000	533.544	80.001	19.994	103.789	20.063	-7.495	0.528
900.500	533.797	80.000	19.995	103.790	20.062	-7.426	0.488
901.000	534.113	80.001	19.995	103.795	20.063	-7.536	0.524
901.500	534.325	80.000	19.995	103.796	20.061	-7.362	0.549
902.000	534.646	80.001	19.996	103.794	20.060	-7.282	0.531
902.500	534.866	80.001	19.994	103.789	20.064	-7.600	0.537
903.000	535.209	80.000	19.994	103.785	20.065	-7.652	0.552
903.500	535.437	80.000	19.995	103.778	20.061	-7.363	0.567
904.000	535.718	80.002	19.996	103.776	20.062	-7.446	0.540
904.500	535.996	80.001	19.996	103.770	20.065	-7.684	0.534
905.001	536.199	80.000	19.994	103.765	20.057	-7.054	0.520
905.500	536.588	80.000	19.995	103.764	20.063	-7.534	0.536
906.000	536.748	80.000	19.995	103.764	20.064	-7.613	0.571
906.500	537.091	80.000	19.994	103.766	20.063	-7.515	0.526
907.000	537.365	80.001	19.995	103.772	20.064	-7.556	0.560
907.500	537.608	80.000	19.995	103.779	20.061	-7.380	0.567
908.000	537.856	80.000	19.995	103.782	20.061	-7.365	0.504
908.500	538.071	79.999	19.994	103.779	20.061	-7.336	0.477
909.000	538.404	80.000	19.996	103.779	20.063	-7.541	0.505
909.500	538.615	79.999	19.995	103.779	20.065	-7.667	0.546
910.000	538.955	80.001	19.995	103.778	20.058	-7.125	0.548
910.500	539.196	80.001	19.995	103.778	20.065	-7.649	0.566
911.000	539.430	79.999	19.995	103.781	20.064	-7.603	0.528
911.500	539.733	79.999	19.995	103.781	20.061	-7.362	0.506
912.000	540.005	80.001	19.994	103.779	20.060	-7.327	0.556
912.500	540.246	80.001	19.996	103.778	20.065	-7.632	0.544
913.000	540.526	80.001	19.994	103.774	20.060	-7.310	0.517
913.500	540.757	80.002	19.995	103.769	20.063	-7.489	0.516
914.000	540.995	80.001	19.995	103.769	20.064	-7.626	0.490
914.500	541.311	80.000	19.996	103.771	20.062	-7.457	0.512
915.000	541.546	80.001	19.995	103.771	20.064	-7.555	0.553
915.500	541.802	80.000	19.996	103.773	20.062	-7.472	0.520
916.000	542.088	80.001	19.994	103.778	20.062	-7.464	0.516
916.500	542.349	80.001	19.995	103.778	20.064	-7.603	0.545
917.000	542.606	80.001	19.994	103.772	20.067	-7.780	0.533
917.500	542.844	80.001	19.994	103.768	20.062	-7.466	0.507
918.000	543.119	80.000	19.993	103.768	20.063	-7.491	0.504
918.500	543.381	80.002	19.995	103.767	20.066	-7.755	0.525
919.000	543.642	80.001	19.995	103.767	20.061	-7.381	0.530
919.500	543.949	80.002	19.997	103.773	20.066	-7.738	0.545
920.000	544.155	80.001	19.996	103.780	20.062	-7.409	0.540
920.500	544.470	80.000	19.995	103.781	20.060	-7.276	0.517
921.000	544.672	80.001	19.995	103.783	20.063	-7.531	0.519
921.500	544.882	80.001	19.995	103.784	20.060	-7.302	0.464
922.000	545.221	80.001	19.996	103.785	20.066	-7.734	0.481
922.500	545.470	80.000	19.995	103.784	20.064	-7.567	0.569
923.000	545.728	80.000	19.996	103.785	20.062	-7.472	0.548
923.500	545.988	80.003	19.996	103.783	20.062	-7.470	0.512
924.000	546.192	80.002	19.994	103.781	20.062	-7.405	0.491
924.500	546.492	80.000	19.994	103.781	20.063	-7.516	0.484
925.000	546.732	80.001	19.994	103.780	20.062	-7.439	0.522
925.500	546.986	80.001	19.995	103.779	20.062	-7.430	0.517
926.000	547.250	80.000	19.994	103.779	20.064	-7.576	0.506
926.500	547.537	80.000	19.996	103.779	20.062	-7.462	0.534
927.000	547.777	80.000	19.994	103.781	20.066	-7.703	0.539
927.500	548.059	79.999	19.995	103.780	20.062	-7.474	0.524
928.000	548.344	79.999	19.995	103.781	20.064	-7.560	0.544
928.500	548.522	80.000	19.995	103.783	20.062	-7.418	0.515
929.000	548.788	80.000	19.996	103.784	20.063	-7.505	0.454
929.500	549.050	80.000	19.996	103.785	20.061	-7.381	0.486
930.000	549.343	80.001	19.995	103.786	20.060	-7.312	0.541
930.500	549.584	79.999	19.996	103.782	20.062	-7.462	0.544
931.001	549.837	80.000	19.995	103.774	20.058	-7.135	0.514
931.500	550.159	79.999	19.995	103.769	20.056	-6.974	0.535
932.000	550.348	80.000	19.995	103.762	20.055	-6.918	0.543
932.500	550.659	79.999	19.996	103.757	20.056	-6.964	0.506
933.000	550.895	79.999	19.995	103.760	20.058	-7.128	0.524
933.500	551.182	80.001	19.996	103.770	20.053	-6.764	0.535
934.000	551.372	80.000	19.996	103.775	20.062	-7.419	0.500
934.500	551.629	79.999	19.993	103.777	20.060	-7.273	0.462
935.001	551.891	80.000	19.996	103.779	20.058	-7.161	0.483
935.500	552.132	80.001	19.994	103.779	20.062	-7.468	0.511
936.000	552.399	80.001	19.995	103.778	20.061	-7.360	0.506
936.500	552.683	80.002	19.995	103.778	20.058	-7.148	0.530
937.000	552.893	79.999	19.994	103.782	20.061	-7.350	0.523
937.500	553.165	80.000	19.995	103.785	20.056	-6.965	0.488
938.000	553.413	80.000	19.995	103.786	20.061	-7.381	0.501
938.500	553.698	80.001	19.995	103.785	20.056	-7.009	0.526
939.000	553.981	80.001	19.994	103.785	20.063	-7.530	0.551
939.500	554.217	80.001	19.995	103.785	20.061	-7.387	0.544
940.000	554.507	80.002	19.995	103.783	20.062	-7.437	0.522
940.500	554.754	80.001	19.994	103.781	20.063	-7.512	0.531
941.000	555.000	80.002	19.995	103.779	20.060	-7.318	0.515
941.500	555.292	80.001	19.995	103.779	20.062	-7.463	0.515
942.000	555.559	80.003	19.994	103.781	20.064	-7.612	0.549
942.500	555.776	80.003	19.995	103.791	20.063	-7.533	0.521
943.000	556.070	80.002	19.994	103.793	20.063	-7.504	0.497
943.500	556.307	80.003	19.994	103.796	20.064	-7.620	0.522
944.000	556.542	80.003	19.995	103.799	20.063	-7.515	0.501
944.500	556.807	80.003	19.995	103.797	20.068	-7.884	0.486
945.000	557.034	80.003	19.994	103.790	20.063	-7.491	0.496
945.500	557.278	80.002	19.993	103.789	20.063	-7.547	0.482
946.000	557.533	80.002	19.994	103.786	20.064	-7.624	0.485
946.500	557.796	80.002	19.995	103.781	20.068	-7.891	0.508
947.000	558.045	80.002	19.994	103.784	20.067	-7.830	0.515
947.500	558.300	80.001	19.994	103.783	20.067	-7.780	0.508
948.000	558.586	80.003	19.994	103.783	20.063	-7.495	0.523
948.500	558.801	80.002	19.994	103.785	20.064	-7.574	0.521
949.000	559.056	80.002	19.994	103.785	20.063	-7.532	0.485
949.500	559.349	80.001	19.994	103.782	20.066	-7.736	0.509
950.000	559.615	80.002	19.994	103.782	20.067	-7.817	0.554
950.500	559.853	80.002	19.994	103.782	20.068	-7.863	0.532
951.000	560.085	80.003	19.995	103.782	20.065	-7.655	0.487
951.500	560.337	80.002	19.994	103.781	20.064	-7.615	0.477
952.000	560.615	80.003	19.995	103.778	20.061	-7.388	0.507
952.500	560.826	80.001	19.993	103.771	20.063	-7.544	0.510
953.000	561.137	80.002	19.994	103.762	20.065	-7.676	0.505
953.500	561.338	80.002	19.995	103.761	20.065	-7.668	0.517
954.000	561.654	80.001	19.995	103.761	20.063	-7.549	0.515
954.500	561.914	80.001	19.996	103.764	20.065	-7.659	0.547
955.000	562.168	80.002	19.995	103.771	20.063	-7.545	0.545
955.500	562.448	80.001	19.994	103.781	20.065	-7.693	0.524
956.000	562.695	80.002	19.994	103.787	20.068	-7.879	0.530
956.500	562.960	80.002	19.995	103.788	20.065	-7.638	0.520
957.000	563.207	80.002	19.994	103.789	20.063	-7.489	0.512
957.500	563.480	80.003	19.994	103.791	20.066	-7.705	0.516
958.000	563.719	80.001	19.993	103.791	20.063	-7.527	0.516
958.500	563.996	80.003	19.995	103.787	20.066	-7.760	0.514
959.000	564.206	80.002	19.994	103.786	20.065	-7.672	0.501
959.500	564.473	80.002	19.995	103.785	20.067	-7.822	0.482
960.000	564.745	80.003	19.994	103.783	20.067	-7.814	0.508
960.500	564.991	80.002	19.995	103.781	20.065	-7.684	0.528
961.000	565.261	80.002	19.995	103.781	20.069	-7.944	0.517
961.500	565.471	80.002	19.995	103.780	20.064	-7.605	0.498
962.000	565.738	80.003	19.995	103.780	20.067	-7.821	0.479
962.500	565.997	80.002	19.994	103.778	20.064	-7.561	0.501
963.000	566.256	80.002	19.994	103.771	20.067	-7.802	0.522
963.500	566.539	80.003	19.994	103.766	20.064	-7.592	0.530
964.000	566.740	80.003	19.995	103.762	20.070	-8.022	0.513
964.500	566.997	80.003	19.994	103.760	20.066	-7.719	0.471
965.000	567.272	80.003	19.994	103.754	20.067	-7.798	0.495
965.500	567.529	80.003	19.995	103.757	20.069	-7.966	0.532
966.000	567.758	80.002	19.993	103.761	20.067	-7.835	0.509
966.500	568.000	80.003	19.993	103.767	20.069	-7.943	0.478
967.000	568.251	80.003	19.994	103.769	20.067	-7.816	0.482
967.500	568.518	80.004	19.994	103.776	20.069	-7.930	0.506
968.000	568.762	80.003	19.994	103.780	20.068	-7.859	0.515
968.500	569.012	80.003	19.994	103.776	20.067	-7.778	0.502
969.000	569.283	80.005	19.995	103.769	20.063	-7.483	0.507
969.500	569.519	80.003	19.994	103.765	20.065	-7.631	0.514
970.000	569.789	80.004	19.994	103.765	20.064	-7.613	0.507
970.500	570.060	80.003	19.994	103.765	20.069	-7.952	0.524
971.000	570.284	80.004	19.993	103.769	20.064	-7.627	0.518
971.501	570.576	80.003	19.993	103.776	20.065	-7.631	0.505
972.000	570.842	80.003	19.993	103.777	20.067	-7.808	0.537
972.500	571.047	80.003	19.994	103.776	20.071	-8.130	0.515
973.000	571.301	80.003	19.994	103.777	20.066	-7.716	0.465
973.500	571.572	80.003	19.994	103.775	20.068	-7.880	0.492
974.000	571.813	80.002	19.994	103.775	20.066	-7.709	0.519
974.500	572.088	80.002	19.993	103.776	20.070	-8.040	0.515
975.000	572.350	80.003	19.994	103.775	20.069	-7.975	0.526
975.500	572.553	80.002	19.994	103.774	20.065	-7.645	0.501
976.000	572.811	80.002	19.993	103.772	20.071	-8.096	0.463
976.500	573.053	80.001	19.993	103.770	20.064	-7.566	0.481
977.000	573.294	80.002	19.993	103.771	20.068	-7.909	0.491
977.500	573.600	80.001	19.993	103.772	20.066	-7.742	0.515
978.000	573.855	80.000	19.993	103.772	20.063	-7.482	0.554
978.500	574.101	80.001	19.994	103.763	20.063	-7.549	0.531
979.000	574.409	80.000	19.994	103.762	20.066	-7.762	0.527
979.500	574.614	80.002	19.996	103.763	20.066	-7.710	0.534
980.000	574.898	80.000	19.994	103.764	20.064	-7.614	0.501
980.500	575.117	80.000	19.995	103.766	20.065	-7.683	0.496
981.000	575.402	80.002	19.993	103.777	20.064	-7.600	0.504
981.500	575.685	80.001	19.995	103.781	20.065	-7.658	0.536
982.000	575.875	80.001	19.995	103.790	20.066	-7.702	0.520
982.500	576.132	80.002	19.992	103.791	20.067	-7.791	0.460
983.000	576.390	80.000	19.993	103.792	20.069	-7.939	0.481
983.500	576.652	80.001	19.994	103.793	20.065	-7.648	0.517
984.000	576.891	80.001	19.993	103.795	20.065	-7.655	0.511
984.500	577.137	80.000	19.995	103.787	20.068	-7.877	0.493
985.000	577.402	80.000	19.994	103.784	20.067	-7.840	0.498
985.500	577.631	79.999	19.994	103.783	20.069	-7.977	0.502
986.000	577.922	80.001	19.993	103.783	20.066	-7.742	0.507
986.500	578.192	80.002	19.996	103.782	20.072	-8.222	0.541
987.001	578.403	80.000	19.994	103.783	20.067	-7.789	0.521
987.501	578.692	80.000	19.995	103.784	20.069	-7.974	0.490
988.000	578.936	80.000	19.994	103.782	20.066	-7.752	0.516
988.500	579.190	79.999	19.995	103.780	20.066	-7.756	0.516
989.000	579.466	80.001	19.995	103.780	20.068	-7.893	0.514
989.500	579.653	80.000	19.994	103.777	20.069	-7.945	0.496
990.000	579.919	80.000	19.994	103.773	20.066	-7.766	0.458
990.500	580.155	80.001	19.994	103.768	20.072	-8.150	0.478
991.000	580.388	80.001	19.994	103.766	20.072	-8.177	0.486
991.500	580.647	80.000	19.995	103.763	20.071	-8.077	0.480
992.000	580.907	80.000	19.994	103.762	20.071	-8.092	0.505
992.500	581.145	80.000	19.994	103.766	20.073	-8.237	0.508
993.000	581.408	80.001	19.995	103.771	20.072	-8.163	0.500
993.500	581.656	80.000	19.994	103.772	20.070	-8.029	0.506
994.000	581.864	80.002	19.995	103.775	20.070	-8.052	0.483
994.500	582.104	80.002	19.995	103.777	20.070	-8.024	0.452
995.000	582.359	80.001	19.994	103.777	20.075	-8.382	0.472
995.500	582.624	80.000	19.994	103.779	20.074	-8.365	0.508
996.000	582.857	80.002	19.995	103.781	20.073	-8.282	0.509
996.500	583.097	80.001	19.994	103.779	20.075	-8.409	0.485
997.000	583.351	80.001	19.995	103.779	20.072	-8.207	0.483
997.500	583.621	80.001	19.994	103.777	20.074	-8.317	0.509
998.000	583.861	80.001	19.994	103.770	20.072	-8.178	0.517
998.501	584.130	80.000	19.995	103.766	20.074	-8.300	0.510
999.000	584.335	80.001	19.994	103.767	20.074	-8.306	0.491
999.500	584.602	80.001	19.995	103.768	20.077	-8.580	0.473
1000.000	584.823	80.000	19.994	103.770	20.077	-8.561	0.480
1000.500	585.064	80.000	19.995	103.772	20.070	-8.004	0.475
1001.000	585.313	80.001	19.994	103.770	20.073	-8.268	0.476
1001.500	585.563	80.001	19.995	103.765	20.075	-8.439	0.494
1002.000	585.806	80.000	19.995	103.764	20.075	-8.437	0.496
1002.500	586.036	80.002	19.994	103.759	20.075	-8.389	0.483
1003.000	586.319	80.001	19.993	103.757	20.072	-8.217	0.493
1003.500	586.570	80.000	19.994	103.759	20.077	-8.559	0.524
1004.000	586.824	80.000	19.995	103.761	20.075	-8.443	0.520
1004.500	587.063	80.001	19.994	103.758	20.075	-8.427	0.499
1005.000	587.341	80.000	19.994	103.760	20.077	-8.524	0.505
1005.500	587.557	80.001	19.994	103.766	20.071	-8.129	0.505
1006.000	587.812	80.001	19.994	103.769	20.073	-8.283	0.483
1006.500	588.059	80.001	19.995	103.770	20.079	-8.727	0.487
1007.000	588.321	80.001	19.994	103.773	20.074	-8.322	0.505
1007.500	588.556	80.000	19.995	103.771	20.074	-8.311	0.503
1008.000	588.829	80.001	19.995	103.772	20.074	-8.318	0.502
1008.500	589.101	79.999	19.994	103.774	20.072	-8.220	0.526
1009.000	589.375	80.000	19.995	103.773	20.072	-8.179	0.546
1009.500	589.612	80.000	19.996	103.769	20.075	-8.401	0.528
1010.000	589.887	80.000	19.993	103.765	20.072	-8.168	0.511
1010.500	590.134	80.000	19.995	103.758	20.074	-8.370	0.517
1011.000	590.392	80.000	19.995	103.755	20.070	-8.027	0.513
1011.500	590.631	80.000	19.995	103.753	20.070	-8.052	0.501
1012.000	590.921	80.000	19.994	103.755	20.073	-8.235	0.513
1012.500	591.190	80.000	19.995	103.758	20.071	-8.114	0.544
1013.000	591.429	80.001	19.996	103.763	20.072	-8.189	0.533
1013.500	591.668	80.001	19.996	103.765	20.071	-8.137	0.493
1014.000	591.916	80.001	19.995	103.771	20.068	-7.919	0.482
1014.500	592.147	80.000	19.994	103.776	20.068	-7.886	0.482
1015.000	592.448	80.001	19.994	103.781	20.070	-8.002	0.505
1015.500	592.679	80.001	19.995	103.787	20.071	-8.116	0.533
1016.000	593.011	80.001	19.995	103.787	20.072	-8.170	0.548
1016.500	593.241	80.001	19.996	103.783	20.068	-7.879	0.562
1017.000	593.502	80.002	19.995	103.780	20.069	-7.937	0.526
1017.500	593.765	80.001	19.995	103.778	20.074	-8.349	0.508
1018.000	594.032	80.000	19.995	103.774	20.074	-8.330	0.527
1018.500	594.292	80.001	19.994	103.773	20.073	-8.228	0.528
1019.000	594.531	80.001	19.996	103.778	20.077	-8.529	0.513
1019.500	594.805	80.000	19.995	103.781	20.075	-8.401	0.506
1020.000	595.088	80.002	19.995	103.782	20.074	-8.334	0.535
1020.500	595.384	80.001	19.996	103.782	20.072	-8.222	0.568
1021.000	595.626	80.002	19.996	103.782	20.071	-8.135	0.558
1021.500	595.883	80.002	19.995	103.781	20.071	-8.108	0.518
1022.000	596.115	80.003	19.995	103.783	20.071	-8.147	0.494
1022.500	596.413	80.002	19.996	103.782	20.071	-8.142	0.510
1023.000	596.656	80.002	19.995	103.782	20.074	-8.356	0.536
1023.500	596.937	80.003	19.995	103.782	20.073	-8.249	0.532
1024.000	597.177	80.002	19.995	103.784	20.070	-8.039	0.522
1024.500	597.464	80.002	19.996	103.781	20.072	-8.187	0.524
1025.000	597.694	80.002	19.994	103.782	20.072	-8.204	0.522
1025.500	597.994	80.002	19.995	103.782	20.069	-7.928	0.524
1026.000	598.229	80.003	19.995	103.782	20.073	-8.245	0.533
1026.501	598.515	80.002	19.994	103.780	20.071	-8.139	0.528
1027.001	598.764	80.002	19.996	103.780	20.073	-8.230	0.528
1027.500	599.020	80.003	19.995	103.780	20.074	-8.355	0.520
1028.001	599.266	80.003	19.996	103.778	20.074	-8.327	0.503
1028.501	599.527	80.001	19.995	103.777	20.075	-8.400	0.504
1029.000	599.790	80.002	19.994	103.776	20.070	-8.028	0.516
1029.500	600.015	80.001	19.994	103.777	20.072	-8.167	0.506
1030.000	600.337	80.001	19.994	103.775	20.071	-8.147	0.517
1030.500	600.560	80.002	19.995	103.775	20.076	-8.459	0.546
1031.000	600.861	80.002	19.994	103.775	20.073	-8.252	0.534
1031.500	601.105	80.003	19.996	103.776	20.073	-8.239	0.534
1032.000	601.384	80.002	19.994	103.774	20.071	-8.085	0.534
1032.500	601.621	80.001	19.994	103.776	20.076	-8.465	0.520
1033.000	601.906	80.002	19.994	103.772	20.079	-8.713	0.519
1033.500	602.143	80.001	19.994	103.765	20.075	-8.413	0.522
1034.000	602.425	80.002	19.994	103.758	20.073	-8.253	0.521
1034.500	602.665	80.001	19.994	103.752	20.074	-8.310	0.521
1035.000	602.949	80.002	19.994	103.749	20.076	-8.474	0.523
1035.500	603.197	80.001	19.994	103.754	20.075	-8.426	0.528
1036.000	603.459	80.003	19.992	103.761	20.074	-8.357	0.521
1036.500	603.712	80.002	19.993	103.769	20.074	-8.297	0.512
1037.000	603.983	80.002	19.995	103.777	20.075	-8.428	0.520
1037.501	604.247	80.002	19.994	103.778	20.076	-8.505	0.530
1038.001	604.500	80.000	19.992	103.776	20.076	-8.468	0.526
1038.501	604.767	80.002	19.994	103.771	20.073	-8.237	0.519
1039.000	605.024	80.003	19.995	103.766	20.075	-8.441	0.522
1039.500	605.303	80.001	19.993	103.764	20.076	-8.516	0.530
1040.000	605.569	80.002	19.995	103.767	20.074	-8.340	0.541
1040.500	605.837	80.002	19.994	103.770	20.076	-8.447	0.539
1041.000	606.062	80.004	19.995	103.777	20.073	-8.289	0.513
1041.500	606.358	80.003	19.994	103.781	20.078	-8.624	0.508
1042.000	606.644	80.002	19.995	103.782	20.078	-8.605	0.552
1042.500	606.877	80.003	19.994	103.781	20.077	-8.524	0.550
1043.001	607.149	80.001	19.994	103.781	20.073	-8.266	0.512
1043.501	607.401	80.002	19.994	103.780	20.077	-8.528	0.515
1044.000	607.681	80.004	19.994	103.781	20.079	-8.715	0.528
1044.500	607.942	80.003	19.993	103.778	20.074	-8.335	0.536
1045.000	608.224	80.005	19.994	103.771	20.075	-8.415	0.542
1045.500	608.493	80.004	19.993	103.763	20.075	-8.435	0.547
1046.000	608.759	80.003	19.994	103.757	20.078	-8.657	0.543
1046.500	608.998	80.004	19.994	103.752	20.079	-8.674	0.520
1047.000	609.334	80.005	19.994	103.754	20.076	-8.514	0.540
1047.500	609.576	80.005	19.994	103.757	20.075	-8.377	0.577
1048.000	609.838	80.004	19.993	103.759	20.079	-8.708	0.541
1048.500	610.099	80.003	19.993	103.759	20.074	-8.334	0.514
1049.000	610.356	80.004	19.995	103.758	20.075	-8.392	0.521
1049.500	610.646	80.002	19.994	103.757	20.077	-8.544	0.533
1050.000	610.862	80.004	19.992	103.762	20.078	-8.648	0.526
1050.500	611.165	80.003	19.994	103.767	20.077	-8.546	0.512
1051.000	611.438	80.002	19.994	103.774	20.080	-8.809	0.547
1051.500	611.691	80.002	19.993	103.780	20.077	-8.587	0.552
1052.000	611.954	80.003	19.994	103.783	20.078	-8.654	0.521
1052.500	612.199	80.003	19.993	103.784	20.078	-8.617	0.512
1053.000	612.465	80.001	19.994	103.785	20.071	-8.130	0.509
1053.501	612.793	80.002	19.993	103.785	20.072	-8.163	0.553
1054.001	613.037	80.002	19.994	103.785	20.074	-8.331	0.583
1054.501	613.339	79.999	19.993	103.785	20.076	-8.498	0.559
1055.000	613.571	80.001	19.993	103.785	20.075	-8.403	0.540
1055.500	613.852	80.001	19.994	103.782	20.073	-8.245	0.523
1056.000	614.124	80.001	19.994	103.775	20.073	-8.285	0.533
1056.500	614.382	80.001	19.994	103.767	20.076	-8.466	0.541
1057.000	614.659	80.001	19.993	103.761	20.075	-8.392	0.532
1057.500	614.895	80.001	19.993	103.758	20.077	-8.562	0.524
1058.000	615.175	80.001	19.995	103.760	20.076	-8.518	0.515
1058.500	615.470	80.002	19.994	103.765	20.077	-8.551	0.545
1059.000	615.690	80.001	19.994	103.770	20.079	-8.709	0.545
1059.500	615.979	80.002	19.994	103.776	20.079	-8.696	0.512
1060.000	616.262	80.000	19.994	103.776	20.077	-8.536	0.540
1060.500	616.501	80.000	19.994	103.770	20.076	-8.472	0.547
1061.000	616.737	80.000	19.993	103.772	20.078	-8.662	0.499
1061.500	617.036	80.000	19.993	103.777	20.078	-8.659	0.505
1062.000	617.337	80.001	19.995	103.782	20.076	-8.457	0.568
1062.500	617.583	80.000	19.994	103.788	20.075	-8.387	0.574
1063.000	617.868	80.000	19.994	103.801	20.077	-8.584	0.539
1063.500	618.127	80.000	19.994	103.803	20.078	-8.608	0.537
1064.000	618.393	80.000	19.994	103.801	20.079	-8.677	0.534
1064.500	618.649	80.002	19.993	103.792	20.078	-8.617	0.524
1065.000	618.906	80.000	19.995	103.782	20.077	-8.525	0.517
1065.500	619.157	80.001	19.993	103.767	20.079	-8.696	0.510
1066.000	619.408	80.000	19.994	103.757	20.081	-8.818	0.505
1066.500	619.674	80.002	19.994	103.754	20.080	-8.760	0.509
1067.000	619.946	80.000	19.993	103.759	20.081	-8.875	0.527
1067.500	620.180	80.001	19.993	103.766	20.080	-8.794	0.523
1068.000	620.479	79.999	19.993	103.770	20.081	-8.858	0.520
1068.500	620.714	80.001	19.994	103.769	20.078	-8.649	0.533
1069.000	621.008	80.001	19.993	103.767	20.079	-8.736	0.531
1069.500	621.248	80.001	19.993	103.760	20.080	-8.814	0.531
1070.001	621.558	80.001	19.993	103.757	20.081	-8.820	0.542
1070.501	621.783	80.001	19.994	103.756	20.082	-8.914	0.542
1071.000	622.053	80.002	19.993	103.757	20.080	-8.802	0.515
1071.500	622.340	80.002	19.994	103.762	20.084	-9.079	0.526
1072.000	622.564	80.001	19.993	103.764	20.082	-8.927	0.535
1072.500	622.860	80.003	19.994	103.759	20.082	-8.956	0.516
1073.000	623.096	80.004	19.995	103.756	20.083	-9.008	0.526
1073.500	623.379	80.002	19.995	103.760	20.080	-8.796	0.526
1074.000	623.640	80.001	19.994	103.761	20.080	-8.801	0.531
1074.500	623.907	80.002	19.995	103.765	20.081	-8.855	0.535
1075.000	624.132	80.001	19.995	103.769	20.081	-8.827	0.510
1075.500	624.420	80.002	19.994	103.774	20.080	-8.750	0.503
1076.001	624.683	80.000	19.994	103.774	20.084	-9.060	0.533
1076.501	624.944	80.001	19.994	103.774	20.077	-8.590	0.538
1077.000	625.204	80.003	19.994	103.774	20.082	-8.904	0.522
1077.500	625.492	80.000	19.994	103.777	20.081	-8.845	0.534
1078.000	625.731	80.002	19.994	103.779	20.082	-8.920	0.537
1078.500	626.019	80.001	19.994	103.777	20.080	-8.801	0.527
1079.000	626.264	80.001	19.995	103.771	20.082	-8.921	0.530
1079.500	626.553	80.001	19.994	103.764	20.080	-8.768	0.533
1080.000	626.830	80.002	19.995	103.757	20.081	-8.826	0.550
1080.500	627.072	80.002	19.994	103.750	20.080	-8.805	0.543
1081.000	627.342	80.001	19.994	103.748	20.081	-8.834	0.516
1081.500	627.577	80.001	19.995	103.755	20.086	-9.194	0.508
1082.000	627.871	80.002	19.994	103.755	20.082	-8.957	0.516
1082.500	628.135	80.001	19.995	103.758	20.082	-8.926	0.543
1083.000	628.390	80.001	19.995	103.757	20.080	-8.793	0.539
1083.500	628.638	79.999	19.994	103.757	20.085	-9.132	0.511
1084.001	628.903	80.000	19.995	103.754	20.079	-8.686	0.508
1084.501	629.144	80.000	19.995	103.757	20.079	-8.716	0.509
1085.000	629.382	80.001	19.995	103.761	20.081	-8.841	0.492
1085.500	629.639	80.000	19.996	103.769	20.084	-9.086	0.487
1086.000	629.938	80.001	19.996	103.774	20.079	-8.726	0.525
1086.500	630.197	80.000	19.995	103.777	20.083	-8.984	0.557
1087.001	630.438	80.001	19.997	103.780	20.085	-9.152	0.530
1087.501	630.703	80.000	19.995	103.780	20.088	-9.343	0.503
1088.000	630.962	80.000	19.995	103.778	20.087	-9.277	0.515
1088.500	631.223	80.002	19.995	103.772	20.084	-9.105	0.522
1089.000	631.495	80.001	19.995	103.768	20.082	-8.920	0.526
1089.501	631.700	80.000	19.994	103.765	20.083	-9.000	0.505
1090.001	632.005	80.001	19.995	103.764	20.085	-9.128	0.493
1090.500	632.261	79.999	19.994	103.763	20.083	-8.997	0.536
1091.000	632.496	80.002	19.995	103.767	20.083	-9.007	0.527
1091.500	632.752	80.000	19.995	103.769	20.081	-8.838	0.491
1092.000	632.978	80.001	19.995	103.768	20.083	-9.027	0.486
1092.500	633.246	80.001	19.994	103.766	20.085	-9.174	0.488
1093.000	633.518	80.002	19.994	103.768	20.083	-8.987	0.517
1093.500	633.808	80.000	19.995	103.769	20.085	-9.152	0.551
1094.000	634.030	80.001	19.994	103.772	20.083	-8.998	0.537
1094.500	634.301	80.001	19.995	103.775	20.083	-8.970	0.503
1095.000	634.557	80.003	19.995	103.778	20.085	-9.118	0.510
1095.500	634.794	80.003	19.995	103.771	20.084	-9.101	0.510
1096.000	635.051	80.002	19.995	103.772	20.086	-9.199	0.493
1096.500	635.292	80.003	19.995	103.773	20.081	-8.885	0.496
1097.000	635.555	80.001	19.995	103.768	20.085	-9.161	0.501
1097.500	635.809	80.002	19.995	103.763	20.086	-9.230	0.511
1098.000	636.093	80.002	19.993	103.763	20.085	-9.128	0.528
1098.500	636.341	80.000	19.995	103.762	20.084	-9.110	0.535
1099.000	636.611	80.001	19.995	103.763	20.082	-8.923	0.525
1099.500	636.872	80.002	19.995	103.768	20.085	-9.167	0.525
1100.000	637.095	80.002	19.994	103.775	20.083	-9.005	0.507
1100.500	637.359	80.002	19.994	103.779	20.084	-9.084	0.485
1101.000	637.606	80.003	19.995	103.774	20.084	-9.113	0.499
1101.500	637.864	80.002	19.995	103.771	20.088	-9.348	0.508
1102.000	638.143	80.002	19.994	103.765	20.085	-9.144	0.521
1102.500	638.357	80.003	19.994	103.760	20.084	-9.054	0.515
1103.000	638.607	80.003	19.994	103.755	20.086	-9.218	0.479
1103.501	638.881	80.002	19.994	103.758	20.087	-9.265	0.494
1104.001	639.136	80.002	19.995	103.759	20.084	-9.086	0.526
1104.500	639.374	80.002	19.994	103.760	20.086	-9.242	0.510
1105.000	639.631	80.001	19.995	103.765	20.085	-9.142	0.494
1105.500	639.866	80.000	19.994	103.772	20.083	-8.979	0.494
1106.000	640.130	80.000	19.995	103.774	20.085	-9.139	0.496
1106.500	640.364	80.000	19.995	103.774	20.084	-9.056	0.498
1107.000	640.633	80.002	19.994	103.780	20.082	-8.963	0.500
1107.500	640.863	80.000	19.995	103.780	20.085	-9.147	0.501
1108.000	641.132	80.001	19.994	103.774	20.085	-9.140	0.499
1108.500	641.368	80.000	19.995	103.773	20.084	-9.076	0.502
1109.001	641.636	80.001	19.995	103.770	20.090	-9.535	0.504
1109.501	641.878	80.000	19.995	103.764	20.086	-9.204	0.507
1110.000	642.115	80.001	19.995	103.758	20.089	-9.432	0.495
1110.500	642.396	80.001	19.995	103.764	20.087	-9.332	0.499
1111.000	642.615	80.001	19.995	103.765	20.088	-9.367	0.509
1111.500	642.874	80.001	19.996	103.768	20.088	-9.394	0.489
1112.000	643.085	80.001	19.996	103.767	20.085	-9.172	0.474
1112.500	643.371	80.000	19.995	103.768	20.087	-9.284	0.483
1113.000	643.604	80.002	19.995	103.762	20.087	-9.274	0.507
1113.500	643.855	80.000	19.995	103.761	20.087	-9.279	0.502
1114.000	644.116	80.002	19.995	103.761	20.084	-9.107	0.498
1114.500	644.313	80.000	19.996	103.767	20.083	-9.026	0.485
1115.001	644.573	80.002	19.996	103.767	20.087	-9.313	0.457
1115.501	644.831	80.001	19.996	103.767	20.091	-9.569	0.488
1116.000	645.069	80.001	19.994	103.765	20.086	-9.247	0.507
1116.500	645.328	80.001	19.995	103.761	20.085	-9.147	0.497
1117.000	645.583	80.001	19.994	103.757	20.089	-9.427	0.505
1117.500	645.807	80.002	19.995	103.761	20.090	-9.502	0.496
1118.000	646.070	80.001	19.995	103.769	20.088	-9.363	0.483
1118.500	646.320	80.002	19.995	103.773	20.083	-9.014	0.500
1119.000	646.550	80.002	19.994	103.774	20.091	-9.593	0.496
1119.500	646.839	80.002	19.994	103.775	20.086	-9.218	0.499
1120.000	647.062	80.001	19.995	103.773	20.077	-8.572	0.515
1120.500	647.328	80.002	19.994	103.764	20.084	-9.064	0.501
1121.000	647.542	80.002	19.994	103.756	20.082	-8.907	0.485
1121.501	647.816	80.003	19.995	103.754	20.087	-9.271	0.484
1122.001	648.031	80.002	19.994	103.756	20.082	-8.953	0.488
1122.501	648.317	80.002	19.993	103.755	20.086	-9.252	0.494
1123.001	648.542	80.003	19.994	103.755	20.084	-9.100	0.506
1123.500	648.814	80.001	19.993	103.755	20.084	-9.108	0.504
1124.000	649.081	80.001	19.993	103.755	20.087	-9.268	0.518
1124.500	649.289	80.003	19.993	103.748	20.083	-9.029	0.507
1125.000	649.545	80.003	19.993	103.744	20.082	-8.925	0.470
1125.500	649.826	80.002	19.994	103.747	20.088	-9.359	0.501
1126.000	650.052	80.002	19.993	103.751	20.082	-8.950	0.522
1126.500	650.330	80.003	19.992	103.756	20.087	-9.299	0.505
1127.000	650.534	80.004	19.994	103.756	20.087	-9.318	0.493
1127.500	650.776	80.003	19.995	103.756	20.086	-9.194	0.464
1128.000	651.048	80.002	19.994	103.753	20.083	-9.033	0.480
1128.500	651.288	80.004	19.993	103.753	20.078	-8.654	0.512
1129.000	651.559	80.003	19.993	103.750	20.086	-9.213	0.511
1129.500	651.808	80.002	19.994	103.751	20.082	-8.950	0.516
1130.000	652.024	80.002	19.993	103.751	20.079	-8.721	0.493
1130.500	652.238	80.004	19.995	103.756	20.083	-9.028	0.447
1131.001	652.571	80.002	19.993	103.755	20.082	-8.903	0.488
1131.501	652.678	80.001	19.995	103.758	20.077	-8.552	0.494
1132.000	653.019	80.001	19.993	103.764	20.077	-8.558	0.444
1132.500	653.166	80.001	19.995	103.769	20.082	-8.912	0.468
1133.000	653.490	80.003	19.995	103.771	20.079	-8.723	0.480
1133.500	653.305	79.999	19.995	103.771	20.079	-8.734	0.306
1134.000	653.595	80.002	19.994	103.766	20.081	-8.820	0.122
1134.500	654.233	80.000	19.995	103.764	20.078	-8.637	0.516
1135.000	654.522	79.999	19.994	103.764	20.082	-8.949	0.927
1135.500	654.817	80.000	19.994	103.761	20.081	-8.824	0.756
1136.000	654.979	80.001	19.993	103.758	20.079	-8.742	0.521
1136.500	655.300	80.001	19.994	103.758	20.094	-9.828	0.470
1137.001	655.472	80.000	19.994	103.760	20.074	-8.340	0.488
1137.501	655.806	80.001	19.994	103.760	20.078	-8.627	0.499
1138.000	656.005	80.001	19.994	103.763	20.079	-8.737	0.519
1138.500	656.291	80.001	19.994	103.771	20.080	-8.754	0.509
1139.000	656.478	80.001	19.994	103.778	20.076	-8.511	0.479
1139.500	656.808	79.999	19.995	103.776	20.079	-8.704	0.495
1140.000	657.047	80.000	19.994	103.771	20.082	-8.949	0.543
1140.500	657.264	80.001	19.995	103.763	20.080	-8.745	0.512
1141.000	657.524	80.002	19.995	103.758	20.079	-8.712	0.467
1141.500	657.788	80.001	19.993	103.752	20.085	-9.142	0.501
1142.000	658.083	80.002	19.994	103.745	20.085	-9.128	0.542
1142.501	658.221	79.999	19.994	103.745	20.080	-8.815	0.496
1143.001	658.532	80.001	19.994	103.748	20.081	-8.850	0.441
1143.501	658.743	80.001	19.993	103.750	20.081	-8.863	0.486
1144.001	659.002	80.001	19.994	103.757	20.078	-8.642	0.496
1144.501	659.300	80.002	19.994	103.764	20.082	-8.930	0.513
1145.000	659.529	80.002	19.994	103.769	20.079	-8.735	0.541
1145.500	659.797	80.001	19.993	103.770	20.081	-8.868	0.512
1146.001	660.015	79.999	19.994	103.769	20.078	-8.614	0.492
1146.501	660.259	80.001	19.995	103.762	20.086	-9.213	0.474
1147.001	660.524	80.001	19.994	103.756	20.080	-8.757	0.485
1147.501	660.794	80.001	19.994	103.752	20.080	-8.764	0.522
1148.001	661.133	80.000	19.994	103.748	20.079	-8.727	0.572
1148.501	661.197	80.002	19.994	103.745	20.081	-8.879	0.507
1149.001	661.631	79.999	19.994	103.751	20.085	-9.122	0.450
1149.500	661.753	80.000	19.994	103.751	20.083	-9.030	0.526
1150.000	662.028	80.000	19.995	103.752	20.084	-9.085	0.476
1150.500	662.664	80.001	19.994	103.752	20.081	-8.868	0.654
1151.000	661.946	80.001	19.994	103.752	20.085	-9.153	0.415
1151.500	662.781	80.002	19.994	103.746	20.083	-8.969	0.018
1152.000	663.081	80.001	19.993	103.746	20.082	-8.915	0.626
1152.500	663.348	80.001	19.993	103.749	20.085	-9.142	0.851
1153.000	663.630	80.001	19.993	103.753	20.084	-9.086	0.558
1153.500	663.870	80.001	19.994	103.754	20.084	-9.084	0.535
1154.000	664.155	80.002	19.993	103.756	20.077	-8.547	0.523
1154.500	664.391	80.001	19.994	103.756	20.083	-9.036	0.523
1155.000	664.657	80.000	19.993	103.753	20.082	-8.951	0.511
1155.500	664.954	80.001	19.994	103.749	20.077	-8.562	0.533
1156.000	665.196	80.002	19.994	103.747	20.080	-8.776	0.551
1156.500	665.440	80.002	19.993	103.745	20.082	-8.930	0.512
1157.000	665.730	80.001	19.994	103.746	20.080	-8.772	0.510
1157.500	665.969	80.000	19.995	103.753	20.081	-8.839	0.532
1158.001	666.223	80.001	19.992	103.759	20.082	-8.908	0.511
1158.501	666.510	80.001	19.994	103.765	20.081	-8.862	0.517
1159.001	666.786	79.999	19.994	103.772	20.082	-8.929	0.552
1159.500	667.021	80.002	19.994	103.777	20.083	-8.971	0.538
1160.000	667.324	80.000	19.994	103.777	20.082	-8.910	0.524
1160.500	667.567	80.000	19.995	103.776	20.079	-8.713	0.541
1161.000	667.847	79.999	19.993	103.778	20.083	-8.993	0.535
1161.500	668.118	80.000	19.994	103.778	20.083	-9.037	0.537
1162.001	668.357	80.001	19.994	103.772	20.081	-8.819	0.531
1162.501	668.649	79.999	19.993	103.767	20.086	-9.214	0.521
1163.000	668.932	80.000	19.995	103.767	20.083	-8.987	0.553
1163.500	669.168	80.002	19.995	103.764	20.086	-9.193	0.547
1164.000	669.437	80.000	19.994	103.765	20.086	-9.250	0.511
1164.500	669.707	79.999	19.994	103.766	20.079	-8.728	0.522
1165.000	669.966	80.001	19.994	103.766	20.083	-8.978	0.535
1165.500	670.258	80.001	19.994	103.764	20.085	-9.184	0.540
1166.000	670.482	80.000	19.995	103.767	20.082	-8.936	0.533
1166.501	670.796	80.001	19.994	103.764	20.087	-9.313	0.526
1167.001	671.043	80.000	19.994	103.766	20.084	-9.109	0.549
1167.501	671.338	80.000	19.994	103.771	20.087	-9.290	0.552
1168.001	671.595	80.000	19.993	103.772	20.085	-9.171	0.547
1168.500	671.836	80.000	19.994	103.772	20.085	-9.138	0.525
1169.000	672.175	80.000	19.995	103.776	20.089	-9.450	0.539
1169.500	672.392	80.000	19.993	103.779	20.089	-9.431	0.568
1170.000	672.650	80.000	19.994	103.779	20.088	-9.369	0.516
1170.501	672.924	80.000	19.994	103.780	20.088	-9.354	0.504
1171.001	673.190	79.999	19.994	103.779	20.092	-9.667	0.535
1171.501	673.485	80.000	19.994	103.779	20.087	-9.270	0.550
1172.001	673.732	79.999	19.995	103.779	20.089	-9.432	0.552
1172.500	674.014	80.000	19.994	103.779	20.084	-9.114	0.536
1173.001	674.294	80.001	19.995	103.782	20.083	-9.003	0.545
1173.501	674.543	80.001	19.996	103.782	20.089	-9.459	0.545
1174.001	674.830	80.001	19.995	103.779	20.088	-9.409	0.533
1174.501	675.079	80.001	19.994	103.776	20.087	-9.320	0.536
1175.000	675.387	80.000	19.994	103.771	20.087	-9.320	0.546
1175.500	675.643	80.001	19.995	103.768	20.089	-9.445	0.560
1176.000	675.913	80.000	19.993	103.769	20.086	-9.221	0.545
1176.500	676.202	80.000	19.995	103.771	20.082	-8.909	0.542
1177.000	676.494	80.002	19.994	103.771	20.088	-9.366	0.570
1177.500	676.755	80.001	19.995	103.773	20.086	-9.235	0.567
1178.000	677.038	80.001	19.994	103.772	20.085	-9.165	0.549
1178.501	677.255	80.000	19.993	103.769	20.081	-8.821	0.522
1179.001	677.574	80.004	19.994	103.769	20.084	-9.068	0.518
1179.500	677.800	80.003	19.995	103.773	20.086	-9.207	0.540
1180.000	678.101	80.001	19.994	103.773	20.085	-9.166	0.536
1180.501	678.393	80.003	19.994	103.770	20.085	-9.146	0.560
1181.001	678.643	80.001	19.994	103.769	20.085	-9.156	0.568
1181.500	678.902	80.002	19.994	103.764	20.082	-8.932	0.525
1182.000	679.189	80.000	19.994	103.758	20.082	-8.907	0.527
1182.500	679.453	80.001	19.994	103.754	20.081	-8.831	0.549
1183.000	679.710	80.002	19.994	103.756	20.081	-8.841	0.536
1183.500	679.997	80.002	19.995	103.755	20.080	-8.783	0.533
1184.000	680.267	80.002	19.994	103.752	20.085	-9.182	0.551
1184.500	680.525	80.001	19.994	103.753	20.083	-9.014	0.543
1185.000	680.812	80.002	19.994	103.754	20.084	-9.048	0.537
1185.501	681.068	80.000	19.994	103.759	20.085	-9.150	0.544
1186.001	681.357	80.000	19.994	103.762	20.084	-9.097	0.544
1186.501	681.589	80.001	19.994	103.763	20.081	-8.885	0.532
1187.000	681.863	80.000	19.993	103.768	20.089	-9.446	0.514
1187.500	682.174	80.001	19.994	103.770	20.083	-9.032	0.546
1188.000	682.430	80.001	19.994	103.768	20.084	-9.115	0.576
1188.500	682.687	80.002	19.995	103.767	20.085	-9.153	0.540
1189.000	682.928	79.999	19.993	103.765	20.088	-9.352	0.505
1189.500	683.229	80.001	19.994	103.759	20.090	-9.503	0.520
1190.000	683.514	80.001	19.995	103.754	20.084	-9.114	0.564
1190.500	683.721	80.000	19.993	103.754	20.086	-9.251	0.539
1191.000	684.007	80.002	19.995	103.758	20.092	-9.655	0.492
1191.500	684.279	79.999	19.994	103.762	20.083	-9.005	0.526
1192.000	684.535	80.001	19.994	103.766	20.083	-9.007	0.543
1192.501	684.810	80.000	19.993	103.769	20.086	-9.213	0.529
1193.001	685.049	80.000	19.994	103.763	20.083	-9.039	0.522
1193.500	685.317	80.001	19.995	103.757	20.089	-9.484	0.510
1194.000	685.617	80.000	19.994	103.753	20.084	-9.065	0.538
1194.501	685.857	80.000	19.993	103.749	20.088	-9.362	0.554
1195.001	686.121	79.999	19.993	103.751	20.082	-8.916	0.522
1195.500	686.397	80.001	19.994	103.753	20.084	-9.078	0.522
1196.001	686.653	80.000	19.994	103.760	20.083	-8.978	0.536
1196.501	686.894	80.001	19.994	103.766	20.083	-8.967	0.515
1197.000	687.134	80.002	19.995	103.773	20.083	-9.017	0.489
1197.500	687.435	80.000	19.994	103.775	20.081	-8.877	0.511
1198.000	687.700	80.001	19.995	103.775	20.088	-9.380	0.554
1198.500	687.983	80.001	19.995	103.773	20.082	-8.960	0.557
1199.000	688.245	80.002	19.995	103.771	20.082	-8.962	0.546
1199.501	688.530	80.001	19.995	103.770	20.088	-9.356	0.546
1200.001	688.792	80.001	19.995	103.765	20.083	-9.009	0.547
1200.500	689.029	80.002	19.994	103.762	20.092	-9.640	0.523
1201.000	689.299	80.002	19.996	103.757	20.088	-9.366	0.503
1201.500	689.577	80.003	19.995	103.752	20.085	-9.157	0.528
1202.001	689.856	80.002	19.994	103.744	20.085	-9.155	0.553
1202.501	690.118	80.002	19.995	103.743	20.087	-9.278	0.549
1203.000	690.379	80.002	19.995	103.745	20.088	-9.401	0.532
1203.500	690.657	80.002	19.996	103.745	20.088	-9.354	0.531
1204.000	690.897	80.000	19.994	103.749	20.089	-9.464	0.528
1204.500	691.208	80.002	19.995	103.756	20.086	-9.239	0.534
1205.000	691.439	80.003	19.996	103.762	20.088	-9.407	0.547
1205.500	691.695	80.001	19.994	103.766	20.087	-9.318	0.514
1206.000	691.958	80.001	19.995	103.772	20.091	-9.592	0.503
1206.500	692.196	80.003	19.995	103.770	20.088	-9.376	0.510
1207.000	692.491	80.003	19.994	103.767	20.087	-9.284	0.517
1207.500	692.755	80.002	19.996	103.762	20.087	-9.275	0.546
1208.000	693.037	80.001	19.993	103.761	20.086	-9.215	0.553
1208.500	693.253	80.002	19.995	103.761	20.088	-9.409	0.522
1209.000	693.486	80.001	19.994	103.759	20.090	-9.527	0.473
1209.500	693.779	80.002	19.995	103.755	20.093	-9.748	0.487
1210.000	694.003	80.000	19.994	103.754	20.087	-9.332	0.521
1210.500	694.302	80.000	19.994	103.747	20.085	-9.183	0.520
1211.000	694.568	79.999	19.995	103.742	20.088	-9.376	0.544
1211.500	694.812	79.999	19.994	103.742	20.090	-9.491	0.537
1212.000	695.129	80.001	19.995	103.743	20.090	-9.560	0.536
1212.501	695.390	80.000	19.993	103.746	20.092	-9.641	0.570
1213.001	695.656	80.001	19.994	103.752	20.089	-9.436	0.553
1213.501	695.901	80.001	19.994	103.758	20.089	-9.484	0.519
1214.000	696.187	79.999	19.994	103.762	20.087	-9.299	0.521
1214.500	696.440	80.000	19.995	103.764	20.086	-9.251	0.535
1215.000	696.688	80.000	19.995	103.761	20.085	-9.157	0.520
1215.500	696.981	79.999	19.995	103.759	20.088	-9.368	0.521
1216.000	697.239	79.998	19.993	103.757	20.088	-9.407	0.546
1216.500	697.494	80.000	19.993	103.756	20.086	-9.240	0.532
1217.001	697.769	80.001	19.993	103.753	20.086	-9.217	0.522
1217.501	698.055	79.999	19.994	103.754	20.085	-9.146	0.545
1218.001	698.295	79.999	19.993	103.751	20.088	-9.375	0.543
1218.501	698.544	79.998	19.994	103.749	20.087	-9.313	0.507
1219.000	698.796	79.998	19.994	103.750	20.083	-8.993	0.495
1219.500	699.090	79.999	19.995	103.755	20.088	-9.363	0.524
1220.000	699.341	79.999	19.995	103.757	20.087	-9.272	0.546
1220.500	699.599	80.001	19.995	103.758	20.089	-9.416	0.527
1221.000	699.840	80.002	19.994	103.759	20.087	-9.279	0.503
1221.500	700.115	80.000	19.994	103.757	20.087	-9.335	0.507
1222.000	700.362	79.999	19.994	103.757	20.087	-9.304	0.519
1222.500	700.653	80.001	19.994	103.762	20.092	-9.682	0.530
1223.000	700.919	80.000	19.994	103.768	20.088	-9.369	0.548
1223.500	701.196	80.001	19.995	103.773	20.089	-9.430	0.550
1224.000	701.440	80.000	19.994	103.778	20.083	-9.004	0.532
1224.500	701.733	80.000	19.994	103.779	20.086	-9.212	0.528
1225.000	701.937	80.000	19.993	103.778	20.087	-9.270	0.517
1225.500	702.228	80.001	19.994	103.776	20.086	-9.233	0.496
1226.000	702.512	80.001	19.995	103.768	20.091	-9.624	0.535
1226.500	702.764	80.002	19.995	103.762	20.089	-9.468	0.556
1227.000	703.054	80.001	19.994	103.756	20.091	-9.586	0.539
1227.500	703.293	80.001	19.994	103.749	20.085	-9.123	0.535
1228.000	703.521	80.001	19.994	103.744	20.087	-9.272	0.498
1228.500	703.791	80.001	19.993	103.744	20.085	-9.118	0.483
1229.001	704.063	80.001	19.995	103.744	20.083	-9.019	0.521
1229.501	704.345	79.999	19.993	103.748	20.085	-9.160	0.548
1230.000	704.604	80.000	19.993	103.749	20.084	-9.077	0.547
1230.500	704.851	80.001	19.995	103.754	20.088	-9.340	0.523
1231.001	705.103	80.000	19.994	103.760	20.085	-9.119	0.503
1231.501	705.367	80.002	19.995	103.763	20.086	-9.198	0.508
1232.001	705.658	80.002	19.994	103.764	20.083	-9.035	0.535
1232.501	705.924	80.000	19.994	103.770	20.083	-9.035	0.556
1233.001	706.203	79.999	19.993	103.770	20.084	-9.090	0.551
1233.501	706.438	80.000	19.995	103.769	20.089	-9.479	0.529
1234.000	706.695	79.999	19.994	103.768	20.084	-9.068	0.503
1234.500	707.008	80.000	19.994	103.763	20.088	-9.386	0.531
1235.001	707.231	80.000	19.995	103.758	20.085	-9.124	0.554
1235.501	707.560	80.000	19.994	103.759	20.085	-9.125	0.544
1236.000	707.804	79.999	19.994	103.756	20.086	-9.203	0.562
1236.500	708.074	80.000	19.995	103.759	20.087	-9.297	0.543
1237.000	708.311	80.000	19.994	103.763	20.085	-9.187	0.511
1237.500	708.572	80.000	19.994	103.764	20.086	-9.195	0.503
1238.000	708.841	79.999	19.993	103.763	20.088	-9.393	0.514
1238.500	709.154	80.000	19.994	103.761	20.090	-9.545	0.556
1239.001	709.410	79.999	19.994	103.759	20.087	-9.275	0.576
1239.501	709.652	79.999	19.994	103.759	20.086	-9.226	0.533
1240.001	709.943	80.000	19.994	103.760	20.085	-9.166	0.515
1240.500	710.171	80.000	19.993	103.759	20.092	-9.643	0.526
1241.000	710.414	79.999	19.996	103.766	20.090	-9.529	0.496
1241.501	710.759	79.999	19.994	103.769	20.090	-9.491	0.530
1242.001	711.002	80.000	19.994	103.766	20.084	-9.104	0.588
1242.500	711.257	80.000	19.995	103.764	20.088	-9.373	0.543
1243.000	711.489	79.998	19.994	103.762	20.087	-9.319	0.492
1243.500	711.757	79.999	19.994	103.755	20.090	-9.502	0.494
1244.000	712.035	79.999	19.994	103.749	20.089	-9.463	0.524
1244.500	712.292	80.000	19.994	103.750	20.089	-9.434	0.541
1245.001	712.572	79.999	19.993	103.752	20.088	-9.394	0.536
1245.501	712.824	79.999	19.994	103.753	20.088	-9.386	0.535
1246.000	713.129	79.999	19.994	103.757	20.085	-9.174	0.544
1246.500	713.339	79.999	19.993	103.760	20.085	-9.155	0.536
1247.000	713.617	79.999	19.993	103.758	20.090	-9.523	0.501
1247.500	713.883	79.999	19.994	103.755	20.088	-9.361	0.516
1248.000	714.161	79.999	19.993	103.756	20.092	-9.664	0.544
1248.500	714.378	79.999	19.994	103.755	20.092	-9.657	0.520
1249.000	714.664	80.000	19.992	103.758	20.092	-9.696	0.499
1249.500	714.951	79.999	19.993	103.763	20.089	-9.442	0.538
1250.000	715.233	80.001	19.993	103.771	20.086	-9.201	0.571
1250.500	715.496	80.000	19.993	103.777	20.087	-9.280	0.558
1251.001	715.776	79.998	19.992	103.778	20.092	-9.678	0.544
1251.501	715.995	79.999	19.993	103.774	20.088	-9.381	0.520
1252.000	716.289	80.000	19.994	103.774	20.092	-9.707	0.506
1252.501	716.551	80.002	19.994	103.769	20.088	-9.395	0.535
1253.001	716.839	80.000	19.993	103.766	20.089	-9.486	0.553
1253.500	717.084	80.003	19.993	103.769	20.090	-9.532	0.541
1254.000	717.342	80.000	19.993	103.775	20.090	-9.540	0.518
1254.500	717.611	80.001	19.994	103.771	20.092	-9.648	0.515
1255.000	717.872	80.001	19.994	103.775	20.090	-9.544	0.528
1255.500	718.134	80.000	19.993	103.777	20.094	-9.841	0.526
1256.000	718.395	80.001	19.992	103.777	20.088	-9.339	0.523
1256.500	718.659	80.000	19.993	103.776	20.089	-9.466	0.524
1257.000	718.931	80.001	19.993	103.780	20.089	-9.452	0.530
1257.500	719.186	80.003	19.993	103.778	20.091	-9.624	0.532
1258.000	719.440	80.001	19.994	103.777	20.093	-9.734	0.518
1258.500	719.685	80.002	19.994	103.773	20.088	-9.409	0.504
1259.000	719.985	80.002	19.994	103.769	20.093	-9.739	0.522
1259.500	720.242	80.001	19.994	103.764	20.089	-9.485	0.551
1260.000	720.506	80.001	19.995	103.761	20.091	-9.612	0.539
1260.500	720.746	80.001	19.994	103.757	20.093	-9.756	0.512
1261.000	721.035	80.001	19.994	103.754	20.089	-9.422	0.516
1261.500	721.299	80.000	19.994	103.759	20.093	-9.717	0.541
1262.000	721.568	80.001	19.994	103.763	20.089	-9.486	0.543
1262.500	721.831	80.001	19.995	103.765	20.090	-9.561	0.533
1263.000	722.096	80.000	19.994	103.761	20.087	-9.327	0.530
1263.500	722.328	79.999	19.994	103.765	20.092	-9.705	0.513
1264.000	722.586	80.001	19.994	103.763	20.091	-9.607	0.493
1264.500	722.850	80.001	19.994	103.759	20.090	-9.521	0.506
1265.000	723.104	80.002	19.995	103.758	20.089	-9.450	0.520
1265.500	723.395	80.000	19.994	103.759	20.094	-9.786	0.531
1266.000	723.629	80.001	19.995	103.756	20.095	-9.892	0.536
1266.500	723.893	80.000	19.995	103.756	20.092	-9.680	0.512
1267.000	724.174	80.001	19.995	103.760	20.094	-9.848	0.521
1267.501	724.428	80.001	19.994	103.765	20.090	-9.545	0.539
1268.001	724.698	80.000	19.994	103.769	20.086	-9.219	0.529
1268.500	724.956	80.001	19.995	103.767	20.086	-9.257	0.526
1269.000	725.235	80.000	19.995	103.762	20.090	-9.517	0.533
1269.500	725.471	80.001	19.995	103.755	20.090	-9.526	0.526
1270.001	725.747	80.001	19.994	103.747	20.087	-9.300	0.513
1270.501	726.004	80.000	19.994	103.748	20.088	-9.342	0.523
1271.000	726.288	80.001	19.995	103.751	20.087	-9.277	0.537
1271.500	726.521	80.001	19.994	103.753	20.086	-9.242	0.529
1272.000	726.807	80.001	19.994	103.758	20.090	-9.532	0.518
1272.500	727.053	80.001	19.994	103.759	20.086	-9.208	0.526
1273.000	727.326	80.002	19.994	103.761	20.087	-9.315	0.525
1273.500	727.583	80.003	19.994	103.765	20.090	-9.539	0.524
1274.000	727.878	80.003	19.993	103.765	20.089	-9.427	0.541
1274.500	728.123	80.003	19.995	103.761	20.082	-8.895	0.546
1275.000	728.417	80.002	19.994	103.759	20.088	-9.400	0.540
1275.500	728.628	80.001	19.996	103.751	20.087	-9.271	0.522
1276.000	728.908	80.003	19.994	103.745	20.083	-9.018	0.498
1276.501	729.183	80.003	19.994	103.742	20.088	-9.406	0.523
1277.001	729.419	80.001	19.993	103.742	20.087	-9.276	0.533
1277.500	729.714	80.004	19.995	103.742	20.088	-9.399	0.521
1278.001	729.935	80.002	19.993	103.742	20.086	-9.257	0.524
1278.501	730.192	80.001	19.994	103.742	20.087	-9.334	0.497
1279.000	730.477	80.002	19.994	103.749	20.088	-9.343	0.510
1279.500	730.748	80.004	19.994	103.752	20.088	-9.364	0.549
1280.000	731.008	80.003	19.994	103.757	20.090	-9.522	0.544
1280.500	731.234	80.003	19.995	103.764	20.084	-9.082	0.509
1281.000	731.531	80.003	19.994	103.772	20.089	-9.446	0.505
1281.500	731.756	80.003	19.994	103.772	20.091	-9.618	0.522
1282.000	731.993	80.001	19.994	103.772	20.091	-9.614	0.492
1282.501	732.282	80.004	19.994	103.770	20.087	-9.298	0.494
1283.001	732.535	80.002	19.994	103.766	20.086	-9.200	0.534
1283.500	732.834	80.002	19.994	103.758	20.086	-9.257	0.547
1284.000	733.082	80.003	19.993	103.751	20.088	-9.357	0.549
1284.500	733.293	80.003	19.994	103.746	20.086	-9.245	0.503
1285.001	733.563	80.002	19.994	103.748	20.087	-9.333	0.470
1285.501	733.822	80.002	19.994	103.750	20.088	-9.373	0.505
1286.001	734.082	80.001	19.996	103.751	20.088	-9.410	0.524
1286.501	734.329	80.002	19.995	103.750	20.086	-9.193	0.513
1287.001	734.562	80.000	19.995	103.750	20.088	-9.349	0.493
1287.500	734.866	80.001	19.996	103.743	20.090	-9.519	0.509
1288.000	735.147	80.002	19.994	103.736	20.084	-9.101	0.561
1288.500	735.365	80.000	19.994	103.735	20.086	-9.244	0.542
1289.000	735.666	80.000	19.995	103.735	20.085	-9.180	0.509
1289.500	735.899	80.000	19.995	103.735	20.086	-9.223	0.527
1290.001	736.188	80.000	19.994	103.737	20.086	-9.215	0.528
1290.501	736.417	80.001	19.995	103.742	20.086	-9.248	0.520
1291.001	736.705	80.000	19.995	103.743	20.087	-9.329	0.517
1291.501	736.931	80.000	19.995	103.747	20.084	-9.093	0.516
1292.000	737.216	80.000	19.995	103.749	20.085	-9.153	0.513
1292.501	737.490	79.999	19.996	103.750	20.086	-9.192	0.535
1293.001	737.718	80.001	19.995	103.749	20.086	-9.248	0.530
1293.500	737.989	79.999	19.995	103.749	20.087	-9.287	0.500
1294.001	738.234	80.000	19.996	103.746	20.088	-9.373	0.507
1294.501	738.516	80.000	19.995	103.751	20.089	-9.439	0.522
1295.000	738.764	80.000	19.995	103.757	20.092	-9.668	0.529
1295.500	739.033	79.999	19.995	103.760	20.086	-9.230	0.524
1296.000	739.261	79.999	19.995	103.766	20.090	-9.535	0.507
1296.500	739.514	80.000	19.995	103.769	20.090	-9.506	0.489
1297.000	739.777	80.000	19.996	103.764	20.084	-9.061	0.499
1297.500	740.076	80.002	19.995	103.759	20.087	-9.321	0.539
1298.000	740.327	80.001	19.994	103.760	20.091	-9.574	0.556
1298.500	740.581	79.999	19.995	103.754	20.087	-9.279	0.527
1299.000	740.839	80.001	19.995	103.750	20.090	-9.522	0.509
1299.501	741.136	80.000	19.995	103.749	20.088	-9.371	0.534
1300.001	741.353	80.000	19.995	103.748	20.085	-9.152	0.534
1300.500	741.609	80.000	19.993	103.742	20.086	-9.240	0.493
1301.000	741.856	80.000	19.995	103.744	20.087	-9.267	0.488
1301.500	742.122	80.002	19.995	103.747	20.086	-9.223	0.509
1302.001	742.366	80.002	19.995	103.748	20.085	-9.151	0.512
1302.501	742.620	80.000	19.994	103.751	20.086	-9.194	0.504
1303.000	742.874	80.001	19.994	103.753	20.085	-9.174	0.503
1303.500	743.136	80.000	19.994	103.751	20.088	-9.342	0.512
1304.000	743.395	80.001	19.994	103.747	20.088	-9.349	0.519
1304.500	743.613	80.001	19.994	103.745	20.089	-9.453	0.500
