Sample ID:	C:\MCC\MCC Cal\Test\Air_Fryer_MCC_30K_min_220203_R3.txt
Sample Weight (mg):	4.11
Heating Rate (C/s):	0.5
Combustor Temp (C):	900
N2 Flow Rate (cc/min):	80
O2 Flow Rate (cc/min):	20
Calibration File:	C:\MCC\MCC Cal\Coeff1 JN10440_30_210304.txt.txt
T Correction Coefficients:	0	1.024463	0
Time Shift (s):	14
*
Time (s)	Temperature (C)	N2 flow rate (cc/min)	O2 flow rate (cc/min)	Flow Rate (cc/min)	Oxygen (%)	HRR (W/g)	Heating rate (C/s)
0.000	114.349	80.007	19.993	103.834	20.179	-0.484	-0.006
0.500	114.359	80.006	19.993	103.834	20.177	-0.330	-0.004
1.000	114.345	80.009	19.993	103.834	20.178	-0.401	-0.000
1.500	114.358	80.008	19.993	103.834	20.176	-0.197	-0.003
2.000	114.387	80.008	19.994	103.832	20.176	-0.250	0.021
2.500	114.361	80.009	19.994	103.831	20.174	-0.033	0.022
3.000	114.334	80.008	19.995	103.831	20.177	-0.289	-0.025
3.500	114.367	80.009	19.994	103.832	20.176	-0.197	-0.023
4.000	114.329	80.009	19.993	103.832	20.174	-0.048	0.001
4.500	114.329	80.009	19.993	103.832	20.176	-0.234	-0.021
5.000	114.338	80.008	19.993	103.832	20.174	-0.063	-0.014
5.500	114.365	80.008	19.994	103.832	20.175	-0.171	0.023
6.000	114.356	80.008	19.994	103.832	20.172	0.069	0.027
6.500	114.360	80.008	19.993	103.832	20.173	-0.002	0.006
7.000	114.346	80.008	19.994	103.832	20.175	-0.156	-0.008
7.500	114.366	80.007	19.993	103.832	20.179	-0.471	-0.002
8.000	114.341	80.008	19.993	103.833	20.172	0.091	0.001
8.500	114.350	80.008	19.994	103.832	20.173	0.035	-0.010
9.000	114.329	80.008	19.994	103.832	20.175	-0.176	-0.014
9.500	114.354	80.006	19.993	103.832	20.178	-0.358	-0.004
10.000	114.334	80.008	19.994	103.832	20.175	-0.122	0.004
10.500	114.306	80.005	19.992	103.832	20.175	-0.161	-0.022
11.000	114.368	80.008	19.996	103.840	20.177	-0.291	-0.007
11.500	114.328	80.007	19.995	103.847	20.178	-0.386	0.027
12.000	114.337	80.007	19.995	103.855	20.175	-0.132	-0.005
12.500	114.338	80.007	19.994	103.863	20.174	-0.050	-0.010
13.000	114.336	80.006	19.994	103.866	20.178	-0.402	0.005
13.500	114.345	80.007	19.994	103.859	20.173	-0.015	0.003
14.001	114.377	80.006	19.995	103.858	20.172	0.089	0.024
14.501	114.324	80.006	19.995	103.857	20.173	-0.026	0.010
15.001	114.349	80.006	19.994	103.857	20.175	-0.169	-0.024
15.501	114.369	80.007	19.995	103.860	20.173	0.028	0.009
16.000	114.363	80.006	19.994	103.868	20.169	0.289	0.030
16.500	114.366	80.006	19.995	103.870	20.172	0.056	0.005
17.000	114.370	80.006	19.994	103.871	20.175	-0.124	0.002
17.500	114.378	80.006	19.995	103.872	20.170	0.239	0.010
18.000	114.376	80.007	19.995	103.876	20.170	0.269	0.009
18.500	114.393	80.006	19.994	103.879	20.168	0.378	0.010
19.000	114.382	80.007	19.994	103.880	20.163	0.789	0.010
19.500	114.368	80.005	19.995	103.883	20.166	0.587	-0.010
20.000	114.373	80.007	19.994	103.889	20.165	0.641	-0.017
20.500	114.425	80.006	19.994	103.895	20.163	0.821	0.024
21.000	114.406	80.007	19.994	103.900	20.159	1.084	0.045
21.500	114.452	80.007	19.995	103.914	20.163	0.767	0.030
22.000	114.414	80.006	19.994	103.926	20.162	0.856	0.018
22.500	114.490	80.007	19.994	103.934	20.159	1.134	0.023
23.000	114.502	80.008	19.993	103.942	20.157	1.258	0.063
23.500	114.511	80.008	19.994	103.950	20.157	1.291	0.055
24.000	114.548	80.006	19.993	103.955	20.156	1.339	0.034
24.500	114.577	80.008	19.994	103.957	20.156	1.324	0.056
25.000	114.611	80.008	19.994	103.959	20.154	1.480	0.065
25.500	114.635	80.008	19.995	103.966	20.153	1.569	0.060
26.000	114.659	80.008	19.994	103.971	20.154	1.533	0.053
26.500	114.695	80.008	19.994	103.975	20.151	1.750	0.054
27.000	114.715	80.008	19.994	103.980	20.147	2.054	0.058
27.500	114.758	80.008	19.994	103.985	20.148	2.020	0.060
28.000	114.799	80.007	19.994	103.987	20.148	1.965	0.073
28.500	114.831	80.008	19.994	103.995	20.146	2.176	0.078
29.000	114.864	80.008	19.993	104.001	20.146	2.172	0.069
29.500	114.896	80.010	19.994	104.009	20.143	2.369	0.065
30.000	114.937	80.008	19.994	104.016	20.145	2.252	0.069
30.500	115.013	80.009	19.993	104.022	20.142	2.435	0.095
31.000	115.072	80.009	19.993	104.021	20.144	2.289	0.126
31.500	115.115	80.009	19.994	104.024	20.143	2.391	0.118
32.000	115.122	80.008	19.994	104.028	20.144	2.304	0.076
32.501	115.203	80.008	19.992	104.030	20.142	2.474	0.069
33.001	115.267	80.008	19.995	104.030	20.141	2.563	0.116
33.500	115.302	80.007	19.993	104.029	20.144	2.291	0.122
34.000	115.372	80.010	19.995	104.030	20.141	2.567	0.102
34.500	115.424	80.009	19.995	104.030	20.142	2.470	0.114
35.000	115.475	80.008	19.995	104.037	20.138	2.809	0.112
35.500	115.581	80.008	19.995	104.044	20.139	2.672	0.130
36.000	115.648	80.008	19.994	104.049	20.139	2.728	0.165
36.500	115.715	80.008	19.994	104.052	20.138	2.748	0.153
37.000	115.780	80.007	19.995	104.054	20.137	2.822	0.133
37.500	115.851	80.008	19.994	104.054	20.139	2.694	0.134
38.000	115.943	80.006	19.995	104.055	20.136	2.944	0.149
38.500	116.003	80.007	19.995	104.057	20.138	2.792	0.157
39.000	116.097	80.005	19.995	104.058	20.135	3.015	0.153
39.500	116.208	80.005	19.995	104.060	20.138	2.761	0.180
40.000	116.272	80.005	19.994	104.058	20.137	2.824	0.190
40.500	116.375	80.005	19.995	104.056	20.137	2.830	0.171
41.000	116.438	80.005	19.995	104.055	20.134	3.070	0.167
41.501	116.552	80.006	19.995	104.056	20.138	2.789	0.172
42.001	116.616	80.007	19.995	104.054	20.136	2.965	0.177
42.500	116.707	80.006	19.995	104.056	20.136	2.894	0.166
43.000	116.800	80.005	19.995	104.057	20.136	2.952	0.170
43.500	116.943	80.005	19.995	104.058	20.132	3.274	0.210
44.001	117.049	80.005	19.995	104.059	20.133	3.163	0.243
44.501	117.135	80.006	19.996	104.061	20.131	3.359	0.220
45.001	117.235	80.005	19.995	104.061	20.134	3.059	0.189
45.501	117.334	80.005	19.996	104.064	20.132	3.244	0.192
46.000	117.477	80.005	19.995	104.063	20.131	3.311	0.220
46.500	117.601	80.006	19.996	104.063	20.131	3.317	0.254
47.000	117.695	80.005	19.996	104.063	20.133	3.165	0.243
47.500	117.787	80.006	19.996	104.068	20.133	3.163	0.202
48.000	117.923	80.005	19.995	104.069	20.133	3.200	0.207
48.500	118.039	80.005	19.995	104.069	20.131	3.289	0.240
49.000	118.168	80.005	19.995	104.069	20.131	3.348	0.248
49.500	118.254	80.005	19.995	104.068	20.128	3.526	0.230
50.000	118.369	80.006	19.995	104.062	20.132	3.259	0.209
50.500	118.488	80.006	19.995	104.060	20.128	3.572	0.218
51.000	118.624	80.006	19.994	104.061	20.130	3.437	0.244
51.500	118.753	80.006	19.995	104.060	20.132	3.220	0.260
52.001	118.910	80.005	19.996	104.060	20.130	3.398	0.275
52.501	119.009	80.006	19.995	104.061	20.130	3.376	0.271
53.000	119.180	80.006	19.994	104.061	20.132	3.276	0.263
53.500	119.272	80.006	19.996	104.061	20.130	3.405	0.266
54.000	119.437	80.006	19.994	104.062	20.133	3.179	0.260
54.500	119.577	80.006	19.994	104.061	20.131	3.324	0.281
55.000	119.722	80.007	19.995	104.062	20.131	3.352	0.295
55.500	119.863	80.006	19.994	104.062	20.131	3.303	0.286
56.000	119.973	80.007	19.993	104.063	20.128	3.555	0.268
56.500	120.115	80.007	19.994	104.063	20.130	3.394	0.252
57.000	120.273	80.007	19.994	104.062	20.129	3.507	0.276
57.500	120.402	80.007	19.994	104.062	20.129	3.461	0.293
58.000	120.538	80.007	19.994	104.062	20.131	3.339	0.276
58.500	120.677	80.007	19.993	104.062	20.129	3.496	0.270
59.000	120.841	80.007	19.993	104.061	20.131	3.294	0.289
59.500	121.003	80.007	19.994	104.065	20.127	3.627	0.314
60.000	121.084	80.005	19.993	104.069	20.128	3.592	0.285
60.501	121.248	80.006	19.993	104.069	20.125	3.768	0.244
61.001	121.426	80.007	19.992	104.070	20.128	3.555	0.294
61.501	121.567	80.006	19.993	104.070	20.128	3.598	0.331
62.000	121.715	80.006	19.993	104.069	20.126	3.731	0.304
62.500	121.864	80.007	19.994	104.066	20.129	3.479	0.293
63.000	122.040	80.006	19.994	104.066	20.126	3.709	0.311
63.500	122.211	80.006	19.993	104.066	20.130	3.385	0.336
64.000	122.335	80.007	19.995	104.066	20.125	3.800	0.321
64.501	122.489	80.006	19.995	104.067	20.130	3.385	0.287
65.001	122.675	80.006	19.993	104.067	20.129	3.485	0.309
65.500	122.890	80.007	19.994	104.068	20.131	3.344	0.370
66.000	123.013	80.006	19.995	104.068	20.128	3.603	0.369
66.500	123.192	80.006	19.993	104.069	20.129	3.503	0.320
67.000	123.346	80.006	19.994	104.069	20.127	3.607	0.317
67.500	123.517	80.006	19.994	104.068	20.127	3.657	0.329
68.000	123.651	80.007	19.993	104.067	20.127	3.620	0.315
68.500	123.824	80.006	19.995	104.066	20.125	3.798	0.306
69.000	123.979	80.005	19.994	104.066	20.127	3.661	0.318
69.500	124.147	80.006	19.994	104.068	20.126	3.724	0.325
70.000	124.311	80.006	19.994	104.069	20.126	3.687	0.327
70.500	124.466	80.006	19.993	104.071	20.129	3.496	0.326
71.000	124.693	80.005	19.993	104.072	20.125	3.790	0.351
71.500	124.853	80.005	19.994	104.074	20.124	3.853	0.384
72.000	125.004	80.005	19.994	104.073	20.127	3.609	0.349
72.500	125.176	80.005	19.994	104.072	20.128	3.585	0.318
73.000	125.342	80.005	19.994	104.070	20.130	3.376	0.331
73.500	125.523	80.004	19.994	104.069	20.127	3.648	0.342
74.000	125.687	80.004	19.994	104.069	20.128	3.531	0.346
74.500	125.874	80.004	19.994	104.069	20.128	3.540	0.348
75.000	126.004	80.005	19.994	104.069	20.130	3.440	0.334
75.500	126.242	80.004	19.994	104.069	20.126	3.705	0.343
76.000	126.402	80.004	19.994	104.069	20.128	3.588	0.383
76.500	126.588	80.004	19.993	104.068	20.126	3.751	0.372
77.000	126.779	80.005	19.994	104.073	20.127	3.664	0.362
77.500	126.920	80.004	19.994	104.077	20.126	3.719	0.354
78.000	127.136	80.004	19.994	104.076	20.127	3.618	0.344
78.500	127.342	80.004	19.993	104.076	20.128	3.553	0.390
79.000	127.534	80.005	19.994	104.076	20.129	3.475	0.410
79.500	127.701	80.006	19.992	104.072	20.125	3.836	0.378
80.000	127.922	80.005	19.994	104.071	20.127	3.666	0.374
80.500	128.073	80.005	19.994	104.072	20.128	3.540	0.380
81.000	128.247	80.005	19.994	104.072	20.125	3.803	0.348
81.501	128.427	80.006	19.993	104.071	20.128	3.538	0.340
82.001	128.616	80.006	19.992	104.070	20.127	3.644	0.361
82.500	128.837	80.006	19.993	104.068	20.129	3.486	0.389
83.001	128.994	80.006	19.995	104.067	20.129	3.470	0.394
83.501	129.217	80.007	19.993	104.067	20.129	3.464	0.379
84.000	129.431	80.007	19.994	104.068	20.130	3.408	0.409
84.500	129.583	80.007	19.993	104.070	20.130	3.442	0.401
85.000	129.806	80.006	19.994	104.072	20.127	3.682	0.370
85.501	129.966	80.007	19.995	104.073	20.128	3.534	0.379
86.001	130.201	80.007	19.994	104.077	20.130	3.438	0.389
86.501	130.389	80.008	19.994	104.084	20.130	3.368	0.409
87.001	130.597	80.006	19.994	104.090	20.124	3.896	0.409
87.501	130.772	80.008	19.994	104.095	20.126	3.755	0.390
88.001	130.995	80.007	19.993	104.097	20.129	3.457	0.391
88.500	131.202	80.007	19.993	104.094	20.128	3.570	0.414
89.000	131.420	80.007	19.993	104.089	20.128	3.542	0.427
89.500	131.590	80.008	19.993	104.085	20.129	3.466	0.407
90.000	131.797	80.008	19.994	104.082	20.127	3.620	0.382
90.500	131.958	80.008	19.993	104.081	20.129	3.511	0.372
91.000	132.181	80.008	19.994	104.080	20.126	3.703	0.376
91.500	132.393	80.007	19.993	104.082	20.127	3.672	0.410
92.000	132.609	80.007	19.994	104.081	20.129	3.507	0.431
92.500	132.816	80.008	19.993	104.080	20.128	3.555	0.426
93.000	133.026	80.007	19.994	104.081	20.127	3.646	0.420
93.500	133.249	80.007	19.993	104.084	20.127	3.629	0.425
94.000	133.466	80.008	19.994	104.083	20.128	3.566	0.436
94.500	133.605	80.007	19.993	104.088	20.130	3.424	0.398
95.000	133.872	80.006	19.995	104.091	20.129	3.479	0.381
95.500	134.083	80.007	19.994	104.092	20.128	3.585	0.442
96.000	134.303	80.007	19.993	104.091	20.127	3.681	0.455
96.500	134.479	80.008	19.994	104.087	20.127	3.607	0.413
97.001	134.718	80.006	19.993	104.080	20.127	3.624	0.405
97.501	134.942	80.007	19.993	104.073	20.128	3.546	0.439
98.000	135.164	80.006	19.994	104.072	20.127	3.607	0.455
98.500	135.353	80.007	19.995	104.070	20.128	3.596	0.429
99.000	135.567	80.007	19.994	104.072	20.126	3.750	0.407
99.500	135.790	80.007	19.994	104.076	20.125	3.820	0.420
100.000	136.017	80.007	19.993	104.076	20.127	3.633	0.443
100.500	136.201	80.007	19.993	104.072	20.127	3.659	0.430
101.000	136.440	80.007	19.994	104.075	20.127	3.659	0.417
101.500	136.652	80.007	19.993	104.074	20.127	3.650	0.437
102.000	136.888	80.007	19.993	104.074	20.128	3.559	0.450
102.500	137.087	80.008	19.994	104.075	20.124	3.857	0.442
103.000	137.303	80.007	19.993	104.078	20.126	3.713	0.425
103.501	137.574	80.007	19.994	104.078	20.127	3.620	0.451
104.001	137.750	80.006	19.994	104.076	20.127	3.676	0.467
104.501	137.986	80.007	19.993	104.076	20.124	3.870	0.429
105.001	138.218	80.007	19.994	104.074	20.126	3.728	0.440
105.500	138.429	80.008	19.993	104.071	20.124	3.881	0.455
106.000	138.653	80.008	19.993	104.070	20.126	3.685	0.439
106.500	138.869	80.008	19.993	104.072	20.128	3.568	0.438
107.000	139.095	80.008	19.993	104.070	20.128	3.598	0.441
107.500	139.323	80.007	19.994	104.069	20.129	3.455	0.448
108.000	139.562	80.007	19.995	104.069	20.130	3.407	0.461
108.500	139.788	80.008	19.995	104.070	20.127	3.668	0.466
109.000	140.028	80.008	19.995	104.068	20.128	3.550	0.465
109.500	140.235	80.008	19.994	104.067	20.129	3.487	0.456
110.000	140.481	80.008	19.995	104.071	20.130	3.411	0.450
110.501	140.732	80.008	19.994	104.075	20.129	3.500	0.475
111.001	140.924	80.008	19.995	104.074	20.128	3.587	0.470
111.501	141.170	80.007	19.995	104.073	20.130	3.383	0.441
112.000	141.410	80.008	19.993	104.074	20.129	3.491	0.462
112.500	141.631	80.007	19.995	104.070	20.130	3.400	0.473
113.000	141.876	80.007	19.996	104.068	20.126	3.689	0.464
113.500	142.064	80.007	19.994	104.070	20.125	3.835	0.450
114.000	142.321	80.009	19.993	104.070	20.129	3.457	0.439
114.501	142.597	80.009	19.995	104.069	20.130	3.387	0.489
115.001	142.783	80.008	19.995	104.069	20.131	3.350	0.498
115.500	143.031	80.010	19.995	104.065	20.127	3.613	0.449
116.000	143.261	80.008	19.995	104.062	20.130	3.442	0.456
116.500	143.474	80.009	19.995	104.063	20.129	3.470	0.460
117.000	143.754	80.008	19.995	104.064	20.128	3.548	0.468
117.500	144.009	80.008	19.994	104.066	20.128	3.526	0.514
118.000	144.252	80.008	19.994	104.067	20.127	3.652	0.517
118.501	144.458	80.008	19.994	104.067	20.127	3.674	0.474
119.001	144.720	80.007	19.995	104.067	20.129	3.465	0.458
119.500	144.953	80.007	19.994	104.066	20.126	3.737	0.482
120.000	145.182	80.008	19.993	104.064	20.129	3.472	0.479
120.500	145.432	80.008	19.995	104.063	20.130	3.435	0.470
121.000	145.663	80.007	19.995	104.064	20.131	3.344	0.480
121.500	145.904	80.006	19.994	104.064	20.130	3.413	0.476
122.001	146.135	80.006	19.994	104.064	20.131	3.298	0.472
122.501	146.401	80.007	19.996	104.065	20.132	3.222	0.484
123.000	146.628	80.006	19.994	104.064	20.131	3.307	0.495
123.500	146.861	80.007	19.996	104.064	20.132	3.283	0.476
124.000	147.101	80.005	19.995	104.064	20.132	3.285	0.466
124.500	147.350	80.006	19.993	104.065	20.128	3.537	0.481
125.000	147.571	80.005	19.994	104.064	20.131	3.350	0.480
125.500	147.850	80.007	19.994	104.065	20.132	3.224	0.485
126.000	148.074	80.005	19.994	104.065	20.132	3.220	0.501
126.500	148.332	80.006	19.994	104.066	20.129	3.463	0.492
127.001	148.576	80.006	19.994	104.066	20.132	3.285	0.492
127.501	148.801	80.006	19.996	104.066	20.129	3.513	0.486
128.000	149.066	80.007	19.995	104.066	20.129	3.489	0.479
128.500	149.279	80.005	19.995	104.066	20.132	3.231	0.484
129.000	149.558	80.006	19.996	104.065	20.131	3.341	0.485
129.500	149.786	80.006	19.995	104.066	20.127	3.641	0.500
130.000	150.064	80.005	19.994	104.066	20.131	3.331	0.507
130.500	150.282	80.004	19.995	104.066	20.129	3.450	0.501
131.000	150.521	80.005	19.995	104.067	20.130	3.417	0.476
131.501	150.740	80.005	19.994	104.067	20.130	3.383	0.457
132.000	150.995	80.005	19.995	104.067	20.130	3.418	0.466
132.500	151.223	80.004	19.995	104.067	20.131	3.289	0.478
133.000	151.472	80.006	19.995	104.067	20.132	3.252	0.480
133.500	151.732	80.005	19.994	104.067	20.134	3.078	0.493
134.000	151.972	80.005	19.994	104.067	20.129	3.461	0.505
134.500	152.256	80.005	19.994	104.067	20.130	3.407	0.512
135.000	152.475	80.005	19.995	104.067	20.131	3.326	0.514
135.500	152.730	80.005	19.995	104.066	20.129	3.494	0.489
136.000	152.987	80.005	19.996	104.065	20.130	3.411	0.493
136.500	153.234	80.006	19.995	104.064	20.131	3.333	0.508
137.000	153.484	80.005	19.995	104.063	20.131	3.361	0.500
137.500	153.719	80.006	19.994	104.063	20.130	3.376	0.491
138.000	153.949	80.005	19.995	104.063	20.128	3.544	0.475
138.500	154.199	80.005	19.994	104.064	20.130	3.367	0.472
139.000	154.458	80.005	19.995	104.066	20.132	3.261	0.495
139.500	154.707	80.006	19.995	104.066	20.130	3.435	0.509
140.000	154.931	80.005	19.994	104.065	20.131	3.339	0.490
140.500	155.211	80.005	19.995	104.062	20.130	3.415	0.489
141.000	155.460	80.005	19.995	104.062	20.132	3.233	0.516
141.500	155.712	80.005	19.995	104.061	20.130	3.396	0.515
142.000	155.888	80.005	19.994	104.060	20.133	3.202	0.464
142.500	156.167	80.004	19.994	104.061	20.132	3.252	0.441
143.000	156.404	80.005	19.995	104.064	20.134	3.059	0.486
143.500	156.648	80.004	19.995	104.064	20.134	3.128	0.499
144.000	156.892	80.006	19.995	104.064	20.132	3.226	0.485
144.500	157.183	80.006	19.995	104.065	20.133	3.174	0.512
145.000	157.381	80.005	19.995	104.065	20.133	3.139	0.512
145.500	157.643	80.005	19.995	104.065	20.133	3.183	0.475
146.000	157.884	80.007	19.995	104.065	20.133	3.167	0.482
146.500	158.109	80.004	19.995	104.065	20.131	3.361	0.484
147.000	158.415	80.006	19.996	104.065	20.134	3.063	0.498
147.500	158.628	80.004	19.994	104.065	20.131	3.354	0.525
148.000	158.886	80.005	19.995	104.064	20.131	3.330	0.496
148.500	159.155	80.005	19.995	104.062	20.135	3.004	0.499
149.000	159.385	80.005	19.993	104.061	20.135	3.043	0.513
149.500	159.614	80.004	19.995	104.059	20.135	2.997	0.479
150.000	159.874	80.004	19.995	104.060	20.137	2.839	0.474
150.500	160.119	80.005	19.996	104.061	20.135	2.998	0.497
151.000	160.322	80.006	19.995	104.063	20.136	2.930	0.477
151.500	160.612	80.005	19.996	104.061	20.138	2.743	0.471
152.000	160.843	80.006	19.995	104.063	20.135	3.024	0.507
152.500	161.097	80.005	19.995	104.063	20.135	2.974	0.503
153.000	161.360	80.005	19.994	104.063	20.136	2.954	0.501
153.500	161.616	80.005	19.994	104.063	20.139	2.682	0.518
154.000	161.861	80.006	19.996	104.065	20.138	2.754	0.510
154.500	162.107	80.005	19.996	104.066	20.134	3.119	0.496
155.000	162.349	80.005	19.994	104.066	20.139	2.732	0.489
155.500	162.620	80.005	19.994	104.065	20.138	2.782	0.500
156.000	162.884	80.006	19.995	104.064	20.139	2.719	0.524
156.500	163.122	80.006	19.995	104.059	20.136	2.923	0.519
157.000	163.361	80.006	19.995	104.053	20.139	2.732	0.490
157.500	163.589	80.006	19.994	104.047	20.138	2.739	0.472
158.000	163.873	80.005	19.994	104.043	20.140	2.643	0.490
158.500	164.139	80.005	19.994	104.043	20.136	2.906	0.531
159.000	164.384	80.005	19.994	104.043	20.136	2.897	0.530
159.500	164.627	80.006	19.994	104.042	20.136	2.954	0.499
160.000	164.866	80.005	19.995	104.043	20.134	3.097	0.485
160.500	165.164	80.006	19.996	104.043	20.138	2.741	0.510
161.001	165.393	80.005	19.994	104.043	20.138	2.795	0.532
161.500	165.640	80.005	19.994	104.048	20.138	2.754	0.501
162.000	165.850	80.006	19.994	104.053	20.141	2.576	0.467
162.500	166.146	80.007	19.993	104.055	20.141	2.562	0.482
163.000	166.356	80.007	19.995	104.056	20.138	2.775	0.506
163.500	166.673	80.006	19.994	104.052	20.141	2.517	0.516
164.000	166.910	80.007	19.994	104.048	20.139	2.706	0.540
164.500	167.124	80.006	19.994	104.044	20.142	2.493	0.503
165.000	167.410	80.007	19.994	104.041	20.141	2.554	0.476
165.500	167.658	80.006	19.994	104.039	20.142	2.428	0.517
166.000	167.924	80.007	19.993	104.037	20.141	2.547	0.524
166.500	168.163	80.007	19.995	104.034	20.137	2.853	0.509
167.000	168.375	80.007	19.995	104.035	20.138	2.758	0.478
167.500	168.668	80.007	19.993	104.033	20.142	2.497	0.478
168.000	168.897	80.007	19.995	104.035	20.137	2.888	0.514
168.500	169.164	80.008	19.994	104.038	20.140	2.623	0.509
169.000	169.415	80.008	19.994	104.038	20.139	2.667	0.507
169.500	169.667	80.007	19.994	104.037	20.141	2.536	0.510
170.000	169.935	80.006	19.995	104.039	20.142	2.488	0.512
170.500	170.201	80.008	19.994	104.039	20.138	2.762	0.527
171.000	170.448	80.008	19.994	104.037	20.141	2.519	0.523
171.500	170.645	80.006	19.993	104.041	20.139	2.678	0.479
172.000	170.913	80.007	19.995	104.041	20.137	2.862	0.455
172.500	171.200	80.008	19.994	104.037	20.139	2.730	0.510
173.000	171.413	80.006	19.995	104.036	20.137	2.858	0.528
173.500	171.670	80.007	19.994	104.034	20.140	2.606	0.485
174.000	171.913	80.008	19.995	104.029	20.142	2.452	0.485
174.500	172.163	80.008	19.996	104.028	20.141	2.558	0.496
175.000	172.408	80.006	19.995	104.029	20.140	2.597	0.494
175.500	172.650	80.007	19.993	104.028	20.142	2.458	0.491
176.000	172.914	80.006	19.994	104.028	20.138	2.762	0.497
176.500	173.161	80.005	19.994	104.029	20.140	2.643	0.509
177.000	173.398	80.006	19.993	104.028	20.141	2.556	0.498
177.500	173.656	80.007	19.994	104.028	20.137	2.843	0.489
178.000	173.904	80.006	19.994	104.026	20.142	2.430	0.500
178.501	174.156	80.006	19.994	104.026	20.140	2.628	0.503
179.000	174.407	80.007	19.994	104.025	20.138	2.738	0.502
179.500	174.663	80.007	19.995	104.026	20.138	2.743	0.504
180.000	174.901	80.007	19.993	104.026	20.141	2.521	0.500
180.500	175.150	80.007	19.994	104.027	20.142	2.456	0.491
181.000	175.380	80.006	19.994	104.032	20.141	2.536	0.483
181.500	175.636	80.007	19.995	104.034	20.144	2.334	0.483
182.000	175.874	80.007	19.993	104.036	20.143	2.410	0.490
182.500	176.135	80.007	19.995	104.036	20.141	2.564	0.496
183.000	176.397	80.006	19.994	104.036	20.142	2.480	0.511
183.500	176.637	80.007	19.995	104.032	20.141	2.573	0.513
184.000	176.871	80.007	19.994	104.033	20.139	2.671	0.488
184.500	177.114	80.006	19.994	104.034	20.142	2.447	0.476
185.000	177.389	80.006	19.994	104.035	20.143	2.412	0.498
185.500	177.595	80.007	19.994	104.035	20.144	2.308	0.499
186.000	177.876	80.007	19.994	104.033	20.142	2.464	0.484
186.500	178.113	80.008	19.994	104.030	20.143	2.364	0.502
187.000	178.376	80.007	19.994	104.028	20.141	2.536	0.509
187.500	178.619	80.007	19.993	104.026	20.140	2.627	0.503
188.000	178.834	80.007	19.994	104.027	20.144	2.317	0.482
188.500	179.116	80.008	19.995	104.031	20.143	2.360	0.477
189.000	179.347	80.007	19.994	104.032	20.140	2.595	0.505
189.500	179.633	80.008	19.993	104.033	20.143	2.354	0.515
190.000	179.840	80.007	19.994	104.032	20.141	2.504	0.505
190.500	180.103	80.009	19.994	104.030	20.140	2.625	0.482
191.000	180.379	80.008	19.993	104.027	20.142	2.419	0.504
191.500	180.631	80.010	19.994	104.027	20.144	2.330	0.533
192.000	180.850	80.009	19.993	104.026	20.143	2.412	0.500
192.501	181.091	80.009	19.993	104.026	20.145	2.199	0.466
193.001	181.362	80.008	19.993	104.027	20.139	2.658	0.486
193.500	181.622	80.008	19.994	104.027	20.143	2.345	0.521
194.000	181.849	80.008	19.993	104.027	20.143	2.362	0.509
194.500	182.079	80.009	19.993	104.028	20.145	2.206	0.472
195.000	182.363	80.008	19.994	104.028	20.142	2.464	0.485
195.500	182.619	80.008	19.993	104.029	20.139	2.686	0.527
196.000	182.824	80.008	19.993	104.029	20.142	2.460	0.501
196.500	183.076	80.008	19.993	104.029	20.144	2.282	0.459
197.000	183.334	80.009	19.993	104.027	20.142	2.453	0.483
197.500	183.579	80.009	19.994	104.027	20.140	2.603	0.506
198.000	183.833	80.008	19.993	104.027	20.144	2.338	0.501
198.500	184.065	80.009	19.994	104.026	20.145	2.232	0.493
199.000	184.310	80.009	19.993	104.026	20.143	2.401	0.482
199.500	184.579	80.007	19.993	104.026	20.140	2.577	0.496
200.000	184.824	80.008	19.993	104.026	20.144	2.290	0.514
200.500	185.069	80.009	19.993	104.026	20.143	2.409	0.502
201.000	185.345	80.007	19.994	104.027	20.141	2.512	0.506
201.500	185.581	80.006	19.994	104.027	20.145	2.181	0.517
202.000	185.812	80.006	19.993	104.026	20.142	2.471	0.489
202.500	186.084	80.006	19.994	104.026	20.146	2.124	0.485
203.000	186.348	80.006	19.994	104.027	20.145	2.228	0.520
203.500	186.601	80.006	19.994	104.025	20.144	2.301	0.526
204.000	186.859	80.006	19.995	104.019	20.145	2.217	0.514
204.500	187.110	80.005	19.994	104.018	20.146	2.131	0.510
205.000	187.348	80.005	19.996	104.018	20.146	2.157	0.499
205.500	187.563	80.004	19.996	104.018	20.145	2.209	0.472
206.000	187.867	80.005	19.994	104.020	20.145	2.233	0.486
206.500	188.102	80.005	19.996	104.024	20.143	2.409	0.529
207.000	188.334	80.005	19.994	104.022	20.144	2.297	0.503
207.500	188.587	80.006	19.995	104.016	20.144	2.314	0.476
208.000	188.829	80.006	19.996	104.008	20.148	2.019	0.490
208.500	189.102	80.005	19.994	104.005	20.150	1.810	0.505
209.000	189.319	80.005	19.995	104.005	20.152	1.638	0.503
209.500	189.550	80.005	19.995	104.009	20.154	1.547	0.469
210.000	189.842	80.004	19.995	104.015	20.151	1.736	0.485
210.500	190.093	80.005	19.994	104.018	20.154	1.536	0.533
211.000	190.333	80.005	19.995	104.003	20.156	1.354	0.517
211.500	190.555	80.005	19.995	103.967	20.157	1.252	0.477
212.000	190.778	80.005	19.995	103.916	20.157	1.263	0.454
212.500	191.008	80.005	19.994	103.870	20.157	1.269	0.449
213.000	191.247	80.005	19.994	103.842	20.159	1.121	0.461
213.500	191.449	80.005	19.993	103.837	20.157	1.271	0.455
214.000	191.683	80.006	19.995	103.858	20.159	1.150	0.438
214.500	191.876	80.006	19.994	103.902	20.157	1.267	0.431
215.000	192.111	80.005	19.995	103.941	20.158	1.219	0.428
215.500	192.338	80.006	19.995	103.967	20.155	1.406	0.445
216.000	192.553	80.005	19.995	103.983	20.153	1.564	0.452
216.500	192.799	80.006	19.995	103.992	20.154	1.510	0.451
217.000	193.004	80.007	19.994	103.994	20.152	1.706	0.456
217.500	193.240	80.006	19.995	103.997	20.150	1.858	0.446
218.000	193.457	80.005	19.995	104.001	20.151	1.771	0.447
218.500	193.706	80.006	19.995	104.004	20.149	1.903	0.459
219.000	193.946	80.006	19.994	104.006	20.150	1.792	0.477
219.500	194.136	80.006	19.995	104.010	20.152	1.688	0.459
220.000	194.346	80.006	19.995	104.011	20.150	1.825	0.415
220.500	194.603	80.006	19.997	104.012	20.150	1.860	0.434
221.000	194.799	80.005	19.997	104.016	20.151	1.773	0.460
221.500	195.031	80.006	19.995	104.020	20.150	1.803	0.441
222.000	195.293	80.007	19.995	104.022	20.150	1.823	0.461
222.500	195.462	80.006	19.994	104.025	20.152	1.695	0.462
223.000	195.702	80.006	19.995	104.025	20.151	1.742	0.420
223.500	195.928	80.005	19.995	104.022	20.149	1.932	0.438
224.000	196.176	80.006	19.995	104.019	20.150	1.849	0.470
224.500	196.416	80.005	19.995	104.018	20.145	2.214	0.481
225.000	196.605	80.006	19.996	104.016	20.149	1.940	0.458
225.500	196.850	80.005	19.994	104.014	20.148	1.995	0.431
226.000	197.052	80.007	19.995	104.015	20.147	2.042	0.441
226.500	197.289	80.004	19.995	104.013	20.147	2.079	0.443
227.000	197.539	80.006	19.995	104.007	20.149	1.903	0.463
227.500	197.749	80.006	19.993	104.001	20.150	1.819	0.474
228.000	197.956	80.006	19.994	103.998	20.148	1.994	0.438
228.500	198.235	80.006	19.995	103.992	20.146	2.142	0.452
229.000	198.452	80.005	19.995	103.991	20.147	2.042	0.491
229.500	198.650	80.006	19.994	103.994	20.147	2.062	0.455
230.000	198.865	80.006	19.995	103.999	20.145	2.220	0.414
230.500	199.159	80.005	19.995	103.998	20.146	2.173	0.461
231.000	199.330	80.006	19.994	103.998	20.143	2.355	0.487
231.500	199.585	80.006	19.996	103.997	20.149	1.875	0.446
232.000	199.810	80.006	19.995	103.995	20.148	1.947	0.453
232.500	200.053	80.006	19.996	103.992	20.145	2.238	0.474
233.000	200.280	80.005	19.995	103.996	20.145	2.192	0.469
233.500	200.538	80.005	19.995	103.999	20.147	2.099	0.477
234.000	200.737	80.005	19.995	103.998	20.148	2.008	0.471
234.500	201.024	80.005	19.996	103.999	20.147	2.086	0.472
235.000	201.219	80.003	19.996	104.004	20.150	1.855	0.484
235.500	201.441	80.005	19.994	104.000	20.148	2.010	0.449
236.000	201.679	80.004	19.996	103.998	20.150	1.838	0.438
236.500	201.934	80.005	19.995	104.006	20.150	1.849	0.477
237.000	202.148	80.004	19.996	104.008	20.146	2.179	0.481
237.500	202.376	80.005	19.996	104.002	20.147	2.027	0.455
238.000	202.605	80.005	19.996	104.000	20.147	2.038	0.449
238.500	202.859	80.003	19.996	104.000	20.147	2.053	0.470
239.000	203.069	80.005	19.995	103.993	20.147	2.070	0.474
239.500	203.328	80.004	19.994	103.989	20.146	2.170	0.467
240.000	203.489	80.003	19.996	103.989	20.145	2.235	0.445
240.500	203.769	80.005	19.996	103.994	20.147	2.029	0.430
241.000	204.001	80.005	19.995	103.993	20.147	2.075	0.476
241.500	204.210	80.005	19.995	103.993	20.147	2.077	0.476
242.000	204.474	80.005	19.996	103.990	20.151	1.738	0.457
242.500	204.664	80.005	19.996	103.993	20.146	2.151	0.464
243.000	204.897	80.006	19.995	103.992	20.144	2.331	0.439
243.500	205.167	80.006	19.995	103.997	20.148	1.996	0.463
244.000	205.361	80.007	19.995	104.001	20.147	2.079	0.484
244.500	205.592	80.007	19.995	104.001	20.145	2.209	0.445
245.000	205.856	80.006	19.996	103.999	20.147	2.096	0.460
245.500	206.134	80.005	19.995	103.996	20.147	2.047	0.519
246.000	206.370	80.006	19.995	103.992	20.146	2.155	0.528
246.500	206.575	80.005	19.994	103.988	20.144	2.309	0.478
247.000	206.806	80.006	19.995	103.993	20.144	2.275	0.439
247.500	207.049	80.007	19.994	103.992	20.146	2.146	0.455
248.000	207.313	80.007	19.994	103.994	20.146	2.114	0.490
248.500	207.552	80.006	19.993	103.995	20.147	2.064	0.505
249.000	207.766	80.007	19.993	103.995	20.149	1.888	0.478
249.500	208.014	80.008	19.994	103.991	20.146	2.164	0.458
250.000	208.255	80.007	19.994	103.991	20.145	2.246	0.475
250.500	208.490	80.007	19.994	103.989	20.144	2.283	0.482
251.000	208.724	80.008	19.994	103.988	20.149	1.869	0.472
251.500	208.976	80.007	19.994	103.992	20.147	2.047	0.478
252.000	209.188	80.008	19.994	103.993	20.143	2.360	0.475
252.500	209.430	80.008	19.994	103.993	20.147	2.092	0.459
253.000	209.685	80.008	19.994	103.993	20.147	2.088	0.476
253.500	209.910	80.007	19.993	103.992	20.145	2.225	0.489
254.000	210.098	80.007	19.992	103.987	20.147	2.064	0.446
254.500	210.360	80.007	19.994	103.988	20.146	2.140	0.431
255.000	210.611	80.007	19.994	103.990	20.147	2.053	0.481
255.500	210.865	80.007	19.993	103.990	20.148	2.003	0.510
256.000	211.080	80.006	19.993	103.991	20.147	2.062	0.487
256.500	211.332	80.006	19.995	103.992	20.146	2.159	0.468
257.000	211.547	80.007	19.993	103.990	20.146	2.125	0.467
257.500	211.769	80.006	19.994	103.989	20.143	2.346	0.452
258.000	212.038	80.005	19.994	103.989	20.145	2.203	0.464
258.500	212.258	80.006	19.994	103.989	20.147	2.025	0.490
259.000	212.491	80.005	19.993	103.989	20.148	1.986	0.471
259.500	212.709	80.005	19.993	103.989	20.149	1.894	0.452
260.000	212.949	80.007	19.994	103.989	20.145	2.238	0.455
260.500	213.205	80.006	19.993	103.990	20.148	2.005	0.477
261.000	213.464	80.007	19.995	103.995	20.148	1.944	0.506
261.500	213.649	80.007	19.994	104.000	20.150	1.864	0.480
262.000	213.908	80.007	19.994	104.002	20.149	1.938	0.444
262.500	214.149	80.006	19.993	104.005	20.146	2.138	0.472
263.000	214.366	80.005	19.994	104.007	20.149	1.886	0.479
263.500	214.663	80.006	19.995	104.004	20.148	1.973	0.486
264.000	214.870	80.005	19.994	104.000	20.147	2.099	0.509
264.500	215.062	80.005	19.994	104.000	20.149	1.907	0.452
265.000	215.317	80.005	19.995	104.000	20.147	2.086	0.423
265.500	215.580	80.006	19.993	103.997	20.147	2.027	0.482
266.000	215.840	80.006	19.994	103.995	20.147	2.025	0.520
266.500	216.066	80.006	19.993	103.995	20.148	2.003	0.504
267.000	216.328	80.006	19.995	103.992	20.147	2.051	0.487
267.500	216.562	80.008	19.995	103.989	20.150	1.858	0.492
268.000	216.817	80.005	19.994	103.990	20.143	2.379	0.493
268.500	217.038	80.006	19.994	103.993	20.147	2.099	0.482
269.000	217.274	80.006	19.994	103.994	20.150	1.862	0.466
269.500	217.502	80.005	19.994	103.996	20.145	2.225	0.460
270.000	217.729	80.006	19.994	103.996	20.147	2.097	0.460
270.500	217.965	80.007	19.994	103.995	20.149	1.936	0.459
271.000	218.229	80.006	19.994	103.992	20.148	1.949	0.481
271.500	218.464	80.006	19.994	103.992	20.148	1.988	0.499
272.000	218.717	80.006	19.994	103.992	20.148	1.981	0.494
272.500	218.974	80.007	19.994	103.996	20.148	1.999	0.499
273.000	219.195	80.008	19.994	103.995	20.148	1.960	0.494
273.500	219.468	80.007	19.991	103.995	20.148	2.023	0.486
274.000	219.690	80.007	19.995	103.994	20.147	2.086	0.495
274.500	219.952	80.006	19.995	103.993	20.149	1.925	0.490
275.000	220.193	80.008	19.994	103.990	20.150	1.844	0.493
275.500	220.422	80.007	19.994	103.990	20.150	1.810	0.486
276.000	220.650	80.008	19.994	103.990	20.150	1.838	0.463
276.500	220.901	80.008	19.994	103.991	20.151	1.736	0.468
277.000	221.130	80.008	19.993	103.992	20.151	1.784	0.480
277.500	221.390	80.006	19.993	103.993	20.149	1.929	0.485
278.000	221.653	80.007	19.994	103.995	20.148	2.014	0.506
278.500	221.882	80.007	19.994	103.995	20.150	1.786	0.507
279.000	222.109	80.008	19.994	103.995	20.146	2.157	0.474
279.500	222.363	80.007	19.994	103.996	20.150	1.847	0.469
280.000	222.597	80.006	19.993	103.995	20.149	1.892	0.484
280.500	222.859	80.007	19.993	103.994	20.147	2.036	0.491
281.000	223.103	80.006	19.992	103.994	20.149	1.894	0.501
281.500	223.358	80.007	19.994	103.994	20.150	1.847	0.503
282.000	223.602	80.007	19.994	103.992	20.150	1.786	0.500
282.500	223.830	80.007	19.993	103.990	20.148	2.007	0.486
283.000	224.090	80.006	19.993	103.990	20.148	1.977	0.480
283.500	224.306	80.008	19.993	103.991	20.148	1.990	0.482
284.000	224.565	80.006	19.994	103.991	20.152	1.688	0.475
284.500	224.823	80.006	19.993	103.990	20.148	1.979	0.495
285.000	225.067	80.006	19.994	103.990	20.147	2.029	0.510
285.500	225.316	80.007	19.994	103.990	20.149	1.912	0.498
286.000	225.573	80.005	19.994	103.990	20.152	1.671	0.499
286.500	225.834	80.005	19.994	103.990	20.152	1.701	0.511
287.000	226.061	80.007	19.994	103.989	20.150	1.801	0.503
287.500	226.286	80.007	19.994	103.988	20.150	1.836	0.470
288.000	226.547	80.007	19.994	103.988	20.149	1.890	0.469
288.500	226.789	80.005	19.994	103.988	20.148	1.968	0.494
289.000	227.039	80.006	19.994	103.990	20.149	1.925	0.498
289.500	227.268	80.006	19.994	103.991	20.148	2.023	0.486
290.000	227.528	80.006	19.995	103.992	20.147	2.042	0.484
290.500	227.778	80.006	19.995	103.992	20.148	1.951	0.500
291.000	228.063	80.007	19.993	103.992	20.146	2.127	0.523
291.500	228.317	80.006	19.994	103.991	20.145	2.225	0.537
292.000	228.540	80.006	19.993	103.990	20.146	2.114	0.508
292.500	228.799	80.005	19.995	103.991	20.148	1.990	0.480
293.000	229.060	80.005	19.995	103.991	20.145	2.190	0.501
293.500	229.302	80.005	19.994	103.990	20.147	2.068	0.511
294.000	229.547	80.005	19.995	103.989	20.146	2.146	0.495
294.500	229.793	80.006	19.995	103.989	20.149	1.940	0.489
295.000	230.051	80.006	19.995	103.987	20.147	2.033	0.497
295.500	230.310	80.006	19.995	103.987	20.149	1.905	0.511
296.000	230.612	80.006	19.995	103.987	20.149	1.901	0.539
296.500	230.855	80.006	19.996	103.987	20.144	2.264	0.553
297.000	231.053	80.006	19.996	103.987	20.145	2.196	0.493
297.500	231.314	80.006	19.995	103.987	20.147	2.077	0.450
298.000	231.567	80.005	19.995	103.988	20.143	2.361	0.487
298.500	231.788	80.006	19.995	103.987	20.149	1.883	0.495
299.000	232.059	80.005	19.995	103.987	20.148	1.973	0.483
299.500	232.304	80.005	19.995	103.987	20.150	1.799	0.504
300.000	232.596	80.006	19.994	103.987	20.150	1.801	0.526
300.500	232.814	80.004	19.995	103.987	20.148	1.966	0.523
301.000	233.058	80.007	19.996	103.987	20.149	1.905	0.486
301.500	233.310	80.005	19.995	103.988	20.148	1.953	0.479
302.000	233.554	80.005	19.994	103.989	20.150	1.799	0.496
302.500	233.790	80.006	19.994	103.989	20.147	2.038	0.488
303.000	234.043	80.006	19.997	103.989	20.148	1.970	0.485
303.500	234.308	80.006	19.996	103.989	20.147	2.098	0.504
304.000	234.552	80.005	19.995	103.987	20.148	1.972	0.514
304.500	234.808	80.006	19.996	103.985	20.147	2.079	0.505
305.000	235.051	80.005	19.995	103.985	20.151	1.771	0.499
305.500	235.275	80.006	19.995	103.985	20.149	1.931	0.483
306.000	235.531	80.005	19.994	103.986	20.149	1.888	0.474
306.500	235.830	80.006	19.996	103.987	20.153	1.623	0.518
307.000	236.056	80.006	19.994	103.986	20.150	1.823	0.540
307.500	236.260	80.006	19.995	103.986	20.149	1.942	0.477
308.000	236.523	80.006	19.996	103.986	20.149	1.897	0.448
308.500	236.785	80.006	19.995	103.985	20.152	1.638	0.496
309.000	237.065	80.006	19.995	103.983	20.148	1.979	0.534
309.500	237.310	80.005	19.995	103.984	20.149	1.938	0.534
310.000	237.553	80.006	19.994	103.984	20.152	1.675	0.507
310.500	237.751	80.006	19.995	103.985	20.150	1.851	0.464
311.000	238.034	80.006	19.995	103.985	20.151	1.784	0.461
311.500	238.256	80.005	19.996	103.985	20.148	1.962	0.493
312.000	238.535	80.005	19.995	103.985	20.149	1.892	0.503
312.500	238.792	80.005	19.995	103.983	20.150	1.816	0.519
313.000	239.052	80.006	19.994	103.980	20.150	1.827	0.526
313.500	239.315	80.005	19.995	103.981	20.150	1.853	0.520
314.000	239.554	80.006	19.994	103.983	20.151	1.762	0.513
314.500	239.828	80.005	19.993	103.983	20.150	1.790	0.507
315.000	240.051	80.005	19.994	103.984	20.148	1.953	0.505
315.500	240.318	80.005	19.995	103.987	20.149	1.875	0.493
316.000	240.556	80.006	19.995	103.988	20.150	1.860	0.497
316.500	240.830	80.005	19.995	103.988	20.149	1.920	0.508
317.000	241.065	80.006	19.995	103.988	20.150	1.818	0.510
317.500	241.313	80.004	19.995	103.989	20.149	1.866	0.496
318.000	241.556	80.005	19.995	103.989	20.151	1.762	0.487
318.500	241.804	80.004	19.995	103.989	20.150	1.797	0.491
319.000	242.065	80.004	19.994	103.989	20.153	1.584	0.500
319.500	242.340	80.006	19.995	103.989	20.152	1.701	0.523
320.000	242.626	80.005	19.994	103.989	20.150	1.849	0.549
320.500	242.859	80.006	19.996	103.990	20.149	1.914	0.540
321.000	243.099	80.005	19.996	103.989	20.151	1.714	0.495
321.500	243.357	80.004	19.995	103.990	20.152	1.697	0.486
322.000	243.582	80.005	19.995	103.990	20.151	1.727	0.491
322.500	243.892	80.006	19.996	103.989	20.154	1.484	0.509
323.000	244.117	80.006	19.995	103.989	20.156	1.316	0.535
323.501	244.407	80.004	19.995	103.989	20.151	1.720	0.525
324.000	244.645	80.005	19.995	103.989	20.151	1.712	0.521
324.500	244.899	80.004	19.997	103.988	20.153	1.577	0.510
325.000	245.134	80.005	19.996	103.988	20.153	1.553	0.491
325.500	245.387	80.005	19.996	103.988	20.152	1.649	0.488
326.000	245.614	80.005	19.996	103.987	20.152	1.686	0.483
326.500	245.901	80.006	19.995	103.987	20.151	1.783	0.497
327.000	246.100	80.006	19.995	103.987	20.151	1.712	0.501
327.500	246.411	80.006	19.997	103.986	20.152	1.699	0.498
328.000	246.637	80.006	19.996	103.986	20.151	1.749	0.523
328.500	246.916	80.006	19.995	103.986	20.152	1.664	0.521
329.000	247.149	80.006	19.996	103.986	20.152	1.679	0.508
329.500	247.392	80.005	19.996	103.987	20.153	1.627	0.494
330.000	247.666	80.006	19.994	103.988	20.154	1.471	0.496
330.500	247.933	80.006	19.995	103.988	20.154	1.484	0.529
331.000	248.132	80.006	19.995	103.987	20.152	1.664	0.504
331.500	248.401	80.007	19.996	103.987	20.154	1.523	0.467
332.000	248.674	80.008	19.995	103.987	20.151	1.729	0.505
332.500	248.900	80.007	19.995	103.986	20.154	1.542	0.520
333.000	249.171	80.007	19.995	103.985	20.155	1.462	0.498
333.501	249.426	80.005	19.994	103.984	20.156	1.377	0.511
334.000	249.734	80.006	19.996	103.981	20.151	1.718	0.544
334.500	249.952	80.005	19.997	103.982	20.151	1.714	0.545
335.000	250.207	80.005	19.996	103.983	20.151	1.768	0.500
335.500	250.489	80.005	19.995	103.983	20.154	1.497	0.505
336.000	250.746	80.005	19.995	103.981	20.154	1.482	0.538
336.500	250.991	80.006	19.996	103.983	20.156	1.377	0.520
337.001	251.237	80.006	19.995	103.981	20.156	1.390	0.496
337.500	251.501	80.005	19.995	103.980	20.155	1.462	0.500
338.000	251.745	80.005	19.996	103.979	20.152	1.666	0.509
338.500	252.025	80.006	19.994	103.983	20.153	1.558	0.516
339.000	252.257	80.005	19.994	103.984	20.154	1.499	0.518
339.500	252.488	80.006	19.993	103.986	20.153	1.573	0.488
340.000	252.736	80.006	19.995	103.984	20.155	1.436	0.471
340.500	252.991	80.006	19.992	103.979	20.155	1.395	0.491
341.000	253.239	80.005	19.993	103.974	20.154	1.499	0.503
341.500	253.505	80.005	19.995	103.974	20.154	1.492	0.508
342.000	253.743	80.006	19.993	103.972	20.153	1.579	0.509
342.500	253.993	80.006	19.994	103.974	20.154	1.481	0.496
343.000	254.239	80.006	19.994	103.976	20.150	1.820	0.492
343.500	254.508	80.006	19.994	103.981	20.154	1.518	0.506
344.000	254.768	80.007	19.993	103.977	20.152	1.698	0.522
344.500	255.034	80.006	19.994	103.978	20.155	1.451	0.527
345.000	255.284	80.006	19.993	103.978	20.152	1.681	0.521
345.500	255.533	80.007	19.994	103.982	20.154	1.507	0.508
346.000	255.795	80.007	19.993	103.984	20.153	1.592	0.505
346.500	256.019	80.007	19.993	103.987	20.154	1.486	0.499
347.000	256.264	80.007	19.995	103.984	20.157	1.282	0.478
347.500	256.498	80.007	19.993	103.979	20.154	1.477	0.474
348.000	256.792	80.008	19.994	103.977	20.156	1.386	0.504
348.500	257.012	80.007	19.994	103.976	20.157	1.238	0.521
349.000	257.307	80.008	19.994	103.977	20.156	1.377	0.514
349.500	257.515	80.008	19.995	103.979	20.158	1.225	0.509
350.000	257.792	80.007	19.994	103.983	20.156	1.384	0.494
350.500	258.036	80.009	19.993	103.984	20.156	1.366	0.503
351.000	258.260	80.008	19.995	103.983	20.156	1.325	0.494
351.500	258.556	80.007	19.994	103.983	20.153	1.562	0.494
352.000	258.787	80.008	19.995	103.984	20.156	1.325	0.524
352.500	259.012	80.007	19.993	103.982	20.159	1.084	0.491
353.000	259.267	80.008	19.995	103.978	20.156	1.353	0.468
353.500	259.536	80.007	19.993	103.974	20.156	1.381	0.502
354.000	259.780	80.008	19.995	103.969	20.156	1.373	0.518
354.500	260.013	80.008	19.995	103.964	20.156	1.347	0.495
355.000	260.237	80.009	19.995	103.961	20.154	1.505	0.467
355.500	260.508	80.007	19.994	103.959	20.155	1.397	0.475
356.000	260.732	80.008	19.994	103.961	20.158	1.212	0.495
356.500	260.996	80.009	19.994	103.966	20.155	1.449	0.492
357.000	261.245	80.008	19.994	103.969	20.154	1.512	0.501
357.500	261.457	80.009	19.993	103.971	20.157	1.286	0.487
358.000	261.725	80.008	19.994	103.975	20.157	1.288	0.470
358.500	261.971	80.009	19.994	103.976	20.157	1.303	0.497
359.000	262.213	80.008	19.994	103.975	20.159	1.095	0.501
359.500	262.493	80.009	19.994	103.977	20.159	1.106	0.505
360.000	262.728	80.009	19.994	103.978	20.155	1.416	0.519
360.500	262.950	80.007	19.995	103.980	20.156	1.323	0.486
361.000	263.215	80.008	19.993	103.978	20.155	1.421	0.472
361.500	263.478	80.008	19.996	103.977	20.156	1.366	0.507
362.000	263.713	80.009	19.996	103.976	20.156	1.338	0.513
362.500	263.979	80.009	19.996	103.973	20.156	1.342	0.500
363.000	264.208	80.007	19.996	103.972	20.154	1.540	0.498
363.500	264.464	80.007	19.995	103.974	20.158	1.192	0.489
364.000	264.717	80.008	19.995	103.974	20.158	1.206	0.497
364.500	264.953	80.008	19.995	103.970	20.158	1.201	0.499
365.000	265.235	80.007	19.995	103.971	20.159	1.145	0.504
365.500	265.460	80.007	19.994	103.970	20.158	1.208	0.512
366.000	265.706	80.005	19.995	103.970	20.158	1.206	0.489
366.500	265.964	80.006	19.996	103.971	20.159	1.099	0.488
367.000	266.204	80.006	19.995	103.975	20.155	1.421	0.501
367.500	266.453	80.006	19.995	103.975	20.154	1.473	0.494
368.000	266.709	80.006	19.995	103.974	20.157	1.290	0.497
368.500	266.922	80.005	19.996	103.972	20.151	1.710	0.487
369.000	267.195	80.007	19.994	103.969	20.156	1.340	0.478
369.500	267.428	80.005	19.996	103.971	20.156	1.371	0.496
370.000	267.685	80.007	19.995	103.974	20.156	1.334	0.498
370.500	267.920	80.007	19.995	103.977	20.158	1.210	0.491
371.000	268.197	80.006	19.995	103.980	20.154	1.512	0.502
371.500	268.434	80.007	19.995	103.982	20.154	1.481	0.513
372.000	268.665	80.005	19.994	103.978	20.157	1.236	0.491
372.500	268.958	80.006	19.995	103.976	20.155	1.414	0.496
373.000	269.178	80.006	19.994	103.974	20.161	0.962	0.518
373.500	269.442	80.006	19.994	103.973	20.157	1.264	0.498
374.000	269.667	80.006	19.994	103.971	20.156	1.360	0.487
374.500	269.910	80.007	19.994	103.972	20.155	1.432	0.478
375.000	270.172	80.006	19.994	103.974	20.159	1.130	0.486
375.500	270.461	80.006	19.995	103.975	20.157	1.290	0.528
376.000	270.696	80.007	19.995	103.976	20.156	1.390	0.538
376.500	270.964	80.006	19.993	103.976	20.157	1.305	0.514
377.000	271.214	80.007	19.994	103.975	20.155	1.429	0.510
377.500	271.460	80.006	19.995	103.975	20.154	1.488	0.507
378.000	271.740	80.006	19.995	103.974	20.157	1.268	0.511
378.500	271.953	80.007	19.994	103.974	20.154	1.522	0.510
379.000	272.205	80.006	19.994	103.978	20.152	1.694	0.479
379.500	272.456	80.006	19.996	103.981	20.153	1.607	0.484
380.000	272.754	80.006	19.994	103.981	20.157	1.286	0.526
380.500	272.968	80.005	19.995	103.980	20.157	1.275	0.530
381.000	273.190	80.007	19.994	103.979	20.155	1.403	0.474
381.500	273.457	80.006	19.995	103.978	20.152	1.666	0.463
382.000	273.707	80.007	19.995	103.977	20.154	1.514	0.503
382.500	273.946	80.007	19.995	103.978	20.156	1.377	0.503
383.000	274.187	80.007	19.994	103.978	20.158	1.225	0.485
383.500	274.454	80.007	19.995	103.980	20.157	1.273	0.494
384.000	274.715	80.007	19.994	103.981	20.154	1.471	0.518
384.500	274.949	80.005	19.994	103.983	20.154	1.475	0.512
385.000	275.220	80.007	19.994	103.984	20.157	1.297	0.499
385.500	275.495	80.007	19.994	103.983	20.153	1.581	0.525
386.000	275.751	80.007	19.994	103.981	20.158	1.173	0.539
386.500	275.966	80.007	19.994	103.978	20.157	1.266	0.502
387.000	276.217	80.006	19.995	103.973	20.157	1.268	0.469
387.500	276.494	80.007	19.994	103.966	20.157	1.294	0.497
388.000	276.733	80.006	19.994	103.964	20.157	1.242	0.522
388.500	276.967	80.007	19.996	103.959	20.156	1.312	0.495
389.000	277.223	80.007	19.995	103.956	20.158	1.218	0.481
389.500	277.451	80.006	19.996	103.960	20.156	1.331	0.487
390.000	277.734	80.007	19.996	103.966	20.157	1.279	0.497
390.500	277.962	80.007	19.994	103.968	20.157	1.288	0.511
391.001	278.285	80.007	19.995	103.971	20.158	1.179	0.531
391.500	278.443	80.005	19.993	103.973	20.156	1.338	0.516
392.000	278.712	80.006	19.995	103.967	20.158	1.225	0.454
392.500	278.986	80.005	19.995	103.963	20.156	1.375	0.485
393.000	279.228	80.006	19.996	103.964	20.158	1.182	0.529
393.500	279.470	80.005	19.993	103.967	20.156	1.388	0.500
394.000	279.774	80.005	19.995	103.969	20.156	1.314	0.515
394.500	280.029	80.005	19.996	103.976	20.156	1.360	0.553
395.000	280.218	80.004	19.996	103.977	20.159	1.119	0.502
395.500	280.496	80.005	19.996	103.979	20.155	1.464	0.455
396.000	280.768	80.006	19.995	103.977	20.153	1.579	0.508
396.500	280.992	80.006	19.996	103.974	20.154	1.523	0.522
397.000	281.230	80.005	19.996	103.968	20.154	1.507	0.479
397.500	281.515	80.005	19.995	103.963	20.153	1.588	0.493
398.000	281.788	80.006	19.995	103.957	20.154	1.477	0.541
398.500	281.992	80.006	19.995	103.957	20.156	1.344	0.518
399.000	282.260	80.005	19.994	103.955	20.153	1.572	0.474
399.500	282.538	80.004	19.995	103.957	20.154	1.490	0.509
400.000	282.840	80.005	19.996	103.962	20.156	1.323	0.563
400.500	283.036	80.005	19.995	103.962	20.157	1.283	0.539
401.000	283.336	80.005	19.995	103.962	20.157	1.266	0.497
401.500	283.577	80.006	19.996	103.967	20.159	1.084	0.519
402.000	283.817	80.005	19.995	103.969	20.159	1.153	0.511
402.500	284.079	80.007	19.995	103.966	20.160	1.064	0.491
403.000	284.304	80.005	19.994	103.966	20.159	1.112	0.495
403.501	284.588	80.005	19.995	103.966	20.154	1.538	0.498
404.000	284.803	80.005	19.995	103.962	20.156	1.386	0.504
404.500	285.056	80.004	19.994	103.962	20.160	1.027	0.484
405.000	285.333	80.006	19.995	103.960	20.154	1.498	0.500
405.500	285.578	80.006	19.995	103.961	20.152	1.679	0.526
406.000	285.846	80.006	19.995	103.961	20.159	1.127	0.517
406.500	286.078	80.005	19.994	103.965	20.157	1.283	0.506
407.000	286.337	80.006	19.994	103.962	20.154	1.494	0.495
407.500	286.593	80.006	19.994	103.965	20.153	1.561	0.503
408.000	286.885	80.006	19.996	103.964	20.154	1.488	0.531
408.500	287.100	80.007	19.994	103.963	20.157	1.307	0.528
409.000	287.354	80.007	19.995	103.957	20.155	1.396	0.488
409.500	287.603	80.007	19.995	103.956	20.156	1.327	0.486
410.000	287.898	80.007	19.993	103.954	20.155	1.401	0.524
410.500	288.126	80.006	19.995	103.953	20.153	1.598	0.533
411.000	288.368	80.007	19.994	103.954	20.155	1.403	0.496
411.500	288.663	80.006	19.995	103.954	20.152	1.650	0.503
412.000	288.913	80.006	19.995	103.953	20.156	1.333	0.541
412.500	289.182	80.007	19.995	103.952	20.152	1.633	0.532
413.000	289.407	80.008	19.994	103.951	20.153	1.600	0.507
413.500	289.647	80.007	19.995	103.949	20.154	1.525	0.479
414.000	289.902	80.008	19.995	103.950	20.152	1.635	0.480
414.500	290.216	80.007	19.995	103.951	20.150	1.846	0.532
415.001	290.442	80.008	19.995	103.953	20.153	1.594	0.554
415.501	290.712	80.008	19.995	103.952	20.152	1.679	0.518
416.001	290.988	80.009	19.995	103.953	20.155	1.459	0.521
416.500	291.184	80.007	19.994	103.953	20.154	1.481	0.509
417.000	291.478	80.008	19.994	103.951	20.154	1.479	0.481
417.500	291.731	80.008	19.995	103.948	20.157	1.286	0.518
418.000	291.980	80.009	19.995	103.949	20.155	1.418	0.524
418.500	292.253	80.007	19.995	103.948	20.152	1.655	0.513
419.000	292.494	80.008	19.995	103.947	20.152	1.635	0.518
419.500	292.735	80.007	19.996	103.947	20.153	1.616	0.498
420.000	293.010	80.008	19.995	103.947	20.152	1.676	0.499
420.500	293.237	80.007	19.996	103.947	20.152	1.698	0.509
421.000	293.496	80.007	19.995	103.947	20.154	1.546	0.494
421.500	293.781	80.007	19.995	103.947	20.151	1.716	0.515
422.000	293.979	80.007	19.996	103.947	20.154	1.501	0.513
422.500	294.284	80.007	19.996	103.948	20.154	1.540	0.493
423.000	294.478	80.007	19.996	103.948	20.154	1.477	0.502
423.500	294.770	80.008	19.995	103.948	20.152	1.650	0.493
424.000	295.038	80.006	19.996	103.949	20.156	1.383	0.522
424.500	295.300	80.007	19.996	103.952	20.154	1.529	0.545
425.000	295.576	80.006	19.996	103.953	20.154	1.514	0.534
425.500	295.775	80.007	19.996	103.953	20.154	1.470	0.506
426.000	296.050	80.007	19.995	103.954	20.153	1.626	0.474
426.500	296.288	80.007	19.995	103.952	20.156	1.322	0.494
427.000	296.530	80.006	19.996	103.949	20.155	1.412	0.497
427.500	296.809	80.007	19.996	103.948	20.155	1.448	0.501
428.000	296.978	80.006	19.995	103.948	20.154	1.514	0.484
428.501	297.257	80.007	19.996	103.946	20.155	1.451	0.448
429.000	297.538	80.006	19.995	103.946	20.155	1.440	0.504
429.500	297.771	80.009	19.995	103.946	20.157	1.301	0.537
430.000	298.042	80.006	19.995	103.946	20.157	1.275	0.509
430.500	298.298	80.006	19.996	103.946	20.155	1.398	0.516
431.000	298.522	80.006	19.996	103.945	20.156	1.346	0.504
431.500	298.796	80.006	19.995	103.945	20.157	1.266	0.489
432.000	299.047	80.007	19.996	103.946	20.155	1.464	0.512
432.500	299.303	80.007	19.994	103.946	20.157	1.249	0.516
433.000	299.549	80.008	19.994	103.947	20.156	1.353	0.504
433.500	299.787	80.007	19.994	103.947	20.156	1.368	0.493
434.000	300.064	80.008	19.996	103.947	20.156	1.377	0.500
434.500	300.288	80.008	19.994	103.947	20.155	1.412	0.508
435.000	300.501	80.008	19.995	103.947	20.154	1.490	0.469
435.500	300.794	80.008	19.995	103.946	20.155	1.418	0.472
436.000	301.062	80.009	19.994	103.947	20.154	1.494	0.534
436.500	301.323	80.009	19.994	103.947	20.155	1.453	0.545
437.000	301.572	80.009	19.994	103.945	20.157	1.281	0.520
437.500	301.815	80.009	19.994	103.945	20.156	1.370	0.501
438.000	302.084	80.010	19.995	103.946	20.157	1.255	0.502
438.500	302.331	80.009	19.995	103.946	20.156	1.327	0.514
439.000	302.551	80.009	19.995	103.947	20.156	1.359	0.491
439.500	302.842	80.009	19.994	103.948	20.154	1.479	0.489
440.000	303.043	80.009	19.994	103.948	20.155	1.466	0.501
440.500	303.320	80.009	19.994	103.946	20.158	1.186	0.485
441.000	303.560	80.010	19.993	103.946	20.159	1.144	0.498
441.500	303.877	80.009	19.994	103.946	20.157	1.275	0.537
442.000	304.109	80.011	19.993	103.945	20.158	1.220	0.553
442.500	304.359	80.008	19.995	103.946	20.158	1.166	0.516
443.000	304.577	80.009	19.995	103.945	20.158	1.190	0.475
443.500	304.831	80.008	19.993	103.945	20.161	0.973	0.470
444.000	305.122	80.009	19.994	103.946	20.158	1.218	0.509
444.500	305.378	80.009	19.994	103.946	20.155	1.392	0.546
445.000	305.617	80.007	19.995	103.946	20.159	1.077	0.521
445.500	305.868	80.008	19.994	103.948	20.159	1.105	0.493
446.000	306.116	80.008	19.994	103.949	20.157	1.242	0.495
446.500	306.383	80.007	19.993	103.948	20.156	1.370	0.507
447.000	306.619	80.007	19.994	103.950	20.159	1.136	0.510
447.500	306.865	80.007	19.995	103.950	20.158	1.184	0.493
448.000	307.143	80.006	19.995	103.948	20.159	1.077	0.503
448.500	307.420	80.007	19.994	103.948	20.157	1.266	0.539
449.000	307.660	80.007	19.995	103.949	20.158	1.164	0.535
449.500	307.905	80.007	19.995	103.948	20.159	1.112	0.501
450.000	308.132	80.006	19.995	103.948	20.160	1.042	0.479
450.500	308.384	80.006	19.995	103.949	20.156	1.351	0.475
451.000	308.670	80.006	19.995	103.949	20.158	1.231	0.508
451.500	308.882	80.006	19.995	103.949	20.156	1.340	0.518
452.000	309.136	80.007	19.994	103.949	20.157	1.242	0.482
452.500	309.401	80.006	19.995	103.950	20.158	1.181	0.492
453.000	309.703	80.005	19.994	103.950	20.158	1.190	0.543
453.500	309.904	80.006	19.994	103.950	20.156	1.379	0.535
454.000	310.177	80.005	19.996	103.950	20.157	1.307	0.489
454.501	310.438	80.006	19.996	103.950	20.157	1.240	0.504
455.000	310.700	80.007	19.995	103.950	20.160	1.016	0.528
455.500	310.946	80.006	19.996	103.950	20.156	1.325	0.516
456.000	311.217	80.006	19.995	103.951	20.157	1.290	0.512
456.500	311.438	80.007	19.996	103.951	20.152	1.635	0.505
457.000	311.688	80.007	19.995	103.950	20.157	1.242	0.482
457.500	311.968	80.006	19.995	103.950	20.156	1.375	0.501
458.000	312.216	80.009	19.995	103.951	20.154	1.544	0.529
458.500	312.461	80.006	19.994	103.950	20.152	1.698	0.510
459.000	312.751	80.006	19.996	103.949	20.155	1.431	0.514
459.500	312.974	80.006	19.995	103.950	20.154	1.511	0.524
460.000	313.223	80.006	19.995	103.950	20.154	1.481	0.493
460.500	313.509	80.006	19.995	103.950	20.157	1.247	0.503
461.000	313.766	80.007	19.994	103.948	20.156	1.366	0.539
461.500	313.965	80.006	19.996	103.948	20.153	1.551	0.500
462.000	314.235	80.006	19.995	103.948	20.155	1.414	0.463
462.500	314.498	80.006	19.995	103.947	20.156	1.316	0.501
463.000	314.768	80.007	19.995	103.947	20.153	1.574	0.532
463.500	315.000	80.006	19.997	103.950	20.155	1.425	0.517
464.000	315.250	80.007	19.995	103.950	20.157	1.262	0.492
464.500	315.470	80.006	19.995	103.950	20.154	1.538	0.476
465.000	315.721	80.006	19.996	103.950	20.154	1.520	0.471
465.500	315.998	80.007	19.994	103.949	20.161	0.984	0.499
466.000	316.249	80.006	19.994	103.949	20.155	1.437	0.528
466.500	316.489	80.006	19.994	103.948	20.155	1.407	0.510
467.000	316.736	80.007	19.995	103.947	20.156	1.379	0.490
467.500	317.033	80.007	19.993	103.948	20.155	1.403	0.516
468.000	317.229	80.007	19.995	103.950	20.158	1.216	0.518
468.500	317.527	80.008	19.995	103.952	20.158	1.190	0.493
469.000	317.702	80.005	19.995	103.954	20.157	1.273	0.483
469.500	318.028	80.007	19.995	103.954	20.160	1.005	0.486
470.000	318.252	80.007	19.994	103.954	20.159	1.140	0.525
470.500	318.473	80.005	19.994	103.952	20.157	1.238	0.498
471.000	318.744	80.005	19.994	103.951	20.157	1.240	0.468
471.500	318.981	80.005	19.993	103.951	20.158	1.223	0.500
472.000	319.242	80.008	19.994	103.951	20.155	1.427	0.503
472.500	319.500	80.007	19.994	103.951	20.160	1.073	0.509
473.000	319.751	80.007	19.994	103.951	20.159	1.099	0.514
473.500	320.016	80.008	19.995	103.951	20.158	1.223	0.513
474.000	320.224	80.008	19.995	103.951	20.159	1.138	0.494
474.500	320.484	80.006	19.994	103.951	20.157	1.251	0.471
475.000	320.772	80.007	19.993	103.951	20.159	1.095	0.509
475.500	321.014	80.007	19.994	103.951	20.157	1.262	0.539
476.000	321.258	80.006	19.994	103.951	20.156	1.357	0.507
476.500	321.522	80.005	19.995	103.943	20.158	1.190	0.497
477.000	321.772	80.007	19.995	103.940	20.157	1.286	0.511
477.500	321.988	80.007	19.995	103.940	20.159	1.110	0.490
478.000	322.251	80.007	19.994	103.940	20.159	1.123	0.473
478.500	322.509	80.006	19.994	103.939	20.154	1.511	0.500
479.000	322.779	80.007	19.993	103.945	20.157	1.264	0.524
479.500	323.001	80.007	19.994	103.947	20.157	1.255	0.510
480.000	323.306	80.006	19.994	103.947	20.156	1.349	0.509
480.500	323.544	80.007	19.995	103.946	20.155	1.409	0.535
481.000	323.797	80.007	19.994	103.945	20.157	1.268	0.517
481.500	324.029	80.007	19.994	103.947	20.158	1.175	0.488
482.000	324.292	80.007	19.995	103.947	20.152	1.679	0.490
482.500	324.530	80.006	19.996	103.947	20.155	1.442	0.498
483.000	324.774	80.006	19.996	103.947	20.154	1.533	0.491
483.500	325.064	80.007	19.996	103.946	20.156	1.342	0.507
484.000	325.301	80.006	19.996	103.946	20.158	1.175	0.530
484.500	325.580	80.007	19.996	103.946	20.157	1.275	0.522
485.000	325.796	80.006	19.996	103.947	20.154	1.477	0.506
485.500	326.029	80.007	19.996	103.949	20.155	1.418	0.472
486.000	326.318	80.006	19.995	103.950	20.158	1.155	0.486
486.500	326.532	80.007	19.996	103.951	20.159	1.103	0.512
487.000	326.795	80.007	19.996	103.953	20.155	1.420	0.490
487.500	327.088	80.007	19.996	103.952	20.155	1.403	0.517
488.000	327.349	80.006	19.995	103.951	20.156	1.333	0.555
488.500	327.539	80.007	19.994	103.950	20.155	1.394	0.502
489.000	327.835	80.007	19.994	103.948	20.155	1.453	0.468
489.500	328.058	80.007	19.995	103.947	20.159	1.079	0.502
490.000	328.306	80.006	19.994	103.947	20.152	1.633	0.495
490.500	328.647	80.006	19.995	103.946	20.156	1.333	0.531
491.000	328.800	80.006	19.995	103.946	20.153	1.568	0.542
491.500	329.087	80.006	19.995	103.944	20.153	1.594	0.467
492.001	329.349	80.007	19.995	103.944	20.154	1.533	0.494
492.500	329.605	80.009	19.996	103.943	20.154	1.514	0.533
493.000	329.854	80.008	19.995	103.944	20.151	1.720	0.511
493.500	330.088	80.007	19.996	103.944	20.152	1.681	0.494
494.000	330.343	80.008	19.996	103.946	20.152	1.655	0.486
494.500	330.585	80.006	19.994	103.947	20.152	1.663	0.493
495.000	330.841	80.008	19.995	103.947	20.153	1.564	0.497
495.500	331.086	80.006	19.994	103.947	20.153	1.581	0.499
496.000	331.340	80.008	19.995	103.947	20.151	1.759	0.500
496.500	331.569	80.009	19.994	103.947	20.152	1.633	0.491
497.000	331.865	80.009	19.995	103.946	20.151	1.713	0.504
497.500	332.103	80.009	19.995	103.946	20.151	1.731	0.530
498.000	332.350	80.009	19.994	103.945	20.154	1.492	0.510
498.500	332.586	80.007	19.995	103.944	20.151	1.711	0.484
499.001	332.928	80.007	19.993	103.941	20.151	1.748	0.531
499.501	333.114	80.008	19.995	103.941	20.154	1.509	0.553
500.000	333.354	80.009	19.995	103.941	20.153	1.596	0.476
500.500	333.631	80.009	19.994	103.942	20.152	1.640	0.471
501.000	333.893	80.008	19.994	103.942	20.151	1.766	0.528
501.500	334.161	80.009	19.994	103.944	20.152	1.653	0.534
502.000	334.410	80.008	19.995	103.943	20.151	1.711	0.524
502.500	334.703	80.007	19.995	103.944	20.151	1.713	0.530
503.000	334.924	80.008	19.995	103.943	20.150	1.785	0.528
503.500	335.125	80.008	19.994	103.944	20.152	1.694	0.468
504.000	335.420	80.008	19.995	103.943	20.154	1.488	0.459
504.500	335.711	80.008	19.995	103.945	20.153	1.626	0.541
505.000	335.916	80.007	19.994	103.945	20.153	1.553	0.541
505.500	336.194	80.008	19.994	103.945	20.152	1.698	0.489
506.000	336.434	80.007	19.994	103.945	20.151	1.757	0.500
506.500	336.662	80.007	19.995	103.946	20.154	1.516	0.493
507.000	336.892	80.006	19.994	103.945	20.152	1.644	0.463
507.500	337.181	80.007	19.995	103.944	20.150	1.789	0.489
508.000	337.402	80.006	19.996	103.945	20.152	1.691	0.515
508.500	337.687	80.008	19.994	103.945	20.155	1.396	0.508
509.000	337.949	80.007	19.995	103.945	20.152	1.679	0.526
509.501	338.190	80.007	19.994	103.945	20.153	1.590	0.525
510.000	338.444	80.006	19.995	103.946	20.151	1.783	0.499
510.500	338.679	80.006	19.995	103.946	20.149	1.913	0.492
511.000	338.942	80.007	19.995	103.946	20.151	1.707	0.494
511.500	339.184	80.006	19.995	103.947	20.149	1.865	0.502
512.000	339.450	80.007	19.995	103.948	20.154	1.535	0.507
512.500	339.698	80.007	19.996	103.948	20.151	1.713	0.511
513.000	339.951	80.007	19.995	103.946	20.152	1.691	0.508
513.500	340.227	80.005	19.993	103.946	20.149	1.872	0.515
514.000	340.496	80.007	19.998	103.946	20.149	1.865	0.536
514.500	340.692	80.007	19.995	103.945	20.150	1.813	0.505
515.000	340.983	80.007	19.996	103.945	20.150	1.848	0.476
515.500	341.262	80.008	19.996	103.945	20.152	1.694	0.529
516.000	341.482	80.007	19.996	103.943	20.150	1.791	0.535
516.500	341.755	80.007	19.996	103.940	20.152	1.672	0.496
517.000	341.999	80.006	19.996	103.939	20.149	1.913	0.505
517.500	342.295	80.007	19.996	103.936	20.151	1.757	0.528
518.000	342.530	80.008	19.997	103.935	20.150	1.802	0.536
518.500	342.762	80.008	19.997	103.934	20.154	1.494	0.499
519.000	343.010	80.007	19.996	103.933	20.154	1.483	0.473
519.500	343.267	80.007	19.996	103.936	20.152	1.652	0.492
520.000	343.537	80.008	19.996	103.939	20.150	1.798	0.516
520.500	343.800	80.008	19.995	103.941	20.152	1.644	0.530
521.000	344.055	80.008	19.995	103.945	20.153	1.553	0.525
521.500	344.292	80.008	19.996	103.947	20.151	1.707	0.505
522.000	344.530	80.009	19.994	103.943	20.155	1.396	0.484
522.500	344.810	80.009	19.994	103.940	20.150	1.794	0.496
523.000	345.025	80.008	19.995	103.937	20.153	1.596	0.507
523.500	345.314	80.007	19.995	103.935	20.153	1.583	0.500
524.000	345.526	80.008	19.995	103.934	20.153	1.592	0.503
524.500	345.822	80.008	19.994	103.932	20.152	1.703	0.504
525.000	346.053	80.008	19.996	103.932	20.149	1.887	0.517
525.500	346.315	80.008	19.994	103.934	20.152	1.650	0.510
526.000	346.583	80.006	19.994	103.936	20.151	1.748	0.512
526.500	346.818	80.007	19.994	103.938	20.150	1.837	0.517
527.000	347.057	80.008	19.995	103.944	20.152	1.665	0.489
527.500	347.321	80.007	19.995	103.947	20.150	1.791	0.488
528.000	347.585	80.007	19.994	103.947	20.151	1.757	0.515
528.500	347.815	80.006	19.993	103.946	20.150	1.787	0.511
529.000	348.077	80.007	19.995	103.944	20.151	1.720	0.493
529.500	348.295	80.006	19.994	103.943	20.147	2.028	0.486
530.001	348.573	80.006	19.993	103.940	20.151	1.778	0.487
530.501	348.827	80.005	19.994	103.938	20.150	1.828	0.514
531.001	349.106	80.005	19.993	103.938	20.152	1.628	0.533
531.501	349.371	80.006	19.994	103.941	20.152	1.674	0.539
532.000	349.632	80.006	19.994	103.936	20.150	1.854	0.535
532.500	349.858	80.006	19.994	103.938	20.150	1.787	0.507
533.000	350.137	80.006	19.994	103.941	20.151	1.741	0.496
533.500	350.398	80.005	19.994	103.941	20.150	1.817	0.523
534.000	350.645	80.007	19.994	103.942	20.147	2.047	0.524
534.500	350.918	80.005	19.994	103.948	20.147	2.065	0.514
535.000	351.167	80.005	19.994	103.949	20.147	2.054	0.521
535.500	351.414	80.005	19.994	103.949	20.146	2.106	0.509
536.000	351.691	80.006	19.994	103.949	20.150	1.828	0.510
536.500	351.923	80.005	19.995	103.946	20.147	2.093	0.516
537.000	352.177	80.006	19.995	103.941	20.149	1.884	0.497
537.500	352.431	80.005	19.994	103.939	20.148	1.958	0.497
538.000	352.697	80.005	19.994	103.937	20.148	1.950	0.514
538.500	352.949	80.006	19.995	103.935	20.150	1.854	0.519
539.000	353.192	80.007	19.994	103.937	20.151	1.765	0.506
539.500	353.455	80.007	19.995	103.941	20.147	2.087	0.500
540.000	353.708	80.006	19.994	103.942	20.149	1.935	0.511
540.500	353.964	80.006	19.994	103.940	20.150	1.861	0.512
541.000	354.234	80.007	19.994	103.940	20.147	2.091	0.517
541.500	354.502	80.005	19.995	103.939	20.148	1.991	0.532
542.000	354.696	80.006	19.994	103.934	20.151	1.765	0.500
542.500	354.963	80.005	19.997	103.932	20.147	2.071	0.461
543.000	355.258	80.006	19.995	103.928	20.148	1.967	0.511
543.500	355.459	80.006	19.995	103.926	20.148	1.993	0.529
544.000	355.725	80.007	19.993	103.920	20.148	1.948	0.481
544.500	355.967	80.006	19.996	103.923	20.148	1.961	0.488
545.000	356.226	80.006	19.995	103.924	20.147	2.043	0.505
545.501	356.452	80.006	19.994	103.927	20.149	1.902	0.493
546.000	356.736	80.007	19.995	103.930	20.149	1.898	0.498
546.500	356.962	80.008	19.996	103.930	20.148	1.950	0.510
547.000	357.210	80.007	19.995	103.925	20.149	1.908	0.492
547.500	357.499	80.007	19.994	103.923	20.146	2.125	0.506
548.000	357.731	80.007	19.994	103.923	20.148	2.017	0.529
548.500	357.939	80.006	19.994	103.921	20.145	2.201	0.480
549.000	358.197	80.007	19.994	103.923	20.147	2.060	0.453
549.500	358.468	80.006	19.995	103.928	20.146	2.117	0.498
550.000	358.724	80.008	19.995	103.930	20.149	1.932	0.528
550.500	358.958	80.006	19.995	103.930	20.146	2.108	0.508
551.000	359.213	80.006	19.995	103.928	20.149	1.917	0.489
551.500	359.452	80.006	19.995	103.930	20.146	2.134	0.492
552.001	359.713	80.006	19.995	103.929	20.146	2.130	0.497
552.500	359.965	80.007	19.995	103.930	20.150	1.821	0.506
553.000	360.227	80.007	19.996	103.931	20.148	1.991	0.513
553.500	360.449	80.007	19.995	103.936	20.148	1.986	0.499
554.000	360.734	80.007	19.994	103.938	20.146	2.117	0.496
554.500	360.961	80.008	19.994	103.940	20.146	2.166	0.510
555.000	361.208	80.007	19.995	103.938	20.146	2.147	0.493
555.500	361.473	80.006	19.995	103.936	20.144	2.262	0.493
556.000	361.752	80.007	19.995	103.931	20.144	2.297	0.529
556.500	361.995	80.006	19.994	103.928	20.146	2.108	0.533
557.000	362.238	80.007	19.993	103.922	20.145	2.204	0.504
557.500	362.485	80.007	19.995	103.919	20.146	2.160	0.488
558.000	362.748	80.006	19.994	103.920	20.141	2.510	0.500
558.500	362.988	80.006	19.995	103.918	20.146	2.145	0.507
559.000	363.215	80.008	19.995	103.917	20.144	2.288	0.485
559.500	363.482	80.007	19.994	103.921	20.144	2.267	0.481
560.000	363.740	80.007	19.994	103.927	20.142	2.443	0.510
560.500	363.981	80.008	19.995	103.923	20.139	2.692	0.512
561.000	364.247	80.006	19.994	103.924	20.140	2.595	0.503
561.500	364.458	80.008	19.994	103.922	20.138	2.738	0.492
562.000	364.716	80.006	19.995	103.917	20.145	2.193	0.473
562.500	364.970	80.006	19.995	103.912	20.142	2.464	0.490
563.000	365.243	80.005	19.995	103.912	20.143	2.412	0.519
563.500	365.465	80.006	19.995	103.910	20.143	2.343	0.511
564.000	365.728	80.006	19.994	103.910	20.143	2.376	0.490
564.500	365.971	80.006	19.996	103.912	20.142	2.430	0.496
565.000	366.172	80.008	19.993	103.911	20.144	2.276	0.475
565.500	366.482	80.006	19.995	103.911	20.145	2.245	0.477
566.000	366.703	80.006	19.994	103.913	20.142	2.423	0.521
566.500	366.960	80.006	19.995	103.915	20.143	2.375	0.505
567.000	367.201	80.006	19.994	103.916	20.142	2.486	0.488
567.500	367.440	80.006	19.995	103.917	20.143	2.358	0.489
568.000	367.689	80.007	19.994	103.920	20.141	2.573	0.484
568.500	367.928	80.007	19.993	103.920	20.143	2.347	0.488
569.000	368.199	80.007	19.994	103.919	20.138	2.740	0.499
569.500	368.415	80.007	19.994	103.919	20.139	2.712	0.498
570.000	368.698	80.006	19.995	103.922	20.141	2.512	0.493
570.500	368.928	80.007	19.995	103.924	20.138	2.733	0.506
571.000	369.168	80.006	19.994	103.925	20.140	2.577	0.491
571.500	369.435	80.006	19.994	103.925	20.138	2.747	0.488
572.000	369.682	80.007	19.995	103.928	20.139	2.720	0.510
572.500	369.907	80.007	19.995	103.932	20.140	2.608	0.493
573.000	370.179	80.006	19.994	103.932	20.140	2.636	0.485
573.500	370.431	80.007	19.994	103.932	20.139	2.668	0.511
574.000	370.632	80.007	19.996	103.938	20.138	2.753	0.488
574.500	370.928	80.007	19.996	103.940	20.138	2.794	0.475
575.000	371.147	80.007	19.995	103.938	20.136	2.968	0.507
575.500	371.401	80.008	19.995	103.937	20.137	2.818	0.494
576.000	371.663	80.008	19.994	103.933	20.135	2.977	0.495
576.500	371.892	80.008	19.994	103.927	20.135	2.998	0.503
577.000	372.167	80.007	19.996	103.920	20.134	3.101	0.497
577.500	372.460	80.008	19.994	103.916	20.133	3.161	0.536
578.000	372.685	80.007	19.995	103.915	20.134	3.085	0.543
578.500	372.937	80.008	19.994	103.915	20.131	3.322	0.498
579.000	373.188	80.007	19.994	103.916	20.129	3.495	0.490
579.500	373.451	80.008	19.993	103.917	20.129	3.463	0.508
580.000	373.707	80.008	19.993	103.917	20.133	3.204	0.517
580.500	373.940	80.007	19.994	103.917	20.133	3.189	0.504
581.000	374.227	80.008	19.995	103.918	20.131	3.330	0.505
581.500	374.459	80.008	19.995	103.924	20.127	3.599	0.519
582.000	374.707	80.007	19.994	103.925	20.130	3.404	0.499
582.500	374.942	80.009	19.993	103.928	20.126	3.708	0.482
583.001	375.175	80.007	19.997	103.927	20.130	3.435	0.476
583.501	375.408	80.007	19.994	103.926	20.128	3.539	0.467
584.000	375.667	80.006	19.994	103.923	20.126	3.697	0.479
584.500	375.949	80.006	19.995	103.924	20.126	3.719	0.516
585.000	376.206	80.008	19.995	103.924	20.125	3.828	0.540
585.500	376.453	80.007	19.996	103.927	20.125	3.834	0.522
586.000	376.711	80.007	19.995	103.933	20.125	3.774	0.504
586.500	376.968	80.007	19.994	103.932	20.124	3.887	0.510
587.000	377.216	80.006	19.995	103.929	20.125	3.815	0.510
587.501	377.436	80.006	19.997	103.931	20.123	3.926	0.486
588.000	377.715	80.007	19.994	103.930	20.125	3.830	0.484
588.500	377.940	80.006	19.995	103.927	20.124	3.886	0.502
589.000	378.194	80.007	19.993	103.926	20.124	3.839	0.492
589.500	378.479	80.006	19.995	103.926	20.121	4.073	0.509
590.000	378.670	80.006	19.994	103.921	20.121	4.142	0.508
590.500	378.932	80.006	19.995	103.921	20.120	4.194	0.464
591.000	379.187	80.006	19.994	103.919	20.120	4.181	0.485
591.500	379.414	80.006	19.995	103.918	20.125	3.830	0.499
592.001	379.689	80.006	19.995	103.917	20.119	4.244	0.492
592.500	379.957	80.008	19.994	103.917	20.120	4.190	0.523
593.000	380.164	80.007	19.994	103.917	20.120	4.227	0.509
593.500	380.419	80.006	19.995	103.918	20.116	4.544	0.468
594.000	380.661	80.007	19.993	103.920	20.117	4.466	0.480
594.500	380.942	80.006	19.995	103.926	20.116	4.522	0.511
595.000	381.177	80.007	19.994	103.925	20.116	4.535	0.520
595.500	381.424	80.007	19.993	103.928	20.114	4.633	0.499
596.000	381.647	80.007	19.994	103.930	20.114	4.633	0.476
596.500	381.935	80.007	19.995	103.932	20.118	4.338	0.491
597.000	382.221	80.006	19.993	103.930	20.115	4.620	0.542
597.500	382.439	80.008	19.994	103.936	20.115	4.611	0.539
598.000	382.665	80.006	19.994	103.933	20.111	4.872	0.474
598.500	382.983	80.008	19.994	103.930	20.114	4.683	0.494
599.000	383.198	80.008	19.994	103.930	20.109	5.034	0.538
599.500	383.423	80.009	19.993	103.928	20.112	4.856	0.486
600.000	383.697	80.009	19.994	103.927	20.110	4.997	0.470
600.500	384.000	80.009	19.995	103.924	20.111	4.897	0.538
601.000	384.244	80.008	19.994	103.924	20.109	5.037	0.562
601.500	384.498	80.009	19.995	103.921	20.109	5.048	0.523
602.000	384.737	80.008	19.994	103.923	20.106	5.258	0.496
602.500	385.010	80.008	19.996	103.921	20.103	5.545	0.502
603.000	385.260	80.009	19.994	103.922	20.101	5.670	0.517
603.500	385.480	80.009	19.993	103.925	20.109	5.091	0.497
604.000	385.782	80.009	19.994	103.927	20.102	5.598	0.496
604.500	385.999	80.009	19.994	103.926	20.099	5.828	0.520
605.000	386.276	80.009	19.995	103.925	20.104	5.444	0.507
605.500	386.551	80.008	19.995	103.924	20.100	5.794	0.523
606.000	386.786	80.009	19.996	103.920	20.098	5.898	0.531
606.500	387.011	80.007	19.995	103.916	20.099	5.874	0.485
607.000	387.314	80.008	19.994	103.916	20.095	6.156	0.494
607.500	387.569	80.006	19.995	103.917	20.095	6.146	0.543
608.000	387.808	80.007	19.994	103.918	20.092	6.360	0.526
608.500	388.113	80.007	19.995	103.920	20.091	6.454	0.519
609.000	388.307	80.006	19.996	103.922	20.088	6.723	0.522
609.500	388.574	80.007	19.995	103.919	20.088	6.710	0.480
610.001	388.846	80.005	19.996	103.915	20.093	6.293	0.500
610.500	389.085	80.006	19.995	103.912	20.094	6.265	0.525
611.000	389.349	80.007	19.995	103.911	20.092	6.393	0.507
611.500	389.588	80.006	19.995	103.912	20.091	6.480	0.503
612.000	389.899	80.007	19.994	103.916	20.092	6.417	0.527
612.500	390.156	80.006	19.996	103.919	20.090	6.537	0.559
613.000	390.395	80.006	19.997	103.921	20.088	6.678	0.532
613.500	390.674	80.004	19.997	103.919	20.092	6.389	0.507
614.000	390.960	80.006	19.997	103.916	20.088	6.688	0.542
614.501	391.187	80.005	19.996	103.911	20.087	6.819	0.539
615.000	391.443	80.005	19.995	103.908	20.087	6.762	0.498
615.500	391.678	80.006	19.996	103.906	20.089	6.610	0.487
616.000	391.967	80.005	19.995	103.907	20.088	6.749	0.507
616.500	392.186	80.006	19.996	103.907	20.085	6.927	0.516
617.000	392.513	80.005	19.996	103.908	20.085	6.936	0.527
617.500	392.705	80.006	19.995	103.910	20.085	6.981	0.532
618.000	393.034	80.006	19.997	103.910	20.082	7.203	0.520
618.500	393.267	80.005	19.997	103.910	20.082	7.211	0.542
619.000	393.532	80.006	19.995	103.910	20.084	7.057	0.530
619.500	393.767	80.004	19.995	103.909	20.083	7.131	0.499
620.000	394.054	80.005	19.995	103.908	20.079	7.459	0.511
620.500	394.312	80.006	19.995	103.909	20.082	7.164	0.534
621.000	394.572	80.006	19.995	103.910	20.082	7.214	0.532
621.500	394.802	80.006	19.996	103.911	20.083	7.144	0.504
622.000	395.048	80.006	19.995	103.914	20.082	7.201	0.483
622.500	395.366	80.006	19.995	103.916	20.079	7.444	0.520
623.000	395.593	80.006	19.996	103.917	20.079	7.433	0.555
623.500	395.894	80.007	19.993	103.916	20.077	7.607	0.536
624.000	396.165	80.005	19.995	103.915	20.078	7.516	0.549
624.500	396.404	80.006	19.995	103.913	20.079	7.442	0.541
625.000	396.645	80.007	19.994	103.911	20.080	7.370	0.495
625.500	396.887	80.007	19.995	103.911	20.077	7.570	0.482
626.000	397.140	80.006	19.994	103.910	20.079	7.422	0.489
626.500	397.420	80.007	19.995	103.910	20.078	7.491	0.514
627.000	397.697	80.008	19.995	103.910	20.077	7.596	0.545
627.500	397.961	80.007	19.994	103.911	20.073	7.897	0.549
628.000	398.202	80.007	19.994	103.910	20.073	7.891	0.523
628.500	398.486	80.007	19.995	103.910	20.074	7.852	0.515
629.000	398.770	80.008	19.995	103.910	20.073	7.887	0.546
629.500	399.000	80.006	19.995	103.910	20.070	8.152	0.541
630.001	399.262	80.006	19.995	103.909	20.073	7.926	0.504
630.501	399.477	80.007	19.995	103.909	20.069	8.184	0.485
631.000	399.763	80.008	19.994	103.909	20.068	8.292	0.489
631.500	400.029	80.007	19.994	103.909	20.067	8.331	0.526
632.000	400.279	80.006	19.994	103.909	20.070	8.127	0.534
632.500	400.532	80.007	19.995	103.909	20.070	8.154	0.510
633.000	400.768	80.007	19.994	103.912	20.068	8.308	0.496
633.500	401.026	80.004	19.992	103.914	20.065	8.501	0.492
634.000	401.284	80.007	19.996	103.915	20.065	8.520	0.505
634.500	401.560	80.007	19.994	103.916	20.068	8.325	0.525
635.000	401.805	80.007	19.995	103.917	20.063	8.670	0.528
635.501	402.075	80.007	19.994	103.915	20.063	8.696	0.518
636.000	402.336	80.007	19.994	103.912	20.063	8.711	0.523
636.500	402.576	80.006	19.995	103.911	20.063	8.681	0.516
637.000	402.865	80.006	19.995	103.909	20.063	8.700	0.515
637.500	403.104	80.007	19.994	103.909	20.060	8.898	0.528
638.000	403.360	80.007	19.995	103.909	20.060	8.933	0.511
638.500	403.624	80.006	19.995	103.911	20.059	9.022	0.508
639.000	403.875	80.006	19.994	103.911	20.060	8.948	0.517
639.500	404.157	80.006	19.995	103.915	20.060	8.950	0.524
640.000	404.365	80.006	19.994	103.915	20.059	9.000	0.512
640.500	404.654	80.006	19.995	103.914	20.058	9.083	0.493
641.000	404.927	80.004	19.995	103.913	20.055	9.328	0.530
641.500	405.145	80.006	19.995	103.912	20.056	9.254	0.527
642.000	405.377	80.005	19.996	103.909	20.052	9.565	0.470
642.500	405.671	80.005	19.995	103.909	20.050	9.723	0.488
643.000	405.905	80.007	19.995	103.910	20.051	9.639	0.527
643.501	406.165	80.005	19.994	103.910	20.051	9.645	0.511
644.000	406.430	80.005	19.995	103.910	20.047	9.945	0.509
644.500	406.680	80.005	19.994	103.910	20.048	9.903	0.520
645.000	406.931	80.005	19.994	103.910	20.047	9.927	0.508
645.500	407.173	80.006	19.994	103.910	20.046	10.038	0.497
646.000	407.410	80.006	19.995	103.910	20.044	10.199	0.486
646.500	407.699	80.006	19.995	103.911	20.046	10.027	0.502
647.000	407.919	80.005	19.995	103.910	20.043	10.229	0.518
647.500	408.255	80.007	19.995	103.908	20.040	10.492	0.533
648.000	408.464	80.004	19.995	103.908	20.041	10.402	0.550
648.500	408.762	80.005	19.994	103.908	20.040	10.498	0.525
649.000	408.957	80.004	19.995	103.909	20.041	10.411	0.500
649.500	409.259	80.006	19.995	103.909	20.037	10.734	0.495
650.000	409.496	80.006	19.995	103.911	20.038	10.693	0.518
650.500	409.724	80.006	19.994	103.912	20.035	10.897	0.502
651.000	409.980	80.005	19.994	103.911	20.035	10.865	0.474
651.500	410.241	80.007	19.994	103.911	20.033	11.047	0.500
652.000	410.518	80.005	19.994	103.912	20.033	11.047	0.528
652.500	410.742	80.005	19.996	103.912	20.034	10.997	0.520
653.000	410.984	80.006	19.994	103.912	20.029	11.334	0.483
653.500	411.283	80.007	19.995	103.912	20.027	11.547	0.503
654.000	411.528	80.007	19.994	103.912	20.024	11.762	0.543
654.500	411.769	80.006	19.993	103.912	20.025	11.710	0.515
655.000	412.023	80.006	19.995	103.912	20.022	11.883	0.490
655.500	412.283	80.007	19.994	103.912	20.018	12.231	0.505
656.000	412.507	80.007	19.994	103.911	20.018	12.239	0.499
656.500	412.789	80.007	19.995	103.911	20.017	12.352	0.494
657.000	413.048	80.008	19.993	103.911	20.013	12.593	0.523
657.500	413.274	80.007	19.994	103.911	20.015	12.511	0.513
658.000	413.544	80.008	19.995	103.911	20.008	13.032	0.491
658.500	413.755	80.007	19.995	103.910	20.007	13.112	0.489
659.000	414.055	80.008	19.994	103.908	20.006	13.157	0.496
659.500	414.286	80.007	19.995	103.908	20.005	13.246	0.521
660.000	414.510	80.008	19.995	103.908	20.005	13.248	0.493
660.500	414.786	80.007	19.995	103.908	20.001	13.598	0.478
661.000	415.021	80.008	19.995	103.908	19.998	13.782	0.505
661.500	415.276	80.008	19.993	103.909	19.997	13.877	0.500
662.000	415.599	80.009	19.993	103.909	19.996	13.953	0.534
662.500	415.840	80.008	19.994	103.909	19.995	14.085	0.572
663.000	416.062	80.008	19.994	103.909	19.993	14.176	0.514
663.501	416.302	80.008	19.994	103.910	19.991	14.344	0.462
664.000	416.583	80.007	19.994	103.911	19.987	14.648	0.491
664.500	416.782	80.008	19.995	103.911	19.987	14.691	0.501
665.000	417.011	80.007	19.994	103.912	19.981	15.130	0.454
665.500	417.330	80.006	19.995	103.912	19.980	15.264	0.488
666.000	417.601	80.007	19.994	103.913	19.977	15.441	0.569
666.500	417.862	80.007	19.993	103.913	19.977	15.443	0.561
667.000	418.074	80.009	19.994	103.914	19.973	15.759	0.502
667.500	418.328	80.007	19.994	103.913	19.971	15.955	0.470
668.000	418.564	80.007	19.995	103.913	19.966	16.346	0.478
668.500	418.855	80.009	19.994	103.912	19.965	16.433	0.508
669.000	419.104	80.007	19.994	103.911	19.962	16.679	0.533
669.500	419.342	80.007	19.994	103.911	19.959	16.877	0.514
670.000	419.608	80.006	19.995	103.911	19.955	17.218	0.496
670.500	419.836	80.008	19.995	103.911	19.954	17.274	0.499
671.000	420.110	80.008	19.995	103.909	19.947	17.844	0.497
671.500	420.347	80.008	19.995	103.907	19.944	18.082	0.506
672.000	420.643	80.007	19.996	103.905	19.942	18.246	0.522
672.500	420.885	80.009	19.996	103.903	19.938	18.505	0.536
673.000	421.127	80.007	19.995	103.902	19.934	18.872	0.511
673.500	421.379	80.007	19.995	103.902	19.929	19.238	0.489
674.000	421.598	80.007	19.995	103.901	19.922	19.827	0.483
674.500	421.848	80.008	19.995	103.903	19.921	19.918	0.470
675.000	422.087	80.009	19.995	103.904	19.914	20.426	0.479
675.500	422.386	80.007	19.995	103.903	19.908	20.903	0.514
676.000	422.599	80.009	19.995	103.904	19.903	21.306	0.525
676.500	422.885	80.008	19.995	103.905	19.899	21.639	0.506
677.000	423.142	80.008	19.995	103.899	19.892	22.147	0.521
677.500	423.394	80.008	19.994	103.895	19.884	22.774	0.526
678.001	423.622	80.007	19.996	103.891	19.877	23.379	0.495
678.501	423.902	80.009	19.994	103.891	19.870	23.897	0.494
679.000	424.141	80.008	19.995	103.893	19.865	24.282	0.513
679.500	424.352	80.009	19.995	103.897	19.852	25.342	0.484
680.000	424.642	80.009	19.996	103.900	19.848	25.651	0.475
680.500	424.903	80.009	19.994	103.905	19.840	26.236	0.526
681.000	425.138	80.010	19.994	103.904	19.833	26.775	0.524
681.500	425.428	80.008	19.995	103.901	19.829	27.141	0.511
682.000	425.675	80.010	19.994	103.900	19.816	28.138	0.531
682.500	425.911	80.009	19.994	103.895	19.805	29.006	0.510
683.000	426.185	80.009	19.995	103.890	19.796	29.730	0.496
683.500	426.433	80.008	19.994	103.891	19.786	30.497	0.516
684.000	426.672	80.010	19.995	103.891	19.779	31.053	0.505
684.500	426.929	80.010	19.994	103.887	19.769	31.842	0.491
685.000	427.155	80.010	19.995	103.891	19.759	32.632	0.489
685.500	427.450	80.009	19.995	103.892	19.751	33.279	0.502
686.000	427.706	80.009	19.995	103.892	19.739	34.221	0.536
686.500	427.942	80.010	19.994	103.889	19.733	34.756	0.521
687.000	428.213	80.009	19.995	103.889	19.722	35.621	0.499
687.500	428.489	80.009	19.994	103.883	19.713	36.279	0.527
688.000	428.696	80.009	19.995	103.879	19.709	36.617	0.515
688.501	428.980	80.010	19.995	103.873	19.699	37.376	0.487
689.000	429.210	80.008	19.995	103.870	19.694	37.735	0.502
689.500	429.454	80.008	19.996	103.866	19.683	38.632	0.494
690.000	429.769	80.009	19.995	103.859	19.679	38.974	0.516
690.500	429.965	80.009	19.996	103.857	19.661	40.346	0.535
691.000	430.226	80.009	19.994	103.853	19.655	40.837	0.485
691.500	430.474	80.007	19.996	103.849	19.644	41.681	0.483
692.000	430.720	80.009	19.994	103.851	19.629	42.931	0.501
692.500	430.958	80.007	19.995	103.857	19.612	44.251	0.489
693.000	431.255	80.007	19.995	103.860	19.595	45.567	0.510
693.500	431.472	80.007	19.993	103.870	19.582	46.607	0.525
694.000	431.709	80.007	19.997	103.882	19.563	48.105	0.484
694.501	431.986	80.007	19.996	103.892	19.549	49.192	0.484
695.000	432.260	80.006	19.995	103.908	19.531	50.613	0.532
695.500	432.488	80.007	19.996	103.919	19.518	51.646	0.526
696.000	432.786	80.007	19.996	103.924	19.495	53.459	0.514
696.500	432.994	80.006	19.996	103.925	19.485	54.233	0.515
697.000	433.267	80.007	19.997	103.924	19.464	55.909	0.493
697.500	433.514	80.005	19.995	103.916	19.450	56.961	0.501
698.001	433.786	80.006	19.994	103.904	19.434	58.241	0.520
698.500	434.038	80.006	19.995	103.893	19.415	59.724	0.521
699.000	434.298	80.007	19.995	103.880	19.400	60.961	0.518
699.500	434.538	80.006	19.994	103.865	19.376	62.783	0.507
700.000	434.749	80.006	19.995	103.851	19.358	64.243	0.476
700.500	435.024	80.006	19.995	103.841	19.336	65.933	0.468
701.000	435.278	80.005	19.996	103.834	19.315	67.627	0.507
701.500	435.517	80.007	19.994	103.830	19.296	69.150	0.511
702.000	435.768	80.005	19.997	103.832	19.274	70.837	0.492
702.500	436.033	80.005	19.995	103.837	19.249	72.805	0.503
703.000	436.312	80.006	19.996	103.845	19.227	74.566	0.530
703.500	436.550	80.005	19.996	103.853	19.204	76.354	0.530
704.000	436.764	80.006	19.996	103.861	19.183	78.025	0.484
704.500	437.021	80.006	19.995	103.866	19.158	79.991	0.462
705.000	437.273	80.007	19.996	103.867	19.137	81.635	0.490
705.500	437.566	80.006	19.996	103.864	19.114	83.479	0.527
706.000	437.784	80.008	19.996	103.857	19.091	85.248	0.528
706.500	438.053	80.004	19.995	103.850	19.064	87.364	0.499
707.000	438.230	80.006	19.994	103.843	19.040	89.234	0.467
707.500	438.520	80.005	19.994	103.838	19.017	91.112	0.456
708.000	438.756	80.007	19.997	103.833	18.994	92.899	0.496
708.500	439.014	80.005	19.995	103.833	18.969	94.844	0.510
709.000	439.249	80.005	19.996	103.825	18.943	96.897	0.494
709.500	439.535	80.007	19.996	103.817	18.917	98.940	0.507
710.000	439.772	80.007	19.995	103.808	18.885	101.445	0.522
710.500	440.037	80.005	19.995	103.801	18.858	103.594	0.512
711.000	440.241	80.006	19.996	103.795	18.822	106.369	0.485
711.500	440.532	80.007	19.996	103.796	18.792	108.704	0.481
712.000	440.779	80.007	19.996	103.800	18.756	111.547	0.517
712.500	440.961	80.006	19.996	103.811	18.721	114.290	0.484
713.000	441.283	80.007	19.997	103.823	18.687	116.943	0.466
713.500	441.477	80.006	19.995	103.830	18.649	119.919	0.509
714.000	441.737	80.007	19.995	103.835	18.616	122.556	0.485
714.500	442.004	80.006	19.995	103.840	18.583	125.154	0.491
715.000	442.251	80.006	19.995	103.834	18.545	128.143	0.520
715.500	442.467	80.006	19.994	103.821	18.507	131.098	0.489
716.000	442.668	80.005	19.995	103.807	18.467	134.291	0.440
716.500	442.931	80.006	19.994	103.800	18.428	137.352	0.441
717.000	443.145	80.005	19.994	103.792	18.387	140.573	0.471
717.500	443.435	80.006	19.994	103.786	18.348	143.683	0.490
718.000	443.721	80.006	19.994	103.780	18.304	147.129	0.540
718.500	443.946	80.005	19.994	103.777	18.266	150.163	0.544
719.000	444.142	80.006	19.996	103.766	18.231	152.878	0.466
719.500	444.456	80.005	19.995	103.755	18.193	155.828	0.466
720.000	444.602	80.005	19.995	103.748	18.152	159.050	0.485
720.500	444.929	80.006	19.994	103.741	18.106	162.655	0.466
721.000	445.127	80.006	19.995	103.734	18.076	164.922	0.499
721.500	445.341	80.006	19.994	103.728	18.021	169.187	0.469
722.000	445.658	80.006	19.994	103.719	17.990	171.575	0.471
722.500	445.873	80.006	19.994	103.704	17.955	174.307	0.531
723.001	446.063	80.005	19.994	103.695	17.903	178.400	0.468
723.500	446.363	80.006	19.994	103.687	17.859	181.810	0.448
724.000	446.593	80.005	19.994	103.680	17.812	185.469	0.510
724.500	446.883	80.006	19.995	103.675	17.755	190.030	0.525
725.000	447.002	80.005	19.994	103.672	17.713	193.338	0.465
725.500	447.325	80.006	19.995	103.673	17.654	197.965	0.425
726.000	447.558	80.006	19.993	103.675	17.602	202.126	0.499
726.500	447.761	80.005	19.994	103.680	17.552	206.077	0.497
727.000	448.040	80.006	19.994	103.690	17.499	210.267	0.459
727.500	448.339	80.005	19.994	103.699	17.441	214.854	0.530
728.000	448.518	80.005	19.995	103.699	17.385	219.294	0.528
728.500	448.862	80.004	19.995	103.698	17.324	224.060	0.501
729.001	448.984	80.006	19.995	103.699	17.273	228.049	0.494
729.501	449.375	80.005	19.994	103.700	17.225	231.783	0.490
730.000	449.418	80.006	19.994	103.688	17.174	235.763	0.474
730.500	449.770	80.005	19.994	103.682	17.126	239.443	0.414
731.000	450.000	80.006	19.995	103.672	17.078	243.189	0.489
731.500	450.207	80.006	19.994	103.646	17.028	247.025	0.510
732.000	450.531	80.006	19.995	103.606	16.980	250.706	0.484
732.500	450.825	80.007	19.995	103.576	16.922	255.141	0.574
733.000	451.028	80.007	19.994	103.547	16.871	259.045	0.558
733.500	451.130	80.007	19.995	103.521	16.810	263.773	0.401
734.000	451.509	80.007	19.993	103.502	16.757	267.854	0.393
734.500	451.603	80.006	19.995	103.494	16.690	273.060	0.477
735.000	452.178	80.006	19.994	103.495	16.628	277.907	0.571
735.500	452.113	80.006	19.994	103.503	16.556	283.550	0.589
736.000	452.930	80.007	19.994	103.516	16.492	288.621	0.630
736.500	452.979	80.007	19.995	103.533	16.426	293.944	0.809
737.000	452.741	80.006	19.995	103.552	16.355	299.613	0.339
737.500	453.103	80.005	19.996	103.575	16.289	304.823	-0.032
738.000	453.769	80.008	19.995	103.596	16.223	310.030	0.576
738.500	453.524	80.008	19.994	103.603	16.153	315.459	0.725
739.001	453.826	80.006	19.995	103.606	16.082	320.882	0.239
739.500	454.231	80.008	19.994	103.610	16.009	326.415	0.382
740.000	454.402	80.007	19.993	103.589	15.936	331.900	0.641
740.500	454.673	80.007	19.995	103.559	15.867	337.138	0.509
741.000	454.918	80.006	19.995	103.543	15.806	341.743	0.479
741.500	455.222	80.010	19.994	103.519	15.748	346.171	0.533
742.000	455.478	80.007	19.994	103.489	15.688	350.924	0.555
742.500	455.662	80.009	19.994	103.464	15.625	355.928	0.500
743.000	456.026	80.008	19.994	103.430	15.561	361.181	0.494
743.500	456.171	80.008	19.994	103.381	15.492	366.778	0.528
744.000	456.468	80.008	19.995	103.343	15.419	372.669	0.475
744.500	456.781	80.007	19.995	103.309	15.344	378.544	0.526
745.000	456.941	80.008	19.994	103.275	15.263	384.791	0.541
745.500	457.166	80.008	19.994	103.262	15.180	391.043	0.429
746.000	457.441	80.007	19.994	103.262	15.092	397.756	0.443
746.500	457.681	80.009	19.995	103.272	15.012	403.811	0.507
747.000	458.024	80.007	19.994	103.293	14.936	409.564	0.549
747.500	458.218	80.008	19.994	103.338	14.865	414.939	0.560
748.000	458.578	80.008	19.994	103.373	14.793	420.328	0.545
748.500	458.743	80.009	19.995	103.393	14.724	425.599	0.540
749.000	459.110	80.007	19.994	103.390	14.655	430.869	0.529
749.500	459.213	80.007	19.994	103.367	14.578	436.621	0.501
750.000	459.589	80.008	19.994	103.313	14.499	442.627	0.474
750.500	459.747	80.008	19.994	103.249	14.414	449.110	0.507
751.000	459.995	80.007	19.995	103.185	14.329	455.553	0.470
751.500	460.359	80.008	19.994	103.128	14.235	462.799	0.509
752.000	460.490	80.008	19.994	103.082	14.149	469.658	0.553
752.500	460.798	80.009	19.994	103.062	14.055	477.176	0.467
753.000	460.964	80.009	19.994	103.058	13.965	484.537	0.456
753.500	461.299	80.006	19.993	103.091	13.880	491.342	0.488
754.000	461.543	80.009	19.995	103.170	13.792	498.249	0.540
754.500	461.761	80.008	19.996	103.225	13.697	505.445	0.520
755.000	462.030	80.007	19.996	103.252	13.613	511.691	0.474
755.500	462.308	80.008	19.995	103.259	13.523	518.271	0.517
756.000	462.599	80.008	19.995	103.233	13.432	524.838	0.558
756.500	462.806	80.009	19.995	103.165	13.341	531.555	0.534
757.000	463.077	80.008	19.995	103.114	13.253	538.183	0.488
757.500	463.300	80.009	19.994	103.067	13.173	544.418	0.486
758.000	463.556	80.010	19.994	103.024	13.095	550.586	0.486
758.500	463.847	80.009	19.994	102.978	13.019	556.816	0.513
759.000	464.156	80.009	19.995	102.926	12.944	563.118	0.574
759.500	464.301	80.008	19.994	102.887	12.874	569.023	0.527
760.000	464.586	80.009	19.994	102.854	12.800	575.105	0.442
760.501	464.837	80.008	19.994	102.807	12.722	581.434	0.483
761.001	465.094	80.009	19.994	102.759	12.642	587.935	0.522
761.500	465.373	80.009	19.994	102.722	12.561	594.450	0.522
762.000	465.560	80.008	19.994	102.687	12.483	600.880	0.501
762.500	465.843	80.010	19.995	102.674	12.421	606.191	0.468
763.000	466.153	80.010	19.994	102.701	12.367	610.686	0.532
763.500	466.418	80.011	19.994	102.749	12.324	613.922	0.584
764.000	466.659	80.009	19.993	102.809	12.294	615.878	0.540
764.500	466.906	80.009	19.994	102.853	12.262	617.695	0.498
765.000	467.181	80.009	19.994	102.855	12.238	618.890	0.505
765.500	467.459	80.008	19.993	102.815	12.216	619.891	0.537
766.000	467.630	80.009	19.994	102.747	12.189	621.359	0.501
766.500	467.898	80.008	19.995	102.657	12.161	622.902	0.444
767.000	468.216	80.009	19.995	102.558	12.136	624.368	0.512
767.500	468.471	80.009	19.994	102.485	12.107	626.379	0.579
768.000	468.743	80.010	19.995	102.452	12.076	628.810	0.550
768.500	468.976	80.010	19.995	102.448	12.048	631.283	0.516
769.000	469.246	80.008	19.994	102.473	12.018	634.081	0.504
769.500	469.531	80.009	19.995	102.531	11.984	637.149	0.530
770.000	469.774	80.008	19.995	102.612	11.946	640.489	0.541
770.500	470.078	80.010	19.994	102.694	11.903	644.336	0.537
771.000	470.293	80.010	19.995	102.751	11.855	648.601	0.533
771.500	470.567	80.009	19.995	102.790	11.811	652.500	0.504
772.000	470.745	80.008	19.994	102.835	11.772	655.934	0.471
772.500	471.106	80.008	19.996	102.879	11.742	658.493	0.495
773.000	471.353	80.007	19.995	102.934	11.723	659.985	0.573
773.500	471.633	80.007	19.994	103.007	11.715	660.526	0.568
774.000	471.880	80.008	19.995	103.057	11.715	660.446	0.527
774.500	472.126	80.007	19.995	103.038	11.724	659.658	0.509
775.000	472.392	80.008	19.995	102.964	11.735	658.752	0.502
775.500	472.629	80.006	19.995	102.860	11.759	656.817	0.508
776.000	472.937	80.007	19.995	102.745	11.788	654.473	0.524
776.500	473.178	80.006	19.996	102.626	11.816	652.219	0.547
777.000	473.453	80.007	19.995	102.518	11.848	649.736	0.532
777.500	473.709	80.006	19.995	102.420	11.883	647.067	0.523
778.000	474.003	80.006	19.996	102.338	11.916	644.484	0.541
778.500	474.232	80.007	19.996	102.295	11.952	641.725	0.537
779.000	474.507	80.006	19.995	102.301	11.991	638.710	0.513
779.500	474.808	80.006	19.995	102.348	12.028	635.682	0.540
780.000	475.063	80.006	19.997	102.420	12.071	632.264	0.566
780.500	475.328	80.007	19.994	102.494	12.121	628.412	0.538
781.000	475.580	80.007	19.995	102.559	12.171	624.567	0.518
781.500	475.840	80.006	19.994	102.632	12.223	620.711	0.514
782.000	476.126	80.008	19.994	102.716	12.278	616.747	0.529
782.500	476.373	80.007	19.995	102.792	12.338	612.254	0.540
783.000	476.599	80.006	19.994	102.851	12.400	607.606	0.503
783.500	476.898	80.006	19.993	102.884	12.464	602.764	0.499
784.000	477.137	80.007	19.994	102.887	12.535	597.408	0.531
784.500	477.449	80.006	19.995	102.872	12.601	592.324	0.545
785.000	477.684	80.006	19.996	102.860	12.679	586.508	0.549
785.500	477.964	80.007	19.994	102.849	12.757	580.585	0.531
786.000	478.199	80.005	19.995	102.840	12.835	574.649	0.515
786.500	478.463	80.007	19.994	102.829	12.923	567.964	0.507
787.000	478.720	80.006	19.994	102.820	13.015	560.903	0.510
787.500	479.022	80.007	19.995	102.814	13.113	553.407	0.540
788.000	479.263	80.008	19.994	102.814	13.208	546.143	0.551
788.500	479.530	80.006	19.994	102.815	13.311	538.182	0.525
789.000	479.761	80.007	19.994	102.821	13.421	529.677	0.503
789.500	480.051	80.006	19.995	102.830	13.534	520.952	0.509
790.000	480.333	80.006	19.994	102.830	13.650	511.951	0.547
790.500	480.576	80.006	19.993	102.806	13.766	503.013	0.549
791.000	480.848	80.006	19.994	102.805	13.886	493.701	0.520
791.500	481.111	80.006	19.995	102.811	14.013	483.870	0.525
792.000	481.374	80.008	19.994	102.821	14.140	473.939	0.531
792.500	481.646	80.006	19.994	102.848	14.267	464.098	0.530
793.000	481.906	80.007	19.995	102.904	14.398	453.916	0.534
793.500	482.152	80.008	19.995	102.938	14.531	443.601	0.519
794.000	482.427	80.005	19.995	102.965	14.665	433.113	0.513
794.500	482.674	80.005	19.995	102.994	14.799	422.672	0.522
795.000	482.942	80.005	19.995	103.027	14.936	412.002	0.519
795.500	483.213	80.006	19.995	103.052	15.076	401.104	0.527
796.000	483.478	80.006	19.995	103.090	15.213	390.361	0.538
796.500	483.719	80.005	19.995	103.124	15.353	379.407	0.521
797.000	483.996	80.006	19.995	103.165	15.485	369.069	0.511
797.500	484.277	80.006	19.995	103.190	15.624	358.168	0.537
798.000	484.523	80.007	19.996	103.225	15.762	347.344	0.542
798.500	484.844	80.007	19.995	103.256	15.897	336.741	0.547
799.000	485.088	80.007	19.995	103.291	16.035	325.937	0.566
799.500	485.343	80.005	19.995	103.311	16.165	315.695	0.532
800.000	485.593	80.007	19.995	103.342	16.296	305.425	0.502
800.500	485.845	80.007	19.995	103.372	16.427	295.124	0.504
801.000	486.138	80.006	19.994	103.393	16.557	284.916	0.524
801.500	486.384	80.005	19.996	103.413	16.679	275.329	0.542
802.001	486.644	80.005	19.995	103.440	16.801	265.713	0.522
802.500	486.924	80.006	19.995	103.466	16.923	256.091	0.523
803.000	487.191	80.005	19.996	103.489	17.043	246.657	0.543
803.500	487.446	80.006	19.995	103.513	17.156	237.750	0.534
804.000	487.692	80.006	19.996	103.539	17.270	228.809	0.512
804.500	487.963	80.005	19.996	103.565	17.379	220.229	0.509
805.000	488.231	80.005	19.996	103.588	17.484	211.930	0.528
805.500	488.510	80.005	19.995	103.613	17.586	203.940	0.543
806.000	488.749	80.006	19.995	103.636	17.689	195.843	0.532
806.500	489.059	80.006	19.996	103.654	17.789	187.904	0.533
807.000	489.310	80.006	19.996	103.671	17.881	180.719	0.555
807.500	489.558	80.005	19.995	103.687	17.973	173.443	0.531
808.000	489.840	80.006	19.995	103.698	18.062	166.461	0.515
808.500	490.104	80.006	19.995	103.714	18.149	159.575	0.538
809.000	490.324	80.006	19.995	103.729	18.234	152.868	0.515
809.500	490.645	80.005	19.995	103.738	18.314	146.554	0.513
810.000	490.894	80.006	19.995	103.751	18.394	140.318	0.556
810.500	491.102	80.006	19.994	103.764	18.470	134.281	0.514
811.000	491.411	80.006	19.995	103.772	18.543	128.571	0.487
811.500	491.609	80.006	19.995	103.780	18.614	122.948	0.512
812.000	491.896	80.007	19.996	103.787	18.683	117.498	0.496
812.500	492.132	80.006	19.996	103.792	18.755	111.866	0.504
813.000	492.417	80.006	19.996	103.792	18.817	106.990	0.522
813.500	492.703	80.006	19.995	103.798	18.881	101.922	0.546
814.000	492.928	80.007	19.996	103.805	18.941	97.202	0.541
814.500	493.210	80.007	19.996	103.814	18.997	92.745	0.509
815.000	493.481	80.007	19.995	103.820	19.051	88.501	0.530
815.500	493.735	80.007	19.995	103.828	19.107	84.117	0.539
816.000	493.992	80.006	19.995	103.833	19.158	80.051	0.518
816.500	494.257	80.007	19.994	103.835	19.210	75.968	0.517
817.000	494.513	80.008	19.995	103.835	19.258	72.219	0.521
817.500	494.766	80.006	19.995	103.841	19.306	68.436	0.515
818.000	495.050	80.008	19.994	103.844	19.349	64.996	0.523
818.500	495.266	80.008	19.994	103.848	19.393	61.580	0.518
819.000	495.543	80.007	19.995	103.854	19.433	58.366	0.496
819.500	495.773	80.007	19.994	103.860	19.477	54.947	0.500
820.000	496.046	80.008	19.994	103.861	19.514	52.009	0.505
820.500	496.275	80.008	19.995	103.866	19.552	48.984	0.502
821.000	496.584	80.008	19.995	103.868	19.590	46.039	0.520
821.500	496.808	80.009	19.995	103.876	19.626	43.171	0.535
822.000	497.040	80.009	19.995	103.883	19.659	40.534	0.494
822.500	497.318	80.008	19.994	103.890	19.690	38.098	0.483
823.000	497.541	80.008	19.994	103.896	19.721	35.637	0.505
823.500	497.814	80.008	19.995	103.898	19.751	33.296	0.499
824.001	498.071	80.008	19.994	103.897	19.779	31.120	0.513
824.501	498.300	80.010	19.994	103.897	19.807	28.910	0.508
825.001	498.602	80.007	19.995	103.898	19.829	27.175	0.509
825.501	498.837	80.007	19.996	103.900	19.852	25.344	0.534
826.000	499.060	80.008	19.995	103.904	19.878	23.254	0.497
826.500	499.365	80.008	19.995	103.908	19.898	21.690	0.493
827.000	499.559	80.008	19.995	103.910	19.919	20.003	0.514
827.501	499.835	80.008	19.995	103.913	19.937	18.596	0.485
828.000	500.062	80.008	19.994	103.914	19.951	17.486	0.486
828.500	500.331	80.008	19.995	103.915	19.968	16.188	0.499
829.000	500.557	80.008	19.994	103.913	19.986	14.719	0.495
829.500	500.804	80.008	19.994	103.919	19.998	13.808	0.484
830.000	501.040	80.008	19.995	103.924	20.011	12.760	0.479
830.501	501.319	80.008	19.994	103.930	20.022	11.907	0.499
831.001	501.572	80.007	19.994	103.934	20.036	10.795	0.523
831.500	501.813	80.008	19.994	103.937	20.043	10.226	0.513
832.000	502.056	80.007	19.994	103.932	20.054	9.368	0.489
832.500	502.303	80.007	19.995	103.926	20.065	8.508	0.487
833.000	502.541	80.007	19.994	103.924	20.071	8.069	0.487
833.500	502.777	80.007	19.994	103.922	20.080	7.322	0.480
834.000	503.053	80.008	19.994	103.919	20.086	6.870	0.493
834.500	503.266	80.008	19.995	103.917	20.093	6.313	0.500
835.000	503.544	80.007	19.994	103.916	20.099	5.814	0.490
835.500	503.793	80.008	19.994	103.908	20.099	5.849	0.509
836.000	504.038	80.008	19.995	103.904	20.108	5.103	0.510
836.500	504.260	80.007	19.995	103.899	20.111	4.879	0.481
837.000	504.523	80.007	19.995	103.893	20.113	4.725	0.476
837.500	504.742	80.008	19.994	103.886	20.119	4.278	0.483
838.000	504.998	80.006	19.994	103.882	20.119	4.267	0.478
838.500	505.263	80.007	19.994	103.877	20.125	3.818	0.498
839.000	505.481	80.008	19.994	103.874	20.129	3.482	0.502
839.500	505.724	80.008	19.995	103.872	20.132	3.268	0.472
840.000	506.003	80.008	19.995	103.871	20.133	3.167	0.492
840.500	506.232	80.010	19.994	103.873	20.134	3.078	0.515
841.000	506.443	80.008	19.994	103.874	20.135	3.033	0.475
841.500	506.731	80.008	19.995	103.873	20.140	2.630	0.470
842.000	506.964	80.008	19.994	103.868	20.139	2.726	0.510
842.500	507.220	80.010	19.994	103.860	20.141	2.503	0.505
843.000	507.471	80.008	19.994	103.850	20.141	2.523	0.498
843.500	507.708	80.009	19.995	103.840	20.144	2.298	0.497
844.000	507.968	80.009	19.993	103.826	20.144	2.322	0.493
844.500	508.206	80.008	19.994	103.814	20.145	2.190	0.497
845.000	508.430	80.009	19.994	103.799	20.145	2.178	0.480
845.500	508.714	80.008	19.994	103.779	20.146	2.128	0.486
846.000	508.947	80.009	19.994	103.758	20.148	1.946	0.513
846.500	509.202	80.009	19.994	103.741	20.148	1.941	0.502
847.000	509.445	80.009	19.994	103.723	20.149	1.939	0.493
847.500	509.717	80.010	19.994	103.706	20.146	2.107	0.507
848.000	509.920	80.009	19.994	103.695	20.151	1.751	0.495
848.500	510.206	80.008	19.993	103.681	20.150	1.838	0.482
849.000	510.459	80.008	19.993	103.671	20.153	1.595	0.514
849.500	510.682	80.009	19.993	103.667	20.152	1.688	0.508
850.000	510.957	80.009	19.994	103.667	20.150	1.836	0.487
850.500	511.180	80.010	19.994	103.669	20.152	1.660	0.497
851.000	511.432	80.010	19.994	103.678	20.153	1.586	0.487
851.501	511.659	80.009	19.993	103.688	20.152	1.677	0.477
852.001	511.947	80.009	19.994	103.700	20.152	1.647	0.497
852.500	512.149	80.009	19.994	103.716	20.152	1.649	0.503
853.000	512.421	80.009	19.994	103.732	20.154	1.510	0.482
853.500	512.661	80.009	19.994	103.751	20.155	1.391	0.492
854.000	512.910	80.008	19.994	103.766	20.157	1.309	0.500
854.500	513.133	80.009	19.995	103.783	20.155	1.400	0.481
855.000	513.410	80.008	19.993	103.798	20.154	1.506	0.486
855.500	513.640	80.009	19.994	103.811	20.154	1.500	0.504
856.000	513.919	80.007	19.994	103.821	20.154	1.498	0.508
856.500	514.146	80.007	19.993	103.828	20.157	1.254	0.508
857.000	514.414	80.006	19.993	103.831	20.156	1.335	0.500
857.500	514.716	80.006	19.994	103.836	20.154	1.482	0.532
858.000	514.907	80.007	19.994	103.845	20.159	1.148	0.532
858.500	515.188	80.007	19.994	103.852	20.159	1.122	0.483
859.000	515.431	80.007	19.994	103.859	20.157	1.287	0.498
859.500	515.696	80.007	19.994	103.867	20.160	1.007	0.516
860.000	515.897	80.006	19.994	103.871	20.159	1.135	0.487
860.500	516.226	80.006	19.995	103.871	20.155	1.398	0.498
861.000	516.448	80.007	19.995	103.872	20.156	1.376	0.540
861.500	516.664	80.008	19.994	103.874	20.155	1.419	0.494
862.000	516.926	80.006	19.994	103.873	20.159	1.085	0.458
862.500	517.183	80.006	19.993	103.873	20.160	1.050	0.499
863.000	517.439	80.007	19.995	103.873	20.159	1.111	0.515
863.500	517.715	80.006	19.995	103.876	20.160	1.053	0.522
864.000	517.960	80.006	19.994	103.878	20.161	0.983	0.527
864.500	518.204	80.007	19.994	103.883	20.160	1.070	0.505
865.000	518.449	80.006	19.994	103.890	20.155	1.420	0.489
865.500	518.744	80.006	19.994	103.894	20.159	1.146	0.515
866.000	518.950	80.006	19.994	103.897	20.159	1.103	0.520
866.500	519.216	80.006	19.996	103.898	20.158	1.220	0.486
867.000	519.487	80.007	19.994	103.893	20.159	1.077	0.505
867.500	519.715	80.007	19.994	103.890	20.157	1.253	0.518
868.000	519.995	80.006	19.995	103.891	20.157	1.287	0.503
868.500	520.246	80.006	19.995	103.889	20.159	1.094	0.520
869.000	520.497	80.006	19.995	103.888	20.158	1.157	0.517
869.500	520.755	80.006	19.995	103.892	20.159	1.088	0.505
870.000	521.025	80.006	19.996	103.890	20.156	1.313	0.519
870.500	521.257	80.007	19.995	103.890	20.159	1.116	0.515
871.000	521.538	80.006	19.996	103.889	20.160	1.005	0.508
871.500	521.764	80.007	19.995	103.889	20.157	1.281	0.510
872.000	522.030	80.006	19.995	103.893	20.156	1.315	0.499
872.500	522.285	80.007	19.995	103.893	20.156	1.328	0.506
873.000	522.504	80.006	19.995	103.890	20.156	1.331	0.497
873.500	522.794	80.005	19.994	103.890	20.157	1.235	0.491
874.000	523.030	80.008	19.996	103.892	20.156	1.368	0.517
874.500	523.309	80.006	19.996	103.893	20.158	1.218	0.521
875.000	523.569	80.007	19.996	103.895	20.162	0.881	0.527
875.500	523.845	80.006	19.996	103.898	20.159	1.129	0.537
876.000	524.079	80.006	19.996	103.903	20.158	1.200	0.523
876.500	524.349	80.005	19.995	103.905	20.159	1.131	0.507
877.000	524.640	80.006	19.995	103.905	20.160	1.048	0.533
877.500	524.871	80.007	19.995	103.906	20.159	1.135	0.542
878.000	525.113	80.008	19.996	103.906	20.158	1.185	0.497
878.500	525.356	80.007	19.995	103.906	20.157	1.291	0.479
879.000	525.619	80.007	19.994	103.905	20.159	1.079	0.496
879.500	525.889	80.007	19.993	103.904	20.162	0.912	0.519
880.000	526.127	80.006	19.995	103.904	20.160	1.070	0.520
880.500	526.407	80.008	19.994	103.904	20.160	1.055	0.513
881.000	526.651	80.006	19.994	103.903	20.160	1.005	0.521
881.500	526.899	80.007	19.994	103.903	20.160	1.042	0.508
882.000	527.150	80.006	19.994	103.904	20.158	1.224	0.496
882.500	527.432	80.005	19.996	103.904	20.162	0.862	0.516
883.000	527.695	80.006	19.994	103.904	20.159	1.152	0.539
883.500	527.968	80.006	19.994	103.904	20.159	1.124	0.540
884.000	528.189	80.007	19.994	103.905	20.159	1.079	0.515
884.500	528.448	80.006	19.995	103.905	20.161	0.938	0.487
885.000	528.711	80.006	19.995	103.906	20.159	1.148	0.501
885.500	529.008	80.007	19.995	103.903	20.160	1.063	0.542
886.000	529.213	80.006	19.996	103.902	20.161	0.968	0.531
886.500	529.485	80.007	19.994	103.902	20.160	0.998	0.489
887.000	529.738	80.006	19.995	103.902	20.163	0.833	0.501
887.500	530.011	80.007	19.995	103.903	20.161	0.940	0.525
888.000	530.234	80.006	19.995	103.905	20.160	1.072	0.511
888.500	530.495	80.006	19.994	103.901	20.160	1.013	0.490
889.000	530.781	80.006	19.995	103.895	20.163	0.788	0.515
889.500	531.048	80.006	19.995	103.894	20.161	0.972	0.550
890.000	531.300	80.005	19.995	103.893	20.161	0.922	0.536
890.500	531.568	80.006	19.996	103.891	20.162	0.885	0.519
891.000	531.809	80.006	19.995	103.898	20.164	0.751	0.515
891.500	532.046	80.006	19.995	103.902	20.159	1.092	0.494
892.000	532.352	80.004	19.996	103.899	20.156	1.369	0.510
892.500	532.567	80.005	19.996	103.893	20.160	1.013	0.532
893.000	532.834	80.005	19.996	103.888	20.163	0.801	0.502
893.500	533.097	80.005	19.996	103.883	20.160	1.055	0.506
894.000	533.322	80.005	19.996	103.879	20.163	0.814	0.509
894.500	533.621	80.006	19.996	103.878	20.162	0.912	0.506
895.000	533.876	80.005	19.997	103.882	20.162	0.849	0.539
895.500	534.141	80.006	19.997	103.882	20.161	0.981	0.537
896.000	534.420	80.005	19.995	103.883	20.163	0.783	0.531
896.500	534.648	80.005	19.996	103.885	20.161	0.994	0.526
897.000	534.915	80.007	19.996	103.890	20.163	0.835	0.501
897.500	535.170	80.007	19.997	103.891	20.162	0.916	0.508
898.000	535.412	80.007	19.995	103.891	20.163	0.814	0.509
898.500	535.684	80.005	19.997	103.889	20.161	0.931	0.506
899.000	535.961	80.007	19.996	103.885	20.164	0.688	0.532
899.500	536.195	80.006	19.995	103.881	20.165	0.638	0.530
900.000	536.426	80.007	19.996	103.875	20.165	0.621	0.488
900.500	536.701	80.007	19.995	103.873	20.164	0.729	0.485
901.001	536.962	80.008	19.995	103.872	20.162	0.870	0.520
901.500	537.209	80.007	19.995	103.872	20.161	0.974	0.522
902.000	537.455	80.006	19.996	103.871	20.163	0.794	0.501
902.500	537.698	80.007	19.994	103.872	20.161	0.940	0.491
903.000	537.955	80.008	19.995	103.873	20.166	0.586	0.494
903.500	538.250	80.008	19.996	103.875	20.162	0.905	0.526
904.000	538.481	80.007	19.996	103.881	20.163	0.783	0.539
904.500	538.732	80.008	19.996	103.881	20.163	0.794	0.504
905.000	538.964	80.006	19.994	103.881	20.165	0.627	0.483
905.500	539.256	80.007	19.995	103.883	20.163	0.760	0.504
906.000	539.511	80.007	19.994	103.883	20.164	0.731	0.536
906.501	539.738	80.008	19.995	103.876	20.164	0.699	0.514
907.001	539.997	80.008	19.995	103.875	20.164	0.694	0.484
907.501	540.253	80.008	19.995	103.876	20.162	0.896	0.501
908.001	540.546	80.008	19.994	103.874	20.162	0.894	0.532
908.500	540.773	80.008	19.995	103.873	20.163	0.833	0.534
909.000	541.024	80.007	19.994	103.876	20.163	0.825	0.498
909.500	541.273	80.009	19.993	103.877	20.164	0.747	0.489
910.000	541.501	80.007	19.994	103.878	20.165	0.673	0.489
910.500	541.792	80.007	19.993	103.878	20.162	0.912	0.498
911.000	542.023	80.007	19.994	103.881	20.162	0.862	0.521
911.500	542.293	80.008	19.995	103.885	20.165	0.649	0.512
912.000	542.519	80.007	19.994	103.890	20.165	0.656	0.499
912.500	542.806	80.008	19.994	103.888	20.164	0.721	0.505
913.000	543.034	80.007	19.994	103.888	20.163	0.825	0.514
913.500	543.315	80.007	19.994	103.888	20.164	0.697	0.512
914.000	543.570	80.007	19.994	103.886	20.162	0.840	0.522
914.500	543.815	80.007	19.993	103.887	20.165	0.675	0.518
915.000	544.052	80.006	19.994	103.889	20.165	0.662	0.491
915.500	544.311	80.005	19.994	103.889	20.166	0.532	0.489
916.001	544.540	80.008	19.994	103.888	20.161	0.920	0.492
916.501	544.790	80.008	19.994	103.884	20.164	0.712	0.484
917.000	545.098	80.008	19.994	103.880	20.163	0.833	0.518
917.500	545.310	80.007	19.994	103.880	20.163	0.805	0.539
918.000	545.564	80.006	19.994	103.881	20.164	0.740	0.493
918.500	545.838	80.007	19.994	103.880	20.165	0.658	0.497
919.000	546.100	80.007	19.995	103.879	20.163	0.814	0.532
919.500	546.334	80.007	19.994	103.883	20.163	0.786	0.516
920.000	546.557	80.008	19.993	103.889	20.164	0.697	0.476
920.500	546.862	80.007	19.994	103.893	20.165	0.658	0.492
921.000	547.119	80.007	19.994	103.897	20.164	0.703	0.545
921.500	547.348	80.006	19.993	103.901	20.165	0.619	0.524
922.000	547.627	80.008	19.994	103.898	20.163	0.827	0.497
922.500	547.859	80.007	19.995	103.897	20.162	0.907	0.509
923.000	548.146	80.009	19.994	103.899	20.163	0.805	0.515
923.500	548.376	80.008	19.994	103.898	20.163	0.790	0.518
924.000	548.629	80.008	19.994	103.898	20.167	0.499	0.500
924.500	548.844	80.008	19.994	103.896	20.160	1.003	0.475
925.000	549.160	80.007	19.994	103.891	20.165	0.662	0.500
925.500	549.395	80.009	19.995	103.890	20.164	0.692	0.541
926.000	549.653	80.008	19.995	103.889	20.164	0.734	0.522
926.500	549.915	80.009	19.994	103.886	20.163	0.803	0.507
927.000	550.191	80.008	19.994	103.889	20.164	0.682	0.529
927.500	550.414	80.009	19.994	103.895	20.165	0.679	0.518
928.000	550.682	80.008	19.994	103.891	20.167	0.465	0.495
928.500	550.928	80.008	19.994	103.890	20.164	0.692	0.502
929.000	551.186	80.009	19.994	103.893	20.167	0.497	0.509
929.500	551.449	80.009	19.997	103.895	20.162	0.910	0.513
930.000	551.682	80.010	19.996	103.894	20.162	0.899	0.508
930.500	551.976	80.010	19.996	103.900	20.165	0.616	0.512
931.000	552.238	80.008	19.996	103.904	20.163	0.760	0.542
931.500	552.480	80.008	19.996	103.904	20.165	0.658	0.530
932.000	552.727	80.009	19.995	103.900	20.167	0.508	0.497
932.500	552.976	80.010	19.995	103.896	20.164	0.751	0.492
933.000	553.251	80.008	19.994	103.891	20.161	0.970	0.510
933.500	553.484	80.008	19.994	103.888	20.162	0.857	0.516
934.000	553.755	80.009	19.996	103.887	20.164	0.731	0.506
934.500	554.014	80.009	19.996	103.892	20.162	0.840	0.517
935.000	554.268	80.008	19.995	103.895	20.162	0.862	0.521
935.500	554.556	80.009	19.995	103.899	20.163	0.829	0.527
936.000	554.781	80.009	19.995	103.902	20.162	0.881	0.527
936.500	555.078	80.007	19.994	103.905	20.162	0.899	0.518
937.000	555.334	80.008	19.994	103.904	20.165	0.658	0.537
937.500	555.581	80.006	19.995	103.904	20.166	0.567	0.528
938.000	555.824	80.007	19.995	103.905	20.165	0.603	0.497
938.500	556.074	80.007	19.994	103.906	20.168	0.423	0.492
939.000	556.330	80.006	19.994	103.906	20.164	0.745	0.500
939.500	556.611	80.008	19.994	103.907	20.164	0.697	0.522
940.000	556.894	80.006	19.994	103.907	20.167	0.499	0.550
940.500	557.123	80.008	19.993	103.906	20.165	0.673	0.538
941.000	557.382	80.007	19.995	103.907	20.165	0.664	0.500
941.500	557.617	80.008	19.994	103.904	20.165	0.632	0.491
942.000	557.908	80.008	19.994	103.904	20.165	0.647	0.510
942.500	558.174	80.007	19.995	103.903	20.163	0.773	0.542
943.000	558.410	80.007	19.994	103.901	20.165	0.651	0.529
943.500	558.705	80.006	19.994	103.897	20.165	0.616	0.516
944.000	558.953	80.006	19.994	103.898	20.164	0.757	0.537
944.500	559.170	80.006	19.994	103.895	20.166	0.580	0.505
945.000	559.483	80.007	19.995	103.895	20.164	0.682	0.497
945.501	559.703	80.008	19.994	103.893	20.165	0.653	0.531
946.000	559.965	80.008	19.994	103.898	20.167	0.480	0.508
946.500	560.228	80.007	19.994	103.899	20.166	0.599	0.504
947.000	560.504	80.006	19.994	103.903	20.167	0.488	0.532
947.500	560.756	80.007	19.994	103.904	20.168	0.432	0.533
948.000	561.014	80.007	19.995	103.909	20.169	0.304	0.519
948.500	561.305	80.006	19.995	103.909	20.166	0.590	0.529
949.000	561.524	80.007	19.993	103.909	20.167	0.493	0.529
949.500	561.784	80.006	19.994	103.909	20.166	0.553	0.495
950.000	562.048	80.006	19.994	103.908	20.165	0.614	0.502
950.500	562.319	80.006	19.994	103.907	20.166	0.530	0.530
951.000	562.582	80.008	19.994	103.906	20.167	0.469	0.534
951.500	562.808	80.008	19.994	103.905	20.166	0.575	0.511
952.000	563.090	80.007	19.994	103.901	20.165	0.621	0.498
952.500	563.340	80.008	19.994	103.899	20.166	0.540	0.520
953.000	563.627	80.008	19.995	103.895	20.165	0.623	0.534
953.500	563.861	80.007	19.993	103.890	20.163	0.760	0.529
954.000	564.125	80.007	19.994	103.886	20.165	0.638	0.510
954.500	564.367	80.007	19.994	103.887	20.167	0.462	0.502
955.000	564.667	80.006	19.994	103.889	20.165	0.656	0.524
955.500	564.904	80.007	19.994	103.894	20.168	0.410	0.539
956.000	565.146	80.006	19.994	103.899	20.169	0.330	0.508
956.500	565.406	80.008	19.994	103.903	20.168	0.441	0.491
957.000	565.707	80.008	19.994	103.906	20.167	0.510	0.531
957.500	565.952	80.008	19.994	103.906	20.169	0.349	0.554
958.000	566.195	80.007	19.995	103.903	20.165	0.653	0.517
958.500	566.487	80.007	19.995	103.902	20.168	0.399	0.512
959.000	566.737	80.007	19.994	103.899	20.169	0.362	0.539
959.500	566.976	80.007	19.994	103.898	20.166	0.551	0.515
960.000	567.252	80.008	19.996	103.898	20.165	0.673	0.502
960.500	567.518	80.006	19.994	103.899	20.167	0.462	0.529
961.000	567.776	80.007	19.995	103.901	20.168	0.434	0.534
961.500	568.022	80.007	19.994	103.903	20.166	0.536	0.514
962.000	568.285	80.008	19.995	103.901	20.169	0.354	0.506
962.500	568.539	80.008	19.995	103.899	20.168	0.438	0.513
963.000	568.786	80.006	19.995	103.899	20.168	0.417	0.509
963.500	569.061	80.005	19.995	103.898	20.166	0.545	0.512
964.000	569.323	80.006	19.995	103.895	20.166	0.525	0.530
964.500	569.572	80.006	19.996	103.894	20.167	0.488	0.524
965.000	569.819	80.007	19.994	103.897	20.169	0.339	0.503
965.500	570.071	80.006	19.995	103.899	20.163	0.773	0.497
966.000	570.365	80.007	19.995	103.897	20.166	0.577	0.522
966.500	570.573	80.007	19.995	103.897	20.166	0.538	0.524
967.000	570.852	80.006	19.995	103.896	20.164	0.682	0.495
967.500	571.102	80.006	19.995	103.892	20.162	0.866	0.508
968.000	571.363	80.006	19.996	103.891	20.165	0.627	0.520
968.500	571.633	80.006	19.995	103.895	20.166	0.586	0.521
969.000	571.874	80.005	19.995	103.899	20.164	0.740	0.521
969.500	572.157	80.007	19.994	103.903	20.165	0.664	0.518
970.000	572.398	80.006	19.996	103.903	20.165	0.645	0.524
970.500	572.681	80.005	19.996	103.900	20.165	0.655	0.524
971.000	572.918	80.006	19.995	103.896	20.163	0.801	0.522
971.500	573.189	80.007	19.994	103.891	20.166	0.599	0.514
972.000	573.441	80.006	19.995	103.891	20.164	0.690	0.515
972.500	573.727	80.007	19.996	103.894	20.164	0.690	0.530
973.000	574.014	80.008	19.995	103.896	20.163	0.792	0.556
973.500	574.257	80.006	19.994	103.897	20.166	0.523	0.552
974.000	574.534	80.005	19.994	103.902	20.164	0.721	0.525
974.500	574.767	80.007	19.994	103.899	20.167	0.517	0.515
975.000	575.057	80.006	19.995	103.895	20.165	0.623	0.516
975.500	575.331	80.007	19.995	103.893	20.167	0.469	0.544
976.000	575.590	80.006	19.995	103.892	20.164	0.721	0.549
976.500	575.850	80.007	19.994	103.891	20.169	0.349	0.526
977.000	576.059	80.004	19.994	103.890	20.167	0.467	0.494
977.500	576.366	80.007	19.994	103.891	20.166	0.527	0.492
978.000	576.625	80.006	19.994	103.891	20.165	0.610	0.541
978.500	576.851	80.006	19.994	103.895	20.165	0.679	0.525
979.000	577.102	80.006	19.994	103.896	20.166	0.573	0.481
979.500	577.389	80.006	19.995	103.899	20.167	0.464	0.508
980.000	577.604	80.007	19.993	103.903	20.166	0.573	0.520
980.500	577.840	80.006	19.994	103.903	20.168	0.369	0.477
981.000	578.146	80.006	19.993	103.898	20.165	0.649	0.496
981.500	578.384	80.005	19.994	103.894	20.164	0.692	0.543
982.000	578.648	80.007	19.994	103.894	20.169	0.317	0.523
982.500	578.886	80.006	19.994	103.894	20.166	0.530	0.502
983.000	579.149	80.006	19.994	103.898	20.166	0.562	0.502
983.500	579.427	80.007	19.994	103.904	20.167	0.480	0.521
984.000	579.680	80.007	19.994	103.909	20.169	0.323	0.536
984.500	579.908	80.007	19.994	103.912	20.166	0.562	0.506
985.000	580.189	80.005	19.994	103.912	20.166	0.558	0.495
985.500	580.434	80.007	19.995	103.909	20.166	0.556	0.517
986.000	580.706	80.007	19.995	103.901	20.168	0.399	0.522
986.500	580.962	80.007	19.994	103.895	20.167	0.473	0.523
987.000	581.215	80.007	19.995	103.890	20.168	0.421	0.518
987.500	581.504	80.007	19.995	103.886	20.166	0.527	0.525
988.000	581.744	80.007	19.994	103.885	20.166	0.593	0.536
988.500	581.972	80.007	19.995	103.886	20.168	0.410	0.499
989.000	582.269	80.007	19.995	103.885	20.166	0.540	0.497
989.500	582.504	80.007	19.995	103.883	20.166	0.573	0.528
990.000	582.768	80.006	19.994	103.883	20.168	0.438	0.515
990.500	582.999	80.006	19.994	103.881	20.165	0.623	0.497
991.000	583.263	80.006	19.994	103.884	20.166	0.597	0.495
991.500	583.509	80.006	19.994	103.888	20.166	0.564	0.503
992.000	583.784	80.005	19.995	103.892	20.166	0.556	0.515
992.500	584.054	80.006	19.996	103.890	20.167	0.512	0.533
993.000	584.300	80.006	19.995	103.888	20.165	0.679	0.531
993.500	584.542	80.005	19.995	103.884	20.167	0.512	0.502
994.000	584.808	80.005	19.997	103.885	20.166	0.534	0.498
994.500	585.080	80.007	19.996	103.888	20.165	0.614	0.523
995.001	585.300	80.006	19.997	103.892	20.165	0.660	0.515
995.501	585.588	80.007	19.996	103.896	20.165	0.647	0.500
996.000	585.820	80.006	19.996	103.898	20.167	0.488	0.514
996.500	586.071	80.007	19.997	103.895	20.164	0.707	0.502
997.000	586.322	80.006	19.995	103.891	20.168	0.406	0.493
997.500	586.570	80.006	19.995	103.890	20.168	0.399	0.501
998.000	586.826	80.007	19.996	103.891	20.162	0.855	0.502
998.500	587.059	80.006	19.995	103.891	20.165	0.636	0.497
999.000	587.323	80.007	19.995	103.889	20.166	0.527	0.493
999.500	587.620	80.008	19.994	103.887	20.165	0.649	0.529
1000.000	587.820	80.007	19.995	103.885	20.167	0.484	0.528
1000.500	588.089	80.007	19.995	103.883	20.164	0.684	0.483
1001.000	588.354	80.007	19.995	103.884	20.165	0.625	0.502
1001.500	588.603	80.007	19.995	103.889	20.166	0.590	0.524
1002.000	588.848	80.007	19.995	103.896	20.166	0.525	0.504
1002.500	589.103	80.008	19.995	103.897	20.167	0.495	0.497
1003.000	589.376	80.007	19.995	103.897	20.165	0.612	0.514
1003.500	589.635	80.007	19.995	103.898	20.167	0.499	0.530
1004.000	589.864	80.007	19.994	103.898	20.169	0.326	0.509
1004.500	590.126	80.006	19.994	103.898	20.167	0.460	0.489
1005.000	590.411	80.007	19.995	103.899	20.168	0.430	0.519
1005.500	590.679	80.008	19.993	103.901	20.166	0.571	0.550
1006.000	590.877	80.007	19.994	103.901	20.167	0.497	0.509
1006.500	591.134	80.007	19.993	103.895	20.166	0.582	0.461
1007.000	591.420	80.008	19.993	103.888	20.166	0.551	0.499
1007.500	591.663	80.009	19.993	103.883	20.166	0.527	0.535
1008.000	591.922	80.008	19.994	103.885	20.166	0.595	0.515
1008.500	592.183	80.008	19.993	103.884	20.166	0.569	0.511
1009.000	592.433	80.008	19.994	103.884	20.166	0.560	0.516
1009.500	592.632	80.009	19.994	103.883	20.165	0.608	0.480
1010.000	592.913	80.008	19.994	103.880	20.168	0.395	0.464
1010.500	593.179	80.008	19.993	103.872	20.168	0.382	0.514
1011.000	593.459	80.008	19.993	103.870	20.165	0.647	0.547
1011.500	593.696	80.009	19.993	103.871	20.166	0.525	0.532
1012.000	593.970	80.009	19.994	103.875	20.163	0.773	0.514
1012.500	594.179	80.008	19.993	103.877	20.166	0.549	0.497
1013.000	594.436	80.010	19.994	103.879	20.166	0.597	0.474
1013.500	594.735	80.009	19.993	103.881	20.166	0.545	0.511
1014.000	594.958	80.008	19.994	103.884	20.166	0.575	0.539
1014.500	595.233	80.010	19.994	103.881	20.165	0.631	0.510
1015.000	595.488	80.008	19.993	103.882	20.165	0.664	0.514
1015.500	595.772	80.008	19.994	103.882	20.169	0.360	0.535
1016.000	595.994	80.009	19.993	103.884	20.165	0.666	0.523
1016.500	596.235	80.008	19.995	103.884	20.168	0.434	0.485
1017.000	596.509	80.008	19.994	103.884	20.167	0.516	0.489
1017.500	596.769	80.007	19.996	103.882	20.167	0.495	0.524
1018.000	597.023	80.007	19.995	103.880	20.166	0.571	0.524
1018.500	597.247	80.006	19.993	103.876	20.166	0.525	0.496
1019.000	597.501	80.007	19.995	103.873	20.164	0.742	0.478
1019.500	597.768	80.006	19.994	103.872	20.167	0.451	0.500
1020.000	598.019	80.006	19.995	103.872	20.167	0.458	0.520
1020.500	598.281	80.007	19.994	103.874	20.166	0.577	0.515
1021.000	598.547	80.005	19.995	103.879	20.167	0.497	0.521
1021.500	598.763	80.006	19.994	103.886	20.168	0.397	0.505
1022.000	599.019	80.005	19.995	103.889	20.166	0.560	0.477
1022.500	599.283	80.006	19.994	103.889	20.167	0.521	0.496
1023.000	599.507	80.005	19.994	103.887	20.165	0.660	0.504
1023.500	599.774	80.006	19.994	103.881	20.163	0.790	0.489
1024.001	600.038	80.007	19.994	103.874	20.165	0.660	0.511
1024.501	600.277	80.006	19.994	103.871	20.165	0.627	0.517
1025.000	600.589	80.005	19.994	103.872	20.162	0.844	0.528
1025.500	600.768	80.005	19.994	103.874	20.167	0.464	0.521
1026.000	601.036	80.005	19.995	103.875	20.167	0.482	0.469
1026.500	601.276	80.006	19.994	103.875	20.165	0.601	0.478
1027.000	601.506	80.006	19.994	103.876	20.165	0.679	0.489
1027.500	601.775	80.005	19.994	103.875	20.165	0.673	0.484
1028.000	602.047	80.006	19.995	103.873	20.168	0.393	0.520
1028.500	602.278	80.005	19.995	103.873	20.164	0.725	0.522
1029.001	602.522	80.006	19.994	103.873	20.166	0.575	0.489
1029.501	602.789	80.007	19.995	103.874	20.166	0.527	0.493
1030.000	602.993	80.006	19.994	103.878	20.163	0.781	0.490
1030.500	603.284	80.005	19.994	103.878	20.165	0.629	0.483
1031.000	603.520	80.006	19.994	103.879	20.166	0.545	0.511
1031.500	603.803	80.006	19.994	103.879	20.166	0.592	0.523
1032.000	604.024	80.006	19.994	103.882	20.165	0.655	0.512
1032.500	604.302	80.005	19.994	103.880	20.164	0.755	0.501
1033.000	604.539	80.006	19.993	103.881	20.167	0.506	0.507
1033.500	604.803	80.006	19.994	103.881	20.163	0.781	0.508
1034.000	605.065	80.006	19.995	103.880	20.166	0.571	0.514
1034.500	605.338	80.005	19.994	103.876	20.163	0.777	0.530
1035.000	605.558	80.006	19.993	103.875	20.166	0.588	0.514
1035.501	605.792	80.006	19.994	103.874	20.165	0.625	0.474
1036.001	606.020	80.005	19.994	103.879	20.160	1.044	0.458
1036.501	606.301	80.006	19.994	103.880	20.163	0.809	0.485
1037.001	606.559	80.007	19.994	103.880	20.163	0.794	0.524
1037.501	606.819	80.006	19.994	103.880	20.163	0.792	0.529
1038.001	607.045	80.006	19.994	103.879	20.164	0.744	0.502
1038.500	607.330	80.006	19.994	103.875	20.163	0.764	0.498
1039.000	607.544	80.006	19.995	103.875	20.162	0.844	0.505
1039.500	607.811	80.006	19.994	103.877	20.164	0.688	0.490
1040.000	608.044	80.006	19.994	103.878	20.165	0.634	0.490
1040.500	608.296	80.006	19.993	103.879	20.163	0.773	0.492
1041.001	608.564	80.006	19.993	103.879	20.166	0.551	0.503
1041.501	608.823	80.008	19.993	103.880	20.165	0.666	0.524
1042.000	609.077	80.007	19.993	103.881	20.163	0.822	0.520
1042.501	609.331	80.007	19.994	103.882	20.164	0.749	0.510
1043.001	609.580	80.006	19.994	103.881	20.166	0.592	0.506
1043.500	609.842	80.007	19.994	103.884	20.167	0.464	0.507
1044.000	610.087	80.006	19.993	103.883	20.168	0.430	0.509
1044.500	610.339	80.006	19.994	103.882	20.166	0.597	0.502
1045.000	610.587	80.006	19.993	103.881	20.164	0.697	0.498
1045.500	610.818	80.005	19.994	103.881	20.166	0.569	0.489
1046.000	611.084	80.006	19.993	103.878	20.164	0.718	0.488
1046.500	611.323	80.005	19.995	103.879	20.164	0.710	0.501
1047.000	611.571	80.005	19.994	103.877	20.164	0.701	0.496
1047.500	611.835	80.005	19.994	103.878	20.166	0.592	0.499
1048.000	612.097	80.006	19.994	103.879	20.166	0.543	0.519
1048.501	612.357	80.006	19.994	103.881	20.167	0.480	0.524
1049.001	612.570	80.006	19.994	103.879	20.164	0.736	0.498
1049.501	612.851	80.005	19.994	103.879	20.164	0.742	0.483
1050.000	613.114	80.005	19.995	103.880	20.167	0.514	0.519
1050.501	613.348	80.006	19.994	103.879	20.166	0.553	0.521
1051.001	613.597	80.004	19.994	103.877	20.165	0.614	0.490
1051.500	613.830	80.005	19.995	103.878	20.164	0.753	0.483
1052.000	614.093	80.004	19.994	103.879	20.166	0.556	0.489
1052.500	614.365	80.004	19.994	103.880	20.166	0.564	0.515
1053.000	614.599	80.005	19.994	103.880	20.164	0.729	0.520
1053.500	614.829	80.003	19.994	103.882	20.166	0.597	0.485
1054.000	615.108	80.005	19.996	103.885	20.166	0.523	0.486
1054.500	615.354	80.004	19.995	103.884	20.167	0.480	0.517
1055.000	615.608	80.004	19.996	103.884	20.165	0.649	0.512
1055.501	615.888	80.004	19.995	103.884	20.164	0.710	0.517
1056.001	616.112	80.004	19.994	103.881	20.169	0.319	0.519
1056.501	616.366	80.005	19.995	103.878	20.166	0.527	0.490
1057.000	616.607	80.005	19.995	103.880	20.165	0.621	0.486
1057.500	616.879	80.005	19.995	103.882	20.169	0.358	0.504
1058.000	617.115	80.005	19.996	103.884	20.166	0.599	0.511
1058.500	617.377	80.005	19.996	103.884	20.167	0.475	0.503
1059.000	617.582	80.006	19.995	103.885	20.166	0.577	0.483
1059.500	617.828	80.006	19.995	103.882	20.166	0.536	0.460
1060.000	618.087	80.006	19.994	103.879	20.167	0.458	0.478
1060.500	618.339	80.005	19.995	103.879	20.168	0.432	0.508
1061.000	618.562	80.006	19.995	103.881	20.168	0.415	0.492
1061.500	618.865	80.004	19.995	103.880	20.167	0.462	0.500
1062.000	619.108	80.007	19.995	103.880	20.166	0.569	0.536
1062.501	619.336	80.006	19.995	103.880	20.166	0.599	0.509
1063.001	619.584	80.007	19.995	103.877	20.167	0.454	0.474
1063.500	619.826	80.008	19.995	103.874	20.168	0.427	0.483
1064.000	620.093	80.006	19.995	103.873	20.166	0.564	0.499
1064.500	620.324	80.006	19.994	103.871	20.167	0.493	0.503
1065.000	620.574	80.007	19.994	103.871	20.166	0.547	0.489
1065.500	620.841	80.007	19.995	103.871	20.167	0.462	0.499
1066.000	621.054	80.007	19.994	103.872	20.165	0.616	0.499
1066.500	621.302	80.009	19.995	103.872	20.166	0.523	0.471
1067.000	621.530	80.008	19.995	103.876	20.169	0.291	0.468
1067.500	621.789	80.007	19.994	103.877	20.165	0.616	0.481
1068.000	622.032	80.008	19.994	103.878	20.168	0.386	0.495
1068.500	622.252	80.007	19.993	103.877	20.168	0.380	0.482
1069.000	622.519	80.008	19.994	103.876	20.165	0.653	0.475
1069.500	622.725	80.007	19.994	103.872	20.168	0.384	0.480
1070.000	623.023	80.008	19.995	103.871	20.167	0.506	0.489
1070.500	623.233	80.007	19.995	103.873	20.167	0.486	0.506
1071.000	623.491	80.008	19.994	103.875	20.166	0.586	0.488
1071.500	623.736	80.008	19.994	103.877	20.166	0.538	0.485
1072.000	623.950	80.006	19.994	103.879	20.167	0.510	0.481
1072.500	624.216	80.007	19.994	103.882	20.165	0.629	0.470
1073.000	624.435	80.008	19.995	103.878	20.165	0.664	0.482
1073.500	624.679	80.007	19.994	103.877	20.165	0.673	0.474
1074.001	624.919	80.007	19.994	103.875	20.164	0.708	0.473
1074.501	625.165	80.007	19.994	103.873	20.164	0.703	0.485
1075.000	625.412	80.007	19.995	103.871	20.163	0.805	0.490
1075.500	625.665	80.007	19.995	103.876	20.167	0.447	0.496
1076.000	625.870	80.007	19.995	103.879	20.166	0.534	0.479
1076.500	626.117	80.006	19.995	103.879	20.165	0.614	0.455
1077.000	626.360	80.007	19.996	103.882	20.165	0.660	0.471
1077.500	626.596	80.007	19.995	103.882	20.164	0.705	0.484
1078.000	626.810	80.005	19.995	103.878	20.164	0.686	0.464
1078.500	627.102	80.006	19.996	103.875	20.165	0.645	0.478
1079.000	627.350	80.007	19.995	103.875	20.165	0.660	0.523
1079.500	627.585	80.006	19.995	103.874	20.166	0.564	0.512
1080.000	627.849	80.008	19.996	103.876	20.165	0.671	0.491
1080.500	628.128	80.006	19.996	103.882	20.164	0.699	0.521
1081.000	628.348	80.006	19.996	103.890	20.163	0.829	0.521
1081.501	628.629	80.006	19.995	103.897	20.162	0.877	0.500
1082.001	628.835	80.006	19.996	103.901	20.161	0.925	0.494
1082.500	629.136	80.006	19.996	103.903	20.162	0.890	0.497
1083.000	629.388	80.006	19.995	103.903	20.163	0.799	0.530
1083.501	629.620	80.006	19.996	103.903	20.159	1.116	0.518
1084.001	629.918	80.006	19.995	103.902	20.161	0.944	0.507
1084.500	630.130	80.007	19.996	103.904	20.162	0.901	0.520
1085.000	630.405	80.007	19.995	103.905	20.164	0.753	0.499
1085.500	630.650	80.006	19.996	103.903	20.163	0.812	0.503
1086.000	630.913	80.007	19.996	103.903	20.163	0.784	0.514
1086.500	631.186	80.007	19.996	103.903	20.163	0.827	0.522
1087.000	631.449	80.008	19.996	103.903	20.160	1.025	0.536
1087.500	631.671	80.007	19.996	103.904	20.161	0.940	0.511
1088.000	631.988	80.007	19.996	103.903	20.162	0.873	0.512
1088.500	632.209	80.009	19.995	103.898	20.161	0.938	0.538
1089.000	632.474	80.008	19.996	103.895	20.161	0.933	0.512
1089.501	632.749	80.008	19.995	103.894	20.163	0.781	0.513
1090.001	633.032	80.008	19.996	103.894	20.163	0.803	0.549
1090.500	633.282	80.007	19.995	103.895	20.162	0.875	0.546
1091.000	633.591	80.009	19.995	103.899	20.164	0.751	0.546
1091.500	633.837	80.009	19.994	103.903	20.163	0.762	0.557
1092.000	634.121	80.009	19.996	103.901	20.163	0.797	0.542
1092.500	634.418	80.008	19.995	103.900	20.162	0.912	0.556
1093.000	634.722	80.008	19.995	103.897	20.163	0.788	0.591
1093.500	634.959	80.008	19.994	103.896	20.161	0.959	0.571
1094.000	635.245	80.007	19.993	103.895	20.162	0.901	0.532
1094.500	635.515	80.008	19.994	103.895	20.159	1.094	0.539
1095.000	635.802	80.008	19.994	103.895	20.161	0.933	0.556
1095.500	636.084	80.008	19.994	103.900	20.161	0.946	0.563
1096.000	636.323	80.008	19.995	103.902	20.162	0.870	0.546
1096.500	636.591	80.010	19.995	103.904	20.161	0.970	0.514
1097.000	636.887	80.008	19.994	103.907	20.159	1.148	0.535
1097.500	637.139	80.009	19.994	103.908	20.162	0.838	0.555
1098.000	637.455	80.008	19.993	103.909	20.163	0.799	0.558
1098.500	637.717	80.008	19.994	103.909	20.164	0.727	0.574
1099.001	638.019	80.007	19.993	103.907	20.160	1.046	0.571
1099.501	638.263	80.008	19.993	103.907	20.164	0.725	0.554
1100.000	638.533	80.008	19.994	103.907	20.163	0.781	0.530
1100.500	638.833	80.007	19.993	103.902	20.163	0.794	0.542
1101.000	639.110	80.006	19.994	103.898	20.160	1.033	0.574
1101.500	639.398	80.007	19.994	103.899	20.161	0.962	0.571
1102.000	639.656	80.007	19.994	103.899	20.161	0.942	0.555
1102.501	639.959	80.007	19.995	103.899	20.161	0.988	0.553
1103.001	640.235	80.006	19.993	103.903	20.161	0.931	0.570
1103.501	640.517	80.005	19.994	103.905	20.163	0.762	0.569
1104.000	640.778	80.006	19.994	103.904	20.159	1.081	0.551
1104.501	641.081	80.006	19.994	103.901	20.163	0.766	0.553
1105.001	641.395	80.006	19.994	103.899	20.163	0.792	0.591
1105.500	641.660	80.006	19.994	103.900	20.164	0.749	0.598
1106.000	641.919	80.004	19.996	103.901	20.162	0.886	0.551
1106.500	642.232	80.005	19.994	103.901	20.158	1.198	0.548
1107.000	642.501	80.005	19.995	103.905	20.162	0.860	0.577
1107.500	642.798	80.006	19.995	103.906	20.161	0.923	0.573
1108.000	643.045	80.005	19.994	103.906	20.162	0.877	0.555
1108.500	643.302	80.005	19.994	103.908	20.164	0.740	0.524
1109.000	643.576	80.004	19.995	103.910	20.161	0.951	0.518
1109.500	643.933	80.005	19.994	103.910	20.163	0.786	0.581
1110.000	644.177	80.006	19.994	103.909	20.163	0.766	0.616
1110.501	644.438	80.006	19.994	103.908	20.160	1.003	0.553
1111.001	644.714	80.006	19.994	103.904	20.160	1.009	0.521
1111.500	645.026	80.005	19.994	103.899	20.160	1.018	0.562
1112.000	645.311	80.007	19.994	103.897	20.162	0.842	0.593
1112.501	645.598	80.005	19.995	103.898	20.164	0.740	0.585
1113.001	645.884	80.006	19.995	103.898	20.166	0.571	0.573
1113.500	646.141	80.005	19.993	103.900	20.164	0.716	0.558
1114.000	646.453	80.005	19.995	103.906	20.162	0.849	0.556
1114.500	646.741	80.006	19.995	103.909	20.165	0.669	0.584
1115.000	647.009	80.006	19.996	103.909	20.165	0.675	0.579
1115.500	647.280	80.005	19.995	103.910	20.163	0.818	0.548
1116.000	647.564	80.006	19.996	103.912	20.164	0.708	0.547
1116.500	647.890	80.006	19.995	103.911	20.161	0.972	0.582
1117.000	648.166	80.005	19.994	103.909	20.163	0.834	0.606
1117.500	648.421	80.006	19.995	103.902	20.163	0.786	0.567
1118.000	648.727	80.005	19.996	103.899	20.163	0.768	0.546
1118.500	648.951	80.006	19.994	103.900	20.162	0.862	0.545
1119.000	649.350	80.006	19.995	103.897	20.163	0.827	0.577
1119.500	649.650	80.006	19.995	103.898	20.162	0.903	0.661
1120.000	649.892	80.006	19.994	103.903	20.163	0.788	0.620
1120.500	650.156	80.006	19.994	103.904	20.164	0.703	0.524
1121.000	650.426	80.007	19.994	103.902	20.161	0.931	0.520
1121.500	650.743	80.006	19.995	103.903	20.162	0.879	0.560
1122.000	650.994	80.006	19.994	103.897	20.162	0.892	0.578
1122.500	651.309	80.005	19.995	103.891	20.161	0.925	0.568
1123.000	651.581	80.006	19.996	103.888	20.162	0.875	0.577
1123.500	651.860	80.007	19.995	103.882	20.162	0.905	0.568
1124.000	652.138	80.005	19.995	103.884	20.162	0.896	0.554
1124.500	652.403	80.007	19.994	103.889	20.160	1.005	0.550
1125.000	652.690	80.006	19.996	103.895	20.164	0.710	0.548
1125.500	652.979	80.006	19.994	103.895	20.162	0.840	0.564
1126.000	653.277	80.007	19.994	103.900	20.160	1.014	0.581
1126.500	653.544	80.007	19.994	103.898	20.162	0.840	0.576
1127.000	653.861	80.008	19.993	103.899	20.164	0.744	0.574
1127.500	654.139	80.005	19.994	103.899	20.164	0.710	0.589
1128.000	654.429	80.008	19.993	103.903	20.162	0.903	0.581
1128.501	654.715	80.007	19.994	103.904	20.161	0.962	0.573
1129.001	655.003	80.008	19.995	103.901	20.164	0.729	0.575
1129.500	655.273	80.007	19.995	103.901	20.164	0.701	0.566
1130.000	655.560	80.007	19.995	103.901	20.162	0.873	0.557
1130.500	655.795	80.006	19.994	103.900	20.162	0.857	0.540
1131.000	656.078	80.008	19.994	103.901	20.163	0.827	0.521
1131.500	656.392	80.007	19.995	103.904	20.164	0.710	0.558
1132.000	656.660	80.008	19.994	103.902	20.163	0.801	0.589
1132.500	656.977	80.007	19.994	103.899	20.164	0.755	0.584
1133.000	657.213	80.006	19.994	103.896	20.164	0.729	0.569
1133.500	657.522	80.006	19.994	103.890	20.167	0.486	0.548
1134.000	657.784	80.008	19.994	103.889	20.163	0.771	0.557
1134.500	658.068	80.006	19.995	103.891	20.161	0.944	0.558
1135.000	658.360	80.007	19.995	103.892	20.162	0.883	0.561
1135.500	658.623	80.007	19.994	103.896	20.164	0.695	0.566
1136.001	658.925	80.006	19.995	103.901	20.165	0.621	0.560
1136.501	659.204	80.007	19.994	103.902	20.163	0.788	0.573
1137.000	659.451	80.007	19.996	103.898	20.161	0.920	0.554
1137.500	659.733	80.006	19.995	103.896	20.162	0.896	0.527
1138.000	660.003	80.007	19.995	103.894	20.164	0.716	0.540
1138.500	660.333	80.007	19.993	103.896	20.164	0.721	0.576
1139.000	660.553	80.006	19.994	103.898	20.162	0.855	0.575
1139.500	660.841	80.007	19.994	103.900	20.162	0.870	0.529
1140.000	661.123	80.006	19.995	103.898	20.163	0.794	0.539
1140.500	661.401	80.007	19.994	103.896	20.162	0.907	0.565
1141.001	661.696	80.007	19.995	103.897	20.163	0.764	0.566
1141.501	661.971	80.007	19.994	103.897	20.161	0.927	0.572
1142.000	662.272	80.006	19.995	103.900	20.165	0.623	0.573
1142.500	662.546	80.007	19.994	103.905	20.163	0.812	0.575
1143.000	662.803	80.007	19.995	103.910	20.164	0.738	0.553
1143.501	663.083	80.007	19.995	103.908	20.164	0.681	0.534
1144.001	663.358	80.006	19.995	103.906	20.162	0.894	0.546
1144.501	663.629	80.007	19.994	103.905	20.161	0.964	0.551
1145.000	663.880	80.008	19.995	103.901	20.162	0.840	0.534
1145.500	664.205	80.007	19.995	103.898	20.164	0.727	0.549
1146.000	664.450	80.008	19.995	103.894	20.160	1.046	0.573
1146.500	664.784	80.009	19.996	103.892	20.166	0.588	0.575
1147.000	665.055	80.007	19.995	103.894	20.159	1.139	0.592
1147.500	665.284	80.008	19.994	103.896	20.164	0.749	0.553
1148.000	665.570	80.007	19.995	103.899	20.159	1.074	0.508
1148.500	665.866	80.008	19.994	103.903	20.163	0.803	0.548
1149.000	666.119	80.008	19.994	103.905	20.160	1.037	0.565
1149.500	666.404	80.008	19.995	103.898	20.161	0.940	0.544
1150.000	666.669	80.009	19.995	103.896	20.162	0.899	0.545
1150.501	666.966	80.009	19.995	103.895	20.161	0.959	0.557
1151.001	667.235	80.009	19.995	103.896	20.163	0.814	0.564
1151.501	667.454	80.008	19.995	103.895	20.163	0.801	0.527
1152.001	667.760	80.009	19.995	103.894	20.164	0.703	0.506
1152.501	668.051	80.007	19.994	103.890	20.164	0.742	0.561
1153.000	668.287	80.007	19.995	103.885	20.164	0.708	0.562
1153.500	668.563	80.008	19.996	103.877	20.165	0.612	0.520
1154.000	668.834	80.008	19.995	103.875	20.162	0.884	0.530
1154.500	669.111	80.008	19.995	103.877	20.164	0.692	0.547
1155.000	669.415	80.008	19.995	103.884	20.160	1.053	0.564
1155.500	669.637	80.008	19.995	103.889	20.160	1.018	0.553
1156.000	669.948	80.008	19.995	103.893	20.163	0.812	0.529
1156.501	670.229	80.008	19.995	103.891	20.164	0.682	0.563
1157.001	670.450	80.008	19.995	103.895	20.161	0.925	0.547
1157.500	670.751	80.006	19.996	103.895	20.162	0.868	0.512
1158.000	670.990	80.007	19.995	103.889	20.161	0.944	0.531
1158.500	671.290	80.006	19.995	103.888	20.164	0.736	0.539
1159.000	671.548	80.007	19.994	103.888	20.165	0.677	0.549
1159.500	671.809	80.008	19.995	103.882	20.162	0.851	0.539
1160.001	672.114	80.006	19.995	103.881	20.166	0.592	0.542
1160.501	672.354	80.006	19.996	103.887	20.164	0.697	0.555
1161.000	672.632	80.006	19.995	103.893	20.162	0.855	0.532
1161.500	672.875	80.006	19.994	103.899	20.166	0.558	0.519
1162.000	673.131	80.006	19.995	103.901	20.164	0.718	0.510
1162.500	673.421	80.007	19.994	103.903	20.167	0.464	0.522
1163.000	673.679	80.006	19.995	103.905	20.166	0.534	0.547
1163.500	673.962	80.006	19.995	103.904	20.164	0.716	0.545
1164.001	674.216	80.007	19.995	103.903	20.166	0.588	0.539
1164.501	674.474	80.005	19.994	103.907	20.163	0.792	0.524
1165.000	674.679	80.005	19.996	103.908	20.166	0.532	0.488
1165.500	674.998	80.007	19.995	103.907	20.164	0.744	0.494
1166.000	675.354	80.008	19.994	103.903	20.162	0.901	0.599
1166.500	675.564	80.007	19.995	103.899	20.162	0.912	0.621
1167.000	675.829	80.007	19.994	103.894	20.166	0.569	0.521
1167.500	676.086	80.007	19.995	103.890	20.164	0.751	0.498
1168.000	676.369	80.007	19.995	103.887	20.162	0.898	0.531
1168.500	676.642	80.008	19.995	103.889	20.162	0.903	0.548
1169.000	676.877	80.007	19.995	103.888	20.159	1.113	0.532
1169.500	677.123	80.008	19.995	103.885	20.159	1.096	0.494
1170.000	677.375	80.008	19.994	103.884	20.161	0.924	0.489
1170.500	677.642	80.009	19.995	103.881	20.162	0.894	0.508
1171.000	677.926	80.008	19.994	103.878	20.164	0.712	0.535
1171.500	678.173	80.008	19.995	103.877	20.162	0.849	0.541
1172.000	678.416	80.008	19.995	103.878	20.162	0.892	0.511
1172.500	678.707	80.008	19.995	103.877	20.161	0.933	0.512
1173.000	678.944	80.009	19.995	103.877	20.160	1.011	0.531
1173.501	679.201	80.007	19.994	103.881	20.160	1.022	0.511
1174.001	679.473	80.009	19.997	103.881	20.160	1.024	0.511
1174.501	679.711	80.008	19.995	103.886	20.162	0.846	0.520
1175.001	679.997	80.007	19.995	103.887	20.162	0.905	0.517
1175.501	680.236	80.009	19.995	103.889	20.161	0.923	0.524
1176.001	680.494	80.008	19.996	103.890	20.166	0.558	0.511
1176.500	680.791	80.008	19.995	103.893	20.163	0.812	0.526
1177.000	680.987	80.008	19.996	103.890	20.161	0.957	0.524
1177.500	681.261	80.008	19.995	103.891	20.163	0.812	0.482
1178.000	681.526	80.008	19.996	103.890	20.164	0.697	0.505
1178.501	681.747	80.008	19.996	103.886	20.161	0.925	0.513
1179.001	682.055	80.008	19.995	103.883	20.162	0.914	0.507
1179.501	682.308	80.006	19.997	103.880	20.162	0.909	0.544
1180.001	682.546	80.006	19.995	103.879	20.162	0.877	0.526
1180.501	682.766	80.007	19.995	103.877	20.161	0.964	0.475
1181.001	683.072	80.007	19.995	103.876	20.161	0.931	0.492
1181.500	683.264	80.007	19.996	103.879	20.161	0.964	0.512
1182.000	683.545	80.007	19.996	103.882	20.162	0.866	0.485
1182.500	683.803	80.006	19.996	103.886	20.164	0.736	0.506
1183.000	684.032	80.006	19.995	103.886	20.162	0.842	0.513
1183.500	684.291	80.005	19.996	103.886	20.164	0.747	0.488
1184.000	684.520	80.005	19.996	103.883	20.165	0.614	0.488
1184.500	684.773	80.006	19.996	103.885	20.162	0.877	0.485
1185.000	685.027	80.004	19.996	103.887	20.165	0.660	0.495
1185.500	685.276	80.006	19.995	103.894	20.164	0.749	0.505
1186.000	685.522	80.005	19.996	103.901	20.163	0.768	0.499
1186.500	685.756	80.006	19.996	103.906	20.166	0.549	0.487
1187.000	686.035	80.006	19.996	103.902	20.164	0.736	0.497
1187.500	686.247	80.005	19.995	103.895	20.164	0.736	0.502
1188.000	686.544	80.005	19.995	103.890	20.161	0.957	0.500
1188.500	686.776	80.005	19.995	103.886	20.162	0.896	0.519
1189.000	687.039	80.005	19.995	103.880	20.165	0.629	0.512
1189.500	687.279	80.005	19.995	103.882	20.165	0.608	0.499
1190.001	687.523	80.006	19.995	103.887	20.165	0.642	0.493
1190.501	687.770	80.006	19.996	103.890	20.164	0.745	0.487
1191.000	688.043	80.006	19.996	103.893	20.165	0.675	0.506
1191.500	688.280	80.007	19.995	103.899	20.166	0.597	0.515
1192.000	688.535	80.006	19.997	103.900	20.168	0.428	0.501
1192.500	688.787	80.006	19.995	103.896	20.163	0.779	0.499
1193.000	689.041	80.005	19.995	103.891	20.166	0.571	0.506
1193.500	689.271	80.006	19.995	103.888	20.165	0.625	0.495
1194.000	689.524	80.006	19.995	103.885	20.163	0.766	0.484
1194.501	689.789	80.006	19.995	103.887	20.164	0.723	0.501
1195.001	690.080	80.005	19.995	103.891	20.162	0.853	0.537
1195.500	690.295	80.006	19.995	103.898	20.162	0.903	0.531
1196.000	690.576	80.007	19.995	103.903	20.164	0.686	0.501
1196.500	690.827	80.007	19.995	103.902	20.166	0.595	0.514
1197.000	691.083	80.005	19.994	103.898	20.164	0.690	0.519
1197.501	691.356	80.008	19.995	103.892	20.164	0.707	0.518
1198.001	691.563	80.006	19.995	103.885	20.169	0.347	0.504
1198.501	691.817	80.006	19.995	103.878	20.165	0.601	0.471
1199.001	692.081	80.007	19.995	103.879	20.165	0.621	0.490
1199.501	692.357	80.005	19.994	103.881	20.168	0.432	0.529
1200.001	692.594	80.006	19.995	103.887	20.168	0.378	0.527
1200.500	692.839	80.006	19.996	103.894	20.164	0.694	0.498
1201.000	693.078	80.007	19.996	103.900	20.165	0.605	0.483
1201.500	693.314	80.006	19.996	103.899	20.166	0.523	0.480
1202.000	693.576	80.007	19.995	103.894	20.167	0.462	0.487
1202.500	693.851	80.005	19.995	103.888	20.165	0.608	0.517
1203.000	694.087	80.006	19.994	103.884	20.167	0.516	0.524
1203.500	694.332	80.005	19.995	103.881	20.165	0.640	0.496
1204.000	694.598	80.007	19.995	103.880	20.167	0.495	0.496
1204.500	694.848	80.006	19.995	103.886	20.164	0.723	0.513
1205.000	695.086	80.005	19.996	103.889	20.163	0.796	0.502
1205.500	695.325	80.006	19.996	103.886	20.164	0.740	0.483
1206.000	695.609	80.006	19.995	103.884	20.161	0.940	0.500
1206.500	695.888	80.006	19.995	103.883	20.164	0.686	0.543
1207.000	696.134	80.006	19.995	103.879	20.165	0.653	0.544
1207.500	696.363	80.007	19.995	103.878	20.163	0.775	0.500
1208.000	696.613	80.006	19.995	103.881	20.163	0.764	0.477
1208.500	696.845	80.005	19.995	103.882	20.165	0.679	0.480
1209.000	697.106	80.007	19.994	103.884	20.161	0.951	0.488
1209.500	697.369	80.006	19.995	103.884	20.165	0.638	0.508
1210.001	697.627	80.007	19.995	103.882	20.164	0.757	0.523
1210.501	697.897	80.005	19.997	103.880	20.164	0.749	0.525
1211.001	698.138	80.005	19.995	103.879	20.163	0.803	0.519
1211.500	698.366	80.005	19.996	103.876	20.163	0.816	0.490
1212.000	698.616	80.005	19.996	103.875	20.164	0.703	0.474
1212.501	698.882	80.005	19.995	103.874	20.164	0.697	0.496
1213.001	699.119	80.006	19.995	103.873	20.163	0.833	0.509
1213.500	699.389	80.007	19.995	103.873	20.165	0.671	0.505
1214.001	699.623	80.005	19.995	103.877	20.163	0.779	0.506
1214.501	699.897	80.005	19.995	103.881	20.163	0.788	0.506
1215.000	700.135	80.005	19.996	103.884	20.165	0.601	0.510
1215.500	700.378	80.007	19.995	103.885	20.163	0.781	0.497
1216.000	700.627	80.005	19.995	103.884	20.162	0.883	0.486
1216.500	700.890	80.005	19.995	103.880	20.163	0.792	0.502
1217.000	701.145	80.006	19.995	103.875	20.162	0.916	0.515
1217.500	701.351	80.006	19.995	103.872	20.161	0.933	0.489
1218.000	701.624	80.005	19.995	103.875	20.160	1.061	0.470
1218.500	701.860	80.006	19.995	103.880	20.165	0.668	0.494
1219.000	702.101	80.005	19.996	103.881	20.163	0.783	0.493
1219.500	702.340	80.005	19.994	103.886	20.162	0.879	0.478
1220.000	702.554	80.006	19.995	103.887	20.165	0.662	0.467
1220.500	702.847	80.006	19.994	103.883	20.161	0.974	0.480
1221.000	703.104	80.005	19.995	103.879	20.162	0.872	0.529
1221.500	703.375	80.006	19.995	103.883	20.163	0.775	0.539
1222.000	703.605	80.007	19.995	103.884	20.159	1.102	0.514
1222.500	703.893	80.007	19.994	103.886	20.164	0.753	0.510
1223.000	704.101	80.007	19.993	103.888	20.163	0.779	0.507
1223.500	704.371	80.005	19.994	103.888	20.160	1.039	0.487
1224.000	704.604	80.005	19.994	103.883	20.164	0.690	0.491
1224.500	704.858	80.008	19.994	103.878	20.163	0.829	0.495
1225.000	705.125	80.006	19.994	103.875	20.161	0.979	0.503
1225.500	705.397	80.006	19.994	103.878	20.163	0.831	0.530
1226.000	705.621	80.007	19.993	103.879	20.165	0.608	0.518
1226.500	705.875	80.006	19.994	103.878	20.165	0.623	0.487
1227.000	706.098	80.006	19.994	103.881	20.165	0.662	0.477
1227.500	706.332	80.007	19.994	103.883	20.164	0.740	0.467
1228.000	706.609	80.007	19.994	103.881	20.166	0.597	0.484
1228.500	706.846	80.006	19.994	103.882	20.166	0.579	0.513
1229.000	707.118	80.006	19.992	103.883	20.165	0.671	0.512
1229.500	707.361	80.007	19.994	103.887	20.162	0.894	0.512
1230.000	707.635	80.007	19.994	103.889	20.162	0.877	0.516
1230.500	707.848	80.007	19.994	103.890	20.163	0.764	0.502
1231.000	708.086	80.008	19.993	103.889	20.163	0.810	0.469
1231.500	708.344	80.006	19.994	103.887	20.161	0.942	0.473
1232.000	708.623	80.009	19.994	103.882	20.162	0.911	0.516
1232.500	708.849	80.008	19.994	103.877	20.161	0.942	0.521
1233.000	709.158	80.008	19.994	103.872	20.158	1.174	0.520
1233.500	709.396	80.007	19.992	103.873	20.163	0.812	0.541
1234.000	709.638	80.008	19.995	103.873	20.164	0.710	0.514
1234.501	709.862	80.007	19.995	103.877	20.161	0.977	0.473
1235.001	710.125	80.007	19.996	103.883	20.163	0.764	0.477
1235.501	710.354	80.009	19.995	103.891	20.163	0.760	0.490
1236.001	710.613	80.007	19.996	103.893	20.160	1.003	0.490
1236.501	710.882	80.006	19.995	103.900	20.159	1.124	0.507
1237.001	711.142	80.006	19.995	103.901	20.162	0.859	0.528
1237.500	711.389	80.007	19.994	103.900	20.161	0.946	0.518
1238.000	711.650	80.007	19.995	103.893	20.165	0.664	0.508
1238.500	711.897	80.006	19.995	103.890	20.163	0.803	0.508
1239.001	712.146	80.007	19.995	103.884	20.165	0.610	0.502
1239.501	712.380	80.005	19.995	103.885	20.162	0.862	0.490
1240.000	712.659	80.006	19.994	103.886	20.163	0.807	0.498
1240.500	712.929	80.006	19.996	103.890	20.161	0.957	0.531
1241.000	713.184	80.006	19.996	103.891	20.165	0.649	0.536
1241.500	713.421	80.006	19.994	103.892	20.162	0.838	0.509
1242.001	713.681	80.006	19.995	103.887	20.159	1.109	0.495
1242.501	713.924	80.006	19.993	103.880	20.161	0.946	0.500
1243.000	714.176	80.005	19.994	103.876	20.162	0.894	0.499
1243.500	714.434	80.005	19.995	103.878	20.163	0.790	0.503
1244.000	714.696	80.005	19.996	103.881	20.157	1.248	0.515
1244.500	714.956	80.007	19.994	103.879	20.160	1.068	0.521
1245.000	715.232	80.006	19.995	103.879	20.161	0.920	0.529
1245.501	715.444	80.005	19.994	103.881	20.163	0.814	0.512
1246.001	715.701	80.005	19.995	103.882	20.165	0.675	0.478
1246.501	715.958	80.005	19.994	103.880	20.163	0.794	0.492
1247.001	716.200	80.006	19.995	103.881	20.158	1.165	0.507
1247.500	716.445	80.005	19.995	103.882	20.157	1.233	0.493
1248.000	716.710	80.005	19.994	103.880	20.163	0.792	0.498
1248.500	716.991	80.006	19.995	103.876	20.165	0.675	0.528
1249.000	717.262	80.006	19.995	103.877	20.161	0.957	0.549
1249.500	717.506	80.007	19.995	103.882	20.164	0.729	0.534
1250.000	717.749	80.007	19.996	103.885	20.162	0.872	0.501
1250.500	718.011	80.008	19.995	103.886	20.160	1.027	0.496
1251.000	718.233	80.006	19.995	103.889	20.162	0.862	0.494
1251.500	718.484	80.006	19.994	103.887	20.160	0.996	0.478
1252.001	718.734	80.008	19.995	103.882	20.164	0.716	0.487
1252.501	718.971	80.007	19.994	103.879	20.159	1.124	0.494
1253.000	719.232	80.007	19.995	103.881	20.162	0.894	0.493
1253.500	719.523	80.007	19.997	103.879	20.161	0.955	0.525
1254.000	719.765	80.008	19.994	103.880	20.158	1.154	0.542
1254.500	720.017	80.008	19.996	103.879	20.160	1.044	0.514
1255.000	720.249	80.009	19.995	103.879	20.161	0.946	0.489
1255.500	720.488	80.008	19.995	103.875	20.162	0.851	0.478
1256.000	720.741	80.009	19.995	103.878	20.166	0.543	0.482
1256.500	720.991	80.009	19.996	103.879	20.163	0.810	0.497
1257.000	721.250	80.008	19.996	103.879	20.160	1.013	0.506
1257.500	721.471	80.009	19.995	103.878	20.165	0.671	0.494
1258.000	721.724	80.008	19.994	103.878	20.161	0.966	0.477
1258.500	721.998	80.009	19.994	103.877	20.160	1.007	0.501
1259.000	722.219	80.007	19.994	103.878	20.161	0.950	0.511
1259.500	722.470	80.007	19.995	103.883	20.161	0.933	0.483
1260.000	722.736	80.008	19.995	103.888	20.164	0.727	0.494
1260.500	722.950	80.008	19.995	103.890	20.160	1.011	0.498
1261.000	723.202	80.008	19.995	103.886	20.164	0.747	0.473
1261.500	723.460	80.008	19.994	103.882	20.162	0.909	0.488
1262.000	723.699	80.009	19.994	103.879	20.164	0.740	0.504
1262.500	723.935	80.008	19.995	103.875	20.163	0.833	0.486
1263.000	724.199	80.008	19.995	103.873	20.163	0.827	0.487
1263.500	724.421	80.008	19.996	103.873	20.160	1.011	0.493
1264.000	724.715	80.006	19.995	103.875	20.157	1.276	0.501
1264.500	724.921	80.008	19.995	103.875	20.161	0.948	0.508
1265.000	725.187	80.006	19.994	103.876	20.161	0.985	0.486
1265.500	725.442	80.006	19.995	103.882	20.160	1.063	0.497
1266.000	725.632	80.006	19.996	103.888	20.162	0.907	0.483
1266.500	725.900	80.006	19.995	103.889	20.160	1.061	0.451
1267.001	726.184	80.005	19.996	103.887	20.159	1.128	0.505
1267.501	726.407	80.006	19.995	103.885	20.159	1.135	0.530
1268.000	726.638	80.006	19.996	103.881	20.160	1.050	0.481
1268.500	726.891	80.005	19.995	103.875	20.164	0.718	0.469
1269.000	727.140	80.006	19.995	103.872	20.162	0.916	0.493
1269.500	727.387	80.006	19.996	103.872	20.161	0.924	0.499
1270.000	727.638	80.005	19.996	103.872	20.159	1.074	0.497
1270.500	727.893	80.006	19.995	103.874	20.161	0.977	0.502
1271.001	728.101	80.006	19.996	103.876	20.160	1.068	0.485
1271.501	728.352	80.006	19.995	103.875	20.161	0.942	0.461
1272.000	728.587	80.006	19.996	103.879	20.164	0.738	0.473
1272.500	728.807	80.005	19.995	103.879	20.161	0.920	0.471
1273.000	729.059	80.005	19.996	103.875	20.160	1.031	0.464
1273.500	729.285	80.005	19.995	103.872	20.164	0.738	0.475
1274.000	729.525	80.006	19.995	103.872	20.160	1.022	0.472
1274.500	729.729	80.005	19.995	103.869	20.164	0.720	0.455
1275.000	729.996	80.005	19.996	103.868	20.162	0.857	0.458
1275.500	730.225	80.006	19.995	103.868	20.162	0.875	0.484
1276.000	730.487	80.006	19.995	103.868	20.162	0.879	0.493
1276.500	730.694	80.005	19.995	103.869	20.159	1.144	0.479
1277.000	730.947	80.007	19.995	103.870	20.162	0.840	0.464
1277.501	731.151	80.006	19.996	103.870	20.157	1.296	0.459
1278.001	731.384	80.006	19.996	103.870	20.159	1.098	0.447
1278.500	731.603	80.006	19.996	103.870	20.160	1.072	0.444
1279.000	731.877	80.006	19.996	103.868	20.160	1.003	0.472
1279.500	732.115	80.006	19.995	103.867	20.159	1.085	0.502
1280.000	732.351	80.007	19.996	103.870	20.160	1.000	0.493
1280.501	732.568	80.007	19.996	103.870	20.160	1.055	0.464
1281.001	732.806	80.006	19.996	103.872	20.163	0.835	0.453
1281.501	733.058	80.006	19.996	103.872	20.162	0.857	0.472
1282.000	733.256	80.006	19.995	103.871	20.161	0.966	0.471
1282.500	733.492	80.006	19.996	103.872	20.161	0.951	0.442
1283.000	733.727	80.006	19.995	103.874	20.162	0.844	0.452
1283.500	733.927	80.007	19.995	103.874	20.163	0.810	0.453
1284.000	734.189	80.006	19.996	103.873	20.157	1.265	0.449
1284.500	734.399	80.007	19.995	103.874	20.161	0.964	0.467
1285.000	734.661	80.007	19.995	103.871	20.161	0.944	0.472
1285.500	734.872	80.006	19.995	103.872	20.159	1.135	0.473
1286.001	735.126	80.006	19.994	103.874	20.159	1.083	0.469
1286.501	735.363	80.008	19.995	103.879	20.159	1.148	0.478
1287.000	735.607	80.006	19.994	103.879	20.160	1.005	0.486
1287.500	735.810	80.007	19.995	103.880	20.159	1.092	0.465
1288.000	736.047	80.007	19.995	103.883	20.159	1.074	0.444
1288.500	736.282	80.008	19.995	103.886	20.160	1.029	0.456
1289.000	736.519	80.006	19.995	103.883	20.158	1.181	0.472
1289.500	736.746	80.007	19.995	103.883	20.162	0.916	0.468
1290.000	736.984	80.007	19.994	103.882	20.161	0.985	0.465
1290.500	737.225	80.007	19.995	103.879	20.160	1.003	0.472
1291.000	737.465	80.007	19.994	103.875	20.159	1.152	0.480
1291.500	737.698	80.007	19.994	103.874	20.159	1.102	0.477
1292.000	737.925	80.006	19.995	103.874	20.161	0.992	0.466
1292.500	738.174	80.006	19.994	103.874	20.160	1.005	0.468
1293.000	738.382	80.006	19.994	103.875	20.159	1.079	0.466
1293.500	738.610	80.004	19.993	103.880	20.161	0.937	0.446
1294.000	738.871	80.005	19.996	103.884	20.159	1.105	0.462
1294.500	739.075	80.006	19.995	103.892	20.160	1.068	0.478
1295.000	739.324	80.004	19.995	103.894	20.159	1.118	0.459
1295.500	739.556	80.005	19.994	103.893	20.160	1.005	0.467
1296.000	739.786	80.005	19.995	103.886	20.159	1.152	0.472
1296.500	740.031	80.005	19.994	103.882	20.160	1.039	0.468
1297.000	740.278	80.004	19.995	103.876	20.161	0.966	0.483
1297.500	740.520	80.005	19.995	103.874	20.158	1.176	0.491
1298.000	740.769	80.004	19.995	103.874	20.159	1.133	0.490
1298.500	740.988	80.004	19.994	103.875	20.158	1.207	0.479
1299.000	741.243	80.005	19.994	103.877	20.156	1.352	0.471
1299.500	741.468	80.005	19.994	103.877	20.155	1.424	0.477
1300.001	741.675	80.005	19.995	103.877	20.160	1.057	0.456
1300.501	741.953	80.006	19.993	103.877	20.159	1.133	0.458
1301.001	742.191	80.007	19.995	103.876	20.156	1.354	0.501
1301.501	742.431	80.005	19.994	103.874	20.159	1.128	0.497
1302.000	742.669	80.004	19.993	103.874	20.159	1.076	0.478
1302.500	742.923	80.006	19.995	103.873	20.162	0.903	0.485
1303.000	743.195	80.006	19.994	103.874	20.158	1.202	0.509
1303.500	743.422	80.005	19.995	103.874	20.159	1.096	0.513
1304.000	743.660	80.007	19.995	103.874	20.161	0.944	0.482
