Sample ID:	C:\MCC\MCC Cal\Test\Air_Fryer_MCC_30K_min_220203_R2.txt
Sample Weight (mg):	4.48
Heating Rate (C/s):	0.5
Combustor Temp (C):	900
N2 Flow Rate (cc/min):	80
O2 Flow Rate (cc/min):	20
Calibration File:	C:\MCC\MCC Cal\Coeff1 JN10440_30_210304.txt.txt
T Correction Coefficients:	0	1.024463	0
Time Shift (s):	14
*
Time (s)	Temperature (C)	N2 flow rate (cc/min)	O2 flow rate (cc/min)	Flow Rate (cc/min)	Oxygen (%)	HRR (W/g)	Heating rate (C/s)
0.000	112.556	80.008	19.994	103.831	20.113	0.050	-0.020
0.500	112.576	80.006	19.994	103.830	20.111	0.153	-0.030
1.000	112.613	80.007	19.995	103.827	20.113	0.034	0.025
1.500	112.608	80.007	19.994	103.827	20.110	0.203	0.044
2.000	112.571	80.007	19.996	103.827	20.112	0.092	-0.005
2.500	112.597	80.007	19.994	103.828	20.114	-0.088	-0.026
3.000	112.562	80.008	19.995	103.829	20.112	0.105	-0.010
3.500	112.586	80.007	19.994	103.832	20.113	0.048	-0.010
4.000	112.545	80.008	19.995	103.832	20.116	-0.229	-0.014
4.500	112.565	80.007	19.995	103.831	20.112	0.090	-0.019
5.000	112.555	80.008	19.995	103.831	20.113	0.046	-0.006
5.500	112.571	80.008	19.995	103.831	20.111	0.151	0.008
6.000	112.569	80.008	19.995	103.831	20.111	0.181	0.009
6.500	112.600	80.008	19.995	103.832	20.110	0.207	0.021
7.000	112.558	80.008	19.994	103.834	20.110	0.255	0.009
7.500	112.546	80.008	19.995	103.834	20.109	0.295	-0.032
8.000	112.573	80.008	19.996	103.834	20.110	0.267	-0.019
8.501	112.563	80.008	19.995	103.834	20.111	0.141	0.016
9.001	112.586	80.006	19.994	103.833	20.110	0.199	0.015
9.500	112.580	80.009	19.994	103.833	20.111	0.153	0.015
10.001	112.579	80.008	19.994	103.834	20.111	0.159	0.005
10.501	112.537	80.007	19.994	103.835	20.106	0.530	-0.025
11.001	112.583	80.007	19.994	103.836	20.108	0.349	-0.020
11.501	112.579	80.008	19.995	103.835	20.108	0.375	0.023
12.001	112.543	80.006	19.995	103.836	20.107	0.460	0.001
12.500	112.597	80.006	19.995	103.843	20.105	0.610	-0.011
13.001	112.589	80.007	19.995	103.846	20.103	0.717	0.032
13.501	112.581	80.008	19.995	103.851	20.106	0.488	0.016
14.001	112.563	80.007	19.994	103.859	20.106	0.554	-0.021
14.500	112.550	80.007	19.995	103.867	20.103	0.713	-0.029
15.001	112.569	80.008	19.994	103.869	20.102	0.825	-0.013
15.501	112.580	80.008	19.995	103.874	20.101	0.867	0.018
16.000	112.549	80.007	19.994	103.890	20.099	1.012	0.005
16.500	112.608	80.007	19.994	103.882	20.097	1.211	0.004
17.000	112.602	80.006	19.995	103.869	20.098	1.116	0.041
17.500	112.585	80.008	19.995	103.858	20.097	1.179	0.015
18.000	112.606	80.008	19.995	103.856	20.096	1.231	-0.010
18.500	112.637	80.007	19.995	103.844	20.093	1.445	0.028
19.001	112.638	80.007	19.995	103.860	20.094	1.359	0.042
19.500	112.635	80.007	19.996	103.902	20.095	1.294	0.015
20.000	112.671	80.008	19.995	103.956	20.094	1.421	0.015
20.500	112.676	80.008	19.995	103.984	20.093	1.483	0.037
21.000	112.673	80.008	19.994	103.999	20.093	1.439	0.022
21.500	112.709	80.008	19.995	104.006	20.094	1.365	0.018
22.000	112.707	80.006	19.996	103.990	20.091	1.580	0.033
22.500	112.708	80.008	19.996	103.958	20.090	1.692	0.016
23.001	112.767	80.008	19.996	103.947	20.092	1.519	0.029
23.500	112.792	80.007	19.995	103.944	20.091	1.575	0.072
24.000	112.795	80.007	19.995	103.943	20.089	1.722	0.056
24.500	112.847	80.007	19.995	103.945	20.091	1.583	0.041
25.000	112.867	80.008	19.997	103.945	20.089	1.752	0.064
25.500	112.913	80.007	19.997	103.945	20.092	1.565	0.069
26.000	112.937	80.008	19.996	103.945	20.090	1.661	0.068
26.500	112.958	80.008	19.996	103.945	20.091	1.647	0.058
27.000	112.971	80.008	19.996	103.945	20.090	1.716	0.040
27.500	112.999	80.008	19.996	103.947	20.088	1.844	0.037
28.000	113.032	80.009	19.996	103.950	20.085	2.028	0.051
28.500	113.144	80.008	19.996	103.955	20.088	1.816	0.104
29.000	113.100	80.008	19.995	103.963	20.087	1.928	0.106
29.500	113.191	80.009	19.997	103.973	20.083	2.155	0.057
30.000	113.255	80.007	19.996	103.986	20.082	2.233	0.101
30.500	113.297	80.008	19.996	103.997	20.084	2.141	0.131
31.000	113.320	80.009	19.995	104.005	20.084	2.110	0.086
31.500	113.390	80.008	19.996	104.006	20.081	2.325	0.079
32.000	113.441	80.011	19.995	104.004	20.081	2.347	0.107
32.500	113.501	80.009	19.996	103.995	20.079	2.481	0.116
33.000	113.525	80.009	19.996	103.989	20.083	2.195	0.097
33.500	113.619	80.009	19.994	103.985	20.080	2.375	0.101
34.000	113.674	80.009	19.995	103.985	20.079	2.454	0.134
34.500	113.721	80.009	19.996	103.989	20.079	2.474	0.126
35.000	113.797	80.010	19.994	103.995	20.081	2.363	0.113
35.500	113.838	80.010	19.995	103.997	20.083	2.211	0.120
36.000	113.914	80.010	19.995	104.001	20.076	2.672	0.117
36.500	113.973	80.009	19.995	104.006	20.078	2.580	0.126
37.000	114.079	80.009	19.994	104.010	20.075	2.784	0.150
37.500	114.143	80.010	19.994	104.013	20.078	2.552	0.168
38.000	114.231	80.009	19.994	104.019	20.079	2.499	0.161
38.500	114.286	80.009	19.994	104.021	20.076	2.674	0.147
39.000	114.340	80.009	19.995	104.021	20.073	2.930	0.126
39.500	114.427	80.009	19.993	104.017	20.077	2.599	0.126
40.000	114.536	80.009	19.994	104.014	20.075	2.768	0.169
40.500	114.569	80.008	19.995	104.013	20.074	2.818	0.169
41.000	114.665	80.008	19.995	104.015	20.075	2.794	0.135
41.501	114.737	80.007	19.996	104.024	20.072	3.012	0.148
42.001	114.845	80.009	19.994	104.034	20.073	2.918	0.174
42.500	114.880	80.007	19.995	104.039	20.074	2.860	0.162
43.000	115.003	80.007	19.993	104.045	20.072	2.974	0.151
43.500	115.095	80.007	19.995	104.045	20.072	3.018	0.187
44.000	115.186	80.007	19.996	104.039	20.073	2.914	0.199
44.500	115.265	80.008	19.994	104.034	20.072	2.976	0.176
45.001	115.367	80.007	19.994	104.032	20.073	2.922	0.175
45.501	115.461	80.007	19.994	104.031	20.071	3.030	0.188
46.000	115.525	80.007	19.994	104.032	20.069	3.173	0.177
46.500	115.635	80.008	19.995	104.032	20.071	3.084	0.167
47.000	115.768	80.008	19.995	104.034	20.070	3.106	0.208
47.500	115.806	80.007	19.995	104.037	20.073	2.886	0.207
48.000	115.922	80.006	19.994	104.038	20.071	3.084	0.162
48.501	116.072	80.007	19.993	104.042	20.074	2.809	0.210
49.001	116.171	80.008	19.994	104.048	20.069	3.186	0.258
49.501	116.263	80.007	19.995	104.051	20.070	3.168	0.220
50.000	116.390	80.007	19.994	104.054	20.070	3.156	0.205
50.500	116.491	80.007	19.994	104.059	20.070	3.138	0.224
51.000	116.598	80.008	19.994	104.061	20.067	3.373	0.218
51.500	116.705	80.006	19.993	104.062	20.065	3.501	0.211
52.000	116.837	80.007	19.995	104.064	20.069	3.232	0.227
52.500	116.925	80.007	19.994	104.065	20.067	3.375	0.229
53.000	117.076	80.006	19.995	104.065	20.067	3.315	0.229
53.501	117.174	80.007	19.993	104.066	20.064	3.535	0.244
54.001	117.291	80.007	19.995	104.068	20.068	3.311	0.233
54.500	117.446	80.007	19.995	104.068	20.064	3.543	0.244
55.000	117.564	80.008	19.994	104.068	20.067	3.349	0.272
55.500	117.710	80.007	19.994	104.068	20.063	3.650	0.268
56.000	117.815	80.007	19.994	104.068	20.066	3.409	0.257
56.500	117.963	80.006	19.994	104.066	20.065	3.477	0.252
57.000	118.063	80.007	19.993	104.067	20.063	3.636	0.250
57.501	118.244	80.007	19.994	104.067	20.065	3.467	0.265
58.001	118.367	80.007	19.993	104.069	20.064	3.558	0.293
58.500	118.478	80.008	19.993	104.068	20.066	3.459	0.269
59.000	118.609	80.008	19.994	104.074	20.064	3.533	0.238
59.500	118.758	80.007	19.994	104.075	20.065	3.495	0.261
60.000	118.904	80.007	19.994	104.078	20.065	3.505	0.288
60.501	119.061	80.008	19.995	104.080	20.064	3.543	0.299
61.001	119.196	80.007	19.994	104.086	20.065	3.484	0.298
61.501	119.323	80.009	19.994	104.086	20.066	3.446	0.277
62.000	119.496	80.007	19.994	104.084	20.066	3.400	0.281
62.500	119.611	80.007	19.993	104.082	20.063	3.643	0.294
63.000	119.808	80.007	19.994	104.079	20.063	3.643	0.300
63.501	119.914	80.009	19.994	104.077	20.063	3.645	0.307
64.001	120.071	80.008	19.994	104.076	20.061	3.796	0.283
64.501	120.233	80.008	19.994	104.077	20.059	3.898	0.291
65.001	120.370	80.008	19.993	104.079	20.060	3.862	0.309
65.500	120.498	80.008	19.994	104.082	20.061	3.751	0.282
66.000	120.682	80.009	19.994	104.079	20.062	3.693	0.289
66.500	120.887	80.008	19.993	104.077	20.065	3.463	0.351
67.000	121.021	80.008	19.994	104.079	20.062	3.741	0.364
67.500	121.186	80.007	19.995	104.077	20.060	3.862	0.319
68.001	121.335	80.007	19.993	104.074	20.061	3.769	0.306
68.501	121.509	80.007	19.994	104.073	20.061	3.797	0.318
69.000	121.644	80.008	19.994	104.074	20.062	3.683	0.316
69.500	121.843	80.008	19.994	104.072	20.064	3.561	0.322
70.000	121.975	80.008	19.993	104.076	20.061	3.789	0.332
70.500	122.146	80.007	19.995	104.082	20.066	3.432	0.317
71.000	122.327	80.007	19.995	104.089	20.065	3.473	0.327
71.500	122.511	80.007	19.993	104.095	20.062	3.737	0.358
72.001	122.674	80.008	19.993	104.100	20.059	3.902	0.356
72.501	122.851	80.007	19.994	104.104	20.064	3.577	0.343
73.001	123.010	80.007	19.994	104.102	20.061	3.775	0.338
73.501	123.195	80.007	19.994	104.101	20.064	3.605	0.340
74.001	123.392	80.007	19.994	104.096	20.062	3.727	0.363
74.501	123.579	80.007	19.993	104.091	20.062	3.732	0.383
75.000	123.741	80.007	19.994	104.089	20.058	3.976	0.366
75.500	123.922	80.008	19.994	104.090	20.059	3.966	0.346
76.000	124.093	80.007	19.994	104.090	20.063	3.659	0.348
76.500	124.256	80.007	19.994	104.091	20.061	3.820	0.344
77.001	124.441	80.007	19.994	104.093	20.058	4.028	0.341
77.501	124.597	80.007	19.993	104.092	20.059	3.932	0.344
78.001	124.801	80.007	19.994	104.093	20.057	4.074	0.351
78.501	124.981	80.008	19.994	104.094	20.060	3.851	0.372
79.000	125.188	80.007	19.995	104.097	20.060	3.857	0.385
79.500	125.336	80.007	19.995	104.100	20.058	3.978	0.371
80.000	125.574	80.008	19.994	104.101	20.058	4.030	0.371
80.501	125.745	80.007	19.994	104.101	20.058	3.990	0.397
81.001	125.919	80.008	19.994	104.099	20.057	4.068	0.377
81.500	126.071	80.008	19.995	104.101	20.061	3.761	0.335
82.000	126.291	80.008	19.994	104.098	20.059	3.964	0.349
82.500	126.477	80.009	19.994	104.097	20.057	4.054	0.389
83.001	126.697	80.006	19.994	104.096	20.057	4.090	0.406
83.501	126.875	80.007	19.994	104.096	20.056	4.166	0.402
84.000	127.068	80.007	19.995	104.095	20.060	3.831	0.384
84.500	127.253	80.008	19.994	104.093	20.056	4.124	0.375
85.000	127.447	80.007	19.994	104.088	20.055	4.214	0.379
85.500	127.627	80.009	19.995	104.083	20.056	4.182	0.377
86.000	127.847	80.007	19.994	104.083	20.055	4.196	0.387
86.500	128.005	80.008	19.995	104.082	20.054	4.260	0.389
87.001	128.231	80.008	19.994	104.084	20.056	4.122	0.381
87.501	128.454	80.008	19.996	104.091	20.053	4.383	0.417
88.000	128.614	80.008	19.996	104.098	20.053	4.391	0.416
88.501	128.801	80.008	19.995	104.099	20.058	4.028	0.365
89.001	129.027	80.005	19.994	104.100	20.057	4.110	0.380
89.500	129.208	80.009	19.996	104.102	20.059	3.944	0.410
90.000	129.414	80.008	19.996	104.102	20.057	4.052	0.397
90.500	129.610	80.008	19.996	104.102	20.058	3.982	0.394
91.000	129.781	80.007	19.997	104.102	20.062	3.721	0.384
91.500	129.987	80.007	19.994	104.098	20.059	3.897	0.372
92.001	130.177	80.007	19.995	104.094	20.058	3.974	0.387
92.501	130.428	80.008	19.995	104.093	20.058	3.968	0.419
93.000	130.611	80.009	19.994	104.092	20.060	3.861	0.437
93.500	130.818	80.008	19.996	104.092	20.060	3.835	0.411
94.000	131.058	80.008	19.996	104.097	20.059	3.928	0.418
94.500	131.248	80.009	19.994	104.100	20.062	3.679	0.439
95.000	131.480	80.008	19.995	104.100	20.058	4.038	0.426
95.500	131.665	80.007	19.995	104.100	20.058	3.986	0.420
96.000	131.898	80.009	19.995	104.101	20.061	3.787	0.418
96.500	132.108	80.008	19.994	104.100	20.064	3.593	0.431
97.000	132.278	80.009	19.995	104.100	20.058	3.978	0.411
97.500	132.531	80.009	19.995	104.100	20.059	3.922	0.401
98.000	132.762	80.009	19.994	104.094	20.059	3.938	0.454
98.500	132.926	80.008	19.994	104.090	20.060	3.870	0.440
99.000	133.137	80.007	19.994	104.089	20.060	3.848	0.385
99.500	133.319	80.008	19.995	104.088	20.059	3.918	0.384
100.000	133.598	80.008	19.994	104.089	20.057	4.090	0.427
100.501	133.819	80.007	19.995	104.095	20.058	3.998	0.481
101.001	134.000	80.007	19.995	104.099	20.062	3.741	0.451
101.500	134.206	80.007	19.995	104.100	20.057	4.074	0.395
102.001	134.449	80.007	19.993	104.101	20.057	4.050	0.418
102.501	134.681	80.008	19.995	104.099	20.057	4.066	0.462
103.001	134.935	80.008	19.995	104.098	20.060	3.863	0.481
103.500	135.128	80.008	19.994	104.097	20.059	3.956	0.466
104.000	135.385	80.009	19.995	104.097	20.056	4.138	0.448
104.501	135.570	80.009	19.996	104.096	20.058	3.996	0.446
105.001	135.810	80.007	19.996	104.098	20.056	4.120	0.434
105.500	136.036	80.009	19.995	104.099	20.058	3.980	0.445
106.000	136.249	80.009	19.995	104.099	20.057	4.066	0.452
106.500	136.485	80.009	19.995	104.099	20.057	4.094	0.444
107.000	136.669	80.009	19.995	104.097	20.059	3.902	0.434
107.501	136.944	80.007	19.996	104.097	20.060	3.841	0.439
108.001	137.169	80.008	19.995	104.097	20.058	4.034	0.480
108.500	137.385	80.009	19.996	104.096	20.057	4.090	0.470
109.001	137.610	80.008	19.996	104.096	20.058	3.996	0.441
109.501	137.823	80.009	19.994	104.097	20.059	3.946	0.440
110.000	138.062	80.008	19.995	104.094	20.059	3.938	0.445
110.500	138.332	80.008	19.996	104.094	20.059	3.940	0.480
111.001	138.551	80.008	19.994	104.094	20.060	3.882	0.499
111.501	138.766	80.009	19.996	104.095	20.057	4.055	0.462
112.000	138.991	80.008	19.994	104.098	20.057	4.083	0.437
112.500	139.222	80.008	19.995	104.101	20.057	4.109	0.448
113.000	139.458	80.010	19.994	104.102	20.058	3.976	0.462
113.500	139.703	80.009	19.995	104.101	20.059	3.896	0.474
114.000	139.940	80.008	19.994	104.101	20.058	3.976	0.481
114.500	140.173	80.009	19.996	104.098	20.056	4.152	0.476
115.000	140.418	80.009	19.995	104.096	20.054	4.327	0.474
115.500	140.612	80.010	19.995	104.091	20.054	4.281	0.459
116.001	140.850	80.009	19.995	104.090	20.057	4.042	0.436
116.501	141.116	80.010	19.995	104.089	20.055	4.233	0.468
117.000	141.373	80.007	19.996	104.091	20.054	4.313	0.513
117.500	141.581	80.011	19.995	104.093	20.057	4.102	0.494
118.000	141.820	80.009	19.995	104.097	20.057	4.080	0.456
118.500	142.068	80.008	19.995	104.099	20.059	3.962	0.467
119.000	142.307	80.010	19.994	104.100	20.057	4.086	0.487
119.500	142.597	80.008	19.996	104.101	20.057	4.081	0.508
120.000	142.806	80.008	19.995	104.100	20.057	4.111	0.514
120.500	143.042	80.009	19.996	104.093	20.057	4.095	0.472
121.000	143.299	80.008	19.996	104.092	20.060	3.874	0.469
121.500	143.547	80.009	19.994	104.087	20.061	3.814	0.499
122.000	143.788	80.008	19.995	104.079	20.062	3.722	0.497
122.500	144.037	80.008	19.996	104.077	20.059	3.928	0.490
123.000	144.278	80.008	19.995	104.083	20.060	3.870	0.490
123.500	144.515	80.008	19.995	104.085	20.056	4.133	0.484
124.000	144.802	80.008	19.997	104.090	20.055	4.203	0.501
124.500	145.061	80.007	19.994	104.096	20.057	4.073	0.535
125.000	145.271	80.007	19.996	104.097	20.057	4.099	0.507
125.501	145.524	80.006	19.996	104.093	20.059	3.949	0.466
126.001	145.775	80.006	19.994	104.090	20.060	3.828	0.483
126.500	146.009	80.024	20.000	104.086	20.059	3.954	0.495
127.000	146.266	80.026	20.001	104.089	20.055	4.205	0.488
127.500	146.501	80.026	20.003	104.092	20.057	4.070	0.492
128.000	146.741	80.026	20.000	104.097	20.055	4.211	0.484
128.500	146.985	80.016	19.999	104.100	20.056	4.131	0.480
129.000	147.205	80.006	19.998	104.099	20.057	4.083	0.474
129.500	147.491	80.007	19.998	104.095	20.058	3.993	0.485
130.000	147.775	80.006	19.997	104.090	20.056	4.167	0.538
130.500	148.030	80.007	19.996	104.084	20.058	3.999	0.555
131.000	148.247	80.005	19.996	104.081	20.057	4.069	0.506
131.500	148.480	80.008	19.996	104.079	20.058	4.005	0.461
132.000	148.760	80.007	19.995	104.075	20.059	3.961	0.481
132.500	149.014	80.006	19.996	104.076	20.055	4.237	0.523
133.000	149.234	80.008	19.995	104.080	20.057	4.083	0.504
133.500	149.495	80.008	19.996	104.082	20.054	4.316	0.477
134.000	149.744	80.009	19.994	104.082	20.053	4.332	0.496
134.500	150.005	80.007	19.994	104.083	20.057	4.089	0.510
135.000	150.287	80.007	19.994	104.082	20.056	4.167	0.526
135.500	150.538	80.007	19.994	104.076	20.057	4.091	0.538
136.000	150.741	80.006	19.994	104.072	20.060	3.837	0.494
136.500	151.042	80.008	19.996	104.073	20.054	4.314	0.479
137.000	151.287	80.007	19.996	104.076	20.056	4.155	0.525
137.500	151.518	80.008	19.996	104.080	20.059	3.957	0.511
138.000	151.733	80.008	19.996	104.083	20.057	4.091	0.461
138.500	152.020	80.006	19.995	104.084	20.057	4.091	0.474
139.000	152.273	80.007	19.997	104.084	20.059	3.957	0.521
139.500	152.515	80.007	19.995	104.083	20.060	3.847	0.517
140.000	152.748	80.008	19.995	104.078	20.059	3.941	0.485
140.500	153.013	80.007	19.994	104.075	20.057	4.053	0.487
141.000	153.248	80.008	19.995	104.074	20.059	3.939	0.499
141.500	153.506	80.007	19.993	104.073	20.058	3.989	0.496
142.000	153.756	80.007	19.995	104.070	20.063	3.632	0.500
142.500	153.987	80.007	19.994	104.070	20.055	4.192	0.495
143.000	154.221	80.007	19.993	104.070	20.060	3.845	0.474
143.500	154.496	80.007	19.995	104.073	20.057	4.055	0.487
144.000	154.705	80.007	19.995	104.073	20.058	4.009	0.496
144.501	154.965	80.008	19.995	104.074	20.057	4.101	0.477
145.001	155.247	80.009	19.994	104.073	20.058	3.983	0.506
145.501	155.490	80.007	19.995	104.072	20.058	4.036	0.533
146.000	155.711	80.007	19.995	104.069	20.057	4.102	0.495
146.500	155.978	80.008	19.994	104.068	20.059	3.927	0.476
147.000	156.215	80.008	19.994	104.067	20.060	3.893	0.496
147.500	156.473	80.008	19.994	104.067	20.058	3.971	0.500
148.000	156.729	80.008	19.995	104.066	20.060	3.875	0.505
148.500	157.006	80.009	19.995	104.066	20.059	3.915	0.524
149.000	157.272	80.007	19.992	104.065	20.059	3.917	0.538
149.500	157.502	80.009	19.997	104.065	20.058	4.038	0.519
150.000	157.733	80.008	19.997	104.064	20.058	4.012	0.479
150.501	157.981	80.008	19.996	104.064	20.057	4.050	0.470
151.000	158.268	80.008	19.996	104.065	20.055	4.212	0.507
151.500	158.477	80.008	19.995	104.065	20.061	3.791	0.515
152.000	158.761	80.009	19.994	104.065	20.059	3.951	0.495
152.500	159.002	80.008	19.994	104.064	20.059	3.927	0.509
153.000	159.256	80.008	19.995	104.064	20.059	3.903	0.510
153.500	159.522	80.007	19.995	104.063	20.061	3.795	0.507
154.001	159.798	80.008	19.994	104.063	20.060	3.831	0.531
154.501	160.047	80.007	19.995	104.062	20.061	3.795	0.534
155.000	160.260	80.006	19.994	104.063	20.061	3.769	0.494
155.500	160.548	80.008	19.994	104.063	20.059	3.904	0.482
156.000	160.795	80.008	19.995	104.061	20.060	3.882	0.517
156.500	161.044	80.006	19.994	104.055	20.061	3.781	0.515
157.000	161.316	80.007	19.994	104.055	20.061	3.759	0.509
157.500	161.568	80.007	19.993	104.055	20.064	3.600	0.523
158.000	161.780	80.007	19.994	104.052	20.062	3.687	0.494
158.500	162.026	80.007	19.995	104.053	20.063	3.669	0.460
159.000	162.269	80.007	19.995	104.058	20.060	3.883	0.473
159.500	162.507	80.008	19.994	104.057	20.061	3.781	0.485
160.000	162.794	80.007	19.994	104.054	20.062	3.735	0.503
160.500	163.021	80.007	19.995	104.053	20.063	3.615	0.520
161.000	163.278	80.007	19.995	104.052	20.063	3.609	0.499
161.500	163.528	80.006	19.994	104.051	20.064	3.565	0.496
162.000	163.755	80.007	19.996	104.052	20.061	3.779	0.492
162.500	164.047	80.008	19.995	104.056	20.064	3.573	0.498
163.000	164.288	80.008	19.995	104.057	20.063	3.629	0.526
163.500	164.488	80.006	19.994	104.056	20.065	3.473	0.487
164.000	164.801	80.009	19.995	104.057	20.068	3.292	0.477
164.500	165.032	80.007	19.995	104.052	20.066	3.392	0.528
165.000	165.280	80.006	19.995	104.045	20.065	3.459	0.512
165.500	165.544	80.008	19.995	104.042	20.063	3.631	0.495
166.000	165.794	80.009	19.995	104.039	20.061	3.755	0.513
166.500	166.013	80.008	19.995	104.036	20.065	3.481	0.492
167.000	166.318	80.008	19.995	104.037	20.065	3.477	0.496
167.500	166.511	80.008	19.994	104.042	20.062	3.703	0.511
168.000	166.772	80.009	19.994	104.046	20.066	3.398	0.476
168.501	167.013	80.007	19.994	104.051	20.066	3.408	0.478
169.001	167.277	80.009	19.994	104.052	20.064	3.539	0.504
169.500	167.498	80.009	19.995	104.049	20.064	3.589	0.495
170.000	167.803	80.010	19.995	104.046	20.063	3.647	0.506
170.500	168.023	80.008	19.995	104.043	20.063	3.627	0.526
171.001	168.282	80.009	19.995	104.039	20.064	3.591	0.502
171.500	168.472	80.009	19.994	104.040	20.063	3.607	0.464
172.000	168.770	80.008	19.994	104.044	20.063	3.635	0.468
172.500	169.001	80.009	19.994	104.045	20.061	3.772	0.508
173.000	169.218	80.010	19.994	104.042	20.061	3.798	0.489
173.500	169.468	80.009	19.994	104.040	20.064	3.603	0.458
174.000	169.745	80.009	19.994	104.035	20.064	3.550	0.497
174.500	169.968	80.010	19.995	104.031	20.066	3.420	0.513
175.000	170.241	80.010	19.996	104.030	20.066	3.412	0.499
175.500	170.454	80.009	19.994	104.032	20.067	3.348	0.492
176.000	170.737	80.009	19.995	104.036	20.065	3.502	0.491
176.500	170.958	80.009	19.995	104.038	20.063	3.643	0.500
177.000	171.222	80.009	19.995	104.039	20.062	3.737	0.494
177.500	171.483	80.010	19.993	104.038	20.063	3.615	0.504
178.000	171.710	80.009	19.994	104.036	20.066	3.416	0.506
178.500	171.936	80.008	19.994	104.032	20.065	3.496	0.471
179.000	172.192	80.009	19.993	104.033	20.066	3.408	0.467
179.500	172.461	80.009	19.995	104.035	20.062	3.683	0.503
180.000	172.719	80.007	19.995	104.039	20.062	3.677	0.526
180.500	172.953	80.008	19.994	104.041	20.063	3.619	0.509
181.000	173.180	80.008	19.994	104.043	20.065	3.499	0.476
181.500	173.417	80.009	19.995	104.042	20.066	3.435	0.463
182.000	173.682	80.009	19.994	104.040	20.062	3.677	0.483
182.500	173.914	80.009	19.994	104.036	20.066	3.416	0.499
183.000	174.136	80.008	19.995	104.035	20.065	3.476	0.475
183.500	174.401	80.008	19.994	104.034	20.062	3.677	0.471
184.000	174.640	80.009	19.993	104.037	20.061	3.793	0.496
184.500	174.850	80.009	19.994	104.041	20.063	3.631	0.477
185.000	175.127	80.007	19.994	104.046	20.064	3.601	0.468
185.500	175.380	80.007	19.994	104.050	20.060	3.889	0.508
186.000	175.603	80.009	19.994	104.051	20.059	3.917	0.503
186.501	175.828	80.009	19.995	104.050	20.062	3.737	0.461
187.000	176.056	80.008	19.995	104.050	20.062	3.679	0.450
187.500	176.373	80.008	19.996	104.050	20.058	4.036	0.499
188.000	176.572	80.008	19.995	104.046	20.060	3.884	0.531
188.500	176.809	80.009	19.996	104.047	20.062	3.705	0.476
189.000	177.054	80.009	19.995	104.045	20.061	3.753	0.459
189.500	177.308	80.007	19.995	104.046	20.063	3.657	0.491
190.000	177.520	80.009	19.994	104.046	20.060	3.826	0.483
190.500	177.784	80.008	19.995	104.046	20.064	3.561	0.470
191.000	178.007	80.009	19.996	104.043	20.062	3.735	0.481
191.500	178.277	80.008	19.996	104.042	20.061	3.801	0.490
192.000	178.549	80.008	19.996	104.037	20.062	3.691	0.518
192.500	178.799	80.007	19.995	104.032	20.063	3.619	0.532
193.000	179.029	80.008	19.995	104.037	20.064	3.539	0.501
193.500	179.250	80.009	19.994	104.042	20.062	3.689	0.466
194.000	179.489	80.009	19.994	104.043	20.063	3.629	0.456
194.500	179.759	80.008	19.995	104.044	20.063	3.605	0.484
195.000	179.955	80.009	19.995	104.049	20.063	3.661	0.487
195.501	180.253	80.009	19.994	104.049	20.062	3.705	0.480
196.001	180.458	80.009	19.994	104.045	20.059	3.940	0.499
196.500	180.715	80.010	19.994	104.050	20.060	3.840	0.483
197.000	180.980	80.011	19.995	104.052	20.065	3.473	0.492
197.500	181.204	80.010	19.995	104.048	20.064	3.573	0.505
198.000	181.471	80.010	19.994	104.042	20.061	3.773	0.490
198.500	181.723	80.009	19.995	104.041	20.061	3.790	0.505
199.000	181.909	80.010	19.995	104.039	20.059	3.896	0.479
199.500	182.184	80.010	19.994	104.037	20.060	3.870	0.450
200.000	182.413	80.011	19.994	104.036	20.064	3.547	0.483
200.500	182.672	80.010	19.994	104.036	20.062	3.677	0.496
201.000	182.918	80.009	19.993	104.038	20.060	3.860	0.496
201.500	183.158	80.009	19.994	104.041	20.065	3.476	0.496
202.000	183.370	80.009	19.995	104.039	20.063	3.665	0.469
202.500	183.654	80.009	19.994	104.040	20.063	3.627	0.473
203.000	183.878	80.009	19.993	104.040	20.063	3.663	0.502
203.501	184.143	80.008	19.995	104.042	20.063	3.649	0.499
204.001	184.387	80.008	19.993	104.041	20.063	3.665	0.499
204.500	184.637	80.008	19.994	104.044	20.064	3.563	0.502
205.000	184.929	80.009	19.994	104.043	20.066	3.455	0.518
205.500	185.161	80.008	19.994	104.046	20.064	3.577	0.533
206.000	185.382	80.007	19.994	104.045	20.063	3.631	0.489
206.500	185.656	80.007	19.995	104.042	20.063	3.641	0.474
207.000	185.888	80.008	19.994	104.037	20.062	3.716	0.500
207.500	186.171	80.007	19.995	104.037	20.064	3.545	0.510
208.000	186.422	80.008	19.995	104.035	20.061	3.810	0.525
208.500	186.653	80.006	19.993	104.037	20.061	3.756	0.508
209.000	186.912	80.006	19.993	104.036	20.062	3.723	0.486
209.501	187.149	80.007	19.996	104.036	20.061	3.774	0.494
210.001	187.419	80.006	19.995	104.040	20.062	3.723	0.501
210.500	187.660	80.006	19.996	104.043	20.061	3.791	0.508
211.000	187.942	80.009	19.995	104.040	20.061	3.773	0.517
211.500	188.146	80.007	19.995	104.039	20.065	3.495	0.505
212.000	188.383	80.008	19.995	104.040	20.064	3.563	0.464
212.500	188.628	80.007	19.995	104.038	20.065	3.471	0.461
213.000	188.821	80.007	19.996	104.034	20.066	3.435	0.459
213.500	189.116	80.008	19.994	104.035	20.063	3.609	0.463
214.000	189.380	80.008	19.996	104.036	20.067	3.378	0.524
214.500	189.643	80.006	19.996	104.033	20.065	3.495	0.543
215.000	189.868	80.007	19.996	104.031	20.063	3.617	0.507
215.500	190.120	80.006	19.995	104.030	20.065	3.503	0.482
216.000	190.373	80.008	19.995	104.028	20.064	3.577	0.491
216.500	190.633	80.007	19.994	104.025	20.061	3.778	0.509
217.000	190.886	80.008	19.995	104.026	20.066	3.421	0.513
217.500	191.111	80.007	19.996	104.026	20.065	3.465	0.496
218.000	191.389	80.008	19.996	104.026	20.066	3.445	0.490
218.500	191.628	80.007	19.996	104.026	20.064	3.559	0.510
219.000	191.855	80.007	19.995	104.026	20.063	3.625	0.492
219.500	192.132	80.007	19.995	104.027	20.062	3.687	0.485
220.000	192.368	80.007	19.996	104.033	20.064	3.535	0.508
220.501	192.625	80.008	19.996	104.035	20.062	3.738	0.503
221.000	192.849	80.007	19.995	104.037	20.066	3.443	0.487
221.500	193.085	80.008	19.995	104.037	20.063	3.617	0.471
222.000	193.320	80.008	19.996	104.037	20.066	3.435	0.466
222.500	193.565	80.009	19.995	104.032	20.064	3.567	0.475
223.000	193.823	80.009	19.995	104.030	20.067	3.371	0.491
223.500	194.090	80.008	19.996	104.029	20.064	3.543	0.514
224.000	194.310	80.007	19.996	104.033	20.064	3.577	0.506
224.500	194.590	80.008	19.996	104.032	20.065	3.487	0.493
225.000	194.862	80.008	19.996	104.032	20.065	3.467	0.526
225.500	195.061	80.007	19.996	104.030	20.064	3.535	0.512
226.000	195.342	80.007	19.996	104.030	20.062	3.706	0.475
226.500	195.610	80.007	19.995	104.028	20.063	3.619	0.514
227.000	195.842	80.008	19.995	104.027	20.064	3.583	0.525
227.500	196.081	80.009	19.996	104.027	20.066	3.443	0.486
228.000	196.341	80.008	19.995	104.026	20.061	3.790	0.485
228.500	196.598	80.008	19.995	104.027	20.065	3.527	0.508
229.000	196.850	80.009	19.995	104.026	20.064	3.543	0.513
229.500	197.041	80.008	19.995	104.027	20.061	3.758	0.475
230.000	197.347	80.009	19.993	104.029	20.065	3.463	0.470
230.500	197.570	80.007	19.995	104.030	20.067	3.381	0.513
231.001	197.832	80.010	19.994	104.031	20.065	3.497	0.507
231.500	198.031	80.009	19.995	104.030	20.066	3.393	0.473
232.000	198.313	80.009	19.994	104.028	20.064	3.559	0.471
232.500	198.541	80.008	19.995	104.026	20.068	3.280	0.496
233.000	198.791	80.009	19.995	104.026	20.067	3.350	0.494
233.500	199.040	80.008	19.994	104.024	20.065	3.479	0.489
234.000	199.317	80.008	19.994	104.024	20.067	3.348	0.512
234.500	199.563	80.009	19.994	104.024	20.066	3.457	0.524
235.000	199.758	80.009	19.996	104.024	20.067	3.352	0.482
235.500	200.036	80.008	19.996	104.024	20.066	3.439	0.457
236.000	200.267	80.009	19.994	104.024	20.066	3.413	0.491
236.500	200.545	80.008	19.995	104.024	20.065	3.499	0.509
237.000	200.789	80.009	19.994	104.025	20.065	3.517	0.516
237.500	201.037	80.008	19.994	104.025	20.067	3.385	0.507
238.000	201.292	80.009	19.995	104.026	20.066	3.441	0.497
238.500	201.559	80.009	19.993	104.026	20.068	3.294	0.513
239.000	201.794	80.007	19.994	104.028	20.067	3.326	0.512
239.500	202.034	80.008	19.994	104.029	20.065	3.515	0.488
240.000	202.289	80.008	19.994	104.029	20.066	3.405	0.485
240.501	202.552	80.007	19.995	104.027	20.067	3.366	0.506
241.001	202.784	80.007	19.994	104.028	20.068	3.262	0.506
241.500	203.027	80.007	19.996	104.027	20.068	3.270	0.485
242.000	203.272	80.008	19.996	104.027	20.066	3.393	0.482
242.500	203.577	80.007	19.996	104.027	20.068	3.296	0.519
243.000	203.792	80.007	19.995	104.027	20.067	3.314	0.535
243.500	204.001	80.007	19.995	104.027	20.067	3.318	0.472
244.000	204.278	80.008	19.995	104.027	20.065	3.479	0.455
244.500	204.522	80.008	19.995	104.026	20.067	3.314	0.504
245.001	204.786	80.008	19.995	104.026	20.067	3.336	0.515
245.501	205.034	80.007	19.994	104.026	20.066	3.423	0.510
246.000	205.256	80.008	19.995	104.027	20.067	3.332	0.491
246.500	205.550	80.008	19.996	104.028	20.066	3.397	0.493
247.000	205.770	80.008	19.996	104.028	20.066	3.431	0.515
247.500	206.026	80.006	19.995	104.028	20.065	3.497	0.495
248.000	206.273	80.008	19.994	104.028	20.066	3.441	0.489
248.500	206.536	80.007	19.995	104.027	20.064	3.589	0.507
249.000	206.799	80.008	19.995	104.026	20.065	3.487	0.518
249.500	207.073	80.007	19.994	104.027	20.066	3.419	0.531
250.000	207.295	80.008	19.994	104.028	20.067	3.361	0.516
250.500	207.583	80.009	19.994	104.030	20.067	3.377	0.503
251.000	207.787	80.010	19.995	104.030	20.066	3.429	0.501
251.500	208.074	80.009	19.994	104.030	20.067	3.367	0.491
252.000	208.316	80.009	19.996	104.029	20.069	3.198	0.510
252.500	208.579	80.009	19.993	104.028	20.064	3.598	0.517
253.000	208.846	80.010	19.995	104.025	20.066	3.421	0.517
253.500	209.082	80.008	19.994	104.025	20.067	3.361	0.516
254.000	209.350	80.009	19.994	104.026	20.067	3.336	0.504
254.500	209.572	80.008	19.994	104.027	20.064	3.555	0.497
255.000	209.832	80.008	19.994	104.027	20.063	3.621	0.486
255.500	210.090	80.010	19.994	104.027	20.063	3.623	0.500
256.000	210.317	80.009	19.994	104.028	20.064	3.543	0.501
256.500	210.588	80.011	19.994	104.027	20.064	3.577	0.491
257.000	210.849	80.009	19.993	104.028	20.063	3.650	0.516
257.500	211.098	80.010	19.995	104.028	20.061	3.782	0.521
258.000	211.326	80.009	19.993	104.028	20.063	3.666	0.493
258.500	211.573	80.010	19.994	104.027	20.066	3.405	0.476
259.000	211.823	80.009	19.993	104.027	20.063	3.647	0.486
259.500	212.084	80.009	19.994	104.027	20.065	3.485	0.505
260.000	212.333	80.009	19.994	104.026	20.065	3.515	0.510
260.500	212.575	80.009	19.994	104.026	20.064	3.553	0.500
261.000	212.811	80.010	19.994	104.025	20.062	3.682	0.484
261.500	213.074	80.009	19.995	104.023	20.064	3.581	0.489
262.000	213.320	80.008	19.994	104.022	20.065	3.465	0.504
262.500	213.574	80.009	19.994	104.020	20.065	3.515	0.505
263.001	213.814	80.009	19.994	104.020	20.066	3.441	0.497
263.501	214.076	80.008	19.994	104.020	20.065	3.505	0.498
264.000	214.316	80.008	19.994	104.022	20.065	3.523	0.502
264.500	214.518	80.008	19.994	104.023	20.066	3.453	0.472
265.000	214.807	80.010	19.993	104.026	20.062	3.706	0.467
265.500	215.049	80.008	19.993	104.026	20.064	3.567	0.511
266.000	215.337	80.008	19.994	104.026	20.064	3.537	0.531
266.500	215.569	80.009	19.994	104.026	20.067	3.339	0.525
267.000	215.786	80.009	19.993	104.023	20.066	3.457	0.484
267.500	216.040	80.008	19.994	104.022	20.068	3.288	0.460
268.000	216.266	80.008	19.993	104.021	20.064	3.571	0.476
268.500	216.512	80.008	19.991	104.021	20.066	3.431	0.476
269.000	216.773	80.007	19.992	104.021	20.066	3.447	0.490
269.500	217.039	80.010	19.994	104.025	20.065	3.518	0.517
270.000	217.278	80.009	19.995	104.026	20.067	3.363	0.516
270.500	217.534	80.008	19.993	104.028	20.065	3.465	0.500
271.000	217.778	80.008	19.994	104.029	20.065	3.511	0.498
271.500	218.015	80.009	19.994	104.029	20.066	3.397	0.491
272.000	218.277	80.009	19.993	104.027	20.065	3.499	0.490
272.500	218.536	80.009	19.994	104.025	20.064	3.542	0.510
273.000	218.773	80.008	19.993	104.022	20.069	3.209	0.508
273.500	219.043	80.009	19.997	104.019	20.067	3.377	0.501
274.000	219.247	80.009	19.994	104.019	20.067	3.329	0.491
274.500	219.513	80.008	19.995	104.021	20.064	3.596	0.473
275.001	219.787	80.009	19.993	104.023	20.063	3.650	0.505
275.500	219.989	80.008	19.994	104.025	20.064	3.550	0.507
276.000	220.290	80.009	19.994	104.028	20.064	3.540	0.489
276.500	220.522	80.010	19.995	104.027	20.066	3.405	0.518
277.000	220.785	80.009	19.994	104.026	20.064	3.592	0.514
277.500	221.032	80.010	19.994	104.025	20.065	3.482	0.503
278.000	221.278	80.009	19.995	104.025	20.064	3.594	0.501
278.500	221.465	80.010	19.994	104.023	20.062	3.676	0.463
279.000	221.758	80.010	19.993	104.020	20.063	3.604	0.456
279.500	221.988	80.011	19.993	104.016	20.065	3.472	0.502
280.000	222.286	80.012	19.994	104.014	20.062	3.739	0.526
280.500	222.526	80.011	19.994	104.009	20.065	3.502	0.533
281.000	222.753	80.011	19.993	104.006	20.064	3.572	0.503
281.500	223.021	80.011	19.995	104.009	20.066	3.443	0.481
282.000	223.256	80.011	19.994	104.013	20.065	3.482	0.499
282.500	223.508	80.010	19.994	104.014	20.066	3.433	0.495
283.001	223.763	80.011	19.994	104.014	20.065	3.504	0.497
283.501	223.993	80.011	19.994	104.011	20.068	3.309	0.496
284.000	224.259	80.011	19.995	104.007	20.066	3.389	0.490
284.500	224.492	80.010	19.994	104.004	20.066	3.417	0.498
285.000	224.735	80.011	19.993	104.002	20.067	3.383	0.488
285.500	224.993	80.011	19.995	104.005	20.063	3.642	0.489
286.000	225.249	80.011	19.994	104.009	20.065	3.495	0.508
286.500	225.500	80.010	19.994	104.007	20.064	3.562	0.510
287.000	225.738	80.009	19.995	104.005	20.064	3.555	0.498
287.500	226.011	80.009	19.993	104.006	20.066	3.415	0.500
288.000	226.230	80.010	19.995	104.005	20.065	3.500	0.501
288.500	226.485	80.010	19.995	104.002	20.065	3.522	0.483
289.000	226.739	80.010	19.994	104.005	20.061	3.817	0.492
289.500	226.966	80.010	19.995	104.007	20.065	3.528	0.495
290.000	227.237	80.009	19.994	104.003	20.066	3.441	0.489
290.500	227.448	80.009	19.995	104.000	20.065	3.502	0.489
291.000	227.744	80.008	19.995	103.998	20.066	3.435	0.494
291.500	227.927	80.007	19.995	103.999	20.065	3.464	0.494
292.000	228.232	80.009	19.995	104.003	20.066	3.393	0.484
292.500	228.452	80.007	19.995	104.007	20.066	3.446	0.506
293.000	228.744	80.009	19.995	104.008	20.064	3.592	0.518
293.500	228.949	80.008	19.995	104.011	20.065	3.528	0.504
294.000	229.223	80.009	19.994	104.006	20.062	3.738	0.488
294.500	229.449	80.008	19.994	104.004	20.069	3.233	0.490
295.000	229.713	80.008	19.995	104.003	20.065	3.460	0.495
295.500	229.978	80.008	19.994	104.005	20.068	3.277	0.509
296.000	230.210	80.008	19.994	104.008	20.065	3.476	0.513
296.500	230.460	80.008	19.995	104.013	20.065	3.478	0.490
297.000	230.711	80.008	19.995	104.014	20.067	3.383	0.492
297.500	230.996	80.009	19.994	104.016	20.063	3.664	0.519
298.000	231.257	80.008	19.995	104.016	20.070	3.162	0.541
298.500	231.441	80.008	19.995	104.013	20.067	3.319	0.495
299.000	231.702	80.009	19.994	104.008	20.066	3.434	0.445
299.500	231.982	80.009	19.994	104.007	20.067	3.379	0.494
300.000	232.233	80.009	19.995	104.002	20.066	3.454	0.536
300.500	232.436	80.007	19.995	104.000	20.063	3.651	0.492
301.000	232.705	80.009	19.995	104.005	20.066	3.430	0.463
301.500	232.943	80.007	19.995	104.007	20.066	3.434	0.489
302.000	233.176	80.008	19.995	104.007	20.068	3.255	0.489
302.500	233.458	80.008	19.994	104.004	20.069	3.187	0.493
303.000	233.656	80.008	19.995	104.006	20.065	3.492	0.497
303.500	233.938	80.008	19.995	103.998	20.069	3.183	0.480
304.000	234.173	80.008	19.995	103.997	20.067	3.347	0.499
304.500	234.434	80.008	19.996	104.000	20.064	3.530	0.507
305.000	234.712	80.008	19.995	104.007	20.065	3.514	0.518
305.500	234.928	80.007	19.995	104.003	20.067	3.376	0.517
306.000	235.138	80.008	19.996	104.003	20.066	3.454	0.460
306.500	235.423	80.008	19.996	104.001	20.064	3.534	0.460
307.000	235.684	80.008	19.996	103.996	20.067	3.364	0.520
307.500	235.893	80.009	19.995	103.996	20.067	3.340	0.508
308.000	236.140	80.007	19.996	104.001	20.067	3.338	0.463
308.500	236.407	80.008	19.995	104.006	20.065	3.462	0.485
309.000	236.635	80.007	19.996	104.009	20.066	3.406	0.504
309.500	236.896	80.007	19.995	104.010	20.062	3.675	0.492
310.001	237.126	80.008	19.996	104.004	20.067	3.347	0.490
310.500	237.411	80.008	19.996	104.001	20.068	3.289	0.503
311.000	237.635	80.008	19.995	103.998	20.065	3.494	0.512
311.500	237.931	80.009	19.996	103.994	20.067	3.363	0.515
312.000	238.134	80.007	19.996	103.992	20.067	3.323	0.510
312.500	238.427	80.009	19.995	103.992	20.067	3.347	0.497
313.000	238.648	80.009	19.995	103.991	20.068	3.281	0.505
313.500	238.864	80.009	19.996	103.993	20.070	3.141	0.476
314.000	239.107	80.009	19.995	103.997	20.068	3.259	0.448
314.500	239.374	80.009	19.996	103.996	20.067	3.338	0.484
315.000	239.573	80.008	19.996	103.997	20.066	3.424	0.488
315.500	239.854	80.008	19.994	103.994	20.064	3.546	0.473
316.000	240.074	80.008	19.996	103.992	20.068	3.249	0.491
316.500	240.328	80.008	19.996	103.992	20.067	3.384	0.487
317.000	240.595	80.008	19.995	103.994	20.067	3.328	0.497
317.500	240.874	80.008	19.996	103.994	20.066	3.400	0.533
318.000	241.073	80.008	19.995	103.995	20.066	3.436	0.512
318.500	241.337	80.007	19.995	103.994	20.068	3.265	0.471
319.000	241.592	80.007	19.995	103.992	20.069	3.197	0.491
319.500	241.830	80.007	19.995	103.990	20.068	3.253	0.507
320.000	242.060	80.006	19.994	103.991	20.069	3.223	0.481
320.500	242.357	80.007	19.996	103.996	20.066	3.420	0.497
321.000	242.556	80.008	19.996	103.999	20.065	3.514	0.511
321.500	242.863	80.008	19.996	104.001	20.066	3.454	0.501
322.000	243.088	80.007	19.997	104.008	20.063	3.637	0.519
322.500	243.332	80.005	19.995	104.009	20.067	3.333	0.500
323.000	243.556	80.008	19.996	104.005	20.063	3.624	0.468
323.500	243.851	80.008	19.995	104.003	20.065	3.492	0.494
324.000	244.065	80.007	19.996	103.999	20.065	3.520	0.514
324.500	244.331	80.007	19.994	103.993	20.063	3.610	0.494
325.000	244.572	80.008	19.995	103.991	20.064	3.568	0.494
325.500	244.801	80.007	19.995	103.989	20.064	3.556	0.489
326.000	245.094	80.008	19.994	103.990	20.065	3.482	0.496
326.500	245.299	80.008	19.994	103.992	20.070	3.105	0.510
327.000	245.553	80.007	19.994	103.992	20.067	3.370	0.478
327.500	245.832	80.008	19.994	103.992	20.064	3.540	0.495
328.000	246.061	80.008	19.994	103.991	20.066	3.452	0.520
328.500	246.324	80.008	19.994	103.989	20.064	3.536	0.500
329.000	246.539	80.006	19.994	103.988	20.067	3.313	0.485
329.500	246.770	80.007	19.995	103.989	20.065	3.496	0.462
330.000	247.055	80.007	19.995	103.994	20.062	3.709	0.481
330.500	247.254	80.007	19.993	103.996	20.065	3.482	0.500
331.000	247.530	80.006	19.996	103.997	20.063	3.647	0.479
331.500	247.739	80.008	19.995	103.997	20.066	3.406	0.480
332.000	247.994	80.008	19.994	103.996	20.067	3.338	0.474
332.500	248.279	80.008	19.995	103.993	20.064	3.568	0.502
333.000	248.493	80.007	19.993	103.992	20.061	3.777	0.519
333.500	248.773	80.009	19.993	103.994	20.063	3.607	0.496
334.000	249.042	80.008	19.995	103.996	20.063	3.667	0.522
334.500	249.256	80.009	19.995	103.997	20.062	3.715	0.516
335.000	249.513	80.009	19.994	104.001	20.065	3.522	0.477
335.500	249.759	80.009	19.994	104.001	20.064	3.582	0.487
336.000	250.022	80.007	19.993	103.998	20.064	3.593	0.506
336.500	250.208	80.008	19.994	103.995	20.063	3.605	0.479
337.000	250.517	80.008	19.992	103.994	20.062	3.683	0.472
337.500	250.768	80.008	19.994	103.990	20.062	3.693	0.528
338.000	250.978	80.009	19.994	103.990	20.062	3.695	0.510
338.500	251.236	80.008	19.995	103.989	20.063	3.671	0.464
339.000	251.492	80.009	19.994	103.990	20.061	3.797	0.491
339.500	251.706	80.008	19.994	103.992	20.059	3.904	0.492
340.000	251.948	80.009	19.994	103.992	20.063	3.665	0.463
340.500	252.235	80.008	19.995	103.994	20.063	3.645	0.492
341.000	252.464	80.009	19.994	103.995	20.064	3.579	0.522
341.500	252.692	80.010	19.994	103.994	20.061	3.779	0.487
342.000	252.964	80.009	19.994	103.992	20.063	3.609	0.479
342.500	253.184	80.008	19.994	103.992	20.064	3.546	0.496
343.000	253.462	80.010	19.993	103.989	20.063	3.625	0.495
343.500	253.675	80.009	19.994	103.990	20.062	3.743	0.495
344.000	253.940	80.009	19.994	103.990	20.063	3.653	0.484
344.500	254.171	80.009	19.995	103.990	20.063	3.611	0.486
345.000	254.440	80.009	19.994	103.993	20.062	3.743	0.498
345.500	254.681	80.009	19.994	103.993	20.061	3.747	0.505
346.000	254.925	80.009	19.994	103.991	20.064	3.563	0.498
346.500	255.151	80.008	19.995	103.991	20.064	3.553	0.478
347.000	255.410	80.008	19.995	103.990	20.065	3.514	0.478
347.500	255.663	80.010	19.995	103.987	20.063	3.603	0.498
348.000	255.916	80.007	19.994	103.987	20.060	3.836	0.509
348.500	256.171	80.008	19.994	103.987	20.065	3.522	0.507
349.000	256.413	80.008	19.994	103.986	20.065	3.470	0.503
349.501	256.630	80.009	19.994	103.986	20.062	3.689	0.478
350.000	256.923	80.008	19.994	103.986	20.067	3.384	0.484
350.500	257.094	80.009	19.993	103.985	20.064	3.551	0.487
351.000	257.370	80.009	19.996	103.985	20.067	3.350	0.456
351.500	257.599	80.009	19.994	103.985	20.065	3.514	0.476
352.000	257.839	80.009	19.992	103.986	20.065	3.462	0.487
352.500	258.084	80.009	19.994	103.985	20.063	3.607	0.477
353.000	258.355	80.009	19.994	103.986	20.066	3.434	0.500
353.500	258.569	80.009	19.994	103.987	20.063	3.657	0.500
354.000	258.858	80.008	19.993	103.988	20.066	3.440	0.494
354.500	259.105	80.009	19.994	103.988	20.064	3.555	0.520
355.000	259.387	80.010	19.994	103.989	20.064	3.549	0.533
355.500	259.592	80.009	19.994	103.989	20.063	3.603	0.508
356.000	259.844	80.009	19.993	103.988	20.064	3.569	0.472
356.500	260.079	80.010	19.993	103.988	20.065	3.516	0.472
357.000	260.332	80.009	19.995	103.988	20.065	3.516	0.487
357.500	260.588	80.010	19.994	103.987	20.067	3.358	0.499
358.000	260.822	80.009	19.996	103.985	20.066	3.440	0.500
358.500	261.042	80.010	19.994	103.985	20.068	3.273	0.472
359.000	261.296	80.009	19.996	103.985	20.066	3.416	0.464
359.500	261.537	80.009	19.995	103.985	20.064	3.530	0.484
360.000	261.784	80.010	19.994	103.985	20.065	3.514	0.492
360.500	262.033	80.010	19.993	103.985	20.068	3.286	0.492
361.000	262.268	80.011	19.993	103.985	20.066	3.416	0.490
361.500	262.517	80.011	19.996	103.985	20.065	3.464	0.484
362.000	262.766	80.011	19.993	103.985	20.063	3.611	0.491
362.500	263.051	80.011	19.996	103.985	20.067	3.318	0.516
363.000	263.278	80.011	19.994	103.985	20.067	3.368	0.523
363.500	263.498	80.011	19.993	103.985	20.067	3.334	0.479
364.000	263.750	80.012	19.993	103.985	20.066	3.450	0.460
364.500	264.020	80.012	19.992	103.985	20.067	3.366	0.497
365.000	264.250	80.010	19.993	103.985	20.064	3.536	0.511
365.500	264.493	80.010	19.993	103.985	20.066	3.404	0.487
366.000	264.758	80.012	19.995	103.985	20.069	3.231	0.491
366.500	264.981	80.013	19.993	103.985	20.066	3.406	0.498
367.000	265.272	80.010	19.992	103.985	20.065	3.490	0.501
367.500	265.498	80.012	19.994	103.987	20.067	3.376	0.516
368.000	265.700	80.011	19.993	103.990	20.066	3.424	0.472
368.500	265.984	80.011	19.993	103.990	20.065	3.502	0.457
369.000	266.252	80.012	19.994	103.990	20.064	3.554	0.519
369.500	266.478	80.011	19.995	103.990	20.065	3.470	0.523
370.000	266.688	80.012	19.993	103.988	20.068	3.259	0.465
370.500	266.983	80.011	19.994	103.984	20.066	3.396	0.470
371.000	267.212	80.010	19.993	103.985	20.064	3.554	0.515
371.500	267.474	80.011	19.994	103.984	20.064	3.552	0.508
372.000	267.732	80.010	19.993	103.984	20.066	3.446	0.506
372.500	267.951	80.009	19.994	103.985	20.065	3.496	0.498
373.000	268.226	80.010	19.994	103.986	20.067	3.352	0.486
373.500	268.480	80.010	19.996	103.986	20.066	3.446	0.512
374.000	268.765	80.009	19.995	103.987	20.066	3.386	0.534
374.500	268.979	80.009	19.995	103.987	20.065	3.506	0.519
375.000	269.217	80.008	19.994	103.985	20.064	3.597	0.476
375.500	269.504	80.010	19.994	103.984	20.063	3.627	0.488
376.000	269.724	80.009	19.993	103.986	20.065	3.504	0.515
376.500	269.983	80.008	19.994	103.986	20.066	3.422	0.493
377.000	270.211	80.008	19.994	103.989	20.067	3.364	0.484
377.500	270.467	80.009	19.994	103.990	20.068	3.255	0.486
378.000	270.741	80.008	19.993	103.991	20.066	3.434	0.507
378.500	270.991	80.009	19.997	103.989	20.066	3.392	0.527
379.000	271.197	80.008	19.994	103.989	20.062	3.677	0.490
379.500	271.477	80.009	19.995	103.986	20.065	3.516	0.471
380.000	271.752	80.007	19.995	103.987	20.065	3.496	0.520
380.500	271.964	80.008	19.994	103.988	20.068	3.284	0.521
381.001	272.253	80.009	19.994	103.989	20.068	3.306	0.494
381.500	272.493	80.008	19.994	103.991	20.067	3.352	0.515
382.000	272.728	80.007	19.994	103.991	20.065	3.476	0.502
382.500	272.967	80.008	19.995	103.990	20.066	3.432	0.474
383.000	273.163	80.008	19.994	103.988	20.066	3.444	0.454
383.500	273.490	80.008	19.994	103.987	20.065	3.526	0.479
384.000	273.727	80.007	19.993	103.986	20.067	3.372	0.543
384.500	273.944	80.007	19.994	103.986	20.064	3.574	0.509
385.000	274.225	80.007	19.995	103.986	20.064	3.573	0.476
385.500	274.445	80.007	19.995	103.987	20.062	3.683	0.500
386.000	274.732	80.007	19.995	103.987	20.063	3.617	0.504
386.500	274.986	80.009	19.996	103.987	20.062	3.687	0.524
387.000	275.225	80.009	19.995	103.988	20.062	3.693	0.517
387.500	275.488	80.007	19.995	103.989	20.064	3.552	0.498
388.000	275.743	80.008	19.994	103.990	20.062	3.685	0.510
388.500	275.975	80.007	19.995	103.990	20.068	3.257	0.503
389.000	276.232	80.008	19.994	103.990	20.065	3.498	0.488
389.500	276.509	80.009	19.996	103.989	20.069	3.187	0.512
390.000	276.708	80.009	19.996	103.989	20.067	3.354	0.505
390.500	276.965	80.007	19.997	103.988	20.067	3.346	0.466
391.000	277.189	80.008	19.996	103.988	20.067	3.356	0.469
391.500	277.502	80.008	19.995	103.988	20.067	3.338	0.509
392.000	277.734	80.008	19.992	103.988	20.067	3.368	0.541
392.500	277.979	80.008	19.993	103.987	20.067	3.382	0.510
393.000	278.232	80.008	19.994	103.988	20.067	3.336	0.487
393.500	278.484	80.009	19.992	103.990	20.068	3.261	0.502
394.000	278.772	80.009	19.994	103.991	20.065	3.506	0.522
394.500	279.006	80.010	19.994	103.990	20.067	3.326	0.531
395.000	279.256	80.009	19.995	103.991	20.068	3.299	0.503
395.500	279.504	80.010	19.994	103.990	20.068	3.283	0.490
396.000	279.772	80.009	19.994	103.988	20.070	3.155	0.507
396.500	280.026	80.009	19.994	103.988	20.070	3.159	0.520
397.000	280.253	80.009	19.994	103.990	20.071	3.087	0.502
397.500	280.511	80.008	19.994	103.993	20.066	3.440	0.483
398.000	280.743	80.009	19.995	103.997	20.064	3.571	0.487
398.500	281.028	80.008	19.995	103.997	20.065	3.496	0.504
399.000	281.258	80.009	19.995	103.996	20.068	3.265	0.517
399.500	281.506	80.010	19.995	103.994	20.064	3.593	0.497
400.001	281.708	80.009	19.994	103.991	20.064	3.536	0.464
400.500	281.978	80.009	19.994	103.986	20.067	3.376	0.461
401.000	282.261	80.009	19.994	103.985	20.062	3.697	0.512
401.500	282.448	80.008	19.995	103.985	20.063	3.665	0.511
402.000	282.780	80.009	19.994	103.985	20.065	3.486	0.495
402.500	283.047	80.009	19.997	103.986	20.067	3.334	0.560
403.000	283.285	80.009	19.995	103.987	20.065	3.527	0.552
403.500	283.543	80.009	19.994	103.988	20.069	3.209	0.500
404.000	283.797	80.009	19.994	103.989	20.069	3.181	0.504
404.500	284.066	80.008	19.994	103.992	20.066	3.406	0.517
405.000	284.313	80.008	19.994	103.992	20.063	3.643	0.520
405.500	284.558	80.008	19.996	103.992	20.064	3.557	0.504
406.000	284.807	80.007	19.995	103.992	20.066	3.406	0.493
406.501	285.031	80.008	19.995	103.991	20.066	3.440	0.484
407.001	285.333	80.007	19.996	103.988	20.066	3.448	0.500
407.501	285.558	80.007	19.996	103.989	20.066	3.456	0.526
408.001	285.832	80.008	19.995	103.988	20.068	3.262	0.513
408.500	286.065	80.007	19.995	103.988	20.065	3.498	0.503
409.000	286.348	80.007	19.996	103.988	20.066	3.436	0.512
409.500	286.586	80.007	19.995	103.989	20.064	3.573	0.518
410.000	286.871	80.008	19.995	103.989	20.064	3.589	0.522
410.500	287.131	80.008	19.995	103.989	20.066	3.406	0.534
411.000	287.356	80.008	19.996	103.988	20.066	3.418	0.515
411.500	287.607	80.007	19.996	103.986	20.066	3.442	0.480
412.000	287.866	80.007	19.996	103.981	20.066	3.400	0.493
412.500	288.098	80.007	19.994	103.980	20.064	3.535	0.501
413.000	288.323	80.007	19.996	103.980	20.068	3.240	0.474
413.500	288.617	80.007	19.996	103.980	20.066	3.418	0.488
414.000	288.848	80.008	19.996	103.980	20.065	3.490	0.522
414.500	289.078	80.008	19.996	103.983	20.067	3.326	0.493
415.000	289.332	80.007	19.997	103.982	20.064	3.549	0.473
415.500	289.612	80.008	19.994	103.981	20.067	3.372	0.509
416.000	289.883	80.008	19.995	103.981	20.066	3.440	0.542
416.500	290.094	80.009	19.994	103.981	20.064	3.597	0.516
417.000	290.331	80.010	19.996	103.981	20.065	3.475	0.465
417.500	290.610	80.008	19.995	103.981	20.064	3.555	0.482
418.000	290.896	80.009	19.994	103.982	20.066	3.432	0.541
418.500	291.159	80.010	19.996	103.982	20.065	3.465	0.557
419.000	291.411	80.008	19.995	103.983	20.063	3.621	0.531
419.500	291.638	80.010	19.996	103.982	20.067	3.346	0.497
420.000	291.890	80.010	19.994	103.982	20.065	3.488	0.479
420.500	292.148	80.010	19.995	103.981	20.065	3.513	0.495
421.000	292.449	80.010	19.995	103.981	20.064	3.591	0.535
421.500	292.651	80.010	19.995	103.981	20.063	3.663	0.531
422.000	292.924	80.010	19.995	103.981	20.062	3.695	0.489
422.500	293.194	80.012	19.994	103.982	20.063	3.647	0.509
423.000	293.435	80.011	19.995	103.983	20.066	3.412	0.527
423.500	293.672	80.011	19.996	103.983	20.063	3.659	0.495
424.000	293.928	80.008	19.995	103.983	20.062	3.685	0.485
424.500	294.188	80.010	19.994	103.983	20.062	3.714	0.504
425.000	294.419	80.010	19.995	103.983	20.064	3.587	0.503
425.500	294.716	80.011	19.993	103.984	20.063	3.637	0.510
426.000	294.964	80.010	19.994	103.979	20.061	3.782	0.536
426.500	295.234	80.010	19.994	103.979	20.061	3.784	0.532
427.000	295.446	80.009	19.993	103.978	20.063	3.659	0.500
427.500	295.720	80.010	19.993	103.974	20.060	3.854	0.484
428.000	295.968	80.010	19.994	103.973	20.063	3.625	0.504
428.500	296.231	80.010	19.993	103.977	20.062	3.709	0.516
429.000	296.474	80.011	19.993	103.977	20.063	3.619	0.508
429.500	296.707	80.009	19.994	103.977	20.065	3.465	0.491
430.000	296.953	80.010	19.993	103.981	20.060	3.842	0.477
430.500	297.222	80.009	19.994	103.983	20.063	3.613	0.497
431.000	297.433	80.009	19.997	103.982	20.063	3.647	0.498
431.500	297.702	80.008	19.995	103.980	20.063	3.651	0.480
432.000	297.958	80.009	19.996	103.979	20.064	3.585	0.502
432.500	298.200	80.009	19.994	103.979	20.061	3.746	0.512
433.000	298.469	80.010	19.995	103.976	20.065	3.497	0.505
433.500	298.719	80.009	19.993	103.976	20.066	3.446	0.515
434.000	298.991	80.009	19.994	103.977	20.063	3.661	0.520
434.500	299.212	80.009	19.994	103.975	20.062	3.685	0.507
435.000	299.456	80.010	19.994	103.973	20.062	3.723	0.479
435.500	299.714	80.010	19.994	103.975	20.062	3.707	0.484
436.000	299.971	80.010	19.995	103.972	20.061	3.760	0.509
436.500	300.198	80.009	19.993	103.972	20.061	3.818	0.499
437.000	300.464	80.009	19.995	103.973	20.063	3.659	0.488
437.500	300.684	80.009	19.994	103.975	20.060	3.886	0.490
438.000	300.932	80.009	19.994	103.977	20.059	3.900	0.477
438.500	301.168	80.010	19.993	103.976	20.060	3.820	0.476
439.000	301.434	80.009	19.994	103.977	20.057	4.105	0.493
439.500	301.693	80.009	19.994	103.976	20.060	3.846	0.513
440.000	301.931	80.009	19.995	103.976	20.063	3.645	0.511
440.500	302.193	80.010	19.993	103.976	20.059	3.940	0.498
441.000	302.417	80.010	19.996	103.977	20.060	3.842	0.493
441.500	302.678	80.010	19.994	103.977	20.061	3.818	0.486
442.000	302.928	80.010	19.995	103.977	20.058	3.978	0.498
442.500	303.182	80.010	19.995	103.976	20.061	3.808	0.508
443.000	303.424	80.010	19.994	103.976	20.059	3.892	0.500
443.500	303.621	80.010	19.994	103.975	20.060	3.878	0.467
444.000	303.895	80.009	19.995	103.977	20.061	3.796	0.455
444.500	304.186	80.010	19.994	103.977	20.059	3.902	0.518
445.000	304.444	80.010	19.993	103.977	20.065	3.463	0.557
445.500	304.665	80.010	19.995	103.974	20.061	3.760	0.514
446.001	304.914	80.010	19.994	103.976	20.062	3.708	0.474
446.501	305.168	80.011	19.996	103.977	20.060	3.829	0.486
447.000	305.410	80.010	19.993	103.978	20.058	4.025	0.499
447.500	305.650	80.010	19.994	103.978	20.063	3.626	0.489
448.000	305.909	80.011	19.994	103.981	20.059	3.947	0.491
448.500	306.115	80.011	19.994	103.976	20.063	3.649	0.482
449.000	306.420	80.010	19.993	103.972	20.063	3.665	0.488
449.500	306.654	80.011	19.998	103.969	20.059	3.944	0.525
450.000	306.908	80.010	19.995	103.971	20.061	3.771	0.514
450.500	307.135	80.011	19.994	103.971	20.063	3.671	0.485
451.000	307.359	80.011	19.994	103.976	20.063	3.673	0.466
451.500	307.619	80.011	19.995	103.977	20.059	3.934	0.467
452.001	307.866	80.011	19.994	103.976	20.062	3.739	0.495
452.500	308.084	80.011	19.993	103.975	20.061	3.787	0.486
453.000	308.349	80.010	19.994	103.974	20.059	3.948	0.474
453.500	308.609	80.010	19.994	103.974	20.058	3.982	0.504
454.000	308.818	80.011	19.995	103.976	20.062	3.681	0.497
454.500	309.113	80.010	19.994	103.978	20.059	3.908	0.486
455.000	309.311	80.010	19.994	103.974	20.063	3.657	0.499
455.500	309.562	80.009	19.993	103.973	20.058	4.024	0.471
456.000	309.834	80.009	19.995	103.967	20.063	3.607	0.486
456.500	310.089	80.009	19.993	103.961	20.063	3.629	0.525
457.000	310.339	80.010	19.994	103.957	20.062	3.715	0.516
457.500	310.595	80.009	19.993	103.958	20.063	3.639	0.506
458.000	310.843	80.009	19.993	103.960	20.062	3.721	0.505
458.500	311.110	80.010	19.994	103.964	20.056	4.147	0.509
459.000	311.332	80.007	19.994	103.969	20.061	3.769	0.502
459.500	311.573	80.009	19.993	103.976	20.060	3.868	0.476
460.000	311.846	80.008	19.994	103.980	20.058	3.998	0.489
460.500	312.100	80.009	19.992	103.981	20.059	3.908	0.520
461.000	312.312	80.008	19.993	103.983	20.057	4.081	0.496
461.500	312.576	80.008	19.994	103.984	20.062	3.699	0.471
462.000	312.800	80.008	19.994	103.983	20.058	4.010	0.482
462.500	313.083	80.008	19.994	103.982	20.062	3.719	0.498
463.000	313.340	80.008	19.993	103.982	20.057	4.038	0.524
463.500	313.575	80.008	19.994	103.982	20.058	4.016	0.516
464.000	313.840	80.008	19.994	103.983	20.059	3.920	0.496
464.500	314.069	80.009	19.994	103.985	20.058	3.982	0.497
465.000	314.349	80.008	19.993	103.985	20.058	4.032	0.501
465.500	314.551	80.008	19.994	103.985	20.058	4.022	0.496
466.000	314.820	80.008	19.994	103.985	20.060	3.864	0.477
466.500	315.068	80.008	19.994	103.985	20.061	3.814	0.494
467.000	315.326	80.007	19.994	103.984	20.056	4.113	0.511
467.500	315.558	80.008	19.993	103.982	20.057	4.055	0.498
468.000	315.794	80.008	19.994	103.981	20.060	3.886	0.479
468.500	316.079	80.007	19.994	103.978	20.059	3.910	0.495
469.000	316.314	80.008	19.993	103.978	20.059	3.914	0.520
469.500	316.534	80.008	19.994	103.979	20.058	3.998	0.487
470.000	316.827	80.009	19.994	103.980	20.057	4.047	0.484
470.500	317.078	80.007	19.994	103.982	20.060	3.882	0.528
471.000	317.361	80.009	19.994	103.981	20.058	4.029	0.539
471.500	317.582	80.008	19.996	103.982	20.058	4.025	0.519
472.000	317.830	80.008	19.996	103.983	20.056	4.165	0.486
472.500	318.038	80.007	19.994	103.984	20.059	3.950	0.463
473.000	318.316	80.008	19.995	103.978	20.059	3.934	0.471
473.500	318.553	80.008	19.994	103.981	20.058	3.995	0.500
474.000	318.775	80.008	19.994	103.980	20.059	3.914	0.487
474.501	319.020	80.008	19.994	103.980	20.058	3.974	0.463
475.000	319.312	80.009	19.995	103.979	20.061	3.768	0.503
475.500	319.553	80.007	19.995	103.982	20.060	3.832	0.535
476.000	319.780	80.008	19.995	103.980	20.059	3.940	0.500
476.500	320.045	80.008	19.994	103.978	20.057	4.061	0.480
477.000	320.273	80.008	19.996	103.977	20.060	3.884	0.493
477.500	320.548	80.009	19.995	103.977	20.058	3.986	0.498
478.000	320.811	80.008	19.995	103.977	20.058	4.014	0.520
478.500	321.046	80.008	19.996	103.979	20.061	3.796	0.518
479.000	321.285	80.008	19.995	103.981	20.060	3.840	0.486
479.500	321.559	80.008	19.995	103.981	20.057	4.076	0.494
480.000	321.802	80.008	19.995	103.982	20.060	3.824	0.515
480.500	322.067	80.008	19.995	103.980	20.061	3.818	0.512
481.000	322.299	80.010	19.995	103.978	20.060	3.882	0.502
481.500	322.535	80.008	19.994	103.972	20.059	3.956	0.483
482.000	322.807	80.009	19.996	103.971	20.062	3.745	0.488
482.500	323.067	80.008	19.994	103.971	20.060	3.858	0.520
483.000	323.315	80.008	19.995	103.972	20.059	3.898	0.520
483.500	323.556	80.009	19.995	103.973	20.058	4.012	0.498
484.000	323.825	80.009	19.995	103.975	20.057	4.075	0.499
484.500	324.068	80.008	19.995	103.975	20.058	4.006	0.511
485.000	324.338	80.009	19.994	103.975	20.058	4.012	0.513
485.500	324.594	80.008	19.995	103.976	20.059	3.924	0.520
486.000	324.822	80.008	19.995	103.976	20.056	4.167	0.505
486.500	325.083	80.008	19.994	103.979	20.056	4.165	0.486
487.000	325.297	80.007	19.996	103.980	20.058	3.986	0.482
487.500	325.574	80.007	19.995	103.981	20.061	3.814	0.483
488.000	325.798	80.008	19.994	103.981	20.059	3.910	0.496
488.500	326.075	80.006	19.994	103.982	20.056	4.119	0.501
489.000	326.360	80.007	19.995	103.983	20.059	3.942	0.532
489.500	326.586	80.007	19.995	103.983	20.058	4.006	0.537
490.000	326.792	80.007	19.994	103.982	20.057	4.083	0.471
490.500	327.097	80.006	19.995	103.983	20.058	3.992	0.471
491.001	327.350	80.009	19.996	103.983	20.057	4.043	0.535
491.501	327.600	80.008	19.996	103.984	20.057	4.087	0.531
492.000	327.872	80.008	19.994	103.984	20.059	3.944	0.512
492.500	328.089	80.007	19.994	103.984	20.057	4.059	0.505
493.000	328.370	80.008	19.995	103.979	20.060	3.854	0.494
493.500	328.618	80.008	19.994	103.978	20.058	4.011	0.513
494.000	328.903	80.007	19.995	103.977	20.060	3.826	0.531
494.500	329.099	80.006	19.996	103.977	20.055	4.181	0.507
495.000	329.301	80.007	19.995	103.977	20.057	4.095	0.439
495.501	329.650	80.006	19.995	103.980	20.058	4.011	0.474
496.000	329.895	80.008	19.995	103.979	20.058	3.999	0.573
496.500	330.168	80.009	19.996	103.976	20.056	4.178	0.556
497.000	330.364	80.008	19.996	103.975	20.053	4.345	0.493
497.500	330.629	80.007	19.995	103.975	20.053	4.343	0.465
498.000	330.879	80.007	19.994	103.976	20.054	4.270	0.488
498.500	331.117	80.008	19.995	103.978	20.057	4.101	0.502
499.000	331.369	80.008	19.994	103.981	20.055	4.207	0.489
499.500	331.689	80.008	19.994	103.980	20.057	4.075	0.531
500.000	331.907	80.008	19.995	103.977	20.054	4.292	0.555
500.500	332.165	80.007	19.995	103.977	20.054	4.284	0.507
501.000	332.446	80.008	19.995	103.976	20.052	4.461	0.507
501.500	332.731	80.009	19.996	103.976	20.056	4.135	0.553
502.000	332.940	80.007	19.994	103.978	20.053	4.392	0.530
502.500	333.209	80.009	19.995	103.977	20.056	4.138	0.486
503.000	333.453	80.009	19.997	103.975	20.053	4.390	0.495
503.500	333.732	80.008	19.994	103.976	20.055	4.202	0.518
504.000	333.998	80.007	19.997	103.976	20.055	4.180	0.534
504.500	334.221	80.009	19.995	103.975	20.052	4.463	0.517
505.000	334.498	80.007	19.995	103.977	20.054	4.256	0.495
505.500	334.765	80.009	19.995	103.975	20.054	4.290	0.522
506.000	335.018	80.009	19.995	103.971	20.053	4.378	0.532
506.500	335.277	80.009	19.995	103.965	20.052	4.412	0.516
507.000	335.519	80.009	19.995	103.959	20.054	4.288	0.506
507.500	335.786	80.010	19.995	103.955	20.052	4.464	0.505
508.000	336.018	80.009	19.995	103.951	20.054	4.324	0.504
508.500	336.297	80.011	19.995	103.954	20.052	4.437	0.505
509.000	336.527	80.009	19.994	103.959	20.052	4.409	0.510
509.500	336.804	80.009	19.996	103.964	20.053	4.397	0.508
510.000	337.061	80.010	19.996	103.969	20.051	4.481	0.520
510.500	337.306	80.009	19.996	103.974	20.052	4.422	0.518
511.000	337.541	80.008	19.996	103.974	20.051	4.490	0.491
511.500	337.803	80.008	19.995	103.970	20.051	4.511	0.488
512.000	338.061	80.010	19.995	103.966	20.053	4.338	0.508
512.500	338.341	80.007	19.995	103.963	20.052	4.403	0.529
513.000	338.619	80.010	19.996	103.964	20.051	4.499	0.548
513.500	338.814	80.008	19.995	103.962	20.053	4.389	0.516
514.000	339.120	80.009	19.995	103.965	20.053	4.378	0.487
514.500	339.345	80.009	19.995	103.968	20.055	4.210	0.516
515.000	339.574	80.009	19.996	103.966	20.052	4.403	0.492
515.500	339.841	80.009	19.995	103.963	20.056	4.170	0.475
516.000	340.142	80.009	19.994	103.965	20.050	4.547	0.532
516.500	340.398	80.008	19.996	103.966	20.053	4.345	0.563
517.000	340.609	80.009	19.996	103.970	20.051	4.521	0.512
517.500	340.883	80.009	19.996	103.973	20.057	4.044	0.476
518.000	341.118	80.010	19.995	103.972	20.057	4.070	0.497
518.500	341.391	80.011	19.994	103.969	20.057	4.066	0.509
519.000	341.654	80.009	19.994	103.964	20.055	4.204	0.522
519.500	341.915	80.010	19.995	103.959	20.054	4.258	0.530
520.000	342.208	80.010	19.994	103.957	20.055	4.194	0.539
520.500	342.403	80.010	19.994	103.961	20.055	4.238	0.521
521.000	342.684	80.009	19.993	103.965	20.055	4.192	0.482
521.500	342.899	80.008	19.994	103.970	20.051	4.489	0.486
522.000	343.191	80.009	19.994	103.972	20.053	4.335	0.502
522.500	343.435	80.010	19.995	103.969	20.053	4.333	0.521
523.000	343.628	80.010	19.994	103.964	20.055	4.228	0.486
523.500	343.922	80.009	19.993	103.962	20.053	4.391	0.463
524.000	344.173	80.008	19.994	103.962	20.052	4.467	0.517
524.500	344.451	80.009	19.994	103.961	20.050	4.581	0.537
525.000	344.703	80.009	19.994	103.962	20.050	4.557	0.529
525.500	344.974	80.008	19.994	103.963	20.054	4.324	0.527
526.000	345.224	80.009	19.994	103.962	20.053	4.371	0.523
526.500	345.479	80.010	19.994	103.958	20.049	4.626	0.513
527.000	345.688	80.009	19.995	103.955	20.052	4.423	0.484
527.500	346.012	80.009	19.994	103.956	20.051	4.517	0.499
528.000	346.215	80.008	19.993	103.954	20.051	4.487	0.530
528.500	346.518	80.012	19.995	103.953	20.055	4.242	0.516
529.000	346.766	80.010	19.994	103.953	20.053	4.329	0.529
529.500	347.027	80.010	19.995	103.953	20.049	4.622	0.531
530.000	347.287	80.008	19.993	103.954	20.051	4.477	0.515
530.500	347.521	80.010	19.994	103.957	20.049	4.644	0.507
531.000	347.797	80.009	19.993	103.955	20.053	4.397	0.502
531.500	348.029	80.010	19.994	103.955	20.052	4.427	0.509
532.001	348.327	80.012	19.994	103.953	20.050	4.582	0.519
532.500	348.579	80.011	19.993	103.951	20.054	4.303	0.540
533.000	348.847	80.010	19.992	103.948	20.052	4.449	0.535
533.500	349.075	80.010	19.993	103.950	20.055	4.222	0.508
534.000	349.388	80.010	19.993	103.955	20.050	4.598	0.518
534.500	349.619	80.010	19.994	103.957	20.056	4.176	0.542
535.001	349.904	80.011	19.994	103.960	20.049	4.617	0.530
535.500	350.085	80.009	19.993	103.963	20.049	4.682	0.491
536.000	350.379	80.011	19.993	103.961	20.045	4.908	0.470
536.500	350.643	80.010	19.994	103.957	20.054	4.262	0.517
537.000	350.888	80.009	19.994	103.955	20.053	4.350	0.534
537.500	351.158	80.009	19.993	103.952	20.047	4.772	0.512
538.000	351.403	80.010	19.994	103.952	20.048	4.715	0.515
538.500	351.611	80.010	19.993	103.953	20.049	4.663	0.484
539.000	351.912	80.010	19.993	103.953	20.052	4.416	0.481
539.500	352.160	80.009	19.993	103.953	20.049	4.627	0.528
540.000	352.417	80.010	19.994	103.953	20.053	4.356	0.527
540.500	352.701	80.011	19.994	103.954	20.051	4.481	0.523
541.000	352.962	80.008	19.994	103.954	20.052	4.435	0.543
541.500	353.169	80.009	19.995	103.954	20.048	4.692	0.507
542.000	353.450	80.007	19.994	103.954	20.050	4.574	0.478
542.500	353.681	80.009	19.995	103.953	20.048	4.722	0.500
543.000	353.978	80.007	19.994	103.948	20.051	4.511	0.520
543.500	354.263	80.008	19.994	103.949	20.047	4.776	0.555
544.000	354.424	80.007	19.994	103.948	20.049	4.624	0.513
544.500	354.761	80.008	19.995	103.950	20.053	4.391	0.472
545.000	355.033	80.010	19.995	103.952	20.047	4.832	0.554
545.500	355.280	80.010	19.993	103.958	20.049	4.680	0.564
546.000	355.461	80.008	19.995	103.959	20.051	4.513	0.473
546.500	355.747	80.008	19.994	103.962	20.046	4.871	0.447
547.000	356.073	80.008	19.993	103.966	20.046	4.847	0.540
547.500	356.322	80.010	19.994	103.965	20.044	4.983	0.593
548.000	356.570	80.009	19.994	103.964	20.049	4.672	0.536
548.500	357.083	80.009	19.994	103.968	20.048	4.742	0.629
549.000	357.173	80.010	19.994	103.973	20.045	4.937	0.682
549.500	357.333	80.009	19.994	103.972	20.048	4.708	0.426
550.000	357.279	80.009	19.994	103.972	20.047	4.824	0.178
550.500	357.753	80.005	19.994	103.970	20.046	4.881	0.263
551.001	358.303	80.009	19.995	103.963	20.047	4.829	0.722
551.500	358.100	80.007	19.994	103.957	20.046	4.875	0.685
552.000	358.726	80.008	19.994	103.953	20.047	4.815	0.385
552.500	358.758	80.008	19.994	103.957	20.046	4.875	0.540
553.000	359.062	80.010	19.994	103.955	20.043	5.066	0.497
553.500	359.364	80.008	19.993	103.955	20.047	4.825	0.471
554.000	359.624	80.007	19.993	103.954	20.046	4.854	0.585
554.500	359.883	80.007	19.994	103.956	20.044	4.983	0.541
555.000	360.056	80.008	19.994	103.952	20.045	4.928	0.475
555.500	360.407	80.010	19.994	103.954	20.046	4.900	0.478
556.000	360.693	80.008	19.994	103.957	20.046	4.842	0.580
556.500	360.864	80.008	19.993	103.957	20.047	4.782	0.547
557.000	361.205	80.007	19.994	103.955	20.045	4.923	0.485
557.500	361.395	80.009	19.993	103.954	20.043	5.070	0.521
558.001	361.683	80.006	19.994	103.953	20.046	4.899	0.505
558.500	361.964	80.012	19.994	103.949	20.044	5.040	0.524
559.000	362.139	80.012	19.993	103.949	20.041	5.264	0.513
559.500	362.450	80.010	19.994	103.949	20.044	5.019	0.470
560.000	362.726	80.008	19.993	103.954	20.043	5.061	0.536
560.500	362.911	80.009	19.994	103.953	20.044	4.999	0.524
561.000	363.216	80.009	19.993	103.954	20.043	5.109	0.475
561.500	363.445	80.010	19.994	103.954	20.043	5.074	0.512
562.000	363.706	80.009	19.994	103.954	20.041	5.258	0.512
562.500	363.948	80.008	19.993	103.949	20.042	5.136	0.497
563.000	364.259	80.007	19.994	103.951	20.044	4.997	0.528
563.500	364.436	80.008	19.994	103.950	20.043	5.121	0.520
564.000	364.750	80.009	19.994	103.951	20.041	5.252	0.489
564.500	365.062	80.007	19.995	103.953	20.042	5.155	0.559
565.000	365.238	80.010	19.994	103.959	20.041	5.239	0.557
565.500	365.529	80.011	19.994	103.963	20.040	5.296	0.477
566.000	365.792	80.008	19.994	103.963	20.040	5.310	0.511
566.500	366.043	80.010	19.995	103.963	20.039	5.342	0.535
567.000	366.265	80.007	19.995	103.959	20.038	5.479	0.493
567.500	366.534	80.007	19.995	103.953	20.037	5.529	0.482
568.000	366.797	80.007	19.995	103.948	20.039	5.402	0.511
568.500	367.056	80.006	19.994	103.948	20.041	5.234	0.527
569.000	367.375	80.009	19.994	103.948	20.040	5.300	0.550
569.500	367.608	80.010	19.996	103.949	20.040	5.276	0.565
570.000	367.842	80.009	19.996	103.953	20.039	5.408	0.510
570.501	368.097	80.010	19.996	103.954	20.040	5.320	0.478
571.000	368.359	80.008	19.995	103.955	20.038	5.464	0.503
571.500	368.606	80.008	19.995	103.956	20.040	5.286	0.513
572.000	368.879	80.008	19.995	103.956	20.037	5.541	0.515
572.500	369.077	80.009	19.994	103.952	20.037	5.541	0.495
573.000	369.349	80.009	19.996	103.951	20.039	5.380	0.470
573.500	369.635	80.009	19.995	103.953	20.037	5.497	0.514
574.000	369.881	80.008	19.996	103.960	20.035	5.657	0.545
574.501	370.129	80.006	19.995	103.962	20.040	5.330	0.514
575.001	370.350	80.005	19.996	103.964	20.035	5.662	0.482
575.500	370.659	80.006	19.996	103.967	20.034	5.710	0.499
576.000	370.888	80.007	19.994	103.966	20.036	5.571	0.534
576.500	371.149	80.006	19.995	103.962	20.037	5.527	0.514
577.001	371.416	80.007	19.994	103.963	20.035	5.629	0.508
577.500	371.697	80.007	19.995	103.961	20.033	5.834	0.538
578.000	371.911	80.006	19.994	103.962	20.033	5.816	0.522
578.500	372.190	80.007	19.994	103.965	20.035	5.686	0.495
579.000	372.441	80.007	19.995	103.964	20.034	5.728	0.512
579.500	372.702	80.007	19.996	103.963	20.032	5.903	0.521
580.000	372.963	80.007	19.995	103.965	20.033	5.812	0.517
580.500	373.265	80.008	19.996	103.966	20.031	5.963	0.543
581.000	373.485	80.008	19.994	103.966	20.030	6.057	0.543
581.500	373.763	80.008	19.995	103.964	20.031	5.976	0.510
582.000	373.999	80.005	19.994	103.963	20.029	6.119	0.506
582.500	374.298	80.008	19.995	103.960	20.031	5.960	0.525
583.000	374.588	80.008	19.995	103.959	20.027	6.260	0.562
583.500	374.869	80.008	19.994	103.958	20.028	6.161	0.579
584.000	375.109	80.008	19.994	103.961	20.026	6.296	0.546
584.500	375.359	80.008	19.994	103.963	20.028	6.205	0.506
585.000	375.658	80.010	19.995	103.964	20.027	6.248	0.520
585.500	375.939	80.008	19.994	103.961	20.023	6.527	0.565
586.000	376.161	80.009	19.994	103.957	20.025	6.395	0.541
586.500	376.433	80.009	19.995	103.954	20.022	6.622	0.498
587.000	376.689	80.009	19.995	103.955	20.023	6.561	0.511
587.500	376.990	80.010	19.995	103.957	20.020	6.748	0.542
588.000	377.265	80.010	19.994	103.956	20.021	6.652	0.566
588.500	377.498	80.010	19.994	103.956	20.018	6.909	0.542
589.000	377.775	80.009	19.995	103.956	20.019	6.824	0.509
589.500	378.059	80.010	19.994	103.953	20.019	6.841	0.535
590.000	378.317	80.009	19.994	103.953	20.019	6.798	0.551
590.500	378.567	80.009	19.995	103.953	20.019	6.818	0.525
591.000	378.858	80.009	19.994	103.955	20.016	7.019	0.524
591.500	379.095	80.008	19.994	103.959	20.020	6.714	0.534
592.000	379.361	80.010	19.994	103.962	20.017	6.973	0.516
592.500	379.669	80.009	19.994	103.962	20.016	7.053	0.539
593.000	379.966	80.010	19.996	103.963	20.013	7.250	0.590
593.500	380.204	80.008	19.996	103.960	20.011	7.375	0.570
594.000	380.481	80.008	19.995	103.960	20.013	7.282	0.524
594.500	380.774	80.009	19.996	103.962	20.015	7.123	0.542
595.000	381.015	80.007	19.995	103.962	20.013	7.232	0.552
595.500	381.277	80.009	19.995	103.961	20.013	7.270	0.518
596.000	381.571	80.009	19.995	103.960	20.014	7.188	0.530
596.500	381.844	80.008	19.995	103.956	20.013	7.256	0.562
597.000	382.108	80.008	19.996	103.952	20.012	7.294	0.552
597.500	382.396	80.007	19.995	103.949	20.009	7.529	0.544
598.000	382.633	80.007	19.994	103.949	20.012	7.311	0.538
598.500	382.906	80.005	19.995	103.950	20.012	7.347	0.517
599.000	383.187	80.009	19.996	103.950	20.008	7.630	0.532
599.500	383.445	80.008	19.996	103.950	20.009	7.548	0.547
600.000	383.726	80.008	19.995	103.950	20.008	7.624	0.539
600.500	384.035	80.007	19.995	103.950	20.008	7.648	0.564
601.000	384.277	80.006	19.996	103.949	20.007	7.664	0.570
601.500	384.558	80.006	19.996	103.949	20.007	7.664	0.537
602.000	384.813	80.008	19.996	103.949	20.009	7.544	0.530
602.500	385.071	80.007	19.996	103.949	20.004	7.883	0.525
603.000	385.347	80.002	19.995	103.949	20.007	7.720	0.523
603.500	385.648	80.008	19.996	103.949	20.004	7.917	0.555
604.000	385.950	80.005	19.995	103.949	20.003	7.957	0.590
604.500	386.226	80.008	19.995	103.950	20.003	8.011	0.591
605.000	386.495	80.008	19.996	103.951	20.002	8.021	0.561
605.500	386.716	80.009	19.995	103.952	20.002	8.025	0.518
606.000	387.043	80.010	19.994	103.954	20.001	8.128	0.519
606.500	387.289	80.009	19.996	103.955	20.002	8.048	0.560
607.000	387.567	80.008	19.995	103.954	20.001	8.100	0.548
607.500	387.846	80.006	19.996	103.953	20.000	8.202	0.541
608.000	388.120	80.008	19.995	103.951	19.998	8.327	0.555
608.500	388.422	80.009	19.995	103.948	19.998	8.345	0.565
609.000	388.663	80.008	19.994	103.947	19.997	8.444	0.559
609.500	388.967	80.009	19.996	103.947	20.001	8.110	0.544
610.000	389.226	80.010	19.995	103.946	19.997	8.446	0.554
610.500	389.550	80.010	19.996	103.946	19.998	8.377	0.573
611.000	389.805	80.009	19.995	103.945	19.997	8.399	0.581
611.500	390.081	80.009	19.995	103.945	19.996	8.451	0.555
612.000	390.297	80.008	19.996	103.945	19.995	8.528	0.511
612.500	390.619	80.011	19.994	103.944	19.996	8.485	0.515
613.000	390.880	80.011	19.995	103.944	19.994	8.616	0.561
613.500	391.167	80.013	19.994	103.945	19.994	8.640	0.565
614.000	391.454	80.011	19.995	103.944	19.993	8.737	0.561
614.500	391.712	80.013	19.995	103.944	19.992	8.811	0.560
615.000	391.981	80.010	19.994	103.945	19.992	8.753	0.536
615.500	392.272	80.010	19.994	103.945	19.994	8.623	0.544
616.000	392.553	80.013	19.994	103.945	19.989	8.968	0.566
616.500	392.821	80.008	19.994	103.945	19.991	8.863	0.561
617.000	393.087	80.011	19.994	103.945	19.988	9.052	0.541
617.500	393.402	80.012	19.994	103.943	19.990	8.947	0.557
618.000	393.647	80.009	19.994	103.943	19.989	9.007	0.571
618.500	393.924	80.011	19.994	103.943	19.990	8.939	0.541
619.000	394.200	80.012	19.993	103.944	19.987	9.154	0.537
619.500	394.467	80.011	19.994	103.942	19.983	9.394	0.548
620.000	394.753	80.011	19.994	103.939	19.984	9.382	0.548
620.500	395.031	80.012	19.994	103.939	19.982	9.511	0.559
621.000	395.284	80.011	19.996	103.937	19.982	9.505	0.548
621.500	395.579	80.011	19.994	103.938	19.981	9.577	0.540
622.000	395.849	80.008	19.994	103.940	19.982	9.467	0.556
622.500	396.139	80.010	19.994	103.944	19.978	9.819	0.563
623.000	396.388	80.010	19.994	103.943	19.981	9.552	0.550
623.500	396.640	80.009	19.994	103.945	19.975	10.020	0.520
624.000	396.933	80.010	19.995	103.945	19.979	9.686	0.523
624.500	397.205	80.008	19.994	103.944	19.977	9.897	0.555
625.000	397.474	80.007	19.994	103.940	19.974	10.102	0.553
625.500	397.761	80.010	19.994	103.939	19.973	10.180	0.549
626.000	398.006	80.008	19.994	103.935	19.974	10.062	0.544
626.500	398.239	80.010	19.994	103.932	19.973	10.179	0.505
627.000	398.554	80.007	19.994	103.934	19.971	10.271	0.512
627.500	398.792	80.008	19.994	103.937	19.971	10.313	0.550
628.000	399.078	80.007	19.994	103.939	19.973	10.157	0.539
628.500	399.315	80.006	19.994	103.942	19.970	10.379	0.523
629.000	399.624	80.006	19.993	103.945	19.966	10.636	0.534
629.500	399.887	80.007	19.996	103.946	19.966	10.670	0.559
630.000	400.192	80.008	19.995	103.947	19.967	10.600	0.570
630.500	400.439	80.008	19.996	103.952	19.964	10.773	0.560
631.000	400.716	80.009	19.994	103.953	19.962	10.972	0.538
631.500	400.980	80.008	19.995	103.953	19.963	10.868	0.532
632.000	401.221	80.010	19.995	103.951	19.959	11.130	0.523
632.500	401.480	80.008	19.993	103.948	19.958	11.228	0.503
633.000	401.762	80.009	19.994	103.941	19.958	11.233	0.520
633.500	402.012	80.008	19.994	103.940	19.957	11.339	0.537
634.000	402.305	80.010	19.993	103.939	19.953	11.577	0.538
634.500	402.566	80.009	19.994	103.940	19.952	11.674	0.548
635.000	402.792	80.008	19.994	103.942	19.950	11.794	0.520
635.500	403.067	80.008	19.994	103.944	19.948	11.932	0.494
636.000	403.316	80.008	19.994	103.945	19.949	11.890	0.513
636.500	403.638	80.009	19.994	103.945	19.947	12.059	0.547
637.000	403.870	80.007	19.994	103.938	19.947	12.065	0.562
637.500	404.142	80.010	19.994	103.936	19.945	12.205	0.529
638.000	404.397	80.007	19.994	103.936	19.947	12.068	0.516
638.500	404.628	80.010	19.994	103.937	19.942	12.399	0.507
639.000	404.920	80.008	19.995	103.937	19.939	12.591	0.505
639.500	405.170	80.008	19.995	103.944	19.940	12.523	0.533
640.000	405.427	80.008	19.995	103.946	19.941	12.479	0.524
640.500	405.683	80.007	19.995	103.942	19.939	12.624	0.510
641.000	405.968	80.010	19.995	103.937	19.939	12.628	0.527
641.500	406.226	80.010	19.994	103.937	19.934	12.971	0.542
642.000	406.536	80.009	19.994	103.936	19.933	13.080	0.556
642.500	406.751	80.010	19.995	103.936	19.935	12.935	0.547
643.000	407.044	80.007	19.994	103.940	19.932	13.092	0.517
643.500	407.308	80.007	19.994	103.943	19.932	13.085	0.532
644.000	407.598	80.009	19.995	103.940	19.933	13.067	0.555
644.500	407.817	80.008	19.994	103.937	19.927	13.445	0.531
645.000	408.083	80.010	19.995	103.933	19.929	13.304	0.497
645.500	408.331	80.008	19.995	103.929	19.925	13.611	0.500
646.000	408.599	80.011	19.996	103.928	19.924	13.733	0.515
646.500	408.831	80.011	19.995	103.931	19.922	13.859	0.508
647.000	409.111	80.011	19.994	103.930	19.919	14.025	0.506
647.500	409.382	80.007	19.995	103.929	19.916	14.250	0.532
648.000	409.624	80.008	19.994	103.932	19.915	14.321	0.532
648.500	409.864	80.008	19.994	103.933	19.916	14.261	0.497
649.000	410.120	80.008	19.993	103.935	19.910	14.685	0.489
649.500	410.391	80.010	19.994	103.940	19.908	14.824	0.512
650.000	410.659	80.008	19.994	103.945	19.906	15.006	0.533
650.500	410.907	80.008	19.995	103.945	19.904	15.164	0.527
651.000	411.149	80.009	19.995	103.945	19.904	15.176	0.503
651.500	411.430	80.008	19.994	103.943	19.900	15.437	0.507
652.000	411.678	80.011	19.995	103.941	19.897	15.645	0.527
652.500	411.917	80.010	19.994	103.942	19.895	15.812	0.508
653.000	412.188	80.008	19.994	103.942	19.890	16.142	0.499
653.500	412.448	80.008	19.993	103.942	19.886	16.455	0.521
654.000	412.699	80.009	19.995	103.938	19.884	16.591	0.521
654.500	412.963	80.009	19.993	103.932	19.883	16.637	0.513
655.000	413.205	80.007	19.994	103.928	19.883	16.647	0.510
655.500	413.474	80.006	19.994	103.928	19.878	17.037	0.508
656.001	413.687	80.008	19.994	103.931	19.873	17.368	0.497
656.500	413.961	80.006	19.994	103.936	19.872	17.479	0.484
657.000	414.235	80.007	19.994	103.937	19.868	17.716	0.517
657.500	414.463	80.008	19.995	103.937	19.865	17.968	0.525
658.000	414.720	80.009	19.993	103.931	19.862	18.151	0.493
658.500	414.952	80.009	19.994	103.927	19.860	18.314	0.487
659.000	415.219	80.007	19.995	103.922	19.856	18.605	0.494
659.500	415.454	80.008	19.993	103.922	19.851	18.966	0.501
660.000	415.731	80.008	19.993	103.918	19.851	18.972	0.507
660.500	415.953	80.006	19.993	103.919	19.847	19.246	0.505
661.000	416.270	80.008	19.994	103.920	19.841	19.708	0.519
661.500	416.483	80.007	19.994	103.924	19.839	19.857	0.535
662.000	416.728	80.007	19.995	103.925	19.836	20.075	0.494
662.500	417.004	80.006	19.994	103.926	19.833	20.291	0.489
663.000	417.236	80.007	19.994	103.924	19.829	20.566	0.514
663.500	417.463	80.004	19.993	103.921	19.827	20.751	0.483
664.000	417.741	80.009	19.995	103.916	19.822	21.081	0.482
664.500	417.997	80.007	19.995	103.916	19.821	21.137	0.520
665.000	418.270	80.008	19.995	103.919	19.816	21.509	0.532
665.500	418.515	80.006	19.995	103.920	19.815	21.594	0.524
666.000	418.727	80.009	19.994	103.920	19.810	21.946	0.487
666.500	418.977	80.007	19.996	103.922	19.807	22.132	0.459
667.000	419.251	80.009	19.995	103.923	19.808	22.126	0.493
667.500	419.468	80.007	19.995	103.920	19.803	22.470	0.507
668.000	419.731	80.008	19.995	103.918	19.798	22.804	0.485
668.500	419.998	80.008	19.995	103.915	19.793	23.139	0.505
669.000	420.246	80.010	19.995	103.913	19.793	23.171	0.522
669.500	420.475	80.006	19.995	103.912	19.785	23.786	0.496
670.000	420.730	80.010	19.994	103.912	19.780	24.090	0.480
670.500	421.005	80.009	19.995	103.912	19.778	24.291	0.506
671.000	421.252	80.009	19.995	103.915	19.770	24.832	0.526
671.500	421.476	80.010	19.994	103.918	19.766	25.107	0.497
672.000	421.729	80.008	19.995	103.920	19.762	25.427	0.474
672.500	421.972	80.010	19.994	103.920	19.755	25.889	0.487
673.001	422.237	80.009	19.994	103.921	19.750	26.301	0.502
673.500	422.466	80.008	19.995	103.919	19.742	26.845	0.501
674.000	422.714	80.011	19.995	103.917	19.735	27.403	0.486
674.500	422.964	80.008	19.995	103.915	19.728	27.863	0.487
675.000	423.184	80.010	19.995	103.915	19.718	28.602	0.484
675.500	423.441	80.011	19.994	103.916	19.712	29.010	0.474
676.000	423.659	80.012	19.995	103.920	19.707	29.419	0.476
676.500	423.925	80.009	19.995	103.921	19.698	30.082	0.479
677.000	424.175	80.009	19.995	103.924	19.687	30.819	0.500
677.500	424.359	80.008	19.994	103.922	19.677	31.578	0.475
678.000	424.656	80.011	19.994	103.919	19.670	32.072	0.458
678.500	424.880	80.009	19.995	103.916	19.663	32.604	0.501
679.000	425.149	80.009	19.993	103.913	19.656	33.056	0.506
679.500	425.422	80.010	19.995	103.910	19.646	33.842	0.517
680.000	425.657	80.009	19.995	103.910	19.635	34.637	0.525
680.500	425.873	80.008	19.994	103.909	19.626	35.286	0.480
681.000	426.138	80.007	19.994	103.905	19.618	35.820	0.466
681.500	426.381	80.009	19.995	103.903	19.607	36.618	0.494
682.000	426.663	80.009	19.994	103.902	19.600	37.119	0.517
682.500	426.885	80.008	19.995	103.900	19.589	37.954	0.515
683.000	427.152	80.009	19.995	103.899	19.581	38.507	0.496
683.500	427.374	80.009	19.994	103.900	19.570	39.317	0.489
684.000	427.643	80.011	19.995	103.899	19.556	40.305	0.490
684.500	427.880	80.008	19.995	103.898	19.547	40.943	0.498
685.000	428.110	80.009	19.995	103.895	19.536	41.780	0.487
685.500	428.373	80.008	19.995	103.893	19.522	42.759	0.480
686.000	428.621	80.009	19.994	103.894	19.513	43.440	0.502
686.500	428.865	80.009	19.994	103.896	19.497	44.569	0.502
687.000	429.093	80.009	19.995	103.898	19.484	45.528	0.482
687.500	429.351	80.010	19.994	103.902	19.469	46.584	0.479
688.000	429.595	80.007	19.995	103.905	19.460	47.227	0.494
688.500	429.815	80.010	19.995	103.905	19.444	48.379	0.483
689.000	430.075	80.009	19.994	103.905	19.427	49.629	0.472
689.500	430.345	80.010	19.997	103.905	19.418	50.269	0.505
690.000	430.547	80.008	19.996	103.906	19.402	51.468	0.501
690.501	430.803	80.009	19.997	103.904	19.384	52.727	0.465
691.000	431.044	80.010	19.996	103.899	19.365	54.114	0.477
691.500	431.259	80.010	19.995	103.893	19.349	55.291	0.477
692.000	431.489	80.010	19.995	103.888	19.330	56.619	0.450
692.500	431.770	80.012	19.996	103.882	19.314	57.803	0.478
693.000	431.992	80.008	19.995	103.879	19.291	59.495	0.508
693.500	432.214	80.011	19.995	103.877	19.273	60.759	0.474
694.000	432.477	80.012	19.995	103.876	19.253	62.207	0.464
694.500	432.758	80.010	19.995	103.880	19.233	63.680	0.515
695.000	432.965	80.012	19.996	103.885	19.213	65.066	0.516
695.500	433.207	80.009	19.995	103.889	19.190	66.755	0.468
696.000	433.470	80.011	19.995	103.895	19.169	68.261	0.477
696.500	433.707	80.011	19.995	103.897	19.145	70.001	0.502
697.000	433.962	80.010	19.995	103.893	19.124	71.547	0.496
697.500	434.179	80.010	19.995	103.885	19.099	73.345	0.482
698.000	434.472	80.011	19.995	103.878	19.076	75.030	0.492
698.500	434.685	80.010	19.995	103.870	19.052	76.726	0.508
699.000	434.937	80.009	19.995	103.866	19.027	78.519	0.485
699.500	435.199	80.010	19.995	103.866	19.000	80.493	0.490
700.000	435.426	80.011	19.996	103.866	18.973	82.440	0.502
700.500	435.652	80.010	19.995	103.863	18.946	84.374	0.471
701.000	435.914	80.011	19.995	103.860	18.919	86.320	0.471
701.501	436.147	80.011	19.995	103.855	18.893	88.246	0.491
702.000	436.406	80.011	19.995	103.854	18.865	90.240	0.493
702.500	436.649	80.012	19.994	103.854	18.836	92.305	0.497
703.000	436.872	80.011	19.995	103.856	18.811	94.095	0.484
703.500	437.129	80.012	19.995	103.859	18.781	96.282	0.473
704.000	437.354	80.010	19.995	103.863	18.755	98.159	0.481
704.500	437.600	80.009	19.995	103.861	18.721	100.600	0.476
705.001	437.858	80.009	19.994	103.854	18.689	102.901	0.488
705.500	438.096	80.007	19.995	103.843	18.661	104.909	0.500
706.000	438.373	80.009	19.997	103.829	18.628	107.318	0.506
706.500	438.587	80.009	19.997	103.815	18.598	109.461	0.503
707.000	438.844	80.008	19.997	103.806	18.566	111.783	0.481
707.500	439.102	80.010	19.996	103.805	18.532	114.205	0.493
708.001	439.314	80.008	19.996	103.808	18.499	116.624	0.493
708.501	439.587	80.009	19.995	103.816	18.464	119.122	0.478
709.000	439.834	80.007	19.994	103.824	18.430	121.618	0.502
709.500	440.094	80.007	19.995	103.827	18.395	124.075	0.513
710.000	440.319	80.009	19.994	103.830	18.357	126.823	0.496
710.501	440.577	80.009	19.995	103.830	18.321	129.392	0.484
711.001	440.837	80.009	19.995	103.826	18.285	132.003	0.501
711.500	441.072	80.009	19.995	103.819	18.244	134.979	0.507
712.000	441.316	80.010	19.995	103.812	18.207	137.614	0.487
712.500	441.584	80.008	19.994	103.804	18.167	140.494	0.495
713.000	441.816	80.010	19.995	103.796	18.128	143.342	0.506
713.500	442.071	80.008	19.994	103.789	18.085	146.451	0.493
714.000	442.308	80.010	19.994	103.784	18.043	149.446	0.490
714.500	442.579	80.008	19.995	103.776	18.000	152.512	0.500
715.000	442.826	80.009	19.993	103.770	17.960	155.456	0.513
715.500	443.060	80.007	19.994	103.764	17.914	158.750	0.499
716.000	443.352	80.010	19.994	103.759	17.869	161.941	0.503
716.500	443.547	80.008	19.994	103.754	17.823	165.249	0.506
717.000	443.816	80.008	19.995	103.748	17.777	168.535	0.475
717.500	444.057	80.008	19.994	103.741	17.733	171.713	0.487
718.000	444.270	80.008	19.995	103.741	17.685	175.150	0.482
718.500	444.536	80.008	19.995	103.737	17.635	178.762	0.466
719.000	444.785	80.011	19.994	103.732	17.585	182.323	0.497
719.500	444.989	80.008	19.994	103.729	17.540	185.590	0.485
720.000	445.305	80.007	19.993	103.723	17.488	189.281	0.487
720.500	445.537	80.007	19.995	103.708	17.433	193.275	0.534
721.000	445.790	80.008	19.995	103.697	17.377	197.286	0.517
721.500	446.017	80.008	19.994	103.688	17.319	201.437	0.483
722.000	446.264	80.008	19.995	103.673	17.261	205.590	0.477
722.500	446.497	80.009	19.993	103.665	17.204	209.671	0.477
723.000	446.769	80.006	19.994	103.668	17.147	213.790	0.493
723.501	447.018	80.008	19.993	103.662	17.087	218.059	0.513
724.001	447.300	80.007	19.994	103.662	17.028	222.271	0.526
724.500	447.557	80.008	19.994	103.669	16.969	226.526	0.535
725.000	447.758	80.007	19.995	103.667	16.907	231.015	0.499
725.500	448.021	80.010	19.994	103.651	16.848	235.343	0.461
726.000	448.290	80.009	19.994	103.644	16.787	239.684	0.498
726.500	448.540	80.009	19.995	103.632	16.724	244.237	0.525
727.000	448.812	80.008	19.995	103.617	16.659	248.802	0.521
727.500	449.045	80.009	19.993	103.606	16.598	253.123	0.514
728.000	449.316	80.008	19.996	103.598	16.534	257.642	0.505
728.500	449.594	80.009	19.994	103.590	16.467	262.398	0.526
729.000	449.818	80.008	19.994	103.580	16.400	267.165	0.525
729.500	450.086	80.007	19.994	103.571	16.334	271.870	0.497
730.000	450.315	80.008	19.993	103.565	16.272	276.391	0.495
730.500	450.538	80.008	19.994	103.554	16.204	281.273	0.474
731.000	450.792	80.009	19.993	103.542	16.140	285.900	0.464
731.500	451.034	80.007	19.996	103.530	16.079	290.394	0.486
732.000	451.303	80.007	19.995	103.535	16.012	295.208	0.504
732.500	451.521	80.007	19.995	103.529	15.941	300.339	0.499
733.000	451.805	80.010	19.994	103.511	15.869	305.403	0.494
733.500	452.053	80.008	19.994	103.502	15.801	310.140	0.517
734.000	452.258	80.008	19.995	103.490	15.726	315.401	0.493
734.500	452.521	80.008	19.994	103.461	15.658	320.115	0.461
735.000	452.776	80.008	19.994	103.458	15.588	325.059	0.493
735.500	453.028	80.008	19.995	103.465	15.523	329.721	0.512
736.000	453.291	80.008	19.995	103.471	15.452	334.960	0.511
736.500	453.566	80.009	19.994	103.483	15.387	339.668	0.526
737.000	453.791	80.007	19.994	103.479	15.317	344.741	0.519
737.500	454.019	80.008	19.995	103.462	15.245	349.932	0.477
738.000	454.249	80.009	19.995	103.438	15.169	355.124	0.456
738.500	454.509	80.009	19.995	103.398	15.087	360.691	0.474
739.000	454.781	80.008	19.994	103.363	15.003	366.414	0.511
739.500	455.015	80.009	19.995	103.341	14.914	372.446	0.519
740.000	455.278	80.009	19.995	103.316	14.828	378.377	0.502
740.500	455.516	80.008	19.994	103.308	14.734	384.934	0.499
741.000	455.754	80.008	19.994	103.315	14.643	391.405	0.488
741.500	455.988	80.009	19.993	103.321	14.557	397.498	0.474
742.000	456.229	80.010	19.995	103.333	14.470	403.768	0.473
742.500	456.477	80.007	19.994	103.353	14.383	410.205	0.482
743.000	456.727	80.009	19.994	103.362	14.297	416.538	0.493
743.500	456.969	80.010	19.996	103.354	14.209	423.100	0.495
744.000	457.201	80.009	19.994	103.325	14.116	430.028	0.483
744.500	457.400	80.009	19.994	103.278	14.013	437.554	0.453
745.000	457.640	80.009	19.995	103.222	13.913	444.842	0.435
745.500	457.892	80.009	19.994	103.176	13.815	451.902	0.465
746.000	458.140	80.008	19.995	103.141	13.720	458.689	0.496
746.500	458.384	80.008	19.995	103.153	13.633	464.879	0.496
747.000	458.657	80.008	19.995	103.179	13.551	470.506	0.505
747.500	458.942	80.009	19.994	103.198	13.479	475.338	0.538
748.000	459.140	80.009	19.995	103.216	13.407	480.140	0.521
748.500	459.411	80.009	19.995	103.210	13.338	484.559	0.476
749.000	459.650	80.010	19.993	103.137	13.269	488.912	0.489
749.500	459.858	80.009	19.997	103.042	13.197	493.468	0.478
750.000	460.089	80.010	19.995	102.960	13.123	498.300	0.443
750.500	460.323	80.008	19.996	102.864	13.051	503.112	0.452
751.000	460.560	80.009	19.995	102.790	12.972	508.627	0.468
751.500	460.786	80.009	19.994	102.759	12.892	514.586	0.467
752.000	461.018	80.010	19.995	102.747	12.807	521.108	0.461
752.500	461.282	80.011	19.995	102.734	12.718	528.035	0.477
753.000	461.490	80.009	19.995	102.745	12.628	535.097	0.483
753.500	461.764	80.010	19.995	102.788	12.539	542.031	0.477
754.000	461.989	80.010	19.995	102.840	12.455	548.518	0.491
754.500	462.235	80.012	19.993	102.895	12.368	555.111	0.485
755.000	462.464	80.011	19.994	102.953	12.282	561.302	0.473
755.500	462.732	80.010	19.994	102.995	12.206	566.802	0.486
756.000	462.960	80.010	19.994	103.017	12.131	572.140	0.497
756.500	463.136	80.010	19.994	103.026	12.065	576.725	0.450
757.000	463.449	80.010	19.994	103.026	12.014	580.213	0.446
757.500	463.635	80.010	19.994	103.002	11.971	583.082	0.494
758.000	463.858	80.010	19.993	102.954	11.940	585.004	0.454
758.500	464.103	80.010	19.994	102.889	11.917	586.394	0.438
759.000	464.345	80.010	19.994	102.803	11.894	587.666	0.477
759.500	464.600	80.010	19.994	102.696	11.875	588.810	0.492
760.000	464.830	80.011	19.994	102.570	11.843	590.983	0.491
760.500	465.066	80.011	19.995	102.452	11.805	593.490	0.475
761.000	465.323	80.010	19.995	102.354	11.768	596.058	0.480
761.500	465.530	80.011	19.994	102.290	11.731	598.749	0.479
762.000	465.771	80.010	19.994	102.274	11.694	601.436	0.456
762.500	466.024	80.011	19.995	102.317	11.664	603.603	0.471
763.000	466.242	80.010	19.995	102.409	11.632	605.927	0.483
763.500	466.501	80.010	19.995	102.530	11.599	608.416	0.474
764.000	466.729	80.011	19.995	102.651	11.563	611.087	0.482
764.500	466.977	80.009	19.996	102.757	11.534	613.340	0.482
765.000	467.258	80.011	19.994	102.849	11.507	615.412	0.503
765.500	467.512	80.010	19.996	102.907	11.478	617.648	0.532
766.000	467.737	80.010	19.996	102.924	11.454	619.520	0.507
766.500	467.975	80.007	19.995	102.928	11.436	620.928	0.471
767.000	468.199	80.010	19.995	102.919	11.417	622.338	0.463
767.500	468.474	80.008	19.995	102.897	11.399	623.638	0.481
768.000	468.696	80.009	19.995	102.863	11.389	624.377	0.498
768.500	468.974	80.009	19.995	102.824	11.379	625.091	0.499
769.000	469.183	80.010	19.995	102.780	11.373	625.452	0.493
769.500	469.433	80.010	19.995	102.730	11.376	625.184	0.473
770.000	469.692	80.008	19.995	102.671	11.384	624.571	0.484
770.500	469.961	80.010	19.995	102.633	11.392	623.963	0.518
771.000	470.238	80.008	19.996	102.606	11.403	623.099	0.537
771.500	470.495	80.010	19.994	102.572	11.414	622.278	0.540
772.000	470.702	80.009	19.994	102.560	11.428	621.304	0.499
772.500	470.932	80.009	19.996	102.567	11.441	620.463	0.451
773.000	471.195	80.010	19.996	102.570	11.459	619.336	0.466
773.500	471.445	80.010	19.996	102.574	11.477	618.188	0.503
774.000	471.715	80.009	19.995	102.591	11.501	616.663	0.516
774.500	471.938	80.010	19.995	102.609	11.521	615.386	0.506
775.000	472.199	80.011	19.995	102.630	11.551	613.348	0.488
775.500	472.420	80.011	19.995	102.652	11.579	611.464	0.483
776.000	472.669	80.010	19.995	102.678	11.610	609.372	0.476
776.500	472.941	80.011	19.994	102.706	11.647	606.838	0.495
777.000	473.186	80.011	19.995	102.730	11.689	603.926	0.519
777.500	473.478	80.011	19.994	102.749	11.732	600.899	0.527
778.000	473.680	80.011	19.994	102.764	11.783	597.272	0.515
778.500	473.931	80.010	19.995	102.767	11.837	593.208	0.474
779.000	474.224	80.011	19.996	102.761	11.893	589.071	0.498
779.500	474.486	80.011	19.995	102.761	11.954	584.626	0.549
780.000	474.748	80.011	19.994	102.758	12.020	579.842	0.540
780.500	474.980	80.011	19.995	102.748	12.084	575.261	0.509
781.000	475.246	80.010	19.995	102.740	12.150	570.715	0.496
781.500	475.510	80.011	19.994	102.732	12.223	565.607	0.514
782.000	475.756	80.013	19.993	102.717	12.295	560.556	0.521
782.500	475.986	80.012	19.993	102.712	12.369	555.361	0.493
783.000	476.273	80.011	19.995	102.718	12.452	549.580	0.496
783.500	476.492	80.011	19.996	102.734	12.535	543.882	0.511
784.000	476.746	80.013	19.994	102.756	12.620	538.079	0.489
784.500	477.036	80.012	19.995	102.786	12.706	532.185	0.508
785.000	477.281	80.012	19.995	102.811	12.800	525.762	0.540
785.500	477.550	80.011	19.994	102.836	12.893	519.388	0.525
786.000	477.826	80.012	19.995	102.859	12.992	512.480	0.530
786.500	478.090	80.011	19.995	102.880	13.098	505.122	0.542
787.000	478.308	80.011	19.996	102.899	13.205	497.623	0.511
787.500	478.598	80.010	19.994	102.917	13.320	489.502	0.495
788.000	478.849	80.010	19.994	102.935	13.443	480.838	0.525
788.500	479.068	80.011	19.994	102.950	13.573	471.547	0.505
789.000	479.349	80.010	19.995	102.948	13.705	462.144	0.485
789.500	479.613	80.011	19.994	102.918	13.840	452.465	0.523
790.000	479.909	80.008	19.994	102.901	13.977	442.651	0.553
790.500	480.162	80.009	19.994	102.885	14.119	432.512	0.555
791.000	480.395	80.009	19.996	102.873	14.262	422.222	0.517
791.500	480.629	80.009	19.995	102.878	14.403	412.105	0.476
792.001	480.900	80.009	19.996	102.908	14.550	401.516	0.486
792.500	481.188	80.009	19.994	102.927	14.693	391.258	0.532
793.000	481.391	80.008	19.995	102.947	14.841	380.633	0.525
793.500	481.697	80.009	19.996	102.978	14.985	370.281	0.500
794.000	481.965	80.009	19.996	103.009	15.130	359.863	0.541
794.500	482.215	80.008	19.994	103.058	15.271	349.730	0.546
795.000	482.478	80.008	19.995	103.107	15.414	339.442	0.515
795.500	482.728	80.007	19.995	103.170	15.552	329.498	0.513
796.000	482.991	80.009	19.995	103.228	15.694	319.320	0.513
796.500	483.245	80.008	19.995	103.290	15.830	309.493	0.515
797.000	483.501	80.009	19.995	103.339	15.962	299.992	0.514
797.500	483.755	80.007	19.994	103.395	16.096	290.313	0.510
798.000	484.030	80.009	19.995	103.435	16.226	280.987	0.520
798.500	484.275	80.009	19.995	103.472	16.352	271.880	0.525
799.000	484.562	80.008	19.995	103.504	16.481	262.599	0.526
799.500	484.802	80.008	19.997	103.529	16.602	253.860	0.529
800.000	485.072	80.009	19.995	103.551	16.725	245.001	0.518
800.500	485.325	80.007	19.995	103.571	16.844	236.394	0.516
801.000	485.615	80.008	19.994	103.587	16.960	228.031	0.533
801.501	485.862	80.010	19.996	103.600	17.077	219.587	0.540
802.001	486.192	80.008	19.995	103.615	17.185	211.772	0.557
802.500	486.409	80.009	19.994	103.628	17.290	204.194	0.562
803.000	486.646	80.010	19.995	103.642	17.394	196.680	0.501
803.501	486.915	80.008	19.996	103.655	17.493	189.540	0.480
804.001	487.197	80.008	19.994	103.671	17.593	182.309	0.528
804.501	487.447	80.009	19.995	103.685	17.686	175.586	0.541
805.000	487.699	80.010	19.994	103.696	17.784	168.508	0.517
805.500	487.990	80.010	19.994	103.713	17.872	162.155	0.523
806.000	488.241	80.010	19.995	103.727	17.961	155.763	0.542
806.500	488.501	80.010	19.996	103.738	18.042	149.888	0.527
807.000	488.738	80.008	19.995	103.752	18.127	143.715	0.504
807.500	489.040	80.010	19.996	103.765	18.205	138.117	0.518
808.000	489.302	80.010	19.994	103.773	18.281	132.555	0.551
808.500	489.505	80.011	19.995	103.781	18.356	127.153	0.515
809.000	489.815	80.010	19.993	103.787	18.429	121.910	0.489
809.500	490.022	80.010	19.996	103.792	18.501	116.668	0.515
810.000	490.300	80.011	19.996	103.799	18.570	111.668	0.501
810.500	490.589	80.009	19.996	103.808	18.633	107.125	0.526
811.000	490.778	80.010	19.996	103.816	18.696	102.582	0.523
811.500	491.086	80.009	19.994	103.824	18.759	98.002	0.488
812.000	491.357	80.010	19.996	103.835	18.822	93.463	0.538
812.500	491.595	80.009	19.995	103.842	18.876	89.532	0.543
813.000	491.834	80.011	19.996	103.850	18.933	85.462	0.493
813.500	492.122	80.010	19.994	103.857	18.984	81.714	0.503
814.000	492.396	80.010	19.995	103.865	19.037	77.875	0.545
814.500	492.662	80.010	19.995	103.869	19.086	74.374	0.550
815.000	492.901	80.009	19.995	103.877	19.135	70.800	0.522
815.500	493.163	80.010	19.995	103.882	19.183	67.365	0.503
816.000	493.400	80.010	19.994	103.887	19.227	64.138	0.500
816.500	493.672	80.010	19.994	103.893	19.272	60.901	0.505
817.000	493.950	80.010	19.994	103.899	19.316	57.747	0.530
817.500	494.189	80.011	19.995	103.899	19.354	54.997	0.534
818.000	494.514	80.009	19.994	103.902	19.392	52.222	0.540
818.500	494.738	80.011	19.995	103.905	19.429	49.545	0.556
819.000	495.010	80.010	19.994	103.905	19.466	46.840	0.522
819.500	495.271	80.010	19.995	103.907	19.505	44.023	0.515
820.000	495.536	80.011	19.995	103.907	19.538	41.662	0.530
820.500	495.781	80.009	19.994	103.907	19.571	39.243	0.518
821.000	496.056	80.010	19.995	103.907	19.605	36.789	0.515
821.500	496.293	80.010	19.994	103.911	19.630	35.015	0.516
822.000	496.553	80.010	19.995	103.913	19.660	32.813	0.504
822.500	496.809	80.009	19.995	103.916	19.684	31.061	0.507
823.000	497.060	80.010	19.994	103.922	19.708	29.306	0.512
823.500	497.359	80.009	19.994	103.930	19.737	27.215	0.529
824.000	497.597	80.009	19.996	103.934	19.756	25.882	0.544
824.500	497.855	80.009	19.995	103.940	19.778	24.230	0.517
825.000	498.141	80.010	19.995	103.945	19.797	22.920	0.520
825.500	498.364	80.009	19.995	103.947	19.819	21.296	0.526
826.000	498.577	80.010	19.994	103.947	19.837	19.977	0.473
826.500	498.887	80.010	19.995	103.950	19.851	18.976	0.479
827.000	499.172	80.008	19.996	103.954	19.868	17.763	0.559
827.500	499.370	80.008	19.995	103.958	19.880	16.900	0.539
828.000	499.635	80.008	19.994	103.961	19.897	15.660	0.473
828.500	499.924	80.008	19.994	103.962	19.909	14.759	0.509
829.000	500.148	80.009	19.995	103.959	19.919	14.041	0.534
829.500	500.412	80.009	19.996	103.960	19.930	13.234	0.500
830.000	500.692	80.008	19.995	103.957	19.939	12.584	0.516
830.500	500.942	80.010	19.995	103.954	19.950	11.792	0.537
831.000	501.182	80.009	19.996	103.953	19.959	11.148	0.510
831.500	501.460	80.010	19.994	103.953	19.966	10.636	0.504
832.000	501.684	80.010	19.995	103.947	19.974	10.089	0.510
832.500	501.982	80.008	19.995	103.946	19.982	9.489	0.512
833.000	502.251	80.009	19.994	103.945	19.982	9.494	0.545
833.500	502.461	80.010	19.994	103.940	19.988	9.021	0.523
834.000	502.784	80.008	19.994	103.933	19.995	8.518	0.506
834.500	503.015	80.010	19.995	103.930	20.001	8.082	0.544
835.000	503.259	80.010	19.994	103.927	20.004	7.906	0.514
835.500	503.538	80.010	19.994	103.922	20.010	7.447	0.499
836.000	503.740	80.010	19.995	103.919	20.012	7.301	0.502
836.500	504.021	80.010	19.995	103.923	20.014	7.183	0.482
837.000	504.295	80.009	19.993	103.921	20.018	6.896	0.519
837.500	504.482	80.011	19.994	103.917	20.020	6.716	0.508
838.000	504.790	80.011	19.994	103.913	20.027	6.229	0.478
838.500	505.004	80.011	19.994	103.911	20.029	6.075	0.509
839.000	505.317	80.009	19.994	103.901	20.029	6.050	0.524
839.500	505.566	80.010	19.994	103.895	20.034	5.728	0.544
840.000	505.843	80.011	19.995	103.887	20.034	5.716	0.544
840.500	506.065	80.011	19.995	103.880	20.037	5.528	0.513
841.000	506.326	80.011	19.994	103.872	20.036	5.555	0.491
841.500	506.591	80.010	19.995	103.863	20.038	5.420	0.504
842.000	506.842	80.011	19.993	103.852	20.039	5.372	0.521
842.500	507.119	80.009	19.995	103.843	20.041	5.247	0.522
843.000	507.390	80.010	19.995	103.829	20.044	5.027	0.538
843.500	507.621	80.010	19.994	103.816	20.041	5.258	0.525
844.000	507.880	80.010	19.993	103.802	20.041	5.207	0.496
844.500	508.139	80.010	19.994	103.784	20.039	5.396	0.504
845.000	508.397	80.010	19.992	103.763	20.047	4.827	0.518
845.500	508.668	80.010	19.994	103.742	20.047	4.776	0.523
846.000	508.925	80.011	19.994	103.719	20.042	5.154	0.528
846.500	509.218	80.010	19.995	103.700	20.048	4.732	0.539
847.000	509.431	80.010	19.993	103.684	20.044	4.992	0.528
847.500	509.705	80.011	19.994	103.671	20.046	4.874	0.496
848.000	509.936	80.010	19.994	103.666	20.046	4.849	0.496
848.500	510.197	80.010	19.993	103.667	20.048	4.730	0.499
849.000	510.475	80.009	19.994	103.669	20.051	4.497	0.516
849.500	510.755	80.011	19.994	103.679	20.050	4.574	0.549
850.000	511.022	80.008	19.993	103.693	20.050	4.586	0.552
850.500	511.277	80.009	19.994	103.709	20.050	4.604	0.534
851.000	511.514	80.009	19.994	103.728	20.049	4.644	0.507
851.500	511.756	80.009	19.995	103.749	20.050	4.586	0.486
852.000	512.011	80.009	19.994	103.766	20.050	4.610	0.488
852.500	512.244	80.009	19.993	103.787	20.049	4.684	0.492
853.000	512.556	80.009	19.994	103.803	20.052	4.441	0.516
853.500	512.783	80.010	19.993	103.816	20.049	4.628	0.542
854.000	513.018	80.009	19.994	103.827	20.050	4.555	0.500
854.500	513.275	80.009	19.993	103.841	20.047	4.814	0.477
855.001	513.567	80.009	19.993	103.849	20.052	4.465	0.521
855.500	513.815	80.009	19.994	103.856	20.056	4.155	0.544
856.000	514.103	80.011	19.995	103.864	20.054	4.276	0.538
856.500	514.346	80.010	19.994	103.869	20.050	4.551	0.533
857.000	514.620	80.009	19.995	103.874	20.055	4.183	0.524
857.500	514.875	80.010	19.994	103.880	20.054	4.264	0.523
858.000	515.136	80.010	19.994	103.887	20.052	4.423	0.522
858.500	515.387	80.010	19.993	103.894	20.052	4.457	0.514
859.001	515.650	80.009	19.994	103.900	20.051	4.519	0.513
859.500	515.909	80.010	19.995	103.904	20.052	4.434	0.518
860.000	516.130	80.009	19.994	103.906	20.052	4.448	0.501
860.500	516.432	80.010	19.994	103.907	20.051	4.532	0.502
861.000	516.636	80.010	19.994	103.907	20.052	4.464	0.514
861.500	516.928	80.008	19.994	103.907	20.054	4.286	0.501
862.000	517.168	80.010	19.995	103.909	20.056	4.161	0.514
862.501	517.437	80.011	19.994	103.909	20.055	4.183	0.521
863.000	517.706	80.010	19.994	103.909	20.053	4.350	0.524
863.500	517.984	80.010	19.995	103.910	20.055	4.189	0.542
864.000	518.211	80.011	19.995	103.910	20.055	4.243	0.526
864.500	518.431	80.010	19.995	103.910	20.058	3.998	0.476
865.000	518.716	80.009	19.995	103.910	20.058	4.018	0.476
865.500	518.951	80.011	19.994	103.911	20.056	4.117	0.512
866.000	519.231	80.010	19.993	103.914	20.057	4.055	0.518
866.500	519.475	80.010	19.994	103.920	20.056	4.153	0.520
867.000	519.698	80.010	19.994	103.923	20.055	4.213	0.496
867.500	519.986	80.010	19.994	103.924	20.055	4.217	0.489
868.000	520.235	80.011	19.995	103.922	20.054	4.291	0.524
868.500	520.495	80.009	19.995	103.921	20.057	4.104	0.523
869.000	520.753	80.009	19.994	103.915	20.056	4.151	0.513
869.500	520.980	80.009	19.995	103.915	20.058	4.014	0.502
870.000	521.229	80.011	19.995	103.922	20.059	3.926	0.481
870.500	521.503	80.010	19.995	103.927	20.060	3.876	0.500
871.000	521.739	80.010	19.994	103.928	20.056	4.137	0.516
871.500	522.030	80.011	19.995	103.933	20.057	4.071	0.518
872.000	522.242	80.010	19.995	103.934	20.057	4.041	0.515
872.500	522.495	80.010	19.994	103.928	20.057	4.099	0.484
873.000	522.744	80.008	19.995	103.927	20.056	4.165	0.484
873.500	523.013	80.009	19.994	103.930	20.057	4.069	0.510
874.000	523.226	80.010	19.995	103.930	20.059	3.942	0.500
874.500	523.505	80.009	19.995	103.926	20.061	3.812	0.487
875.000	523.747	80.009	19.995	103.928	20.059	3.956	0.506
875.500	524.002	80.010	19.996	103.926	20.059	3.910	0.509
876.000	524.271	80.008	19.993	103.927	20.056	4.167	0.511
876.500	524.493	80.008	19.994	103.925	20.053	4.330	0.508
877.000	524.719	80.007	19.994	103.929	20.059	3.959	0.470
877.500	525.007	80.008	19.994	103.931	20.059	3.933	0.481
878.000	525.259	80.008	19.995	103.935	20.061	3.760	0.527
878.500	525.509	80.009	19.995	103.935	20.060	3.824	0.521
879.000	525.754	80.010	19.994	103.940	20.058	4.009	0.499
879.500	526.009	80.008	19.996	103.940	20.060	3.874	0.497
880.000	526.262	80.010	19.995	103.936	20.059	3.937	0.504
880.500	526.486	80.009	19.994	103.931	20.060	3.848	0.493
881.000	526.766	80.009	19.995	103.928	20.057	4.045	0.491
881.500	526.987	80.009	19.996	103.924	20.058	3.993	0.503
882.000	527.270	80.009	19.994	103.923	20.060	3.888	0.502
882.500	527.518	80.009	19.996	103.927	20.056	4.143	0.518
883.000	527.752	80.008	19.995	103.926	20.057	4.063	0.507
883.500	528.024	80.009	19.995	103.923	20.064	3.579	0.494
884.000	528.237	80.010	19.995	103.924	20.060	3.850	0.495
884.500	528.501	80.008	19.995	103.926	20.055	4.220	0.480
885.000	528.758	80.009	19.995	103.922	20.056	4.141	0.499
885.500	529.013	80.008	19.995	103.926	20.061	3.804	0.517
886.000	529.254	80.008	19.994	103.930	20.059	3.904	0.504
886.500	529.494	80.008	19.994	103.926	20.057	4.067	0.489
887.000	529.725	80.009	19.996	103.922	20.056	4.176	0.476
887.500	529.997	80.009	19.995	103.919	20.058	4.011	0.487
888.000	530.255	80.006	19.994	103.915	20.059	3.905	0.516
888.500	530.491	80.009	19.996	103.911	20.058	3.971	0.512
889.000	530.761	80.007	19.996	103.910	20.059	3.921	0.500
889.500	530.992	80.007	19.995	103.913	20.058	3.973	0.504
890.000	531.203	80.009	19.996	103.916	20.059	3.911	0.471
890.500	531.480	80.008	19.995	103.916	20.060	3.887	0.465
891.000	531.700	80.008	19.995	103.916	20.062	3.720	0.493
891.500	531.988	80.008	19.996	103.917	20.056	4.116	0.503
892.000	532.206	80.009	19.996	103.916	20.058	3.993	0.507
892.500	532.496	80.008	19.995	103.919	20.059	3.913	0.507
893.000	532.745	80.008	19.995	103.919	20.061	3.768	0.524
893.500	532.963	80.008	19.996	103.920	20.061	3.796	0.503
894.000	533.229	80.007	19.995	103.919	20.061	3.768	0.475
894.500	533.434	80.008	19.996	103.916	20.062	3.694	0.477
895.000	533.699	80.009	19.995	103.913	20.060	3.881	0.470
895.501	533.945	80.008	19.996	103.916	20.061	3.808	0.491
896.000	534.206	80.010	19.995	103.915	20.060	3.851	0.509
896.500	534.430	80.008	19.996	103.914	20.060	3.881	0.496
897.000	534.705	80.008	19.995	103.913	20.057	4.061	0.492
897.500	534.950	80.010	19.996	103.912	20.060	3.836	0.510
898.000	535.218	80.009	19.996	103.908	20.060	3.860	0.517
898.500	535.500	80.009	19.996	103.908	20.060	3.824	0.531
899.000	535.707	80.010	19.994	103.907	20.059	3.949	0.520
899.500	535.959	80.009	19.996	103.906	20.057	4.101	0.474
900.000	536.183	80.009	19.996	103.906	20.057	4.069	0.467
900.500	536.464	80.009	19.995	103.906	20.058	3.963	0.491
901.000	536.685	80.009	19.996	103.906	20.058	3.961	0.504
901.500	536.934	80.009	19.996	103.905	20.060	3.836	0.486
902.000	537.188	80.008	19.996	103.905	20.057	4.081	0.486
902.500	537.420	80.008	19.996	103.901	20.060	3.866	0.494
903.000	537.672	80.008	19.995	103.899	20.058	3.991	0.485
903.500	537.944	80.009	19.994	103.899	20.060	3.864	0.504
904.000	538.204	80.010	19.995	103.901	20.059	3.943	0.528
904.500	538.498	80.008	19.995	103.902	20.056	4.134	0.543
905.000	538.674	80.008	19.994	103.906	20.060	3.818	0.512
905.500	538.940	80.008	19.994	103.908	20.059	3.935	0.456
906.000	539.165	80.008	19.995	103.908	20.061	3.766	0.466
906.500	539.480	80.009	19.995	103.907	20.055	4.202	0.516
907.000	539.705	80.008	19.994	103.907	20.056	4.156	0.541
907.500	539.950	80.008	19.994	103.907	20.057	4.035	0.505
908.000	540.198	80.006	19.993	103.907	20.055	4.212	0.481
908.500	540.440	80.007	19.995	103.908	20.055	4.190	0.491
909.000	540.708	80.009	19.995	103.909	20.058	3.967	0.500
909.500	540.974	80.009	19.994	103.910	20.055	4.188	0.522
910.000	541.182	80.009	19.995	103.910	20.054	4.302	0.504
910.500	541.432	80.009	19.995	103.911	20.057	4.097	0.466
911.000	541.697	80.009	19.995	103.911	20.057	4.091	0.487
911.500	541.970	80.008	19.994	103.911	20.058	4.031	0.527
912.000	542.183	80.008	19.994	103.910	20.056	4.164	0.512
912.500	542.482	80.007	19.994	103.910	20.058	4.011	0.499
913.000	542.748	80.008	19.994	103.910	20.057	4.073	0.538
913.500	542.950	80.008	19.994	103.911	20.057	4.061	0.516
914.000	543.201	80.009	19.994	103.911	20.058	4.025	0.460
914.500	543.479	80.008	19.994	103.912	20.058	4.021	0.491
915.000	543.691	80.009	19.995	103.912	20.058	4.005	0.510
915.500	543.938	80.009	19.994	103.912	20.057	4.051	0.475
916.000	544.219	80.009	19.995	103.911	20.058	4.018	0.494
916.500	544.440	80.009	19.994	103.911	20.056	4.137	0.515
917.000	544.755	80.009	19.994	103.912	20.058	3.976	0.519
917.500	544.976	80.010	19.994	103.911	20.055	4.182	0.536
918.000	545.220	80.010	19.994	103.911	20.060	3.889	0.500
918.500	545.471	80.008	19.995	103.911	20.060	3.875	0.480
919.000	545.721	80.010	19.994	103.911	20.060	3.873	0.498
919.500	545.977	80.010	19.994	103.911	20.060	3.863	0.504
920.000	546.233	80.009	19.994	103.915	20.059	3.941	0.510
920.500	546.436	80.010	19.994	103.915	20.058	3.973	0.486
921.000	546.697	80.011	19.993	103.915	20.058	4.016	0.461
921.500	546.958	80.010	19.994	103.914	20.058	3.976	0.493
922.000	547.196	80.012	19.994	103.914	20.058	4.022	0.511
922.500	547.428	80.010	19.994	103.910	20.053	4.327	0.484
923.000	547.729	80.011	19.994	103.911	20.058	4.028	0.501
923.501	547.954	80.011	19.994	103.911	20.061	3.801	0.529
924.000	548.213	80.011	19.995	103.912	20.056	4.110	0.505
924.500	548.469	80.009	19.994	103.912	20.058	4.002	0.500
925.001	548.713	80.009	19.994	103.913	20.060	3.867	0.508
925.501	548.983	80.009	19.994	103.914	20.058	3.972	0.507
926.000	549.214	80.009	19.994	103.917	20.063	3.648	0.507
926.500	549.434	80.010	19.993	103.923	20.060	3.835	0.476
927.000	549.707	80.009	19.996	103.930	20.059	3.933	0.473
927.500	549.965	80.009	19.994	103.936	20.062	3.727	0.512
928.000	550.230	80.008	19.994	103.943	20.063	3.664	0.526
928.500	550.487	80.009	19.994	103.947	20.060	3.819	0.522
929.000	550.724	80.008	19.993	103.949	20.057	4.084	0.508
929.500	550.993	80.008	19.995	103.949	20.060	3.885	0.500
930.000	551.202	80.009	19.996	103.950	20.062	3.705	0.492
930.500	551.526	80.009	19.995	103.951	20.062	3.707	0.506
931.000	551.745	80.009	19.996	103.949	20.060	3.823	0.538
931.500	551.979	80.008	19.995	103.947	20.058	3.978	0.498
932.000	552.251	80.009	19.996	103.946	20.063	3.661	0.480
932.500	552.514	80.009	19.993	103.946	20.059	3.892	0.520
933.000	552.769	80.009	19.995	103.946	20.059	3.890	0.527
933.500	552.994	80.009	19.994	103.947	20.061	3.793	0.499
934.000	553.283	80.009	19.995	103.949	20.058	3.968	0.497
934.500	553.552	80.009	19.995	103.950	20.063	3.643	0.536
935.000	553.795	80.008	19.995	103.949	20.062	3.720	0.535
935.500	554.083	80.010	19.995	103.949	20.061	3.812	0.521
936.000	554.320	80.009	19.994	103.948	20.059	3.940	0.528
936.500	554.595	80.010	19.995	103.947	20.058	3.993	0.519
937.000	554.906	80.009	19.994	103.945	20.060	3.850	0.550
937.500	555.132	80.009	19.995	103.944	20.060	3.876	0.562
938.000	555.382	80.010	19.994	103.944	20.058	3.989	0.506
938.500	555.665	80.010	19.995	103.945	20.060	3.882	0.504
939.000	555.915	80.010	19.994	103.945	20.056	4.121	0.533
939.500	556.174	80.010	19.994	103.946	20.056	4.157	0.521
940.000	556.426	80.011	19.994	103.946	20.059	3.922	0.510
940.500	556.703	80.011	19.994	103.945	20.058	4.022	0.520
941.000	556.966	80.011	19.994	103.945	20.057	4.050	0.534
941.500	557.217	80.010	19.993	103.941	20.061	3.815	0.527
942.000	557.498	80.011	19.993	103.939	20.059	3.926	0.523
942.500	557.733	80.012	19.993	103.940	20.057	4.060	0.524
943.000	557.979	80.013	19.994	103.940	20.058	3.990	0.498
943.501	558.264	80.012	19.993	103.937	20.061	3.804	0.506
944.000	558.562	80.011	19.994	103.937	20.061	3.770	0.557
944.501	558.781	80.011	19.995	103.933	20.058	3.971	0.550
945.001	559.066	80.010	19.993	103.926	20.060	3.882	0.510
945.500	559.327	80.012	19.994	103.920	20.059	3.890	0.525
946.000	559.574	80.011	19.994	103.918	20.058	4.021	0.527
946.500	559.857	80.011	19.993	103.917	20.058	4.031	0.519
947.000	560.114	80.011	19.993	103.922	20.060	3.864	0.535
947.500	560.375	80.012	19.994	103.923	20.058	4.005	0.529
948.000	560.642	80.012	19.993	103.922	20.058	3.981	0.523
948.500	560.889	80.012	19.993	103.922	20.058	3.967	0.521
949.000	561.122	80.012	19.993	103.922	20.058	4.019	0.497
949.500	561.412	80.011	19.993	103.920	20.060	3.834	0.501
950.000	561.665	80.012	19.994	103.922	20.056	4.134	0.533
950.500	561.952	80.012	19.994	103.929	20.057	4.101	0.542
951.000	562.208	80.012	19.994	103.932	20.059	3.945	0.541
951.500	562.441	80.011	19.994	103.934	20.059	3.931	0.516
952.000	562.734	80.010	19.993	103.937	20.059	3.929	0.508
952.500	562.943	80.010	19.993	103.939	20.060	3.846	0.514
953.000	563.236	80.012	19.995	103.936	20.057	4.059	0.502
953.500	563.458	80.009	19.995	103.930	20.062	3.678	0.508
954.000	563.720	80.011	19.995	103.926	20.060	3.887	0.499
954.500	564.012	80.009	19.994	103.920	20.059	3.927	0.519
955.000	564.283	80.010	19.994	103.917	20.058	3.999	0.559
955.500	564.544	80.009	19.995	103.916	20.057	4.037	0.548
956.000	564.796	80.009	19.993	103.921	20.063	3.636	0.523
956.500	565.041	80.008	19.995	103.920	20.058	3.997	0.505
957.000	565.308	80.010	19.995	103.922	20.059	3.907	0.504
957.500	565.571	80.009	19.995	103.917	20.057	4.063	0.521
958.000	565.809	80.009	19.995	103.916	20.055	4.184	0.515
958.500	566.070	80.009	19.995	103.910	20.057	4.098	0.500
959.000	566.358	80.009	19.996	103.911	20.058	3.999	0.524
959.500	566.593	80.009	19.995	103.910	20.059	3.951	0.536
960.000	566.837	80.009	19.996	103.910	20.059	3.953	0.501
960.500	567.119	80.009	19.995	103.910	20.061	3.770	0.503
961.000	567.347	80.008	19.995	103.911	20.057	4.041	0.518
961.500	567.662	80.010	19.995	103.910	20.059	3.933	0.526
962.001	567.866	80.009	19.995	103.909	20.057	4.047	0.530
962.500	568.111	80.008	19.995	103.909	20.059	3.937	0.484
963.000	568.385	80.008	19.994	103.908	20.058	4.001	0.484
963.500	568.640	80.009	19.995	103.907	20.060	3.879	0.524
964.000	568.893	80.008	19.995	103.907	20.061	3.784	0.518
964.500	569.144	80.009	19.995	103.909	20.062	3.718	0.506
965.000	569.390	80.009	19.996	103.909	20.063	3.647	0.501
965.500	569.703	80.008	19.995	103.909	20.058	3.967	0.528
966.000	569.959	80.009	19.995	103.909	20.062	3.677	0.564
966.500	570.208	80.009	19.995	103.907	20.062	3.702	0.537
967.000	570.476	80.009	19.995	103.906	20.059	3.901	0.511
967.500	570.713	80.009	19.995	103.906	20.061	3.758	0.511
968.000	570.962	80.009	19.994	103.907	20.060	3.856	0.496
968.500	571.202	80.009	19.995	103.907	20.058	3.993	0.488
969.000	571.458	80.009	19.995	103.908	20.058	3.985	0.492
969.500	571.734	80.009	19.995	103.909	20.060	3.840	0.514
970.000	571.973	80.010	19.995	103.909	20.061	3.754	0.524
970.500	572.205	80.009	19.995	103.909	20.059	3.909	0.493
971.000	572.477	80.009	19.995	103.908	20.062	3.718	0.488
971.500	572.722	80.010	19.994	103.908	20.060	3.848	0.511
972.000	572.976	80.010	19.995	103.908	20.061	3.798	0.508
972.500	573.235	80.009	19.994	103.908	20.057	4.069	0.506
973.000	573.448	80.009	19.995	103.908	20.056	4.158	0.493
973.500	573.753	80.010	19.996	103.909	20.054	4.266	0.495
974.000	574.019	80.009	19.995	103.909	20.056	4.150	0.545
974.500	574.294	80.008	19.995	103.909	20.060	3.856	0.556
975.000	574.517	80.009	19.995	103.910	20.061	3.802	0.519
975.500	574.781	80.010	19.995	103.912	20.056	4.149	0.493
976.000	575.027	80.009	19.993	103.915	20.061	3.781	0.499
976.500	575.309	80.009	19.994	103.915	20.059	3.890	0.519
977.000	575.544	80.008	19.995	103.915	20.062	3.673	0.523
977.500	575.776	80.009	19.994	103.915	20.062	3.697	0.492
978.000	576.061	80.009	19.994	103.913	20.059	3.900	0.492
978.500	576.324	80.009	19.995	103.911	20.061	3.810	0.532
979.000	576.560	80.009	19.995	103.911	20.060	3.834	0.524
979.500	576.808	80.009	19.995	103.913	20.060	3.860	0.492
980.000	577.065	80.010	19.995	103.914	20.059	3.908	0.494
980.500	577.304	80.009	19.995	103.914	20.056	4.119	0.501
981.000	577.535	80.009	19.993	103.914	20.060	3.820	0.483
981.500	577.811	80.009	19.995	103.913	20.058	3.961	0.489
982.000	578.069	80.009	19.995	103.912	20.055	4.178	0.521
982.500	578.290	80.009	19.995	103.910	20.060	3.882	0.506
983.000	578.546	80.009	19.995	103.910	20.056	4.176	0.478
983.500	578.811	80.009	19.995	103.909	20.056	4.107	0.499
984.000	579.031	80.009	19.994	103.910	20.061	3.776	0.503
984.500	579.317	80.009	19.995	103.909	20.062	3.736	0.495
985.000	579.573	80.008	19.995	103.909	20.060	3.868	0.524
985.500	579.766	80.008	19.995	103.913	20.062	3.724	0.495
986.000	580.064	80.008	19.995	103.918	20.061	3.798	0.470
986.500	580.298	80.008	19.995	103.924	20.057	4.099	0.512
987.000	580.543	80.009	19.995	103.931	20.062	3.714	0.506
987.500	580.783	80.008	19.995	103.937	20.060	3.826	0.482
988.000	581.047	80.008	19.995	103.937	20.063	3.635	0.495
988.500	581.302	80.007	19.996	103.933	20.062	3.702	0.512
989.000	581.551	80.006	19.994	103.927	20.058	3.969	0.511
989.500	581.816	80.007	19.997	103.923	20.055	4.190	0.509
990.000	582.057	80.007	19.998	103.922	20.058	4.017	0.510
990.500	582.326	80.007	19.997	103.919	20.061	3.792	0.508
991.000	582.555	80.008	19.997	103.921	20.061	3.790	0.504
991.500	582.805	80.007	19.996	103.924	20.061	3.796	0.489
992.000	583.080	80.007	19.996	103.923	20.061	3.770	0.502
992.500	583.299	80.006	19.996	103.918	20.057	4.079	0.509
993.000	583.563	80.007	19.997	103.916	20.062	3.686	0.489
993.500	583.802	80.006	19.996	103.914	20.060	3.832	0.493
994.000	584.042	80.007	19.995	103.911	20.061	3.794	0.491
994.500	584.276	80.007	19.996	103.911	20.060	3.842	0.476
995.000	584.514	80.007	19.996	103.911	20.061	3.752	0.473
995.500	584.792	80.008	19.995	103.911	20.057	4.098	0.494
996.000	585.035	80.007	19.995	103.911	20.057	4.075	0.519
996.500	585.295	80.009	19.995	103.911	20.062	3.696	0.512
997.000	585.530	80.008	19.995	103.911	20.062	3.740	0.499
997.500	585.792	80.009	19.995	103.911	20.058	4.033	0.496
998.001	586.063	80.008	19.994	103.911	20.061	3.810	0.515
998.500	586.332	80.008	19.995	103.912	20.060	3.842	0.537
999.000	586.565	80.010	19.995	103.914	20.060	3.877	0.521
999.500	586.843	80.009	19.994	103.917	20.059	3.903	0.506
1000.000	587.052	80.009	19.995	103.917	20.058	3.963	0.499
1000.500	587.329	80.009	19.993	103.916	20.061	3.796	0.487
1001.000	587.586	80.010	19.993	103.916	20.057	4.051	0.510
1001.500	587.804	80.011	19.995	103.913	20.058	3.965	0.505
1002.000	588.081	80.011	19.995	103.909	20.060	3.856	0.485
1002.500	588.329	80.010	19.994	103.909	20.060	3.886	0.510
1003.000	588.556	80.011	19.994	103.908	20.061	3.770	0.500
1003.500	588.832	80.010	19.994	103.908	20.058	3.985	0.489
1004.000	589.096	80.010	19.994	103.907	20.060	3.844	0.522
1004.500	589.291	80.011	19.995	103.908	20.061	3.756	0.500
1005.000	589.552	80.010	19.994	103.908	20.058	3.981	0.457
1005.500	589.827	80.010	19.993	103.908	20.057	4.067	0.496
1006.000	590.048	80.010	19.994	103.908	20.059	3.920	0.516
1006.500	590.335	80.011	19.994	103.908	20.058	4.019	0.502
1007.000	590.593	80.010	19.994	103.907	20.057	4.087	0.527
1007.500	590.798	80.010	19.993	103.907	20.059	3.951	0.504
1008.000	591.083	80.010	19.995	103.907	20.057	4.099	0.476
1008.500	591.331	80.011	19.994	103.908	20.061	3.778	0.511
1009.000	591.574	80.010	19.995	103.908	20.057	4.037	0.512
1009.500	591.816	80.011	19.995	103.909	20.057	4.045	0.488
1010.000	592.073	80.009	19.992	103.910	20.059	3.901	0.492
1010.500	592.352	80.010	19.994	103.910	20.060	3.865	0.517
1011.000	592.598	80.011	19.995	103.910	20.059	3.897	0.531
1011.500	592.858	80.011	19.994	103.913	20.060	3.846	0.516
1012.000	593.107	80.010	19.994	103.913	20.060	3.865	0.507
1012.500	593.372	80.009	19.994	103.912	20.057	4.043	0.511
1013.000	593.609	80.010	19.996	103.912	20.058	3.961	0.508
1013.500	593.888	80.010	19.994	103.912	20.055	4.192	0.510
1014.000	594.186	80.011	19.994	103.909	20.059	3.929	0.547
1014.500	594.410	80.010	19.993	103.908	20.058	3.983	0.549
1015.000	594.654	80.010	19.994	103.910	20.057	4.081	0.495
1015.500	594.913	80.010	19.994	103.914	20.057	4.089	0.485
1016.000	595.192	80.011	19.995	103.917	20.056	4.108	0.520
1016.500	595.423	80.010	19.995	103.917	20.056	4.118	0.524
1017.000	595.669	80.011	19.994	103.916	20.057	4.037	0.494
1017.500	595.933	80.011	19.995	103.914	20.057	4.045	0.494
1018.000	596.219	80.009	19.995	103.911	20.058	3.965	0.530
1018.500	596.409	80.009	19.994	103.909	20.060	3.861	0.513
1019.000	596.682	80.010	19.994	103.912	20.059	3.919	0.470
1019.500	596.947	80.010	19.994	103.913	20.056	4.108	0.501
1020.000	597.184	80.012	19.995	103.912	20.054	4.288	0.520
1020.500	597.443	80.010	19.994	103.912	20.056	4.106	0.499
1021.000	597.695	80.010	19.995	103.911	20.057	4.035	0.503
1021.500	597.936	80.009	19.996	103.908	20.059	3.929	0.502
1022.000	598.207	80.009	19.994	103.907	20.061	3.810	0.502
1022.500	598.430	80.011	19.995	103.908	20.062	3.712	0.502
1023.000	598.703	80.011	19.995	103.908	20.060	3.843	0.495
1023.500	598.964	80.011	19.993	103.910	20.058	3.979	0.515
1024.000	599.220	80.010	19.994	103.912	20.056	4.164	0.525
1024.500	599.439	80.012	19.994	103.914	20.056	4.137	0.496
1025.000	599.689	80.010	19.995	103.914	20.058	4.009	0.472
1025.500	599.973	80.011	19.994	103.913	20.056	4.113	0.502
1026.000	600.175	80.012	19.994	103.912	20.058	3.989	0.510
1026.500	600.460	80.013	19.995	103.910	20.058	3.964	0.486
1027.001	600.712	80.012	19.994	103.909	20.055	4.216	0.512
1027.501	600.968	80.013	19.995	103.908	20.056	4.141	0.523
1028.000	601.236	80.012	19.994	103.908	20.058	4.015	0.516
1028.501	601.489	80.013	19.995	103.909	20.060	3.878	0.523
1029.001	601.708	80.011	19.994	103.909	20.061	3.802	0.497
1029.501	601.978	80.012	19.994	103.907	20.059	3.936	0.480
1030.000	602.237	80.013	19.994	103.907	20.061	3.812	0.509
1030.500	602.500	80.013	19.993	103.907	20.058	4.014	0.525
1031.000	602.727	80.013	19.994	103.905	20.058	3.972	0.506
1031.500	602.982	80.012	19.994	103.906	20.058	4.033	0.486
1032.000	603.245	80.012	19.994	103.906	20.056	4.143	0.500
1032.500	603.493	80.012	19.993	103.907	20.060	3.874	0.515
1033.000	603.751	80.012	19.995	103.906	20.058	3.981	0.508
1033.500	604.016	80.011	19.993	103.907	20.059	3.952	0.514
1034.000	604.273	80.012	19.994	103.906	20.060	3.884	0.523
1034.500	604.545	80.012	19.994	103.907	20.061	3.794	0.526
1035.000	604.759	80.010	19.994	103.911	20.061	3.794	0.507
1035.500	605.045	80.010	19.994	103.915	20.063	3.669	0.493
1036.000	605.341	80.011	19.993	103.919	20.062	3.729	0.541
1036.501	605.587	80.010	19.994	103.920	20.059	3.920	0.562
1037.001	605.810	80.011	19.994	103.922	20.058	3.976	0.505
1037.501	606.081	80.010	19.994	103.922	20.063	3.615	0.482
1038.001	606.310	80.011	19.993	103.920	20.064	3.564	0.497
1038.501	606.591	80.010	19.994	103.917	20.063	3.665	0.505
1039.000	606.827	80.009	19.993	103.921	20.059	3.916	0.514
1039.500	607.091	80.009	19.995	103.921	20.062	3.715	0.508
1040.000	607.339	80.009	19.994	103.922	20.060	3.883	0.506
1040.500	607.615	80.009	19.994	103.927	20.060	3.887	0.518
1041.000	607.866	80.011	19.994	103.930	20.060	3.841	0.526
1041.500	608.147	80.010	19.994	103.926	20.054	4.271	0.530
1042.001	608.366	80.010	19.993	103.925	20.062	3.729	0.516
1042.501	608.642	80.009	19.993	103.922	20.059	3.960	0.497
1043.000	608.928	80.010	19.995	103.918	20.056	4.127	0.528
1043.500	609.204	80.009	19.994	103.919	20.058	3.982	0.562
1044.000	609.428	80.010	19.994	103.921	20.058	4.014	0.532
1044.500	609.692	80.010	19.994	103.921	20.058	3.972	0.494
1045.001	609.939	80.009	19.994	103.925	20.059	3.932	0.499
1045.501	610.223	80.010	19.993	103.928	20.063	3.637	0.521
1046.000	610.441	80.009	19.994	103.928	20.057	4.036	0.517
1046.501	610.721	80.010	19.993	103.928	20.061	3.773	0.500
1047.001	610.957	80.009	19.995	103.929	20.058	4.008	0.507
1047.500	611.252	80.010	19.994	103.928	20.055	4.249	0.524
1048.000	611.472	80.009	19.994	103.927	20.057	4.084	0.523
1048.500	611.781	80.010	19.995	103.928	20.059	3.923	0.522
1049.000	611.983	80.009	19.992	103.931	20.057	4.064	0.520
1049.500	612.281	80.010	19.996	103.935	20.055	4.219	0.506
1050.000	612.538	80.008	19.996	103.939	20.056	4.108	0.527
1050.500	612.812	80.009	19.995	103.941	20.056	4.122	0.542
1051.001	613.061	80.009	19.994	103.940	20.056	4.148	0.527
1051.501	613.320	80.010	19.996	103.939	20.057	4.092	0.516
1052.000	613.577	80.009	19.996	103.939	20.059	3.908	0.512
1052.500	613.871	80.008	19.995	103.937	20.058	3.986	0.533
1053.001	614.095	80.009	19.995	103.935	20.056	4.147	0.535
1053.501	614.370	80.010	19.996	103.937	20.059	3.944	0.508
1054.001	614.612	80.010	19.995	103.936	20.061	3.778	0.508
1054.500	614.893	80.009	19.995	103.935	20.060	3.858	0.520
1055.000	615.110	80.010	19.994	103.937	20.064	3.591	0.510
1055.500	615.385	80.009	19.995	103.937	20.059	3.922	0.495
1056.000	615.644	80.010	19.995	103.932	20.059	3.902	0.513
1056.500	615.872	80.008	19.994	103.935	20.060	3.856	0.510
1057.000	616.164	80.009	19.994	103.937	20.059	3.932	0.504
1057.500	616.409	80.009	19.995	103.937	20.057	4.065	0.529
1058.000	616.701	80.009	19.993	103.940	20.057	4.071	0.537
1058.500	616.932	80.008	19.994	103.944	20.058	4.026	0.530
1059.000	617.242	80.009	19.995	103.944	20.057	4.061	0.532
1059.500	617.418	80.010	19.994	103.943	20.057	4.101	0.513
1060.000	617.677	80.009	19.994	103.943	20.059	3.934	0.461
1060.500	617.990	80.010	19.995	103.941	20.058	4.009	0.503
1061.000	618.196	80.008	19.996	103.943	20.057	4.037	0.545
1061.500	618.460	80.008	19.993	103.945	20.057	4.047	0.494
1062.001	618.721	80.008	19.995	103.944	20.055	4.182	0.498
1062.501	618.993	80.010	19.995	103.941	20.060	3.860	0.530
1063.000	619.233	80.008	19.995	103.939	20.056	4.137	0.523
1063.500	619.512	80.009	19.995	103.937	20.058	3.982	0.515
1064.000	619.773	80.009	19.995	103.934	20.055	4.239	0.529
1064.501	620.043	80.009	19.994	103.928	20.054	4.291	0.535
1065.001	620.274	80.009	19.994	103.925	20.055	4.187	0.516
1065.500	620.521	80.009	19.995	103.927	20.059	3.898	0.490
1066.001	620.825	80.009	19.994	103.925	20.059	3.918	0.514
1066.501	621.088	80.008	19.995	103.925	20.054	4.288	0.559
1067.000	621.290	80.009	19.995	103.924	20.058	4.033	0.516
1067.501	621.576	80.008	19.995	103.925	20.056	4.129	0.477
1068.001	621.839	80.008	19.995	103.927	20.062	3.701	0.518
1068.500	622.145	80.009	19.995	103.929	20.060	3.856	0.559
1069.000	622.412	80.009	19.996	103.926	20.059	3.924	0.571
1069.500	622.678	80.008	19.995	103.929	20.059	3.944	0.553
1070.000	622.903	80.008	19.995	103.929	20.056	4.129	0.512
1070.500	623.145	80.009	19.995	103.924	20.058	3.964	0.479
1071.000	623.414	80.010	19.995	103.919	20.057	4.087	0.489
1071.501	623.665	80.010	19.996	103.919	20.062	3.723	0.515
1072.001	623.896	80.009	19.995	103.916	20.055	4.235	0.501
1072.500	624.194	80.008	19.995	103.916	20.057	4.079	0.505
1073.000	624.441	80.010	19.996	103.915	20.053	4.328	0.537
1073.500	624.716	80.008	19.995	103.915	20.057	4.097	0.534
1074.000	624.929	80.008	19.996	103.921	20.058	3.992	0.505
1074.500	625.198	80.007	19.995	103.928	20.058	3.992	0.485
1075.000	625.445	80.008	19.995	103.931	20.058	4.020	0.499
1075.500	625.734	80.010	19.994	103.933	20.054	4.269	0.526
1076.000	625.991	80.007	19.995	103.936	20.056	4.159	0.541
1076.500	626.235	80.010	19.996	103.930	20.057	4.068	0.524
1077.001	626.488	80.009	19.996	103.925	20.056	4.137	0.500
1077.501	626.757	80.007	19.996	103.923	20.054	4.275	0.510
1078.000	626.982	80.008	19.996	103.924	20.056	4.163	0.508
1078.500	627.294	80.008	19.994	103.924	20.055	4.241	0.515
1079.000	627.521	80.009	19.996	103.927	20.060	3.866	0.538
1079.500	627.780	80.009	19.997	103.927	20.054	4.257	0.512
1080.001	628.020	80.009	19.995	103.928	20.055	4.245	0.493
1080.501	628.327	80.009	19.995	103.925	20.053	4.366	0.524
1081.001	628.555	80.009	19.995	103.921	20.059	3.926	0.541
1081.500	628.854	80.008	19.996	103.923	20.058	4.028	0.531
1082.000	629.082	80.010	19.996	103.926	20.055	4.223	0.527
1082.500	629.346	80.009	19.997	103.926	20.054	4.301	0.510
1083.000	629.598	80.010	19.996	103.926	20.056	4.145	0.504
1083.501	629.830	80.010	19.995	103.928	20.054	4.279	0.500
1084.001	630.094	80.010	19.995	103.925	20.057	4.043	0.490
1084.500	630.342	80.007	19.994	103.926	20.057	4.047	0.504
1085.000	630.639	80.009	19.995	103.926	20.058	3.966	0.529
1085.500	630.874	80.009	19.996	103.929	20.055	4.234	0.539
1086.001	631.158	80.008	19.995	103.930	20.051	4.476	0.526
1086.501	631.401	80.010	19.995	103.930	20.056	4.157	0.523
1087.001	631.588	80.010	19.996	103.931	20.059	3.894	0.479
1087.501	631.881	80.010	19.995	103.935	20.052	4.420	0.455
1088.000	632.132	80.010	19.994	103.934	20.055	4.196	0.512
1088.500	632.414	80.010	19.996	103.932	20.052	4.460	0.538
1089.000	632.621	80.011	19.996	103.935	20.057	4.106	0.511
1089.500	632.911	80.010	19.995	103.936	20.055	4.247	0.493
1090.000	633.164	80.011	19.995	103.934	20.056	4.114	0.520
1090.500	633.419	80.012	19.995	103.936	20.055	4.205	0.526
1091.000	633.641	80.010	19.995	103.937	20.050	4.557	0.493
1091.500	633.921	80.010	19.995	103.933	20.057	4.103	0.489
1092.000	634.190	80.010	19.994	103.932	20.059	3.958	0.525
1092.500	634.446	80.012	19.994	103.933	20.056	4.173	0.537
1093.000	634.711	80.010	19.994	103.930	20.055	4.235	0.523
1093.500	634.950	80.010	19.995	103.930	20.054	4.297	0.512
1094.000	635.219	80.010	19.995	103.932	20.051	4.516	0.506
1094.501	635.453	80.011	19.995	103.931	20.057	4.068	0.505
1095.001	635.734	80.011	19.995	103.928	20.051	4.502	0.509
1095.500	636.008	80.010	19.994	103.927	20.054	4.277	0.535
1096.000	636.238	80.009	19.994	103.923	20.057	4.076	0.529
1096.500	636.484	80.010	19.994	103.921	20.054	4.311	0.490
1097.000	636.732	80.011	19.994	103.924	20.055	4.181	0.485
1097.500	637.020	80.009	19.994	103.928	20.056	4.163	0.516
1098.000	637.253	80.010	19.995	103.933	20.051	4.512	0.529
1098.500	637.497	80.010	19.994	103.940	20.053	4.355	0.499
1099.000	637.781	80.010	19.995	103.944	20.051	4.476	0.502
1099.500	638.000	80.010	19.994	103.945	20.059	3.913	0.515
1100.000	638.295	80.009	19.995	103.944	20.055	4.201	0.509
1100.500	638.505	80.009	19.995	103.942	20.056	4.171	0.510
1101.000	638.788	80.012	19.994	103.940	20.053	4.380	0.499
1101.500	639.033	80.009	19.993	103.935	20.054	4.322	0.510
1102.000	639.266	80.009	19.995	103.930	20.053	4.378	0.503
1102.500	639.506	80.010	19.995	103.929	20.054	4.319	0.476
1103.000	639.800	80.010	19.994	103.930	20.054	4.281	0.503
1103.500	640.048	80.010	19.994	103.933	20.056	4.172	0.537
1104.000	640.268	80.010	19.995	103.935	20.057	4.086	0.505
1104.500	640.551	80.011	19.994	103.940	20.054	4.277	0.486
1105.000	640.820	80.010	19.994	103.940	20.053	4.351	0.527
1105.500	641.066	80.010	19.994	103.935	20.053	4.328	0.533
1106.000	641.316	80.011	19.994	103.929	20.059	3.950	0.506
1106.500	641.536	80.011	19.995	103.931	20.052	4.446	0.483
1107.000	641.812	80.010	19.995	103.932	20.056	4.157	0.483
1107.500	642.079	80.011	19.994	103.933	20.056	4.132	0.520
1108.001	642.313	80.012	19.994	103.935	20.053	4.363	0.522
1108.501	642.568	80.012	19.995	103.940	20.056	4.110	0.495
1109.000	642.821	80.010	19.993	103.941	20.055	4.239	0.499
1109.500	643.085	80.012	19.995	103.942	20.057	4.074	0.512
1110.000	643.294	80.012	19.995	103.943	20.050	4.542	0.495
1110.500	643.581	80.012	19.994	103.945	20.051	4.514	0.484
1111.000	643.849	80.013	19.995	103.939	20.054	4.265	0.525
1111.500	644.085	80.011	19.995	103.932	20.052	4.440	0.530
1112.000	644.317	80.011	19.993	103.929	20.053	4.365	0.486
1112.500	644.590	80.013	19.994	103.929	20.054	4.307	0.487
1113.000	644.818	80.013	19.993	103.930	20.055	4.221	0.503
1113.501	645.086	80.012	19.995	103.934	20.054	4.279	0.498
1114.001	645.294	80.011	19.994	103.941	20.055	4.179	0.486
1114.500	645.582	80.012	19.994	103.944	20.054	4.279	0.486
1115.000	645.854	80.011	19.994	103.943	20.050	4.546	0.527
1115.500	646.053	80.012	19.994	103.938	20.052	4.430	0.515
1116.000	646.323	80.010	19.994	103.935	20.052	4.400	0.470
1116.500	646.591	80.011	19.994	103.929	20.054	4.323	0.504
1117.000	646.834	80.010	19.994	103.929	20.051	4.524	0.525
1117.500	647.076	80.012	19.995	103.931	20.050	4.556	0.498
1118.000	647.321	80.010	19.993	103.937	20.053	4.393	0.486
1118.500	647.592	80.010	19.993	103.939	20.051	4.540	0.502
1119.000	647.842	80.010	19.994	103.938	20.048	4.727	0.518
1119.500	648.081	80.011	19.994	103.936	20.050	4.572	0.505
1120.000	648.336	80.010	19.995	103.935	20.050	4.592	0.491
1120.500	648.581	80.009	19.994	103.934	20.056	4.136	0.497
1121.000	648.838	80.010	19.994	103.937	20.052	4.417	0.501
1121.500	649.095	80.008	19.994	103.943	20.048	4.720	0.508
1122.000	649.334	80.009	19.993	103.942	20.055	4.228	0.505
1122.500	649.583	80.009	19.995	103.940	20.053	4.371	0.492
1123.000	649.859	80.010	19.995	103.938	20.053	4.327	0.506
1123.500	650.087	80.009	19.996	103.932	20.050	4.594	0.515
1124.000	650.376	80.010	19.993	103.927	20.051	4.506	0.511
1124.500	650.594	80.008	19.995	103.931	20.054	4.252	0.511
1125.000	650.864	80.009	19.995	103.932	20.053	4.378	0.497
1125.501	651.103	80.010	19.996	103.932	20.051	4.513	0.498
1126.001	651.392	80.008	19.995	103.937	20.053	4.330	0.518
1126.500	651.636	80.008	19.994	103.940	20.049	4.647	0.531
1127.000	651.879	80.009	19.994	103.939	20.053	4.362	0.510
1127.500	652.129	80.008	19.995	103.940	20.055	4.223	0.490
1128.000	652.377	80.009	19.995	103.942	20.055	4.231	0.495
1128.500	652.601	80.009	19.994	103.942	20.049	4.615	0.485
1129.000	652.830	80.008	19.994	103.943	20.052	4.418	0.463
1129.500	653.126	80.008	19.994	103.942	20.053	4.370	0.489
1130.000	653.342	80.008	19.994	103.940	20.054	4.268	0.518
1130.500	653.617	80.009	19.995	103.936	20.054	4.254	0.502
1131.000	653.875	80.010	19.993	103.938	20.052	4.420	0.512
1131.500	654.129	80.009	19.994	103.938	20.056	4.119	0.523
1132.001	654.389	80.010	19.995	103.943	20.051	4.540	0.513
1132.501	654.609	80.010	19.995	103.946	20.055	4.227	0.497
1133.000	654.890	80.008	19.994	103.951	20.056	4.161	0.491
1133.500	655.106	80.011	19.994	103.952	20.056	4.109	0.499
1134.000	655.374	80.009	19.993	103.945	20.055	4.249	0.491
1134.501	655.655	80.010	19.995	103.934	20.054	4.320	0.516
1135.001	655.905	80.009	19.995	103.930	20.054	4.293	0.540
1135.501	656.140	80.010	19.994	103.925	20.055	4.239	0.508
1136.001	656.362	80.011	19.994	103.921	20.057	4.079	0.471
1136.501	656.679	80.010	19.994	103.921	20.056	4.129	0.498
1137.000	656.922	80.009	19.994	103.922	20.055	4.196	0.549
1137.500	657.141	80.009	19.994	103.922	20.057	4.075	0.511
1138.000	657.415	80.011	19.996	103.921	20.051	4.474	0.478
1138.500	657.667	80.011	19.995	103.925	20.053	4.352	0.510
1139.000	657.911	80.010	19.994	103.930	20.052	4.416	0.511
1139.500	658.161	80.011	19.995	103.931	20.054	4.271	0.495
1140.000	658.449	80.010	19.995	103.929	20.055	4.209	0.516
1140.500	658.692	80.009	19.994	103.928	20.050	4.568	0.534
1141.000	658.944	80.011	19.994	103.923	20.056	4.128	0.512
1141.500	659.214	80.012	19.995	103.921	20.057	4.042	0.508
1142.000	659.458	80.008	19.995	103.926	20.054	4.265	0.518
1142.500	659.669	80.010	19.995	103.932	20.057	4.059	0.485
1143.000	659.971	80.011	19.994	103.934	20.054	4.282	0.484
1143.500	660.188	80.010	19.995	103.935	20.058	4.013	0.516
1144.000	660.468	80.009	19.995	103.936	20.056	4.121	0.508
1144.500	660.766	80.012	19.995	103.934	20.056	4.109	0.537
1145.001	661.002	80.009	19.994	103.930	20.053	4.388	0.556
1145.501	661.232	80.013	19.995	103.930	20.056	4.109	0.500
1146.001	661.474	80.010	19.995	103.930	20.057	4.042	0.469
1146.501	661.761	80.009	19.995	103.926	20.057	4.064	0.501
1147.001	662.030	80.009	19.996	103.921	20.052	4.416	0.543
1147.501	662.253	80.010	19.995	103.918	20.056	4.135	0.524
1148.000	662.496	80.009	19.995	103.918	20.060	3.835	0.479
1148.500	662.758	80.009	19.994	103.919	20.058	4.026	0.486
1149.000	663.005	80.009	19.994	103.924	20.058	4.009	0.507
1149.500	663.259	80.006	19.994	103.929	20.059	3.932	0.505
1150.000	663.521	80.010	19.996	103.936	20.059	3.918	0.508
1150.500	663.764	80.010	19.995	103.941	20.055	4.187	0.510
1151.000	664.006	80.007	19.995	103.944	20.059	3.918	0.495
1151.500	664.297	80.008	19.994	103.945	20.053	4.354	0.510
1152.000	664.533	80.010	19.996	103.943	20.056	4.121	0.530
1152.500	664.737	80.010	19.994	103.935	20.057	4.081	0.484
1153.001	665.015	80.008	19.997	103.931	20.052	4.464	0.461
1153.501	665.263	80.009	19.995	103.926	20.054	4.290	0.503
1154.000	665.531	80.008	19.995	103.924	20.052	4.440	0.521
1154.501	665.743	80.008	19.995	103.924	20.056	4.119	0.498
1155.001	666.024	80.008	19.995	103.930	20.055	4.219	0.487
1155.500	666.286	80.010	19.995	103.933	20.057	4.081	0.518
1156.000	666.572	80.009	19.994	103.937	20.055	4.203	0.546
1156.500	666.785	80.009	19.995	103.933	20.054	4.287	0.524
1157.000	667.005	80.008	19.995	103.934	20.056	4.141	0.466
1157.500	667.284	80.008	19.995	103.936	20.056	4.114	0.466
1158.000	667.547	80.010	19.995	103.934	20.052	4.420	0.521
1158.500	667.737	80.009	19.995	103.934	20.052	4.436	0.498
1159.001	667.988	80.009	19.996	103.933	20.056	4.148	0.446
1159.501	668.290	80.009	19.994	103.927	20.054	4.297	0.497
1160.000	668.538	80.007	19.995	103.921	20.054	4.257	0.551
1160.500	668.762	80.009	19.996	103.920	20.055	4.192	0.511
1161.000	669.029	80.009	19.995	103.917	20.053	4.375	0.482
1161.500	669.291	80.009	19.994	103.920	20.051	4.532	0.510
1162.000	669.559	80.008	19.995	103.924	20.052	4.448	0.529
1162.500	669.796	80.009	19.995	103.929	20.053	4.375	0.517
1163.000	670.036	80.009	19.995	103.929	20.051	4.538	0.491
1163.500	670.320	80.009	19.995	103.930	20.055	4.217	0.500
1164.000	670.565	80.009	19.995	103.927	20.053	4.353	0.527
1164.501	670.810	80.009	19.995	103.926	20.055	4.201	0.510
1165.001	671.063	80.011	19.994	103.923	20.052	4.424	0.494
1165.500	671.315	80.009	19.995	103.925	20.056	4.129	0.501
1166.000	671.498	80.010	19.995	103.926	20.050	4.605	0.470
1166.500	671.803	80.010	19.995	103.927	20.049	4.685	0.461
1167.000	672.044	80.009	19.994	103.928	20.052	4.422	0.517
1167.500	672.285	80.010	19.994	103.931	20.049	4.623	0.515
1168.000	672.530	80.012	19.995	103.931	20.051	4.509	0.484
1168.500	672.828	80.011	19.994	103.936	20.052	4.456	0.514
1169.000	673.083	80.008	19.994	103.940	20.051	4.539	0.547
1169.500	673.296	80.009	19.997	103.942	20.050	4.589	0.510
1170.000	673.574	80.011	19.997	103.944	20.048	4.695	0.479
1170.500	673.797	80.010	19.996	103.945	20.048	4.719	0.496
1171.000	674.070	80.010	19.995	103.944	20.048	4.689	0.499
1171.500	674.306	80.010	19.996	103.944	20.050	4.559	0.502
1172.000	674.573	80.010	19.995	103.944	20.049	4.675	0.506
1172.500	674.818	80.010	19.996	103.941	20.051	4.498	0.507
1173.000	675.126	80.010	19.995	103.938	20.052	4.454	0.533
1173.500	675.363	80.009	19.996	103.937	20.054	4.273	0.549
1174.000	675.614	80.011	19.995	103.938	20.053	4.390	0.516
1174.500	675.887	80.010	19.996	103.937	20.050	4.569	0.505
1175.000	676.110	80.010	19.995	103.937	20.050	4.573	0.510
1175.500	676.373	80.009	19.995	103.939	20.051	4.539	0.492
1176.000	676.654	80.008	19.995	103.940	20.050	4.553	0.515
1176.501	676.909	80.009	19.995	103.937	20.050	4.557	0.540
1177.001	677.142	80.008	19.996	103.934	20.047	4.824	0.512
1177.500	677.404	80.009	19.997	103.928	20.048	4.716	0.491
1178.000	677.679	80.010	19.996	103.922	20.049	4.646	0.516
1178.500	677.916	80.010	19.996	103.918	20.051	4.469	0.525
1179.000	678.181	80.010	19.995	103.920	20.049	4.681	0.507
1179.500	678.409	80.009	19.995	103.921	20.047	4.830	0.497
1180.000	678.643	80.009	19.995	103.925	20.048	4.701	0.477
1180.500	678.914	80.008	19.996	103.928	20.049	4.646	0.483
1181.000	679.150	80.008	19.995	103.928	20.045	4.938	0.506
1181.500	679.381	80.009	19.994	103.926	20.046	4.873	0.487
1182.000	679.675	80.009	19.995	103.928	20.045	4.970	0.496
1182.500	679.955	80.009	19.995	103.930	20.046	4.835	0.549
1183.000	680.219	80.009	19.996	103.931	20.049	4.629	0.559
1183.500	680.457	80.008	19.996	103.934	20.047	4.793	0.523
1184.001	680.712	80.009	19.995	103.937	20.045	4.948	0.498
1184.501	680.946	80.008	19.994	103.936	20.049	4.675	0.491
1185.001	681.184	80.008	19.995	103.934	20.052	4.442	0.481
1185.501	681.447	80.009	19.996	103.929	20.046	4.832	0.486
1186.000	681.732	80.009	19.994	103.927	20.050	4.559	0.524
1186.500	681.950	80.009	19.995	103.920	20.048	4.712	0.526
1187.000	682.218	80.009	19.994	103.918	20.049	4.675	0.495
1187.500	682.505	80.009	19.995	103.915	20.048	4.744	0.521
1188.000	682.754	80.009	19.995	103.915	20.047	4.786	0.545
1188.500	682.982	80.010	19.995	103.913	20.047	4.764	0.506
1189.000	683.264	80.008	19.994	103.916	20.047	4.785	0.494
1189.500	683.514	80.012	19.995	103.921	20.050	4.569	0.521
1190.000	683.775	80.012	19.995	103.926	20.046	4.898	0.522
1190.501	684.034	80.010	19.994	103.932	20.050	4.569	0.515
1191.001	684.293	80.010	19.994	103.937	20.048	4.727	0.519
1191.501	684.541	80.009	19.994	103.939	20.046	4.878	0.512
1192.001	684.807	80.010	19.995	103.937	20.046	4.836	0.510
1192.500	685.061	80.010	19.994	103.938	20.050	4.589	0.517
1193.000	685.336	80.010	19.994	103.940	20.053	4.340	0.524
1193.500	685.596	80.011	19.994	103.942	20.054	4.256	0.532
1194.000	685.848	80.011	19.994	103.937	20.048	4.700	0.524
1194.500	686.079	80.007	19.994	103.936	20.049	4.656	0.498
1195.000	686.382	80.010	19.993	103.933	20.051	4.473	0.509
1195.500	686.664	80.012	19.993	103.928	20.051	4.511	0.560
1196.001	686.872	80.011	19.992	103.922	20.052	4.439	0.537
1196.501	687.121	80.012	19.994	103.922	20.047	4.802	0.473
1197.001	687.415	80.012	19.994	103.923	20.047	4.776	0.500
1197.500	687.718	80.012	19.994	103.920	20.048	4.689	0.570
1198.000	687.925	80.009	19.993	103.921	20.049	4.685	0.553
1198.500	688.167	80.013	19.994	103.924	20.054	4.316	0.480
1199.000	688.396	80.011	19.993	103.925	20.051	4.473	0.460
1199.500	688.713	80.011	19.993	103.926	20.053	4.391	0.508
1200.000	688.965	80.011	19.993	103.931	20.056	4.176	0.557
1200.500	689.228	80.010	19.995	103.931	20.052	4.453	0.542
1201.000	689.486	80.009	19.995	103.932	20.050	4.610	0.519
1201.500	689.735	80.009	19.993	103.931	20.050	4.603	0.514
1202.000	689.996	80.013	19.995	103.926	20.049	4.619	0.508
1202.500	690.256	80.009	19.994	103.923	20.053	4.352	0.515
1203.000	690.505	80.008	19.994	103.922	20.049	4.634	0.515
1203.500	690.744	80.008	19.996	103.922	20.047	4.794	0.499
1204.000	691.027	80.009	19.994	103.923	20.048	4.686	0.505
1204.500	691.321	80.010	19.995	103.922	20.047	4.766	0.549
1205.000	691.571	80.009	19.996	103.920	20.050	4.604	0.560
1205.500	691.844	80.006	19.994	103.916	20.049	4.632	0.534
1206.000	692.094	80.008	19.995	103.911	20.053	4.384	0.523
1206.500	692.333	80.007	19.995	103.910	20.050	4.583	0.506
1207.000	692.632	80.007	19.994	103.916	20.054	4.316	0.514
1207.500	692.923	80.013	19.995	103.922	20.047	4.812	0.564
1208.001	693.133	80.008	19.995	103.925	20.052	4.455	0.545
1208.501	693.397	80.010	19.996	103.926	20.051	4.519	0.487
1209.001	693.652	80.009	19.995	103.925	20.047	4.780	0.496
1209.500	693.941	80.009	19.994	103.920	20.055	4.196	0.532
1210.000	694.183	80.009	19.995	103.913	20.050	4.608	0.538
1210.500	694.460	80.009	19.994	103.909	20.049	4.614	0.525
1211.000	694.689	80.006	19.994	103.910	20.050	4.541	0.512
1211.500	694.955	80.007	19.995	103.912	20.052	4.399	0.500
1212.000	695.211	80.007	19.994	103.913	20.050	4.587	0.509
1212.500	695.487	80.009	19.995	103.914	20.046	4.895	0.527
1213.000	695.748	80.008	19.995	103.916	20.048	4.732	0.534
1213.500	696.010	80.009	19.996	103.914	20.048	4.730	0.530
1214.000	696.266	80.010	19.996	103.913	20.049	4.624	0.520
1214.500	696.521	80.010	19.995	103.913	20.053	4.358	0.515
1215.000	696.789	80.006	19.995	103.912	20.049	4.645	0.517
1215.500	697.047	80.008	19.994	103.910	20.047	4.796	0.525
1216.000	697.289	80.010	19.994	103.910	20.048	4.732	0.513
1216.500	697.573	80.008	19.995	103.914	20.051	4.478	0.513
1217.000	697.821	80.008	19.995	103.916	20.048	4.756	0.529
1217.500	698.078	80.009	19.994	103.915	20.052	4.398	0.518
1218.000	698.321	80.008	19.995	103.919	20.046	4.898	0.503
1218.500	698.602	80.009	19.994	103.921	20.048	4.725	0.512
1219.000	698.864	80.010	19.996	103.918	20.052	4.454	0.533
1219.500	699.135	80.010	19.996	103.915	20.048	4.691	0.538
1220.001	699.389	80.009	19.995	103.915	20.049	4.658	0.529
1220.501	699.629	80.009	19.995	103.911	20.048	4.723	0.510
1221.001	699.879	80.010	19.995	103.909	20.051	4.506	0.492
1221.500	700.100	80.008	19.994	103.908	20.050	4.584	0.480
1222.000	700.408	80.010	19.995	103.911	20.049	4.645	0.500
1222.500	700.631	80.010	19.994	103.911	20.049	4.661	0.531
1223.000	700.898	80.007	19.994	103.911	20.049	4.665	0.511
1223.500	701.160	80.011	19.994	103.912	20.047	4.800	0.509
1224.000	701.411	80.009	19.995	103.913	20.050	4.585	0.521
1224.501	701.701	80.011	19.994	103.913	20.051	4.498	0.527
1225.001	701.920	80.009	19.994	103.913	20.053	4.386	0.525
1225.501	702.174	80.009	19.994	103.916	20.049	4.669	0.491
1226.001	702.423	80.008	19.994	103.921	20.048	4.728	0.488
1226.500	702.683	80.009	19.995	103.922	20.049	4.615	0.506
1227.001	702.946	80.008	19.993	103.921	20.049	4.654	0.516
1227.501	703.186	80.010	19.994	103.925	20.049	4.652	0.513
1228.000	703.463	80.009	19.994	103.922	20.051	4.503	0.510
1228.500	703.705	80.008	19.994	103.917	20.050	4.577	0.518
1229.000	703.949	80.009	19.993	103.920	20.047	4.770	0.503
1229.500	704.214	80.008	19.995	103.927	20.046	4.832	0.497
1230.000	704.455	80.008	19.996	103.930	20.047	4.780	0.508
1230.500	704.740	80.010	19.995	103.937	20.052	4.466	0.516
1231.000	704.982	80.008	19.994	103.943	20.048	4.725	0.526
1231.500	705.245	80.009	19.995	103.944	20.050	4.551	0.516
1232.000	705.459	80.010	19.996	103.942	20.045	4.955	0.491
1232.500	705.727	80.008	19.995	103.937	20.049	4.635	0.479
1233.000	705.995	80.008	19.994	103.933	20.045	4.926	0.509
1233.500	706.211	80.011	19.994	103.933	20.048	4.691	0.510
1234.000	706.524	80.009	19.994	103.931	20.052	4.446	0.507
1234.501	706.764	80.011	19.996	103.930	20.048	4.711	0.541
1235.001	707.010	80.008	19.995	103.932	20.047	4.816	0.519
1235.501	707.294	80.009	19.993	103.932	20.050	4.581	0.508
1236.001	707.522	80.009	19.995	103.927	20.045	4.947	0.521
1236.501	707.772	80.008	19.994	103.923	20.049	4.633	0.494
1237.000	708.035	80.008	19.994	103.920	20.050	4.599	0.495
1237.500	708.282	80.007	19.994	103.916	20.052	4.408	0.512
1238.001	708.533	80.009	19.994	103.916	20.051	4.472	0.504
1238.501	708.814	80.007	19.994	103.915	20.052	4.400	0.515
1239.001	709.072	80.008	19.994	103.914	20.050	4.577	0.535
1239.501	709.307	80.006	19.994	103.919	20.047	4.824	0.516
1240.001	709.560	80.008	19.994	103.922	20.048	4.703	0.491
1240.500	709.823	80.008	19.995	103.925	20.048	4.737	0.502
1241.000	710.113	80.005	19.994	103.925	20.048	4.707	0.534
1241.500	710.314	80.009	19.994	103.928	20.049	4.671	0.522
1242.000	710.564	80.008	19.994	103.927	20.044	5.014	0.471
1242.500	710.851	80.011	19.994	103.925	20.046	4.848	0.494
1243.001	711.062	80.009	19.996	103.921	20.046	4.856	0.518
1243.501	711.351	80.010	19.995	103.921	20.049	4.671	0.499
1244.000	711.597	80.009	19.995	103.922	20.049	4.667	0.517
1244.500	711.854	80.009	19.996	103.922	20.050	4.551	0.519
1245.000	712.093	80.008	19.995	103.924	20.049	4.657	0.500
1245.500	712.361	80.009	19.995	103.924	20.051	4.527	0.502
1246.000	712.613	80.007	19.995	103.925	20.047	4.758	0.514
1246.500	712.871	80.011	19.995	103.920	20.053	4.382	0.515
1247.000	713.124	80.008	19.994	103.921	20.047	4.766	0.510
1247.500	713.400	80.010	19.996	103.918	20.052	4.440	0.520
1248.000	713.642	80.009	19.996	103.923	20.048	4.752	0.523
1248.500	713.924	80.008	19.996	103.929	20.048	4.703	0.521
1249.000	714.147	80.009	19.995	103.931	20.052	4.452	0.515
1249.500	714.403	80.010	19.995	103.927	20.048	4.730	0.492
1250.000	714.687	80.011	19.996	103.931	20.053	4.348	0.509
1250.500	714.975	80.010	19.994	103.932	20.054	4.262	0.556
1251.000	715.177	80.011	19.995	103.932	20.051	4.527	0.532
1251.500	715.461	80.010	19.995	103.934	20.048	4.736	0.488
1252.000	715.742	80.009	19.994	103.936	20.048	4.730	0.525
1252.500	716.024	80.007	19.995	103.934	20.052	4.463	0.564
1253.000	716.265	80.011	19.995	103.932	20.047	4.764	0.543
1253.501	716.456	80.010	19.994	103.927	20.047	4.788	0.477
1254.001	716.754	80.010	19.995	103.927	20.046	4.897	0.461
1254.500	717.005	80.010	19.994	103.925	20.045	4.925	0.519
1255.000	717.257	80.010	19.996	103.923	20.049	4.646	0.526
1255.500	717.520	80.011	19.994	103.921	20.043	5.051	0.509
1256.000	717.766	80.009	19.994	103.922	20.046	4.845	0.512
1256.500	718.039	80.010	19.995	103.921	20.042	5.120	0.514
1257.000	718.267	80.010	19.994	103.922	20.043	5.069	0.510
1257.500	718.519	80.008	19.994	103.924	20.046	4.857	0.491
1258.000	718.790	80.010	19.994	103.927	20.046	4.853	0.502
1258.500	719.036	80.011	19.996	103.926	20.049	4.674	0.519
1259.000	719.313	80.007	19.994	103.923	20.045	4.903	0.520
1259.500	719.577	80.010	19.996	103.924	20.048	4.730	0.532
1260.000	719.801	80.009	19.994	103.923	20.049	4.654	0.514
1260.500	720.062	80.009	19.994	103.918	20.043	5.076	0.487
1261.000	720.328	80.009	19.994	103.916	20.045	4.951	0.506
1261.500	720.592	80.010	19.994	103.915	20.052	4.449	0.529
1262.000	720.848	80.009	19.994	103.913	20.049	4.630	0.525
1262.500	721.048	80.009	19.994	103.911	20.043	5.058	0.488
1263.000	721.312	80.009	19.994	103.914	20.045	4.945	0.460
1263.500	721.588	80.009	19.994	103.915	20.046	4.869	0.502
1264.000	721.858	80.010	19.994	103.914	20.047	4.764	0.543
1264.500	722.073	80.009	19.994	103.913	20.040	5.320	0.515
1265.000	722.333	80.009	19.995	103.912	20.043	5.071	0.480
1265.501	722.588	80.008	19.995	103.910	20.049	4.684	0.495
1266.001	722.833	80.010	19.995	103.910	20.042	5.174	0.508
1266.500	723.086	80.010	19.996	103.911	20.047	4.792	0.499
1267.000	723.347	80.010	19.994	103.911	20.051	4.491	0.505
1267.500	723.563	80.007	19.995	103.911	20.044	5.022	0.495
1268.000	723.847	80.008	19.994	103.913	20.044	4.981	0.489
1268.500	724.061	80.008	19.994	103.912	20.042	5.186	0.500
1269.000	724.324	80.010	19.996	103.912	20.048	4.688	0.487
1269.500	724.587	80.009	19.994	103.914	20.050	4.592	0.501
1270.000	724.843	80.010	19.995	103.913	20.048	4.696	0.522
1270.500	725.077	80.009	19.994	103.910	20.043	5.068	0.504
1271.000	725.316	80.009	19.995	103.911	20.041	5.204	0.481
1271.501	725.578	80.010	19.995	103.909	20.045	4.961	0.487
1272.001	725.818	80.010	19.996	103.907	20.048	4.724	0.501
1272.500	726.078	80.010	19.995	103.907	20.044	4.991	0.501
1273.000	726.330	80.010	19.994	103.907	20.042	5.164	0.506
1273.500	726.588	80.011	19.996	103.906	20.039	5.381	0.511
1274.000	726.806	80.011	19.996	103.906	20.048	4.722	0.493
1274.500	727.092	80.008	19.996	103.909	20.045	4.969	0.490
1275.000	727.349	80.011	19.996	103.910	20.045	4.967	0.523
1275.500	727.594	80.011	19.996	103.914	20.048	4.722	0.522
1276.000	727.847	80.012	19.995	103.915	20.050	4.601	0.500
1276.500	728.059	80.011	19.995	103.916	20.051	4.521	0.481
1277.000	728.357	80.010	19.995	103.913	20.047	4.798	0.488
1277.500	728.578	80.011	19.995	103.912	20.045	4.903	0.515
1278.000	728.843	80.011	19.996	103.908	20.047	4.798	0.503
1278.500	729.090	80.012	19.995	103.906	20.043	5.066	0.499
1279.000	729.328	80.010	19.995	103.906	20.043	5.110	0.499
1279.500	729.565	80.011	19.996	103.907	20.047	4.821	0.480
1280.000	729.798	80.010	19.996	103.907	20.052	4.417	0.472
1280.500	730.075	80.011	19.997	103.907	20.042	5.130	0.490
1281.000	730.335	80.010	19.997	103.907	20.050	4.609	0.523
1281.500	730.619	80.010	19.994	103.907	20.043	5.061	0.540
1282.000	730.821	80.011	19.995	103.906	20.044	5.017	0.515
1282.500	731.076	80.009	19.994	103.905	20.047	4.826	0.472
1283.000	731.327	80.012	19.996	103.907	20.047	4.760	0.482
1283.500	731.595	80.009	19.996	103.911	20.041	5.204	0.512
1284.000	731.838	80.010	19.995	103.913	20.042	5.136	0.515
1284.501	732.079	80.011	19.995	103.914	20.049	4.618	0.497
1285.001	732.315	80.009	19.994	103.917	20.043	5.060	0.481
1285.500	732.598	80.010	19.994	103.922	20.045	4.949	0.498
1286.001	732.791	80.010	19.997	103.921	20.040	5.327	0.498
1286.501	733.044	80.009	19.996	103.920	20.043	5.079	0.461
1287.001	733.323	80.010	19.995	103.921	20.050	4.585	0.489
1287.501	733.558	80.009	19.994	103.918	20.043	5.078	0.523
1288.000	733.823	80.008	19.995	103.915	20.047	4.804	0.507
1288.500	734.080	80.009	19.994	103.911	20.046	4.855	0.511
1289.000	734.288	80.009	19.993	103.909	20.044	5.017	0.493
1289.500	734.592	80.009	19.995	103.910	20.049	4.638	0.489
1290.000	734.843	80.009	19.996	103.910	20.046	4.833	0.534
1290.500	735.101	80.010	19.996	103.908	20.049	4.670	0.532
1291.000	735.380	80.009	19.996	103.909	20.046	4.847	0.523
1291.500	735.567	80.010	19.995	103.915	20.052	4.401	0.502
1292.000	735.825	80.009	19.995	103.918	20.044	4.975	0.456
1292.500	736.090	80.008	19.995	103.919	20.045	4.959	0.484
1293.000	736.327	80.009	19.994	103.919	20.047	4.762	0.512
1293.500	736.579	80.009	19.995	103.919	20.044	5.035	0.495
1294.000	736.836	80.009	19.996	103.914	20.046	4.882	0.499
1294.500	737.048	80.009	19.993	103.910	20.049	4.678	0.489
1295.000	737.300	80.010	19.994	103.909	20.046	4.832	0.466
1295.500	737.543	80.009	19.995	103.909	20.045	4.909	0.480
1296.000	737.780	80.010	19.995	103.910	20.044	4.995	0.488
1296.500	738.063	80.010	19.995	103.913	20.043	5.112	0.500
1297.000	738.299	80.011	19.995	103.913	20.045	4.923	0.519
1297.500	738.576	80.008	19.995	103.914	20.048	4.742	0.515
1298.000	738.794	80.010	19.994	103.914	20.044	5.011	0.504
1298.500	739.047	80.010	19.996	103.911	20.045	4.953	0.483
1299.000	739.276	80.008	19.995	103.909	20.044	5.025	0.477
1299.500	739.554	80.008	19.995	103.908	20.041	5.240	0.495
1300.000	739.796	80.008	19.995	103.908	20.039	5.341	0.513
1300.500	740.077	80.008	19.996	103.907	20.045	4.919	0.521
1301.000	740.320	80.008	19.995	103.909	20.041	5.250	0.524
1301.500	740.573	80.009	19.994	103.909	20.044	5.043	0.511
1302.000	740.828	80.010	19.994	103.912	20.041	5.218	0.502
1302.500	741.067	80.010	19.993	103.912	20.045	4.937	0.501
1303.000	741.354	80.008	19.994	103.914	20.043	5.066	0.510
1303.500	741.577	80.010	19.996	103.915	20.040	5.284	0.518
1304.000	741.851	80.009	19.995	103.918	20.047	4.798	0.503
1304.501	742.124	80.010	19.995	103.916	20.039	5.357	0.522
1305.001	742.343	80.008	19.994	103.918	20.042	5.150	0.520
1305.501	742.599	80.010	19.995	103.917	20.043	5.097	0.484
1306.000	742.821	80.008	19.995	103.916	20.042	5.184	0.476
1306.500	743.092	80.008	19.994	103.913	20.044	4.999	0.485
1307.000	743.365	80.010	19.994	103.913	20.039	5.348	0.519
1307.500	743.597	80.009	19.993	103.911	20.044	4.987	0.525
