Sample ID:	C:\MCC\MCC Cal\Test\Air_Fryer_MCC_30K_min_220203_R1.txt
Sample Weight (mg):	4.86
Heating Rate (C/s):	0.5
Combustor Temp (C):	900
N2 Flow Rate (cc/min):	80
O2 Flow Rate (cc/min):	20
Calibration File:	C:\MCC\MCC Cal\Coeff1 JN10440_30_210304.txt.txt
T Correction Coefficients:	0	1.024463	0
Time Shift (s):	14
*
Time (s)	Temperature (C)	N2 flow rate (cc/min)	O2 flow rate (cc/min)	Flow Rate (cc/min)	Oxygen (%)	HRR (W/g)	Heating rate (C/s)
0.000	112.076	80.006	19.995	103.796	20.171	-0.138	-0.012
0.500	112.089	80.006	19.995	103.797	20.177	-0.536	0.021
1.000	112.069	80.004	19.995	103.804	20.174	-0.358	0.015
1.500	112.080	80.006	19.996	103.809	20.174	-0.371	-0.008
2.000	112.053	80.007	19.996	103.812	20.171	-0.154	-0.013
2.500	112.059	80.007	19.994	103.815	20.175	-0.413	-0.019
3.000	112.084	80.006	19.995	103.815	20.170	-0.075	0.005
3.500	112.051	80.006	19.995	103.816	20.174	-0.356	0.011
4.000	112.087	80.007	19.996	103.818	20.172	-0.207	-0.002
4.500	112.079	80.006	19.995	103.822	20.172	-0.231	0.016
5.001	112.068	80.006	19.995	103.825	20.170	-0.088	0.005
5.500	112.076	80.006	19.995	103.823	20.172	-0.228	-0.011
6.000	112.090	80.007	19.993	103.818	20.172	-0.233	0.009
6.500	112.068	80.008	19.995	103.815	20.170	-0.108	0.007
7.000	112.075	80.008	19.994	103.814	20.168	0.046	-0.012
7.500	112.066	80.006	19.995	103.814	20.167	0.134	-0.009
8.000	112.025	80.007	19.994	103.817	20.168	0.048	-0.027
8.500	112.050	80.010	19.995	103.823	20.167	0.114	-0.033
9.000	112.063	80.008	19.995	103.827	20.164	0.297	0.011
9.500	112.028	80.008	19.993	103.828	20.162	0.428	0.008
10.000	112.063	80.008	19.993	103.836	20.163	0.382	-0.011
10.500	112.039	80.008	19.994	103.843	20.164	0.301	0.006
11.000	112.088	80.008	19.993	103.857	20.163	0.353	0.018
11.500	112.074	80.009	19.994	103.870	20.163	0.387	0.030
12.000	112.066	80.009	19.994	103.884	20.163	0.354	0.007
12.500	112.063	80.009	19.994	103.893	20.163	0.389	-0.016
13.000	112.088	80.009	19.993	103.901	20.162	0.468	0.005
13.500	112.096	80.008	19.993	103.903	20.159	0.668	0.028
14.000	112.115	80.010	19.993	103.908	20.158	0.738	0.030
14.500	112.143	80.009	19.993	103.911	20.158	0.702	0.037
15.000	112.129	80.007	19.994	103.914	20.160	0.599	0.030
15.501	112.192	80.008	19.994	103.917	20.156	0.832	0.031
16.001	112.193	80.009	19.994	103.916	20.154	0.972	0.056
16.500	112.201	80.007	19.994	103.914	20.155	0.913	0.037
17.000	112.238	80.007	19.993	103.912	20.154	0.988	0.027
17.501	112.268	80.007	19.993	103.909	20.156	0.834	0.056
18.001	112.260	80.008	19.995	103.908	20.153	1.056	0.045
18.501	112.268	80.008	19.993	103.914	20.151	1.165	0.011
19.000	112.307	80.008	19.994	103.921	20.151	1.179	0.024
19.500	112.335	80.006	19.993	103.930	20.150	1.220	0.057
20.000	112.339	80.006	19.993	103.940	20.149	1.279	0.049
20.501	112.358	80.006	19.994	103.947	20.149	1.304	0.027
21.001	112.403	80.007	19.994	103.950	20.148	1.406	0.044
21.501	112.447	80.006	19.993	103.951	20.149	1.343	0.077
22.000	112.492	80.006	19.994	103.950	20.146	1.481	0.089
22.500	112.506	80.006	19.994	103.947	20.146	1.483	0.074
23.000	112.541	80.007	19.994	103.946	20.145	1.545	0.054
23.500	112.585	80.006	19.993	103.946	20.146	1.525	0.064
24.000	112.619	80.008	19.993	103.946	20.143	1.681	0.078
24.500	112.613	80.007	19.993	103.947	20.144	1.676	0.053
25.000	112.692	80.005	19.995	103.948	20.145	1.606	0.051
25.500	112.745	80.006	19.994	103.949	20.142	1.756	0.102
26.000	112.761	80.006	19.994	103.957	20.145	1.589	0.100
26.500	112.816	80.007	19.994	103.964	20.144	1.650	0.070
27.000	112.878	80.006	19.993	103.972	20.143	1.744	0.094
27.500	112.963	80.006	19.993	103.978	20.142	1.758	0.132
28.000	112.980	80.006	19.993	103.985	20.139	1.953	0.125
28.500	113.042	80.006	19.994	103.985	20.141	1.836	0.091
29.001	113.101	80.005	19.993	103.986	20.138	2.040	0.100
29.501	113.144	80.007	19.996	103.985	20.137	2.095	0.111
30.000	113.204	80.006	19.995	103.986	20.137	2.128	0.102
30.500	113.248	80.007	19.994	103.986	20.137	2.126	0.103
31.000	113.345	80.005	19.994	103.987	20.139	1.971	0.123
31.500	113.389	80.006	19.993	103.989	20.139	1.995	0.141
32.001	113.449	80.006	19.994	103.994	20.141	1.841	0.122
32.501	113.542	80.006	19.994	104.001	20.139	1.992	0.128
33.000	113.586	80.005	19.994	104.002	20.137	2.113	0.145
33.500	113.652	80.006	19.994	104.002	20.139	1.964	0.124
34.000	113.720	80.006	19.994	104.000	20.136	2.186	0.122
34.500	113.791	80.007	19.993	103.996	20.136	2.168	0.137
35.000	113.847	80.006	19.994	103.990	20.134	2.311	0.133
35.500	113.908	80.007	19.994	103.989	20.137	2.127	0.122
36.000	114.002	80.007	19.993	103.988	20.135	2.240	0.136
36.501	114.060	80.007	19.994	103.990	20.135	2.249	0.153
37.001	114.146	80.005	19.994	103.990	20.135	2.218	0.147
37.500	114.258	80.006	19.994	103.990	20.135	2.275	0.171
38.000	114.304	80.007	19.994	103.993	20.134	2.309	0.179
38.500	114.364	80.006	19.995	103.999	20.134	2.287	0.132
39.000	114.465	80.006	19.993	104.001	20.134	2.315	0.133
39.500	114.522	80.007	19.994	104.001	20.136	2.187	0.159
40.000	114.631	80.007	19.993	104.000	20.132	2.429	0.162
40.500	114.733	80.006	19.994	103.998	20.136	2.187	0.189
41.000	114.802	80.006	19.993	103.994	20.136	2.165	0.191
41.500	114.882	80.005	19.994	103.996	20.133	2.357	0.160
42.001	115.015	80.005	19.993	103.997	20.135	2.233	0.181
42.501	115.097	80.006	19.993	103.998	20.134	2.293	0.214
43.000	115.180	80.006	19.994	104.000	20.136	2.198	0.190
43.500	115.252	80.006	19.994	103.998	20.133	2.365	0.159
44.000	115.354	80.005	19.994	103.991	20.133	2.361	0.165
44.500	115.455	80.005	19.994	103.989	20.134	2.301	0.189
45.000	115.541	80.006	19.994	103.988	20.133	2.413	0.195
45.500	115.640	80.005	19.994	103.986	20.136	2.146	0.186
46.000	115.726	80.005	19.994	103.987	20.132	2.420	0.185
46.500	115.814	80.005	19.994	103.988	20.132	2.444	0.179
47.000	115.965	80.005	19.994	103.990	20.131	2.505	0.207
47.500	116.047	80.006	19.994	103.991	20.129	2.631	0.236
48.000	116.152	80.005	19.993	103.993	20.134	2.332	0.210
48.500	116.215	80.006	19.995	103.991	20.131	2.497	0.177
49.000	116.345	80.005	19.993	103.994	20.131	2.525	0.180
49.500	116.441	80.006	19.994	103.997	20.134	2.319	0.209
50.000	116.569	80.006	19.994	104.000	20.129	2.617	0.225
50.500	116.653	80.007	19.994	104.003	20.132	2.442	0.218
51.000	116.737	80.006	19.994	104.005	20.133	2.385	0.190
51.500	116.822	80.006	19.994	104.005	20.132	2.419	0.168
52.000	116.957	80.006	19.994	104.005	20.133	2.374	0.194
52.501	117.080	80.005	19.993	104.002	20.133	2.354	0.239
53.001	117.202	80.006	19.993	104.006	20.131	2.481	0.252
53.500	117.321	80.007	19.993	104.008	20.131	2.496	0.244
54.000	117.431	80.005	19.993	104.007	20.131	2.514	0.235
54.500	117.565	80.006	19.994	104.005	20.134	2.328	0.236
55.001	117.665	80.006	19.994	104.010	20.133	2.371	0.239
55.501	117.729	80.007	19.993	104.005	20.128	2.700	0.200
56.000	117.905	80.006	19.994	104.004	20.133	2.409	0.202
56.500	117.997	80.006	19.994	104.006	20.133	2.384	0.254
57.000	118.123	80.006	19.994	104.009	20.131	2.534	0.243
57.501	118.186	80.007	19.993	104.008	20.130	2.553	0.204
58.001	118.317	80.006	19.993	104.011	20.132	2.433	0.192
58.500	118.443	80.005	19.994	104.013	20.133	2.408	0.225
59.000	118.554	80.006	19.994	104.014	20.132	2.433	0.246
59.500	118.704	80.006	19.994	104.017	20.133	2.369	0.249
60.000	118.807	80.007	19.994	104.017	20.128	2.735	0.257
60.500	118.933	80.006	19.995	104.018	20.133	2.385	0.241
61.000	119.054	80.007	19.994	104.019	20.132	2.420	0.238
61.500	119.182	80.007	19.994	104.021	20.128	2.746	0.248
62.001	119.327	80.007	19.995	104.022	20.131	2.488	0.261
62.501	119.441	80.006	19.994	104.024	20.129	2.635	0.266
63.001	119.613	80.007	19.994	104.024	20.131	2.490	0.272
63.501	119.694	80.007	19.994	104.023	20.130	2.564	0.270
64.000	119.852	80.007	19.993	104.022	20.129	2.656	0.246
64.500	119.990	80.007	19.993	104.021	20.129	2.680	0.267
65.000	120.097	80.007	19.994	104.021	20.126	2.874	0.270
65.501	120.213	80.007	19.995	104.021	20.131	2.542	0.234
66.001	120.388	80.007	19.994	104.022	20.128	2.735	0.257
66.500	120.520	80.008	19.994	104.025	20.130	2.597	0.299
67.000	120.643	80.007	19.993	104.025	20.128	2.686	0.281
67.500	120.781	80.006	19.995	104.025	20.129	2.664	0.259
68.000	120.917	80.008	19.995	104.024	20.130	2.590	0.268
68.500	121.014	80.007	19.995	104.024	20.129	2.638	0.253
69.001	121.170	80.008	19.994	104.023	20.127	2.748	0.242
69.501	121.332	80.008	19.995	104.023	20.127	2.774	0.286
70.000	121.460	80.008	19.995	104.024	20.129	2.669	0.304
70.501	121.615	80.008	19.995	104.024	20.127	2.809	0.286
71.001	121.788	80.008	19.995	104.024	20.130	2.583	0.306
71.500	121.872	80.007	19.995	104.024	20.126	2.839	0.292
72.000	122.077	80.008	19.994	104.023	20.130	2.550	0.273
72.500	122.200	80.007	19.994	104.023	20.126	2.853	0.309
73.000	122.360	80.009	19.994	104.023	20.128	2.743	0.305
73.500	122.525	80.008	19.996	104.024	20.125	2.921	0.304
74.000	122.653	80.009	19.995	104.026	20.126	2.826	0.309
74.500	122.829	80.007	19.994	104.026	20.123	3.026	0.299
75.001	122.951	80.007	19.995	104.026	20.127	2.756	0.301
75.501	123.108	80.007	19.995	104.028	20.125	2.923	0.289
76.000	123.237	80.008	19.994	104.029	20.126	2.863	0.283
76.500	123.406	80.007	19.994	104.028	20.127	2.778	0.292
77.000	123.556	80.008	19.995	104.030	20.125	2.912	0.308
77.500	123.688	80.006	19.993	104.036	20.125	2.905	0.301
78.000	123.852	80.007	19.994	104.042	20.127	2.802	0.290
78.501	124.015	80.007	19.995	104.048	20.121	3.179	0.311
79.001	124.195	80.008	19.995	104.056	20.127	2.784	0.335
79.500	124.340	80.007	19.994	104.059	20.123	3.032	0.334
80.000	124.497	80.007	19.993	104.057	20.124	2.957	0.313
80.501	124.682	80.006	19.994	104.057	20.123	3.050	0.322
81.001	124.819	80.008	19.994	104.056	20.124	2.990	0.332
81.500	124.951	80.009	19.993	104.055	20.124	2.953	0.295
82.000	125.152	80.008	19.993	104.058	20.125	2.944	0.301
82.500	125.331	80.008	19.995	104.061	20.124	2.973	0.357
83.000	125.455	80.008	19.994	104.061	20.127	2.777	0.341
83.500	125.648	80.008	19.995	104.062	20.123	3.056	0.310
84.000	125.783	80.008	19.994	104.062	20.127	2.799	0.322
84.500	125.954	80.009	19.994	104.063	20.125	2.889	0.317
85.000	126.158	80.007	19.995	104.063	20.125	2.885	0.340
85.500	126.306	80.008	19.995	104.063	20.126	2.854	0.363
86.000	126.502	80.007	19.995	104.065	20.125	2.942	0.348
86.500	126.640	80.007	19.994	104.067	20.126	2.861	0.339
87.000	126.813	80.008	19.995	104.067	20.126	2.832	0.323
87.500	126.983	80.006	19.994	104.067	20.126	2.857	0.328
88.000	127.148	80.008	19.995	104.066	20.124	2.970	0.339
88.500	127.322	80.007	19.995	104.064	20.124	2.966	0.337
89.000	127.472	80.007	19.994	104.063	20.122	3.146	0.332
89.501	127.682	80.007	19.996	104.064	20.120	3.221	0.342
90.001	127.864	80.008	19.996	104.067	20.119	3.315	0.376
90.500	128.039	80.008	19.994	104.073	20.121	3.168	0.375
91.000	128.211	80.007	19.996	104.072	20.117	3.468	0.352
91.501	128.416	80.007	19.996	104.072	20.117	3.468	0.361
92.001	128.580	80.008	19.994	104.072	20.118	3.391	0.373
92.500	128.801	80.007	19.995	104.071	20.120	3.253	0.377
93.000	128.946	80.008	19.994	104.070	20.120	3.266	0.376
93.500	129.118	80.007	19.994	104.073	20.120	3.242	0.342
94.000	129.315	80.008	19.995	104.077	20.119	3.344	0.343
94.500	129.516	80.008	19.995	104.077	20.119	3.292	0.383
95.000	129.680	80.007	19.995	104.080	20.119	3.303	0.382
95.500	129.880	80.008	19.994	104.076	20.117	3.459	0.364
96.000	130.092	80.008	19.995	104.077	20.118	3.410	0.388
96.500	130.297	80.007	19.995	104.077	20.118	3.384	0.414
97.001	130.472	80.008	19.995	104.080	20.117	3.461	0.399
97.501	130.665	80.008	19.995	104.079	20.118	3.371	0.374
98.000	130.849	80.007	19.995	104.083	20.116	3.498	0.372
98.500	131.015	80.006	19.995	104.080	20.115	3.608	0.363
99.000	131.215	80.007	19.996	104.077	20.117	3.422	0.358
99.500	131.425	80.007	19.995	104.074	20.118	3.408	0.388
100.000	131.622	80.008	19.994	104.074	20.116	3.488	0.408
100.500	131.840	80.007	19.994	104.072	20.116	3.516	0.411
101.001	131.997	80.008	19.995	104.079	20.116	3.525	0.395
101.501	132.217	80.007	19.995	104.084	20.119	3.312	0.376
102.000	132.379	80.007	19.995	104.088	20.117	3.481	0.379
102.500	132.584	80.006	19.994	104.088	20.117	3.426	0.374
103.000	132.823	80.005	19.995	104.092	20.120	3.227	0.405
103.501	133.001	80.005	19.996	104.093	20.121	3.191	0.431
104.001	133.185	80.005	19.995	104.095	20.119	3.310	0.390
104.500	133.348	80.005	19.995	104.098	20.117	3.450	0.355
105.000	133.543	80.006	19.994	104.098	20.119	3.286	0.353
105.500	133.772	80.006	19.995	104.097	20.116	3.531	0.391
106.000	133.957	80.006	19.994	104.096	20.118	3.367	0.419
106.500	134.190	80.005	19.996	104.094	20.115	3.591	0.415
107.001	134.378	80.006	19.994	104.095	20.119	3.312	0.420
107.501	134.593	80.006	19.995	104.096	20.117	3.461	0.412
108.000	134.793	80.006	19.994	104.097	20.117	3.424	0.409
108.500	135.001	80.005	19.994	104.094	20.118	3.363	0.411
109.000	135.249	80.006	19.993	104.094	20.118	3.411	0.432
109.500	135.442	80.005	19.993	104.093	20.119	3.299	0.449
110.000	135.645	80.006	19.993	104.091	20.115	3.553	0.419
110.500	135.907	80.006	19.994	104.089	20.115	3.562	0.431
111.000	136.092	80.007	19.994	104.086	20.117	3.426	0.456
111.500	136.317	80.005	19.993	104.088	20.116	3.496	0.428
112.001	136.544	80.006	19.993	104.086	20.118	3.393	0.431
112.501	136.741	80.005	19.995	104.088	20.118	3.402	0.438
113.000	136.947	80.006	19.993	104.087	20.117	3.483	0.413
113.500	137.182	80.005	19.994	104.086	20.117	3.474	0.422
114.001	137.375	80.005	19.994	104.084	20.115	3.580	0.435
114.501	137.679	80.006	19.993	104.087	20.119	3.330	0.462
115.000	137.835	80.005	19.994	104.088	20.118	3.417	0.478
115.500	138.055	80.005	19.994	104.090	20.115	3.597	0.418
116.000	138.319	80.006	19.994	104.093	20.116	3.540	0.430
116.500	138.549	80.005	19.994	104.094	20.120	3.264	0.489
117.000	138.757	80.006	19.993	104.090	20.121	3.214	0.466
117.500	138.992	80.006	19.993	104.085	20.116	3.525	0.441
118.000	139.218	80.006	19.994	104.088	20.118	3.413	0.452
118.500	139.426	80.006	19.994	104.088	20.116	3.503	0.447
119.000	139.643	80.006	19.994	104.086	20.118	3.411	0.429
119.500	139.879	80.006	19.994	104.084	20.116	3.490	0.439
120.000	140.142	80.005	19.995	104.084	20.117	3.440	0.476
120.500	140.363	80.006	19.994	104.081	20.116	3.501	0.491
121.000	140.630	80.005	19.994	104.081	20.118	3.369	0.486
121.500	140.797	80.007	19.993	104.079	20.119	3.323	0.461
122.000	141.039	80.007	19.994	104.078	20.120	3.231	0.421
122.501	141.293	80.007	19.993	104.080	20.119	3.308	0.453
123.001	141.490	80.006	19.994	104.083	20.119	3.301	0.473
123.500	141.715	80.007	19.993	104.081	20.117	3.448	0.437
124.000	141.969	80.006	19.995	104.079	20.117	3.428	0.451
124.500	142.200	80.006	19.994	104.083	20.121	3.172	0.482
125.000	142.423	80.007	19.993	104.086	20.119	3.313	0.469
125.500	142.672	80.007	19.994	104.086	20.117	3.431	0.463
126.000	142.921	80.007	19.994	104.089	20.115	3.556	0.485
126.500	143.155	80.007	19.994	104.090	20.118	3.407	0.491
127.000	143.363	80.007	19.994	104.085	20.121	3.212	0.463
127.500	143.600	80.007	19.992	104.081	20.121	3.198	0.443
128.000	143.873	80.007	19.993	104.083	20.118	3.358	0.477
128.500	144.109	80.006	19.993	104.080	20.118	3.374	0.509
129.000	144.331	80.004	19.993	104.083	20.118	3.396	0.483
129.500	144.581	80.005	19.993	104.089	20.117	3.440	0.465
130.000	144.766	80.007	19.994	104.086	20.117	3.433	0.454
130.500	145.094	80.005	19.994	104.080	20.121	3.214	0.474
131.000	145.299	80.006	19.994	104.081	20.115	3.554	0.523
131.500	145.537	80.006	19.993	104.080	20.116	3.518	0.488
132.000	145.783	80.006	19.995	104.079	20.117	3.437	0.463
132.500	146.041	80.007	19.995	104.082	20.119	3.347	0.494
133.000	146.292	80.006	19.994	104.087	20.115	3.558	0.507
133.500	146.502	80.005	19.994	104.087	20.116	3.541	0.485
134.000	146.743	80.006	19.993	104.083	20.117	3.448	0.455
134.500	146.959	80.006	19.994	104.080	20.115	3.574	0.453
135.000	147.194	80.004	19.995	104.082	20.113	3.745	0.454
135.500	147.484	80.006	19.994	104.078	20.118	3.407	0.488
136.000	147.737	80.005	19.994	104.074	20.117	3.471	0.534
136.500	147.983	80.005	19.995	104.079	20.119	3.321	0.520
137.000	148.202	80.005	19.994	104.083	20.120	3.225	0.482
137.500	148.439	80.005	19.993	104.081	20.116	3.493	0.461
138.000	148.675	80.006	19.994	104.078	20.115	3.595	0.465
138.500	148.898	80.005	19.995	104.080	20.118	3.409	0.466
139.000	149.147	80.005	19.994	104.075	20.118	3.350	0.465
139.500	149.424	80.006	19.995	104.070	20.118	3.368	0.499
140.000	149.685	80.005	19.995	104.067	20.118	3.416	0.532
140.500	149.901	80.007	19.993	104.067	20.114	3.635	0.507
141.000	150.169	80.006	19.994	104.068	20.119	3.339	0.481
141.500	150.439	80.006	19.994	104.070	20.116	3.497	0.511
142.000	150.702	80.005	19.994	104.074	20.119	3.333	0.536
142.500	150.910	80.005	19.992	104.077	20.117	3.455	0.502
143.000	151.129	80.007	19.996	104.080	20.118	3.353	0.448
143.500	151.393	80.006	19.996	104.080	20.121	3.175	0.455
144.000	151.637	80.006	19.995	104.082	20.119	3.293	0.496
144.500	151.876	80.005	19.996	104.078	20.118	3.394	0.496
145.000	152.118	80.006	19.995	104.075	20.118	3.375	0.481
145.500	152.383	80.005	19.994	104.072	20.118	3.410	0.494
146.000	152.638	80.008	19.994	104.070	20.117	3.469	0.514
146.500	152.865	80.007	19.994	104.066	20.118	3.388	0.501
147.000	153.128	80.007	19.994	104.066	20.120	3.238	0.486
147.500	153.352	80.007	19.993	104.070	20.119	3.342	0.488
148.000	153.597	80.007	19.993	104.071	20.118	3.388	0.478
148.500	153.830	80.006	19.994	104.071	20.115	3.556	0.474
149.000	154.099	80.007	19.992	104.071	20.118	3.405	0.490
149.500	154.331	80.008	19.995	104.070	20.118	3.368	0.501
150.000	154.584	80.008	19.996	104.067	20.117	3.420	0.493
150.500	154.848	80.007	19.996	104.068	20.120	3.223	0.501
151.000	155.107	80.009	19.995	104.067	20.118	3.381	0.520
151.500	155.327	80.008	19.994	104.067	20.122	3.125	0.501
152.000	155.626	80.009	19.994	104.067	20.122	3.101	0.499
152.500	155.827	80.008	19.996	104.066	20.121	3.203	0.510
153.000	156.063	80.009	19.995	104.064	20.121	3.188	0.468
153.500	156.283	80.009	19.995	104.064	20.121	3.180	0.446
154.000	156.517	80.008	19.994	104.064	20.122	3.098	0.455
154.500	156.823	80.009	19.995	104.063	20.119	3.337	0.497
155.000	157.048	80.009	19.995	104.064	20.120	3.247	0.536
155.500	157.309	80.008	19.994	104.064	20.118	3.403	0.509
156.000	157.558	80.006	19.996	104.063	20.119	3.320	0.498
156.500	157.772	80.007	19.994	104.063	20.120	3.249	0.487
157.000	158.055	80.007	19.995	104.064	20.119	3.317	0.480
157.500	158.282	80.007	19.995	104.063	20.119	3.341	0.503
158.000	158.565	80.005	19.994	104.063	20.119	3.348	0.510
158.500	158.793	80.007	19.994	104.063	20.120	3.273	0.511
159.000	159.020	80.006	19.995	104.064	20.121	3.177	0.483
159.500	159.235	80.005	19.995	104.064	20.120	3.225	0.449
160.000	159.516	80.008	19.995	104.065	20.120	3.274	0.469
160.500	159.740	80.008	19.994	104.065	20.118	3.376	0.500
161.000	160.015	80.007	19.993	104.066	20.120	3.256	0.502
161.500	160.243	80.006	19.994	104.065	20.119	3.306	0.501
162.000	160.474	80.007	19.994	104.064	20.120	3.236	0.481
162.500	160.779	80.006	19.994	104.058	20.119	3.337	0.498
163.000	160.962	80.008	19.995	104.058	20.118	3.377	0.512
163.500	161.232	80.006	19.995	104.058	20.117	3.433	0.470
164.000	161.464	80.007	19.994	104.057	20.120	3.258	0.477
164.500	161.756	80.007	19.995	104.058	20.121	3.186	0.513
165.000	162.006	80.005	19.995	104.064	20.118	3.394	0.534
165.500	162.278	80.007	19.995	104.064	20.115	3.572	0.532
166.000	162.516	80.007	19.994	104.065	20.119	3.287	0.515
166.500	162.741	80.007	19.995	104.066	20.118	3.414	0.486
167.000	163.000	80.006	19.995	104.066	20.121	3.162	0.474
167.501	163.269	80.006	19.994	104.067	20.116	3.486	0.506
168.001	163.490	80.006	19.996	104.067	20.118	3.397	0.509
168.500	163.737	80.007	19.994	104.066	20.122	3.127	0.480
169.000	163.983	80.007	19.995	104.063	20.117	3.471	0.480
169.500	164.267	80.006	19.994	104.063	20.119	3.303	0.511
170.000	164.500	80.008	19.995	104.062	20.118	3.402	0.524
170.500	164.739	80.007	19.995	104.062	20.122	3.094	0.495
171.000	164.983	80.007	19.995	104.062	20.119	3.283	0.477
171.500	165.270	80.008	19.995	104.064	20.119	3.322	0.507
172.000	165.516	80.006	19.994	104.064	20.119	3.327	0.532
172.501	165.697	80.007	19.994	104.064	20.119	3.322	0.480
173.000	165.992	80.008	19.995	104.064	20.120	3.235	0.451
173.500	166.251	80.007	19.994	104.064	20.117	3.434	0.515
174.000	166.500	80.009	19.993	104.064	20.118	3.375	0.531
174.500	166.754	80.008	19.994	104.064	20.122	3.140	0.506
175.000	167.008	80.008	19.994	104.064	20.120	3.230	0.505
175.500	167.257	80.008	19.994	104.064	20.120	3.221	0.506
176.000	167.502	80.007	19.995	104.064	20.119	3.340	0.499
176.500	167.754	80.008	19.994	104.064	20.119	3.325	0.496
177.000	168.003	80.008	19.995	104.061	20.118	3.364	0.499
177.500	168.257	80.009	19.994	104.061	20.120	3.228	0.502
178.000	168.517	80.009	19.994	104.060	20.121	3.175	0.508
178.500	168.767	80.009	19.994	104.060	20.121	3.187	0.512
179.000	169.007	80.008	19.993	104.059	20.122	3.138	0.500
179.500	169.252	80.008	19.994	104.058	20.121	3.176	0.488
180.000	169.509	80.008	19.994	104.051	20.123	3.040	0.494
180.500	169.737	80.009	19.993	104.046	20.120	3.252	0.493
181.000	169.965	80.008	19.995	104.045	20.122	3.114	0.471
181.500	170.249	80.008	19.994	104.046	20.124	2.981	0.484
182.000	170.491	80.009	19.992	104.043	20.124	2.957	0.519
182.500	170.782	80.009	19.993	104.049	20.122	3.141	0.529
183.000	170.988	80.009	19.993	104.050	20.124	2.994	0.515
183.500	171.232	80.008	19.995	104.050	20.124	2.979	0.473
184.000	171.489	80.007	19.995	104.047	20.120	3.259	0.475
184.500	171.741	80.007	19.994	104.050	20.121	3.204	0.505
185.000	171.975	80.008	19.995	104.049	20.122	3.132	0.498
185.500	172.225	80.007	19.995	104.051	20.122	3.105	0.485
186.000	172.495	80.007	19.992	104.047	20.125	2.934	0.502
186.500	172.741	80.006	19.997	104.046	20.124	3.001	0.518
187.000	172.971	80.007	19.995	104.049	20.122	3.138	0.496
187.500	173.231	80.006	19.995	104.047	20.125	2.882	0.483
188.000	173.477	80.007	19.996	104.046	20.118	3.356	0.498
188.500	173.731	80.006	19.995	104.047	20.121	3.180	0.502
189.000	173.971	80.007	19.995	104.047	20.124	2.966	0.496
189.500	174.211	80.007	19.995	104.043	20.122	3.089	0.487
190.001	174.479	80.005	19.995	104.044	20.124	3.001	0.494
190.500	174.704	80.005	19.996	104.046	20.122	3.091	0.501
191.000	174.953	80.008	19.996	104.048	20.121	3.167	0.484
191.500	175.217	80.006	19.996	104.047	20.123	3.027	0.493
192.000	175.452	80.007	19.996	104.045	20.121	3.211	0.506
192.500	175.740	80.006	19.995	104.042	20.124	2.998	0.511
193.000	175.941	80.005	19.997	104.039	20.127	2.788	0.506
193.500	176.228	80.005	19.997	104.036	20.125	2.945	0.488
194.000	176.478	80.006	19.996	104.035	20.123	3.044	0.513
194.500	176.699	80.006	19.996	104.038	20.122	3.086	0.504
195.000	176.959	80.005	19.996	104.038	20.123	3.042	0.476
195.500	177.222	80.005	19.996	104.038	20.123	3.069	0.502
196.000	177.463	80.005	19.995	104.039	20.122	3.097	0.514
196.500	177.703	80.006	19.995	104.039	20.119	3.308	0.493
197.000	177.967	80.005	19.995	104.036	20.120	3.238	0.492
197.500	178.208	80.005	19.995	104.035	20.118	3.369	0.504
198.000	178.467	80.005	19.996	104.036	20.123	3.068	0.502
198.500	178.683	80.007	19.995	104.034	20.122	3.095	0.488
199.000	178.922	80.006	19.995	104.033	20.123	3.075	0.465
199.500	179.177	80.007	19.996	104.033	20.120	3.237	0.475
200.000	179.419	80.007	19.996	104.031	20.119	3.299	0.495
200.500	179.677	80.007	19.995	104.028	20.121	3.161	0.498
201.000	179.934	80.006	19.995	104.029	20.119	3.292	0.508
201.500	180.197	80.006	19.995	104.029	20.119	3.290	0.518
202.000	180.387	80.008	19.995	104.031	20.120	3.220	0.487
202.500	180.655	80.007	19.995	104.033	20.123	3.075	0.455
203.000	180.908	80.006	19.995	104.034	20.122	3.108	0.490
203.500	181.172	80.008	19.994	104.032	20.124	3.005	0.519
204.000	181.422	80.008	19.993	104.034	20.123	3.066	0.515
204.501	181.667	80.006	19.995	104.035	20.122	3.121	0.504
205.000	181.899	80.007	19.995	104.039	20.122	3.137	0.486
205.500	182.156	80.008	19.993	104.038	20.120	3.277	0.483
206.000	182.409	80.006	19.993	104.037	20.121	3.157	0.499
206.500	182.668	80.008	19.994	104.035	20.120	3.240	0.511
207.000	182.911	80.007	19.994	104.031	20.124	3.007	0.507
207.500	183.178	80.007	19.994	104.028	20.124	2.948	0.506
208.000	183.385	80.007	19.995	104.032	20.125	2.885	0.492
208.500	183.610	80.008	19.994	104.036	20.122	3.130	0.453
209.000	183.867	80.005	19.994	104.038	20.123	3.040	0.457
209.500	184.114	80.007	19.995	104.039	20.121	3.176	0.493
210.000	184.360	80.007	19.996	104.037	20.121	3.214	0.498
210.500	184.628	80.007	19.994	104.034	20.120	3.235	0.504
211.000	184.880	80.007	19.995	104.034	20.123	3.076	0.517
211.500	185.121	80.007	19.995	104.034	20.123	3.073	0.506
212.000	185.360	80.006	19.995	104.033	20.123	3.018	0.486
212.500	185.642	80.006	19.995	104.032	20.120	3.262	0.501
213.000	185.881	80.006	19.995	104.032	20.121	3.191	0.521
213.500	186.136	80.007	19.994	104.030	20.122	3.137	0.507
214.000	186.368	80.007	19.995	104.029	20.122	3.143	0.490
214.500	186.610	80.008	19.994	104.029	20.121	3.198	0.481
215.000	186.840	80.006	19.995	104.029	20.124	2.994	0.474
215.500	187.127	80.006	19.994	104.027	20.121	3.154	0.495
216.000	187.431	80.006	19.995	104.025	20.121	3.202	0.554
216.500	187.624	80.007	19.994	104.025	20.124	2.987	0.544
217.000	187.896	80.005	19.994	104.026	20.123	3.078	0.481
217.500	188.137	80.005	19.995	104.027	20.123	3.047	0.489
218.000	188.398	80.006	19.994	104.027	20.122	3.110	0.507
218.500	188.622	80.006	19.994	104.028	20.124	2.963	0.494
219.000	188.832	80.006	19.995	104.027	20.123	3.018	0.460
219.500	189.078	80.006	19.994	104.026	20.119	3.284	0.445
220.000	189.342	80.005	19.994	104.025	20.124	2.952	0.483
220.500	189.586	80.005	19.993	104.024	20.122	3.095	0.509
221.000	189.824	80.005	19.994	104.023	20.125	2.933	0.495
221.500	190.080	80.004	19.994	104.023	20.123	3.034	0.488
222.000	190.357	80.007	19.994	104.023	20.124	3.001	0.514
222.500	190.589	80.005	19.995	104.024	20.125	2.920	0.521
223.000	190.859	80.005	19.995	104.024	20.122	3.124	0.505
223.500	191.079	80.007	19.994	104.026	20.121	3.161	0.496
224.000	191.314	80.005	19.994	104.028	20.124	2.966	0.473
224.500	191.540	80.005	19.993	104.029	20.124	2.953	0.458
225.000	191.812	80.006	19.995	104.030	20.124	2.977	0.479
225.500	192.080	80.006	19.994	104.032	20.124	2.966	0.519
226.000	192.298	80.005	19.994	104.032	20.123	3.031	0.513
226.500	192.478	80.007	19.994	104.030	20.122	3.117	0.442
227.000	192.738	80.006	19.995	104.030	20.123	3.044	0.419
227.500	193.010	80.007	19.994	104.030	20.122	3.086	0.486
228.001	193.262	80.006	19.994	104.027	20.124	2.992	0.528
228.500	193.520	80.005	19.994	104.027	20.123	3.060	0.517
229.000	193.750	80.007	19.995	104.028	20.123	3.080	0.499
229.500	193.995	80.007	19.995	104.028	20.122	3.143	0.482
230.000	194.227	80.006	19.994	104.028	20.123	3.034	0.476
230.500	194.492	80.006	19.995	104.027	20.120	3.240	0.487
231.000	194.740	80.007	19.994	104.028	20.124	2.992	0.505
231.500	194.981	80.006	19.994	104.027	20.122	3.147	0.501
232.000	195.218	80.007	19.993	104.027	20.124	2.978	0.484
232.500	195.481	80.006	19.993	104.027	20.123	3.022	0.489
233.000	195.703	80.007	19.993	104.027	20.123	3.077	0.492
233.500	195.963	80.008	19.994	104.027	20.126	2.838	0.483
234.000	196.188	80.008	19.994	104.027	20.126	2.854	0.484
234.500	196.460	80.008	19.993	104.027	20.124	2.968	0.491
235.000	196.683	80.008	19.994	104.027	20.125	2.911	0.496
235.500	196.939	80.008	19.994	104.027	20.125	2.902	0.487
236.000	197.164	80.009	19.994	104.027	20.123	3.022	0.480
236.500	197.425	80.007	19.994	104.026	20.123	3.038	0.484
237.000	197.678	80.008	19.993	104.026	20.123	3.018	0.500
237.500	197.889	80.009	19.994	104.027	20.124	3.001	0.489
238.000	198.121	80.009	19.995	104.028	20.124	2.998	0.453
238.500	198.393	80.008	19.992	104.030	20.120	3.242	0.473
239.000	198.617	80.008	19.994	104.031	20.122	3.132	0.500
239.500	198.891	80.008	19.995	104.031	20.126	2.856	0.497
240.000	199.143	80.007	19.995	104.031	20.124	2.985	0.512
240.500	199.359	80.008	19.994	104.032	20.123	3.023	0.497
241.000	199.632	80.007	19.994	104.032	20.122	3.123	0.479
241.500	199.834	80.007	19.994	104.032	20.121	3.163	0.482
242.000	200.139	80.008	19.994	104.038	20.123	3.042	0.491
242.500	200.361	80.007	19.994	104.039	20.121	3.185	0.517
243.000	200.578	80.007	19.994	104.036	20.123	3.040	0.483
243.500	200.846	80.006	19.993	104.034	20.123	3.051	0.462
244.000	201.105	80.006	19.995	104.034	20.123	3.068	0.506
244.500	201.299	80.007	19.995	104.028	20.123	3.073	0.490
245.000	201.579	80.007	19.993	104.029	20.122	3.091	0.463
245.500	201.839	80.008	19.993	104.030	20.125	2.904	0.507
246.000	202.078	80.007	19.994	104.031	20.121	3.176	0.520
246.500	202.356	80.008	19.993	104.030	20.120	3.220	0.508
247.000	202.604	80.006	19.993	104.031	20.123	3.062	0.521
247.501	202.892	80.008	19.995	104.029	20.127	2.748	0.531
248.000	203.122	80.007	19.993	104.031	20.123	3.065	0.527
248.500	203.361	80.009	19.994	104.032	20.122	3.121	0.494
249.000	203.596	80.008	19.993	104.033	20.124	2.983	0.472
249.500	203.888	80.008	19.994	104.032	20.123	3.058	0.501
250.000	204.106	80.007	19.994	104.032	20.124	2.961	0.518
250.500	204.345	80.008	19.994	104.030	20.124	2.951	0.484
251.000	204.613	80.007	19.995	104.030	20.124	2.983	0.482
251.500	204.888	80.009	19.995	104.029	20.124	2.983	0.525
252.000	205.128	80.008	19.994	104.029	20.124	2.997	0.529
252.500	205.387	80.009	19.995	104.030	20.126	2.880	0.506
253.000	205.635	80.008	19.994	104.033	20.123	3.058	0.503
253.500	205.888	80.008	19.994	104.033	20.125	2.942	0.504
254.000	206.183	80.008	19.994	104.032	20.123	3.067	0.525
254.500	206.393	80.008	19.993	104.032	20.122	3.082	0.526
255.000	206.657	80.007	19.995	104.030	20.125	2.928	0.490
255.500	206.938	80.007	19.996	104.027	20.124	2.948	0.510
256.000	207.180	80.009	19.994	104.026	20.124	2.997	0.534
256.500	207.438	80.008	19.994	104.026	20.123	3.019	0.511
257.000	207.690	80.009	19.994	104.026	20.122	3.115	0.505
257.501	207.936	80.009	19.994	104.026	20.124	3.005	0.504
258.000	208.194	80.008	19.994	104.025	20.126	2.815	0.501
258.500	208.461	80.009	19.995	104.024	20.125	2.900	0.515
259.000	208.759	80.009	19.995	104.023	20.127	2.782	0.545
259.500	208.974	80.010	19.994	104.023	20.126	2.865	0.539
260.000	209.189	80.009	19.996	104.022	20.125	2.896	0.471
260.501	209.491	80.010	19.995	104.022	20.125	2.920	0.473
261.000	209.739	80.010	19.994	104.022	20.123	3.076	0.533
261.500	209.981	80.009	19.994	104.022	20.125	2.896	0.520
262.000	210.239	80.009	19.994	104.021	20.124	2.979	0.495
262.500	210.511	80.009	19.995	104.020	20.126	2.854	0.515
263.000	210.770	80.009	19.994	104.020	20.126	2.850	0.530
263.500	211.018	80.009	19.995	104.021	20.124	2.999	0.519
264.000	211.276	80.009	19.994	104.021	20.122	3.108	0.507
264.500	211.540	80.009	19.993	104.021	20.124	2.950	0.514
265.000	211.807	80.009	19.994	104.022	20.127	2.779	0.526
265.500	212.012	80.010	19.994	104.022	20.124	2.966	0.502
266.000	212.284	80.008	19.994	104.022	20.123	3.067	0.475
266.500	212.545	80.009	19.995	104.020	20.127	2.795	0.505
267.000	212.788	80.008	19.995	104.020	20.120	3.220	0.518
267.500	213.032	80.009	19.994	104.019	20.126	2.850	0.495
268.000	213.295	80.008	19.994	104.019	20.128	2.700	0.497
268.500	213.544	80.008	19.994	104.018	20.122	3.122	0.510
269.000	213.784	80.007	19.993	104.018	20.123	3.038	0.501
269.500	214.064	80.008	19.994	104.018	20.123	3.047	0.504
270.000	214.306	80.007	19.994	104.018	20.127	2.793	0.521
270.500	214.565	80.008	19.995	104.018	20.125	2.887	0.511
271.000	214.793	80.007	19.994	104.020	20.127	2.789	0.494
271.500	215.056	80.007	19.994	104.021	20.128	2.740	0.489
272.000	215.317	80.005	19.995	104.023	20.127	2.773	0.507
272.500	215.566	80.007	19.995	104.023	20.125	2.900	0.517
273.000	215.794	80.008	19.994	104.022	20.126	2.850	0.493
273.500	216.087	80.008	19.994	104.021	20.129	2.650	0.499
274.000	216.335	80.009	19.993	104.020	20.125	2.922	0.531
274.500	216.553	80.005	19.995	104.021	20.125	2.933	0.503
275.000	216.813	80.007	19.995	104.020	20.128	2.727	0.472
275.500	217.056	80.007	19.993	104.020	20.127	2.782	0.491
276.000	217.326	80.007	19.993	104.020	20.126	2.867	0.508
276.500	217.550	80.007	19.994	104.018	20.130	2.563	0.503
277.000	217.811	80.008	19.994	104.017	20.126	2.835	0.490
277.500	218.055	80.007	19.993	104.018	20.127	2.782	0.495
278.000	218.320	80.008	19.994	104.018	20.126	2.850	0.507
278.500	218.569	80.007	19.994	104.017	20.132	2.423	0.512
279.000	218.849	80.006	19.995	104.017	20.132	2.460	0.521
279.500	219.103	80.007	19.995	104.018	20.131	2.537	0.531
280.000	219.340	80.007	19.995	104.016	20.127	2.776	0.512
280.500	219.599	80.007	19.995	104.014	20.129	2.659	0.493
281.000	219.849	80.007	19.994	104.011	20.132	2.471	0.503
281.500	220.049	80.006	19.994	104.007	20.130	2.574	0.479
282.000	220.327	80.006	19.993	104.005	20.127	2.782	0.464
282.500	220.588	80.006	19.994	104.004	20.136	2.172	0.509
283.000	220.808	80.006	19.995	104.006	20.129	2.632	0.510
283.500	221.066	80.005	19.995	104.011	20.131	2.525	0.479
284.000	221.327	80.008	19.994	104.016	20.130	2.549	0.499
284.500	221.563	80.007	19.995	104.014	20.130	2.556	0.509
285.000	221.807	80.006	19.994	104.016	20.131	2.497	0.489
285.500	222.065	80.006	19.994	104.016	20.132	2.434	0.490
286.000	222.291	80.006	19.994	104.015	20.130	2.585	0.493
286.500	222.596	80.004	19.995	104.014	20.129	2.637	0.508
287.000	222.817	80.005	19.995	104.016	20.130	2.583	0.529
287.500	223.041	80.007	19.995	104.009	20.130	2.569	0.486
288.000	223.288	80.007	19.995	104.004	20.133	2.401	0.458
288.500	223.562	80.005	19.995	104.000	20.132	2.427	0.496
289.000	223.791	80.005	19.994	103.997	20.131	2.528	0.512
289.500	224.056	80.006	19.995	103.993	20.128	2.683	0.499
290.000	224.303	80.006	19.995	103.996	20.128	2.681	0.503
290.500	224.546	80.006	19.995	103.997	20.131	2.502	0.501
291.000	224.827	80.006	19.995	103.996	20.130	2.570	0.507
291.500	225.082	80.005	19.996	103.996	20.133	2.396	0.530
292.000	225.309	80.005	19.996	104.000	20.132	2.479	0.510
292.500	225.587	80.006	19.994	104.004	20.130	2.572	0.493
293.000	225.820	80.006	19.996	104.008	20.131	2.491	0.508
293.500	226.061	80.005	19.995	104.012	20.132	2.455	0.492
294.000	226.287	80.005	19.995	104.014	20.129	2.664	0.471
294.501	226.569	80.006	19.996	104.011	20.130	2.565	0.488
295.000	226.819	80.006	19.995	104.006	20.130	2.561	0.520
295.500	227.076	80.007	19.994	103.998	20.132	2.475	0.520
296.000	227.306	80.006	19.995	103.994	20.131	2.506	0.497
296.500	227.584	80.005	19.995	103.994	20.131	2.539	0.498
297.000	227.834	80.006	19.995	103.997	20.130	2.585	0.518
297.500	228.080	80.007	19.995	104.000	20.130	2.602	0.511
298.000	228.315	80.005	19.995	104.001	20.127	2.811	0.488
298.500	228.557	80.007	19.994	104.000	20.125	2.896	0.479
299.000	228.803	80.006	19.995	104.001	20.128	2.701	0.482
299.500	229.066	80.007	19.993	103.999	20.130	2.591	0.498
300.000	229.326	80.007	19.995	103.998	20.128	2.727	0.516
300.500	229.567	80.007	19.994	103.999	20.125	2.927	0.512
301.000	229.797	80.006	19.994	103.999	20.125	2.887	0.487
301.500	230.038	80.006	19.994	103.995	20.129	2.653	0.471
302.000	230.334	80.006	19.994	103.992	20.131	2.501	0.504
302.500	230.589	80.006	19.993	103.992	20.127	2.789	0.544
303.000	230.803	80.007	19.993	103.995	20.128	2.734	0.510
303.500	231.065	80.006	19.994	103.999	20.128	2.745	0.472
304.000	231.272	80.007	19.993	103.999	20.128	2.710	0.472
304.500	231.529	80.007	19.994	103.999	20.127	2.774	0.467
305.000	231.801	80.006	19.995	103.998	20.127	2.797	0.497
305.500	232.050	80.006	19.993	103.994	20.129	2.666	0.525
306.000	232.291	80.007	19.994	103.992	20.126	2.863	0.506
306.500	232.548	80.006	19.993	103.993	20.129	2.646	0.494
307.000	232.767	80.007	19.993	103.993	20.127	2.754	0.487
307.500	233.037	80.006	19.994	103.994	20.130	2.585	0.482
308.000	233.297	80.005	19.995	103.996	20.128	2.703	0.510
308.500	233.531	80.005	19.995	103.995	20.130	2.561	0.512
309.000	233.792	80.006	19.994	103.998	20.125	2.890	0.494
309.500	234.039	80.006	19.993	104.000	20.129	2.651	0.502
310.000	234.276	80.006	19.994	104.005	20.133	2.396	0.496
310.500	234.506	80.006	19.994	104.003	20.129	2.658	0.475
311.000	234.745	80.005	19.995	104.005	20.128	2.734	0.468
311.500	234.984	80.006	19.993	104.001	20.129	2.649	0.473
312.000	235.216	80.005	19.994	103.999	20.126	2.826	0.474
312.500	235.465	80.007	19.994	103.994	20.129	2.645	0.476
313.000	235.752	80.007	19.993	103.995	20.128	2.701	0.509
313.500	235.951	80.007	19.993	103.993	20.127	2.781	0.511
314.000	236.188	80.006	19.995	103.994	20.130	2.607	0.461
314.500	236.454	80.007	19.994	103.997	20.126	2.824	0.469
315.000	236.709	80.008	19.994	103.998	20.129	2.657	0.512
315.500	236.909	80.008	19.993	103.997	20.128	2.745	0.488
316.000	237.172	80.007	19.994	104.000	20.129	2.668	0.459
316.500	237.426	80.006	19.994	103.998	20.129	2.634	0.490
317.000	237.650	80.007	19.994	103.995	20.127	2.807	0.498
317.500	237.954	80.008	19.993	103.993	20.126	2.877	0.504
318.000	238.175	80.008	19.993	103.992	20.126	2.816	0.526
318.500	238.423	80.007	19.993	103.989	20.127	2.759	0.497
319.000	238.657	80.008	19.994	103.989	20.127	2.796	0.476
319.500	238.877	80.007	19.994	103.988	20.126	2.864	0.468
320.000	239.134	80.008	19.994	103.988	20.125	2.908	0.466
320.500	239.398	80.009	19.993	103.987	20.127	2.774	0.499
321.000	239.636	80.009	19.995	103.986	20.128	2.699	0.511
321.500	239.868	80.008	19.995	103.986	20.126	2.829	0.486
322.000	240.115	80.009	19.994	103.986	20.128	2.737	0.474
322.500	240.373	80.009	19.994	103.986	20.124	2.985	0.492
323.000	240.601	80.008	19.995	103.985	20.123	3.077	0.495
323.500	240.819	80.008	19.994	103.986	20.124	2.972	0.466
324.000	241.049	80.010	19.994	103.986	20.124	3.002	0.447
324.500	241.334	80.007	19.993	103.987	20.124	2.949	0.482
325.000	241.573	80.008	19.994	103.987	20.127	2.783	0.520
325.500	241.865	80.007	19.995	103.987	20.125	2.897	0.527
326.000	242.074	80.008	19.994	103.986	20.125	2.881	0.516
326.500	242.315	80.009	19.994	103.987	20.126	2.862	0.475
327.000	242.576	80.008	19.994	103.986	20.128	2.739	0.476
327.500	242.816	80.009	19.993	103.986	20.127	2.752	0.502
328.000	243.054	80.008	19.994	103.986	20.125	2.923	0.490
328.500	243.302	80.008	19.994	103.986	20.128	2.702	0.482
329.000	243.514	80.005	19.993	103.986	20.123	3.037	0.473
329.500	243.792	80.008	19.996	103.987	20.124	3.009	0.475
330.000	244.038	80.008	19.996	103.990	20.126	2.838	0.507
330.500	244.259	80.008	19.995	103.990	20.127	2.761	0.496
331.000	244.509	80.008	19.996	103.990	20.127	2.758	0.468
331.500	244.728	80.007	19.994	103.989	20.124	2.978	0.469
332.000	244.981	80.007	19.994	103.987	20.127	2.800	0.471
332.500	245.211	80.008	19.994	103.984	20.127	2.791	0.478
333.000	245.436	80.008	19.994	103.984	20.125	2.886	0.469
333.500	245.699	80.007	19.993	103.985	20.126	2.838	0.471
334.000	245.945	80.007	19.994	103.985	20.128	2.730	0.498
334.500	246.173	80.006	19.994	103.986	20.129	2.669	0.491
335.000	246.392	80.007	19.994	103.985	20.128	2.710	0.460
335.500	246.657	80.007	19.994	103.986	20.127	2.800	0.466
336.000	246.908	80.008	19.994	103.986	20.128	2.713	0.500
336.500	247.138	80.008	19.994	103.986	20.127	2.752	0.499
337.000	247.350	80.008	19.994	103.986	20.128	2.684	0.462
337.500	247.592	80.009	19.994	103.987	20.127	2.772	0.448
338.000	247.830	80.007	19.994	103.986	20.128	2.691	0.467
338.500	248.090	80.008	19.993	103.985	20.128	2.693	0.489
339.000	248.348	80.008	19.995	103.985	20.128	2.739	0.508
339.500	248.551	80.009	19.994	103.986	20.128	2.724	0.490
340.000	248.828	80.009	19.993	103.985	20.127	2.794	0.471
340.500	249.042	80.009	19.994	103.985	20.129	2.649	0.486
341.000	249.321	80.008	19.993	103.985	20.129	2.664	0.492
341.500	249.567	80.008	19.993	103.985	20.130	2.559	0.509
342.000	249.806	80.009	19.995	103.984	20.129	2.669	0.505
342.500	250.026	80.009	19.994	103.984	20.129	2.651	0.472
343.000	250.324	80.008	19.993	103.984	20.126	2.859	0.488
343.500	250.557	80.009	19.994	103.984	20.125	2.906	0.524
344.000	250.771	80.008	19.993	103.984	20.126	2.847	0.489
344.500	251.003	80.010	19.994	103.984	20.124	3.005	0.447
345.000	251.217	80.009	19.994	103.984	20.129	2.653	0.446
345.500	251.493	80.010	19.993	103.984	20.130	2.587	0.468
346.000	251.729	80.009	19.992	103.984	20.127	2.787	0.501
346.500	251.964	80.009	19.993	103.983	20.126	2.866	0.491
347.000	252.195	80.009	19.993	103.983	20.129	2.658	0.468
347.500	252.410	80.011	19.994	103.983	20.129	2.658	0.456
348.000	252.668	80.009	19.994	103.982	20.128	2.686	0.459
348.500	252.893	80.009	19.994	103.981	20.128	2.688	0.478
349.000	253.136	80.009	19.994	103.981	20.126	2.824	0.476
349.500	253.371	80.010	19.994	103.979	20.127	2.807	0.473
350.000	253.606	80.008	19.993	103.979	20.126	2.822	0.474
350.500	253.844	80.009	19.994	103.980	20.125	2.936	0.472
351.000	254.095	80.007	19.995	103.981	20.126	2.838	0.482
351.500	254.298	80.008	19.994	103.982	20.128	2.721	0.472
352.000	254.571	80.007	19.993	103.983	20.126	2.840	0.465
352.500	254.766	80.007	19.994	103.985	20.128	2.724	0.472
353.000	255.028	80.006	19.994	103.984	20.127	2.765	0.463
353.500	255.266	80.006	19.994	103.985	20.131	2.495	0.478
354.000	255.498	80.006	19.995	103.985	20.131	2.488	0.485
354.500	255.711	80.007	19.995	103.985	20.130	2.563	0.458
355.000	255.998	80.007	19.994	103.982	20.129	2.627	0.473
355.500	256.192	80.007	19.995	103.982	20.131	2.511	0.490
356.000	256.439	80.006	19.995	103.982	20.129	2.668	0.460
356.500	256.679	80.007	19.996	103.982	20.130	2.552	0.464
357.000	256.944	80.005	19.995	103.983	20.129	2.666	0.496
357.500	257.133	80.006	19.995	103.986	20.131	2.541	0.480
358.000	257.366	80.006	19.994	103.986	20.128	2.723	0.438
358.500	257.578	80.006	19.994	103.986	20.127	2.765	0.434
359.000	257.857	80.006	19.995	103.986	20.125	2.894	0.468
359.500	258.110	80.007	19.995	103.986	20.128	2.715	0.511
360.000	258.296	80.006	19.996	103.986	20.127	2.765	0.486
360.500	258.596	80.006	19.993	103.987	20.128	2.704	0.463
361.000	258.798	80.006	19.994	103.986	20.126	2.864	0.494
361.500	259.081	80.006	19.994	103.986	20.127	2.811	0.493
362.000	259.270	80.005	19.995	103.985	20.129	2.647	0.478
362.500	259.522	80.006	19.995	103.985	20.130	2.598	0.457
363.000	259.746	80.006	19.994	103.985	20.126	2.848	0.459
363.500	259.971	80.006	19.995	103.985	20.126	2.862	0.462
364.000	260.251	80.007	19.993	103.984	20.128	2.702	0.477
364.500	260.472	80.007	19.995	103.986	20.128	2.684	0.503
365.000	260.690	80.007	19.995	103.986	20.127	2.761	0.470
365.500	260.915	80.006	19.994	103.987	20.127	2.765	0.441
366.000	261.148	80.006	19.995	103.986	20.129	2.675	0.450
366.500	261.369	80.005	19.993	103.987	20.130	2.600	0.456
367.000	261.606	80.005	19.994	103.987	20.129	2.671	0.456
367.500	261.870	80.006	19.994	103.988	20.130	2.598	0.479
368.000	262.138	80.007	19.994	103.987	20.128	2.691	0.516
368.500	262.365	80.007	19.994	103.987	20.127	2.750	0.513
369.000	262.615	80.006	19.995	103.987	20.128	2.721	0.486
369.500	262.832	80.006	19.995	103.987	20.127	2.782	0.472
370.000	263.083	80.005	19.995	103.988	20.124	3.011	0.468
370.500	263.296	80.005	19.994	103.988	20.125	2.883	0.466
371.000	263.506	80.006	19.995	103.988	20.126	2.846	0.443
371.500	263.809	80.007	19.995	103.988	20.124	2.985	0.468
372.000	264.031	80.005	19.994	103.987	20.125	2.903	0.519
372.500	264.293	80.006	19.994	103.987	20.126	2.826	0.505
373.000	264.505	80.007	19.993	103.986	20.126	2.846	0.479
373.500	264.761	80.007	19.994	103.986	20.124	2.996	0.471
374.000	264.983	80.006	19.994	103.987	20.128	2.719	0.473
374.500	265.245	80.006	19.994	103.988	20.126	2.872	0.481
375.000	265.472	80.006	19.994	103.988	20.121	3.178	0.487
375.500	265.722	80.007	19.994	103.989	20.121	3.204	0.483
376.000	265.939	80.006	19.995	103.989	20.126	2.849	0.472
376.500	266.191	80.005	19.994	103.989	20.123	3.053	0.468
377.000	266.408	80.005	19.995	103.988	20.121	3.153	0.469
377.500	266.685	80.005	19.995	103.989	20.125	2.916	0.482
378.000	266.902	80.004	19.995	103.988	20.127	2.778	0.494
378.500	267.175	80.007	19.995	103.989	20.126	2.879	0.492
379.000	267.431	80.006	19.994	103.989	20.123	3.048	0.510
379.500	267.630	80.004	19.995	103.989	20.125	2.934	0.492
380.000	267.925	80.006	19.996	103.989	20.125	2.881	0.475
380.500	268.137	80.006	19.996	103.989	20.123	3.042	0.500
381.001	268.389	80.005	19.995	103.989	20.123	3.042	0.485
381.501	268.632	80.005	19.996	103.989	20.125	2.934	0.479
382.000	268.882	80.005	19.995	103.989	20.126	2.855	0.494
382.500	269.119	80.005	19.995	103.989	20.126	2.866	0.490
383.000	269.337	80.004	19.995	103.989	20.126	2.831	0.471
383.500	269.621	80.006	19.995	103.988	20.126	2.857	0.478
384.000	269.827	80.005	19.996	103.988	20.125	2.916	0.496
384.500	270.101	80.006	19.995	103.988	20.127	2.778	0.485
385.000	270.367	80.005	19.995	103.988	20.126	2.873	0.510
385.500	270.590	80.005	19.998	103.988	20.121	3.164	0.514
386.000	270.852	80.005	19.995	103.988	20.125	2.914	0.487
386.500	271.116	80.005	19.995	103.987	20.126	2.868	0.506
387.000	271.335	80.005	19.995	103.986	20.126	2.864	0.505
387.500	271.622	80.005	19.996	103.986	20.126	2.860	0.495
388.000	271.836	80.006	19.996	103.985	20.126	2.840	0.504
388.500	272.113	80.005	19.995	103.985	20.123	3.057	0.496
389.000	272.323	80.005	19.993	103.985	20.124	3.006	0.489
389.500	272.601	80.005	19.997	103.984	20.127	2.807	0.487
390.000	272.808	80.006	19.997	103.985	20.125	2.943	0.486
390.500	273.110	80.006	19.997	103.986	20.125	2.881	0.497
391.000	273.359	80.006	19.997	103.986	20.125	2.915	0.530
391.500	273.587	80.006	19.996	103.987	20.123	3.015	0.514
392.000	273.846	80.008	19.996	103.987	20.126	2.831	0.483
392.500	274.086	80.005	19.996	103.986	20.125	2.914	0.493
393.000	274.300	80.006	19.995	103.984	20.127	2.750	0.476
393.500	274.577	80.006	19.996	103.984	20.126	2.829	0.472
394.000	274.834	80.006	19.996	103.984	20.128	2.693	0.513
394.500	275.098	80.006	19.995	103.984	20.124	3.004	0.528
395.000	275.300	80.007	19.994	103.984	20.122	3.127	0.493
395.500	275.592	80.008	19.995	103.985	20.123	3.066	0.480
396.000	275.849	80.007	19.995	103.985	20.122	3.145	0.522
396.500	276.120	80.007	19.994	103.985	20.122	3.138	0.539
397.000	276.351	80.007	19.995	103.984	20.122	3.125	0.515
397.500	276.637	80.008	19.994	103.985	20.122	3.101	0.509
398.000	276.867	80.006	19.994	103.985	20.124	2.987	0.517
398.500	277.094	80.008	19.995	103.985	20.126	2.879	0.487
399.000	277.350	80.007	19.994	103.985	20.123	3.055	0.470
399.500	277.598	80.008	19.993	103.985	20.124	3.000	0.493
400.000	277.859	80.008	19.994	103.985	20.123	3.066	0.507
400.500	278.106	80.009	19.993	103.985	20.123	3.062	0.509
401.001	278.378	80.008	19.994	103.985	20.123	3.068	0.513
401.501	278.643	80.008	19.994	103.984	20.121	3.195	0.528
402.000	278.872	80.009	19.994	103.983	20.126	2.866	0.516
402.500	279.103	80.008	19.994	103.983	20.121	3.197	0.477
403.000	279.363	80.009	19.995	103.983	20.124	3.013	0.475
403.500	279.651	80.008	19.995	103.983	20.123	3.075	0.520
404.000	279.896	80.009	19.994	103.985	20.122	3.112	0.540
404.500	280.137	80.007	19.993	103.986	20.126	2.822	0.509
405.000	280.379	80.008	19.995	103.986	20.126	2.870	0.485
405.500	280.635	80.009	19.994	103.986	20.123	3.035	0.491
406.000	280.924	80.009	19.995	103.986	20.124	3.007	0.522
406.500	281.185	80.007	19.995	103.985	20.126	2.859	0.548
407.000	281.426	80.009	19.994	103.987	20.124	2.961	0.526
407.500	281.684	80.008	19.993	103.986	20.122	3.105	0.500
408.000	281.911	80.007	19.993	103.987	20.124	2.978	0.492
408.500	282.166	80.006	19.995	103.987	20.124	2.972	0.483
409.000	282.423	80.009	19.994	103.987	20.122	3.085	0.497
409.500	282.646	80.008	19.995	103.986	20.125	2.884	0.496
410.000	282.935	80.007	19.994	103.986	20.124	2.969	0.496
410.500	283.217	80.007	19.994	103.985	20.125	2.906	0.541
411.000	283.459	80.007	19.994	103.986	20.125	2.936	0.547
411.500	283.733	80.008	19.994	103.984	20.122	3.136	0.520
412.000	283.959	80.008	19.994	103.984	20.123	3.046	0.508
412.500	284.283	80.008	19.993	103.984	20.124	2.952	0.525
413.000	284.501	80.008	19.993	103.985	20.126	2.815	0.546
413.500	284.781	80.007	19.994	103.984	20.124	3.007	0.520
414.000	285.025	80.006	19.994	103.985	20.127	2.783	0.511
414.500	285.284	80.007	19.994	103.984	20.124	2.978	0.514
415.000	285.566	80.006	19.994	103.984	20.124	3.011	0.522
415.500	285.847	80.008	19.993	103.984	20.122	3.081	0.552
416.000	286.044	80.007	19.993	103.984	20.123	3.026	0.521
416.500	286.332	80.007	19.995	103.984	20.125	2.925	0.482
417.000	286.614	80.009	19.995	103.985	20.123	3.059	0.527
417.500	286.865	80.008	19.995	103.985	20.121	3.180	0.551
418.000	287.142	80.008	19.994	103.985	20.122	3.125	0.530
418.500	287.363	80.007	19.994	103.985	20.119	3.290	0.513
419.000	287.683	80.008	19.995	103.985	20.124	3.004	0.520
419.500	287.928	80.007	19.994	103.985	20.120	3.215	0.552
420.001	288.199	80.007	19.994	103.985	20.124	2.960	0.540
420.500	288.463	80.008	19.994	103.986	20.121	3.180	0.526
421.000	288.692	80.009	19.993	103.987	20.122	3.125	0.514
421.500	288.992	80.007	19.994	103.987	20.124	3.013	0.511
422.000	289.261	80.009	19.995	103.987	20.124	2.994	0.549
422.500	289.512	80.008	19.994	103.987	20.123	3.055	0.544
423.000	289.781	80.008	19.994	103.987	20.126	2.873	0.520
423.500	290.065	80.009	19.993	103.986	20.122	3.119	0.536
424.000	290.298	80.008	19.994	103.986	20.124	2.993	0.535
424.500	290.544	80.008	19.993	103.986	20.122	3.134	0.498
425.001	290.798	80.009	19.994	103.986	20.122	3.112	0.490
425.500	291.107	80.009	19.994	103.986	20.124	2.972	0.531
426.000	291.368	80.009	19.993	103.987	20.120	3.215	0.566
426.500	291.634	80.009	19.994	103.988	20.121	3.187	0.549
427.000	291.927	80.009	19.994	103.988	20.121	3.160	0.543
427.500	292.176	80.010	19.994	103.989	20.120	3.259	0.550
428.000	292.423	80.009	19.993	103.989	20.122	3.090	0.519
428.500	292.680	80.010	19.993	103.987	20.121	3.165	0.500
429.000	292.960	80.010	19.993	103.985	20.120	3.252	0.521
429.500	293.212	80.008	19.994	103.985	20.119	3.303	0.534
430.000	293.478	80.009	19.993	103.984	20.124	2.963	0.525
430.500	293.743	80.009	19.993	103.984	20.122	3.086	0.524
431.000	294.007	80.010	19.993	103.984	20.120	3.250	0.530
431.500	294.273	80.009	19.994	103.985	20.123	3.037	0.530
432.000	294.510	80.008	19.993	103.985	20.122	3.127	0.517
432.500	294.766	80.008	19.993	103.984	20.123	3.070	0.498
433.000	295.043	80.008	19.993	103.984	20.124	2.985	0.513
433.500	295.277	80.008	19.993	103.985	20.123	3.063	0.521
434.000	295.563	80.007	19.993	103.985	20.124	2.987	0.515
434.500	295.823	80.007	19.993	103.983	20.120	3.244	0.533
435.000	296.061	80.007	19.992	103.984	20.123	3.070	0.522
435.500	296.329	80.006	19.992	103.984	20.121	3.161	0.502
436.000	296.586	80.006	19.993	103.984	20.122	3.081	0.515
436.500	296.871	80.006	19.994	103.984	20.125	2.906	0.533
437.000	297.091	80.006	19.994	103.986	20.123	3.020	0.523
437.500	297.380	80.006	19.993	103.986	20.120	3.226	0.507
438.000	297.660	80.005	19.993	103.987	20.123	3.026	0.539
438.500	297.889	80.006	19.993	103.988	20.122	3.117	0.539
439.000	298.144	80.006	19.993	103.988	20.121	3.167	0.496
439.500	298.412	80.006	19.994	103.988	20.122	3.108	0.504
440.000	298.649	80.005	19.993	103.987	20.123	3.015	0.514
440.500	298.940	80.006	19.993	103.985	20.121	3.187	0.517
441.000	299.182	80.006	19.993	103.985	20.128	2.721	0.530
441.500	299.448	80.004	19.993	103.984	20.124	2.978	0.520
442.000	299.681	80.006	19.994	103.984	20.125	2.891	0.503
442.500	299.926	80.006	19.994	103.985	20.125	2.941	0.489
443.000	300.225	80.006	19.994	103.986	20.123	3.022	0.511
443.500	300.482	80.006	19.993	103.987	20.120	3.266	0.550
444.000	300.762	80.005	19.995	103.986	20.120	3.270	0.546
444.500	300.996	80.005	19.994	103.986	20.123	3.069	0.526
445.000	301.268	80.006	19.995	103.984	20.125	2.937	0.510
445.500	301.544	80.006	19.994	103.984	20.123	3.049	0.527
446.000	301.759	80.006	19.995	103.981	20.124	2.972	0.519
446.500	302.049	80.006	19.995	103.978	20.123	3.031	0.497
447.000	302.290	80.006	19.995	103.977	20.124	3.005	0.518
447.500	302.546	80.006	19.994	103.976	20.124	2.979	0.514
448.000	302.801	80.005	19.995	103.977	20.125	2.939	0.504
448.500	303.061	80.007	19.995	103.979	20.124	2.978	0.513
449.000	303.344	80.005	19.993	103.980	20.124	2.963	0.529
449.500	303.566	80.007	19.996	103.980	20.123	3.049	0.524
450.000	303.845	80.006	19.998	103.982	20.123	3.036	0.503
450.500	304.112	80.006	19.995	103.981	20.124	2.990	0.523
451.000	304.346	80.007	19.997	103.981	20.126	2.817	0.523
451.500	304.623	80.006	19.996	103.980	20.125	2.933	0.506
452.000	304.857	80.007	19.995	103.976	20.128	2.735	0.511
452.500	305.137	80.008	19.996	103.975	20.124	2.959	0.513
453.000	305.381	80.007	19.995	103.976	20.126	2.873	0.518
453.500	305.611	80.007	19.995	103.975	20.125	2.945	0.498
454.000	305.867	80.006	19.995	103.976	20.124	2.996	0.480
454.500	306.132	80.007	19.995	103.977	20.123	3.046	0.504
455.000	306.407	80.007	19.994	103.971	20.126	2.814	0.531
455.500	306.659	80.007	19.996	103.968	20.125	2.915	0.534
456.000	306.894	80.006	19.994	103.966	20.126	2.823	0.507
456.500	307.183	80.006	19.994	103.964	20.123	3.014	0.506
457.000	307.439	80.006	19.996	103.963	20.125	2.899	0.534
457.500	307.652	80.005	19.995	103.965	20.125	2.900	0.507
458.000	307.894	80.006	19.995	103.968	20.124	2.954	0.462
458.500	308.184	80.005	19.995	103.971	20.122	3.095	0.494
459.000	308.409	80.007	19.995	103.970	20.123	3.018	0.523
459.500	308.694	80.005	19.994	103.971	20.124	2.952	0.512
460.000	308.955	80.008	19.994	103.971	20.127	2.755	0.528
460.500	309.217	80.006	19.994	103.965	20.127	2.775	0.534
461.000	309.459	80.007	19.994	103.962	20.125	2.885	0.513
461.500	309.728	80.006	19.994	103.962	20.126	2.862	0.508
462.001	309.962	80.006	19.994	103.958	20.124	2.968	0.507
462.500	310.224	80.006	19.995	103.957	20.123	3.018	0.499
463.000	310.466	80.006	19.995	103.961	20.124	2.983	0.500
463.501	310.717	80.006	19.995	103.964	20.126	2.863	0.499
464.000	310.993	80.006	19.994	103.966	20.123	3.019	0.510
464.500	311.245	80.006	19.995	103.973	20.125	2.935	0.527
465.000	311.508	80.006	19.994	103.974	20.125	2.940	0.521
465.500	311.738	80.006	19.995	103.972	20.126	2.876	0.504
466.000	312.039	80.005	19.994	103.969	20.123	3.064	0.512
466.500	312.283	80.004	19.994	103.966	20.122	3.086	0.539
467.000	312.523	80.006	19.994	103.967	20.126	2.838	0.515
467.500	312.776	80.007	19.994	103.967	20.125	2.898	0.488
468.000	313.053	80.006	19.995	103.968	20.123	3.069	0.512
468.500	313.309	80.007	19.994	103.971	20.122	3.091	0.532
469.000	313.585	80.006	19.994	103.974	20.123	3.034	0.532
469.500	313.804	80.007	19.994	103.974	20.123	3.069	0.513
470.000	314.083	80.005	19.994	103.976	20.122	3.104	0.496
470.500	314.321	80.006	19.995	103.973	20.120	3.256	0.507
471.000	314.591	80.005	19.995	103.967	20.121	3.192	0.513
471.500	314.819	80.005	19.995	103.963	20.123	3.051	0.503
472.000	315.073	80.007	19.995	103.959	20.122	3.080	0.490
472.500	315.308	80.007	19.995	103.961	20.121	3.192	0.486
473.000	315.580	80.007	19.995	103.963	20.122	3.134	0.498
473.500	315.831	80.005	19.994	103.965	20.122	3.088	0.515
474.000	316.085	80.005	19.996	103.964	20.122	3.097	0.514
474.500	316.365	80.005	19.994	103.962	20.121	3.176	0.519
475.000	316.587	80.006	19.994	103.955	20.121	3.163	0.518
475.500	316.828	80.006	19.995	103.954	20.123	3.073	0.483
476.000	317.088	80.007	19.995	103.955	20.125	2.924	0.482
476.500	317.330	80.006	19.994	103.959	20.120	3.233	0.501
477.000	317.621	80.007	19.995	103.962	20.121	3.185	0.517
477.500	317.802	80.006	19.995	103.962	20.126	2.845	0.503
478.000	318.092	80.006	19.995	103.960	20.122	3.115	0.472
478.501	318.314	80.007	19.995	103.960	20.123	3.018	0.491
479.000	318.568	80.006	19.995	103.956	20.120	3.244	0.494
479.500	318.861	80.007	19.995	103.956	20.124	3.001	0.512
480.000	319.073	80.007	19.996	103.961	20.124	3.008	0.525
480.500	319.334	80.007	19.995	103.962	20.123	3.014	0.489
481.000	319.593	80.007	19.994	103.958	20.123	3.060	0.497
481.500	319.860	80.006	19.995	103.956	20.121	3.176	0.523
482.000	320.095	80.006	19.996	103.958	20.122	3.110	0.514
482.500	320.344	80.008	19.995	103.957	20.123	3.025	0.493
483.000	320.607	80.008	19.994	103.957	20.124	3.008	0.498
483.500	320.850	80.008	19.995	103.960	20.122	3.109	0.509
484.000	321.099	80.008	19.995	103.966	20.123	3.014	0.499
484.500	321.339	80.008	19.996	103.965	20.121	3.176	0.491
485.000	321.608	80.007	19.995	103.965	20.123	3.029	0.499
485.500	321.839	80.007	19.995	103.968	20.120	3.251	0.504
486.000	322.053	80.008	19.995	103.968	20.120	3.225	0.472
486.500	322.313	80.007	19.994	103.962	20.119	3.284	0.460
487.000	322.612	80.008	19.995	103.961	20.122	3.143	0.517
487.500	322.809	80.007	19.994	103.963	20.121	3.198	0.528
488.000	323.090	80.007	19.994	103.962	20.118	3.356	0.487
488.500	323.310	80.007	19.995	103.964	20.122	3.126	0.490
489.000	323.586	80.008	19.995	103.967	20.120	3.279	0.498
489.500	323.791	80.008	19.994	103.966	20.118	3.383	0.488
490.000	324.101	80.007	19.994	103.961	20.118	3.350	0.498
490.501	324.353	80.008	19.993	103.958	20.120	3.262	0.539
491.001	324.577	80.007	19.994	103.956	20.120	3.242	0.519
491.500	324.838	80.008	19.994	103.958	20.115	3.558	0.481
492.000	325.102	80.008	19.994	103.959	20.119	3.319	0.505
492.500	325.311	80.007	19.994	103.960	20.119	3.312	0.499
493.000	325.567	80.008	19.993	103.964	20.122	3.106	0.469
493.501	325.852	80.007	19.995	103.965	20.120	3.275	0.503
494.001	326.100	80.008	19.993	103.960	20.120	3.255	0.537
494.500	326.307	80.007	19.994	103.959	20.118	3.412	0.494
495.000	326.616	80.009	19.993	103.957	20.120	3.260	0.486
495.500	326.797	80.007	19.993	103.958	20.119	3.309	0.503
496.000	327.068	80.006	19.994	103.961	20.119	3.295	0.471
496.500	327.332	80.007	19.995	103.962	20.122	3.093	0.493
497.000	327.586	80.007	19.993	103.965	20.120	3.256	0.526
497.500	327.786	80.007	19.994	103.972	20.117	3.416	0.486
498.000	328.064	80.007	19.994	103.971	20.121	3.213	0.466
498.500	328.286	80.007	19.993	103.968	20.117	3.468	0.489
499.000	328.564	80.006	19.993	103.968	20.118	3.384	0.500
499.500	328.776	80.007	19.994	103.966	20.119	3.327	0.495
500.000	329.026	80.007	19.994	103.965	20.118	3.360	0.476
500.500	329.250	80.008	19.994	103.961	20.119	3.343	0.468
501.000	329.512	80.008	19.994	103.959	20.119	3.297	0.480
501.500	329.781	80.007	19.994	103.960	20.118	3.367	0.508
502.000	330.036	80.007	19.995	103.963	20.118	3.376	0.527
502.500	330.312	80.008	19.994	103.961	20.118	3.365	0.528
503.000	330.549	80.007	19.993	103.965	20.119	3.321	0.522
503.500	330.768	80.006	19.993	103.964	20.120	3.264	0.485
504.000	331.015	80.007	19.994	103.966	20.120	3.259	0.461
504.500	331.299	80.009	19.995	103.963	20.118	3.413	0.498
505.000	331.533	80.007	19.994	103.961	20.120	3.218	0.525
505.500	331.779	80.008	19.994	103.957	20.119	3.339	0.499
506.000	332.026	80.008	19.993	103.956	20.117	3.423	0.487
506.500	332.290	80.008	19.994	103.952	20.118	3.379	0.502
507.000	332.523	80.008	19.993	103.954	20.119	3.280	0.504
507.500	332.799	80.009	19.994	103.954	20.117	3.436	0.503
508.000	333.081	80.009	19.994	103.961	20.120	3.216	0.534
508.500	333.320	80.008	19.995	103.966	20.119	3.289	0.540
509.000	333.560	80.007	19.993	103.969	20.119	3.343	0.500
509.500	333.823	80.011	19.997	103.972	20.119	3.280	0.491
510.000	334.105	80.009	19.997	103.978	20.118	3.394	0.524
510.500	334.333	80.009	19.997	103.974	20.119	3.345	0.527
511.000	334.562	80.010	19.996	103.973	20.116	3.523	0.484
511.500	334.787	80.008	19.994	103.970	20.117	3.444	0.456
512.000	335.041	80.009	19.996	103.965	20.116	3.541	0.466
512.500	335.318	80.009	19.994	103.964	20.117	3.458	0.505
513.000	335.558	80.010	19.995	103.967	20.116	3.543	0.524
513.500	335.833	80.008	19.994	103.970	20.117	3.455	0.516
514.000	336.061	80.009	19.994	103.974	20.113	3.682	0.509
514.500	336.301	80.010	19.994	103.977	20.112	3.748	0.486
515.000	336.537	80.009	19.995	103.971	20.116	3.533	0.472
515.500	336.759	80.009	19.993	103.965	20.116	3.533	0.467
516.000	337.049	80.009	19.995	103.959	20.115	3.568	0.485
516.500	337.315	80.009	19.994	103.955	20.112	3.796	0.534
517.000	337.574	80.008	19.994	103.952	20.117	3.427	0.540
517.500	337.804	80.009	19.995	103.952	20.116	3.531	0.507
518.001	338.047	80.008	19.993	103.951	20.114	3.623	0.481
518.500	338.313	80.007	19.994	103.950	20.112	3.772	0.491
519.000	338.554	80.007	19.994	103.950	20.116	3.491	0.508
519.500	338.794	80.008	19.994	103.948	20.113	3.684	0.494
520.000	339.024	80.008	19.993	103.952	20.113	3.695	0.475
520.500	339.305	80.008	19.994	103.958	20.115	3.590	0.490
521.000	339.526	80.007	19.994	103.959	20.112	3.787	0.506
521.500	339.783	80.007	19.993	103.958	20.112	3.785	0.490
522.000	340.067	80.007	19.994	103.962	20.111	3.836	0.509
522.500	340.283	80.006	19.993	103.959	20.113	3.691	0.521
523.000	340.546	80.007	19.995	103.956	20.112	3.748	0.490
523.500	340.811	80.007	19.994	103.957	20.110	3.888	0.504
524.000	341.057	80.008	19.995	103.958	20.114	3.618	0.519
524.500	341.293	80.007	19.993	103.954	20.113	3.715	0.497
525.000	341.501	80.007	19.995	103.955	20.113	3.693	0.463
525.500	341.790	80.008	19.993	103.954	20.113	3.682	0.470
526.000	342.079	80.007	19.994	103.951	20.113	3.699	0.537
526.500	342.300	80.008	19.993	103.950	20.113	3.712	0.544
527.000	342.532	80.007	19.994	103.949	20.114	3.616	0.482
527.500	342.783	80.007	19.994	103.946	20.111	3.833	0.468
528.000	343.000	80.006	19.993	103.946	20.112	3.801	0.475
528.500	343.257	80.006	19.994	103.946	20.114	3.647	0.471
529.000	343.502	80.005	19.995	103.948	20.115	3.570	0.488
529.500	343.750	80.006	19.993	103.948	20.113	3.719	0.497
530.000	344.000	80.007	19.994	103.949	20.111	3.823	0.495
530.500	344.253	80.007	19.993	103.947	20.115	3.574	0.500
531.000	344.507	80.007	19.994	103.947	20.112	3.756	0.505
531.500	344.754	80.007	19.994	103.946	20.110	3.903	0.504
532.000	345.031	80.008	19.994	103.947	20.112	3.757	0.512
532.500	345.284	80.007	19.994	103.947	20.113	3.721	0.527
533.000	345.507	80.007	19.994	103.946	20.109	3.987	0.503
533.500	345.768	80.007	19.993	103.946	20.109	3.947	0.480
534.000	346.025	80.007	19.994	103.947	20.111	3.840	0.501
534.500	346.265	80.007	19.994	103.947	20.115	3.601	0.508
535.000	346.489	80.007	19.994	103.947	20.112	3.790	0.481
535.500	346.763	80.007	19.993	103.948	20.110	3.930	0.481
536.000	347.048	80.008	19.993	103.951	20.110	3.930	0.528
536.500	347.249	80.006	19.993	103.952	20.113	3.737	0.523
537.000	347.528	80.008	19.994	103.953	20.113	3.703	0.483
537.500	347.797	80.007	19.993	103.952	20.108	4.028	0.514
538.000	348.048	80.007	19.994	103.952	20.111	3.859	0.534
538.500	348.275	80.008	19.994	103.950	20.113	3.712	0.499
539.000	348.543	80.007	19.994	103.948	20.111	3.870	0.486
539.500	348.769	80.008	19.993	103.947	20.109	3.987	0.494
540.000	349.056	80.006	19.994	103.947	20.112	3.781	0.504
540.500	349.303	80.008	19.994	103.946	20.111	3.827	0.523
541.000	349.566	80.007	19.994	103.946	20.109	3.947	0.522
541.500	349.808	80.007	19.994	103.946	20.110	3.908	0.507
542.000	350.096	80.007	19.993	103.948	20.107	4.105	0.517
542.500	350.326	80.007	19.994	103.948	20.110	3.910	0.524
543.000	350.585	80.006	19.993	103.948	20.108	4.040	0.504
543.500	350.821	80.007	19.994	103.948	20.108	4.044	0.492
544.000	351.066	80.006	19.995	103.947	20.110	3.919	0.488
544.500	351.299	80.006	19.994	103.948	20.110	3.939	0.480
545.000	351.548	80.005	19.994	103.948	20.109	3.965	0.480
545.500	351.785	80.007	19.994	103.947	20.110	3.901	0.483
546.000	352.073	80.006	19.995	103.948	20.109	3.972	0.505
546.500	352.323	80.005	19.997	103.948	20.106	4.151	0.532
547.000	352.560	80.007	19.994	103.948	20.105	4.257	0.513
547.500	352.805	80.005	19.995	103.950	20.107	4.118	0.484
548.000	353.080	80.007	19.995	103.953	20.103	4.375	0.501
548.500	353.368	80.006	19.995	103.953	20.108	4.035	0.542
549.000	353.637	80.007	19.996	103.952	20.107	4.083	0.560
549.500	353.831	80.006	19.994	103.953	20.107	4.081	0.510
550.000	354.120	80.005	19.996	103.951	20.109	3.972	0.473
550.500	354.370	80.007	19.995	103.950	20.106	4.206	0.511
551.000	354.618	80.006	19.994	103.953	20.104	4.318	0.519
551.500	354.858	80.005	19.994	103.955	20.106	4.204	0.493
552.000	355.129	80.005	19.994	103.954	20.106	4.173	0.500
552.500	355.374	80.006	19.994	103.955	20.105	4.243	0.513
553.000	355.631	80.004	19.995	103.953	20.107	4.136	0.509
553.500	355.898	80.007	19.995	103.951	20.106	4.176	0.513
554.000	356.113	80.005	19.995	103.950	20.103	4.356	0.502
554.500	356.392	80.006	19.996	103.951	20.106	4.193	0.488
555.000	356.609	80.006	19.995	103.952	20.106	4.167	0.496
555.500	356.874	80.006	19.995	103.951	20.105	4.246	0.489
556.000	357.158	80.006	19.995	103.952	20.104	4.314	0.515
556.500	357.427	80.006	19.994	103.953	20.105	4.250	0.551
557.000	357.666	80.006	19.995	103.953	20.107	4.107	0.530
557.500	357.903	80.006	19.994	103.953	20.102	4.419	0.492
558.000	358.164	80.007	19.995	103.953	20.103	4.376	0.487
558.500	358.392	80.005	19.995	103.952	20.104	4.336	0.493
559.000	358.698	80.006	19.995	103.952	20.106	4.207	0.512
559.500	358.937	80.006	19.995	103.952	20.107	4.108	0.540
560.000	359.199	80.008	19.995	103.952	20.104	4.316	0.523
560.500	359.437	80.007	19.995	103.952	20.106	4.202	0.500
561.000	359.668	80.007	19.994	103.952	20.101	4.492	0.484
561.500	359.921	80.007	19.994	103.951	20.103	4.356	0.476
562.000	360.190	80.006	19.996	103.950	20.104	4.286	0.503
562.500	360.465	80.007	19.994	103.953	20.106	4.209	0.533
563.000	360.663	80.007	19.993	103.955	20.103	4.408	0.508
563.500	360.965	80.007	19.995	103.956	20.106	4.208	0.487
564.000	361.226	80.008	19.994	103.956	20.101	4.511	0.531
564.500	361.447	80.008	19.995	103.956	20.102	4.444	0.522
565.000	361.714	80.006	19.995	103.954	20.099	4.628	0.485
565.500	361.951	80.008	19.995	103.953	20.104	4.296	0.496
566.000	362.203	80.008	19.993	103.953	20.100	4.556	0.497
566.500	362.440	80.008	19.994	103.957	20.101	4.507	0.489
567.000	362.757	80.006	19.994	103.956	20.102	4.470	0.521
567.500	363.004	80.007	19.995	103.956	20.101	4.510	0.558
568.000	363.216	80.007	19.994	103.953	20.101	4.490	0.511
568.500	363.494	80.007	19.995	103.951	20.099	4.644	0.475
569.000	363.742	80.006	19.993	103.948	20.099	4.661	0.508
569.500	363.968	80.007	19.995	103.948	20.095	4.938	0.500
570.000	364.226	80.007	19.995	103.948	20.099	4.617	0.479
570.500	364.494	80.006	19.995	103.949	20.099	4.646	0.505
571.000	364.773	80.008	19.995	103.949	20.098	4.692	0.537
571.500	364.993	80.007	19.995	103.949	20.100	4.553	0.523
572.000	365.267	80.008	19.993	103.949	20.098	4.723	0.496
572.500	365.528	80.006	19.995	103.950	20.098	4.718	0.514
573.000	365.812	80.006	19.994	103.950	20.095	4.925	0.540
573.500	366.055	80.007	19.994	103.950	20.098	4.723	0.536
574.001	366.266	80.006	19.995	103.950	20.100	4.560	0.491
574.501	366.576	80.008	19.995	103.953	20.092	5.127	0.488
575.000	366.814	80.008	19.995	103.953	20.096	4.856	0.535
575.500	367.073	80.007	19.994	103.953	20.103	4.354	0.523
576.000	367.325	80.006	19.994	103.953	20.094	4.955	0.504
576.500	367.557	80.007	19.996	103.954	20.088	5.373	0.497
577.000	367.850	80.006	19.994	103.950	20.097	4.808	0.504
577.500	368.120	80.007	19.995	103.950	20.091	5.192	0.544
578.000	368.373	80.007	19.994	103.949	20.102	4.477	0.543
578.500	368.606	80.005	19.996	103.949	20.101	4.494	0.505
579.000	368.845	80.007	19.994	103.948	20.095	4.918	0.479
579.500	369.169	80.007	19.997	103.948	20.090	5.276	0.517
580.000	369.366	80.007	19.995	103.948	20.098	4.733	0.542
580.500	369.634	80.006	19.995	103.947	20.092	5.083	0.493
581.000	369.892	80.007	19.994	103.946	20.096	4.876	0.495
581.500	370.191	80.007	19.994	103.946	20.093	5.045	0.541
582.000	370.453	80.007	19.996	103.946	20.092	5.102	0.559
582.500	370.675	80.007	19.995	103.945	20.092	5.124	0.523
583.001	370.984	80.008	19.995	103.946	20.093	5.036	0.508
583.500	371.135	80.007	19.994	103.945	20.094	5.008	0.495
584.000	371.500	80.007	19.995	103.946	20.091	5.192	0.488
584.500	371.671	80.007	19.994	103.945	20.091	5.210	0.526
585.000	371.878	80.008	19.996	103.945	20.091	5.182	0.457
585.500	372.288	80.008	19.995	103.945	20.094	4.960	0.497
586.000	372.419	80.007	19.994	103.945	20.090	5.256	0.579
586.500	372.727	80.006	19.995	103.945	20.091	5.182	0.490
587.001	373.042	80.007	19.994	103.945	20.088	5.351	0.531
587.501	373.235	80.007	19.993	103.945	20.089	5.322	0.565
588.000	373.690	80.009	19.994	103.945	20.090	5.276	0.578
588.500	373.490	80.008	19.993	103.945	20.089	5.318	0.452
589.000	374.317	80.007	19.994	103.946	20.091	5.151	0.441
589.500	374.386	80.010	19.994	103.947	20.088	5.349	0.761
590.000	374.386	80.008	19.993	103.947	20.090	5.276	0.483
590.500	374.758	80.009	19.993	103.947	20.089	5.305	0.221
591.000	375.172	80.008	19.993	103.947	20.089	5.344	0.579
591.500	375.343	80.009	19.993	103.946	20.086	5.509	0.685
592.000	375.948	80.009	19.994	103.946	20.088	5.355	0.680
592.500	376.209	80.010	19.995	103.946	20.090	5.228	0.821
593.000	376.469	80.009	19.993	103.946	20.084	5.675	0.694
593.500	376.192	80.010	19.993	103.945	20.082	5.776	0.252
594.000	376.665	80.009	19.992	103.947	20.086	5.546	0.090
594.500	376.831	80.010	19.993	103.947	20.087	5.480	0.418
595.000	377.387	80.010	19.993	103.947	20.084	5.638	0.681
595.500	377.494	80.009	19.993	103.946	20.084	5.629	0.692
596.000	377.689	80.008	19.993	103.947	20.082	5.765	0.482
596.500	377.893	80.009	19.994	103.946	20.084	5.664	0.351
597.000	378.247	80.009	19.993	103.946	20.081	5.858	0.478
597.500	378.517	80.009	19.993	103.946	20.082	5.814	0.591
598.001	378.678	80.009	19.993	103.946	20.086	5.533	0.528
598.500	379.007	80.008	19.993	103.946	20.081	5.853	0.460
599.000	379.333	80.009	19.993	103.944	20.083	5.728	0.572
599.500	379.641	80.008	19.993	103.943	20.082	5.798	0.645
600.000	379.713	80.008	19.994	103.943	20.077	6.084	0.507
600.500	380.032	80.008	19.993	103.943	20.081	5.832	0.386
601.000	380.359	80.008	19.994	103.944	20.081	5.878	0.519
601.500	380.496	80.009	19.993	103.943	20.078	6.045	0.555
602.000	380.818	80.007	19.994	103.945	20.078	6.042	0.461
602.500	381.045	80.006	19.995	103.945	20.076	6.169	0.504
603.000	381.307	80.007	19.993	103.945	20.076	6.178	0.519
603.500	381.580	80.007	19.994	103.946	20.078	6.029	0.511
604.000	381.846	80.006	19.994	103.948	20.076	6.174	0.537
604.500	382.175	80.006	19.994	103.949	20.074	6.297	0.568
605.000	382.377	80.006	19.994	103.948	20.072	6.466	0.563
605.500	382.609	80.007	19.994	103.948	20.071	6.488	0.482
606.000	382.870	80.007	19.993	103.947	20.073	6.371	0.464
606.500	383.119	80.007	19.994	103.946	20.074	6.286	0.502
607.000	383.385	80.007	19.993	103.946	20.072	6.428	0.513
607.500	383.599	80.007	19.994	103.946	20.074	6.297	0.497
608.000	383.867	80.006	19.993	103.945	20.074	6.295	0.481
608.500	384.140	80.007	19.994	103.946	20.071	6.521	0.512
609.000	384.406	80.007	19.993	103.946	20.072	6.457	0.540
609.500	384.642	80.008	19.993	103.946	20.073	6.405	0.520
610.000	384.894	80.007	19.993	103.945	20.071	6.518	0.495
610.500	385.172	80.007	19.994	103.946	20.071	6.501	0.509
611.000	385.434	80.006	19.994	103.946	20.072	6.466	0.535
611.500	385.690	80.007	19.994	103.945	20.069	6.659	0.529
612.000	385.973	80.006	19.993	103.944	20.069	6.661	0.528
612.500	386.194	80.005	19.994	103.944	20.068	6.692	0.522
613.000	386.445	80.008	19.994	103.945	20.066	6.819	0.488
613.500	386.746	80.006	19.994	103.945	20.068	6.742	0.512
614.000	386.969	80.005	19.994	103.947	20.069	6.677	0.538
614.500	387.237	80.006	19.994	103.947	20.068	6.716	0.508
615.000	387.468	80.007	19.994	103.946	20.068	6.719	0.495
615.500	387.744	80.006	19.993	103.946	20.066	6.817	0.503
616.000	388.003	80.006	19.993	103.947	20.065	6.907	0.521
616.500	388.254	80.007	19.993	103.947	20.065	6.936	0.522
617.000	388.521	80.006	19.994	103.948	20.063	7.034	0.514
617.500	388.750	80.006	19.994	103.949	20.061	7.153	0.507
618.000	389.012	80.008	19.994	103.948	20.062	7.144	0.494
618.500	389.232	80.007	19.993	103.945	20.061	7.166	0.487
619.000	389.526	80.007	19.994	103.943	20.062	7.146	0.498
619.501	389.766	80.006	19.993	103.943	20.061	7.155	0.524
620.000	390.032	80.006	19.994	103.944	20.064	7.008	0.520
620.500	390.314	80.007	19.995	103.945	20.059	7.326	0.527
621.000	390.540	80.008	19.993	103.948	20.057	7.467	0.529
621.500	390.845	80.008	19.994	103.950	20.056	7.506	0.520
622.000	391.053	80.006	19.993	103.950	20.060	7.274	0.522
622.500	391.354	80.007	19.994	103.949	20.058	7.393	0.510
623.000	391.545	80.005	19.994	103.948	20.056	7.524	0.500
623.500	391.839	80.007	19.993	103.947	20.057	7.470	0.488
624.000	392.133	80.007	19.993	103.947	20.052	7.766	0.536
624.500	392.360	80.008	19.994	103.947	20.053	7.707	0.554
625.000	392.595	80.008	19.993	103.946	20.052	7.786	0.492
625.501	392.886	80.008	19.993	103.947	20.050	7.939	0.494
626.000	393.134	80.007	19.994	103.945	20.049	7.988	0.533
626.500	393.372	80.007	19.994	103.945	20.051	7.863	0.513
627.000	393.657	80.007	19.993	103.943	20.048	8.069	0.505
627.500	393.896	80.008	19.992	103.945	20.047	8.091	0.523
628.000	394.189	80.006	19.992	103.945	20.049	8.005	0.528
628.501	394.443	80.007	19.995	103.948	20.047	8.115	0.539
629.000	394.702	80.005	19.992	103.948	20.049	8.008	0.530
629.500	394.945	80.006	19.995	103.949	20.047	8.142	0.508
630.000	395.213	80.006	19.994	103.949	20.046	8.160	0.506
630.500	395.477	80.006	19.994	103.949	20.044	8.346	0.522
631.000	395.677	80.006	19.993	103.949	20.045	8.245	0.498
631.500	396.008	80.006	19.994	103.949	20.042	8.457	0.497
632.000	396.199	80.006	19.994	103.948	20.043	8.405	0.526
632.500	396.487	80.006	19.993	103.948	20.044	8.320	0.500
633.000	396.724	80.006	19.995	103.948	20.040	8.588	0.502
633.500	396.987	80.006	19.993	103.944	20.036	8.854	0.513
634.000	397.248	80.006	19.994	103.942	20.037	8.767	0.512
634.500	397.480	80.005	19.995	103.942	20.036	8.881	0.508
635.000	397.749	80.005	19.994	103.941	20.034	8.993	0.497
635.500	398.005	80.006	19.994	103.941	20.033	9.076	0.513
636.000	398.262	80.005	19.994	103.941	20.031	9.191	0.519
636.500	398.487	80.006	19.994	103.943	20.031	9.179	0.497
637.000	398.777	80.006	19.995	103.941	20.030	9.278	0.499
637.500	399.043	80.005	19.994	103.940	20.030	9.247	0.536
638.000	399.247	80.006	19.994	103.941	20.029	9.286	0.513
638.500	399.515	80.006	19.993	103.943	20.028	9.391	0.471
639.000	399.786	80.005	19.993	103.940	20.028	9.402	0.506
639.500	400.036	80.005	19.993	103.938	20.025	9.613	0.530
640.000	400.262	80.005	19.994	103.939	20.024	9.640	0.498
640.500	400.543	80.006	19.994	103.935	20.022	9.777	0.491
641.000	400.792	80.005	19.994	103.936	20.019	9.990	0.518
641.500	401.030	80.006	19.994	103.939	20.017	10.135	0.508
642.000	401.307	80.006	19.994	103.944	20.015	10.240	0.501
642.500	401.558	80.006	19.994	103.944	20.015	10.227	0.522
643.000	401.803	80.007	19.995	103.944	20.011	10.537	0.512
643.500	402.093	80.006	19.995	103.939	20.012	10.482	0.516
644.000	402.333	80.008	19.994	103.937	20.011	10.510	0.533
644.500	402.586	80.007	19.994	103.933	20.007	10.786	0.511
645.000	402.873	80.007	19.995	103.927	20.008	10.746	0.516
645.500	403.128	80.007	19.993	103.926	20.005	10.929	0.541
646.001	403.394	80.007	19.994	103.926	20.002	11.121	0.532
646.500	403.614	80.007	19.995	103.927	20.002	11.101	0.504
647.000	403.879	80.008	19.994	103.923	20.002	11.121	0.485
647.500	404.108	80.008	19.994	103.926	20.000	11.260	0.489
648.000	404.371	80.009	19.994	103.928	19.999	11.303	0.493
648.500	404.611	80.009	19.994	103.930	20.001	11.216	0.498
649.000	404.860	80.008	19.993	103.931	19.997	11.440	0.496
649.500	405.106	80.008	19.994	103.936	19.994	11.620	0.492
650.000	405.391	80.007	19.995	103.936	19.993	11.697	0.513
650.500	405.637	80.009	19.994	103.934	19.992	11.784	0.531
651.000	405.854	80.009	19.994	103.930	19.993	11.712	0.496
651.500	406.164	80.009	19.995	103.929	19.987	12.092	0.495
652.000	406.411	80.008	19.996	103.929	19.988	12.040	0.542
652.500	406.692	80.008	19.994	103.926	19.987	12.107	0.543
653.000	406.935	80.009	19.995	103.925	19.988	12.066	0.526
653.501	407.184	80.009	19.995	103.928	19.984	12.312	0.508
654.000	407.442	80.008	19.993	103.926	19.981	12.522	0.500
654.500	407.708	80.008	19.995	103.922	19.980	12.575	0.515
655.000	407.964	80.009	19.993	103.926	19.977	12.785	0.523
655.500	408.182	80.008	19.996	103.931	19.977	12.801	0.497
656.000	408.450	80.008	19.994	103.934	19.975	12.916	0.480
656.500	408.698	80.008	19.993	103.934	19.976	12.868	0.501
657.000	408.957	80.008	19.993	103.939	19.973	13.077	0.512
657.500	409.253	80.009	19.994	103.941	19.969	13.299	0.531
658.000	409.491	80.009	19.994	103.941	19.966	13.507	0.544
658.500	409.725	80.007	19.995	103.939	19.962	13.803	0.503
659.000	410.021	80.008	19.993	103.941	19.959	13.994	0.501
659.500	410.267	80.007	19.994	103.939	19.955	14.219	0.537
660.000	410.528	80.007	19.992	103.937	19.953	14.353	0.525
660.500	410.747	80.007	19.995	103.934	19.946	14.818	0.493
661.000	411.002	80.006	19.993	103.936	19.944	14.963	0.477
661.500	411.254	80.007	19.993	103.939	19.941	15.157	0.491
662.000	411.516	80.008	19.995	103.941	19.939	15.350	0.511
662.500	411.776	80.008	19.994	103.939	19.935	15.563	0.518
663.000	412.027	80.006	19.995	103.935	19.933	15.714	0.516
663.500	412.268	80.006	19.992	103.929	19.927	16.144	0.501
664.000	412.500	80.007	19.993	103.922	19.924	16.336	0.482
664.500	412.769	80.007	19.996	103.917	19.921	16.489	0.487
665.000	413.032	80.008	19.995	103.913	19.920	16.555	0.516
665.500	413.271	80.007	19.994	103.912	19.919	16.667	0.517
666.000	413.511	80.007	19.995	103.910	19.914	16.976	0.490
666.500	413.808	80.007	19.994	103.909	19.913	17.058	0.508
667.000	414.022	80.008	19.993	103.906	19.913	17.043	0.524
667.500	414.287	80.007	19.992	103.905	19.910	17.245	0.496
668.000	414.528	80.008	19.995	103.904	19.908	17.407	0.492
668.500	414.825	80.007	19.994	103.903	19.905	17.608	0.522
669.000	415.026	80.007	19.995	103.902	19.903	17.703	0.518
669.500	415.269	80.007	19.995	103.904	19.905	17.602	0.471
670.000	415.505	80.008	19.993	103.905	19.898	18.063	0.462
670.500	415.774	80.008	19.994	103.904	19.898	18.020	0.492
671.000	416.047	80.009	19.995	103.904	19.896	18.178	0.524
671.500	416.309	80.009	19.996	103.904	19.895	18.254	0.539
672.000	416.552	80.007	19.995	103.904	19.892	18.429	0.520
672.500	416.776	80.007	19.998	103.904	19.890	18.591	0.486
673.000	417.048	80.009	19.995	103.905	19.886	18.868	0.482
673.500	417.270	80.009	19.994	103.906	19.884	19.003	0.495
674.000	417.560	80.009	19.994	103.906	19.879	19.327	0.503
674.500	417.799	80.009	19.994	103.910	19.875	19.580	0.520
675.000	418.049	80.009	19.996	103.915	19.871	19.828	0.509
675.500	418.315	80.009	19.996	103.918	19.869	20.004	0.503
676.000	418.543	80.008	19.993	103.921	19.869	20.019	0.505
676.500	418.816	80.009	19.993	103.923	19.863	20.370	0.497
677.000	419.043	80.008	19.996	103.925	19.859	20.638	0.500
677.500	419.281	80.008	19.995	103.921	19.858	20.720	0.482
678.000	419.531	80.009	19.994	103.918	19.849	21.307	0.476
678.500	419.787	80.009	19.994	103.917	19.849	21.351	0.497
679.000	420.022	80.008	19.995	103.919	19.844	21.664	0.499
679.500	420.291	80.009	19.995	103.914	19.838	22.066	0.498
680.000	420.518	80.008	19.995	103.913	19.834	22.343	0.501
680.500	420.778	80.007	19.995	103.913	19.827	22.755	0.492
681.000	421.035	80.010	19.992	103.913	19.822	23.128	0.501
681.500	421.274	80.007	19.994	103.910	19.814	23.646	0.506
682.000	421.541	80.009	19.994	103.910	19.808	24.074	0.501
682.500	421.802	80.008	19.995	103.914	19.798	24.693	0.517
683.000	422.069	80.008	19.995	103.915	19.795	24.943	0.528
683.500	422.283	80.008	19.994	103.920	19.788	25.416	0.505
684.000	422.550	80.006	19.994	103.926	19.776	26.211	0.481
684.500	422.767	80.007	19.994	103.934	19.767	26.760	0.483
685.000	423.051	80.007	19.993	103.938	19.765	26.931	0.493
685.500	423.259	80.005	19.995	103.945	19.756	27.549	0.497
686.000	423.515	80.006	19.993	103.947	19.747	28.129	0.478
686.500	423.785	80.008	19.993	103.942	19.739	28.667	0.495
687.000	424.040	80.005	19.994	103.935	19.730	29.264	0.525
687.500	424.278	80.006	19.993	103.927	19.722	29.784	0.509
688.000	424.488	80.007	19.993	103.919	19.713	30.400	0.471
688.500	424.741	80.006	19.994	103.905	19.707	30.772	0.455
689.000	424.981	80.004	19.993	103.897	19.700	31.265	0.478
689.500	425.261	80.006	19.995	103.895	19.691	31.861	0.506
690.000	425.522	80.006	19.996	103.893	19.683	32.368	0.531
690.500	425.738	80.007	19.995	103.890	19.678	32.691	0.509
691.000	426.025	80.006	19.994	103.889	19.668	33.406	0.490
691.500	426.264	80.006	19.993	103.886	19.661	33.883	0.514
692.000	426.472	80.006	19.994	103.880	19.652	34.459	0.486
692.500	426.757	80.006	19.994	103.875	19.645	34.943	0.470
693.000	427.022	80.006	19.995	103.874	19.635	35.581	0.522
693.500	427.239	80.006	19.995	103.878	19.628	36.067	0.516
694.000	427.502	80.007	19.994	103.886	19.618	36.687	0.481
694.500	427.726	80.006	19.994	103.894	19.606	37.535	0.484
695.000	427.999	80.006	19.993	103.902	19.600	37.949	0.492
695.500	428.235	80.005	19.994	103.907	19.588	38.691	0.503
696.000	428.474	80.007	19.994	103.908	19.576	39.514	0.492
696.500	428.749	80.005	19.991	103.905	19.564	40.318	0.494
697.000	429.026	80.006	19.995	103.901	19.550	41.268	0.533
697.500	429.241	80.006	19.995	103.900	19.538	42.030	0.522
698.000	429.501	80.006	19.993	103.901	19.530	42.611	0.483
698.500	429.737	80.006	19.993	103.903	19.514	43.644	0.485
699.000	430.006	80.007	19.995	103.906	19.500	44.610	0.500
699.500	430.221	80.005	19.995	103.911	19.483	45.761	0.495
700.000	430.464	80.006	19.994	103.909	19.470	46.579	0.471
700.500	430.714	80.007	19.995	103.906	19.453	47.707	0.475
701.000	430.957	80.006	19.993	103.901	19.439	48.640	0.492
701.500	431.184	80.007	19.994	103.897	19.424	49.647	0.481
702.000	431.432	80.006	19.995	103.894	19.409	50.669	0.473
702.500	431.709	80.007	19.994	103.890	19.390	51.947	0.500
703.000	431.917	80.007	19.993	103.885	19.375	52.926	0.505
703.500	432.176	80.007	19.994	103.884	19.354	54.300	0.476
704.000	432.461	80.006	19.993	103.881	19.336	55.487	0.505
704.500	432.688	80.006	19.993	103.877	19.322	56.451	0.528
705.000	432.938	80.005	19.994	103.875	19.300	57.889	0.494
705.500	433.175	80.006	19.992	103.875	19.282	59.080	0.482
706.000	433.423	80.007	19.993	103.874	19.261	60.476	0.486
706.500	433.689	80.007	19.993	103.874	19.242	61.748	0.499
707.000	433.918	80.007	19.993	103.872	19.219	63.272	0.505
707.500	434.206	80.006	19.992	103.872	19.193	64.972	0.506
708.000	434.391	80.006	19.995	103.872	19.163	66.954	0.495
708.500	434.652	80.007	19.993	103.873	19.134	68.925	0.459
709.000	434.927	80.007	19.993	103.878	19.103	70.992	0.491
709.500	435.169	80.007	19.994	103.886	19.072	73.061	0.526
710.000	435.399	80.007	19.994	103.896	19.043	74.963	0.495
710.500	435.651	80.008	19.994	103.906	19.011	77.083	0.477
711.000	435.920	80.008	19.993	103.913	18.978	79.332	0.501
711.500	436.132	80.007	19.994	103.914	18.946	81.481	0.501
712.000	436.413	80.006	19.993	103.911	18.912	83.754	0.487
712.500	436.639	80.007	19.993	103.902	18.876	86.161	0.500
713.000	436.901	80.006	19.993	103.893	18.844	88.249	0.498
713.500	437.185	80.006	19.993	103.886	18.805	90.862	0.517
714.000	437.418	80.006	19.994	103.878	18.772	93.081	0.532
714.500	437.642	80.006	19.994	103.869	18.735	95.534	0.487
715.000	437.924	80.006	19.994	103.862	18.703	97.666	0.482
715.500	438.141	80.006	19.994	103.852	18.670	99.837	0.502
716.000	438.373	80.006	19.994	103.839	18.638	101.947	0.474
716.500	438.659	80.007	19.992	103.822	18.607	104.012	0.483
717.000	438.884	80.007	19.994	103.802	18.572	106.285	0.515
717.500	439.129	80.006	19.994	103.784	18.544	108.138	0.490
718.000	439.391	80.005	19.994	103.768	18.509	110.487	0.488
718.500	439.644	80.007	19.994	103.754	18.473	112.870	0.511
719.000	439.857	80.006	19.994	103.740	18.436	115.306	0.491
719.500	440.107	80.006	19.993	103.736	18.397	117.865	0.465
720.000	440.369	80.006	19.993	103.735	18.358	120.484	0.488
720.500	440.609	80.006	19.993	103.738	18.318	123.151	0.507
721.000	440.858	80.006	19.994	103.749	18.275	126.037	0.495
721.500	441.115	80.006	19.993	103.766	18.236	128.607	0.498
722.000	441.373	80.006	19.993	103.777	18.195	131.378	0.511
722.500	441.583	80.007	19.993	103.783	18.150	134.369	0.492
723.000	441.786	80.006	19.994	103.788	18.105	137.326	0.441
723.500	442.087	80.008	19.993	103.794	18.056	140.533	0.459
724.000	442.286	80.007	19.994	103.800	18.011	143.493	0.502
724.500	442.547	80.008	19.992	103.806	17.970	146.189	0.479
725.000	442.806	80.007	19.993	103.808	17.926	149.085	0.490
725.500	443.076	80.008	19.994	103.800	17.879	152.199	0.525
726.000	443.302	80.007	19.994	103.786	17.833	155.280	0.513
726.500	443.594	80.007	19.994	103.767	17.788	158.244	0.507
727.000	443.814	80.008	19.993	103.743	17.741	161.404	0.515
727.500	444.059	80.007	19.993	103.722	17.688	164.912	0.488
728.000	444.297	80.007	19.994	103.707	17.637	168.368	0.474
728.500	444.557	80.007	19.993	103.691	17.585	171.828	0.491
729.000	444.826	80.008	19.994	103.680	17.530	175.496	0.514
729.500	445.026	80.008	19.994	103.672	17.472	179.351	0.499
730.000	445.290	80.007	19.993	103.663	17.415	183.101	0.466
730.500	445.536	80.008	19.994	103.660	17.360	186.681	0.487
731.000	445.780	80.008	19.995	103.660	17.303	190.456	0.500
731.500	446.006	80.007	19.993	103.664	17.244	194.242	0.480
732.000	446.282	80.008	19.992	103.670	17.188	197.945	0.486
732.500	446.511	80.009	19.994	103.682	17.132	201.589	0.504
733.000	446.746	80.007	19.994	103.680	17.076	205.265	0.485
733.500	446.998	80.009	19.995	103.670	17.018	209.034	0.475
734.000	447.232	80.008	19.996	103.659	16.958	213.001	0.486
734.500	447.508	80.008	19.994	103.642	16.894	217.231	0.498
735.000	447.769	80.009	19.994	103.617	16.826	221.727	0.523
735.500	447.992	80.008	19.993	103.591	16.758	226.289	0.511
736.000	448.257	80.009	19.994	103.572	16.687	231.027	0.486
736.500	448.491	80.008	19.993	103.553	16.613	235.979	0.494
737.000	448.746	80.008	19.994	103.542	16.541	240.812	0.494
737.500	448.998	80.008	19.993	103.544	16.470	245.575	0.498
738.000	449.267	80.008	19.993	103.560	16.398	250.367	0.514
738.500	449.530	80.007	19.994	103.574	16.327	255.054	0.526
739.000	449.752	80.007	19.995	103.581	16.261	259.446	0.508
739.500	450.009	80.008	19.994	103.588	16.193	263.857	0.482
740.000	450.230	80.008	19.992	103.594	16.128	268.067	0.478
740.500	450.494	80.007	19.994	103.583	16.063	272.246	0.481
741.000	450.769	80.008	19.993	103.563	16.003	276.161	0.512
741.500	450.986	80.007	19.996	103.546	15.938	280.424	0.516
742.000	451.235	80.007	19.994	103.510	15.876	284.643	0.479
742.500	451.501	80.007	19.994	103.463	15.811	289.082	0.490
743.000	451.759	80.006	19.994	103.439	15.749	293.272	0.519
743.500	452.027	80.008	19.995	103.410	15.681	297.789	0.525
744.000	452.269	80.006	19.995	103.391	15.614	302.156	0.518
744.500	452.480	80.007	19.996	103.364	15.535	307.071	0.482
745.000	452.727	80.006	19.994	103.354	15.457	311.910	0.456
745.500	452.988	80.007	19.993	103.326	15.378	316.846	0.483
746.000	453.249	80.007	19.994	103.335	15.294	322.182	0.515
746.500	453.500	80.006	19.994	103.337	15.208	327.720	0.516
747.000	453.733	80.006	19.995	103.363	15.124	333.172	0.498
747.500	454.045	80.006	19.994	103.378	15.041	338.633	0.515
748.000	454.305	80.007	19.995	103.406	14.954	344.354	0.559
748.500	454.536	80.008	19.994	103.422	14.873	349.669	0.531
749.000	454.792	80.005	19.993	103.431	14.784	355.486	0.489
749.500	455.048	80.007	19.995	103.426	14.693	361.387	0.500
750.000	455.304	80.008	19.994	103.413	14.594	367.800	0.512
750.500	455.500	80.007	19.995	103.387	14.487	374.797	0.482
751.000	455.754	80.007	19.995	103.342	14.377	382.051	0.451
751.500	456.015	80.008	19.995	103.292	14.268	389.251	0.483
752.000	456.244	80.007	19.994	103.256	14.157	396.798	0.503
752.501	456.497	80.007	19.994	103.241	14.052	403.909	0.486
753.001	456.780	80.008	19.994	103.286	13.954	410.563	0.508
753.501	457.023	80.008	19.994	103.337	13.857	416.962	0.531
754.000	457.265	80.007	19.995	103.373	13.763	423.078	0.506
754.500	457.512	80.008	19.993	103.372	13.667	429.257	0.487
755.000	457.767	80.009	19.994	103.337	13.568	435.370	0.496
755.500	458.033	80.008	19.994	103.238	13.461	442.012	0.511
756.000	458.290	80.009	19.996	103.130	13.355	448.651	0.522
756.500	458.552	80.009	19.995	103.033	13.251	455.268	0.521
757.000	458.814	80.008	19.995	102.958	13.157	461.307	0.521
757.500	459.097	80.009	19.995	102.909	13.058	467.723	0.534
758.000	459.326	80.009	19.994	102.888	12.965	473.860	0.529
758.500	459.596	80.009	19.994	102.880	12.874	479.853	0.506
759.000	459.861	80.009	19.994	102.873	12.778	486.212	0.516
759.500	460.107	80.009	19.994	102.863	12.682	492.532	0.523
760.000	460.359	80.008	19.996	102.840	12.583	499.073	0.505
760.500	460.594	80.010	19.994	102.799	12.474	506.339	0.492
761.000	460.843	80.009	19.995	102.767	12.362	513.788	0.485
761.500	461.094	80.009	19.994	102.751	12.253	521.003	0.492
762.000	461.340	80.009	19.992	102.748	12.140	528.420	0.499
762.500	461.644	80.008	19.992	102.766	12.037	535.135	0.523
763.000	461.876	80.009	19.994	102.809	11.937	541.587	0.543
763.500	462.134	80.008	19.992	102.866	11.850	547.108	0.513
764.000	462.404	80.008	19.993	102.907	11.764	552.699	0.509
764.500	462.673	80.008	19.995	102.911	11.678	558.399	0.534
765.000	462.937	80.007	19.994	102.890	11.592	563.966	0.536
765.500	463.152	80.006	19.993	102.842	11.512	569.259	0.506
766.000	463.402	80.007	19.995	102.751	11.428	574.640	0.472
766.500	463.672	80.007	19.994	102.649	11.345	579.995	0.492
767.000	463.923	80.006	19.995	102.573	11.264	585.113	0.520
767.500	464.159	80.005	19.995	102.517	11.185	590.240	0.504
768.000	464.441	80.004	19.994	102.479	11.116	594.795	0.503
768.500	464.677	80.006	19.997	102.461	11.040	600.043	0.518
769.000	464.930	80.005	19.994	102.463	10.973	604.883	0.504
769.500	465.168	80.005	19.995	102.472	10.907	609.605	0.490
770.000	465.429	80.005	19.994	102.483	10.847	613.953	0.495
770.500	465.677	80.005	19.995	102.484	10.790	618.176	0.504
771.000	465.937	80.006	19.996	102.490	10.740	621.717	0.508
771.500	466.228	80.005	19.994	102.503	10.691	625.017	0.529
772.000	466.476	80.007	19.993	102.521	10.649	627.642	0.545
772.500	466.726	80.005	19.994	102.522	10.607	630.184	0.519
773.000	466.993	80.005	19.994	102.518	10.565	632.638	0.508
773.500	467.299	80.005	19.994	102.511	10.527	634.974	0.545
774.000	467.507	80.006	19.995	102.483	10.498	636.732	0.543
774.500	467.757	80.006	19.995	102.448	10.480	637.818	0.486
775.000	468.034	80.006	19.995	102.438	10.469	638.520	0.493
775.500	468.310	80.007	19.994	102.441	10.467	638.572	0.540
776.000	468.563	80.007	19.994	102.434	10.462	638.954	0.541
776.500	468.859	80.006	19.994	102.430	10.454	639.552	0.539
777.000	469.065	80.005	19.994	102.415	10.439	640.752	0.526
777.500	469.318	80.006	19.994	102.385	10.423	641.958	0.480
778.000	469.553	80.006	19.995	102.353	10.404	643.347	0.473
778.500	469.830	80.007	19.995	102.339	10.389	644.270	0.500
779.000	470.111	80.007	19.992	102.346	10.373	645.059	0.535
779.500	470.350	80.007	19.994	102.391	10.361	645.570	0.539
780.000	470.618	80.006	19.994	102.460	10.356	645.543	0.513
780.500	470.870	80.007	19.993	102.527	10.346	645.899	0.514
781.000	471.125	80.005	19.995	102.599	10.348	645.554	0.513
781.500	471.405	80.006	19.991	102.669	10.352	645.053	0.521
782.000	471.646	80.008	19.994	102.715	10.356	644.780	0.528
782.500	471.928	80.007	19.991	102.726	10.367	644.105	0.522
783.000	472.206	80.006	19.992	102.705	10.371	643.983	0.542
783.500	472.428	80.006	19.993	102.661	10.379	643.761	0.530
784.000	472.717	80.007	19.993	102.615	10.384	643.711	0.506
784.500	472.958	80.007	19.997	102.581	10.384	644.091	0.520
785.000	473.220	80.007	19.992	102.558	10.389	644.135	0.516
785.500	473.498	80.007	19.993	102.550	10.398	643.890	0.522
786.000	473.766	80.007	19.993	102.542	10.412	643.390	0.543
786.500	474.028	80.008	19.994	102.534	10.432	642.419	0.538
787.000	474.293	80.007	19.993	102.535	10.461	640.761	0.529
787.500	474.548	80.006	19.993	102.551	10.500	638.418	0.524
788.000	474.824	80.007	19.994	102.582	10.546	635.512	0.525
788.500	475.114	80.007	19.992	102.613	10.602	631.946	0.548
789.000	475.367	80.006	19.994	102.627	10.668	627.670	0.555
789.500	475.621	80.008	19.995	102.614	10.740	622.932	0.525
790.000	475.876	80.008	19.994	102.582	10.816	617.650	0.508
790.500	476.175	80.006	19.994	102.532	10.896	612.312	0.532
791.000	476.415	80.007	19.994	102.478	10.987	606.293	0.546
791.500	476.671	80.007	19.992	102.431	11.076	600.508	0.517
792.000	476.951	80.006	19.995	102.390	11.177	594.007	0.516
792.500	477.232	80.008	19.993	102.361	11.280	587.570	0.549
793.000	477.512	80.007	19.994	102.351	11.394	580.358	0.561
793.500	477.751	80.007	19.992	102.361	11.503	573.430	0.540
794.000	478.035	80.006	19.995	102.389	11.619	565.974	0.521
794.500	478.258	80.006	19.994	102.431	11.736	558.514	0.515
795.000	478.550	80.007	19.993	102.478	11.860	550.469	0.511
795.500	478.786	80.008	19.993	102.535	11.988	542.290	0.521
796.000	479.061	80.005	19.994	102.593	12.120	533.811	0.519
796.500	479.329	80.007	19.994	102.654	12.258	524.856	0.527
797.000	479.580	80.007	19.994	102.720	12.397	515.830	0.531
797.500	479.848	80.006	19.994	102.775	12.546	506.166	0.519
798.000	480.118	80.005	19.994	102.816	12.695	496.401	0.528
798.500	480.369	80.006	19.994	102.853	12.853	486.122	0.530
799.000	480.657	80.006	19.993	102.881	13.010	475.835	0.530
799.500	480.942	80.006	19.995	102.895	13.175	465.035	0.556
800.000	481.201	80.005	19.994	102.906	13.341	454.117	0.558
800.500	481.488	80.005	19.994	102.911	13.510	442.979	0.545
801.000	481.725	80.005	19.994	102.875	13.680	431.753	0.535
801.500	482.014	80.007	19.992	102.858	13.851	420.486	0.525
802.000	482.268	80.004	19.995	102.856	14.019	409.380	0.534
802.500	482.541	80.006	19.994	102.870	14.196	397.652	0.535
803.000	482.778	80.005	19.995	102.900	14.367	386.405	0.519
803.500	483.052	80.005	19.992	102.970	14.539	375.004	0.511
804.000	483.305	80.005	19.995	103.022	14.709	363.714	0.519
804.500	483.586	80.005	19.994	103.074	14.883	352.162	0.530
805.000	483.850	80.006	19.993	103.120	15.051	341.022	0.539
805.500	484.127	80.006	19.994	103.165	15.219	329.825	0.543
806.000	484.393	80.006	19.994	103.207	15.384	318.894	0.542
806.500	484.618	80.007	19.995	103.260	15.547	308.025	0.517
807.000	484.943	80.006	19.994	103.306	15.705	297.564	0.521
807.500	485.166	80.007	19.994	103.348	15.865	286.904	0.549
808.000	485.462	80.007	19.993	103.389	16.019	276.670	0.533
808.500	485.725	80.007	19.993	103.433	16.164	266.981	0.539
809.000	486.012	80.007	19.991	103.469	16.317	256.833	0.555
809.500	486.296	80.008	19.993	103.503	16.460	247.320	0.560
810.000	486.515	80.007	19.994	103.539	16.598	238.078	0.537
810.500	486.809	80.008	19.996	103.571	16.738	228.785	0.509
811.000	487.072	80.007	19.994	103.600	16.872	219.829	0.535
811.500	487.348	80.007	19.996	103.625	17.001	211.208	0.547
812.000	487.589	80.008	19.993	103.650	17.125	202.941	0.527
812.500	487.826	80.009	19.996	103.674	17.245	194.957	0.497
813.000	488.106	80.007	19.994	103.696	17.365	186.984	0.498
813.500	488.352	80.007	19.994	103.717	17.478	179.486	0.522
814.000	488.660	80.007	19.994	103.738	17.587	172.209	0.541
814.500	488.898	80.008	19.993	103.757	17.694	165.095	0.550
815.000	489.185	80.009	19.993	103.772	17.797	158.228	0.535
815.500	489.405	80.008	19.993	103.785	17.894	151.721	0.516
816.000	489.672	80.009	19.992	103.800	17.994	145.088	0.497
816.500	489.968	80.008	19.994	103.809	18.086	138.959	0.525
817.000	490.204	80.009	19.994	103.818	18.177	132.883	0.547
817.500	490.463	80.008	19.994	103.829	18.262	127.196	0.513
818.001	490.745	80.008	19.993	103.839	18.347	121.536	0.518
818.500	490.986	80.008	19.993	103.847	18.428	116.093	0.532
819.000	491.228	80.008	19.995	103.854	18.506	110.897	0.503
819.501	491.523	80.009	19.993	103.861	18.578	106.153	0.510
820.000	491.789	80.006	19.993	103.866	18.650	101.320	0.549
820.500	492.043	80.008	19.994	103.871	18.725	96.362	0.540
821.000	492.273	80.007	19.993	103.872	18.792	91.858	0.502
821.500	492.561	80.007	19.992	103.873	18.857	87.547	0.501
822.000	492.835	80.008	19.993	103.873	18.919	83.406	0.540
822.500	493.072	80.008	19.991	103.874	18.982	79.180	0.536
823.000	493.344	80.007	19.992	103.876	19.036	75.608	0.510
823.500	493.623	80.007	19.994	103.884	19.092	71.851	0.530
824.000	493.904	80.007	19.994	103.891	19.147	68.209	0.556
824.500	494.135	80.007	19.993	103.898	19.199	64.733	0.536
825.000	494.405	80.007	19.995	103.904	19.249	61.369	0.506
825.500	494.712	80.006	19.994	103.908	19.294	58.359	0.539
826.000	494.935	80.008	19.993	103.909	19.339	55.402	0.554
826.500	495.222	80.007	19.993	103.910	19.387	52.212	0.520
827.000	495.458	80.008	19.994	103.912	19.429	49.394	0.517
827.500	495.721	80.006	19.993	103.914	19.469	46.711	0.511
828.000	495.963	80.007	19.993	103.916	19.513	43.788	0.502
828.500	496.183	80.007	19.994	103.918	19.551	41.236	0.484
829.000	496.472	80.007	19.994	103.921	19.586	38.868	0.486
829.500	496.700	80.007	19.994	103.920	19.623	36.409	0.513
830.000	496.976	80.007	19.995	103.925	19.653	34.412	0.510
830.500	497.245	80.006	19.994	103.931	19.684	32.339	0.524
831.000	497.499	80.006	19.993	103.936	19.715	30.267	0.534
831.500	497.743	80.006	19.995	103.940	19.744	28.344	0.511
832.000	497.974	80.007	19.994	103.948	19.770	26.612	0.486
832.500	498.232	80.007	19.994	103.949	19.796	24.865	0.482
833.000	498.485	80.008	19.995	103.949	19.817	23.487	0.500
833.500	498.748	80.006	19.994	103.951	19.839	22.017	0.513
834.000	499.030	80.008	19.994	103.951	19.862	20.479	0.531
834.500	499.276	80.008	19.994	103.951	19.879	19.333	0.537
835.000	499.520	80.007	19.994	103.951	19.899	17.990	0.509
835.500	499.821	80.007	19.993	103.958	19.916	16.852	0.518
836.000	500.025	80.009	19.994	103.966	19.931	15.860	0.526
836.500	500.259	80.007	19.997	103.974	19.945	14.943	0.471
837.000	500.508	80.008	19.993	103.981	19.957	14.095	0.460
837.501	500.784	80.007	19.994	103.986	19.970	13.239	0.504
838.001	501.022	80.009	19.996	103.982	19.981	12.547	0.519
838.502	501.298	80.009	19.994	103.978	19.993	11.737	0.514
839.001	501.519	80.008	19.995	103.972	20.002	11.124	0.506
839.500	501.790	80.009	19.993	103.965	20.013	10.364	0.495
840.000	502.028	80.009	19.994	103.960	20.021	9.871	0.500
840.500	502.299	80.009	19.996	103.956	20.025	9.552	0.509
841.000	502.555	80.010	19.993	103.953	20.033	9.039	0.518
841.500	502.777	80.009	19.991	103.950	20.037	8.749	0.503
842.000	503.052	80.009	19.992	103.947	20.046	8.175	0.488
842.500	503.320	80.009	19.995	103.947	20.051	7.877	0.520
843.000	503.569	80.007	19.994	103.946	20.058	7.365	0.530
843.500	503.796	80.009	19.994	103.946	20.056	7.506	0.496
844.000	504.053	80.009	19.994	103.941	20.062	7.119	0.480
844.500	504.315	80.009	19.994	103.938	20.068	6.706	0.501
845.000	504.588	80.009	19.993	103.934	20.068	6.695	0.527
845.500	504.838	80.008	19.995	103.930	20.072	6.427	0.529
846.001	505.026	80.009	19.995	103.927	20.075	6.256	0.481
846.500	505.291	80.009	19.996	103.929	20.077	6.106	0.446
847.000	505.543	80.008	19.995	103.925	20.078	6.051	0.485
847.500	505.798	80.008	19.995	103.921	20.084	5.623	0.512
848.000	506.043	80.008	19.996	103.920	20.084	5.676	0.504
848.500	506.313	80.007	19.993	103.920	20.081	5.838	0.507
849.000	506.557	80.009	19.993	103.918	20.084	5.647	0.515
849.500	506.824	80.008	19.994	103.917	20.086	5.489	0.513
850.000	507.078	80.008	19.995	103.917	20.091	5.175	0.516
850.500	507.296	80.007	19.993	103.915	20.088	5.408	0.497
851.000	507.576	80.008	19.994	103.911	20.091	5.160	0.485
851.500	507.817	80.006	19.993	103.909	20.096	4.868	0.509
852.000	508.062	80.006	19.994	103.909	20.094	4.976	0.503
852.500	508.333	80.007	19.994	103.909	20.096	4.842	0.502
853.000	508.567	80.008	19.993	103.909	20.096	4.842	0.511
853.500	508.867	80.007	19.993	103.907	20.096	4.825	0.520
854.000	509.091	80.006	19.994	103.907	20.096	4.871	0.529
854.500	509.357	80.006	19.994	103.907	20.097	4.791	0.507
855.000	509.605	80.006	19.994	103.907	20.098	4.726	0.502
855.500	509.848	80.007	19.995	103.906	20.098	4.710	0.502
856.000	510.108	80.007	19.994	103.906	20.099	4.666	0.497
856.500	510.363	80.007	19.995	103.906	20.102	4.417	0.509
857.000	510.600	80.005	19.995	103.906	20.102	4.465	0.503
857.500	510.875	80.006	19.995	103.906	20.103	4.382	0.502
858.000	511.104	80.006	19.996	103.906	20.104	4.295	0.508
858.500	511.372	80.006	19.995	103.905	20.104	4.339	0.500
859.000	511.634	80.006	19.994	103.905	20.103	4.350	0.514
859.500	511.836	80.006	19.994	103.905	20.105	4.243	0.497
860.000	512.115	80.006	19.994	103.905	20.104	4.288	0.473
860.500	512.344	80.004	19.995	103.906	20.107	4.098	0.495
861.000	512.603	80.007	19.995	103.906	20.105	4.209	0.498
861.500	512.833	80.005	19.996	103.904	20.109	3.965	0.488
862.000	513.098	80.005	19.995	103.903	20.105	4.270	0.492
862.500	513.331	80.006	19.995	103.902	20.109	3.987	0.497
863.000	513.582	80.007	19.996	103.896	20.106	4.189	0.491
863.500	513.850	80.007	19.995	103.895	20.106	4.168	0.502
864.000	514.126	80.006	19.996	103.890	20.108	4.040	0.531
864.500	514.368	80.006	19.993	103.889	20.109	3.964	0.531
865.000	514.653	80.005	19.995	103.890	20.109	3.966	0.523
865.500	514.922	80.008	19.996	103.895	20.107	4.108	0.541
866.000	515.166	80.007	19.996	103.894	20.107	4.121	0.533
866.500	515.424	80.005	19.995	103.892	20.108	4.037	0.507
867.000	515.703	80.006	19.994	103.887	20.107	4.128	0.520
867.500	515.899	80.006	19.994	103.878	20.109	3.967	0.506
868.000	516.186	80.006	19.995	103.870	20.108	4.017	0.479
868.500	516.419	80.006	19.996	103.862	20.109	3.985	0.502
869.000	516.659	80.005	19.993	103.853	20.110	3.907	0.497
869.500	516.914	80.008	19.997	103.844	20.114	3.668	0.484
870.000	517.201	80.007	19.997	103.836	20.111	3.870	0.518
870.500	517.444	80.008	19.996	103.823	20.113	3.737	0.536
871.000	517.741	80.006	19.995	103.807	20.110	3.879	0.535
871.500	517.997	80.005	19.996	103.793	20.111	3.873	0.546
872.000	518.223	80.007	19.996	103.774	20.110	3.927	0.518
872.500	518.500	80.007	19.997	103.754	20.110	3.918	0.493
873.000	518.747	80.006	19.995	103.732	20.114	3.665	0.514
873.500	518.986	80.007	19.995	103.708	20.114	3.636	0.505
874.000	519.290	80.008	19.996	103.685	20.115	3.568	0.514
874.500	519.523	80.007	19.996	103.666	20.113	3.691	0.540
875.000	519.779	80.007	19.995	103.649	20.114	3.667	0.513
875.500	520.018	80.008	19.996	103.645	20.114	3.626	0.492
876.000	520.301	80.006	19.993	103.648	20.112	3.760	0.508
876.500	520.574	80.008	19.995	103.656	20.112	3.776	0.539
877.000	520.805	80.008	19.993	103.669	20.112	3.795	0.530
877.500	521.093	80.007	19.996	103.685	20.114	3.672	0.512
878.000	521.293	80.005	19.994	103.699	20.114	3.631	0.503
878.500	521.562	80.006	19.994	103.715	20.113	3.681	0.478
879.000	521.818	80.005	19.994	103.738	20.116	3.517	0.497
879.500	522.069	80.006	19.995	103.763	20.116	3.538	0.516
880.000	522.300	80.006	19.995	103.786	20.114	3.651	0.495
880.500	522.588	80.006	19.995	103.808	20.117	3.446	0.500
881.000	522.827	80.006	19.994	103.827	20.114	3.639	0.523
881.500	523.083	80.006	19.994	103.841	20.116	3.540	0.511
882.000	523.350	80.006	19.995	103.851	20.115	3.611	0.509
882.500	523.601	80.005	19.993	103.859	20.112	3.806	0.520
883.000	523.884	80.007	19.995	103.866	20.116	3.488	0.526
883.500	524.137	80.004	19.994	103.873	20.119	3.343	0.536
884.000	524.393	80.004	19.994	103.876	20.116	3.518	0.523
884.500	524.633	80.004	19.994	103.882	20.115	3.591	0.502
885.000	524.857	80.009	19.993	103.887	20.114	3.613	0.480
885.500	525.150	80.006	19.995	103.891	20.114	3.669	0.490
886.000	525.364	80.005	19.993	103.897	20.113	3.683	0.512
886.500	525.629	80.006	19.992	103.904	20.113	3.727	0.493
887.000	525.867	80.008	19.994	103.906	20.114	3.663	0.491
887.500	526.159	80.007	19.996	103.910	20.113	3.699	0.517
888.000	526.416	80.007	19.995	103.912	20.113	3.734	0.540
888.500	526.690	80.008	19.994	103.911	20.116	3.520	0.540
889.000	526.938	80.006	19.994	103.912	20.110	3.902	0.527
889.500	527.167	80.006	19.994	103.912	20.116	3.527	0.499
890.000	527.423	80.007	19.995	103.911	20.116	3.535	0.481
890.500	527.669	80.006	19.994	103.912	20.116	3.491	0.493
891.000	527.930	80.006	19.994	103.912	20.117	3.465	0.505
891.500	528.201	80.007	19.993	103.915	20.115	3.606	0.520
892.000	528.455	80.006	19.993	103.915	20.118	3.397	0.529
892.500	528.696	80.007	19.994	103.916	20.118	3.393	0.510
893.000	529.001	80.007	19.994	103.919	20.119	3.340	0.521
893.500	529.245	80.007	19.994	103.922	20.118	3.356	0.548
894.000	529.471	80.007	19.996	103.919	20.116	3.488	0.509
894.500	529.716	80.008	19.994	103.921	20.115	3.577	0.470
895.000	529.983	80.008	19.994	103.926	20.119	3.290	0.491
895.500	530.244	80.008	19.993	103.926	20.119	3.290	0.520
896.001	530.503	80.009	19.992	103.926	20.120	3.239	0.524
896.500	530.782	80.007	19.993	103.927	20.120	3.266	0.529
897.000	530.994	80.008	19.993	103.926	20.120	3.228	0.514
897.500	531.264	80.007	19.994	103.921	20.117	3.417	0.486
898.000	531.503	80.008	19.993	103.917	20.122	3.118	0.495
898.500	531.728	80.008	19.993	103.915	20.117	3.420	0.487
899.000	532.017	80.007	19.994	103.920	20.112	3.752	0.490
899.500	532.255	80.006	19.995	103.923	20.118	3.405	0.521
900.000	532.496	80.006	19.996	103.927	20.117	3.461	0.503
900.500	532.741	80.008	19.994	103.930	20.118	3.352	0.483
901.000	532.997	80.007	19.992	103.933	20.119	3.327	0.494
901.500	533.285	80.008	19.994	103.930	20.120	3.249	0.522
902.000	533.504	80.008	19.992	103.928	20.117	3.415	0.526
902.500	533.740	80.009	19.993	103.924	20.116	3.529	0.481
903.000	534.003	80.008	19.994	103.922	20.118	3.384	0.477
903.500	534.327	80.008	19.993	103.921	20.116	3.496	0.543
904.000	534.576	80.009	19.993	103.919	20.117	3.474	0.580
904.500	534.804	80.007	19.992	103.921	20.118	3.352	0.525
905.000	535.065	80.008	19.993	103.923	20.117	3.442	0.483
905.500	535.320	80.008	19.993	103.923	20.116	3.481	0.503
906.000	535.588	80.008	19.994	103.921	20.116	3.505	0.519
906.500	535.832	80.007	19.993	103.921	20.116	3.534	0.518
907.000	536.107	80.008	19.994	103.923	20.116	3.510	0.516
907.500	536.375	80.007	19.994	103.924	20.119	3.323	0.531
908.000	536.603	80.010	19.993	103.926	20.118	3.395	0.519
908.500	536.875	80.007	19.994	103.924	20.118	3.362	0.497
909.000	537.108	80.008	19.994	103.922	20.118	3.372	0.502
909.500	537.384	80.009	19.994	103.915	20.122	3.084	0.507
910.000	537.611	80.009	19.995	103.911	20.122	3.124	0.506
910.500	537.889	80.007	19.994	103.910	20.116	3.488	0.504
911.000	538.139	80.008	19.995	103.911	20.121	3.209	0.516
911.500	538.405	80.007	19.993	103.911	20.119	3.295	0.522
912.000	538.668	80.007	19.992	103.911	20.115	3.609	0.523
912.500	538.888	80.007	19.993	103.913	20.117	3.453	0.507
913.000	539.098	80.009	19.993	103.913	20.118	3.350	0.456
913.500	539.393	80.007	19.994	103.915	20.119	3.332	0.467
914.000	539.660	80.008	19.993	103.918	20.117	3.471	0.534
914.500	539.884	80.008	19.992	103.918	20.119	3.310	0.527
915.000	540.167	80.008	19.993	103.917	20.120	3.269	0.499
915.500	540.382	80.008	19.993	103.915	20.120	3.242	0.502
916.000	540.650	80.008	19.992	103.914	20.120	3.224	0.490
916.500	540.931	80.008	19.993	103.912	20.120	3.260	0.516
917.000	541.151	80.009	19.994	103.913	20.119	3.323	0.525
917.500	541.398	80.008	19.994	103.916	20.119	3.328	0.484
918.000	541.674	80.009	19.993	103.918	20.117	3.448	0.496
918.500	541.903	80.009	19.993	103.917	20.119	3.304	0.514
919.000	542.151	80.007	19.993	103.916	20.120	3.220	0.490
919.501	542.449	80.010	19.994	103.915	20.118	3.369	0.511
920.001	542.673	80.010	19.994	103.911	20.117	3.437	0.535
920.500	542.934	80.009	19.993	103.909	20.117	3.453	0.504
921.000	543.193	80.010	19.993	103.908	20.113	3.692	0.503
921.500	543.424	80.009	19.995	103.906	20.119	3.323	0.505
922.000	543.673	80.010	19.994	103.907	20.117	3.475	0.484
922.500	543.943	80.008	19.994	103.907	20.116	3.512	0.499
923.000	544.200	80.009	19.994	103.907	20.116	3.539	0.523
923.500	544.464	80.010	19.992	103.908	20.115	3.572	0.524
924.000	544.700	80.009	19.995	103.908	20.117	3.415	0.511
924.500	544.926	80.010	19.993	103.907	20.116	3.506	0.482
925.000	545.208	80.009	19.995	103.907	20.120	3.257	0.485
925.500	545.461	80.009	19.996	103.906	20.120	3.268	0.521
926.000	545.698	80.010	19.994	103.907	20.121	3.152	0.512
926.500	545.957	80.010	19.993	103.907	20.121	3.163	0.493
927.000	546.186	80.009	19.993	103.907	20.118	3.345	0.492
927.500	546.486	80.009	19.993	103.907	20.119	3.336	0.508
928.000	546.730	80.009	19.991	103.906	20.118	3.350	0.536
928.500	546.937	80.008	19.994	103.906	20.115	3.567	0.497
929.000	547.224	80.008	19.992	103.906	20.118	3.350	0.473
929.500	547.479	80.008	19.996	103.906	20.118	3.390	0.518
930.000	547.720	80.009	19.996	103.907	20.117	3.458	0.519
930.500	547.990	80.008	19.994	103.909	20.114	3.636	0.504
931.000	548.256	80.008	19.995	103.909	20.115	3.603	0.523
931.500	548.485	80.009	19.995	103.908	20.117	3.457	0.515
932.000	548.787	80.008	19.995	103.908	20.115	3.600	0.513
932.500	549.019	80.006	19.995	103.908	20.118	3.383	0.533
933.000	549.272	80.006	19.996	103.907	20.118	3.354	0.510
933.500	549.483	80.006	19.995	103.907	20.114	3.637	0.474
934.000	549.737	80.007	19.995	103.907	20.118	3.389	0.464
934.500	550.036	80.008	19.995	103.907	20.115	3.589	0.509
935.000	550.276	80.006	19.994	103.907	20.115	3.602	0.546
935.500	550.553	80.008	19.995	103.906	20.115	3.585	0.528
936.000	550.785	80.006	19.995	103.906	20.116	3.508	0.513
936.500	551.036	80.007	19.995	103.905	20.115	3.552	0.496
937.000	551.286	80.005	19.994	103.906	20.115	3.571	0.492
937.500	551.544	80.008	19.993	103.906	20.113	3.688	0.504
938.000	551.834	80.007	19.994	103.907	20.117	3.461	0.528
938.501	552.092	80.008	19.994	103.907	20.116	3.501	0.548
939.000	552.367	80.005	19.996	103.904	20.117	3.453	0.541
939.500	552.574	80.007	19.995	103.901	20.116	3.540	0.508
940.000	552.857	80.006	19.994	103.898	20.116	3.521	0.486
940.500	553.139	80.007	19.994	103.898	20.117	3.470	0.527
941.000	553.369	80.007	19.994	103.897	20.115	3.606	0.539
941.500	553.665	80.007	19.994	103.900	20.115	3.583	0.519
942.000	553.919	80.005	19.994	103.904	20.115	3.565	0.537
942.500	554.163	80.007	19.994	103.908	20.116	3.508	0.524
943.000	554.449	80.008	19.994	103.908	20.119	3.332	0.515
943.500	554.692	80.006	19.995	103.908	20.115	3.591	0.530
944.000	554.989	80.006	19.995	103.908	20.115	3.609	0.534
944.500	555.188	80.006	19.993	103.906	20.116	3.525	0.517
945.000	555.452	80.007	19.994	103.905	20.115	3.560	0.480
945.500	555.745	80.007	19.994	103.905	20.117	3.444	0.510
946.000	556.021	80.007	19.994	103.906	20.113	3.681	0.563
946.500	556.286	80.007	19.994	103.904	20.114	3.639	0.555
947.000	556.572	80.008	19.993	103.907	20.115	3.545	0.546
947.500	556.805	80.008	19.994	103.906	20.115	3.551	0.535
948.000	557.117	80.008	19.994	103.906	20.114	3.637	0.532
948.500	557.384	80.008	19.995	103.910	20.114	3.664	0.562
949.000	557.609	80.007	19.994	103.912	20.115	3.606	0.536
949.500	557.901	80.008	19.994	103.913	20.113	3.688	0.504
950.000	558.209	80.009	19.994	103.913	20.113	3.722	0.558
950.500	558.453	80.008	19.994	103.913	20.115	3.566	0.576
951.000	558.684	80.008	19.994	103.911	20.113	3.711	0.514
951.500	558.990	80.007	19.993	103.910	20.112	3.777	0.506
952.000	559.266	80.008	19.993	103.910	20.113	3.681	0.559
952.500	559.578	80.007	19.994	103.909	20.112	3.757	0.585
953.000	559.807	80.007	19.994	103.909	20.114	3.652	0.565
953.500	560.081	80.007	19.994	103.909	20.112	3.773	0.522
954.000	560.377	80.008	19.993	103.909	20.112	3.811	0.536
954.500	560.647	80.007	19.995	103.909	20.111	3.826	0.568
955.000	560.906	80.007	19.995	103.909	20.112	3.749	0.547
955.500	561.224	80.006	19.994	103.909	20.116	3.497	0.553
956.000	561.480	80.007	19.994	103.909	20.114	3.644	0.576
956.500	561.781	80.007	19.994	103.910	20.116	3.494	0.565
957.000	562.040	80.007	19.995	103.912	20.116	3.505	0.559
957.500	562.329	80.006	19.993	103.913	20.113	3.714	0.554
958.000	562.624	80.007	19.995	103.914	20.113	3.722	0.566
958.500	562.887	80.005	19.995	103.913	20.115	3.586	0.571
959.000	563.162	80.005	19.994	103.912	20.113	3.692	0.548
959.500	563.467	80.006	19.996	103.913	20.112	3.800	0.559
960.000	563.714	80.005	19.996	103.916	20.113	3.685	0.566
960.500	563.996	80.006	19.995	103.917	20.114	3.661	0.540
961.000	564.264	80.006	19.996	103.920	20.115	3.593	0.540
961.500	564.567	80.006	19.995	103.925	20.113	3.685	0.561
962.000	564.840	80.005	19.995	103.925	20.113	3.712	0.573
962.500	565.113	80.006	19.994	103.924	20.110	3.918	0.561
963.000	565.403	80.005	19.994	103.924	20.114	3.675	0.555
963.500	565.700	80.005	19.995	103.922	20.114	3.663	0.575
964.000	565.983	80.006	19.996	103.921	20.114	3.659	0.583
964.500	566.257	80.004	19.996	103.918	20.116	3.510	0.568
965.000	566.514	80.007	19.994	103.915	20.114	3.635	0.544
965.500	566.816	80.004	19.994	103.915	20.114	3.615	0.545
966.000	567.117	80.006	19.994	103.913	20.116	3.508	0.581
966.500	567.363	80.004	19.994	103.913	20.116	3.525	0.575
967.000	567.619	80.006	19.995	103.917	20.113	3.701	0.524
967.500	567.931	80.005	19.994	103.922	20.120	3.249	0.535
968.000	568.206	80.005	19.994	103.926	20.119	3.341	0.578
968.500	568.529	80.005	19.993	103.927	20.118	3.383	0.592
969.000	568.790	80.006	19.994	103.927	20.118	3.376	0.591
969.500	569.074	80.005	19.996	103.923	20.117	3.451	0.564
970.000	569.342	80.005	19.996	103.922	20.116	3.525	0.548
970.500	569.630	80.005	19.994	103.919	20.117	3.435	0.554
971.000	569.895	80.006	19.994	103.920	20.115	3.560	0.555
971.500	570.214	80.009	19.995	103.918	20.116	3.529	0.569
972.000	570.486	80.006	19.994	103.917	20.117	3.472	0.587
972.500	570.764	80.006	19.993	103.913	20.117	3.424	0.570
973.000	571.051	80.006	19.993	103.914	20.115	3.580	0.557
973.500	571.341	80.006	19.994	103.911	20.116	3.481	0.571
974.000	571.615	80.006	19.995	103.912	20.115	3.556	0.570
974.500	571.892	80.007	19.995	103.914	20.119	3.304	0.557
975.000	572.222	80.007	19.994	103.913	20.119	3.301	0.579
975.500	572.485	80.007	19.993	103.912	20.115	3.565	0.600
976.000	572.764	80.008	19.994	103.912	20.117	3.448	0.567
976.500	573.032	80.006	19.994	103.910	20.117	3.470	0.544
977.000	573.339	80.008	19.994	103.908	20.115	3.565	0.561
977.500	573.611	80.008	19.994	103.908	20.119	3.323	0.577
978.000	573.934	80.007	19.991	103.911	20.118	3.394	0.587
978.500	574.226	80.007	19.995	103.911	20.120	3.273	0.605
979.000	574.495	80.008	19.994	103.911	20.116	3.486	0.588
979.500	574.815	80.007	19.993	103.912	20.122	3.125	0.575
980.000	575.101	80.008	19.994	103.912	20.119	3.328	0.598
980.500	575.408	80.009	19.993	103.913	20.118	3.385	0.600
981.000	575.620	80.009	19.993	103.912	20.116	3.484	0.556
981.500	575.961	80.008	19.993	103.914	20.114	3.628	0.536
982.000	576.252	80.008	19.994	103.914	20.119	3.286	0.592
982.500	576.510	80.008	19.993	103.913	20.119	3.332	0.590
983.000	576.789	80.009	19.994	103.911	20.119	3.326	0.543
983.500	577.070	80.009	19.993	103.911	20.116	3.517	0.548
984.000	577.388	80.008	19.994	103.911	20.120	3.253	0.579
984.500	577.670	80.007	19.993	103.910	20.116	3.541	0.600
985.000	577.946	80.007	19.993	103.911	20.120	3.275	0.580
985.500	578.192	80.009	19.993	103.910	20.115	3.558	0.540
986.000	578.443	80.008	19.993	103.911	20.117	3.436	0.510
986.500	578.743	80.007	19.994	103.911	20.116	3.528	0.524
987.000	579.041	80.009	19.994	103.910	20.114	3.649	0.574
987.500	579.331	80.007	19.994	103.909	20.118	3.363	0.593
988.000	579.636	80.007	19.994	103.908	20.116	3.490	0.591
988.500	579.894	80.007	19.993	103.908	20.115	3.558	0.579
989.000	580.198	80.006	19.992	103.908	20.117	3.464	0.563
989.500	580.428	80.009	19.996	103.908	20.113	3.738	0.548
990.000	580.742	80.007	19.995	103.910	20.114	3.666	0.539
990.500	581.006	80.007	19.995	103.911	20.117	3.459	0.561
991.000	581.293	80.007	19.992	103.913	20.120	3.222	0.564
991.500	581.595	80.008	19.994	103.912	20.117	3.470	0.570
992.000	581.835	80.007	19.996	103.913	20.115	3.565	0.566
992.500	582.125	80.008	19.994	103.910	20.120	3.266	0.536
993.000	582.404	80.006	19.994	103.910	20.117	3.468	0.549
993.500	582.685	80.008	19.994	103.907	20.118	3.363	0.565
994.000	582.967	80.007	19.993	103.907	20.119	3.339	0.562
994.500	583.273	80.007	19.992	103.907	20.118	3.372	0.575
995.000	583.552	80.007	19.992	103.907	20.117	3.433	0.587
995.500	583.793	80.007	19.994	103.905	20.119	3.301	0.553
996.001	584.066	80.007	19.993	103.903	20.118	3.367	0.517
996.500	584.346	80.008	19.993	103.903	20.118	3.356	0.534
997.000	584.654	80.008	19.993	103.903	20.119	3.341	0.570
997.500	584.901	80.007	19.993	103.903	20.116	3.521	0.571
998.000	585.172	80.008	19.994	103.904	20.116	3.488	0.537
998.500	585.473	80.007	19.994	103.906	20.118	3.381	0.545
999.000	585.712	80.008	19.994	103.906	20.119	3.334	0.556
999.500	586.015	80.008	19.993	103.906	20.118	3.370	0.541
1000.000	586.282	80.008	19.993	103.906	20.118	3.372	0.556
1000.500	586.537	80.008	19.992	103.906	20.118	3.369	0.546
1001.000	586.847	80.008	19.994	103.906	20.116	3.495	0.544
1001.500	587.099	80.007	19.992	103.906	20.117	3.413	0.563
1002.000	587.352	80.008	19.994	103.907	20.119	3.335	0.533
1002.500	587.621	80.009	19.994	103.907	20.120	3.257	0.513
1003.000	587.901	80.008	19.992	103.907	20.117	3.418	0.535
1003.500	588.182	80.009	19.993	103.908	20.120	3.266	0.555
1004.000	588.435	80.009	19.994	103.909	20.120	3.242	0.548
1004.500	588.715	80.009	19.993	103.908	20.119	3.281	0.533
1005.000	588.997	80.010	19.996	103.908	20.120	3.224	0.548
1005.500	589.240	80.009	19.992	103.908	20.118	3.376	0.544
1006.000	589.539	80.009	19.991	103.905	20.120	3.244	0.533
1006.500	589.816	80.009	19.994	103.905	20.120	3.249	0.559
1007.000	590.078	80.009	19.994	103.905	20.119	3.337	0.557
1007.500	590.368	80.010	19.994	103.904	20.117	3.418	0.545
1008.000	590.625	80.008	19.992	103.902	20.117	3.470	0.549
1008.500	590.912	80.010	19.992	103.904	20.121	3.211	0.546
1009.000	591.171	80.010	19.992	103.905	20.118	3.409	0.546
1009.500	591.433	80.009	19.992	103.904	20.116	3.510	0.534
1010.000	591.733	80.010	19.992	103.906	20.119	3.292	0.541
1010.500	591.975	80.009	19.993	103.906	20.120	3.271	0.551
1011.000	592.231	80.010	19.991	103.906	20.117	3.442	0.520
1011.500	592.496	80.009	19.993	103.905	20.117	3.416	0.510
1012.000	592.793	80.009	19.993	103.905	20.116	3.497	0.542
1012.500	593.053	80.008	19.994	103.905	20.115	3.605	0.560
1013.000	593.350	80.009	19.994	103.903	20.118	3.360	0.557
1013.500	593.622	80.008	19.993	103.904	20.117	3.473	0.562
1014.000	593.889	80.008	19.993	103.905	20.120	3.266	0.554
1014.500	594.164	80.007	19.993	103.906	20.114	3.631	0.541
1015.000	594.450	80.007	19.994	103.906	20.118	3.402	0.552
1015.500	594.726	80.008	19.993	103.910	20.118	3.398	0.561
1016.000	594.970	80.007	19.994	103.908	20.119	3.293	0.541
1016.500	595.261	80.007	19.997	103.906	20.122	3.106	0.528
1017.000	595.509	80.006	19.994	103.905	20.119	3.302	0.537
1017.500	595.812	80.008	19.993	103.904	20.119	3.280	0.545
1018.000	596.077	80.007	19.993	103.905	20.118	3.347	0.560
1018.500	596.305	80.007	19.994	103.907	20.120	3.258	0.530
1019.000	596.626	80.007	19.994	103.908	20.119	3.293	0.521
1019.500	596.860	80.007	19.994	103.910	20.120	3.233	0.552
1020.000	597.122	80.006	19.993	103.910	20.119	3.321	0.525
1020.500	597.388	80.006	19.994	103.910	20.117	3.433	0.512
1021.000	597.676	80.006	19.994	103.910	20.120	3.215	0.541
1021.500	597.939	80.005	19.993	103.909	20.118	3.404	0.553
1022.000	598.180	80.007	19.992	103.909	20.120	3.242	0.527
1022.500	598.458	80.006	19.994	103.909	20.117	3.416	0.511
1023.000	598.688	80.006	19.995	103.909	20.119	3.317	0.514
1023.500	598.937	80.006	19.993	103.909	20.119	3.286	0.494
1024.001	599.211	80.005	19.995	103.910	20.119	3.293	0.501
1024.500	599.463	80.006	19.995	103.910	20.120	3.249	0.524
1025.000	599.742	80.005	19.995	103.910	20.124	3.002	0.528
1025.500	599.977	80.006	19.996	103.910	20.121	3.167	0.522
1026.000	600.270	80.005	19.995	103.910	20.120	3.251	0.521
1026.500	600.530	80.005	19.995	103.910	20.121	3.176	0.541
1027.000	600.775	80.005	19.994	103.908	20.118	3.383	0.529
1027.500	601.072	80.006	19.995	103.906	20.121	3.170	0.523
1028.001	601.328	80.004	19.997	103.906	20.119	3.336	0.548
1028.500	601.554	80.005	19.994	103.905	20.126	2.838	0.517
1029.000	601.831	80.005	19.993	103.905	20.125	2.930	0.492
1029.500	602.135	80.006	19.995	103.907	20.119	3.341	0.542
1030.000	602.386	80.007	19.994	103.911	20.121	3.168	0.568
1030.500	602.672	80.005	19.995	103.912	20.123	3.042	0.546
1031.000	602.904	80.006	19.994	103.913	20.121	3.159	0.528
1031.500	603.140	80.006	19.994	103.913	20.121	3.181	0.493
1032.000	603.421	80.007	19.994	103.913	20.122	3.121	0.493
1032.500	603.665	80.005	19.994	103.911	20.120	3.251	0.521
1033.000	603.928	80.005	19.996	103.908	20.122	3.080	0.516
1033.500	604.178	80.005	19.995	103.905	20.123	3.064	0.510
1034.000	604.427	80.006	19.995	103.905	20.124	2.974	0.506
1034.500	604.713	80.005	19.994	103.904	20.125	2.922	0.517
1035.000	604.972	80.007	19.994	103.905	20.124	2.950	0.540
1035.500	605.246	80.006	19.994	103.906	20.123	3.075	0.539
1036.000	605.459	80.006	19.995	103.909	20.124	2.992	0.510
1036.500	605.741	80.007	19.993	103.909	20.122	3.097	0.491
1037.000	605.985	80.007	19.994	103.908	20.122	3.084	0.510
1037.500	606.273	80.007	19.994	103.908	20.124	3.003	0.529
1038.000	606.517	80.007	19.994	103.908	20.123	3.042	0.532
1038.500	606.794	80.006	19.995	103.907	20.125	2.917	0.527
1039.000	607.019	80.007	19.994	103.906	20.121	3.176	0.512
1039.500	607.282	80.007	19.994	103.906	20.122	3.091	0.495
1040.000	607.547	80.005	19.994	103.906	20.122	3.117	0.508
1040.500	607.816	80.006	19.994	103.906	20.120	3.262	0.531
1041.000	608.050	80.006	19.994	103.906	20.123	3.016	0.519
1041.500	608.351	80.006	19.993	103.906	20.122	3.079	0.520
1042.000	608.601	80.006	19.995	103.907	20.124	3.002	0.543
1042.500	608.815	80.006	19.995	103.907	20.123	3.020	0.507
1043.000	609.091	80.006	19.994	103.907	20.122	3.115	0.477
1043.500	609.338	80.005	19.993	103.908	20.121	3.161	0.507
1044.000	609.621	80.006	19.994	103.907	20.124	3.011	0.526
1044.500	609.857	80.005	19.994	103.905	20.121	3.192	0.524
1045.000	610.144	80.006	19.993	103.903	20.122	3.113	0.521
1045.500	610.372	80.006	19.994	103.903	20.118	3.398	0.519
1046.000	610.645	80.007	19.995	103.902	20.121	3.211	0.508
1046.500	610.910	80.005	19.995	103.899	20.121	3.194	0.520
1047.000	611.157	80.006	19.994	103.901	20.123	3.023	0.525
1047.500	611.449	80.005	19.994	103.900	20.119	3.302	0.525
1048.000	611.680	80.005	19.996	103.900	20.121	3.152	0.531
1048.500	611.932	80.005	19.995	103.901	20.121	3.163	0.503
1049.000	612.170	80.003	19.993	103.903	20.122	3.108	0.487
1049.500	612.451	80.004	19.995	103.904	20.121	3.172	0.505
1050.000	612.694	80.006	19.998	103.906	20.121	3.189	0.521
1050.500	612.975	80.003	19.995	103.906	20.120	3.256	0.524
1051.000	613.170	80.004	19.995	103.909	20.120	3.222	0.500
1051.500	613.453	80.005	19.996	103.910	20.119	3.279	0.477
1052.001	613.691	80.005	19.995	103.910	20.123	3.045	0.500
1052.500	613.982	80.004	19.996	103.910	20.121	3.154	0.525
1053.000	614.247	80.005	19.994	103.910	20.122	3.124	0.543
1053.500	614.506	80.005	19.996	103.907	20.120	3.227	0.540
1054.000	614.730	80.005	19.995	103.904	20.120	3.231	0.503
1054.500	614.972	80.005	19.995	103.904	20.120	3.271	0.474
1055.000	615.280	80.004	19.996	103.905	20.120	3.253	0.508
1055.500	615.505	80.007	19.997	103.905	20.119	3.312	0.542
1056.000	615.750	80.007	19.994	103.905	20.120	3.213	0.502
1056.500	616.033	80.006	19.994	103.908	20.122	3.126	0.499
1057.000	616.283	80.007	19.995	103.907	20.120	3.275	0.530
1057.500	616.535	80.006	19.995	103.906	20.118	3.372	0.517
1058.000	616.786	80.008	19.994	103.906	20.125	2.880	0.503
1058.500	617.033	80.007	19.995	103.905	20.122	3.097	0.501
1059.000	617.283	80.006	19.997	103.905	20.123	3.057	0.497
1059.500	617.504	80.007	19.996	103.906	20.118	3.359	0.484
1060.000	617.795	80.008	19.996	103.906	20.124	2.987	0.491
1060.500	618.033	80.007	19.995	103.905	20.119	3.312	0.520
1061.000	618.285	80.008	19.994	103.904	20.120	3.264	0.510
1061.500	618.526	80.005	19.994	103.902	20.122	3.080	0.492
1062.000	618.790	80.006	19.993	103.903	20.123	3.064	0.499
1062.500	619.046	80.008	19.995	103.903	20.121	3.147	0.513
1063.000	619.288	80.008	19.994	103.903	20.123	3.062	0.509
1063.500	619.572	80.007	19.994	103.902	20.122	3.141	0.512
1064.000	619.810	80.008	19.995	103.902	20.118	3.360	0.524
1064.500	620.076	80.007	19.994	103.902	20.121	3.163	0.513
1065.000	620.296	80.008	19.994	103.902	20.122	3.079	0.495
1065.500	620.564	80.007	19.993	103.903	20.122	3.114	0.486
1066.000	620.828	80.007	19.994	103.905	20.124	3.002	0.510
1066.500	621.060	80.007	19.994	103.907	20.122	3.080	0.514
1067.000	621.343	80.008	19.993	103.907	20.124	2.994	0.506
1067.500	621.597	80.007	19.993	103.907	20.121	3.202	0.526
1068.000	621.833	80.008	19.994	103.907	20.122	3.101	0.513
1068.500	622.093	80.008	19.993	103.907	20.121	3.170	0.493
1069.000	622.315	80.008	19.994	103.907	20.126	2.860	0.489
1069.500	622.569	80.008	19.993	103.906	20.124	2.983	0.479
1070.000	622.834	80.007	19.994	103.907	20.123	3.071	0.497
1070.500	623.079	80.007	19.993	103.907	20.121	3.152	0.514
1071.000	623.336	80.006	19.993	103.907	20.123	3.038	0.506
1071.500	623.589	80.007	19.993	103.907	20.122	3.080	0.506
1072.000	623.843	80.006	19.993	103.908	20.118	3.365	0.509
1072.500	624.113	80.009	19.992	103.908	20.119	3.326	0.516
1073.000	624.377	80.007	19.994	103.908	20.121	3.145	0.529
1073.500	624.605	80.008	19.993	103.909	20.122	3.134	0.513
1074.000	624.869	80.006	19.993	103.910	20.122	3.121	0.492
1074.500	625.114	80.006	19.993	103.910	20.121	3.171	0.500
1075.000	625.359	80.006	19.994	103.910	20.120	3.248	0.499
1075.500	625.604	80.008	19.993	103.911	20.123	3.068	0.490
1076.000	625.895	80.008	19.994	103.910	20.120	3.235	0.513
1076.500	626.116	80.007	19.993	103.910	20.121	3.189	0.524
1077.000	626.381	80.006	19.992	103.909	20.121	3.183	0.499
1077.500	626.634	80.006	19.994	103.907	20.119	3.282	0.503
1078.000	626.882	80.006	19.994	103.907	20.121	3.169	0.509
1078.500	627.159	80.006	19.993	103.908	20.119	3.301	0.513
1079.000	627.407	80.007	19.994	103.907	20.119	3.321	0.525
1079.500	627.618	80.007	19.994	103.909	20.121	3.203	0.492
1080.000	627.890	80.006	19.994	103.910	20.122	3.124	0.471
1080.500	628.142	80.006	19.994	103.909	20.122	3.080	0.504
1081.000	628.413	80.007	19.994	103.908	20.118	3.378	0.524
1081.500	628.625	80.008	19.994	103.908	20.120	3.244	0.503
1082.000	628.932	80.007	19.992	103.908	20.120	3.275	0.501
1082.500	629.164	80.008	19.994	103.909	20.123	3.075	0.529
1083.000	629.426	80.008	19.995	103.909	20.121	3.196	0.516
1083.500	629.681	80.008	19.994	103.910	20.122	3.136	0.505
1084.000	629.920	80.007	19.993	103.913	20.122	3.143	0.506
1084.500	630.160	80.007	19.994	103.912	20.121	3.165	0.486
1085.000	630.415	80.010	19.992	103.912	20.119	3.301	0.487
1085.500	630.643	80.008	19.995	103.913	20.120	3.216	0.489
1086.000	630.916	80.008	19.993	103.913	20.121	3.167	0.492
1086.500	631.146	80.008	19.994	103.911	20.122	3.128	0.502
1087.000	631.407	80.008	19.994	103.911	20.122	3.136	0.497
1087.500	631.657	80.009	19.993	103.911	20.123	3.024	0.501
1088.000	631.909	80.009	19.993	103.911	20.121	3.167	0.507
1088.500	632.132	80.009	19.993	103.911	20.124	2.970	0.489
1089.000	632.416	80.007	19.993	103.910	20.121	3.185	0.491
1089.500	632.660	80.010	19.993	103.909	20.123	3.073	0.517
1090.000	632.914	80.008	19.993	103.908	20.122	3.128	0.513
1090.500	633.172	80.010	19.994	103.908	20.126	2.875	0.505
1091.000	633.409	80.008	19.994	103.908	20.122	3.112	0.503
1091.500	633.662	80.009	19.995	103.908	20.121	3.156	0.492
1092.000	633.871	80.008	19.992	103.908	20.121	3.145	0.476
1092.500	634.151	80.007	19.993	103.909	20.123	3.036	0.476
1093.000	634.403	80.009	19.993	103.909	20.123	3.073	0.511
1093.500	634.674	80.009	19.994	103.909	20.119	3.288	0.528
1094.000	634.877	80.009	19.994	103.909	20.121	3.192	0.499
1094.500	635.152	80.009	19.994	103.909	20.121	3.163	0.476
1095.000	635.394	80.008	19.993	103.909	20.120	3.240	0.497
1095.500	635.687	80.007	19.993	103.909	20.121	3.147	0.526
1096.000	635.919	80.007	19.994	103.910	20.122	3.103	0.530
1096.500	636.230	80.007	19.993	103.910	20.122	3.138	0.534
1097.000	636.384	80.007	19.993	103.910	20.121	3.194	0.504
1097.500	636.676	80.006	19.994	103.912	20.124	3.009	0.456
1098.000	636.913	80.006	19.994	103.911	20.122	3.139	0.487
1098.500	637.163	80.007	19.993	103.912	20.123	3.066	0.508
1099.000	637.421	80.006	19.994	103.912	20.120	3.214	0.497
1099.500	637.652	80.007	19.992	103.912	20.124	2.972	0.499
1100.000	637.911	80.006	19.993	103.911	20.123	3.053	0.490
1100.500	638.167	80.006	19.994	103.911	20.121	3.189	0.503
1101.000	638.406	80.006	19.994	103.911	20.119	3.286	0.505
1101.500	638.677	80.008	19.994	103.911	20.119	3.334	0.503
1102.000	638.961	80.006	19.993	103.911	20.121	3.170	0.532
1102.500	639.188	80.007	19.994	103.912	20.119	3.284	0.533
1103.000	639.440	80.007	19.993	103.912	20.121	3.211	0.495
1103.500	639.703	80.007	19.994	103.911	20.121	3.194	0.497
1104.000	639.920	80.007	19.992	103.912	20.124	3.007	0.497
1104.500	640.203	80.007	19.993	103.910	20.121	3.161	0.490
1105.000	640.426	80.007	19.994	103.910	20.119	3.317	0.503
1105.500	640.690	80.007	19.994	103.910	20.119	3.323	0.497
1106.000	640.925	80.007	19.994	103.910	20.117	3.433	0.493
1106.500	641.155	80.007	19.993	103.911	20.117	3.426	0.482
1107.000	641.421	80.008	19.994	103.914	20.118	3.409	0.480
1107.500	641.677	80.006	19.992	103.915	20.120	3.262	0.509
1108.000	641.920	80.006	19.993	103.915	20.120	3.225	0.511
1108.500	642.173	80.007	19.994	103.915	20.117	3.415	0.498
1109.000	642.420	80.006	19.993	103.913	20.120	3.270	0.498
1109.500	642.679	80.006	19.995	103.910	20.125	2.924	0.504
1110.000	642.894	80.006	19.995	103.910	20.121	3.202	0.490
1110.500	643.153	80.006	19.995	103.912	20.122	3.137	0.474
1111.000	643.420	80.006	19.996	103.912	20.122	3.093	0.500
1111.500	643.683	80.007	19.995	103.912	20.123	3.018	0.528
1112.000	643.918	80.006	19.995	103.914	20.120	3.258	0.514
1112.500	644.161	80.007	19.995	103.913	20.124	2.987	0.488
1113.000	644.413	80.006	19.995	103.911	20.123	3.016	0.487
1113.500	644.647	80.007	19.994	103.911	20.125	2.926	0.490
1114.000	644.885	80.004	19.994	103.910	20.123	3.036	0.479
1114.500	645.111	80.006	19.994	103.910	20.121	3.176	0.468
1115.000	645.368	80.008	19.993	103.909	20.125	2.928	0.473
1115.500	645.648	80.006	19.994	103.909	20.119	3.336	0.510
1116.000	645.896	80.008	19.995	103.908	20.119	3.297	0.532
1116.500	646.116	80.004	19.993	103.908	20.123	3.038	0.498
1117.000	646.403	80.007	19.994	103.908	20.123	3.049	0.487
1117.501	646.586	80.006	19.994	103.909	20.120	3.275	0.488
1118.000	646.866	80.007	19.994	103.909	20.121	3.147	0.467
1118.500	647.141	80.005	19.994	103.910	20.121	3.185	0.509
1119.000	647.341	80.007	19.995	103.910	20.123	3.014	0.515
1119.500	647.584	80.007	19.996	103.909	20.121	3.174	0.459
1120.000	647.883	80.007	19.995	103.909	20.122	3.091	0.493
1120.500	648.112	80.007	19.994	103.912	20.121	3.187	0.535
1121.000	648.361	80.006	19.994	103.912	20.123	3.071	0.502
1121.500	648.609	80.005	19.994	103.912	20.122	3.088	0.487
1122.000	648.857	80.008	19.995	103.912	20.121	3.202	0.497
1122.500	649.105	80.007	19.994	103.911	20.119	3.286	0.496
1123.000	649.355	80.005	19.994	103.908	20.123	3.048	0.497
1123.500	649.643	80.007	19.997	103.910	20.119	3.295	0.518
1124.000	649.907	80.005	19.995	103.912	20.119	3.316	0.545
1124.500	650.153	80.006	19.995	103.912	20.121	3.174	0.531
1125.000	650.411	80.007	19.995	103.912	20.121	3.191	0.507
1125.500	650.667	80.006	19.994	103.911	20.122	3.097	0.509
1126.000	650.923	80.007	19.995	103.908	20.120	3.235	0.513
1126.500	651.147	80.006	19.994	103.907	20.118	3.358	0.496
1127.000	651.404	80.007	19.995	103.906	20.120	3.215	0.481
1127.500	651.675	80.007	19.994	103.908	20.118	3.389	0.505
1128.000	651.908	80.008	19.994	103.908	20.121	3.209	0.516
1128.500	652.149	80.005	19.995	103.908	20.116	3.501	0.489
1129.000	652.409	80.006	19.994	103.908	20.122	3.104	0.488
1129.500	652.669	80.005	19.996	103.909	20.121	3.191	0.510
1130.000	652.910	80.005	19.994	103.907	20.118	3.369	0.510
1130.500	653.150	80.005	19.993	103.906	20.122	3.117	0.490
1131.000	653.394	80.006	19.994	103.906	20.121	3.148	0.482
1131.500	653.676	80.006	19.994	103.906	20.121	3.207	0.506
1132.000	653.896	80.004	19.995	103.904	20.116	3.525	0.514
1132.500	654.173	80.007	19.995	103.904	20.119	3.301	0.500
1133.000	654.436	80.008	19.994	103.906	20.118	3.387	0.518
1133.500	654.711	80.007	19.993	103.911	20.122	3.106	0.539
1134.000	654.934	80.006	19.994	103.912	20.118	3.367	0.518
1134.500	655.204	80.006	19.994	103.914	20.120	3.266	0.496
1135.000	655.441	80.007	19.996	103.915	20.121	3.203	0.500
1135.500	655.699	80.004	19.995	103.914	20.121	3.207	0.501
1136.000	655.932	80.007	19.995	103.909	20.120	3.240	0.493
1136.500	656.213	80.006	19.994	103.909	20.120	3.266	0.503
1137.000	656.444	80.006	19.995	103.909	20.120	3.235	0.513
1137.500	656.703	80.007	19.994	103.911	20.120	3.229	0.501
1138.000	656.942	80.007	19.994	103.916	20.118	3.383	0.494
1138.500	657.206	80.005	19.994	103.917	20.119	3.330	0.500
1139.000	657.458	80.006	19.994	103.916	20.120	3.259	0.510
1139.500	657.732	80.006	19.994	103.916	20.120	3.237	0.521
1140.000	657.972	80.006	19.994	103.914	20.122	3.093	0.520
1140.500	658.235	80.007	19.995	103.909	20.123	3.075	0.509
1141.000	658.438	80.006	19.993	103.909	20.120	3.259	0.485
1141.500	658.739	80.006	19.994	103.909	20.121	3.147	0.485
1142.000	659.010	80.006	19.995	103.909	20.120	3.260	0.538
1142.500	659.206	80.007	19.994	103.910	20.119	3.332	0.519
1143.000	659.507	80.006	19.995	103.909	20.119	3.315	0.482
1143.500	659.751	80.006	19.993	103.909	20.120	3.225	0.521
1144.000	659.958	80.007	19.995	103.909	20.121	3.167	0.498
1144.500	660.235	80.008	19.994	103.908	20.121	3.185	0.468
1145.000	660.514	80.008	19.994	103.909	20.122	3.104	0.520
1145.500	660.725	80.007	19.994	103.909	20.122	3.084	0.523
1146.000	660.932	80.007	19.994	103.909	20.122	3.095	0.454
1146.500	661.235	80.006	19.993	103.909	20.120	3.249	0.464
1147.000	661.483	80.007	19.995	103.908	20.121	3.178	0.531
1147.500	661.756	80.006	19.993	103.909	20.122	3.106	0.536
1148.000	662.014	80.009	19.994	103.909	20.119	3.304	0.525
1148.500	662.238	80.006	19.995	103.912	20.120	3.213	0.506
1149.000	662.484	80.007	19.995	103.913	20.123	3.042	0.477
1149.500	662.787	80.007	19.994	103.914	20.120	3.277	0.510
1150.000	663.025	80.006	19.994	103.913	20.118	3.385	0.545
1150.500	663.276	80.007	19.995	103.913	20.122	3.123	0.515
1151.000	663.523	80.006	19.995	103.911	20.120	3.264	0.494
1151.500	663.787	80.007	19.995	103.909	20.119	3.292	0.505
1152.000	664.036	80.007	19.995	103.909	20.121	3.165	0.512
1152.500	664.275	80.007	19.995	103.908	20.121	3.148	0.500
1153.000	664.514	80.007	19.994	103.908	20.123	3.025	0.483
1153.500	664.797	80.007	19.994	103.908	20.121	3.158	0.500
1154.001	665.047	80.007	19.995	103.908	20.122	3.097	0.527
1154.501	665.281	80.006	19.994	103.908	20.122	3.136	0.508
1155.000	665.562	80.007	19.994	103.907	20.120	3.249	0.499
1155.500	665.811	80.006	19.993	103.906	20.120	3.224	0.523
1156.000	666.021	80.007	19.994	103.907	20.119	3.281	0.495
1156.500	666.278	80.005	19.994	103.905	20.122	3.125	0.463
1157.000	666.553	80.007	19.994	103.903	20.120	3.237	0.499
1157.500	666.813	80.004	19.996	103.905	20.121	3.202	0.534
1158.000	667.063	80.006	19.993	103.906	20.126	2.853	0.523
1158.500	667.345	80.004	19.995	103.906	20.123	3.073	0.521
1159.000	667.566	80.007	19.994	103.910	20.123	3.024	0.518
1159.501	667.811	80.006	19.994	103.913	20.121	3.183	0.485
1160.001	668.056	80.006	19.994	103.913	20.124	2.956	0.478
1160.500	668.313	80.007	19.994	103.914	20.121	3.150	0.496
1161.000	668.579	80.008	19.994	103.914	20.122	3.095	0.512
1161.500	668.823	80.006	19.995	103.913	20.123	3.020	0.516
1162.000	669.062	80.004	19.994	103.912	20.121	3.211	0.497
1162.500	669.325	80.007	19.994	103.912	20.121	3.148	0.493
1163.000	669.583	80.005	19.993	103.912	20.123	3.068	0.511
1163.500	669.857	80.005	19.993	103.912	20.122	3.108	0.526
1164.000	670.090	80.008	19.993	103.912	20.122	3.099	0.519
1164.500	670.329	80.007	19.994	103.912	20.117	3.429	0.489
1165.000	670.606	80.007	19.993	103.912	20.121	3.209	0.494
1165.500	670.854	80.008	19.993	103.913	20.121	3.180	0.521
1166.000	671.102	80.009	19.992	103.913	20.120	3.224	0.510
1166.500	671.361	80.008	19.992	103.913	20.119	3.282	0.501
1167.000	671.592	80.009	19.993	103.913	20.120	3.269	0.499
1167.500	671.867	80.008	19.993	103.913	20.122	3.080	0.498
1168.000	672.100	80.008	19.995	103.911	20.123	3.056	0.507
1168.500	672.368	80.010	19.993	103.910	20.122	3.139	0.504
1169.000	672.594	80.007	19.992	103.909	20.125	2.884	0.497
1169.500	672.854	80.010	19.995	103.909	20.125	2.934	0.490
1170.000	673.127	80.010	19.993	103.911	20.122	3.084	0.510
1170.500	673.366	80.009	19.993	103.912	20.123	3.036	0.522
1171.000	673.661	80.010	19.994	103.913	20.124	2.965	0.523
1171.500	673.893	80.010	19.994	103.913	20.120	3.260	0.530
1172.000	674.169	80.009	19.994	103.915	20.122	3.080	0.518
1172.500	674.434	80.009	19.993	103.914	20.122	3.119	0.525
1173.000	674.689	80.010	19.994	103.913	20.124	3.001	0.530
1173.500	674.940	80.010	19.994	103.911	20.119	3.282	0.513
1174.000	675.219	80.007	19.994	103.911	20.121	3.161	0.518
1174.500	675.437	80.008	19.992	103.908	20.120	3.233	0.513
1175.000	675.699	80.011	19.993	103.907	20.119	3.282	0.488
1175.500	675.908	80.009	19.995	103.907	20.122	3.106	0.475
1176.000	676.197	80.009	19.993	103.906	20.125	2.904	0.485
1176.500	676.440	80.008	19.993	103.907	20.121	3.205	0.515
1177.000	676.723	80.010	19.993	103.907	20.123	3.024	0.529
1177.500	676.971	80.007	19.997	103.907	20.122	3.112	0.528
1178.000	677.206	80.008	19.995	103.907	20.120	3.259	0.507
1178.501	677.455	80.007	19.993	103.907	20.122	3.141	0.483
1179.000	677.687	80.008	19.993	103.906	20.123	3.046	0.482
1179.500	677.924	80.009	19.993	103.906	20.123	3.036	0.475
1180.000	678.206	80.007	19.993	103.906	20.124	3.009	0.495
1180.500	678.466	80.006	19.994	103.906	20.122	3.088	0.530
1181.000	678.713	80.007	19.994	103.907	20.120	3.271	0.524
1181.500	678.942	80.006	19.993	103.908	20.120	3.269	0.491
1182.000	679.226	80.008	19.994	103.909	20.119	3.306	0.495
1182.500	679.459	80.007	19.993	103.909	20.118	3.398	0.515
1183.000	679.688	80.007	19.994	103.909	20.116	3.521	0.490
1183.500	679.981	80.007	19.994	103.909	20.119	3.306	0.492
1184.000	680.239	80.006	19.995	103.908	20.117	3.475	0.537
1184.500	680.492	80.006	19.994	103.909	20.121	3.205	0.531
1185.000	680.735	80.008	19.993	103.910	20.119	3.315	0.504
1185.500	680.989	80.008	19.993	103.911	20.117	3.440	0.497
1186.000	681.240	80.006	19.994	103.912	20.118	3.350	0.501
1186.500	681.479	80.006	19.993	103.912	20.120	3.273	0.497
1187.000	681.747	80.007	19.993	103.911	20.117	3.458	0.498
1187.500	681.990	80.005	19.994	103.910	20.116	3.503	0.509
1188.000	682.237	80.006	19.995	103.909	20.119	3.304	0.501
1188.500	682.486	80.006	19.993	103.908	20.114	3.622	0.493
1189.000	682.744	80.007	19.994	103.909	20.120	3.273	0.502
1189.500	683.029	80.007	19.995	103.909	20.116	3.485	0.525
1190.000	683.259	80.007	19.996	103.909	20.119	3.294	0.529
1190.500	683.526	80.009	19.995	103.908	20.117	3.413	0.506
1191.000	683.767	80.006	19.994	103.909	20.119	3.304	0.502
1191.500	684.027	80.006	19.994	103.908	20.115	3.563	0.504
1192.000	684.258	80.007	19.993	103.908	20.117	3.429	0.496
1192.500	684.517	80.006	19.994	103.907	20.118	3.382	0.491
1193.000	684.800	80.007	19.994	103.904	20.116	3.490	0.517
1193.500	684.987	80.007	19.993	103.902	20.115	3.561	0.506
1194.000	685.297	80.008	19.993	103.901	20.114	3.622	0.484
1194.500	685.518	80.005	19.994	103.901	20.118	3.358	0.514
1195.000	685.772	80.008	19.993	103.903	20.118	3.356	0.503
1195.500	686.004	80.006	19.995	103.906	20.115	3.587	0.481
1196.000	686.265	80.008	19.995	103.908	20.117	3.431	0.490
1196.500	686.496	80.007	19.995	103.906	20.115	3.569	0.492
1197.000	686.767	80.008	19.993	103.906	20.113	3.695	0.496
1197.500	687.020	80.008	19.993	103.905	20.117	3.438	0.513
1198.000	687.235	80.008	19.995	103.905	20.118	3.350	0.496
1198.500	687.521	80.007	19.994	103.906	20.122	3.141	0.485
1199.000	687.785	80.007	19.993	103.912	20.118	3.383	0.526
1199.500	688.020	80.008	19.995	103.915	20.122	3.101	0.525
1200.000	688.275	80.006	19.993	103.915	20.119	3.321	0.494
1200.500	688.538	80.006	19.994	103.916	20.120	3.277	0.504
1201.000	688.768	80.006	19.993	103.916	20.119	3.328	0.505
1201.500	689.051	80.005	19.994	103.912	20.121	3.163	0.503
1202.000	689.302	80.008	19.994	103.909	20.122	3.097	0.524
1202.500	689.524	80.005	19.994	103.909	20.121	3.207	0.504
1203.000	689.772	80.007	19.994	103.909	20.120	3.229	0.471
1203.500	690.059	80.007	19.993	103.909	20.124	3.011	0.502
1204.000	690.287	80.006	19.994	103.910	20.121	3.200	0.525
1204.500	690.584	80.005	19.994	103.910	20.121	3.182	0.520
1205.000	690.791	80.007	19.993	103.910	20.122	3.125	0.514
1205.500	691.032	80.008	19.993	103.912	20.119	3.334	0.476
1206.000	691.288	80.004	19.993	103.913	20.117	3.475	0.472
1206.500	691.555	80.005	19.993	103.914	20.116	3.510	0.510
1207.000	691.795	80.005	19.993	103.914	20.119	3.282	0.515
1207.500	692.020	80.007	19.994	103.913	20.120	3.262	0.486
1208.000	692.272	80.006	19.994	103.911	20.116	3.508	0.471
1208.500	692.556	80.005	19.994	103.911	20.120	3.227	0.506
1209.000	692.781	80.007	19.994	103.911	20.118	3.362	0.523
1209.500	693.069	80.006	19.994	103.910	20.118	3.407	0.511
1210.000	693.309	80.006	19.995	103.912	20.119	3.288	0.520
1210.500	693.543	80.004	19.994	103.912	20.119	3.279	0.501
1211.000	693.814	80.006	19.994	103.911	20.119	3.337	0.489
1211.500	694.052	80.004	19.994	103.911	20.119	3.306	0.507
1212.000	694.301	80.007	19.994	103.909	20.115	3.561	0.498
1212.500	694.591	80.006	19.995	103.909	20.116	3.495	0.513
1213.000	694.810	80.007	19.995	103.907	20.118	3.411	0.524
1213.500	695.096	80.007	19.994	103.908	20.117	3.418	0.507
1214.000	695.369	80.006	19.995	103.907	20.114	3.650	0.532
1214.500	695.623	80.006	19.995	103.911	20.117	3.449	0.543
1215.000	695.856	80.006	19.994	103.912	20.116	3.539	0.507
1215.500	696.121	80.006	19.994	103.912	20.114	3.629	0.493
1216.000	696.361	80.006	19.994	103.912	20.115	3.604	0.502
1216.500	696.649	80.005	19.994	103.912	20.116	3.528	0.517
1217.000	696.900	80.006	19.995	103.911	20.116	3.486	0.533
1217.500	697.132	80.006	19.993	103.910	20.117	3.435	0.511
1218.000	697.367	80.006	19.995	103.911	20.115	3.558	0.475
1218.500	697.658	80.005	19.995	103.912	20.116	3.481	0.497
1219.000	697.908	80.006	19.994	103.914	20.112	3.762	0.533
1219.500	698.134	80.005	19.995	103.914	20.114	3.613	0.509
1220.000	698.399	80.008	19.994	103.915	20.116	3.523	0.484
1220.500	698.652	80.005	19.993	103.915	20.116	3.486	0.504
1221.000	698.867	80.005	19.994	103.913	20.116	3.530	0.493
1221.500	699.155	80.007	19.994	103.910	20.116	3.510	0.485
1222.000	699.333	80.006	19.995	103.910	20.115	3.554	0.484
1222.500	699.619	80.005	19.994	103.910	20.121	3.178	0.465
1223.000	699.882	80.007	19.994	103.909	20.115	3.556	0.507
1223.500	700.134	80.006	19.992	103.910	20.117	3.418	0.531
1224.000	700.384	80.006	19.994	103.910	20.116	3.505	0.508
1224.500	700.603	80.006	19.995	103.910	20.115	3.560	0.486
1225.000	700.863	80.006	19.993	103.910	20.115	3.565	0.474
1225.500	701.130	80.006	19.993	103.909	20.116	3.484	0.503
1226.000	701.397	80.008	19.994	103.908	20.115	3.611	0.531
1226.500	701.589	80.007	19.994	103.908	20.118	3.409	0.497
1227.000	701.835	80.007	19.994	103.910	20.115	3.578	0.449
1227.500	702.118	80.007	19.994	103.911	20.114	3.629	0.484
1228.000	702.332	80.006	19.993	103.912	20.114	3.651	0.513
1228.500	702.635	80.006	19.994	103.912	20.114	3.640	0.507
1229.000	702.877	80.008	19.992	103.911	20.117	3.444	0.531
1229.500	703.126	80.007	19.994	103.909	20.114	3.642	0.517
1230.000	703.400	80.008	19.994	103.910	20.111	3.817	0.507
1230.500	703.618	80.006	19.994	103.912	20.117	3.437	0.508
1231.000	703.893	80.008	19.993	103.914	20.116	3.523	0.493
1231.500	704.132	80.007	19.994	103.915	20.112	3.800	0.503
1232.000	704.414	80.007	19.994	103.916	20.112	3.800	0.517
1232.500	704.690	80.007	19.994	103.916	20.113	3.727	0.540
1233.000	704.921	80.007	19.994	103.913	20.111	3.824	0.532
1233.500	705.160	80.008	19.995	103.913	20.115	3.596	0.488
1234.000	705.434	80.009	19.994	103.912	20.115	3.563	0.491
1234.500	705.723	80.008	19.995	103.910	20.118	3.411	0.538
1235.000	705.955	80.008	19.994	103.909	20.118	3.381	0.542
1235.500	706.199	80.007	19.994	103.908	20.118	3.374	0.499
1236.000	706.438	80.007	19.994	103.906	20.114	3.670	0.480
1236.500	706.731	80.008	19.994	103.907	20.114	3.670	0.507
1237.000	706.973	80.007	19.994	103.910	20.116	3.526	0.533
1237.500	707.232	80.008	19.995	103.912	20.115	3.587	0.518
1238.001	707.447	80.008	19.994	103.912	20.118	3.392	0.488
1238.500	707.775	80.006	19.995	103.912	20.114	3.620	0.508
1239.000	708.011	80.007	19.995	103.912	20.114	3.626	0.553
1239.500	708.313	80.006	19.994	103.909	20.114	3.622	0.551
1240.000	708.544	80.006	19.994	103.908	20.116	3.539	0.536
1240.500	708.784	80.006	19.994	103.907	20.116	3.480	0.502
1241.000	709.076	80.008	19.995	103.907	20.116	3.512	0.501
1241.500	709.314	80.006	19.995	103.907	20.119	3.302	0.532
1242.000	709.580	80.006	19.994	103.907	20.114	3.668	0.517
1242.500	709.844	80.005	19.995	103.908	20.117	3.436	0.517
1243.000	710.104	80.007	19.995	103.909	20.118	3.407	0.527
1243.500	710.401	80.008	19.994	103.910	20.118	3.365	0.541
1244.000	710.635	80.006	19.994	103.910	20.120	3.222	0.544
1244.500	710.900	80.007	19.996	103.910	20.115	3.561	0.515
1245.000	711.121	80.006	19.995	103.909	20.115	3.569	0.493
1245.500	711.420	80.007	19.995	103.907	20.116	3.532	0.503
1246.000	711.704	80.006	19.995	103.907	20.116	3.539	0.551
1246.500	711.950	80.007	19.995	103.907	20.114	3.613	0.556
1247.000	712.207	80.006	19.994	103.907	20.116	3.526	0.517
1247.500	712.480	80.007	19.995	103.906	20.121	3.170	0.516
1248.000	712.726	80.007	19.995	103.906	20.118	3.370	0.525
1248.500	713.005	80.007	19.995	103.905	20.115	3.563	0.522
1249.000	713.232	80.008	19.995	103.905	20.116	3.535	0.516
1249.500	713.536	80.008	19.995	103.905	20.120	3.242	0.518
1250.000	713.759	80.007	19.994	103.905	20.114	3.636	0.529
1250.500	714.057	80.008	19.996	103.905	20.116	3.515	0.524
1251.000	714.287	80.010	19.994	103.905	20.111	3.866	0.525
1251.500	714.577	80.008	19.994	103.904	20.118	3.394	0.524
1252.001	714.834	80.009	19.995	103.904	20.116	3.482	0.533
1252.500	715.094	80.008	19.994	103.904	20.114	3.633	0.532
1253.000	715.340	80.008	19.995	103.905	20.114	3.646	0.512
1253.500	715.597	80.009	19.995	103.905	20.114	3.668	0.505
1254.000	715.897	80.009	19.994	103.906	20.117	3.473	0.530
1254.500	716.150	80.009	19.995	103.906	20.112	3.778	0.555
1255.000	716.462	80.009	19.994	103.906	20.112	3.802	0.559
1255.500	716.716	80.008	19.994	103.905	20.118	3.369	0.565
1256.000	716.934	80.008	19.994	103.906	20.116	3.521	0.519
1256.500	717.182	80.011	19.993	103.905	20.117	3.475	0.469
1257.000	717.457	80.010	19.994	103.905	20.115	3.554	0.494
1257.500	717.697	80.010	19.993	103.905	20.114	3.626	0.520
1258.000	717.972	80.009	19.994	103.901	20.117	3.440	0.515
1258.500	718.230	80.009	19.994	103.897	20.116	3.527	0.523
1259.000	718.484	80.007	19.994	103.892	20.115	3.556	0.522
1259.500	718.755	80.008	19.994	103.890	20.111	3.850	0.519
1260.000	719.003	80.008	19.994	103.891	20.115	3.554	0.522
1260.500	719.264	80.008	19.993	103.895	20.112	3.791	0.514
1261.000	719.500	80.008	19.994	103.899	20.114	3.629	0.503
1261.500	719.754	80.007	19.993	103.904	20.117	3.444	0.493
1262.000	720.026	80.006	19.994	103.906	20.114	3.637	0.508
1262.500	720.277	80.007	19.994	103.906	20.114	3.617	0.525
1263.000	720.535	80.006	19.993	103.907	20.114	3.668	0.516
1263.500	720.767	80.008	19.994	103.906	20.117	3.470	0.499
1264.000	721.038	80.008	19.994	103.906	20.114	3.644	0.497
1264.500	721.277	80.008	19.994	103.906	20.117	3.455	0.507
1265.000	721.536	80.007	19.994	103.908	20.111	3.813	0.504
1265.500	721.810	80.008	19.993	103.908	20.117	3.468	0.515
1266.000	722.056	80.008	19.994	103.909	20.110	3.879	0.527
1266.500	722.272	80.006	19.994	103.909	20.117	3.415	0.491
1267.000	722.564	80.007	19.994	103.909	20.115	3.554	0.485
1267.500	722.793	80.006	19.993	103.909	20.114	3.637	0.514
1268.000	723.075	80.007	19.993	103.909	20.117	3.455	0.516
1268.500	723.324	80.007	19.994	103.910	20.113	3.727	0.521
1269.000	723.579	80.006	19.993	103.910	20.114	3.637	0.517
1269.500	723.804	80.005	19.994	103.910	20.116	3.479	0.492
1270.000	724.091	80.005	19.993	103.911	20.121	3.204	0.496
1270.500	724.379	80.009	19.994	103.909	20.118	3.404	0.544
1271.000	724.582	80.005	19.994	103.909	20.112	3.765	0.533
1271.500	724.792	80.007	19.994	103.909	20.115	3.547	0.451
1272.000	725.092	80.006	19.994	103.911	20.117	3.426	0.462
1272.500	725.315	80.005	19.993	103.909	20.120	3.244	0.517
1273.000	725.601	80.006	19.994	103.910	20.117	3.416	0.516
1273.500	725.837	80.006	19.994	103.910	20.115	3.600	0.515
1274.000	726.101	80.006	19.992	103.912	20.115	3.547	0.511
1274.500	726.338	80.006	19.994	103.911	20.114	3.670	0.501
1275.000	726.648	80.008	19.994	103.911	20.118	3.394	0.524
1275.500	726.858	80.007	19.995	103.911	20.115	3.550	0.534
1276.000	727.110	80.007	19.993	103.911	20.118	3.405	0.491
1276.500	727.328	80.007	19.993	103.910	20.119	3.308	0.466
1277.000	727.606	80.007	19.993	103.910	20.116	3.488	0.483
1277.500	727.853	80.006	19.994	103.909	20.111	3.826	0.510
1278.000	728.097	80.006	19.994	103.909	20.114	3.616	0.508
1278.500	728.354	80.007	19.995	103.909	20.113	3.694	0.496
1279.000	728.600	80.005	19.994	103.910	20.114	3.628	0.502
1279.500	728.866	80.006	19.995	103.910	20.115	3.600	0.508
1280.000	729.127	80.006	19.994	103.912	20.116	3.541	0.519
1280.500	729.364	80.006	19.994	103.911	20.118	3.356	0.512
1281.000	729.621	80.007	19.994	103.911	20.115	3.595	0.496
1281.500	729.890	80.006	19.994	103.911	20.113	3.701	0.510
1282.000	730.150	80.007	19.996	103.910	20.116	3.517	0.527
1282.500	730.363	80.006	19.994	103.910	20.116	3.508	0.501
1283.000	730.590	80.007	19.993	103.910	20.119	3.341	0.457
1283.500	730.832	80.006	19.994	103.910	20.115	3.549	0.454
1284.000	731.150	80.008	19.994	103.908	20.118	3.404	0.514
1284.500	731.389	80.007	19.994	103.909	20.115	3.561	0.558
1285.000	731.607	80.007	19.994	103.909	20.115	3.550	0.507
1285.500	731.835	80.007	19.994	103.909	20.121	3.190	0.452
1286.000	732.086	80.007	19.993	103.908	20.119	3.322	0.463
1286.500	732.372	80.007	19.993	103.910	20.117	3.422	0.508
1287.000	732.626	80.006	19.994	103.909	20.116	3.480	0.539
1287.500	732.848	80.006	19.993	103.906	20.115	3.590	0.509
1288.000	733.105	80.005	19.993	103.906	20.115	3.565	0.477
1288.500	733.322	80.006	19.993	103.906	20.112	3.805	0.476
1289.000	733.584	80.006	19.993	103.907	20.119	3.295	0.477
1289.500	733.857	80.004	19.994	103.908	20.117	3.427	0.507
1290.000	734.063	80.008	19.995	103.912	20.113	3.681	0.507
1290.500	734.339	80.007	19.994	103.913	20.116	3.506	0.481
1291.000	734.538	80.007	19.992	103.913	20.117	3.455	0.478
1291.500	734.797	80.007	19.994	103.911	20.114	3.655	0.467
1292.000	735.038	80.007	19.994	103.911	20.122	3.110	0.479
1292.500	735.278	80.006	19.993	103.911	20.118	3.394	0.490
1293.000	735.486	80.006	19.993	103.911	20.116	3.479	0.465
1293.500	735.722	80.007	19.994	103.911	20.114	3.647	0.446
1294.000	735.980	80.007	19.993	103.913	20.118	3.405	0.469
1294.500	736.197	80.009	19.994	103.911	20.114	3.642	0.484
1295.000	736.454	80.008	19.993	103.909	20.114	3.660	0.474
1295.500	736.682	80.007	19.993	103.906	20.118	3.365	0.480
1296.000	736.908	80.007	19.993	103.902	20.116	3.502	0.470
1296.500	737.129	80.005	19.993	103.900	20.114	3.613	0.451
1297.000	737.383	80.006	19.993	103.899	20.116	3.534	0.461
1297.500	737.620	80.006	19.993	103.900	20.115	3.574	0.483
1298.000	737.884	80.006	19.993	103.900	20.116	3.512	0.496
1298.500	738.120	80.007	19.993	103.898	20.114	3.622	0.500
1299.000	738.346	80.007	19.993	103.900	20.116	3.512	0.481
1299.500	738.578	80.009	19.995	103.902	20.118	3.407	0.460
1300.000	738.841	80.006	19.995	103.902	20.113	3.697	0.477
1300.500	739.061	80.008	19.993	103.903	20.116	3.537	0.489
1301.000	739.299	80.005	19.993	103.904	20.115	3.572	0.471
1301.500	739.528	80.006	19.994	103.904	20.118	3.394	0.462
1302.000	739.769	80.006	19.994	103.904	20.115	3.559	0.468
1302.500	740.003	80.006	19.993	103.903	20.114	3.624	0.472
1303.000	740.238	80.005	19.995	103.902	20.120	3.240	0.472
1303.500	740.499	80.008	19.994	103.903	20.113	3.690	0.483
1304.000	740.684	80.007	19.995	103.902	20.120	3.246	0.471
1304.500	740.958	80.006	19.993	103.900	20.117	3.414	0.453
1305.000	741.200	80.008	19.994	103.900	20.112	3.789	0.488
1305.500	741.422	80.008	19.994	103.901	20.114	3.629	0.490
1306.000	741.679	80.007	19.995	103.902	20.115	3.567	0.471
1306.500	741.907	80.007	19.995	103.903	20.115	3.576	0.482
1307.000	742.121	80.010	19.995	103.903	20.112	3.767	0.463
1307.500	742.354	80.010	19.994	103.903	20.117	3.471	0.444
1308.000	742.589	80.008	19.994	103.905	20.116	3.504	0.458
1308.500	742.853	80.008	19.994	103.905	20.117	3.453	0.484
1309.000	743.054	80.009	19.994	103.905	20.114	3.631	0.482
1309.500	743.292	80.010	19.994	103.906	20.112	3.791	0.452
1310.000	743.512	80.008	19.993	103.905	20.120	3.264	0.449
1310.500	743.766	80.009	19.994	103.902	20.118	3.391	0.466
1311.000	743.994	80.009	19.995	103.901	20.110	3.929	0.478
