Sample ID:	C:\MCC\MCC Cal\Test\Feather_PillowB_Feathers_MCC_30K_min_220107_R3.txt
Sample Weight (mg):	4.85
Heating Rate (C/s):	0.5
Combustor Temp (C):	900
N2 Flow Rate (cc/min):	80
O2 Flow Rate (cc/min):	20
Calibration File:	C:\MCC\MCC Cal\Coeff1 JN10440_30_210304.txt.txt
T Correction Coefficients:	0	1.024463	0
Time Shift (s):	14
*
Time (s)	Temperature (C)	N2 flow rate (cc/min)	O2 flow rate (cc/min)	Flow Rate (cc/min)	Oxygen (%)	HRR (W/g)	Heating rate (C/s)
0.000	109.972	80.003	19.994	104.089	20.084	-0.176	0.008
0.500	109.988	80.005	19.994	104.088	20.083	-0.163	0.024
1.000	110.003	80.003	19.995	104.084	20.086	-0.314	0.033
1.500	109.999	80.007	19.994	104.082	20.083	-0.145	0.021
2.000	110.013	80.005	19.994	104.088	20.084	-0.233	0.011
2.500	110.013	80.002	19.994	104.091	20.081	-0.006	0.012
3.000	110.029	80.008	19.994	104.093	20.084	-0.202	0.015
3.501	110.032	80.006	19.991	104.099	20.082	-0.053	0.017
4.000	110.021	80.002	19.996	104.104	20.083	-0.147	0.005
4.500	110.015	80.005	19.994	104.106	20.084	-0.206	-0.012
5.000	110.032	80.003	19.996	104.110	20.084	-0.185	-0.003
5.500	110.004	80.006	19.995	104.110	20.083	-0.140	-0.001
6.000	109.989	80.005	19.996	104.109	20.083	-0.136	-0.027
6.500	109.991	80.008	19.992	104.108	20.080	0.084	-0.027
7.000	109.971	80.001	19.993	104.107	20.079	0.127	-0.016
7.500	110.002	80.006	19.992	104.103	20.080	0.066	-0.004
8.000	110.019	80.005	19.992	104.102	20.078	0.169	0.029
8.500	110.001	80.006	19.991	104.097	20.081	0.013	0.024
9.000	109.986	80.003	19.993	104.092	20.079	0.118	-0.016
9.500	109.976	80.004	19.992	104.089	20.080	0.035	-0.029
10.001	110.004	80.006	19.992	104.088	20.080	0.077	-0.004
10.501	110.001	80.005	19.993	104.092	20.081	0.013	0.021
11.001	110.030	80.003	19.994	104.101	20.078	0.231	0.026
11.501	110.004	80.006	19.993	104.115	20.078	0.169	0.015
12.001	110.001	80.008	19.991	104.125	20.080	0.040	-0.012
12.500	110.005	80.008	19.994	104.134	20.079	0.136	-0.014
13.000	110.005	80.005	19.993	104.136	20.079	0.158	0.002
13.500	109.990	80.004	19.994	104.134	20.078	0.217	-0.006
14.000	110.056	80.007	19.993	104.129	20.076	0.323	0.018
14.500	110.062	80.017	19.992	104.130	20.075	0.415	0.062
15.000	110.027	80.007	19.992	104.132	20.077	0.283	0.021
15.500	110.025	80.006	19.994	104.143	20.076	0.355	-0.033
16.000	110.040	80.015	19.990	104.156	20.072	0.628	-0.012
16.500	110.088	80.004	19.991	104.170	20.074	0.459	0.038
17.000	110.073	80.010	19.993	104.173	20.071	0.645	0.048
17.500	110.037	80.002	19.991	104.173	20.075	0.379	-0.009
18.000	110.026	80.003	19.994	104.169	20.073	0.503	-0.049
18.500	110.065	80.008	19.995	104.168	20.071	0.649	-0.010
19.000	110.073	80.003	19.993	104.172	20.070	0.706	0.038
19.500	110.062	80.007	19.994	104.183	20.071	0.676	0.022
20.000	110.071	80.006	19.994	104.191	20.070	0.720	-0.002
20.500	110.082	80.005	19.995	104.195	20.067	0.919	0.008
21.000	110.096	80.004	19.993	104.196	20.067	0.945	0.022
21.500	110.104	80.003	19.994	104.191	20.071	0.691	0.024
22.000	110.110	80.006	19.993	104.185	20.070	0.761	0.018
22.500	110.148	80.004	19.995	104.183	20.067	0.950	0.029
23.000	110.175	80.002	19.994	104.184	20.067	0.954	0.054
23.500	110.207	80.005	19.993	104.184	20.067	0.912	0.062
24.000	110.204	80.004	19.994	104.184	20.067	0.925	0.044
24.500	110.245	80.003	19.994	104.185	20.064	1.134	0.033
25.000	110.256	80.000	19.994	104.185	20.065	1.064	0.045
25.500	110.273	80.002	19.995	104.183	20.068	0.873	0.040
26.000	110.318	80.006	19.993	104.185	20.063	1.235	0.045
26.500	110.337	80.002	19.994	104.192	20.061	1.344	0.063
27.000	110.333	80.006	19.994	104.198	20.066	1.033	0.039
27.500	110.423	80.004	19.993	104.205	20.066	1.011	0.050
28.000	110.418	80.000	19.993	104.214	20.065	1.107	0.086
28.500	110.474	80.004	19.993	104.218	20.063	1.180	0.068
29.000	110.507	80.009	19.993	104.218	20.063	1.180	0.069
29.500	110.526	79.999	19.994	104.219	20.061	1.355	0.070
30.000	110.558	80.000	19.994	104.218	20.063	1.182	0.052
30.500	110.583	80.000	19.994	104.219	20.060	1.421	0.054
31.000	110.617	80.006	19.993	104.228	20.058	1.533	0.058
31.500	110.664	80.006	19.994	104.236	20.061	1.342	0.070
32.000	110.735	80.004	19.994	104.246	20.061	1.351	0.099
32.500	110.793	80.005	19.993	104.255	20.058	1.537	0.123
33.000	110.849	80.004	19.993	104.263	20.053	1.876	0.121
33.500	110.836	80.005	19.994	104.263	20.057	1.624	0.079
34.000	110.904	80.004	19.994	104.263	20.053	1.853	0.049
34.501	110.926	80.006	19.992	104.259	20.052	1.954	0.073
35.001	110.992	80.003	19.995	104.257	20.050	2.072	0.089
35.501	111.058	80.006	19.994	104.256	20.049	2.171	0.110
36.001	111.114	80.000	19.996	104.262	20.047	2.282	0.127
36.501	111.155	80.005	19.995	104.268	20.049	2.150	0.109
37.001	111.190	80.009	19.994	104.277	20.049	2.166	0.087
37.501	111.300	80.003	19.993	104.287	20.048	2.221	0.111
38.001	111.333	80.002	19.995	104.296	20.047	2.254	0.144
38.501	111.394	80.005	19.993	104.292	20.050	2.074	0.118
39.001	111.460	80.005	19.998	104.291	20.048	2.225	0.110
39.500	111.553	80.001	19.995	104.288	20.047	2.252	0.143
40.000	111.586	79.996	19.995	104.286	20.049	2.164	0.143
40.501	111.640	79.990	19.991	104.287	20.049	2.151	0.107
41.001	111.700	80.008	19.995	104.292	20.047	2.266	0.101
41.501	111.822	80.017	19.991	104.290	20.049	2.117	0.147
42.001	111.894	80.005	19.992	104.290	20.046	2.328	0.188
42.501	111.947	80.005	19.994	104.291	20.050	2.067	0.160
43.000	112.034	80.004	19.993	104.291	20.048	2.183	0.133
43.500	112.086	80.004	19.994	104.291	20.049	2.126	0.139
44.000	112.181	80.006	19.993	104.292	20.045	2.407	0.143
44.500	112.250	79.999	19.994	104.287	20.047	2.289	0.156
45.000	112.342	80.007	19.992	104.284	20.046	2.356	0.162
45.500	112.417	80.003	19.995	104.281	20.046	2.330	0.164
46.000	112.500	80.005	19.993	104.280	20.045	2.419	0.163
46.500	112.548	79.998	19.995	104.285	20.046	2.330	0.145
47.000	112.634	80.008	19.993	104.290	20.046	2.380	0.133
47.500	112.759	80.002	19.994	104.293	20.044	2.463	0.172
48.000	112.796	80.007	19.996	104.291	20.044	2.481	0.187
48.500	112.941	80.020	19.992	104.285	20.043	2.551	0.173
49.000	113.008	80.002	19.993	104.282	20.045	2.418	0.197
49.500	113.086	79.998	19.994	104.280	20.043	2.575	0.178
50.000	113.188	80.010	19.993	104.279	20.044	2.496	0.162
50.500	113.266	80.005	19.995	104.286	20.043	2.542	0.180
51.000	113.400	79.999	19.993	104.293	20.043	2.583	0.196
51.500	113.474	80.005	19.993	104.298	20.043	2.570	0.210
52.000	113.554	79.996	19.995	104.302	20.043	2.550	0.182
52.500	113.671	79.995	19.994	104.298	20.043	2.581	0.176
53.000	113.793	80.008	19.994	104.297	20.042	2.640	0.218
53.500	113.920	80.000	19.994	104.298	20.044	2.517	0.244
54.000	113.994	79.993	19.995	104.300	20.043	2.538	0.225
54.500	114.088	80.012	19.993	104.299	20.042	2.614	0.185
55.000	114.233	80.015	19.994	104.303	20.040	2.726	0.204
55.500	114.310	80.006	19.994	104.304	20.044	2.514	0.231
56.000	114.433	79.990	19.995	104.308	20.042	2.641	0.210
56.500	114.533	80.005	19.995	104.312	20.044	2.492	0.211
57.000	114.612	80.002	19.995	104.321	20.043	2.547	0.201
57.500	114.714	80.002	19.994	104.322	20.044	2.497	0.180
58.000	114.859	80.004	19.994	104.326	20.043	2.545	0.214
58.500	114.923	80.006	19.996	104.322	20.042	2.639	0.228
59.000	115.030	79.995	19.994	104.315	20.042	2.611	0.190
59.500	115.188	80.010	19.994	104.310	20.043	2.556	0.218
60.001	115.340	80.006	19.994	104.310	20.041	2.665	0.288
60.501	115.432	80.005	19.993	104.313	20.040	2.761	0.277
61.001	115.539	80.004	19.995	104.318	20.038	2.879	0.221
61.501	115.658	80.003	19.995	104.326	20.039	2.813	0.212
62.000	115.791	80.004	19.994	104.331	20.040	2.728	0.239
62.500	115.891	80.005	19.994	104.337	20.038	2.899	0.242
63.000	116.006	80.005	19.995	104.338	20.038	2.888	0.224
63.500	116.117	80.001	19.994	104.343	20.036	2.998	0.221
64.000	116.242	80.002	19.996	104.344	20.037	2.985	0.231
64.500	116.407	80.002	19.994	104.342	20.038	2.866	0.263
65.000	116.539	80.011	19.994	104.332	20.033	3.252	0.293
65.501	116.692	80.009	19.993	104.325	20.035	3.101	0.291
66.001	116.774	80.013	19.992	104.315	20.036	3.009	0.260
66.500	116.917	80.006	19.992	104.309	20.037	2.923	0.230
67.000	117.038	80.003	19.994	104.303	20.037	2.965	0.245
67.500	117.163	80.005	19.995	104.303	20.036	3.035	0.255
68.000	117.311	80.005	19.994	104.301	20.033	3.245	0.259
68.500	117.434	80.010	19.994	104.305	20.034	3.168	0.272
69.000	117.606	80.006	19.994	104.305	20.034	3.162	0.283
69.500	117.728	80.006	19.994	104.306	20.031	3.380	0.295
70.000	117.865	80.005	19.995	104.305	20.036	2.992	0.277
70.500	117.998	80.006	19.992	104.314	20.034	3.161	0.265
71.000	118.158	80.007	19.992	104.321	20.034	3.152	0.282
71.500	118.305	80.008	19.994	104.328	20.031	3.362	0.300
72.000	118.472	80.007	19.993	104.337	20.034	3.160	0.310
72.500	118.577	80.008	19.996	104.346	20.033	3.195	0.292
73.000	118.718	80.007	19.994	104.344	20.034	3.183	0.259
73.500	118.827	80.009	19.996	104.338	20.032	3.260	0.248
74.000	119.003	80.008	19.992	104.336	20.033	3.225	0.267
74.500	119.113	80.006	19.994	104.330	20.033	3.208	0.286
75.000	119.253	80.002	19.996	104.328	20.032	3.297	0.268
75.500	119.393	80.005	19.994	104.328	20.031	3.337	0.265
76.000	119.564	80.010	19.993	104.330	20.029	3.492	0.296
76.500	119.689	80.005	19.993	104.331	20.036	3.054	0.304
77.000	119.829	80.004	19.993	104.337	20.036	3.015	0.281
77.500	119.977	80.006	19.992	104.339	20.032	3.290	0.276
78.000	120.142	80.001	19.995	104.341	20.030	3.389	0.300
78.500	120.292	80.003	19.997	104.342	20.030	3.400	0.314
79.001	120.493	80.007	19.995	104.345	20.035	3.106	0.333
79.501	120.639	80.004	19.992	104.348	20.034	3.156	0.349
80.000	120.769	80.009	19.989	104.347	20.036	3.042	0.312
80.500	120.953	80.002	19.996	104.349	20.034	3.160	0.295
81.000	121.122	80.005	19.995	104.353	20.033	3.254	0.334
81.500	121.254	80.004	19.994	104.358	20.035	3.062	0.327
82.000	121.387	80.005	19.993	104.363	20.036	3.049	0.283
82.500	121.561	80.006	19.992	104.370	20.033	3.195	0.286
83.000	121.699	80.005	19.995	104.375	20.033	3.208	0.310
83.501	121.887	80.005	19.994	104.377	20.035	3.120	0.319
84.001	122.068	80.003	19.996	104.372	20.037	2.970	0.348
84.500	122.251	80.007	19.996	104.364	20.034	3.143	0.367
85.000	122.390	80.003	19.996	104.354	20.034	3.158	0.343
85.500	122.531	80.005	19.991	104.346	20.035	3.108	0.300
86.000	122.748	80.006	19.991	104.339	20.034	3.144	0.319
86.500	122.884	80.003	19.997	104.338	20.033	3.219	0.356
87.000	123.055	80.002	19.994	104.340	20.034	3.140	0.331
87.500	123.216	80.001	19.992	104.337	20.033	3.194	0.320
88.000	123.347	80.006	19.995	104.329	20.032	3.277	0.312
88.500	123.546	80.001	19.994	104.323	20.031	3.345	0.311
89.000	123.735	80.005	19.995	104.313	20.032	3.290	0.359
89.500	123.875	80.008	19.993	104.307	20.029	3.494	0.358
90.000	124.038	79.991	19.993	104.310	20.033	3.218	0.316
90.501	124.230	80.005	19.998	104.312	20.032	3.322	0.329
91.001	124.429	80.007	19.994	104.310	20.034	3.133	0.373
91.500	124.599	80.009	19.993	104.314	20.034	3.185	0.380
92.000	124.768	80.008	19.996	104.317	20.030	3.391	0.354
92.501	124.920	80.008	19.994	104.316	20.031	3.371	0.330
93.001	125.119	80.016	19.992	104.321	20.030	3.402	0.336
93.500	125.275	79.999	19.993	104.329	20.031	3.350	0.353
94.000	125.486	80.006	19.993	104.332	20.033	3.247	0.361
94.500	125.686	80.012	19.992	104.327	20.030	3.398	0.389
95.000	125.826	80.005	19.992	104.324	20.032	3.321	0.375
95.500	125.999	80.002	19.995	104.322	20.033	3.194	0.326
96.000	126.195	80.007	19.996	104.319	20.031	3.365	0.341
96.500	126.362	80.010	19.994	104.321	20.035	3.107	0.366
97.000	126.570	80.004	19.998	104.331	20.031	3.378	0.369
97.500	126.759	80.006	19.995	104.341	20.032	3.288	0.386
98.000	126.937	80.005	19.993	104.350	20.035	3.115	0.381
98.500	127.136	80.007	19.994	104.359	20.033	3.201	0.372
99.000	127.274	80.007	19.996	104.359	20.036	3.017	0.357
99.500	127.458	80.009	19.994	104.355	20.036	3.045	0.330
100.000	127.642	80.005	19.995	104.354	20.036	3.010	0.346
100.500	127.849	80.002	19.995	104.351	20.032	3.314	0.379
101.000	128.020	80.000	19.995	104.345	20.035	3.119	0.384
101.500	128.198	80.011	19.993	104.345	20.034	3.188	0.363
102.000	128.390	80.004	19.994	104.353	20.032	3.291	0.359
102.500	128.593	80.003	19.994	104.357	20.035	3.063	0.382
103.000	128.768	80.002	19.995	104.359	20.030	3.405	0.386
103.500	128.994	80.001	19.992	104.360	20.031	3.372	0.390
104.000	129.159	79.985	20.000	104.362	20.032	3.293	0.397
104.500	129.346	80.003	19.995	104.354	20.033	3.223	0.372
105.000	129.495	80.014	19.993	104.347	20.029	3.470	0.344
105.500	129.722	80.014	19.995	104.346	20.032	3.256	0.356
106.000	129.922	80.000	19.992	104.347	20.028	3.567	0.401
106.500	130.086	79.999	19.993	104.349	20.028	3.540	0.396
107.000	130.296	80.007	19.991	104.348	20.027	3.599	0.369
107.500	130.431	80.001	19.994	104.349	20.026	3.696	0.360
108.000	130.682	80.020	19.993	104.344	20.029	3.465	0.365
108.500	130.860	79.996	19.994	104.349	20.032	3.266	0.407
109.000	131.038	80.005	19.995	104.348	20.024	3.796	0.392
109.500	131.240	80.018	19.990	104.348	20.029	3.472	0.368
110.000	131.459	79.997	19.994	104.352	20.029	3.489	0.400
110.500	131.634	80.007	19.994	104.355	20.028	3.579	0.408
111.000	131.807	80.001	19.991	104.354	20.031	3.338	0.371
111.500	132.053	80.005	19.993	104.354	20.030	3.419	0.384
112.001	132.251	80.003	19.995	104.355	20.031	3.336	0.431
112.501	132.448	80.009	19.993	104.351	20.033	3.209	0.419
113.000	132.637	80.003	19.994	104.349	20.033	3.227	0.391
113.500	132.796	80.002	19.997	104.343	20.028	3.566	0.367
114.000	132.993	79.993	19.995	104.334	20.030	3.391	0.352
114.500	133.210	79.994	19.993	104.330	20.031	3.369	0.385
115.000	133.423	79.998	19.994	104.332	20.029	3.492	0.422
115.500	133.625	80.001	19.993	104.335	20.029	3.517	0.422
116.000	133.826	80.003	19.994	104.342	20.032	3.321	0.409
116.500	134.011	80.013	19.995	104.349	20.028	3.553	0.394
117.000	134.224	80.009	19.993	104.352	20.030	3.456	0.392
117.500	134.420	80.014	19.991	104.354	20.029	3.511	0.403
118.000	134.645	80.014	19.993	104.358	20.031	3.364	0.415
118.500	134.825	80.010	19.995	104.357	20.028	3.575	0.414
119.000	134.998	80.007	19.994	104.360	20.027	3.632	0.379
119.501	135.223	80.008	19.996	104.365	20.028	3.547	0.375
120.001	135.415	80.005	19.991	104.366	20.029	3.477	0.407
120.500	135.587	79.999	19.988	104.360	20.028	3.556	0.391
121.000	135.807	79.982	19.991	104.363	20.028	3.582	0.378
121.500	136.040	80.000	19.992	104.363	20.031	3.327	0.423
122.000	136.206	80.014	19.995	104.363	20.027	3.634	0.426
122.500	136.394	80.011	19.994	104.362	20.028	3.566	0.376
123.000	136.620	80.000	19.994	104.359	20.028	3.562	0.383
123.500	136.826	80.007	19.994	104.354	20.028	3.538	0.423
124.001	137.064	80.004	19.994	104.356	20.031	3.329	0.439
124.501	137.255	80.002	19.992	104.357	20.026	3.679	0.436
125.000	137.458	79.991	19.997	104.354	20.027	3.631	0.411
125.500	137.705	80.000	19.994	104.350	20.028	3.572	0.422
126.000	137.930	80.008	19.993	104.348	20.029	3.474	0.461
126.500	138.140	80.019	19.992	104.345	20.023	3.877	0.454
127.000	138.353	80.007	19.995	104.350	20.026	3.701	0.429
127.500	138.603	80.005	19.993	104.356	20.028	3.531	0.443
128.000	138.780	80.012	19.990	104.367	20.027	3.647	0.445
128.500	138.998	80.010	19.992	104.371	20.029	3.480	0.411
129.000	139.192	80.003	19.993	104.370	20.028	3.538	0.404
129.501	139.434	80.002	19.991	104.360	20.026	3.700	0.424
130.000	139.664	80.002	19.993	104.355	20.026	3.700	0.454
130.500	139.834	80.003	19.995	104.353	20.026	3.720	0.436
131.000	140.077	80.002	19.994	104.357	20.028	3.553	0.407
131.500	140.295	80.008	19.991	104.357	20.025	3.739	0.437
132.000	140.503	80.007	19.994	104.359	20.028	3.566	0.443
132.500	140.734	80.001	19.994	104.358	20.024	3.804	0.433
133.000	140.959	79.990	19.993	104.356	20.027	3.600	0.448
133.500	141.160	80.006	19.991	104.357	20.024	3.846	0.441
134.000	141.369	79.997	19.995	104.363	20.025	3.778	0.418
134.500	141.610	80.002	19.991	104.366	20.026	3.662	0.430
135.000	141.838	80.001	19.994	104.373	20.026	3.687	0.460
135.500	142.047	80.005	19.995	104.378	20.024	3.860	0.453
136.000	142.276	80.008	19.994	104.375	20.026	3.666	0.437
136.500	142.490	79.993	19.994	104.376	20.025	3.754	0.440
137.000	142.719	80.005	19.994	104.378	20.025	3.783	0.443
137.500	142.910	80.000	19.994	104.377	20.020	4.118	0.432
138.000	143.204	80.006	19.995	104.376	20.026	3.676	0.452
138.500	143.403	80.002	19.994	104.375	20.023	3.891	0.489
139.000	143.624	80.000	19.993	104.372	20.027	3.613	0.457
139.500	143.848	79.988	19.996	104.367	20.024	3.815	0.433
140.000	144.093	80.003	19.994	104.364	20.026	3.697	0.457
140.500	144.297	79.996	19.994	104.366	20.020	4.078	0.459
141.000	144.546	80.013	19.993	104.363	20.025	3.744	0.451
141.500	144.788	79.998	19.992	104.361	20.025	3.761	0.472
142.000	145.017	80.004	19.992	104.366	20.027	3.640	0.481
142.500	145.257	80.008	19.992	104.372	20.027	3.598	0.471
143.000	145.482	80.003	19.993	104.373	20.027	3.644	0.467
143.500	145.693	79.998	19.994	104.377	20.026	3.717	0.450
144.000	145.938	80.003	19.996	104.379	20.024	3.818	0.446
144.500	146.150	80.019	19.994	104.370	20.024	3.809	0.456
145.000	146.444	80.001	19.994	104.366	20.025	3.786	0.481
145.500	146.608	79.997	19.991	104.363	20.028	3.580	0.483
146.000	146.860	80.004	19.995	104.366	20.026	3.720	0.437
146.500	147.090	80.011	19.994	104.368	20.023	3.915	0.449
147.000	147.322	80.010	19.993	104.375	20.022	3.937	0.472
147.500	147.534	79.996	19.995	104.370	20.027	3.628	0.453
148.000	147.768	80.002	19.993	104.369	20.025	3.781	0.445
148.500	147.975	79.987	19.996	104.361	20.022	3.976	0.444
149.000	148.240	79.997	19.992	104.349	20.025	3.772	0.457
149.500	148.440	80.005	19.995	104.342	20.023	3.888	0.468
150.000	148.696	80.004	19.997	104.340	20.028	3.588	0.461
150.500	148.904	80.003	19.995	104.331	20.025	3.779	0.460
151.000	149.123	80.008	19.994	104.332	20.028	3.584	0.445
151.500	149.399	79.999	19.996	104.341	20.028	3.536	0.461
152.000	149.638	80.007	19.997	104.349	20.026	3.702	0.505
152.500	149.892	80.002	19.993	104.356	20.026	3.665	0.504
153.000	150.124	80.017	19.992	104.364	20.027	3.628	0.489
153.500	150.369	80.003	19.993	104.374	20.025	3.785	0.482
154.000	150.657	80.009	19.994	104.376	20.026	3.702	0.505
154.500	150.829	80.006	19.997	104.371	20.027	3.599	0.496
155.000	151.086	80.008	19.993	104.360	20.024	3.807	0.444
155.500	151.303	80.010	19.994	104.355	20.027	3.620	0.452
156.000	151.532	80.015	19.993	104.343	20.024	3.826	0.461
156.500	151.804	80.011	19.991	104.342	20.025	3.747	0.474
157.000	152.047	80.010	19.993	104.344	20.023	3.923	0.508
157.500	152.246	80.004	19.994	104.348	20.023	3.912	0.478
158.000	152.497	80.005	19.994	104.350	20.021	4.019	0.446
158.500	152.712	80.008	19.996	104.354	20.022	3.964	0.458
159.000	152.999	80.008	19.992	104.355	20.023	3.918	0.485
159.500	153.199	80.004	19.995	104.360	20.020	4.104	0.495
160.000	153.442	80.003	19.994	104.362	20.023	3.927	0.465
160.500	153.665	79.999	19.993	104.362	20.023	3.927	0.455
161.000	153.928	80.005	19.992	104.360	20.020	4.069	0.476
161.500	154.192	80.010	19.994	104.358	20.024	3.853	0.506
162.000	154.434	80.006	19.995	104.354	20.021	4.028	0.516
162.500	154.651	80.004	19.992	104.350	20.022	3.945	0.482
163.000	154.853	79.997	19.995	104.351	20.022	3.958	0.439
163.500	155.135	79.998	19.996	104.354	20.024	3.815	0.452
164.000	155.390	80.011	19.994	104.354	20.025	3.781	0.510
164.500	155.604	79.997	19.995	104.356	20.025	3.791	0.503
165.000	155.873	80.007	19.993	104.362	20.023	3.899	0.476
165.500	156.093	80.005	19.994	104.367	20.024	3.815	0.486
166.000	156.345	80.006	19.993	104.369	20.028	3.560	0.481
166.500	156.583	80.000	19.995	104.372	20.023	3.904	0.481
167.000	156.834	79.998	19.994	104.372	20.024	3.808	0.489
167.500	157.072	80.023	19.993	104.371	20.021	4.029	0.489
168.000	157.319	80.003	19.995	104.369	20.024	3.837	0.487
168.501	157.574	80.006	19.992	104.368	20.023	3.909	0.493
169.000	157.838	80.009	19.992	104.368	20.024	3.819	0.510
169.500	158.051	80.006	19.996	104.372	20.027	3.641	0.498
170.000	158.309	80.012	19.994	104.374	20.024	3.832	0.474
170.500	158.544	80.004	19.994	104.376	20.023	3.885	0.482
171.000	158.781	79.998	19.996	104.376	20.023	3.883	0.482
171.500	159.083	80.006	19.995	104.373	20.021	3.999	0.506
172.000	159.284	80.003	19.994	104.372	20.027	3.626	0.521
172.500	159.557	80.008	19.995	104.372	20.024	3.816	0.489
173.000	159.772	80.008	19.994	104.368	20.027	3.647	0.480
173.500	159.993	80.005	19.995	104.369	20.027	3.648	0.462
174.000	160.268	80.000	19.992	104.371	20.025	3.744	0.467
174.500	160.532	80.003	19.994	104.370	20.023	3.867	0.518
175.000	160.736	80.010	19.992	104.369	20.024	3.837	0.503
175.500	161.009	80.006	19.995	104.369	20.024	3.828	0.472
176.000	161.254	80.000	19.994	104.370	20.024	3.852	0.498
176.500	161.486	80.012	19.996	104.369	20.023	3.922	0.498
177.000	161.771	79.999	19.997	104.361	20.024	3.814	0.497
177.500	162.011	79.998	19.995	104.355	20.022	3.954	0.521
178.000	162.282	80.007	19.995	104.347	20.025	3.779	0.518
178.500	162.488	80.006	19.995	104.341	20.025	3.779	0.494
179.000	162.728	80.012	19.994	104.333	20.023	3.887	0.461
179.500	163.013	80.003	19.995	104.336	20.026	3.722	0.486
180.000	163.258	80.015	19.993	104.336	20.022	3.928	0.528
180.500	163.515	79.992	19.995	104.340	20.025	3.771	0.516
181.000	163.720	80.001	19.996	104.338	20.021	4.005	0.482
181.500	163.993	80.000	19.995	104.338	20.020	4.115	0.470
182.000	164.275	80.004	19.994	104.337	20.025	3.758	0.517
182.500	164.488	80.005	19.994	104.340	20.022	3.935	0.525
183.000	164.776	80.010	19.993	104.345	20.023	3.895	0.498
183.500	165.005	80.009	19.994	104.351	20.022	3.939	0.509
184.000	165.267	80.005	19.994	104.356	20.022	3.967	0.504
184.500	165.516	79.994	19.996	104.355	20.023	3.911	0.501
185.000	165.752	79.997	19.994	104.352	20.022	3.950	0.498
185.500	166.005	80.004	19.994	104.344	20.024	3.832	0.487
186.000	166.255	80.023	19.993	104.339	20.022	3.990	0.496
186.500	166.598	80.006	19.993	104.339	20.021	4.060	0.548
187.000	166.774	80.007	19.995	104.342	20.024	3.832	0.556
187.500	167.040	80.014	19.995	104.343	20.025	3.742	0.481
188.000	167.264	80.003	19.994	104.350	20.023	3.892	0.466
188.500	167.535	80.011	19.994	104.353	20.025	3.772	0.492
189.000	167.744	80.010	19.995	104.350	20.027	3.605	0.487
189.500	168.025	79.999	19.994	104.348	20.022	3.938	0.485
190.000	168.280	80.004	19.992	104.349	20.026	3.678	0.513
190.500	168.538	80.005	19.991	104.344	20.023	3.893	0.525
191.000	168.767	79.987	19.997	104.343	20.024	3.793	0.500
191.500	169.007	79.991	19.992	104.340	20.023	3.924	0.478
192.000	169.296	80.002	19.991	104.337	20.025	3.777	0.499
192.501	169.562	80.010	19.993	104.339	20.022	3.936	0.542
193.001	169.809	80.006	19.994	104.342	20.023	3.897	0.534
193.500	170.055	80.018	19.993	104.341	20.019	4.140	0.503
194.000	170.290	80.010	19.991	104.347	20.023	3.899	0.487
194.500	170.542	80.005	19.992	104.352	20.025	3.788	0.484
195.000	170.836	80.010	19.993	104.351	20.037	2.955	0.517
195.500	171.026	79.991	19.995	104.348	20.032	3.292	0.515
196.000	171.292	80.001	19.996	104.345	20.035	3.090	0.470
196.500	171.602	80.003	19.993	104.341	20.031	3.356	0.516
197.000	171.800	79.994	19.995	104.340	20.021	4.031	0.542
197.500	172.025	80.005	19.992	104.345	20.025	3.772	0.465
198.000	172.285	80.003	19.994	104.350	20.035	3.115	0.454
198.500	172.603	80.017	19.993	104.361	20.030	3.396	0.531
199.000	172.833	79.987	19.994	104.369	20.026	3.713	0.563
199.500	173.045	80.001	19.993	104.372	20.033	3.247	0.495
200.000	173.333	80.007	19.993	104.367	20.022	3.982	0.471
200.500	173.594	80.001	19.993	104.361	20.033	3.215	0.525
201.000	173.814	80.006	19.994	104.355	20.030	3.430	0.515
201.500	174.092	80.011	19.992	104.349	20.032	3.258	0.489
202.000	174.393	80.003	19.994	104.345	20.029	3.475	0.538
202.500	174.580	80.009	19.994	104.349	20.035	3.091	0.534
203.000	174.892	80.002	19.995	104.355	20.021	3.999	0.494
203.500	175.090	79.993	19.993	104.358	20.020	4.078	0.504
204.000	175.313	80.014	19.992	104.358	20.023	3.916	0.465
204.500	175.598	79.998	19.993	104.357	20.024	3.821	0.465
205.000	175.859	80.006	19.993	104.357	20.024	3.841	0.527
205.500	176.117	80.004	19.994	104.359	20.034	3.164	0.532
206.000	176.335	80.005	19.994	104.363	20.017	4.273	0.498
206.500	176.535	80.003	19.996	104.370	20.021	4.058	0.447
207.000	176.876	80.001	19.994	104.376	20.022	3.990	0.480
207.500	177.011	79.990	19.994	104.374	20.019	4.131	0.508
208.000	177.371	80.021	19.992	104.364	20.019	4.183	0.485
208.500	177.565	79.993	19.994	104.359	20.021	4.036	0.524
209.000	177.837	80.003	19.994	104.352	20.021	4.047	0.510
209.500	178.090	80.010	19.994	104.348	20.021	4.010	0.495
210.000	178.308	80.007	19.993	104.352	20.021	4.014	0.498
210.500	178.613	80.008	19.994	104.358	20.023	3.872	0.497
211.000	178.860	80.008	19.993	104.361	20.022	3.972	0.538
211.500	179.111	80.007	19.993	104.365	20.021	4.003	0.525
212.000	179.360	80.001	19.992	104.364	20.022	3.927	0.500
212.500	179.611	80.006	19.994	104.357	20.020	4.087	0.500
213.000	179.847	80.002	19.994	104.353	20.017	4.271	0.493
213.500	180.096	80.005	19.995	104.345	20.021	4.000	0.486
214.000	180.351	80.001	19.993	104.339	20.025	3.746	0.495
214.500	180.595	80.011	19.993	104.337	20.020	4.092	0.502
215.000	180.876	80.000	19.993	104.337	20.017	4.265	0.512
215.500	181.132	80.005	19.993	104.336	20.018	4.211	0.531
216.000	181.368	80.016	19.991	104.336	20.015	4.444	0.515
216.500	181.628	80.004	19.991	104.339	20.015	4.420	0.494
217.000	181.871	80.006	19.991	104.335	20.016	4.365	0.499
217.500	182.133	80.005	19.993	104.330	20.017	4.290	0.504
218.000	182.364	80.002	19.992	104.328	20.015	4.431	0.499
218.501	182.630	80.001	19.996	104.326	20.017	4.291	0.495
219.000	182.892	80.007	19.994	104.324	20.015	4.442	0.512
219.500	183.120	80.016	19.991	104.327	20.019	4.135	0.509
220.000	183.383	79.999	19.994	104.335	20.026	3.695	0.490
220.500	183.609	80.007	19.993	104.336	20.013	4.559	0.490
221.000	183.897	80.012	19.992	104.338	20.021	4.025	0.502
221.500	184.126	80.006	19.994	104.339	20.016	4.334	0.515
222.000	184.403	79.998	19.996	104.340	20.022	3.926	0.511
222.500	184.616	80.008	19.994	104.338	20.024	3.851	0.498
223.001	184.891	80.004	19.993	104.337	20.019	4.175	0.489
223.501	185.159	80.000	19.995	104.335	20.012	4.657	0.515
224.001	185.425	80.009	19.993	104.325	20.010	4.764	0.538
224.500	185.713	80.008	19.992	104.318	20.014	4.468	0.544
225.000	185.901	80.000	19.993	104.319	20.011	4.685	0.515
225.500	186.204	80.003	19.994	104.322	20.011	4.709	0.484
226.000	186.426	80.005	19.993	104.325	20.013	4.565	0.508
226.500	186.742	80.009	19.991	104.336	20.007	4.947	0.532
227.000	186.946	80.001	19.995	104.341	20.012	4.623	0.529
227.500	187.229	80.008	19.993	104.337	20.011	4.687	0.504
228.000	187.449	80.028	19.991	104.332	20.017	4.296	0.495
228.500	187.723	80.005	19.994	104.337	20.011	4.728	0.498
229.000	187.941	80.002	19.993	104.334	20.014	4.505	0.493
229.500	188.197	80.009	19.993	104.331	20.012	4.656	0.483
230.000	188.433	79.987	19.995	104.335	20.014	4.472	0.482
230.500	188.698	80.008	19.994	104.328	20.011	4.671	0.496
231.000	188.945	80.005	19.994	104.312	20.011	4.713	0.507
231.500	189.166	80.012	19.993	104.304	20.012	4.627	0.491
232.000	189.417	80.010	19.992	104.303	20.014	4.511	0.470
232.500	189.698	80.002	19.994	104.303	20.014	4.504	0.501
233.000	189.918	80.004	19.994	104.309	20.014	4.517	0.516
233.500	190.214	80.005	19.994	104.315	20.012	4.664	0.509
234.000	190.392	80.007	19.992	104.321	20.012	4.603	0.495
234.500	190.674	80.005	19.995	104.326	20.014	4.524	0.467
235.000	190.939	80.005	19.993	104.326	20.011	4.675	0.504
235.500	191.269	80.012	19.993	104.330	20.009	4.808	0.571
236.000	191.421	80.005	19.994	104.334	20.011	4.724	0.538
236.500	191.668	80.007	19.993	104.329	20.010	4.739	0.441
237.000	191.893	80.006	19.994	104.320	20.010	4.785	0.436
237.500	192.179	80.002	19.994	104.314	20.009	4.849	0.491
238.000	192.423	80.005	19.993	104.305	20.010	4.746	0.520
238.500	192.703	80.009	19.994	104.298	20.011	4.675	0.527
239.000	192.951	80.004	19.993	104.298	20.008	4.870	0.526
239.500	193.144	79.990	19.995	104.302	20.008	4.883	0.485
240.000	193.463	80.009	19.994	104.303	20.008	4.927	0.477
240.500	193.728	80.003	19.994	104.306	20.007	4.990	0.548
241.000	193.906	80.008	19.994	104.305	20.005	5.091	0.513
241.500	194.159	80.007	19.994	104.304	20.009	4.832	0.437
242.000	194.448	80.018	19.994	104.304	20.006	5.034	0.487
242.500	194.694	80.002	19.994	104.309	20.007	4.958	0.539
243.000	194.966	80.014	19.993	104.311	20.009	4.857	0.526
243.500	195.170	79.984	19.995	104.313	20.008	4.897	0.497
244.000	195.414	80.013	19.993	104.317	20.008	4.884	0.462
244.500	195.694	79.994	19.995	104.321	20.006	5.011	0.486
245.000	195.890	79.981	19.999	104.318	20.007	4.956	0.500
245.500	196.170	80.003	19.995	104.316	20.006	5.030	0.476
246.000	196.425	80.012	19.993	104.319	20.007	4.940	0.506
246.500	196.695	80.008	19.994	104.317	20.005	5.117	0.530
247.000	196.938	80.000	19.995	104.307	20.006	5.016	0.519
247.500	197.127	79.998	19.995	104.304	20.003	5.207	0.473
248.000	197.425	80.012	19.994	104.302	20.008	4.929	0.459
248.500	197.664	79.996	19.995	104.300	20.006	5.061	0.512
249.000	197.934	80.005	19.995	104.300	20.006	5.017	0.523
249.500	198.161	80.000	19.996	104.302	20.005	5.083	0.503
250.000	198.439	80.013	19.993	104.303	20.005	5.070	0.501
250.500	198.619	80.001	19.995	104.309	20.005	5.068	0.481
251.000	198.915	80.016	19.994	104.313	20.001	5.368	0.467
251.500	199.160	80.007	19.995	104.316	20.000	5.428	0.508
252.000	199.439	80.011	19.991	104.317	20.002	5.310	0.532
252.500	199.650	80.006	19.994	104.322	19.996	5.684	0.507
253.000	199.912	80.003	19.995	104.320	19.999	5.478	0.481
253.500	200.116	80.012	19.993	104.315	20.000	5.456	0.470
254.000	200.394	80.002	19.994	104.311	19.999	5.469	0.475
254.500	200.597	79.995	19.996	104.309	20.000	5.467	0.482
255.000	200.872	80.009	19.995	104.303	19.998	5.576	0.479
255.500	201.139	80.009	19.991	104.305	19.996	5.673	0.510
256.000	201.413	80.003	19.994	104.312	19.998	5.550	0.541
256.500	201.667	80.012	19.993	104.315	19.997	5.657	0.534
257.000	201.898	80.003	19.993	104.322	19.999	5.506	0.507
257.500	202.141	80.006	19.993	104.326	19.995	5.780	0.480
258.000	202.400	80.005	19.993	104.329	19.995	5.793	0.488
258.500	202.646	80.006	19.993	104.324	19.994	5.842	0.503
259.000	202.899	80.008	19.993	104.324	19.990	6.133	0.502
259.500	203.122	80.008	19.993	104.318	19.996	5.728	0.488
260.000	203.377	80.008	19.994	104.312	19.992	5.977	0.477
260.500	203.602	80.000	19.995	104.306	19.988	6.220	0.479
261.000	203.848	80.006	19.993	104.301	19.987	6.302	0.475
261.500	204.144	80.005	19.993	104.299	19.991	6.051	0.506
262.000	204.364	80.009	19.992	104.297	19.988	6.212	0.529
262.500	204.605	79.999	19.996	104.299	19.987	6.308	0.489
263.000	204.879	80.010	19.992	104.296	19.984	6.479	0.488
263.500	205.095	80.007	19.994	104.301	19.984	6.528	0.502
264.000	205.373	80.008	19.993	104.303	19.986	6.407	0.492
264.500	205.611	80.011	19.993	104.304	19.983	6.584	0.505
265.000	205.850	80.002	19.995	104.304	19.984	6.481	0.496
265.500	206.112	80.005	19.992	104.307	19.983	6.551	0.489
266.000	206.333	80.008	19.996	104.307	19.982	6.640	0.492
266.500	206.552	80.003	19.994	104.305	19.981	6.691	0.461
267.000	206.831	80.004	19.994	104.303	19.983	6.587	0.469
267.500	207.087	80.008	19.994	104.303	19.982	6.671	0.517
268.000	207.341	80.001	19.995	104.303	19.980	6.805	0.522
268.500	207.614	80.004	19.994	104.301	19.977	6.995	0.518
269.000	207.821	79.996	19.996	104.302	19.980	6.804	0.504
269.500	208.091	80.004	19.994	104.301	19.975	7.092	0.479
270.000	208.304	80.011	19.993	104.300	19.977	6.974	0.480
270.501	208.535	80.011	19.993	104.303	19.973	7.266	0.464
271.001	208.790	80.008	19.994	104.306	19.972	7.330	0.465
271.500	209.074	80.000	19.995	104.307	19.974	7.165	0.512
272.000	209.365	80.012	19.993	104.308	19.973	7.233	0.557
272.500	209.551	80.003	19.996	104.311	19.974	7.146	0.526
273.000	209.819	79.999	19.995	104.307	19.972	7.339	0.466
273.500	210.033	80.005	19.994	104.306	19.970	7.443	0.468
274.001	210.304	80.004	19.995	104.305	19.968	7.601	0.483
274.501	210.534	80.004	19.994	104.307	19.966	7.696	0.493
275.001	210.770	80.004	19.995	104.305	19.964	7.841	0.484
275.500	211.020	80.002	19.995	104.310	19.964	7.820	0.476
276.000	211.259	80.014	19.995	104.314	19.963	7.918	0.487
276.500	211.502	80.005	19.995	104.320	19.964	7.826	0.485
277.000	211.762	80.001	19.995	104.325	19.963	7.897	0.493
277.500	212.059	80.012	19.993	104.325	19.959	8.190	0.530
278.000	212.291	80.000	19.995	104.325	19.960	8.151	0.543
278.500	212.549	80.000	19.997	104.318	19.960	8.116	0.509
279.000	212.765	80.008	19.997	104.311	19.957	8.349	0.482
279.500	213.024	80.007	19.994	104.302	19.951	8.717	0.474
280.001	213.212	80.000	19.997	104.301	19.953	8.589	0.461
280.501	213.504	80.007	19.996	104.287	19.952	8.623	0.464
281.001	213.793	80.018	19.993	104.280	19.954	8.521	0.531
281.501	214.029	80.008	19.995	104.280	19.950	8.767	0.553
282.001	214.249	79.992	19.996	104.280	19.949	8.853	0.491
282.500	214.457	80.001	19.995	104.279	19.945	9.093	0.442
283.000	214.758	80.008	19.996	104.282	19.944	9.159	0.468
283.500	214.979	80.004	19.994	104.280	19.944	9.202	0.515
284.000	215.196	80.005	19.995	104.272	19.940	9.434	0.480
284.500	215.499	80.004	19.994	104.266	19.939	9.520	0.479
285.000	215.695	80.006	19.993	104.259	19.941	9.372	0.509
285.500	215.915	80.006	19.994	104.254	19.940	9.451	0.457
286.000	216.201	80.004	19.994	104.256	19.938	9.591	0.461
286.500	216.461	80.006	19.993	104.260	19.941	9.376	0.526
287.000	216.656	80.003	19.995	104.267	19.941	9.402	0.500
287.500	216.957	80.003	19.993	104.275	19.938	9.580	0.476
288.000	217.214	80.006	19.993	104.287	19.938	9.623	0.528
288.500	217.414	80.002	19.996	104.291	19.935	9.770	0.507
289.000	217.658	80.011	19.994	104.284	19.933	9.895	0.450
289.500	217.943	80.009	19.993	104.285	19.932	10.001	0.486
290.000	218.194	80.010	19.993	104.286	19.932	10.004	0.533
290.500	218.455	80.006	19.993	104.286	19.930	10.146	0.524
291.000	218.668	80.009	19.993	104.290	19.929	10.208	0.493
291.500	218.949	80.009	19.993	104.301	19.929	10.223	0.484
292.000	219.169	80.002	19.995	104.296	19.928	10.272	0.497
292.500	219.417	80.004	19.996	104.291	19.926	10.420	0.485
293.000	219.653	79.999	19.994	104.282	19.922	10.676	0.476
293.500	219.898	80.007	19.993	104.276	19.921	10.730	0.482
294.000	220.127	79.999	19.996	104.269	19.920	10.810	0.477
294.500	220.370	80.005	19.993	104.264	19.922	10.666	0.473
295.000	220.604	80.007	19.994	104.262	19.921	10.759	0.475
295.500	220.877	80.006	19.994	104.256	19.917	10.994	0.492
296.000	221.129	80.005	19.994	104.254	19.918	10.912	0.516
296.500	221.362	80.001	19.994	104.252	19.918	10.921	0.505
297.000	221.583	79.998	19.996	104.251	19.916	11.091	0.469
297.500	221.804	80.003	19.993	104.250	19.913	11.300	0.448
298.000	222.104	80.002	19.994	104.255	19.912	11.324	0.481
298.500	222.364	79.998	19.993	104.258	19.916	11.042	0.541
299.000	222.564	80.000	19.994	104.259	19.914	11.167	0.510
299.500	222.840	80.009	19.994	104.260	19.912	11.327	0.468
300.000	223.040	80.006	19.993	104.260	19.909	11.537	0.476
300.500	223.344	80.004	19.994	104.254	19.908	11.613	0.490
301.000	223.567	80.003	19.993	104.252	19.910	11.466	0.516
301.500	223.845	80.003	19.994	104.250	19.906	11.753	0.514
302.001	224.083	80.012	19.992	104.250	19.907	11.681	0.508
302.500	224.356	80.011	19.994	104.254	19.907	11.670	0.513
303.000	224.524	80.003	19.994	104.267	19.907	11.638	0.476
303.500	224.804	80.000	19.994	104.272	19.907	11.650	0.444
304.000	225.089	80.003	19.995	104.280	19.908	11.630	0.506
304.500	225.282	79.991	19.996	104.283	19.905	11.809	0.521
305.000	225.567	80.006	19.994	104.276	19.905	11.828	0.478
305.500	225.769	79.999	19.994	104.268	19.903	11.954	0.483
306.000	226.065	80.005	19.993	104.264	19.901	12.103	0.493
306.500	226.288	80.008	19.992	104.263	19.904	11.850	0.509
307.000	226.530	80.011	19.994	104.265	19.901	12.071	0.492
307.500	226.770	80.005	19.994	104.267	19.900	12.170	0.473
308.000	227.014	80.004	19.994	104.269	19.899	12.196	0.484
308.500	227.271	80.016	19.992	104.267	19.900	12.110	0.493
309.000	227.534	80.005	19.995	104.253	19.898	12.298	0.510
309.500	227.755	80.003	19.993	104.246	19.896	12.379	0.502
310.000	228.034	80.008	19.994	104.248	19.897	12.358	0.492
310.500	228.291	80.004	19.993	104.248	19.897	12.355	0.518
311.000	228.535	80.007	19.993	104.249	19.895	12.453	0.519
311.500	228.779	80.005	19.994	104.257	19.893	12.605	0.494
312.000	229.053	80.004	19.995	104.259	19.899	12.200	0.503
312.500	229.294	80.004	19.992	104.259	19.895	12.492	0.516
313.001	229.551	80.003	19.996	104.259	19.895	12.512	0.507
313.500	229.818	80.008	19.993	104.259	19.895	12.469	0.511
314.000	230.066	80.001	19.993	104.266	19.897	12.343	0.520
314.500	230.308	80.005	19.993	104.271	19.893	12.582	0.503
315.000	230.564	80.004	19.994	104.279	19.893	12.593	0.494
315.500	230.815	80.005	19.993	104.282	19.893	12.586	0.502
316.000	231.079	80.004	19.994	104.283	19.893	12.606	0.511
316.500	231.317	80.005	19.993	104.278	19.892	12.658	0.509
317.000	231.526	80.008	19.992	104.277	19.893	12.625	0.474
317.500	231.772	80.007	19.993	104.273	19.892	12.696	0.451
318.000	232.034	80.008	19.993	104.272	19.894	12.556	0.482
318.500	232.309	80.006	19.993	104.273	19.893	12.623	0.523
319.000	232.527	80.006	19.994	104.272	19.892	12.652	0.515
319.500	232.828	80.004	19.994	104.274	19.890	12.806	0.506
320.000	233.033	80.005	19.993	104.279	19.891	12.773	0.512
320.500	233.301	80.007	19.994	104.285	19.890	12.817	0.489
321.000	233.521	80.003	19.994	104.291	19.894	12.547	0.480
321.500	233.801	80.007	19.993	104.297	19.890	12.820	0.494
322.000	234.082	80.006	19.995	104.299	19.893	12.596	0.531
322.500	234.266	80.006	19.993	104.297	19.890	12.840	0.513
323.000	234.560	80.005	19.994	104.292	19.889	12.883	0.471
323.500	234.788	80.005	19.994	104.290	19.890	12.830	0.501
324.000	235.029	80.006	19.994	104.289	19.888	12.952	0.496
324.500	235.285	80.006	19.994	104.282	19.894	12.556	0.483
325.000	235.540	80.003	19.992	104.276	19.889	12.857	0.504
325.500	235.774	80.003	19.993	104.276	19.893	12.617	0.500
326.000	236.022	80.005	19.994	104.276	19.893	12.634	0.485
326.500	236.289	80.004	19.993	104.278	19.895	12.509	0.499
327.000	236.541	80.005	19.994	104.286	19.893	12.636	0.517
327.500	236.761	80.006	19.997	104.293	19.895	12.471	0.495
328.000	237.055	80.008	19.993	104.292	19.888	12.927	0.493
328.500	237.270	80.007	19.994	104.289	19.890	12.813	0.512
329.000	237.563	80.006	19.994	104.289	19.894	12.546	0.509
329.500	237.775	80.005	19.993	104.288	19.893	12.596	0.506
330.000	238.011	80.010	19.994	104.289	19.892	12.655	0.476
330.500	238.281	79.997	19.993	104.298	19.893	12.600	0.477
331.000	238.514	80.004	19.993	104.304	19.892	12.660	0.505
331.500	238.763	80.003	19.993	104.303	19.892	12.702	0.492
332.000	239.019	80.010	19.992	104.303	19.892	12.681	0.493
332.500	239.245	80.000	19.994	104.308	19.890	12.852	0.494
333.000	239.501	80.013	19.993	104.312	19.892	12.667	0.482
333.500	239.744	80.005	19.993	104.319	19.893	12.620	0.490
334.000	239.965	80.005	19.994	104.327	19.890	12.815	0.482
334.500	240.217	80.005	19.994	104.335	19.889	12.893	0.469
335.000	240.515	80.004	19.993	104.334	19.891	12.733	0.511
335.500	240.730	80.003	19.995	104.331	19.886	13.104	0.531
336.000	240.994	80.004	19.995	104.327	19.892	12.700	0.496
336.500	241.251	80.006	19.994	104.322	19.889	12.884	0.500
337.000	241.492	80.004	19.994	104.320	19.888	12.976	0.510
337.501	241.722	80.008	19.993	104.323	19.890	12.844	0.485
338.001	241.973	80.003	19.992	104.325	19.893	12.587	0.476
338.500	242.270	80.007	19.995	104.326	19.888	12.936	0.515
339.000	242.519	80.005	19.995	104.329	19.890	12.817	0.547
339.500	242.778	80.015	19.994	104.326	19.889	12.901	0.527
340.000	243.047	80.010	19.993	104.327	19.886	13.068	0.518
340.500	243.272	80.008	19.994	104.328	19.889	12.917	0.511
341.000	243.546	80.009	19.993	104.330	19.885	13.165	0.497
341.500	243.796	80.017	19.993	104.331	19.889	12.919	0.512
342.000	244.035	79.996	19.995	104.336	19.886	13.101	0.506
342.500	244.284	80.002	19.995	104.334	19.884	13.238	0.488
343.000	244.534	80.004	19.994	104.333	19.885	13.153	0.493
343.500	244.811	80.002	19.994	104.334	19.882	13.323	0.513
344.000	245.027	80.009	19.995	104.333	19.882	13.354	0.510
344.500	245.273	80.005	19.994	104.332	19.882	13.349	0.478
345.000	245.565	80.009	19.995	104.333	19.883	13.264	0.500
345.500	245.813	79.999	19.994	104.333	19.882	13.331	0.539
346.000	246.058	80.003	19.994	104.333	19.883	13.281	0.516
346.500	246.256	79.997	19.994	104.328	19.881	13.425	0.468
347.000	246.573	80.006	19.994	104.323	19.875	13.810	0.479
347.500	246.846	79.998	19.995	104.325	19.879	13.571	0.553
348.000	247.035	79.991	19.995	104.324	19.878	13.651	0.526
348.500	247.336	80.006	19.994	104.322	19.875	13.837	0.476
349.000	247.573	80.002	19.993	104.327	19.874	13.911	0.514
349.501	247.805	80.005	19.993	104.329	19.874	13.879	0.503
350.001	248.045	80.007	19.993	104.326	19.875	13.860	0.470
350.500	248.310	80.004	19.994	104.321	19.871	14.124	0.489
351.000	248.556	80.001	19.995	104.318	19.873	13.947	0.508
351.500	248.808	80.000	19.995	104.318	19.872	14.055	0.504
352.000	249.084	80.001	19.994	104.317	19.872	14.043	0.513
352.500	249.337	80.002	19.995	104.318	19.870	14.193	0.529
353.000	249.595	80.006	19.994	104.322	19.868	14.291	0.520
353.500	249.859	80.004	19.994	104.326	19.867	14.369	0.517
354.000	250.125	80.005	19.994	104.322	19.866	14.416	0.526
354.500	250.383	80.004	19.994	104.318	19.867	14.350	0.527
355.000	250.595	79.988	19.995	104.312	19.866	14.413	0.497
355.500	250.908	80.008	19.994	104.306	19.867	14.327	0.497
356.000	251.138	80.010	19.994	104.305	19.866	14.443	0.534
356.500	251.372	80.007	19.994	104.308	19.867	14.369	0.503
357.000	251.594	80.002	19.994	104.316	19.862	14.718	0.460
357.500	251.861	80.006	19.993	104.324	19.860	14.844	0.473
358.000	252.089	80.011	19.995	104.330	19.864	14.590	0.492
358.500	252.379	80.003	19.995	104.330	19.861	14.779	0.507
359.000	252.619	80.005	19.996	104.334	19.860	14.826	0.524
359.500	252.864	80.005	19.998	104.337	19.861	14.793	0.507
360.000	253.114	80.004	19.994	104.338	19.856	15.069	0.490
360.500	253.373	80.011	19.995	104.339	19.861	14.737	0.502
361.000	253.621	80.000	19.995	104.341	19.857	15.009	0.507
361.500	253.887	80.001	19.996	104.336	19.856	15.078	0.510
362.000	254.094	79.993	19.997	104.332	19.857	15.063	0.494
362.500	254.353	79.998	19.996	104.330	19.853	15.278	0.469
363.000	254.660	80.010	19.994	104.323	19.850	15.471	0.516
363.500	254.885	80.006	19.995	104.315	19.852	15.337	0.549
364.000	255.123	80.010	19.994	104.306	19.850	15.522	0.498
364.500	255.378	80.001	19.993	104.298	19.849	15.578	0.478
365.000	255.573	79.997	19.996	104.294	19.849	15.540	0.472
365.500	255.861	80.010	19.995	104.297	19.850	15.487	0.467
366.000	256.119	80.025	19.994	104.299	19.846	15.751	0.514
366.500	256.371	80.003	19.995	104.304	19.847	15.730	0.528
367.000	256.596	80.001	19.995	104.303	19.848	15.616	0.494
367.501	256.849	80.002	19.995	104.298	19.844	15.874	0.478
368.000	257.107	80.003	19.995	104.294	19.842	16.051	0.494
368.500	257.364	80.004	19.995	104.292	19.840	16.139	0.513
369.000	257.626	80.005	19.995	104.292	19.840	16.174	0.517
369.500	257.897	80.002	19.996	104.297	19.838	16.337	0.526
370.000	258.137	80.006	19.993	104.297	19.839	16.234	0.522
370.500	258.398	80.005	19.994	104.297	19.834	16.580	0.506
371.000	258.621	80.005	19.995	104.298	19.832	16.698	0.493
371.500	258.888	80.006	19.995	104.298	19.834	16.576	0.487
372.000	259.149	80.004	19.994	104.303	19.832	16.730	0.509
372.500	259.396	80.006	19.994	104.307	19.829	16.921	0.518
373.000	259.664	80.005	19.994	104.304	19.829	16.928	0.512
373.500	259.881	80.001	19.995	104.303	19.827	17.078	0.500
374.000	260.101	79.996	19.996	104.302	19.828	16.994	0.461
374.500	260.393	80.003	19.994	104.294	19.824	17.222	0.474
375.000	260.625	80.002	19.994	104.288	19.823	17.286	0.517
375.500	260.865	80.004	19.994	104.284	19.824	17.269	0.498
376.000	261.090	80.006	19.994	104.285	19.820	17.485	0.469
376.500	261.346	80.008	19.995	104.285	19.821	17.417	0.473
377.000	261.605	79.996	19.995	104.279	19.817	17.702	0.498
377.500	261.847	80.004	19.994	104.279	19.818	17.643	0.508
378.000	262.085	80.001	19.993	104.291	19.816	17.809	0.491
378.500	262.327	80.006	19.994	104.294	19.812	18.020	0.480
379.000	262.586	80.004	19.993	104.297	19.813	18.007	0.490
379.500	262.857	80.001	19.994	104.304	19.807	18.369	0.516
380.000	263.066	80.000	19.993	104.307	19.810	18.202	0.505
380.500	263.375	80.005	19.993	104.305	19.809	18.251	0.499
381.000	263.606	80.002	19.994	104.303	19.806	18.464	0.529
381.500	263.858	80.010	19.992	104.301	19.803	18.665	0.512
382.000	264.094	79.998	19.995	104.307	19.804	18.574	0.485
382.500	264.363	79.997	19.993	104.313	19.805	18.523	0.496
383.000	264.593	80.006	19.993	104.311	19.801	18.816	0.502
383.500	264.852	80.007	19.994	104.312	19.802	18.706	0.494
384.000	265.106	80.012	19.994	104.316	19.801	18.814	0.501
384.500	265.335	80.000	19.994	104.316	19.797	19.039	0.498
385.000	265.587	79.993	19.995	104.320	19.797	19.081	0.482
385.500	265.843	80.005	19.996	104.326	19.795	19.194	0.494
386.000	266.090	80.004	19.993	104.327	19.796	19.136	0.505
386.500	266.326	80.000	19.995	104.324	19.790	19.538	0.493
387.000	266.560	80.009	19.995	104.314	19.791	19.488	0.477
387.500	266.826	79.989	19.994	104.297	19.786	19.768	0.485
388.000	267.077	80.012	19.992	104.284	19.786	19.789	0.508
388.500	267.341	80.006	19.994	104.280	19.784	19.949	0.516
389.000	267.589	80.000	19.994	104.278	19.782	20.097	0.513
389.500	267.850	80.000	19.994	104.282	19.781	20.119	0.511
390.000	268.101	80.006	19.993	104.293	19.780	20.199	0.511
390.500	268.338	80.004	19.992	104.301	19.778	20.332	0.500
391.000	268.587	80.008	19.994	104.303	19.775	20.514	0.487
391.500	268.820	80.006	19.993	104.309	19.774	20.592	0.484
392.000	269.071	79.998	19.995	104.318	19.771	20.802	0.483
392.500	269.318	80.007	19.992	104.315	19.771	20.836	0.491
393.000	269.574	80.010	19.994	104.318	19.765	21.187	0.501
393.500	269.847	80.001	19.994	104.319	19.767	21.091	0.516
394.000	270.109	79.998	19.994	104.315	19.767	21.088	0.532
394.500	270.306	79.997	19.995	104.306	19.762	21.387	0.496
395.001	270.626	80.003	19.992	104.310	19.763	21.336	0.488
395.500	270.839	80.003	19.994	104.317	19.761	21.450	0.525
396.000	271.100	80.017	19.992	104.322	19.758	21.677	0.504
396.500	271.390	80.003	19.994	104.331	19.758	21.662	0.513
397.000	271.609	80.006	19.993	104.332	19.754	21.926	0.530
397.500	271.884	80.000	19.993	104.328	19.750	22.203	0.501
398.000	272.132	80.007	19.992	104.317	19.750	22.214	0.508
398.500	272.361	80.006	19.994	104.310	19.748	22.361	0.500
399.000	272.645	80.007	19.994	104.305	19.746	22.515	0.495
399.500	272.892	79.999	19.995	104.313	19.742	22.751	0.522
400.000	273.159	80.006	19.993	104.318	19.740	22.889	0.523
400.500	273.404	80.003	19.993	104.326	19.738	23.008	0.513
401.000	273.648	80.006	19.995	104.334	19.736	23.176	0.500
401.500	273.847	80.001	19.994	104.337	19.735	23.214	0.466
402.000	274.090	80.010	19.994	104.336	19.730	23.531	0.443
402.500	274.363	79.998	19.993	104.331	19.727	23.724	0.480
403.000	274.632	80.008	19.991	104.322	19.725	23.898	0.529
403.500	274.862	80.002	19.995	104.315	19.725	23.922	0.520
404.000	275.124	80.005	19.993	104.305	19.719	24.301	0.495
404.500	275.387	80.007	19.993	104.296	19.719	24.292	0.508
405.000	275.633	80.007	19.993	104.297	19.713	24.719	0.517
405.500	275.874	80.010	19.994	104.302	19.712	24.789	0.498
406.000	276.143	80.005	19.993	104.308	19.710	24.904	0.498
406.500	276.313	80.002	19.994	104.316	19.708	25.050	0.475
407.000	276.636	80.004	19.993	104.319	19.708	25.037	0.466
407.500	276.892	80.013	19.994	104.326	19.702	25.413	0.536
408.000	277.131	80.007	19.994	104.329	19.700	25.601	0.537
408.501	277.380	80.008	19.994	104.327	19.697	25.744	0.492
409.000	277.643	80.006	19.994	104.325	19.693	26.024	0.500
409.500	277.882	80.003	19.994	104.327	19.696	25.861	0.507
410.000	278.151	80.012	19.992	104.322	19.691	26.179	0.504
410.500	278.390	80.006	19.994	104.317	19.685	26.578	0.508
411.000	278.626	80.008	19.992	104.313	19.687	26.462	0.492
411.500	278.870	80.002	19.995	104.308	19.681	26.836	0.478
412.000	279.132	80.008	19.992	104.304	19.679	26.989	0.493
412.500	279.372	80.004	19.993	104.307	19.680	26.938	0.504
413.000	279.599	80.010	19.995	104.310	19.679	26.960	0.484
413.500	279.853	80.003	19.993	104.313	19.671	27.497	0.474
414.000	280.112	80.014	19.992	104.318	19.670	27.573	0.497
414.500	280.362	80.004	19.993	104.324	19.669	27.671	0.511
415.000	280.606	80.017	19.993	104.323	19.667	27.775	0.502
415.500	280.852	80.011	19.993	104.326	19.663	28.056	0.492
416.000	281.096	80.007	19.994	104.326	19.661	28.187	0.490
416.500	281.347	80.025	19.992	104.328	19.659	28.327	0.492
417.000	281.580	80.008	19.993	104.331	19.653	28.717	0.490
417.500	281.886	80.010	19.994	104.333	19.650	28.915	0.512
418.000	282.127	80.008	19.992	104.332	19.648	29.081	0.543
418.500	282.355	80.017	19.992	104.336	19.645	29.289	0.508
419.000	282.614	80.009	19.994	104.339	19.645	29.261	0.478
419.500	282.842	80.007	19.993	104.337	19.640	29.630	0.487
420.000	283.082	80.012	19.993	104.337	19.639	29.700	0.477
420.500	283.326	79.987	19.994	104.339	19.634	29.986	0.476
421.000	283.572	79.999	19.993	104.334	19.630	30.262	0.487
421.500	283.838	80.004	19.993	104.325	19.626	30.578	0.501
422.000	284.078	79.986	19.995	104.323	19.626	30.567	0.509
422.500	284.344	80.008	19.993	104.320	19.621	30.906	0.506
423.000	284.592	80.008	19.993	104.319	19.615	31.277	0.510
423.500	284.819	80.013	19.994	104.324	19.612	31.457	0.495
424.000	285.076	80.001	19.994	104.330	19.613	31.401	0.480
424.500	285.317	80.005	19.994	104.330	19.606	31.909	0.490
425.000	285.572	80.002	19.993	104.332	19.605	31.949	0.497
425.500	285.791	79.996	19.994	104.333	19.601	32.214	0.486
426.000	286.100	79.987	19.995	104.331	19.600	32.312	0.501
426.500	286.359	79.985	19.996	104.330	19.598	32.406	0.548
427.000	286.608	80.013	19.994	104.328	19.597	32.519	0.538
427.500	286.830	79.999	19.996	104.330	19.593	32.780	0.490
428.000	287.090	80.010	19.994	104.326	19.588	33.081	0.476
428.500	287.365	80.003	19.995	104.327	19.587	33.189	0.508
429.000	287.615	80.003	19.994	104.328	19.583	33.425	0.530
429.500	287.846	80.001	19.995	104.331	19.582	33.478	0.503
430.000	288.092	80.013	19.993	104.330	19.580	33.647	0.479
430.500	288.368	80.003	19.997	104.340	19.573	34.132	0.500
431.000	288.583	80.000	19.996	104.346	19.573	34.134	0.507
431.500	288.836	80.008	19.995	104.348	19.575	33.990	0.479
432.000	289.111	80.005	19.994	104.355	19.571	34.233	0.498
432.500	289.370	79.997	19.995	104.361	19.568	34.419	0.531
433.000	289.641	80.007	19.994	104.360	19.565	34.637	0.532
433.500	289.867	79.999	19.996	104.363	19.563	34.749	0.514
434.000	290.092	80.008	19.994	104.367	19.560	34.966	0.474
434.500	290.327	80.015	19.993	104.370	19.557	35.165	0.455
435.000	290.611	80.010	19.995	104.373	19.556	35.272	0.489
435.500	290.851	80.001	19.994	104.373	19.553	35.429	0.522
436.000	291.131	79.996	19.995	104.373	19.556	35.225	0.522
436.500	291.398	80.014	19.993	104.374	19.553	35.459	0.534
437.000	291.653	80.006	19.997	104.374	19.548	35.776	0.535
437.500	291.881	79.994	19.995	104.370	19.546	35.903	0.503
438.000	292.147	80.010	19.993	104.372	19.546	35.902	0.488
438.500	292.375	79.997	19.994	104.370	19.543	36.125	0.494
439.000	292.649	80.003	19.993	104.367	19.539	36.358	0.498
439.500	292.954	80.000	19.995	104.362	19.540	36.325	0.541
440.001	293.184	80.011	19.993	104.358	19.537	36.535	0.557
440.501	293.435	80.008	19.994	104.356	19.535	36.620	0.508
441.000	293.693	80.000	19.994	104.359	19.539	36.401	0.495
441.500	293.898	80.003	19.994	104.365	19.534	36.706	0.486
442.000	294.189	80.003	19.993	104.369	19.534	36.688	0.479
442.500	294.401	80.002	19.995	104.374	19.535	36.623	0.499
443.001	294.748	80.001	19.993	104.368	19.534	36.714	0.531
443.501	294.916	80.007	19.992	104.363	19.533	36.764	0.537
444.001	295.182	80.001	19.995	104.356	19.531	36.950	0.475
444.500	295.444	80.008	19.992	104.348	19.532	36.857	0.481
445.000	295.690	80.000	19.994	104.344	19.535	36.660	0.518
445.500	295.935	79.989	19.995	104.343	19.536	36.595	0.500
446.001	296.196	80.006	19.993	104.339	19.539	36.422	0.499
446.500	296.462	80.008	19.993	104.336	19.536	36.619	0.516
447.000	296.685	79.998	19.994	104.337	19.538	36.489	0.508
447.500	296.952	79.997	19.994	104.334	19.540	36.370	0.490
448.000	297.165	79.997	19.995	104.333	19.540	36.313	0.485
448.500	297.433	79.998	19.994	104.334	19.542	36.191	0.480
449.000	297.658	80.010	19.994	104.336	19.543	36.128	0.487
449.500	297.938	80.000	19.994	104.337	19.544	36.064	0.499
450.000	298.197	80.003	19.996	104.337	19.543	36.150	0.523
450.500	298.444	80.008	19.993	104.336	19.546	35.959	0.523
451.001	298.711	80.004	19.995	104.338	19.550	35.708	0.510
451.501	298.942	80.006	19.995	104.337	19.553	35.488	0.506
452.000	299.150	79.998	19.994	104.337	19.554	35.447	0.468
452.500	299.461	80.004	19.995	104.336	19.556	35.311	0.479
453.000	299.661	80.000	19.994	104.338	19.554	35.395	0.515
453.500	299.917	80.009	19.993	104.337	19.554	35.439	0.483
454.000	300.100	80.001	19.996	104.344	19.554	35.430	0.448
454.500	300.390	79.988	19.996	104.352	19.557	35.218	0.456
455.000	300.659	80.026	19.995	104.360	19.554	35.409	0.516
455.500	300.904	79.997	19.994	104.369	19.555	35.378	0.536
456.000	301.136	80.002	19.994	104.380	19.552	35.558	0.496
456.500	301.387	80.003	19.995	104.387	19.554	35.405	0.480
457.000	301.633	79.994	19.994	104.392	19.552	35.589	0.490
457.500	301.884	80.014	19.993	104.398	19.546	35.966	0.496
458.000	302.148	79.994	19.994	104.406	19.542	36.252	0.506
458.500	302.381	80.000	19.996	104.408	19.536	36.624	0.506
459.000	302.652	80.018	19.995	104.412	19.531	36.964	0.501
459.500	302.904	79.996	19.997	104.415	19.529	37.115	0.514
460.000	303.148	80.016	19.994	104.415	19.518	37.792	0.510
460.500	303.423	79.999	19.994	104.417	19.511	38.283	0.508
461.000	303.644	80.007	19.993	104.421	19.503	38.816	0.508
461.500	303.963	80.005	19.993	104.429	19.494	39.442	0.518
462.000	304.180	80.009	19.994	104.437	19.485	40.066	0.538
462.500	304.457	80.019	19.993	104.449	19.474	40.814	0.515
463.000	304.684	79.999	19.996	104.460	19.461	41.643	0.498
463.500	304.943	80.002	19.996	104.466	19.454	42.147	0.495
464.000	305.176	79.995	19.995	104.474	19.440	43.078	0.489
464.500	305.418	79.996	19.994	104.479	19.425	44.065	0.484
465.000	305.626	79.995	19.995	104.485	19.410	45.043	0.462
465.500	305.899	79.999	19.995	104.486	19.396	45.968	0.466
466.000	306.175	80.001	19.994	104.494	19.386	46.667	0.515
466.500	306.400	80.015	19.992	104.499	19.371	47.651	0.525
467.000	306.669	80.001	19.994	104.509	19.360	48.421	0.497
467.500	306.904	79.998	19.995	104.526	19.344	49.495	0.499
468.000	307.194	79.997	19.994	104.546	19.331	50.385	0.515
468.500	307.445	80.020	19.992	104.555	19.318	51.269	0.533
469.000	307.703	80.001	19.996	104.556	19.306	52.076	0.525
469.500	307.905	80.020	19.993	104.524	19.292	53.010	0.484
470.000	308.188	79.984	19.995	104.475	19.279	53.825	0.473
470.500	308.439	80.012	19.992	104.426	19.266	54.691	0.510
471.000	308.655	80.002	19.993	104.394	19.254	55.534	0.500
471.500	308.921	80.007	19.993	104.363	19.241	56.439	0.474
472.000	309.181	80.006	19.993	104.381	19.231	57.082	0.504
472.500	309.455	80.014	19.994	104.445	19.218	57.951	0.530
473.000	309.667	80.005	19.995	104.475	19.211	58.460	0.510
473.500	309.922	80.012	19.991	104.470	19.207	58.713	0.477
474.000	310.181	80.014	19.993	104.474	19.197	59.350	0.491
474.500	310.451	80.018	19.991	104.481	19.195	59.439	0.522
475.000	310.720	79.996	19.995	104.439	19.195	59.460	0.534
475.500	310.961	80.009	19.994	104.405	19.185	60.195	0.524
476.000	311.223	80.003	19.993	104.398	19.186	60.102	0.507
476.500	311.457	80.011	19.994	104.387	19.185	60.237	0.500
477.000	311.711	79.995	19.994	104.357	19.188	60.033	0.491
477.500	311.982	80.018	19.992	104.364	19.193	59.745	0.506
478.000	312.306	80.017	19.992	104.395	19.192	59.775	0.560
478.500	312.539	80.000	19.994	104.403	19.191	59.858	0.576
479.000	312.799	80.008	19.993	104.406	19.186	60.152	0.525
479.500	313.027	79.993	19.996	104.414	19.178	60.631	0.490
480.000	313.351	80.003	19.993	104.398	19.176	60.741	0.520
480.500	313.597	80.008	19.994	104.378	19.172	60.978	0.561
481.000	313.805	80.004	19.994	104.369	19.179	60.510	0.512
481.500	314.073	79.997	19.995	104.375	19.184	60.159	0.465
482.000	314.323	79.985	19.996	104.400	19.193	59.597	0.497
482.500	314.632	80.004	19.994	104.406	19.200	59.090	0.539
483.000	314.876	80.007	19.992	104.407	19.205	58.758	0.555
483.500	315.117	80.012	19.993	104.420	19.202	58.970	0.519
484.000	315.367	80.008	19.995	104.415	19.198	59.233	0.488
484.500	315.626	80.000	19.994	104.371	19.188	59.941	0.500
485.000	315.922	80.001	19.994	104.338	19.174	60.899	0.532
485.500	316.145	80.002	19.995	104.331	19.162	61.710	0.537
486.000	316.468	80.018	19.992	104.351	19.149	62.611	0.533
486.500	316.675	80.003	19.994	104.381	19.139	63.281	0.538
487.000	316.935	80.012	19.992	104.422	19.131	63.823	0.498
487.500	317.257	80.022	19.991	104.492	19.128	64.055	0.525
488.000	317.439	80.011	19.992	104.551	19.128	64.010	0.543
488.500	317.741	79.992	19.995	104.561	19.132	63.759	0.494
489.000	318.029	80.034	19.991	104.545	19.133	63.645	0.537
489.500	318.272	80.000	19.995	104.528	19.134	63.604	0.561
490.000	318.551	80.009	19.995	104.473	19.134	63.617	0.526
490.500	318.796	80.008	19.994	104.407	19.133	63.682	0.523
491.000	319.054	80.010	19.994	104.356	19.134	63.620	0.514
491.500	319.338	80.004	19.995	104.320	19.128	64.046	0.522
492.000	319.580	80.008	19.994	104.302	19.127	64.095	0.534
492.500	319.845	80.005	19.993	104.293	19.128	64.035	0.517
493.000	320.148	80.016	19.992	104.280	19.129	63.965	0.538
493.500	320.373	80.000	19.996	104.282	19.127	64.096	0.548
494.000	320.644	80.009	19.994	104.304	19.135	63.581	0.512
494.500	320.945	80.001	19.994	104.315	19.135	63.588	0.534
495.000	321.184	80.018	19.993	104.331	19.143	63.082	0.556
495.500	321.420	80.006	19.994	104.362	19.144	62.980	0.507
496.000	321.719	80.007	19.993	104.387	19.148	62.723	0.505
496.500	321.952	80.001	19.994	104.407	19.152	62.466	0.534
497.000	322.222	80.009	19.993	104.424	19.163	61.703	0.518
497.500	322.450	80.003	19.993	104.438	19.164	61.601	0.501
498.000	322.719	80.025	19.992	104.444	19.166	61.451	0.497
498.500	322.950	80.012	19.992	104.446	19.169	61.264	0.498
499.000	323.237	80.000	19.993	104.429	19.174	60.933	0.509
499.500	323.497	80.000	19.994	104.410	19.174	60.899	0.533
500.000	323.793	80.008	19.993	104.393	19.174	60.897	0.552
500.500	324.065	80.016	19.993	104.390	19.175	60.868	0.562
501.000	324.311	79.997	19.993	104.401	19.178	60.656	0.543
501.500	324.522	79.991	19.995	104.417	19.182	60.398	0.487
502.000	324.806	80.004	19.993	104.427	19.182	60.368	0.475
502.500	325.069	80.010	19.993	104.444	19.176	60.762	0.521
503.000	325.358	80.011	19.992	104.457	19.173	60.997	0.550
503.500	325.606	80.005	19.993	104.452	19.162	61.767	0.544
504.000	325.860	80.004	19.994	104.447	19.154	62.283	0.519
504.500	326.132	80.007	19.994	104.444	19.143	63.061	0.514
505.000	326.368	80.011	19.993	104.444	19.133	63.676	0.517
505.500	326.634	79.995	19.994	104.469	19.131	63.800	0.505
506.000	326.903	80.009	19.992	104.493	19.135	63.562	0.518
506.500	327.112	80.008	19.992	104.509	19.130	63.890	0.506
507.000	327.386	80.006	19.993	104.519	19.134	63.568	0.481
507.500	327.624	80.005	19.992	104.521	19.128	63.999	0.498
508.000	327.880	80.009	19.993	104.486	19.122	64.352	0.503
508.500	328.127	80.014	19.992	104.448	19.117	64.735	0.499
509.000	328.405	80.001	19.994	104.418	19.111	65.116	0.514
509.500	328.667	80.000	19.993	104.391	19.103	65.673	0.533
510.000	328.895	79.990	19.995	104.375	19.099	65.988	0.515
510.500	329.138	80.008	19.992	104.383	19.094	66.337	0.481
511.000	329.436	80.002	19.992	104.399	19.087	66.763	0.506
511.500	329.656	80.007	19.993	104.406	19.081	67.181	0.529
512.000	329.946	79.996	19.994	104.418	19.076	67.505	0.514
512.500	330.184	79.983	19.995	104.417	19.074	67.680	0.519
513.000	330.484	80.024	19.990	104.395	19.069	67.978	0.533
513.500	330.747	80.014	19.994	104.395	19.067	68.192	0.550
514.000	330.997	80.004	19.993	104.416	19.065	68.328	0.538
514.500	331.199	80.003	19.993	104.435	19.070	68.029	0.483
515.000	331.447	79.995	19.995	104.444	19.066	68.258	0.451
515.500	331.701	80.000	19.996	104.459	19.069	68.110	0.476
516.000	331.981	80.013	19.992	104.456	19.074	67.729	0.517
516.500	332.233	79.998	19.993	104.441	19.078	67.438	0.533
517.000	332.485	80.007	19.994	104.423	19.080	67.296	0.518
517.500	332.755	80.018	19.992	104.402	19.083	67.046	0.513
518.000	332.984	80.012	19.992	104.381	19.085	66.845	0.511
518.500	333.260	79.997	19.995	104.358	19.090	66.531	0.502
519.000	333.475	80.007	19.994	104.354	19.092	66.365	0.498
519.500	333.753	80.007	19.994	104.372	19.098	65.949	0.492
520.000	334.041	80.021	19.992	104.399	19.102	65.697	0.530
520.500	334.260	79.993	19.995	104.428	19.109	65.205	0.536
521.000	334.544	80.012	19.993	104.451	19.114	64.844	0.505
521.500	334.776	80.002	19.995	104.456	19.110	65.114	0.510
522.000	335.041	79.993	19.994	104.453	19.103	65.621	0.507
522.500	335.264	80.010	19.991	104.451	19.090	66.482	0.492
523.000	335.578	80.006	19.991	104.450	19.077	67.393	0.512
523.500	335.763	80.001	19.995	104.451	19.057	68.748	0.518
524.000	336.042	80.017	19.992	104.455	19.041	69.848	0.482
524.500	336.263	80.009	19.993	104.490	19.028	70.722	0.482
525.000	336.472	79.998	19.997	104.527	19.022	71.198	0.465
525.500	336.735	79.991	19.998	104.557	19.017	71.503	0.451
526.000	337.030	80.008	19.992	104.577	19.011	71.920	0.515
526.500	337.284	80.007	19.995	104.590	19.008	72.080	0.554
527.000	337.514	80.001	19.996	104.558	19.006	72.226	0.517
527.500	337.775	79.994	19.996	104.510	19.006	72.252	0.488
528.000	338.026	79.987	19.995	104.455	19.010	71.935	0.501
528.500	338.306	80.012	19.994	104.404	19.008	72.069	0.521
529.000	338.552	79.996	19.994	104.365	19.007	72.168	0.529
529.500	338.784	79.993	19.996	104.341	19.016	71.525	0.503
530.000	339.038	80.007	19.994	104.323	19.016	71.535	0.482
530.500	339.292	80.009	19.993	104.309	19.020	71.223	0.496
531.000	339.523	79.997	19.994	104.304	19.023	71.031	0.496
531.500	339.758	79.993	19.994	104.291	19.031	70.546	0.476
532.000	340.032	80.004	19.993	104.276	19.035	70.221	0.488
532.500	340.304	80.011	19.993	104.281	19.043	69.714	0.527
533.000	340.492	80.011	19.993	104.300	19.044	69.596	0.503
533.500	340.754	80.009	19.993	104.324	19.050	69.210	0.455
534.000	341.005	80.003	19.996	104.363	19.054	68.896	0.482
534.500	341.296	80.000	19.994	104.403	19.055	68.850	0.527
535.000	341.564	80.006	19.994	104.431	19.053	68.995	0.550
535.500	341.796	80.005	19.993	104.450	19.057	68.724	0.529
536.000	342.050	80.007	19.994	104.462	19.059	68.603	0.493
536.500	342.296	79.996	19.994	104.458	19.056	68.772	0.493
537.001	342.513	80.004	19.995	104.460	19.063	68.316	0.482
537.500	342.751	80.006	19.994	104.465	19.068	67.977	0.458
538.000	342.954	79.997	19.996	104.469	19.071	67.817	0.448
538.500	343.260	80.000	19.994	104.460	19.070	67.859	0.476
539.000	343.482	80.002	19.994	104.455	19.074	67.637	0.519
539.500	343.721	79.997	19.996	104.441	19.070	67.873	0.494
540.000	343.986	80.011	19.994	104.419	19.070	67.903	0.483
540.500	344.203	79.995	19.996	104.394	19.071	67.882	0.493
541.000	344.449	79.988	19.995	104.381	19.075	67.662	0.472
541.500	344.706	80.000	19.994	104.394	19.077	67.589	0.483
542.000	344.939	80.009	19.996	104.406	19.093	66.566	0.497
542.500	345.198	80.002	19.995	104.405	19.100	66.092	0.491
543.000	345.421	79.987	19.996	104.403	19.110	65.388	0.486
543.500	345.685	79.998	19.996	104.400	19.122	64.558	0.485
544.000	345.961	79.983	19.994	104.369	19.133	63.744	0.514
544.500	346.179	80.000	19.994	104.342	19.146	62.787	0.517
545.000	346.411	79.990	19.996	104.325	19.160	61.803	0.473
545.500	346.614	79.993	19.995	104.314	19.175	60.750	0.443
546.000	346.923	80.009	19.993	104.309	19.189	59.731	0.473
546.500	347.170	80.005	19.993	104.316	19.201	58.911	0.534
547.000	347.411	80.007	19.994	104.325	19.217	57.850	0.522
547.500	347.630	80.003	19.996	104.336	19.229	57.045	0.474
548.000	347.880	80.004	19.995	104.347	19.239	56.356	0.464
548.501	348.099	79.992	19.994	104.352	19.237	56.514	0.468
549.000	348.346	80.000	19.995	104.349	19.228	57.149	0.468
549.500	348.616	80.016	19.993	104.352	19.206	58.671	0.492
550.001	348.861	80.004	19.994	104.369	19.179	60.486	0.516
550.501	349.094	79.989	19.996	104.393	19.147	62.684	0.496
551.001	349.359	80.005	19.994	104.428	19.118	64.693	0.488
551.501	349.629	80.000	19.995	104.497	19.093	66.424	0.517
552.000	349.896	80.000	19.995	104.576	19.074	67.663	0.536
552.500	350.130	80.006	19.995	104.655	19.059	68.694	0.519
553.000	350.373	80.014	19.993	104.708	19.053	69.139	0.489
553.500	350.595	80.009	19.994	104.729	19.052	69.167	0.471
554.000	350.856	80.001	19.994	104.696	19.057	68.838	0.474
554.500	351.115	80.000	19.996	104.625	19.061	68.546	0.502
555.000	351.355	80.013	19.995	104.522	19.072	67.829	0.509
555.500	351.627	79.981	19.994	104.414	19.081	67.208	0.505
556.000	351.853	80.006	19.995	104.315	19.093	66.344	0.505
556.500	352.102	80.004	19.995	104.222	19.103	65.690	0.487
557.000	352.375	80.016	19.993	104.147	19.116	64.809	0.499
557.500	352.579	80.009	19.993	104.100	19.129	63.942	0.499
558.000	352.858	80.013	19.993	104.076	19.142	63.002	0.480
558.500	353.076	80.010	19.993	104.065	19.154	62.252	0.490
559.000	353.373	80.005	19.994	104.068	19.165	61.508	0.506
559.500	353.646	80.006	19.993	104.083	19.179	60.528	0.543
560.000	353.868	80.008	19.993	104.119	19.191	59.740	0.533
560.500	354.146	80.008	19.994	104.176	19.201	59.069	0.498
561.000	354.335	79.991	19.996	104.249	19.208	58.592	0.483
561.500	354.693	80.007	19.993	104.322	19.219	57.873	0.507
562.000	354.861	80.010	19.993	104.406	19.227	57.340	0.537
562.500	355.107	80.004	19.994	104.462	19.233	56.970	0.470
563.000	355.371	80.006	19.993	104.495	19.239	56.534	0.462
563.500	355.594	80.003	19.995	104.509	19.249	55.900	0.499
564.000	355.862	80.029	19.992	104.512	19.255	55.520	0.489
564.500	356.087	79.985	19.996	104.502	19.265	54.872	0.492
565.000	356.346	79.999	19.994	104.484	19.268	54.669	0.488
565.500	356.592	80.008	19.994	104.466	19.280	53.889	0.494
566.000	356.838	80.006	19.993	104.448	19.291	53.062	0.499
566.500	357.103	79.997	19.995	104.432	19.300	52.441	0.502
567.000	357.359	79.998	19.994	104.405	19.313	51.572	0.516
567.500	357.600	80.013	19.993	104.390	19.325	50.724	0.509
568.000	357.836	80.003	19.994	104.374	19.335	50.031	0.487
568.500	358.077	80.009	19.993	104.355	19.345	49.369	0.477
569.000	358.347	80.007	19.992	104.346	19.354	48.709	0.494
569.500	358.580	79.992	19.995	104.340	19.365	47.979	0.508
570.000	358.832	80.007	19.993	104.330	19.374	47.386	0.494
570.500	359.083	80.013	19.993	104.325	19.382	46.827	0.494
571.000	359.318	80.004	19.994	104.330	19.378	47.085	0.495
571.500	359.551	80.016	19.993	104.331	19.380	46.959	0.477
572.000	359.816	80.015	19.993	104.339	19.371	47.623	0.482
572.500	360.069	80.008	19.992	104.359	19.356	48.600	0.508
573.000	360.272	79.986	19.995	104.377	19.345	49.394	0.487
573.500	360.547	80.002	19.994	104.391	19.330	50.373	0.468
574.000	360.838	80.012	19.994	104.424	19.318	51.199	0.522
574.500	361.003	80.015	19.991	104.469	19.312	51.652	0.511
575.000	361.283	80.005	19.993	104.505	19.303	52.225	0.450
575.500	361.524	79.997	19.996	104.527	19.301	52.403	0.483
576.000	361.779	80.015	19.993	104.535	19.298	52.555	0.508
576.500	362.014	80.000	19.994	104.518	19.299	52.494	0.493
577.000	362.276	80.005	19.995	104.466	19.305	52.115	0.494
577.501	362.501	80.007	19.993	104.406	19.310	51.791	0.492
578.001	362.764	80.003	19.992	104.350	19.319	51.187	0.488
578.500	362.975	80.012	19.993	104.292	19.326	50.669	0.481
579.000	363.261	80.009	19.992	104.237	19.338	49.873	0.486
579.500	363.492	80.010	19.995	104.201	19.347	49.272	0.507
580.000	363.732	80.004	19.993	104.171	19.356	48.690	0.494
580.500	363.973	80.007	19.993	104.155	19.371	47.728	0.476
581.000	364.210	80.008	19.994	104.150	19.378	47.246	0.479
581.500	364.478	80.016	19.993	104.149	19.389	46.480	0.492
582.000	364.741	80.011	19.993	104.155	19.401	45.695	0.518
582.500	364.972	80.013	19.992	104.172	19.410	45.049	0.513
583.000	365.232	80.006	19.994	104.199	19.424	44.108	0.492
583.500	365.501	80.010	19.993	104.238	19.435	43.355	0.510
584.000	365.728	80.004	19.995	104.284	19.446	42.618	0.512
584.500	365.985	80.005	19.994	104.320	19.457	41.865	0.490
585.000	366.253	80.000	19.994	104.350	19.467	41.149	0.505
585.500	366.537	80.012	19.992	104.374	19.478	40.451	0.539
586.000	366.708	80.011	19.992	104.390	19.488	39.757	0.504
586.500	366.983	80.008	19.992	104.395	19.495	39.268	0.451
587.000	367.208	80.006	19.993	104.399	19.502	38.834	0.473
587.500	367.479	80.005	19.993	104.398	19.506	38.568	0.498
588.000	367.690	80.004	19.993	104.392	19.503	38.729	0.489
588.500	367.984	80.003	19.992	104.384	19.494	39.337	0.493
589.000	368.212	80.004	19.993	104.379	19.489	39.694	0.514
589.500	368.455	80.002	19.994	104.374	19.480	40.345	0.497
590.000	368.715	80.003	19.993	104.383	19.471	40.913	0.487
590.500	368.969	80.006	19.993	104.404	19.466	41.261	0.508
591.000	369.230	80.007	19.993	104.423	19.456	41.941	0.514
591.500	369.481	80.009	19.992	104.441	19.449	42.395	0.514
592.000	369.701	80.006	19.993	104.459	19.445	42.660	0.492
592.500	369.960	79.976	19.997	104.459	19.439	43.064	0.475
593.000	370.255	80.017	19.992	104.436	19.439	43.064	0.516
593.500	370.488	80.009	19.992	104.415	19.441	42.973	0.541
594.000	370.766	80.004	19.992	104.384	19.442	42.893	0.520
594.500	371.011	80.009	19.993	104.348	19.438	43.153	0.517
595.000	371.229	79.993	19.994	104.314	19.440	43.026	0.493
595.500	371.485	80.017	19.994	104.285	19.444	42.765	0.469
596.000	371.724	80.003	19.993	104.254	19.450	42.307	0.485
596.500	372.041	80.006	19.992	104.232	19.449	42.396	0.525
597.000	372.271	80.006	19.994	104.213	19.453	42.126	0.551
597.500	372.516	80.012	19.992	104.199	19.454	42.073	0.511
598.000	372.795	80.000	19.995	104.197	19.457	41.844	0.499
598.500	373.035	80.005	19.993	104.198	19.461	41.576	0.522
599.000	373.291	80.004	19.993	104.208	19.472	40.875	0.508
599.500	373.568	80.004	19.993	104.225	19.471	40.921	0.514
600.000	373.828	80.005	19.993	104.251	19.477	40.552	0.535
600.500	374.049	80.006	19.994	104.277	19.479	40.371	0.509
601.000	374.363	80.006	19.992	104.301	19.481	40.232	0.508
601.500	374.584	80.006	19.994	104.319	19.488	39.788	0.535
602.000	374.897	80.012	19.992	104.332	19.490	39.624	0.535
602.500	375.114	80.008	19.993	104.340	19.498	39.138	0.532
603.000	375.334	80.005	19.992	104.339	19.502	38.879	0.484
603.500	375.646	80.010	19.994	104.338	19.503	38.782	0.484
604.000	375.891	80.002	19.994	104.338	19.505	38.621	0.544
604.500	376.159	80.002	19.993	104.335	19.516	37.877	0.535
605.000	376.404	79.999	19.994	104.329	19.522	37.533	0.513
605.500	376.683	80.006	19.994	104.321	19.520	37.664	0.519
606.000	376.931	80.022	19.995	104.317	19.524	37.344	0.525
606.500	377.198	80.011	19.993	104.309	19.524	37.397	0.521
607.000	377.449	80.004	19.993	104.305	19.530	36.978	0.516
607.500	377.706	80.003	19.993	104.301	19.532	36.813	0.513
608.000	377.971	80.002	19.993	104.303	19.536	36.562	0.516
608.500	378.221	80.004	19.993	104.303	19.541	36.236	0.519
609.000	378.459	80.007	19.993	104.306	19.540	36.293	0.502
609.500	378.717	80.006	19.993	104.305	19.543	36.070	0.492
610.000	378.984	80.006	19.994	104.305	19.548	35.765	0.510
610.500	379.245	80.006	19.994	104.306	19.552	35.522	0.526
611.000	379.487	80.009	19.993	104.308	19.555	35.317	0.516
611.500	379.763	80.006	19.994	104.305	19.551	35.528	0.511
612.000	380.034	80.007	19.993	104.304	19.556	35.206	0.533
612.500	380.279	80.009	19.994	104.304	19.557	35.172	0.531
613.000	380.545	80.007	19.993	104.304	19.557	35.156	0.513
613.500	380.813	80.004	19.994	104.303	19.564	34.719	0.522
614.000	381.079	80.005	19.993	104.303	19.568	34.452	0.534
614.500	381.341	80.005	19.994	104.304	19.567	34.499	0.531
615.000	381.554	80.001	19.993	104.302	19.570	34.298	0.502
615.501	381.820	80.009	19.994	104.301	19.569	34.379	0.477
616.000	382.087	80.005	19.993	104.299	19.575	33.966	0.506
616.500	382.325	80.014	19.993	104.300	19.575	33.970	0.519
617.000	382.619	80.013	19.993	104.300	19.577	33.786	0.519
617.500	382.873	79.997	19.994	104.299	19.575	33.960	0.540
618.000	383.069	79.985	19.997	104.299	19.577	33.813	0.499
618.500	383.377	80.018	19.993	104.292	19.577	33.822	0.477
619.000	383.643	80.020	19.993	104.292	19.580	33.619	0.539
619.500	383.877	80.015	19.993	104.293	19.581	33.550	0.537
620.000	384.165	79.991	19.997	104.293	19.578	33.756	0.511
620.500	384.416	79.991	19.994	104.290	19.582	33.457	0.530
621.000	384.637	79.990	19.996	104.297	19.588	33.061	0.506
621.500	384.936	80.005	19.993	104.295	19.589	32.996	0.496
622.000	385.187	80.005	19.994	104.292	19.588	33.094	0.535
622.500	385.464	80.020	19.993	104.292	19.592	32.806	0.539
623.000	385.692	80.007	19.996	104.297	19.594	32.663	0.516
623.500	385.925	79.993	19.995	104.294	19.594	32.692	0.483
624.000	386.205	80.008	19.994	104.294	19.595	32.598	0.487
624.501	386.459	80.005	19.994	104.296	19.598	32.386	0.524
625.000	386.713	80.000	19.995	104.297	19.600	32.278	0.521
625.500	386.985	80.004	19.994	104.290	19.604	32.027	0.516
626.000	387.255	80.005	19.994	104.292	19.602	32.149	0.534
626.500	387.505	80.011	19.993	104.293	19.603	32.036	0.531
627.000	387.774	80.001	19.994	104.295	19.610	31.564	0.520
627.500	388.017	80.006	19.993	104.297	19.609	31.632	0.515
628.000	388.303	80.000	19.995	104.300	19.614	31.345	0.521
628.500	388.535	80.021	19.992	104.299	19.616	31.217	0.524
629.000	388.801	80.015	19.991	104.304	19.617	31.160	0.507
629.500	389.062	79.994	19.994	104.304	19.614	31.317	0.513
630.000	389.307	80.005	19.995	104.301	19.617	31.110	0.516
630.500	389.577	80.011	19.994	104.300	19.624	30.658	0.510
631.000	389.845	80.020	19.992	104.300	19.624	30.655	0.527
631.500	390.063	79.999	19.995	104.296	19.620	30.907	0.512
632.000	390.323	80.008	19.993	104.294	19.625	30.577	0.482
632.500	390.579	80.015	19.993	104.296	19.627	30.452	0.497
633.000	390.825	79.996	19.994	104.298	19.627	30.433	0.509
633.500	391.090	80.005	19.995	104.297	19.632	30.124	0.507
634.000	391.363	80.001	19.995	104.298	19.634	30.005	0.525
634.500	391.612	80.004	19.994	104.295	19.635	29.949	0.530
635.000	391.851	80.017	19.994	104.294	19.639	29.664	0.505
635.501	392.126	80.014	19.991	104.288	19.638	29.705	0.501
636.001	392.386	79.996	19.996	104.287	19.646	29.167	0.525
636.500	392.653	80.003	19.994	104.278	19.642	29.417	0.531
637.000	392.880	80.002	19.995	104.276	19.646	29.204	0.511
637.500	393.140	80.014	19.993	104.272	19.649	28.970	0.491
638.000	393.383	80.011	19.992	104.279	19.651	28.853	0.495
638.500	393.691	80.014	19.992	104.281	19.650	28.902	0.527
639.000	393.944	80.013	19.994	104.293	19.652	28.780	0.556
639.500	394.183	80.007	19.994	104.300	19.652	28.796	0.527
640.000	394.478	80.003	19.994	104.305	19.653	28.680	0.513
640.500	394.729	80.016	19.994	104.304	19.656	28.496	0.540
641.000	394.996	80.005	19.995	104.306	19.657	28.462	0.532
641.500	395.216	80.005	19.994	104.301	19.659	28.330	0.503
642.000	395.486	79.997	19.994	104.297	19.660	28.246	0.488
642.500	395.789	80.024	19.992	104.297	19.663	28.042	0.531
643.000	396.019	80.007	19.995	104.301	19.664	27.989	0.553
643.500	396.297	80.003	19.995	104.294	19.665	27.899	0.521
644.000	396.522	80.003	19.994	104.292	19.663	28.040	0.505
644.500	396.783	80.022	19.994	104.293	19.669	27.613	0.495
645.000	397.030	80.008	19.995	104.289	19.669	27.640	0.497
645.500	397.293	79.995	19.996	104.277	19.670	27.584	0.509
646.000	397.563	80.003	19.995	104.270	19.673	27.372	0.522
646.500	397.811	80.006	19.994	104.267	19.676	27.180	0.526
647.000	398.038	79.992	19.995	104.261	19.676	27.146	0.496
647.500	398.321	80.010	19.995	104.257	19.673	27.353	0.493
648.000	398.575	79.996	19.996	104.258	19.678	27.031	0.524
648.500	398.853	80.005	19.994	104.261	19.677	27.083	0.534
649.000	399.076	80.006	19.996	104.263	19.683	26.692	0.516
649.500	399.333	79.986	19.997	104.262	19.680	26.906	0.490
650.000	399.629	80.022	19.992	104.266	19.685	26.561	0.516
650.500	399.854	80.002	19.995	104.271	19.685	26.555	0.537
651.000	400.136	79.998	19.994	104.278	19.688	26.346	0.514
651.500	400.423	80.021	19.992	104.283	19.686	26.472	0.538
652.000	400.645	79.999	19.995	104.293	19.689	26.326	0.539
652.500	400.877	80.009	19.992	104.296	19.695	25.920	0.482
653.000	401.121	80.003	19.994	104.297	19.693	26.056	0.466
653.500	401.390	80.008	19.992	104.297	19.696	25.828	0.495
654.000	401.601	79.975	19.996	104.297	19.694	25.979	0.497
654.500	401.875	80.007	19.994	104.290	19.697	25.760	0.482
655.000	402.150	80.005	19.993	104.288	19.699	25.642	0.517
655.500	402.420	80.016	19.991	104.282	19.699	25.629	0.547
656.000	402.682	80.005	19.993	104.284	19.696	25.821	0.539
656.500	402.908	80.008	19.993	104.284	19.699	25.651	0.510
657.000	403.157	79.998	19.993	104.287	19.699	25.606	0.481
657.500	403.425	80.021	19.991	104.285	19.701	25.485	0.496
658.000	403.669	80.011	19.992	104.288	19.702	25.433	0.515
658.500	403.951	80.001	19.992	104.285	19.701	25.492	0.519
659.000	404.183	80.007	19.993	104.278	19.704	25.315	0.520
659.500	404.459	79.995	19.995	104.271	19.704	25.286	0.511
660.000	404.732	79.999	19.993	104.268	19.707	25.056	0.528
660.500	404.957	80.006	19.993	104.262	19.709	24.981	0.523
661.000	405.195	80.014	19.992	104.257	19.711	24.839	0.480
661.500	405.454	80.002	19.992	104.256	19.714	24.587	0.480
662.000	405.713	80.005	19.994	104.258	19.716	24.463	0.508
662.500	405.969	80.005	19.992	104.261	19.716	24.506	0.516
663.000	406.191	80.007	19.994	104.264	19.716	24.452	0.496
663.500	406.456	80.006	19.993	104.266	19.718	24.349	0.483
664.000	406.697	80.014	19.994	104.265	19.716	24.456	0.497
664.500	406.972	80.005	19.994	104.267	19.720	24.205	0.510
665.000	407.208	80.018	19.991	104.267	19.716	24.494	0.513
665.500	407.451	80.002	19.994	104.266	19.721	24.149	0.495
666.000	407.721	80.007	19.994	104.263	19.719	24.275	0.496
666.500	408.003	80.012	19.994	104.264	19.718	24.315	0.533
667.000	408.239	80.014	19.995	104.262	19.720	24.218	0.535
667.500	408.494	80.011	19.992	104.263	19.722	24.107	0.504
668.000	408.717	80.011	19.993	104.262	19.726	23.843	0.485
668.500	408.976	80.001	19.995	104.263	19.725	23.895	0.480
669.001	409.203	80.015	19.993	104.261	19.729	23.614	0.484
669.501	409.492	80.003	19.993	104.261	19.725	23.900	0.501
670.000	409.696	79.979	19.995	104.260	19.729	23.597	0.504
670.500	409.971	80.005	19.992	104.260	19.733	23.352	0.486
671.000	410.203	80.005	19.993	104.260	19.730	23.546	0.493
671.500	410.485	80.008	19.993	104.260	19.733	23.347	0.510
672.000	410.706	80.001	19.994	104.259	19.734	23.292	0.508
672.500	410.955	80.004	19.993	104.257	19.735	23.213	0.486
673.000	411.219	80.004	19.994	104.257	19.736	23.170	0.492
673.500	411.480	80.011	19.993	104.256	19.734	23.292	0.519
674.000	411.707	80.003	19.994	104.257	19.741	22.795	0.507
674.500	411.983	80.004	19.994	104.255	19.738	22.978	0.495
675.000	412.221	80.012	19.994	104.255	19.740	22.858	0.509
675.500	412.492	80.004	19.994	104.253	19.742	22.765	0.512
676.000	412.784	80.010	19.992	104.254	19.741	22.801	0.536
676.500	412.989	79.996	19.996	104.256	19.743	22.693	0.530
677.000	413.264	80.012	19.992	104.254	19.745	22.546	0.488
677.500	413.483	80.018	19.994	104.259	19.742	22.719	0.487
678.000	413.707	80.012	19.993	104.262	19.747	22.381	0.468
678.500	413.953	80.002	19.996	104.264	19.744	22.605	0.457
679.000	414.163	79.999	19.993	104.261	19.751	22.144	0.463
679.500	414.436	80.015	19.994	104.263	19.749	22.301	0.469
680.000	414.682	79.996	19.996	104.265	19.753	21.997	0.501
680.500	414.903	79.997	19.994	104.261	19.755	21.876	0.493
681.000	415.159	79.991	19.994	104.260	19.754	21.932	0.472
681.500	415.424	79.995	19.995	104.260	19.755	21.842	0.499
682.000	415.683	80.015	19.995	104.262	19.758	21.680	0.522
682.500	415.904	80.003	19.994	104.260	19.758	21.656	0.502
683.000	416.174	80.011	19.994	104.263	19.759	21.568	0.486
683.500	416.411	80.003	19.995	104.262	19.760	21.533	0.499
684.000	416.669	80.008	19.991	104.261	19.764	21.261	0.501
684.500	416.894	80.031	19.991	104.263	19.762	21.369	0.489
685.000	417.152	80.007	19.994	104.266	19.763	21.315	0.484
685.500	417.408	80.001	19.994	104.265	19.764	21.271	0.499
686.001	417.701	80.006	19.994	104.263	19.769	20.947	0.531
686.501	417.901	79.999	19.994	104.265	19.773	20.641	0.521
687.001	418.182	79.998	19.994	104.260	19.770	20.826	0.487
687.501	418.414	80.008	19.995	104.254	19.773	20.633	0.497
688.001	418.673	80.018	19.994	104.254	19.775	20.539	0.502
688.501	418.922	79.999	19.994	104.256	19.778	20.354	0.500
689.000	419.157	80.000	19.994	104.256	19.777	20.411	0.496
689.500	419.429	80.005	19.993	104.257	19.778	20.354	0.496
690.000	419.682	79.999	19.994	104.258	19.781	20.138	0.517
690.500	419.899	79.999	19.995	104.260	19.783	20.010	0.497
691.000	420.165	80.001	19.995	104.258	19.785	19.825	0.476
691.500	420.413	79.984	19.996	104.257	19.785	19.825	0.498
692.000	420.651	80.008	19.994	104.256	19.787	19.724	0.500
692.500	420.933	79.988	19.993	104.255	19.788	19.650	0.503
693.000	421.172	79.992	19.994	104.255	19.788	19.619	0.520
693.500	421.468	79.999	19.994	104.253	19.791	19.480	0.528
694.000	421.711	80.002	19.994	104.254	19.790	19.533	0.537
694.500	421.983	80.013	19.993	104.255	19.792	19.375	0.527
695.000	422.184	79.996	19.996	104.257	19.791	19.454	0.494
695.500	422.449	80.002	19.994	104.254	19.793	19.326	0.470
696.000	422.691	80.010	19.993	104.257	19.792	19.387	0.487
696.500	422.937	80.005	19.993	104.257	19.792	19.377	0.497
697.000	423.194	80.004	19.995	104.257	19.798	19.015	0.495
697.500	423.444	80.003	19.993	104.253	19.797	19.059	0.505
698.000	423.691	80.006	19.993	104.256	19.795	19.158	0.502
698.500	423.991	80.008	19.993	104.256	19.801	18.807	0.522
699.000	424.199	80.002	19.996	104.258	19.803	18.622	0.528
699.500	424.473	79.991	19.995	104.259	19.801	18.776	0.495
700.000	424.736	79.999	19.995	104.261	19.804	18.576	0.509
700.500	424.962	80.004	19.994	104.260	19.805	18.514	0.513
701.000	425.224	80.000	19.994	104.262	19.806	18.442	0.489
701.500	425.482	80.008	19.993	104.259	19.808	18.334	0.504
702.000	425.777	80.019	19.991	104.261	19.806	18.437	0.536
702.500	426.027	80.009	19.995	104.263	19.809	18.258	0.549
703.000	426.233	79.984	19.994	104.261	19.807	18.345	0.501
703.500	426.477	79.998	19.994	104.261	19.807	18.369	0.453
704.000	426.702	79.989	19.997	104.260	19.811	18.131	0.460
704.500	426.999	80.005	19.994	104.255	19.812	18.021	0.495
705.000	427.281	80.012	19.993	104.251	19.816	17.801	0.550
705.500	427.511	80.006	19.994	104.254	19.816	17.765	0.546
706.000	427.768	80.023	19.992	104.255	19.817	17.683	0.500
706.500	428.018	80.002	19.993	104.257	19.818	17.641	0.497
707.000	428.323	80.003	19.995	104.261	19.818	17.616	0.531
707.500	428.524	80.008	19.995	104.265	19.821	17.420	0.530
708.000	428.790	79.995	19.994	104.263	19.825	17.169	0.487
708.500	429.041	80.030	19.991	104.262	19.821	17.402	0.492
709.000	429.317	80.013	19.994	104.265	19.820	17.478	0.522
709.500	429.506	80.006	19.995	104.266	19.827	17.017	0.496
710.000	429.787	79.998	19.995	104.265	19.822	17.346	0.468
710.500	430.041	80.011	19.992	104.263	19.825	17.169	0.503
711.000	430.255	80.004	19.994	104.265	19.828	16.994	0.502
711.500	430.543	80.008	19.994	104.257	19.829	16.926	0.485
712.000	430.796	80.010	19.993	104.258	19.827	17.030	0.522
712.500	431.073	79.989	19.996	104.258	19.828	16.953	0.536
713.000	431.316	80.017	19.994	104.259	19.828	16.957	0.525
713.500	431.527	80.000	19.995	104.255	19.827	17.026	0.487
714.000	431.832	80.011	19.993	104.251	19.828	16.944	0.485
714.500	432.084	80.010	19.995	104.249	19.829	16.886	0.536
715.000	432.331	80.012	19.993	104.245	19.831	16.777	0.528
715.500	432.587	80.006	19.994	104.247	19.833	16.654	0.501
716.000	432.834	80.001	19.995	104.250	19.833	16.661	0.503
716.500	433.083	80.009	19.991	104.255	19.833	16.628	0.500
717.000	433.374	80.003	19.993	104.258	19.833	16.659	0.518
717.500	433.590	80.004	19.994	104.258	19.837	16.372	0.523
718.000	433.864	80.011	19.993	104.252	19.836	16.421	0.498
718.500	434.117	79.996	19.995	104.249	19.837	16.336	0.509
719.000	434.421	80.009	19.993	104.242	19.838	16.312	0.543
719.500	434.601	79.995	19.995	104.239	19.837	16.350	0.521
720.000	434.905	80.009	19.992	104.232	19.840	16.148	0.484
720.500	435.188	80.006	19.993	104.233	19.838	16.289	0.536
721.000	435.398	80.000	19.995	104.235	19.839	16.205	0.540
721.500	435.697	80.011	19.994	104.240	19.842	16.012	0.500
722.000	435.943	80.017	19.992	104.241	19.845	15.842	0.527
722.500	436.182	79.989	19.997	104.249	19.843	15.945	0.515
723.000	436.414	79.994	19.995	104.245	19.843	15.955	0.479
723.500	436.720	80.011	19.993	104.243	19.842	16.057	0.505
724.000	436.958	80.001	19.994	104.245	19.843	15.941	0.541
724.500	437.195	80.006	19.993	104.245	19.845	15.835	0.509
725.000	437.451	80.004	19.993	104.246	19.845	15.804	0.484
725.500	437.680	80.010	19.994	104.255	19.845	15.850	0.489
726.000	437.941	80.009	19.994	104.258	19.845	15.805	0.487
726.500	438.187	79.992	19.995	104.258	19.845	15.797	0.499
727.000	438.467	80.008	19.992	104.258	19.845	15.834	0.517
727.500	438.706	80.010	19.994	104.262	19.846	15.742	0.523
728.000	438.953	80.003	19.994	104.267	19.848	15.639	0.502
728.500	439.194	80.006	19.994	104.271	19.849	15.553	0.487
729.000	439.433	80.004	19.995	104.274	19.850	15.488	0.484
729.500	439.736	80.007	19.993	104.275	19.852	15.386	0.511
730.000	439.981	79.993	19.995	104.269	19.849	15.538	0.545
730.500	440.250	80.002	19.994	104.258	19.851	15.417	0.531
731.000	440.502	80.003	19.994	104.248	19.852	15.325	0.518
731.500	440.743	80.014	19.995	104.243	19.854	15.207	0.507
732.000	441.009	80.008	19.993	104.243	19.854	15.246	0.500
732.500	441.241	79.995	19.995	104.244	19.853	15.273	0.503
733.000	441.505	80.011	19.994	104.249	19.854	15.193	0.497
733.500	441.753	80.006	19.994	104.250	19.856	15.074	0.504
734.000	442.013	80.008	19.995	104.247	19.854	15.197	0.510
734.500	442.298	80.006	19.993	104.242	19.857	15.004	0.527
735.000	442.577	80.014	19.993	104.236	19.855	15.125	0.555
735.500	442.759	80.010	19.995	104.232	19.858	14.927	0.512
736.000	443.020	80.018	19.995	104.230	19.859	14.916	0.452
736.500	443.269	79.994	19.996	104.230	19.858	14.972	0.477
737.000	443.522	80.007	19.996	104.226	19.860	14.836	0.506
737.500	443.783	80.004	19.995	104.231	19.858	14.922	0.508
738.000	444.055	80.005	19.995	104.233	19.861	14.743	0.523
738.500	444.286	80.003	19.995	104.235	19.862	14.671	0.517
739.000	444.527	80.006	19.996	104.234	19.864	14.525	0.487
739.500	444.764	79.993	19.996	104.237	19.863	14.591	0.475
740.000	445.024	80.010	19.993	104.231	19.865	14.487	0.488
740.500	445.255	80.011	19.995	104.228	19.860	14.818	0.494
741.000	445.560	80.004	19.994	104.224	19.863	14.648	0.513
741.500	445.784	80.008	19.994	104.222	19.866	14.448	0.532
742.000	446.046	80.011	19.994	104.222	19.862	14.660	0.507
742.500	446.279	80.000	19.996	104.224	19.865	14.482	0.490
743.000	446.561	80.004	19.994	104.224	19.864	14.549	0.505
743.500	446.803	80.002	19.994	104.231	19.861	14.736	0.520
744.000	447.054	80.006	19.995	104.237	19.865	14.492	0.509
744.500	447.304	79.990	19.997	104.239	19.865	14.500	0.497
745.000	447.564	80.006	19.995	104.239	19.865	14.474	0.505
745.500	447.825	80.015	19.994	104.242	19.866	14.421	0.516
746.000	448.073	80.005	19.994	104.240	19.865	14.509	0.515
746.500	448.349	80.007	19.994	104.242	19.868	14.296	0.516
747.000	448.609	80.008	19.995	104.244	19.869	14.210	0.530
747.500	448.847	80.015	19.994	104.245	19.871	14.101	0.517
748.000	449.115	80.002	19.993	104.248	19.873	13.960	0.502
748.500	449.381	80.015	19.994	104.246	19.870	14.119	0.520
749.000	449.615	80.001	19.994	104.239	19.869	14.219	0.517
749.500	449.867	79.993	19.995	104.234	19.872	14.028	0.493
750.000	450.092	80.006	19.994	104.229	19.869	14.203	0.482
750.500	450.373	80.007	19.994	104.220	19.871	14.115	0.491
751.000	450.637	80.005	19.993	104.220	19.871	14.085	0.525
751.500	450.899	80.008	19.992	104.226	19.868	14.291	0.536
752.000	451.146	80.003	19.995	104.231	19.873	13.969	0.517
752.500	451.410	80.005	19.993	104.237	19.872	14.006	0.510
753.000	451.676	80.014	19.993	104.240	19.874	13.886	0.521
753.500	451.917	80.012	19.995	104.241	19.872	14.006	0.518
754.000	452.189	80.017	19.993	104.233	19.873	13.926	0.510
754.500	452.403	79.991	19.996	104.228	19.877	13.683	0.500
755.000	452.664	79.990	19.996	104.222	19.874	13.870	0.481
755.500	452.930	79.993	19.994	104.222	19.875	13.786	0.501
756.000	453.175	80.003	19.994	104.221	19.877	13.703	0.519
756.500	453.387	79.994	19.995	104.227	19.877	13.652	0.484
757.000	453.672	80.020	19.993	104.225	19.879	13.533	0.477
757.500	453.908	80.005	19.994	104.235	19.880	13.469	0.509
758.000	454.168	80.001	19.993	104.239	19.878	13.600	0.509
758.500	454.440	80.009	19.994	104.238	19.876	13.749	0.515
759.000	454.682	80.005	19.995	104.239	19.878	13.597	0.523
759.500	454.931	79.993	19.995	104.244	19.876	13.749	0.502
760.001	455.181	79.989	19.996	104.242	19.880	13.493	0.495
760.500	455.471	80.004	19.995	104.242	19.875	13.782	0.520
761.000	455.756	80.032	19.991	104.245	19.881	13.389	0.558
761.500	455.965	80.000	19.997	104.247	19.878	13.639	0.534
762.000	456.240	80.014	19.993	104.238	19.879	13.526	0.489
762.500	456.475	80.005	19.995	104.240	19.883	13.285	0.497
763.000	456.750	80.009	19.995	104.241	19.882	13.328	0.510
763.500	456.981	80.003	19.994	104.236	19.884	13.242	0.508
764.001	457.220	80.004	19.994	104.236	19.885	13.123	0.488
764.500	457.482	80.006	19.994	104.239	19.879	13.515	0.485
765.000	457.719	80.001	19.994	104.235	19.885	13.145	0.500
765.500	457.951	79.999	19.993	104.231	19.883	13.247	0.484
766.000	458.277	80.014	19.993	104.237	19.884	13.225	0.514
766.500	458.498	79.993	19.995	104.241	19.883	13.250	0.553
767.000	458.752	80.000	19.995	104.243	19.884	13.231	0.511
767.500	459.037	80.006	19.993	104.246	19.886	13.070	0.507
768.000	459.239	80.003	19.993	104.252	19.886	13.055	0.513
768.500	459.525	80.007	19.993	104.250	19.886	13.086	0.488
769.000	459.810	80.005	19.994	104.243	19.887	13.017	0.529
769.500	460.039	80.007	19.994	104.239	19.886	13.086	0.543
770.000	460.320	79.994	19.995	104.234	19.884	13.200	0.512
770.500	460.580	79.995	19.995	104.226	19.885	13.159	0.525
771.000	460.839	80.011	19.994	104.222	19.883	13.251	0.530
771.500	461.069	80.011	19.994	104.224	19.887	13.004	0.504
772.000	461.300	80.008	19.994	104.229	19.890	12.831	0.475
772.500	461.572	79.991	19.995	104.232	19.887	12.975	0.482
773.000	461.838	80.000	19.995	104.235	19.890	12.808	0.521
773.500	462.101	80.018	19.991	104.236	19.888	12.932	0.534
774.000	462.355	80.024	19.991	104.241	19.889	12.853	0.523
774.500	462.606	80.010	19.993	104.246	19.891	12.719	0.511
775.000	462.843	80.005	19.994	104.247	19.891	12.743	0.497
775.500	463.131	79.991	19.995	104.251	19.890	12.784	0.507
776.000	463.376	80.005	19.993	104.251	19.892	12.706	0.528
776.500	463.621	80.003	19.993	104.242	19.891	12.721	0.511
777.000	463.891	80.005	19.993	104.237	19.893	12.639	0.503
777.500	464.167	80.007	19.993	104.236	19.894	12.536	0.531
778.000	464.427	80.023	19.993	104.231	19.897	12.336	0.541
778.500	464.655	79.996	19.995	104.231	19.896	12.432	0.512
779.000	464.926	80.009	19.994	104.233	19.894	12.519	0.493
779.500	465.160	80.002	19.993	104.235	19.893	12.582	0.501
780.000	465.402	79.991	19.995	104.234	19.898	12.267	0.490
780.500	465.675	79.991	19.993	104.234	19.893	12.610	0.496
781.000	465.916	79.986	19.994	104.232	19.897	12.323	0.515
781.500	466.223	79.997	19.994	104.230	19.895	12.454	0.531
782.000	466.470	80.005	19.993	104.225	19.898	12.264	0.551
782.500	466.734	80.008	19.992	104.222	19.898	12.249	0.533
783.000	466.952	80.004	19.992	104.223	19.899	12.191	0.496
783.500	467.212	80.008	19.994	104.226	19.899	12.177	0.480
784.000	467.456	80.006	19.993	104.227	19.900	12.108	0.491
784.500	467.726	80.003	19.992	104.231	19.900	12.162	0.509
785.000	467.947	79.994	19.994	104.235	19.901	12.059	0.502
785.500	468.245	80.000	19.994	104.238	19.899	12.236	0.505
786.000	468.531	80.004	19.993	104.238	19.900	12.120	0.552
786.500	468.776	80.002	19.992	104.244	19.898	12.239	0.558
787.000	469.069	80.008	19.993	104.248	19.902	11.975	0.535
787.500	469.282	80.005	19.993	104.253	19.903	11.945	0.521
788.000	469.510	80.001	19.994	104.257	19.905	11.835	0.473
788.500	469.808	79.996	19.993	104.260	19.902	11.979	0.484
789.000	470.039	80.010	19.992	104.262	19.904	11.902	0.528
789.500	470.332	80.013	19.992	104.259	19.904	11.888	0.527
790.000	470.586	80.006	19.993	104.254	19.904	11.851	0.535
790.500	470.842	80.007	19.992	104.243	19.903	11.967	0.528
791.000	471.074	80.005	19.993	104.237	19.903	11.903	0.499
791.500	471.354	80.004	19.993	104.227	19.904	11.847	0.500
792.000	471.600	80.005	19.994	104.216	19.901	12.069	0.519
792.500	471.885	80.003	19.994	104.204	19.906	11.758	0.529
793.000	472.101	80.004	19.993	104.196	19.906	11.732	0.516
793.500	472.398	80.004	19.992	104.192	19.906	11.754	0.507
794.000	472.625	80.016	19.993	104.198	19.906	11.763	0.519
794.500	472.896	79.999	19.994	104.203	19.906	11.722	0.511
795.000	473.192	80.006	19.995	104.211	19.905	11.800	0.533
795.500	473.387	80.010	19.994	104.218	19.908	11.629	0.529
796.000	473.727	80.013	19.992	104.219	19.904	11.867	0.512
796.500	473.960	80.012	19.993	104.219	19.905	11.829	0.554
797.000	474.204	79.994	19.994	104.220	19.907	11.642	0.525
797.500	474.477	80.007	19.994	104.220	19.905	11.769	0.497
798.000	474.740	80.003	19.994	104.224	19.909	11.550	0.526
798.500	475.014	80.007	19.993	104.235	19.909	11.547	0.536
799.000	475.252	80.006	19.993	104.248	19.908	11.588	0.525
799.500	475.481	80.004	19.993	104.261	19.908	11.604	0.490
800.000	475.716	80.003	19.995	104.271	19.907	11.656	0.466
800.500	476.024	80.008	19.992	104.268	19.906	11.738	0.504
801.000	476.265	80.005	19.994	104.259	19.907	11.681	0.546
801.500	476.521	80.007	19.995	104.230	19.907	11.646	0.523
802.000	476.793	80.005	19.993	104.199	19.909	11.505	0.513
802.500	477.027	80.006	19.993	104.177	19.911	11.370	0.517
803.000	477.267	80.008	19.994	104.174	19.910	11.441	0.490
803.500	477.519	80.005	19.993	104.171	19.911	11.389	0.483
804.000	477.801	80.011	19.994	104.187	19.910	11.494	0.513
804.500	478.072	80.006	19.994	104.213	19.910	11.467	0.543
805.000	478.324	80.009	19.994	104.232	19.912	11.311	0.538
805.500	478.570	80.001	19.996	104.245	19.913	11.268	0.511
806.001	478.855	79.992	19.995	104.250	19.911	11.412	0.515
806.500	479.131	80.006	19.995	104.251	19.914	11.188	0.546
807.000	479.372	80.012	19.993	104.242	19.910	11.489	0.539
807.500	479.614	80.010	19.993	104.232	19.914	11.185	0.500
808.000	479.902	80.001	19.995	104.216	19.916	11.030	0.507
808.500	480.116	80.003	19.994	104.204	19.916	11.087	0.516
809.000	480.371	80.013	19.993	104.200	19.914	11.223	0.485
809.500	480.653	80.004	19.993	104.205	19.914	11.196	0.503
810.000	480.890	79.997	19.996	104.215	19.918	10.956	0.528
810.500	481.143	79.998	19.994	104.227	19.917	11.000	0.505
811.000	481.380	80.024	19.990	104.232	19.919	10.885	0.491
811.500	481.653	80.003	19.994	104.240	19.916	11.087	0.500
812.000	481.905	80.006	19.994	104.241	19.918	10.950	0.517
812.500	482.188	80.001	19.995	104.239	19.914	11.188	0.530
813.000	482.410	80.006	19.994	104.240	19.918	10.923	0.520
813.500	482.716	80.005	19.993	104.249	19.918	10.958	0.516
814.000	482.939	80.011	19.993	104.246	19.921	10.754	0.528
814.500	483.185	80.011	19.992	104.242	19.918	10.933	0.499
815.000	483.413	80.005	19.993	104.238	19.919	10.864	0.471
815.500	483.691	80.009	19.994	104.232	19.919	10.835	0.490
816.000	483.968	80.001	19.995	104.228	19.919	10.884	0.531
816.500	484.215	80.010	19.994	104.228	19.920	10.806	0.540
817.000	484.493	80.004	19.993	104.231	19.920	10.804	0.525
817.500	484.725	80.006	19.995	104.231	19.921	10.721	0.518
818.000	484.978	80.007	19.993	104.231	19.923	10.612	0.497
818.500	485.244	79.999	19.994	104.226	19.921	10.713	0.502
819.000	485.492	80.003	19.995	104.222	19.920	10.778	0.517
819.500	485.807	80.015	19.993	104.219	19.923	10.578	0.538
820.000	486.056	80.001	19.994	104.219	19.927	10.354	0.563
820.500	486.301	80.007	19.994	104.223	19.922	10.629	0.529
821.000	486.560	80.001	19.994	104.228	19.925	10.450	0.499
821.500	486.798	80.009	19.993	104.233	19.923	10.575	0.500
822.000	487.089	80.018	19.994	104.234	19.926	10.424	0.513
822.500	487.330	80.008	19.995	104.233	19.924	10.496	0.531
823.000	487.579	80.007	19.994	104.228	19.927	10.353	0.511
823.500	487.882	80.001	19.994	104.221	19.923	10.591	0.521
824.000	488.138	80.007	19.992	104.215	19.927	10.296	0.555
824.500	488.389	80.006	19.994	104.216	19.925	10.487	0.533
825.000	488.638	80.008	19.994	104.214	19.921	10.701	0.503
825.500	488.906	80.010	19.993	104.216	19.925	10.461	0.509
826.000	489.147	80.004	19.994	104.225	19.924	10.519	0.514
826.500	489.413	80.006	19.994	104.233	19.926	10.397	0.508
827.000	489.629	80.007	19.994	104.246	19.926	10.379	0.494
827.500	489.903	80.007	19.994	104.255	19.926	10.364	0.486
828.000	490.216	80.009	19.995	104.257	19.926	10.370	0.539
828.500	490.428	80.007	19.994	104.250	19.928	10.237	0.556
829.000	490.699	80.001	19.995	104.243	19.929	10.162	0.504
829.500	490.976	80.006	19.995	104.226	19.927	10.353	0.516
830.000	491.277	80.003	19.994	104.218	19.929	10.199	0.563
830.500	491.475	80.009	19.994	104.216	19.930	10.123	0.539
831.000	491.761	80.005	19.994	104.216	19.928	10.237	0.492
831.500	492.025	80.004	19.994	104.216	19.931	10.035	0.517
832.000	492.266	80.005	19.994	104.220	19.930	10.125	0.527
832.501	492.552	80.007	19.993	104.224	19.931	10.052	0.516
833.001	492.816	80.004	19.994	104.223	19.932	9.959	0.538
833.500	493.095	80.006	19.993	104.222	19.932	10.013	0.546
834.000	493.323	80.004	19.995	104.223	19.934	9.879	0.525
834.500	493.605	80.008	19.994	104.220	19.931	10.035	0.508
835.000	493.887	80.005	19.994	104.210	19.930	10.124	0.537
835.500	494.138	80.001	19.995	104.204	19.931	10.046	0.549
836.000	494.416	80.005	19.994	104.200	19.934	9.835	0.531
836.500	494.659	80.004	19.995	104.200	19.931	10.042	0.525
837.000	494.940	80.002	19.994	104.202	19.934	9.832	0.522
837.500	495.182	79.996	19.995	104.209	19.933	9.956	0.523
838.000	495.447	80.003	19.994	104.214	19.933	9.908	0.515
838.500	495.655	80.003	19.995	104.224	19.933	9.908	0.490
839.000	495.918	80.005	19.993	104.232	19.932	9.979	0.472
839.500	496.169	80.003	19.994	104.243	19.932	9.976	0.493
840.000	496.424	80.003	19.993	104.250	19.930	10.116	0.510
840.500	496.709	80.001	19.993	104.246	19.933	9.904	0.523
841.000	496.968	80.004	19.994	104.227	19.932	9.964	0.542
841.500	497.225	80.005	19.994	104.209	19.934	9.844	0.530
842.000	497.462	80.004	19.994	104.189	19.937	9.631	0.505
842.500	497.739	80.007	19.994	104.173	19.932	9.975	0.503
843.000	498.024	80.004	19.993	104.169	19.933	9.939	0.538
843.500	498.305	80.006	19.993	104.177	19.933	9.893	0.564
844.000	498.525	80.004	19.994	104.185	19.935	9.815	0.534
844.500	498.771	80.003	19.993	104.193	19.935	9.818	0.484
845.000	499.064	80.004	19.993	104.207	19.934	9.823	0.502
845.500	499.285	80.006	19.992	104.223	19.939	9.523	0.526
846.000	499.604	80.003	19.992	104.238	19.936	9.745	0.527
846.500	499.838	80.004	19.993	104.247	19.939	9.515	0.546
847.000	500.106	80.006	19.992	104.248	19.937	9.629	0.528
847.500	500.380	80.005	19.992	104.242	19.937	9.660	0.522
848.000	500.652	80.005	19.992	104.235	19.936	9.692	0.544
848.500	500.893	80.003	19.993	104.227	19.938	9.599	0.530
849.000	501.147	80.005	19.993	104.221	19.940	9.479	0.504
849.500	501.431	80.005	19.993	104.220	19.941	9.387	0.516
850.001	501.694	80.006	19.992	104.222	19.939	9.511	0.542
850.500	501.943	80.004	19.993	104.226	19.940	9.468	0.530
851.000	502.186	80.006	19.993	104.231	19.938	9.581	0.502
851.500	502.434	80.006	19.993	104.240	19.940	9.420	0.491
852.000	502.719	80.003	19.994	104.248	19.937	9.626	0.512
852.500	502.968	80.007	19.992	104.251	19.941	9.402	0.534
853.000	503.229	80.004	19.993	104.250	19.939	9.504	0.522
853.501	503.457	80.007	19.992	104.250	19.939	9.549	0.500
854.000	503.737	80.005	19.994	104.243	19.938	9.602	0.498
854.500	503.948	80.004	19.993	104.236	19.939	9.501	0.499
855.000	504.252	80.005	19.993	104.232	19.938	9.569	0.503
855.500	504.486	80.006	19.993	104.227	19.939	9.488	0.526
856.000	504.759	80.004	19.994	104.219	19.941	9.413	0.522
856.500	505.047	80.003	19.994	104.210	19.941	9.356	0.534
857.000	505.273	80.004	19.993	104.208	19.940	9.432	0.538
857.500	505.526	80.007	19.993	104.207	19.944	9.152	0.497
858.000	505.828	80.006	19.993	104.212	19.943	9.257	0.517
858.500	506.079	80.004	19.994	104.223	19.942	9.303	0.554
859.000	506.344	80.008	19.992	104.237	19.942	9.323	0.534
859.500	506.579	80.005	19.992	104.240	19.946	9.033	0.508
860.000	506.828	80.006	19.992	104.240	19.943	9.255	0.492
860.500	507.103	80.005	19.994	104.235	19.947	8.976	0.504
861.000	507.374	80.006	19.994	104.225	19.944	9.216	0.535
861.500	507.613	80.006	19.994	104.211	19.945	9.138	0.528
862.000	507.874	80.005	19.993	104.200	19.941	9.399	0.505
862.500	508.138	80.006	19.993	104.194	19.946	9.083	0.513
863.000	508.401	80.006	19.993	104.193	19.947	9.005	0.526
863.500	508.650	80.005	19.993	104.196	19.944	9.169	0.519
864.000	508.914	80.005	19.993	104.204	19.945	9.086	0.512
864.500	509.149	80.004	19.993	104.211	19.946	9.065	0.506
865.000	509.439	80.005	19.993	104.217	19.945	9.102	0.512
865.500	509.645	80.005	19.993	104.215	19.946	9.060	0.511
866.000	509.936	80.004	19.994	104.214	19.946	9.036	0.497
866.500	510.170	80.005	19.993	104.214	19.947	8.959	0.511
867.000	510.415	80.007	19.994	104.214	19.946	9.019	0.502
867.500	510.688	80.006	19.994	104.216	19.946	9.035	0.499
868.000	510.934	80.007	19.993	104.219	19.947	9.015	0.518
868.500	511.185	80.004	19.994	104.218	19.947	8.988	0.508
869.000	511.402	80.007	19.994	104.217	19.951	8.746	0.483
869.500	511.714	80.004	19.994	104.217	19.950	8.787	0.499
870.000	511.969	80.005	19.992	104.217	19.951	8.695	0.548
870.500	512.192	80.004	19.993	104.216	19.951	8.685	0.522
871.000	512.460	80.004	19.993	104.218	19.955	8.480	0.485
871.500	512.736	80.004	19.993	104.215	19.952	8.621	0.517
872.000	512.997	80.005	19.993	104.213	19.950	8.753	0.540
872.500	513.243	80.003	19.993	104.207	19.951	8.711	0.522
873.000	513.535	80.005	19.993	104.203	19.952	8.667	0.523
873.500	513.779	80.005	19.992	104.199	19.954	8.481	0.537
874.000	514.070	80.004	19.993	104.196	19.951	8.695	0.535
874.500	514.305	80.007	19.993	104.195	19.952	8.627	0.530
875.000	514.570	80.006	19.993	104.201	19.950	8.811	0.513
875.500	514.851	80.008	19.993	104.204	19.951	8.697	0.523
876.000	515.078	79.999	19.993	104.206	19.953	8.597	0.527
876.500	515.375	80.007	19.993	104.210	19.951	8.736	0.516
877.000	515.596	80.005	19.993	104.209	19.955	8.477	0.521
877.500	515.861	80.003	19.993	104.208	19.953	8.580	0.502
878.000	516.150	80.005	19.991	104.208	19.952	8.648	0.520
878.500	516.412	80.005	19.994	104.206	19.955	8.461	0.553
879.000	516.629	80.005	19.995	104.209	19.956	8.384	0.515
879.500	516.942	80.007	19.994	104.214	19.954	8.542	0.505
880.000	517.158	80.005	19.993	104.216	19.955	8.422	0.530
880.500	517.450	80.004	19.993	104.217	19.955	8.440	0.518
881.000	517.684	80.008	19.993	104.217	19.953	8.578	0.517
881.500	517.978	80.007	19.993	104.216	19.956	8.352	0.527
882.000	518.195	80.006	19.993	104.215	19.954	8.490	0.520
882.500	518.464	80.009	19.994	104.215	19.959	8.183	0.499
883.000	518.762	80.005	19.994	104.216	19.957	8.282	0.527
883.500	519.010	80.011	19.993	104.217	19.959	8.183	0.557
884.000	519.280	80.007	19.994	104.216	19.957	8.294	0.532
884.500	519.559	80.005	19.993	104.210	19.958	8.263	0.533
885.000	519.835	80.004	19.993	104.202	19.959	8.182	0.552
885.500	520.050	80.007	19.993	104.199	19.959	8.184	0.523
886.000	520.320	80.007	19.993	104.200	19.961	8.068	0.488
886.500	520.618	80.004	19.994	104.204	19.960	8.099	0.526
887.000	520.811	80.005	19.994	104.212	19.963	7.881	0.529
887.500	521.104	80.007	19.994	104.225	19.962	7.993	0.489
888.000	521.365	80.006	19.994	104.234	19.964	7.873	0.520
888.500	521.633	80.005	19.993	104.234	19.960	8.079	0.541
889.000	521.888	80.005	19.994	104.234	19.963	7.934	0.526
889.500	522.138	80.006	19.994	104.230	19.962	7.983	0.514
890.000	522.378	80.006	19.992	104.221	19.966	7.729	0.498
890.500	522.617	80.006	19.994	104.213	19.961	8.064	0.485
891.000	522.925	80.006	19.993	104.211	19.964	7.871	0.513
891.500	523.109	80.006	19.994	104.208	19.960	8.145	0.519
892.000	523.451	80.005	19.993	104.202	19.959	8.180	0.509
892.500	523.722	80.005	19.994	104.203	19.961	8.042	0.569
893.000	523.947	80.006	19.994	104.205	19.963	7.897	0.554
893.500	524.238	80.006	19.994	104.206	19.957	8.312	0.506
894.000	524.512	80.005	19.994	104.208	19.964	7.864	0.541
894.500	524.714	80.006	19.993	104.212	19.962	7.956	0.521
895.000	524.978	80.006	19.994	104.216	19.962	7.965	0.471
895.500	525.268	80.005	19.994	104.217	19.962	8.004	0.510
896.000	525.460	80.004	19.994	104.217	19.958	8.225	0.518
896.501	525.744	80.005	19.994	104.217	19.955	8.449	0.479
897.000	526.100	80.005	19.994	104.219	19.960	8.140	0.558
897.500	526.227	80.006	19.994	104.219	19.958	8.217	0.561
898.001	526.567	80.006	19.993	104.219	19.968	7.576	0.474
898.500	526.788	80.007	19.994	104.219	19.959	8.154	0.514
899.000	527.013	80.007	19.994	104.218	19.965	7.785	0.504
899.500	527.316	80.005	19.994	104.217	19.961	8.024	0.487
900.000	527.615	80.006	19.994	104.215	19.962	7.978	0.564
900.500	527.780	80.006	19.994	104.209	19.965	7.745	0.533
901.000	528.057	80.005	19.994	104.207	19.965	7.800	0.453
901.500	528.378	80.007	19.994	104.208	19.966	7.733	0.520
902.000	528.595	80.007	19.994	104.209	19.966	7.701	0.568
902.500	528.866	80.007	19.994	104.211	19.967	7.649	0.513
903.000	529.099	80.005	19.994	104.214	19.961	8.027	0.496
903.500	529.362	80.006	19.993	104.213	19.967	7.655	0.500
904.000	529.714	80.007	19.994	104.213	19.965	7.789	0.555
904.500	529.831	80.008	19.993	104.213	19.966	7.694	0.542
905.000	530.169	80.008	19.993	104.213	19.965	7.790	0.462
905.500	530.357	80.006	19.994	104.214	19.965	7.762	0.491
906.000	530.459	80.007	19.993	104.217	19.965	7.745	0.408
906.500	530.856	80.007	19.993	104.214	19.969	7.491	0.395
907.000	531.207	80.010	19.993	104.208	19.967	7.658	0.624
907.500	531.345	80.008	19.994	104.202	19.964	7.825	0.618
908.000	531.632	80.007	19.993	104.198	19.964	7.841	0.457
908.500	531.917	80.008	19.993	104.197	19.966	7.683	0.498
909.000	532.227	80.008	19.993	104.200	19.966	7.707	0.583
909.500	532.194	80.007	19.994	104.206	19.966	7.741	0.436
910.000	532.555	80.008	19.993	104.214	19.968	7.567	0.303
910.500	532.986	80.011	19.993	104.218	19.964	7.860	0.560
911.000	533.319	80.007	19.993	104.220	19.965	7.767	0.778
911.500	533.359	80.007	19.992	104.220	19.964	7.872	0.568
912.000	533.607	80.011	19.993	104.214	19.964	7.839	0.330
912.500	534.031	80.004	19.993	104.206	19.965	7.802	0.480
913.000	533.912	80.006	19.993	104.200	19.967	7.673	0.489
913.500	534.602	80.004	19.993	104.192	19.964	7.843	0.438
914.000	534.684	80.006	19.992	104.187	19.963	7.920	0.671
914.501	534.961	80.004	19.993	104.192	19.966	7.694	0.565
915.001	535.219	80.003	19.993	104.194	19.964	7.860	0.447
915.500	535.440	80.005	19.994	104.199	19.966	7.734	0.507
916.000	535.766	80.003	19.994	104.202	19.963	7.915	0.513
916.500	536.091	80.004	19.993	104.203	19.965	7.762	0.599
917.000	536.150	80.004	19.993	104.197	19.965	7.757	0.518
917.500	536.621	80.004	19.993	104.194	19.964	7.845	0.457
918.000	536.763	80.004	19.994	104.188	19.966	7.708	0.571
918.500	536.960	80.004	19.993	104.185	19.967	7.638	0.476
919.000	537.240	80.004	19.994	104.181	19.966	7.684	0.408
919.500	537.494	80.004	19.994	104.182	19.963	7.901	0.506
920.000	537.772	80.004	19.994	104.185	19.965	7.748	0.533
920.500	538.054	80.003	19.994	104.193	19.967	7.662	0.546
921.000	538.353	80.002	19.994	104.201	19.964	7.829	0.570
921.500	538.532	80.003	19.994	104.213	19.964	7.816	0.530
922.000	538.689	80.003	19.995	104.221	19.964	7.866	0.407
922.500	539.102	80.003	19.994	104.227	19.968	7.565	0.453
923.000	539.267	80.004	19.995	104.226	19.965	7.792	0.575
923.500	539.528	80.003	19.995	104.219	19.967	7.664	0.502
924.000	539.865	80.005	19.994	104.212	19.967	7.675	0.512
924.500	540.060	80.005	19.994	104.207	19.969	7.541	0.565
925.000	540.331	80.003	19.994	104.206	19.967	7.661	0.499
925.500	540.484	80.003	19.994	104.206	19.968	7.558	0.445
926.000	540.851	80.003	19.994	104.214	19.968	7.584	0.473
926.500	541.075	80.003	19.994	104.225	19.967	7.619	0.556
927.000	541.307	80.005	19.995	104.231	19.971	7.368	0.523
927.500	541.592	80.002	19.995	104.232	19.970	7.425	0.486
928.000	541.803	80.004	19.994	104.232	19.970	7.424	0.506
928.500	542.108	80.004	19.995	104.229	19.971	7.349	0.505
929.000	542.355	80.005	19.995	104.221	19.970	7.468	0.534
929.500	542.652	80.005	19.993	104.218	19.972	7.318	0.548
930.000	542.857	80.004	19.994	104.217	19.970	7.430	0.524
930.500	543.134	80.004	19.994	104.218	19.972	7.334	0.492
931.000	543.385	80.004	19.994	104.217	19.970	7.417	0.504
931.500	543.653	80.005	19.993	104.217	19.969	7.539	0.523
932.000	543.903	80.005	19.994	104.216	19.969	7.482	0.519
932.500	544.131	80.002	19.993	104.216	19.970	7.471	0.498
933.000	544.419	80.004	19.994	104.215	19.970	7.469	0.497
933.500	544.658	80.004	19.993	104.216	19.968	7.565	0.522
934.000	544.922	80.005	19.993	104.215	19.967	7.642	0.515
934.500	545.183	80.004	19.994	104.216	19.968	7.596	0.514
935.000	545.413	80.005	19.993	104.219	19.969	7.502	0.508
935.500	545.703	80.005	19.993	104.224	19.972	7.291	0.506
936.000	545.924	80.004	19.994	104.225	19.969	7.499	0.516
936.500	546.198	80.004	19.992	104.226	19.971	7.364	0.503
937.000	546.445	80.004	19.993	104.228	19.976	7.020	0.508
937.500	546.740	80.006	19.992	104.233	19.974	7.176	0.531
938.000	546.996	80.005	19.992	104.235	19.972	7.287	0.546
938.500	547.276	80.004	19.995	104.243	19.972	7.336	0.543
939.000	547.514	80.004	19.993	104.251	19.973	7.225	0.527
939.500	547.776	80.005	19.994	104.256	19.969	7.519	0.509
940.001	548.029	80.003	19.994	104.248	19.971	7.404	0.508
940.500	548.360	80.005	19.994	104.241	19.971	7.350	0.549
941.000	548.598	80.007	19.994	104.231	19.972	7.280	0.576
941.500	548.882	80.006	19.994	104.222	19.971	7.388	0.546
942.000	549.138	80.004	19.994	104.215	19.970	7.424	0.531
942.500	549.409	80.008	19.993	104.215	19.970	7.461	0.534
943.000	549.634	80.005	19.993	104.216	19.970	7.472	0.512
943.500	549.898	80.005	19.993	104.217	19.972	7.337	0.492
944.000	550.138	80.005	19.993	104.217	19.971	7.385	0.496
944.500	550.453	80.006	19.992	104.216	19.975	7.122	0.529
945.000	550.683	80.005	19.993	104.213	19.974	7.199	0.550
945.500	550.948	80.006	19.993	104.212	19.973	7.241	0.520
946.000	551.219	80.004	19.994	104.213	19.975	7.099	0.516
946.501	551.473	80.006	19.993	104.217	19.975	7.109	0.531
947.000	551.726	80.002	19.993	104.226	19.972	7.305	0.516
947.500	551.966	80.006	19.993	104.237	19.973	7.239	0.500
948.000	552.281	80.003	19.994	104.239	19.973	7.265	0.523
948.500	552.537	80.004	19.994	104.237	19.972	7.313	0.563
949.000	552.795	80.004	19.993	104.235	19.972	7.286	0.543
949.500	553.053	80.006	19.993	104.227	19.971	7.373	0.515
950.000	553.336	80.004	19.994	104.218	19.970	7.454	0.529
950.500	553.626	80.005	19.994	104.214	19.970	7.443	0.557
951.000	553.876	80.003	19.994	104.209	19.971	7.390	0.556
951.500	554.167	80.004	19.993	104.202	19.971	7.398	0.541
952.000	554.389	80.004	19.994	104.194	19.971	7.380	0.527
952.500	554.687	80.005	19.993	104.187	19.968	7.609	0.516
953.000	554.951	80.004	19.995	104.182	19.970	7.429	0.541
953.500	555.219	80.005	19.994	104.184	19.975	7.111	0.547
954.000	555.473	80.005	19.993	104.187	19.973	7.245	0.527
954.500	555.725	80.004	19.993	104.190	19.973	7.258	0.514
955.000	555.996	80.004	19.993	104.190	19.973	7.260	0.514
955.500	556.271	80.005	19.993	104.190	19.971	7.356	0.534
956.000	556.511	80.006	19.993	104.187	19.972	7.316	0.530
956.500	556.785	80.003	19.993	104.185	19.974	7.176	0.515
957.000	557.052	80.004	19.993	104.185	19.968	7.590	0.528
957.500	557.329	80.004	19.994	104.185	19.970	7.426	0.543
958.000	557.557	80.005	19.994	104.186	19.968	7.563	0.524
958.500	557.877	80.004	19.993	104.185	19.970	7.470	0.526
959.000	558.130	80.006	19.993	104.186	19.968	7.546	0.560
959.500	558.373	80.007	19.993	104.190	19.971	7.366	0.534
960.000	558.650	80.005	19.994	104.197	19.971	7.342	0.508
960.500	558.922	80.004	19.993	104.204	19.972	7.290	0.535
961.000	559.159	80.006	19.994	104.212	19.976	7.039	0.529
961.500	559.442	80.006	19.994	104.217	19.969	7.491	0.514
962.001	559.701	80.007	19.993	104.218	19.971	7.393	0.531
962.500	559.956	80.007	19.993	104.220	19.967	7.620	0.528
963.000	560.241	80.006	19.994	104.224	19.968	7.547	0.527
963.500	560.525	80.006	19.993	104.224	19.965	7.757	0.554
964.000	560.777	80.005	19.994	104.224	19.968	7.558	0.553
964.500	561.032	80.006	19.994	104.224	19.967	7.654	0.521
965.000	561.318	80.006	19.992	104.222	19.968	7.572	0.524
965.500	561.542	80.006	19.993	104.220	19.970	7.413	0.526
966.000	561.822	80.005	19.993	104.223	19.970	7.474	0.507
966.500	562.076	80.005	19.993	104.229	19.969	7.514	0.519
967.000	562.364	80.006	19.993	104.235	19.967	7.658	0.538
967.500	562.638	80.006	19.993	104.236	19.967	7.632	0.551
968.000	562.924	80.008	19.994	104.235	19.969	7.523	0.561
968.500	563.177	80.006	19.993	104.230	19.965	7.753	0.550
969.000	563.443	80.005	19.993	104.220	19.968	7.576	0.529
969.500	563.733	80.006	19.992	104.208	19.967	7.649	0.537
970.000	563.977	80.005	19.994	104.207	19.968	7.607	0.545
970.500	564.200	80.005	19.994	104.207	19.969	7.485	0.501
971.000	564.487	80.006	19.993	104.209	19.968	7.604	0.489
971.500	564.733	80.006	19.992	104.208	19.972	7.334	0.521
972.000	564.980	80.007	19.992	104.212	19.969	7.477	0.513
972.500	565.265	80.005	19.991	104.209	19.970	7.429	0.513
973.000	565.544	80.006	19.993	104.203	19.972	7.284	0.548
973.500	565.803	80.005	19.993	104.201	19.973	7.266	0.551
974.000	566.048	80.005	19.993	104.205	19.971	7.342	0.521
974.500	566.354	80.006	19.994	104.207	19.975	7.115	0.527
975.000	566.606	80.004	19.994	104.207	19.976	7.032	0.555
975.500	566.820	80.004	19.993	104.213	19.972	7.305	0.512
976.000	567.101	80.004	19.993	104.218	19.975	7.108	0.480
976.500	567.366	80.006	19.994	104.235	19.972	7.308	0.520
977.000	567.626	80.004	19.992	104.259	19.974	7.158	0.536
977.500	567.865	80.005	19.993	104.281	19.972	7.292	0.512
978.000	568.140	80.006	19.993	104.291	19.974	7.146	0.507
978.501	568.379	80.005	19.994	104.289	19.975	7.125	0.514
979.001	568.670	80.005	19.993	104.273	19.976	7.011	0.522
979.501	568.912	80.005	19.992	104.248	19.972	7.277	0.531
980.001	569.256	80.005	19.993	104.225	19.973	7.231	0.559
980.501	569.444	80.008	19.993	104.216	19.976	7.033	0.559
981.000	569.701	80.006	19.993	104.215	19.974	7.190	0.489
981.500	570.000	80.004	19.993	104.214	19.973	7.228	0.500
982.000	570.236	80.007	19.993	104.207	19.975	7.077	0.545
982.500	570.445	80.005	19.993	104.204	19.975	7.077	0.490
983.000	570.766	80.006	19.993	104.198	19.974	7.141	0.488
983.500	571.062	80.007	19.993	104.195	19.974	7.204	0.574
984.000	571.299	80.005	19.994	104.197	19.973	7.220	0.575
984.500	571.555	80.007	19.993	104.205	19.976	7.049	0.513
985.000	571.828	80.006	19.993	104.213	19.975	7.090	0.512
985.500	572.097	80.004	19.994	104.219	19.974	7.153	0.535
986.000	572.367	80.007	19.992	104.225	19.976	7.014	0.540
986.500	572.624	80.008	19.993	104.231	19.974	7.177	0.533
987.000	572.918	80.006	19.993	104.231	19.972	7.277	0.539
987.500	573.169	80.006	19.993	104.232	19.974	7.200	0.547
988.000	573.431	80.007	19.993	104.233	19.973	7.224	0.529
988.500	573.736	80.007	19.994	104.228	19.974	7.193	0.540
989.000	573.990	80.007	19.994	104.227	19.974	7.207	0.564
989.500	574.289	80.005	19.994	104.231	19.974	7.187	0.556
990.000	574.502	80.009	19.994	104.231	19.974	7.161	0.532
990.500	574.792	80.009	19.993	104.231	19.975	7.111	0.507
991.000	575.031	80.006	19.994	104.226	19.971	7.344	0.516
991.500	575.356	80.006	19.994	104.213	19.977	6.991	0.547
992.000	575.576	80.008	19.993	104.200	19.974	7.184	0.555
992.500	575.807	80.007	19.994	104.190	19.973	7.228	0.498
993.000	576.107	80.008	19.993	104.182	19.974	7.179	0.491
993.500	576.329	80.006	19.993	104.179	19.974	7.179	0.527
994.000	576.587	80.006	19.993	104.179	19.977	6.975	0.502
994.500	576.852	80.006	19.994	104.179	19.974	7.141	0.501
995.000	577.102	80.005	19.992	104.179	19.977	6.999	0.518
995.500	577.370	80.006	19.994	104.179	19.977	6.992	0.517
996.000	577.631	80.006	19.994	104.184	19.976	7.028	0.524
996.500	577.881	80.005	19.994	104.192	19.974	7.161	0.520
997.000	578.158	80.005	19.994	104.201	19.979	6.861	0.519
997.500	578.399	80.004	19.994	104.212	19.975	7.117	0.522
998.000	578.648	80.005	19.992	104.227	19.974	7.169	0.504
998.500	578.897	80.004	19.995	104.231	19.975	7.088	0.495
999.000	579.185	80.004	19.996	104.233	19.974	7.143	0.518
999.500	579.431	80.006	19.993	104.232	19.975	7.111	0.535
1000.000	579.656	80.004	19.993	104.230	19.975	7.127	0.502
1000.500	579.918	80.008	19.994	104.224	19.974	7.175	0.479
1001.000	580.183	80.005	19.995	104.221	19.975	7.136	0.507
1001.500	580.406	80.003	19.994	104.216	19.976	7.065	0.507
1002.000	580.682	80.005	19.994	104.215	19.977	6.998	0.493
1002.500	580.962	80.005	19.994	104.215	19.976	7.015	0.528
1003.000	581.217	80.005	19.994	104.213	19.978	6.893	0.546
1003.500	581.432	80.004	19.995	104.214	19.976	7.007	0.503
1004.000	581.703	80.005	19.995	104.216	19.978	6.891	0.478
1004.500	581.971	80.005	19.994	104.217	19.975	7.093	0.512
1005.000	582.201	80.006	19.993	104.213	19.975	7.104	0.518
1005.500	582.476	80.003	19.994	104.206	19.974	7.177	0.502
1006.000	582.709	80.005	19.994	104.200	19.974	7.164	0.506
1006.500	582.936	80.005	19.993	104.195	19.976	7.013	0.484
1007.000	583.191	80.003	19.994	104.194	19.976	7.068	0.471
1007.500	583.462	80.004	19.994	104.195	19.977	6.945	0.504
1008.000	583.747	80.005	19.994	104.198	19.977	6.956	0.542
1008.500	583.983	80.005	19.994	104.200	19.979	6.846	0.539
1009.000	584.192	80.005	19.994	104.205	19.975	7.087	0.482
1009.500	584.453	80.005	19.994	104.206	19.973	7.253	0.457
1010.000	584.724	80.005	19.994	104.209	19.973	7.262	0.501
1010.500	584.945	80.004	19.995	104.213	19.974	7.198	0.512
1011.000	585.165	80.003	19.994	104.217	19.976	7.050	0.467
1011.500	585.449	80.004	19.994	104.217	19.976	7.015	0.473
1012.000	585.643	80.004	19.994	104.216	19.974	7.184	0.491
1012.500	585.927	80.004	19.994	104.215	19.975	7.139	0.478
1013.000	586.150	80.005	19.995	104.210	19.976	7.007	0.493
1013.500	586.425	80.004	19.995	104.207	19.976	7.032	0.503
1014.001	586.671	80.005	19.995	104.208	19.972	7.307	0.509
1014.500	586.929	80.004	19.994	104.210	19.973	7.209	0.512
1015.000	587.164	80.004	19.995	104.206	19.975	7.097	0.498
1015.500	587.395	80.004	19.994	104.204	19.975	7.107	0.480
1016.000	587.645	80.003	19.995	104.199	19.972	7.284	0.473
1016.500	587.902	80.004	19.995	104.193	19.973	7.235	0.494
1017.000	588.112	80.005	19.995	104.186	19.972	7.281	0.487
1017.501	588.375	80.005	19.994	104.184	19.972	7.316	0.470
1018.001	588.618	80.005	19.995	104.183	19.973	7.254	0.489
1018.501	588.854	80.006	19.994	104.184	19.976	7.034	0.492
1019.001	589.106	80.004	19.995	104.183	19.976	7.021	0.484
1019.500	589.348	80.004	19.995	104.186	19.974	7.180	0.491
1020.000	589.613	80.005	19.996	104.190	19.976	7.037	0.501
1020.500	589.822	80.003	19.995	104.197	19.977	6.972	0.490
1021.000	590.051	80.004	19.995	104.204	19.975	7.095	0.456
1021.500	590.291	80.006	19.994	104.207	19.976	7.031	0.453
1022.000	590.518	80.003	19.994	104.208	19.973	7.265	0.468
1022.500	590.826	80.007	19.994	104.208	19.976	7.045	0.501
1023.000	591.009	80.003	19.994	104.209	19.977	6.991	0.513
1023.500	591.248	80.005	19.994	104.202	19.977	6.939	0.457
1024.000	591.441	80.005	19.993	104.198	19.977	6.992	0.427
1024.500	591.691	80.002	19.994	104.194	19.973	7.265	0.437
1025.000	591.955	80.005	19.995	104.188	19.972	7.311	0.478
1025.500	592.182	80.004	19.994	104.181	19.976	7.052	0.503
1026.001	592.379	80.004	19.993	104.183	19.975	7.088	0.458
1026.501	592.639	80.006	19.992	104.187	19.974	7.156	0.441
1027.000	592.885	80.003	19.994	104.193	19.974	7.202	0.482
1027.500	593.101	80.003	19.994	104.201	19.974	7.167	0.484
1028.000	593.312	80.006	19.994	104.208	19.973	7.251	0.444
1028.500	593.584	80.004	19.995	104.215	19.978	6.913	0.455
1029.001	593.787	80.003	19.993	104.218	19.974	7.149	0.479
1029.501	594.029	80.004	19.993	104.220	19.973	7.210	0.460
1030.000	594.265	80.005	19.994	104.218	19.976	7.027	0.461
1030.500	594.480	80.005	19.993	104.213	19.977	6.958	0.464
1031.000	594.698	80.006	19.992	104.209	19.974	7.176	0.442
1031.500	594.939	80.004	19.994	104.208	19.975	7.134	0.446
1032.000	595.182	80.005	19.993	104.208	19.977	6.954	0.471
1032.500	595.430	80.005	19.993	104.210	19.975	7.120	0.488
1033.000	595.657	80.004	19.995	104.215	19.973	7.207	0.483
1033.500	595.891	80.004	19.993	104.218	19.977	6.981	0.468
1034.000	596.110	80.003	19.994	104.216	19.975	7.128	0.457
1034.500	596.367	80.005	19.994	104.209	19.978	6.899	0.465
1035.001	596.577	80.006	19.994	104.202	19.977	6.989	0.472
1035.501	596.772	80.004	19.994	104.195	19.973	7.260	0.436
1036.000	596.991	80.004	19.993	104.187	19.973	7.218	0.410
1036.500	597.262	80.004	19.995	104.184	19.977	6.989	0.452
1037.000	597.477	80.003	19.994	104.183	19.975	7.125	0.487
1037.500	597.718	80.005	19.992	104.182	19.975	7.082	0.471
1038.000	597.915	80.005	19.993	104.182	19.975	7.139	0.448
1038.500	598.149	80.006	19.994	104.185	19.975	7.111	0.435
1039.000	598.391	80.005	19.992	104.193	19.976	7.019	0.453
1039.501	598.624	80.004	19.992	104.200	19.972	7.298	0.476
1040.001	598.835	80.005	19.994	104.211	19.975	7.135	0.460
1040.501	599.070	80.004	19.992	104.219	19.973	7.214	0.445
1041.001	599.296	80.005	19.992	104.220	19.970	7.442	0.453
1041.500	599.492	80.007	19.992	104.213	19.972	7.341	0.442
1042.000	599.718	80.006	19.993	104.205	19.974	7.185	0.422
1042.500	599.930	80.006	19.993	104.187	19.972	7.331	0.430
1043.000	600.171	80.005	19.993	104.175	19.974	7.162	0.445
1043.500	600.397	80.006	19.993	104.168	19.972	7.304	0.460
1044.000	600.623	80.005	19.992	104.168	19.973	7.225	0.460
1044.500	600.857	80.006	19.993	104.168	19.974	7.142	0.457
1045.000	601.084	80.006	19.993	104.175	19.975	7.105	0.461
1045.500	601.318	80.007	19.993	104.179	19.977	6.994	0.461
1046.000	601.526	80.006	19.993	104.183	19.979	6.868	0.452
1046.500	601.739	80.007	19.993	104.190	19.974	7.145	0.431
1047.000	601.956	80.006	19.994	104.198	19.977	6.993	0.425
1047.500	602.183	80.006	19.992	104.206	19.976	7.042	0.437
1048.000	602.431	80.006	19.994	104.214	19.974	7.147	0.460
1048.501	602.636	80.007	19.993	104.219	19.976	7.051	0.464
1049.001	602.865	80.007	19.994	104.220	19.975	7.119	0.444
1049.500	603.049	80.006	19.992	104.220	19.979	6.868	0.424
1050.000	603.297	80.007	19.993	104.221	19.978	6.935	0.423
1050.500	603.528	80.007	19.993	104.220	19.979	6.871	0.456
1051.000	603.741	80.006	19.992	104.221	19.980	6.791	0.461
1051.500	603.936	80.006	19.993	104.221	19.979	6.815	0.426
1052.000	604.165	80.007	19.994	104.221	19.977	6.997	0.416
1052.500	604.379	80.006	19.994	104.221	19.978	6.872	0.434
1053.001	604.583	80.006	19.993	104.220	19.978	6.879	0.430
1053.501	604.830	80.006	19.994	104.220	19.980	6.751	0.435
1054.000	605.049	80.004	19.994	104.220	19.979	6.842	0.459
1054.500	605.275	80.006	19.993	104.219	19.978	6.928	0.456
1055.000	605.505	80.007	19.992	104.216	19.980	6.789	0.451
1055.501	605.713	80.006	19.993	104.213	19.978	6.886	0.447
1056.001	605.975	80.008	19.993	104.209	19.978	6.903	0.454
1056.500	606.155	80.007	19.994	104.208	19.979	6.809	0.456
1057.000	606.428	80.006	19.994	104.208	19.978	6.932	0.447
1057.500	606.605	80.006	19.992	104.207	19.978	6.882	0.451
1058.000	606.833	80.004	19.993	104.207	19.979	6.840	0.427
1058.500	607.096	80.005	19.993	104.210	19.977	6.981	0.448
1059.001	607.333	80.005	19.995	104.210	19.979	6.822	0.496
1059.501	607.586	80.006	19.995	104.207	19.978	6.912	0.495
1060.000	607.753	80.006	19.995	104.209	19.977	6.937	0.455
1060.500	607.996	80.006	19.993	104.206	19.979	6.820	0.415
1061.000	608.234	80.006	19.993	104.201	19.978	6.910	0.445
1061.500	608.456	80.006	19.993	104.198	19.979	6.858	0.470
1062.000	608.697	80.007	19.993	104.195	19.978	6.873	0.461
1062.500	608.925	80.007	19.992	104.192	19.978	6.908	0.466
1063.000	609.132	80.006	19.993	104.193	19.977	6.945	0.453
1063.500	609.377	80.006	19.993	104.191	19.979	6.822	0.444
1064.000	609.614	80.008	19.993	104.189	19.979	6.858	0.467
1064.500	609.855	80.006	19.994	104.187	19.981	6.700	0.480
1065.000	610.054	80.007	19.994	104.185	19.980	6.781	0.459
1065.500	610.302	80.007	19.994	104.181	19.980	6.789	0.443
1066.000	610.515	80.006	19.994	104.186	19.978	6.936	0.454
1066.500	610.771	80.007	19.993	104.187	19.980	6.785	0.466
1067.000	610.997	80.008	19.992	104.187	19.977	6.983	0.476
1067.500	611.243	80.007	19.993	104.187	19.979	6.862	0.477
1068.000	611.430	80.009	19.993	104.186	19.977	6.949	0.452
1068.500	611.684	80.008	19.992	104.181	19.976	7.017	0.437
1069.000	611.919	80.007	19.992	104.178	19.979	6.870	0.465
1069.501	612.161	80.009	19.994	104.179	19.978	6.899	0.483
1070.001	612.378	80.007	19.994	104.180	19.976	7.030	0.469
1070.500	612.625	80.009	19.993	104.180	19.980	6.789	0.462
1071.001	612.843	80.009	19.993	104.181	19.978	6.892	0.464
1071.501	613.054	80.009	19.993	104.180	19.980	6.779	0.447
1072.000	613.273	80.008	19.993	104.179	19.977	6.965	0.430
1072.500	613.515	80.008	19.993	104.179	19.977	6.978	0.445
1073.000	613.704	80.006	19.994	104.179	19.979	6.857	0.446
1073.500	613.960	80.009	19.993	104.180	19.981	6.713	0.438
1074.000	614.180	80.007	19.993	104.179	19.980	6.787	0.461
1074.500	614.395	80.007	19.993	104.180	19.981	6.689	0.456
1075.000	614.657	80.008	19.993	104.179	19.983	6.583	0.456
1075.500	614.875	80.007	19.993	104.179	19.984	6.493	0.478
1076.000	615.124	80.006	19.993	104.179	19.980	6.797	0.474
1076.501	615.334	80.008	19.994	104.179	19.977	6.976	0.463
1077.001	615.575	80.008	19.992	104.180	19.982	6.627	0.455
1077.501	615.768	80.007	19.994	104.180	19.977	6.962	0.443
1078.000	616.027	80.007	19.995	104.179	19.980	6.781	0.443
1078.500	616.236	80.006	19.993	104.180	19.978	6.900	0.460
1079.000	616.476	80.005	19.993	104.185	19.974	7.166	0.459
1079.500	616.700	80.004	19.994	104.185	19.978	6.929	0.457
1080.000	616.923	80.006	19.993	104.185	19.977	6.960	0.456
1080.500	617.172	80.005	19.994	104.185	19.979	6.847	0.459
1081.000	617.332	80.005	19.994	104.186	19.978	6.918	0.440
1081.500	617.604	80.005	19.994	104.180	19.975	7.105	0.421
1082.000	617.800	80.004	19.994	104.180	19.977	6.979	0.450
1082.500	618.017	80.003	19.994	104.180	19.974	7.188	0.440
1083.000	618.240	80.005	19.995	104.180	19.978	6.897	0.426
1083.500	618.465	80.004	19.994	104.179	19.978	6.932	0.444
1084.000	618.740	80.005	19.995	104.179	19.977	6.975	0.475
1084.500	618.956	80.003	19.995	104.180	19.978	6.926	0.496
1085.000	619.160	80.003	19.995	104.180	19.977	6.999	0.455
1085.500	619.434	80.004	19.994	104.179	19.979	6.869	0.449
1086.000	619.623	80.005	19.995	104.176	19.976	7.060	0.470
1086.500	619.874	80.006	19.995	104.174	19.975	7.139	0.451
1087.000	620.117	80.005	19.994	104.174	19.977	7.001	0.467
1087.500	620.326	80.004	19.994	104.174	19.977	6.999	0.473
1088.000	620.572	80.005	19.994	104.176	19.977	6.982	0.454
1088.500	620.830	80.003	19.995	104.187	19.978	6.884	0.479
1089.000	621.051	80.005	19.995	104.197	19.981	6.671	0.491
1089.500	621.311	80.004	19.994	104.204	19.980	6.796	0.480
1090.000	621.535	80.005	19.993	104.211	19.980	6.798	0.482
1090.500	621.797	80.004	19.994	104.217	19.982	6.653	0.485
1091.000	622.032	80.005	19.994	104.222	19.981	6.679	0.492
1091.500	622.238	80.004	19.994	104.233	19.983	6.586	0.469
1092.000	622.495	80.004	19.993	104.251	19.979	6.819	0.452
1092.500	622.714	80.005	19.993	104.269	19.980	6.751	0.470
1093.001	622.968	80.004	19.992	104.286	19.982	6.645	0.474
1093.501	623.188	80.003	19.994	104.296	19.981	6.720	0.473
1094.000	623.431	80.004	19.994	104.296	19.980	6.761	0.469
1094.500	623.675	80.004	19.994	104.288	19.980	6.745	0.475
1095.000	623.894	80.005	19.994	104.276	19.981	6.714	0.475
1095.500	624.163	80.004	19.993	104.261	19.983	6.580	0.475
1096.000	624.406	80.003	19.994	104.246	19.980	6.745	0.499
1096.500	624.617	80.005	19.993	104.232	19.983	6.604	0.483
1097.000	624.867	80.006	19.994	104.219	19.982	6.618	0.458
1097.500	625.123	80.006	19.993	104.207	19.982	6.658	0.483
1098.000	625.361	80.005	19.994	104.199	19.981	6.735	0.500
1098.500	625.618	80.003	19.993	104.191	19.982	6.645	0.495
1099.000	625.814	80.005	19.993	104.186	19.979	6.845	0.474
1099.500	626.081	80.004	19.993	104.182	19.979	6.860	0.458
1100.000	626.328	80.006	19.993	104.181	19.979	6.818	0.488
1100.500	626.535	80.005	19.995	104.182	19.980	6.793	0.484
1101.000	626.808	80.005	19.993	104.188	19.979	6.828	0.467
1101.500	627.055	80.004	19.993	104.191	19.980	6.769	0.500
1102.000	627.311	80.005	19.994	104.192	19.978	6.922	0.511
1102.500	627.561	80.004	19.993	104.193	19.979	6.806	0.504
1103.000	627.796	80.005	19.993	104.194	19.977	6.961	0.495
1103.500	628.036	80.005	19.994	104.191	19.982	6.665	0.480
1104.000	628.292	80.004	19.994	104.195	19.983	6.569	0.486
1104.500	628.520	80.005	19.994	104.201	19.978	6.894	0.491
1105.000	628.787	80.005	19.993	104.208	19.977	6.939	0.490
1105.500	629.017	80.003	19.993	104.212	19.979	6.836	0.496
1106.000	629.284	80.004	19.995	104.216	19.980	6.758	0.496
1106.500	629.543	80.003	19.994	104.218	19.980	6.802	0.512
1107.000	629.757	80.004	19.994	104.217	19.978	6.931	0.500
1107.500	630.025	80.004	19.994	104.217	19.979	6.863	0.477
1108.001	630.257	80.003	19.994	104.213	19.982	6.639	0.491
1108.501	630.514	80.003	19.995	104.210	19.981	6.733	0.494
1109.000	630.763	80.003	19.994	104.206	19.980	6.794	0.498
1109.500	631.035	80.004	19.995	104.205	19.979	6.815	0.514
1110.000	631.313	80.003	19.994	104.205	19.982	6.644	0.536
1110.500	631.581	80.003	19.994	104.209	19.981	6.723	0.548
1111.001	631.820	80.004	19.994	104.213	19.982	6.669	0.526
1111.501	632.074	80.002	19.995	104.219	19.982	6.632	0.500
1112.000	632.313	80.004	19.995	104.221	19.983	6.584	0.493
1112.500	632.577	80.003	19.995	104.222	19.983	6.559	0.498
1113.000	632.847	80.003	19.995	104.224	19.982	6.605	0.518
1113.500	633.099	80.004	19.994	104.225	19.984	6.532	0.528
1114.000	633.354	80.002	19.995	104.225	19.979	6.833	0.514
1114.500	633.594	80.003	19.995	104.225	19.981	6.707	0.501
1115.000	633.886	80.004	19.994	104.225	19.983	6.589	0.514
1115.500	634.105	80.002	19.994	104.220	19.981	6.706	0.521
1116.000	634.397	80.003	19.994	104.210	19.978	6.881	0.511
1116.501	634.625	80.002	19.995	104.203	19.980	6.771	0.516
1117.001	634.877	80.004	19.995	104.194	19.979	6.847	0.500
1117.501	635.181	80.003	19.995	104.188	19.978	6.917	0.518
1118.001	635.453	80.004	19.994	104.189	19.977	6.949	0.566
1118.501	635.650	80.004	19.995	104.193	19.980	6.749	0.523
1119.000	635.945	80.003	19.995	104.198	19.982	6.652	0.480
1119.500	636.181	80.004	19.995	104.205	19.979	6.825	0.511
1120.000	636.470	80.005	19.995	104.210	19.980	6.782	0.528
1120.500	636.682	80.005	19.994	104.213	19.980	6.799	0.513
1121.000	636.945	80.005	19.995	104.215	19.981	6.733	0.487
1121.500	637.212	80.006	19.994	104.212	19.980	6.761	0.502
1122.000	637.478	80.004	19.995	104.205	19.981	6.723	0.532
1122.500	637.753	80.005	19.994	104.198	19.980	6.794	0.538
1123.000	638.001	80.006	19.994	104.189	19.978	6.884	0.532
1123.500	638.241	80.007	19.993	104.182	19.979	6.836	0.506
1124.001	638.480	80.005	19.993	104.181	19.979	6.844	0.483
1124.501	638.795	80.007	19.993	104.183	19.981	6.727	0.516
1125.001	639.034	80.005	19.993	104.184	19.978	6.905	0.554
1125.501	639.281	80.007	19.994	104.188	19.976	7.061	0.520
1126.000	639.547	80.008	19.994	104.189	19.976	7.044	0.500
1126.500	639.801	80.007	19.994	104.187	19.974	7.174	0.517
1127.000	640.037	80.008	19.994	104.184	19.977	6.980	0.505
1127.500	640.269	80.007	19.994	104.183	19.977	6.947	0.479
1128.000	640.538	80.007	19.993	104.179	19.978	6.894	0.484
1128.500	640.814	80.008	19.994	104.179	19.976	7.023	0.523
1129.000	641.095	80.007	19.994	104.182	19.980	6.748	0.551
1129.500	641.329	80.008	19.993	104.191	19.977	6.947	0.536
1130.000	641.591	80.007	19.993	104.198	19.980	6.791	0.505
1130.500	641.845	80.007	19.994	104.206	19.978	6.921	0.506
1131.000	642.065	80.009	19.993	104.215	19.982	6.632	0.495
1131.500	642.372	80.008	19.992	104.227	19.981	6.733	0.500
1132.000	642.632	80.006	19.994	104.234	19.982	6.669	0.546
1132.500	642.855	80.007	19.994	104.238	19.979	6.808	0.525
1133.000	643.128	80.005	19.995	104.240	19.979	6.857	0.490
1133.500	643.402	80.006	19.994	104.238	19.979	6.844	0.522
1134.000	643.675	80.006	19.994	104.231	19.979	6.840	0.547
1134.500	643.891	80.008	19.994	104.223	19.979	6.848	0.518
1135.000	644.157	80.008	19.994	104.218	19.979	6.852	0.485
1135.500	644.397	80.006	19.995	104.216	19.978	6.882	0.494
1136.000	644.668	80.006	19.994	104.215	19.979	6.870	0.509
1136.500	644.905	80.006	19.994	104.209	19.981	6.672	0.509
1137.000	645.135	80.006	19.994	104.201	19.982	6.657	0.487
1137.500	645.394	80.006	19.994	104.195	19.981	6.678	0.478
1138.000	645.679	80.006	19.994	104.189	19.980	6.777	0.517
1138.501	645.926	80.007	19.994	104.183	19.977	6.957	0.538
1139.001	646.164	80.007	19.994	104.187	19.979	6.827	0.509
1139.500	646.443	80.006	19.994	104.195	19.984	6.479	0.501
1140.000	646.688	80.006	19.994	104.203	19.979	6.819	0.521
1140.501	646.904	80.007	19.993	104.209	19.981	6.683	0.492
1141.001	647.200	80.007	19.993	104.213	19.982	6.649	0.486
1141.501	647.438	80.006	19.994	104.211	19.978	6.877	0.523
1142.001	647.707	80.006	19.994	104.206	19.980	6.743	0.521
1142.501	647.975	80.006	19.993	104.204	19.979	6.852	0.522
1143.001	648.198	80.007	19.994	104.197	19.981	6.720	0.514
1143.501	648.461	80.006	19.994	104.191	19.978	6.877	0.488
1144.001	648.726	80.007	19.994	104.188	19.983	6.589	0.507
1144.500	648.985	80.007	19.993	104.186	19.979	6.817	0.526
1145.000	649.260	80.008	19.994	104.184	19.980	6.802	0.529
1145.500	649.504	80.008	19.993	104.191	19.980	6.765	0.526
1146.000	649.776	80.007	19.994	104.198	19.979	6.808	0.517
1146.500	650.023	80.007	19.994	104.205	19.979	6.828	0.517
1147.001	650.290	80.007	19.993	104.212	19.983	6.587	0.516
1147.501	650.474	80.007	19.994	104.215	19.983	6.571	0.482
1148.001	650.754	80.008	19.994	104.214	19.979	6.865	0.457
1148.501	650.997	80.008	19.995	104.207	19.980	6.759	0.494
1149.001	651.287	80.008	19.993	104.203	19.983	6.575	0.528
1149.500	651.527	80.008	19.994	104.202	19.981	6.725	0.532
1150.000	651.808	80.008	19.994	104.198	19.982	6.657	0.525
1150.500	652.050	80.009	19.992	104.193	19.981	6.681	0.522
1151.000	652.337	80.008	19.994	104.192	19.983	6.571	0.526
1151.500	652.563	80.007	19.992	104.188	19.983	6.601	0.521
1152.000	652.822	80.007	19.993	104.185	19.986	6.361	0.498
1152.500	653.058	80.007	19.993	104.186	19.981	6.712	0.490
1153.000	653.304	80.008	19.992	104.190	19.982	6.639	0.489
1153.500	653.560	80.007	19.992	104.191	19.983	6.598	0.492
1154.000	653.844	80.009	19.992	104.192	19.984	6.494	0.521
1154.500	654.063	80.007	19.992	104.188	19.981	6.676	0.521
1155.000	654.316	80.007	19.992	104.186	19.983	6.567	0.488
1155.500	654.568	80.008	19.993	104.186	19.984	6.488	0.489
1156.000	654.865	80.007	19.993	104.186	19.982	6.651	0.527
1156.500	655.101	80.009	19.993	104.187	19.982	6.644	0.541
1157.000	655.336	80.008	19.993	104.187	19.983	6.587	0.502
1157.500	655.570	80.009	19.993	104.187	19.980	6.766	0.470
1158.000	655.836	80.007	19.993	104.190	19.983	6.549	0.485
1158.500	656.094	80.008	19.992	104.192	19.982	6.641	0.512
1159.000	656.386	80.007	19.993	104.198	19.982	6.629	0.537
1159.500	656.609	80.006	19.993	104.200	19.984	6.497	0.532
1160.000	656.858	80.006	19.993	104.200	19.981	6.723	0.493
1160.500	657.111	80.007	19.993	104.195	19.984	6.528	0.487
1161.000	657.352	80.006	19.993	104.192	19.985	6.442	0.498
1161.501	657.595	80.007	19.993	104.194	19.983	6.565	0.489
1162.001	657.788	80.006	19.992	104.198	19.986	6.358	0.460
1162.500	658.095	80.006	19.992	104.205	19.982	6.663	0.468
1163.000	658.306	80.005	19.993	104.213	19.984	6.531	0.509
1163.500	658.664	80.005	19.993	104.220	19.983	6.542	0.544
1164.001	658.831	80.006	19.993	104.220	19.984	6.489	0.547
1164.501	659.095	80.006	19.993	104.221	19.987	6.327	0.478
1165.001	659.382	80.005	19.993	104.221	19.986	6.339	0.491
1165.501	659.656	80.005	19.993	104.220	19.988	6.240	0.556
1166.001	659.872	80.006	19.994	104.220	19.983	6.546	0.526
1166.501	660.109	80.005	19.993	104.219	19.982	6.605	0.471
1167.001	660.288	80.005	19.993	104.216	19.984	6.496	0.434
1167.501	660.630	80.006	19.993	104.214	19.982	6.649	0.469
1168.001	660.893	80.005	19.993	104.208	19.983	6.570	0.563
1168.501	661.124	80.005	19.994	104.202	19.983	6.594	0.549
1169.001	661.321	80.006	19.994	104.195	19.983	6.543	0.461
1169.501	661.579	80.004	19.993	104.191	19.983	6.581	0.441
1170.001	661.816	80.004	19.994	104.185	19.984	6.506	0.475
1170.500	662.089	80.006	19.993	104.185	19.982	6.629	0.503
1171.000	662.297	80.005	19.994	104.184	19.981	6.673	0.496
1171.500	662.557	80.004	19.994	104.185	19.981	6.708	0.474
1172.000	662.808	80.005	19.993	104.187	19.983	6.578	0.489
1172.500	663.059	80.005	19.993	104.186	19.982	6.615	0.506
1173.000	663.269	80.004	19.993	104.188	19.982	6.640	0.481
1173.500	663.516	80.005	19.994	104.189	19.981	6.708	0.459
1174.000	663.789	80.005	19.994	104.195	19.980	6.746	0.489
1174.500	664.014	80.005	19.994	104.198	19.981	6.682	0.509
1175.000	664.270	80.003	19.995	104.203	19.980	6.757	0.490
1175.500	664.480	80.005	19.995	104.207	19.980	6.763	0.474
1176.000	664.763	80.005	19.994	104.211	19.979	6.836	0.480
1176.500	664.980	80.005	19.994	104.211	19.978	6.873	0.496
1177.001	665.227	80.005	19.995	104.210	19.982	6.621	0.481
1177.501	665.457	80.005	19.994	104.207	19.982	6.667	0.470
1178.001	665.732	80.003	19.993	104.203	19.980	6.763	0.491
1178.501	666.012	80.005	19.995	104.204	19.980	6.748	0.530
1179.001	666.223	80.004	19.994	104.205	19.979	6.861	0.523
1179.501	666.518	80.006	19.995	104.208	19.980	6.762	0.499
1180.000	666.699	80.004	19.995	104.212	19.981	6.677	0.491
1180.500	666.949	80.006	19.994	104.213	19.979	6.842	0.453
1181.000	667.211	80.003	19.995	104.215	19.982	6.621	0.471
1181.500	667.447	80.006	19.994	104.215	19.981	6.683	0.505
1182.000	667.716	80.006	19.993	104.216	19.984	6.534	0.502
1182.500	667.923	80.005	19.994	104.218	19.980	6.746	0.490
1183.000	668.193	80.006	19.995	104.221	19.981	6.722	0.476
1183.500	668.432	80.005	19.994	104.221	19.982	6.643	0.493
1184.000	668.706	80.006	19.993	104.217	19.980	6.758	0.511
1184.500	668.948	80.006	19.994	104.215	19.982	6.635	0.515
1185.000	669.248	80.007	19.994	104.209	19.985	6.434	0.529
1185.500	669.484	80.007	19.994	104.208	19.979	6.824	0.538
1186.000	669.723	80.005	19.994	104.205	19.978	6.912	0.506
1186.500	669.994	80.005	19.994	104.201	19.981	6.697	0.493
1187.000	670.285	80.006	19.994	104.198	19.978	6.890	0.536
1187.500	670.504	80.005	19.993	104.198	19.981	6.713	0.536
1188.000	670.769	80.004	19.994	104.197	19.978	6.889	0.497
1188.500	670.981	80.006	19.994	104.199	19.982	6.643	0.480
1189.000	671.268	80.005	19.995	104.205	19.978	6.933	0.488
1189.500	671.546	80.007	19.993	104.212	19.977	6.951	0.532
1190.001	671.800	80.006	19.993	104.216	19.978	6.886	0.548
1190.501	672.064	80.005	19.995	104.218	19.980	6.788	0.525
1191.000	672.338	80.005	19.994	104.216	19.979	6.820	0.528
1191.500	672.591	80.005	19.994	104.209	19.979	6.815	0.533
1192.000	672.891	80.005	19.994	104.202	19.982	6.633	0.540
1192.500	673.087	80.004	19.994	104.196	19.983	6.563	0.524
1193.000	673.406	80.005	19.993	104.196	19.980	6.794	0.506
1193.500	673.605	80.006	19.993	104.196	19.982	6.657	0.517
1194.000	673.919	80.005	19.994	104.202	19.979	6.809	0.515
1194.500	674.157	80.005	19.994	104.208	19.981	6.680	0.532
1195.000	674.450	80.005	19.994	104.211	19.980	6.792	0.542
1195.500	674.773	80.005	19.994	104.212	19.980	6.746	0.573
1196.000	675.009	80.005	19.994	104.214	19.982	6.652	0.587
1196.500	675.280	80.005	19.993	104.214	19.980	6.742	0.533
1197.000	675.562	80.005	19.994	104.214	19.979	6.813	0.530
1197.500	675.790	80.006	19.994	104.215	19.981	6.671	0.531
1198.000	676.103	80.006	19.994	104.214	19.980	6.776	0.526
1198.500	676.334	80.005	19.995	104.209	19.979	6.827	0.542
1199.000	676.544	80.005	19.995	104.205	19.980	6.783	0.493
1199.500	676.846	80.006	19.995	104.199	19.982	6.612	0.477
1200.000	677.093	80.004	19.995	104.195	19.985	6.445	0.530
1200.500	677.336	80.005	19.993	104.196	19.983	6.555	0.519
1201.000	677.562	80.005	19.994	104.200	19.983	6.595	0.480
1201.500	677.840	80.004	19.994	104.203	19.982	6.624	0.486
1202.000	678.098	80.005	19.995	104.206	19.983	6.565	0.520
1202.500	678.358	80.005	19.996	104.210	19.981	6.734	0.527
1203.000	678.626	80.005	19.996	104.210	19.982	6.623	0.524
1203.500	678.881	80.006	19.995	104.211	19.982	6.660	0.525
1204.000	679.132	80.006	19.994	104.212	19.988	6.263	0.514
1204.501	679.413	80.005	19.995	104.215	19.985	6.427	0.519
1205.001	679.679	80.007	19.994	104.214	19.987	6.298	0.540
1205.500	679.902	80.006	19.995	104.210	19.985	6.454	0.518
1206.000	680.192	80.006	19.994	104.204	19.987	6.316	0.501
1206.500	680.446	80.006	19.995	104.199	19.984	6.489	0.528
1207.000	680.660	80.006	19.996	104.195	19.984	6.526	0.506
1207.500	680.936	80.005	19.995	104.192	19.985	6.434	0.479
1208.000	681.215	80.007	19.995	104.194	19.984	6.489	0.522
1208.500	681.448	80.007	19.995	104.200	19.984	6.471	0.534
1209.000	681.744	80.006	19.994	104.205	19.983	6.576	0.521
1209.501	681.969	80.007	19.994	104.205	19.987	6.304	0.525
1210.001	682.250	80.006	19.995	104.205	19.982	6.616	0.513
1210.501	682.447	80.007	19.994	104.206	19.984	6.499	0.492
1211.000	682.778	80.006	19.994	104.207	19.983	6.558	0.503
1211.500	682.973	80.007	19.995	104.201	19.982	6.608	0.527
1212.000	683.267	80.008	19.994	104.197	19.986	6.394	0.508
1212.500	683.489	80.006	19.993	104.194	19.984	6.495	0.502
1213.000	683.765	80.008	19.995	104.189	19.981	6.697	0.507
1213.500	683.989	80.006	19.994	104.181	19.985	6.432	0.499
1214.000	684.271	80.006	19.994	104.178	19.984	6.501	0.503
1214.500	684.499	80.007	19.994	104.179	19.982	6.643	0.508
1215.000	684.811	80.006	19.995	104.180	19.985	6.426	0.525
1215.500	685.045	80.006	19.993	104.178	19.981	6.674	0.543
1216.000	685.288	80.006	19.994	104.177	19.983	6.555	0.512
1216.500	685.547	80.007	19.993	104.174	19.982	6.631	0.490
1217.000	685.808	80.006	19.994	104.172	19.981	6.712	0.511
1217.500	686.077	80.006	19.993	104.172	19.981	6.721	0.525
1218.000	686.391	80.006	19.994	104.173	19.977	6.982	0.557
1218.500	686.628	80.006	19.994	104.175	19.979	6.861	0.567
1219.000	686.875	80.005	19.993	104.179	19.978	6.878	0.517
1219.501	687.130	80.006	19.993	104.181	19.980	6.773	0.493
1220.001	687.401	80.006	19.993	104.181	19.980	6.774	0.514
1220.501	687.631	80.007	19.993	104.181	19.977	6.967	0.514
1221.001	687.875	80.006	19.993	104.181	19.976	7.016	0.488
1221.501	688.145	80.005	19.992	104.186	19.981	6.727	0.494
1222.000	688.362	80.005	19.994	104.194	19.980	6.773	0.501
1222.500	688.627	80.006	19.993	104.201	19.981	6.737	0.485
1223.000	688.908	80.006	19.993	104.209	19.981	6.731	0.514
1223.500	689.206	80.006	19.994	104.214	19.980	6.768	0.562
1224.000	689.402	80.006	19.994	104.210	19.983	6.602	0.537
1224.500	689.670	80.005	19.996	104.201	19.980	6.771	0.479
1225.000	689.908	80.006	19.994	104.196	19.981	6.733	0.485
1225.501	690.174	80.006	19.994	104.193	19.979	6.863	0.505
1226.001	690.427	80.006	19.993	104.193	19.977	6.963	0.512
1226.500	690.693	80.006	19.993	104.200	19.979	6.849	0.519
1227.000	690.954	80.007	19.994	104.208	19.981	6.688	0.523
1227.500	691.209	80.006	19.994	104.211	19.979	6.822	0.522
1228.000	691.459	80.007	19.994	104.210	19.980	6.794	0.510
1228.500	691.749	80.007	19.993	104.211	19.981	6.733	0.523
1229.000	692.057	80.007	19.993	104.211	19.979	6.851	0.569
1229.500	692.244	80.009	19.994	104.214	19.979	6.843	0.546
1230.000	692.492	80.008	19.994	104.220	19.976	7.014	0.465
1230.500	692.765	80.007	19.994	104.229	19.976	7.007	0.478
1231.000	693.019	80.008	19.993	104.233	19.982	6.669	0.524
1231.500	693.241	80.008	19.993	104.234	19.981	6.726	0.502
1232.000	693.505	80.007	19.993	104.232	19.981	6.713	0.481
1232.500	693.797	80.008	19.993	104.228	19.979	6.823	0.521
1233.000	693.992	80.008	19.993	104.218	19.982	6.656	0.522
1233.500	694.269	80.007	19.993	104.207	19.981	6.682	0.480
1234.000	694.511	80.008	19.992	104.203	19.983	6.569	0.496
1234.500	694.828	80.009	19.993	104.200	19.982	6.611	0.539
1235.000	695.066	80.008	19.992	104.194	19.982	6.640	0.557
1235.500	695.317	80.009	19.993	104.193	19.979	6.826	0.522
1236.000	695.582	80.008	19.993	104.198	19.978	6.900	0.502
1236.501	695.853	80.009	19.993	104.199	19.980	6.764	0.526
1237.001	696.102	80.007	19.992	104.201	19.983	6.595	0.528
1237.500	696.377	80.007	19.993	104.207	19.982	6.643	0.522
1238.000	696.631	80.006	19.993	104.213	19.981	6.696	0.526
1238.500	696.919	80.008	19.994	104.218	19.980	6.780	0.535
1239.000	697.173	80.007	19.995	104.229	19.981	6.674	0.542
1239.500	697.388	80.007	19.993	104.232	19.981	6.707	0.506
1240.000	697.702	80.007	19.993	104.233	19.985	6.428	0.499
1240.500	697.959	80.005	19.994	104.230	19.981	6.713	0.550
1241.000	698.194	80.008	19.993	104.221	19.982	6.669	0.531
1241.500	698.465	80.005	19.993	104.207	19.983	6.602	0.499
1242.000	698.730	80.006	19.994	104.200	19.980	6.752	0.521
1242.500	699.006	80.006	19.993	104.199	19.981	6.699	0.539
1243.000	699.253	80.007	19.993	104.202	19.985	6.460	0.532
1243.500	699.498	80.005	19.994	104.202	19.981	6.691	0.507
1244.000	699.713	80.005	19.993	104.201	19.980	6.741	0.476
1244.500	700.055	80.005	19.994	104.199	19.979	6.853	0.509
1245.000	700.299	80.006	19.993	104.192	19.980	6.780	0.571
1245.500	700.570	80.004	19.994	104.185	19.982	6.615	0.550
1246.000	700.880	80.007	19.993	104.183	19.983	6.558	0.548
1246.500	701.122	80.005	19.994	104.187	19.979	6.816	0.567
1247.000	701.378	80.007	19.994	104.194	19.984	6.515	0.525
1247.500	701.632	80.007	19.992	104.195	19.979	6.849	0.504
1248.000	701.868	80.004	19.993	104.195	19.978	6.878	0.500
1248.500	702.147	80.005	19.993	104.194	19.981	6.685	0.502
1249.000	702.437	80.006	19.993	104.193	19.981	6.699	0.542
1249.501	702.697	80.005	19.994	104.189	19.980	6.749	0.560
1250.001	702.919	80.006	19.993	104.194	19.983	6.574	0.516
1250.501	703.252	80.005	19.993	104.200	19.979	6.818	0.518
1251.000	703.496	80.007	19.993	104.202	19.979	6.859	0.566
1251.500	703.790	80.005	19.992	104.204	19.980	6.802	0.558
1252.000	704.069	80.006	19.994	104.202	19.982	6.664	0.555
1252.500	704.301	80.006	19.993	104.195	19.982	6.650	0.542
1253.000	704.582	80.007	19.993	104.188	19.981	6.712	0.512
1253.500	704.849	80.006	19.993	104.185	19.981	6.735	0.531
1254.000	705.127	80.005	19.993	104.181	19.979	6.831	0.547
1254.500	705.396	80.004	19.994	104.182	19.976	7.059	0.546
1255.000	705.630	80.006	19.992	104.183	19.979	6.825	0.525
1255.500	705.888	80.006	19.993	104.183	19.979	6.862	0.498
1256.000	706.156	80.007	19.994	104.185	19.980	6.793	0.509
1256.500	706.425	80.006	19.993	104.190	19.976	7.029	0.531
1257.000	706.676	80.007	19.995	104.197	19.978	6.913	0.528
1257.500	706.962	80.006	19.995	104.202	19.980	6.803	0.528
1258.000	707.220	80.006	19.993	104.205	19.979	6.841	0.541
1258.500	707.481	80.007	19.993	104.207	19.978	6.936	0.532
1259.000	707.762	80.004	19.994	104.203	19.975	7.136	0.531
1259.500	708.043	80.006	19.994	104.195	19.978	6.935	0.552
1260.001	708.254	80.006	19.994	104.189	19.979	6.835	0.527
1260.501	708.529	80.006	19.993	104.187	19.978	6.914	0.489
1261.001	708.800	80.005	19.993	104.186	19.979	6.843	0.517
1261.501	709.078	80.006	19.994	104.184	19.978	6.932	0.548
1262.000	709.352	80.006	19.994	104.183	19.978	6.917	0.551
1262.500	709.617	80.006	19.994	104.185	19.976	7.043	0.546
1263.000	709.887	80.006	19.994	104.188	19.981	6.721	0.536
1263.500	710.147	80.006	19.992	104.187	19.980	6.745	0.532
1264.000	710.410	80.005	19.993	104.191	19.981	6.689	0.527
1264.501	710.656	80.007	19.994	104.198	19.981	6.708	0.516
1265.001	710.920	80.006	19.994	104.203	19.981	6.703	0.509
1265.500	711.208	80.006	19.994	104.212	19.983	6.558	0.531
1266.000	711.482	80.007	19.993	104.225	19.980	6.782	0.557
1266.500	711.736	80.006	19.992	104.237	19.982	6.605	0.545
1267.000	712.012	80.006	19.994	104.245	19.983	6.550	0.529
1267.500	712.253	80.006	19.994	104.253	19.981	6.726	0.523
1268.000	712.535	80.007	19.995	104.256	19.984	6.484	0.520
1268.500	712.767	80.006	19.993	104.255	19.985	6.419	0.519
1269.001	713.032	80.005	19.994	104.251	19.985	6.440	0.506
1269.501	713.287	80.006	19.994	104.244	19.981	6.710	0.509
1270.001	713.539	80.006	19.994	104.235	19.981	6.726	0.514
1270.500	713.821	80.006	19.993	104.223	19.981	6.727	0.520
1271.001	714.056	80.006	19.993	104.208	19.981	6.691	0.525
1271.501	714.344	80.006	19.994	104.189	19.982	6.654	0.520
1272.000	714.586	80.006	19.994	104.173	19.979	6.833	0.527
1272.500	714.826	80.005	19.995	104.157	19.985	6.456	0.506
1273.000	715.085	80.005	19.993	104.146	19.981	6.674	0.490
1273.500	715.381	80.005	19.995	104.144	19.981	6.735	0.527
1274.000	715.617	80.005	19.994	104.152	19.983	6.602	0.544
1274.500	715.863	80.007	19.994	104.161	19.980	6.758	0.507
1275.001	716.162	80.005	19.994	104.176	19.980	6.768	0.513
1275.501	716.398	80.006	19.994	104.184	19.976	7.041	0.540
1276.000	716.630	80.005	19.994	104.188	19.977	7.004	0.502
1276.500	716.926	80.005	19.993	104.191	19.976	7.051	0.498
1277.000	717.140	80.006	19.993	104.190	19.976	7.061	0.519
1277.500	717.435	80.006	19.994	104.184	19.973	7.239	0.510
1278.000	717.646	80.005	19.994	104.183	19.977	6.944	0.508
1278.500	717.867	80.006	19.994	104.182	19.979	6.814	0.469
1279.000	718.154	80.005	19.994	104.180	19.980	6.787	0.470
1279.500	718.412	80.005	19.993	104.180	19.977	6.947	0.526
1280.000	718.664	80.006	19.993	104.180	19.981	6.703	0.528
1280.500	718.899	80.007	19.993	104.180	19.977	6.967	0.498
1281.000	719.161	80.005	19.993	104.184	19.979	6.842	0.492
1281.500	719.434	80.006	19.994	104.191	19.979	6.831	0.516
1282.000	719.654	80.006	19.993	104.198	19.979	6.871	0.514
1282.500	719.881	80.005	19.993	104.206	19.976	7.012	0.470
1283.000	720.141	80.006	19.993	104.209	19.977	6.955	0.467
1283.501	720.404	80.005	19.994	104.206	19.979	6.834	0.506
1284.001	720.617	80.005	19.993	104.199	19.975	7.123	0.500
1284.500	720.857	80.005	19.993	104.199	19.977	6.947	0.464
1285.001	721.113	80.005	19.993	104.197	19.978	6.916	0.475
1285.501	721.366	80.006	19.993	104.196	19.977	6.962	0.503
1286.001	721.612	80.005	19.994	104.195	19.977	6.993	0.504
1286.501	721.845	80.006	19.994	104.195	19.979	6.845	0.489
1287.000	722.105	80.004	19.994	104.187	19.975	7.136	0.486
1287.500	722.330	80.007	19.994	104.182	19.976	7.060	0.489
1288.000	722.541	80.005	19.993	104.186	19.975	7.102	0.461
1288.500	722.824	80.006	19.994	104.190	19.976	7.016	0.465
1289.000	723.079	80.007	19.995	104.196	19.973	7.234	0.516
1289.500	723.287	80.007	19.994	104.204	19.976	7.017	0.501
1290.001	723.527	80.007	19.994	104.212	19.975	7.118	0.456
1290.501	723.729	80.007	19.993	104.215	19.973	7.212	0.445
1291.000	724.011	80.007	19.993	104.217	19.976	7.013	0.463
1291.500	724.260	80.006	19.993	104.215	19.978	6.934	0.507
1292.000	724.501	80.006	19.993	104.210	19.975	7.076	0.510
1292.500	724.757	80.006	19.994	104.206	19.975	7.082	0.493
1293.000	725.008	80.007	19.994	104.206	19.977	6.944	0.502
1293.500	725.272	80.007	19.995	104.201	19.975	7.088	0.511
1294.000	725.510	80.006	19.994	104.202	19.976	7.055	0.508
1294.500	725.715	80.006	19.994	104.206	19.977	6.950	0.472
1295.000	725.964	80.007	19.994	104.207	19.976	7.018	0.448
1295.500	726.245	80.007	19.993	104.207	19.978	6.894	0.492
1296.001	726.446	80.006	19.995	104.212	19.980	6.792	0.506
1296.501	726.692	80.005	19.994	104.214	19.977	6.983	0.464
1297.000	726.960	80.005	19.994	104.209	19.977	6.989	0.480
1297.501	727.165	80.006	19.994	104.206	19.977	6.939	0.494
1298.001	727.402	80.005	19.993	104.203	19.976	7.060	0.458
1298.500	727.667	80.006	19.995	104.195	19.976	7.016	0.472
1299.001	727.895	80.007	19.995	104.193	19.976	7.069	0.498
1299.501	728.153	80.005	19.996	104.196	19.977	6.983	0.489
1300.001	728.377	80.007	19.995	104.193	19.978	6.906	0.483
1300.501	728.576	80.005	19.994	104.191	19.979	6.835	0.452
1301.000	728.845	80.005	19.995	104.194	19.979	6.850	0.446
1301.500	729.063	80.006	19.994	104.190	19.978	6.933	0.478
1302.000	729.307	80.005	19.995	104.187	19.976	7.019	0.475
1302.500	729.548	80.005	19.994	104.190	19.978	6.916	0.473
1303.000	729.771	80.004	19.995	104.197	19.977	6.988	0.474
1303.500	730.004	80.005	19.994	104.199	19.980	6.780	0.460
1304.000	730.239	80.008	19.995	104.201	19.978	6.900	0.462
1304.500	730.506	80.006	19.994	104.204	19.980	6.773	0.485
1305.000	730.726	80.006	19.994	104.204	19.978	6.907	0.495
1305.500	730.971	80.005	19.994	104.203	19.981	6.729	0.476
1306.000	731.197	80.005	19.993	104.206	19.977	6.986	0.468
1306.500	731.432	80.005	19.994	104.211	19.979	6.863	0.466
1307.000	731.698	80.005	19.993	104.210	19.979	6.828	0.481
1307.500	731.929	80.005	19.993	104.209	19.980	6.789	0.499
1308.000	732.149	80.005	19.994	104.206	19.981	6.730	0.474
1308.500	732.393	80.006	19.994	104.205	19.981	6.720	0.458
1309.000	732.656	80.006	19.993	104.201	19.979	6.856	0.486
1309.500	732.894	80.006	19.993	104.198	19.978	6.894	0.504
1310.000	733.146	80.008	19.993	104.197	19.978	6.900	0.495
1310.500	733.372	80.005	19.992	104.201	19.976	7.007	0.484
1311.000	733.581	80.008	19.993	104.197	19.974	7.157	0.456
1311.500	733.816	80.006	19.993	104.193	19.977	6.941	0.440
1312.000	734.083	80.007	19.993	104.195	19.977	6.950	0.473
1312.500	734.307	80.007	19.993	104.194	19.978	6.912	0.497
1313.000	734.561	80.008	19.993	104.188	19.977	6.960	0.484
1313.500	734.802	80.009	19.994	104.190	19.979	6.831	0.487
1314.000	735.031	80.008	19.993	104.194	19.977	6.987	0.482
1314.500	735.283	80.008	19.993	104.191	19.979	6.832	0.475
1315.000	735.496	80.008	19.993	104.190	19.974	7.140	0.473
1315.500	735.760	80.006	19.993	104.195	19.973	7.246	0.471
1316.001	735.953	80.008	19.994	104.197	19.978	6.877	0.467
1316.501	736.191	80.008	19.992	104.197	19.975	7.103	0.444
1317.000	736.444	80.008	19.992	104.199	19.978	6.896	0.461
1317.500	736.709	80.007	19.993	104.198	19.977	6.964	0.504
1318.000	736.906	80.008	19.992	104.194	19.975	7.122	0.490
1318.500	737.220	80.009	19.993	104.189	19.977	6.962	0.487
1319.000	737.431	80.007	19.992	104.188	19.975	7.102	0.518
1319.500	737.652	80.008	19.993	104.191	19.976	7.058	0.478
1320.000	737.904	80.007	19.993	104.193	19.978	6.927	0.452
1320.500	738.175	80.008	19.992	104.196	19.979	6.870	0.498
1321.000	738.438	80.008	19.993	104.198	19.978	6.931	0.529
1321.500	738.642	80.008	19.993	104.197	19.978	6.926	0.501
1322.000	738.904	80.008	19.993	104.197	19.978	6.935	0.467
1322.500	739.145	80.008	19.993	104.201	19.979	6.843	0.484
1323.001	739.395	80.006	19.993	104.203	19.978	6.917	0.497
1323.501	739.672	80.007	19.994	104.205	19.975	7.076	0.509
1324.000	739.852	80.007	19.992	104.210	19.980	6.800	0.492
1324.500	740.107	80.005	19.993	104.209	19.976	7.041	0.446
1325.000	740.362	80.006	19.993	104.202	19.973	7.210	0.473
1325.500	740.631	80.005	19.993	104.196	19.974	7.186	0.517
1326.000	740.850	80.006	19.993	104.190	19.977	6.991	0.506
1326.500	741.133	80.005	19.994	104.186	19.973	7.260	0.495
1327.000	741.365	80.007	19.993	104.184	19.972	7.311	0.508
1327.500	741.652	80.007	19.993	104.186	19.974	7.196	0.517
1328.000	741.886	80.007	19.993	104.186	19.971	7.387	0.520
1328.500	742.151	80.007	19.994	104.189	19.971	7.354	0.510
1329.000	742.389	80.006	19.994	104.191	19.971	7.352	0.501
1329.500	742.661	80.006	19.994	104.192	19.974	7.199	0.507
1330.000	742.904	80.005	19.993	104.192	19.969	7.484	0.513
1330.500	743.171	80.005	19.993	104.194	19.972	7.317	0.513
1331.000	743.422	80.004	19.993	104.194	19.974	7.150	0.514
