Sample ID:	C:\MCC\MCC Cal\Test\Mineral_Wool_Insulation\Mineral_Wool_Insulation_MCC_30K_min_211116_R4.txt
Sample Weight (mg):	4.5
Heating Rate (C/s):	0.5
Combustor Temp (C):	900
N2 Flow Rate (cc/min):	80
O2 Flow Rate (cc/min):	20
Calibration File:	C:\MCC\MCC Cal\Coeff1 JN10440_30_210304.txt.txt
T Correction Coefficients:	0	1.024463	0
Time Shift (s):	14
*
Time (s)	Temperature (C)	N2 flow rate (cc/min)	O2 flow rate (cc/min)	Flow Rate (cc/min)	Oxygen (%)	HRR (W/g)	Heating rate (C/s)
0.000	106.440	80.009	19.997	103.050	19.908	0.033	-0.040
0.499	106.457	80.008	19.996	103.054	19.908	0.033	-0.014
1.000	106.476	80.007	19.995	103.053	19.907	0.070	0.026
1.500	106.434	80.009	19.994	103.053	19.906	0.181	0.007
2.000	106.435	80.008	19.995	103.046	19.905	0.258	-0.031
2.500	106.449	80.008	19.995	103.041	19.906	0.144	-0.013
3.000	106.446	80.009	19.994	103.041	19.905	0.202	0.012
3.500	106.462	80.010	19.995	103.045	19.906	0.142	0.012
3.999	106.452	80.009	19.995	103.045	19.906	0.153	0.010
4.499	106.439	80.010	19.994	103.050	19.907	0.062	-0.009
4.999	106.455	80.010	19.994	103.053	19.904	0.291	-0.010
5.499	106.437	80.009	19.995	103.052	19.905	0.245	0.001
5.999	106.428	80.010	19.994	103.048	19.910	-0.146	-0.015
6.499	106.423	80.010	19.994	103.044	19.907	0.078	-0.021
6.999	106.428	80.010	19.994	103.042	19.910	-0.117	-0.007
7.499	106.453	80.010	19.994	103.043	19.907	0.119	0.015
7.999	106.457	80.011	19.994	103.044	19.908	0.008	0.030
8.499	106.434	80.010	19.993	103.048	19.907	0.049	0.005
8.999	106.469	80.009	19.994	103.053	19.907	0.070	-0.003
9.499	106.433	80.009	19.995	103.055	19.907	0.093	0.005
9.999	106.408	80.011	19.994	103.055	19.906	0.120	-0.031
10.499	106.438	80.011	19.994	103.056	19.906	0.181	-0.028
11.000	106.431	80.011	19.995	103.056	19.907	0.093	0.014
11.501	106.451	80.010	19.994	103.056	19.907	0.095	0.018
12.000	106.410	80.010	19.993	103.056	19.907	0.084	-0.004
12.500	106.442	80.010	19.994	103.056	19.904	0.274	-0.015
13.000	106.424	80.009	19.994	103.055	19.906	0.138	0.003
13.499	106.457	80.009	19.993	103.055	19.905	0.216	0.015
13.999	106.439	80.010	19.994	103.056	19.905	0.243	0.015
14.499	106.409	80.010	19.994	103.060	19.903	0.346	-0.017
14.999	106.436	80.009	19.994	103.064	19.902	0.433	-0.025
15.499	106.449	80.010	19.994	103.066	19.904	0.307	0.019
15.999	106.449	80.010	19.994	103.069	19.904	0.266	0.026
16.499	106.441	80.009	19.994	103.070	19.907	0.093	0.002
16.999	106.461	80.010	19.994	103.068	19.907	0.066	0.002
17.500	106.466	80.010	19.994	103.065	19.909	-0.089	0.019
18.000	106.468	80.010	19.995	103.064	19.905	0.231	0.016
18.500	106.429	80.010	19.994	103.061	19.904	0.303	-0.015
18.999	106.450	80.010	19.994	103.060	19.909	-0.037	-0.027
19.499	106.459	80.009	19.994	103.058	19.908	0.016	0.006
19.999	106.469	80.008	19.995	103.058	19.911	-0.196	0.024
20.499	106.474	80.009	19.995	103.057	19.911	-0.212	0.017
20.999	106.472	80.009	19.993	103.057	19.908	0.000	0.009
21.499	106.478	80.010	19.995	103.056	19.907	0.074	0.004
21.999	106.465	80.009	19.995	103.052	19.908	0.023	-0.001
22.499	106.479	80.010	19.995	103.051	19.909	-0.054	-0.003
22.999	106.447	80.011	19.995	103.049	19.908	0.039	-0.009
23.499	106.470	80.009	19.994	103.047	19.909	-0.058	-0.013
23.999	106.505	80.009	19.995	103.045	19.909	-0.074	0.025
24.499	106.497	80.009	19.995	103.045	19.906	0.132	0.042
24.999	106.491	80.009	19.995	103.046	19.907	0.093	0.006
25.500	106.472	80.008	19.994	103.048	19.908	0.004	-0.020
26.000	106.520	80.009	19.994	103.050	19.907	0.103	0.002
26.499	106.475	80.009	19.996	103.052	19.910	-0.119	0.016
26.999	106.502	80.010	19.994	103.055	19.910	-0.142	-0.007
27.499	106.487	80.011	19.994	103.054	19.909	-0.084	-0.003
27.999	106.510	80.010	19.995	103.054	19.910	-0.156	0.010
28.500	106.492	80.011	19.994	103.054	19.909	-0.055	0.007
29.000	106.469	80.009	19.995	103.053	19.910	-0.113	-0.018
29.500	106.511	80.011	19.994	103.052	19.911	-0.179	-0.011
30.000	106.509	80.011	19.995	103.051	19.906	0.169	0.030
30.500	106.514	80.011	19.994	103.052	19.912	-0.253	0.022
30.999	106.499	80.010	19.995	103.052	19.910	-0.109	-0.004
31.499	106.500	80.011	19.995	103.052	19.907	0.070	-0.012
31.999	106.518	80.011	19.995	103.052	19.906	0.152	0.002
32.499	106.502	80.012	19.996	103.053	19.908	0.033	0.010
32.999	106.531	80.010	19.995	103.050	19.908	-0.016	0.008
33.499	106.534	80.011	19.995	103.050	19.907	0.105	0.023
33.999	106.555	80.012	19.995	103.047	19.905	0.251	0.028
34.500	106.555	80.011	19.996	103.042	19.903	0.353	0.023
35.000	106.543	80.011	19.995	103.041	19.902	0.450	0.005
35.499	106.504	80.010	19.994	103.044	19.900	0.575	-0.031
35.999	106.500	80.012	19.995	103.054	19.900	0.553	-0.047
36.499	106.535	80.012	19.995	103.079	19.893	1.083	-0.006
36.999	106.532	80.010	19.994	103.115	19.893	1.058	0.032
37.499	106.545	80.010	19.994	103.156	19.888	1.426	0.021
37.999	106.550	80.012	19.994	103.200	19.886	1.605	0.013
38.499	106.568	80.010	19.994	103.238	19.886	1.576	0.020
38.999	106.573	80.010	19.995	103.267	19.883	1.814	0.024
39.500	106.587	80.011	19.995	103.283	19.879	2.092	0.022
40.000	106.609	80.010	19.994	103.296	19.882	1.870	0.028
40.499	106.678	80.010	19.995	103.304	19.875	2.378	0.063
40.999	106.700	80.009	19.994	103.312	19.875	2.394	0.090
41.499	106.748	80.008	19.995	103.316	19.871	2.645	0.080
41.999	106.761	80.009	19.995	103.323	19.870	2.704	0.065
42.499	106.799	80.008	19.995	103.327	19.871	2.651	0.056
43.000	106.866	80.009	19.995	103.330	19.866	2.988	0.078
43.500	106.907	80.007	19.994	103.330	19.863	3.243	0.107
43.999	106.962	80.007	19.994	103.330	19.864	3.150	0.102
44.500	107.023	80.008	19.995	103.332	19.861	3.345	0.106
45.001	107.079	80.007	19.995	103.331	19.861	3.372	0.116
45.500	107.175	80.008	19.996	103.332	19.862	3.288	0.134
45.999	107.202	80.008	19.995	103.333	19.860	3.422	0.138
46.499	107.270	80.008	19.995	103.333	19.860	3.428	0.109
46.999	107.336	80.007	19.995	103.333	19.859	3.487	0.115
47.499	107.466	80.007	19.995	103.333	19.861	3.366	0.165
47.999	107.511	80.008	19.994	103.333	19.858	3.588	0.186
48.499	107.580	80.009	19.995	103.332	19.859	3.557	0.144
48.999	107.666	80.007	19.996	103.334	19.858	3.615	0.134
49.499	107.811	80.008	19.995	103.334	19.855	3.828	0.193
49.999	107.842	80.006	19.995	103.334	19.855	3.832	0.204
50.500	107.937	80.008	19.997	103.334	19.856	3.736	0.151
51.001	108.042	80.007	19.994	103.334	19.855	3.830	0.163
51.501	108.127	80.007	19.995	103.332	19.858	3.625	0.195
52.000	108.214	80.008	19.996	103.332	19.856	3.759	0.181
52.499	108.364	80.007	19.996	103.333	19.855	3.787	0.204
52.999	108.451	80.006	19.995	103.333	19.856	3.728	0.237
53.499	108.590	80.007	19.996	103.333	19.854	3.863	0.232
54.000	108.664	80.008	19.996	103.332	19.857	3.689	0.219
54.500	108.800	80.008	19.996	103.333	19.853	3.954	0.211
54.999	108.928	80.007	19.996	103.331	19.854	3.890	0.237
55.499	109.058	80.007	19.995	103.332	19.853	3.978	0.261
55.999	109.158	80.008	19.995	103.331	19.854	3.910	0.244
56.500	109.261	80.008	19.995	103.332	19.854	3.849	0.217
57.000	109.387	80.007	19.995	103.332	19.855	3.843	0.216
57.499	109.474	80.008	19.995	103.333	19.854	3.905	0.221
57.999	109.661	80.007	19.996	103.332	19.854	3.882	0.244
58.499	109.777	80.008	19.995	103.332	19.853	3.935	0.289
58.999	109.889	80.006	19.996	103.332	19.852	4.005	0.265
59.499	110.017	80.006	19.996	103.331	19.854	3.896	0.234
59.999	110.187	80.008	19.996	103.331	19.851	4.065	0.269
60.499	110.313	80.008	19.995	103.331	19.851	4.126	0.297
60.999	110.407	80.008	19.996	103.332	19.854	3.865	0.258
61.499	110.613	80.008	19.996	103.332	19.854	3.872	0.260
61.999	110.725	80.008	19.996	103.331	19.852	4.007	0.309
62.500	110.868	80.008	19.996	103.331	19.852	4.018	0.287
63.000	111.001	80.007	19.996	103.331	19.853	3.977	0.265
63.500	111.172	80.007	19.996	103.331	19.852	4.011	0.290
64.000	111.295	80.010	19.996	103.330	19.856	3.724	0.299
64.499	111.455	80.007	19.995	103.331	19.853	3.973	0.288
64.999	111.616	80.009	19.995	103.332	19.855	3.777	0.302
65.500	111.788	80.008	19.996	103.332	19.854	3.888	0.328
66.000	111.950	80.008	19.995	103.332	19.856	3.740	0.334
66.499	112.114	80.009	19.996	103.333	19.855	3.779	0.330
66.999	112.222	80.007	19.995	103.333	19.857	3.642	0.299
67.499	112.394	80.008	19.995	103.330	19.851	4.059	0.275
67.999	112.523	80.008	19.994	103.328	19.852	3.993	0.290
68.499	112.695	80.008	19.994	103.328	19.853	3.941	0.301
68.999	112.850	80.008	19.995	103.327	19.854	3.870	0.314
69.499	113.001	80.008	19.995	103.327	19.854	3.867	0.316
69.999	113.220	80.008	19.994	103.329	19.858	3.580	0.338
70.499	113.352	80.010	19.994	103.330	19.854	3.900	0.361
70.999	113.552	80.008	19.995	103.330	19.856	3.742	0.342
71.499	113.679	80.008	19.995	103.330	19.857	3.648	0.329
72.000	113.840	80.009	19.995	103.329	19.858	3.568	0.307
72.500	114.076	80.008	19.995	103.329	19.857	3.678	0.342
73.000	114.245	80.009	19.995	103.328	19.856	3.709	0.401
73.500	114.380	80.008	19.994	103.328	19.852	4.001	0.355
74.000	114.614	80.007	19.994	103.328	19.857	3.651	0.337
74.500	114.765	80.008	19.994	103.327	19.857	3.672	0.377
74.999	114.966	80.009	19.994	103.324	19.856	3.736	0.368
75.499	115.159	80.009	19.994	103.324	19.854	3.876	0.373
75.999	115.321	80.008	19.994	103.324	19.856	3.758	0.374
76.500	115.478	80.008	19.995	103.324	19.852	4.023	0.337
77.000	115.697	80.008	19.994	103.325	19.852	4.058	0.348
77.499	115.867	80.009	19.994	103.328	19.849	4.237	0.383
78.000	116.050	80.008	19.995	103.328	19.854	3.904	0.371
78.500	116.261	80.008	19.994	103.328	19.849	4.260	0.373
78.999	116.463	80.008	19.994	103.330	19.852	4.034	0.404
79.499	116.652	80.008	19.993	103.330	19.852	4.009	0.402
79.999	116.840	80.006	19.995	103.330	19.847	4.375	0.384
80.499	117.022	80.009	19.994	103.330	19.851	4.114	0.373
80.999	117.216	80.008	19.994	103.329	19.854	3.878	0.373
81.499	117.454	80.007	19.994	103.328	19.851	4.088	0.404
81.999	117.621	80.009	19.995	103.327	19.852	4.032	0.418
82.499	117.815	80.008	19.994	103.327	19.852	4.010	0.383
82.999	118.026	80.008	19.996	103.327	19.849	4.231	0.383
83.500	118.207	80.008	19.995	103.330	19.852	4.028	0.398
84.001	118.446	80.008	19.995	103.334	19.853	3.946	0.406
84.500	118.640	80.008	19.995	103.336	19.849	4.262	0.427
85.000	118.868	80.009	19.994	103.337	19.850	4.155	0.427
85.501	119.022	80.008	19.995	103.337	19.851	4.061	0.402
86.000	119.235	80.009	19.995	103.335	19.853	3.976	0.374
86.499	119.460	80.007	19.995	103.336	19.851	4.065	0.402
86.999	119.645	80.009	19.994	103.335	19.852	4.016	0.424
87.499	119.841	80.009	19.995	103.335	19.854	3.866	0.395
87.999	120.055	80.009	19.994	103.335	19.851	4.075	0.396
88.499	120.270	80.009	19.996	103.334	19.854	3.905	0.420
88.999	120.466	80.008	19.995	103.330	19.855	3.815	0.420
89.499	120.681	80.009	19.994	103.329	19.853	3.946	0.410
89.999	120.887	80.009	19.994	103.329	19.852	4.022	0.416
90.499	121.122	80.008	19.996	103.328	19.853	3.960	0.432
90.999	121.310	80.008	19.994	103.329	19.850	4.151	0.433
91.499	121.515	80.009	19.995	103.329	19.853	3.948	0.408
91.999	121.719	80.008	19.995	103.327	19.851	4.106	0.401
92.500	121.926	80.011	19.994	103.325	19.853	3.958	0.410
93.001	122.184	80.009	19.994	103.325	19.853	3.958	0.438
93.500	122.385	80.011	19.994	103.324	19.851	4.067	0.462
93.999	122.583	80.009	19.994	103.325	19.855	3.808	0.429
94.499	122.800	80.009	19.994	103.327	19.852	4.024	0.407
94.999	123.047	80.010	19.995	103.328	19.853	3.934	0.439
95.499	123.300	80.010	19.994	103.328	19.853	3.921	0.482
96.000	123.493	80.010	19.994	103.328	19.852	4.057	0.473
96.500	123.681	80.010	19.995	103.328	19.853	3.919	0.413
96.999	123.903	80.009	19.995	103.328	19.854	3.915	0.396
97.499	124.142	80.009	19.995	103.327	19.853	3.974	0.435
97.999	124.369	80.009	19.995	103.327	19.853	3.983	0.464
98.499	124.598	80.009	19.995	103.328	19.854	3.872	0.461
98.999	124.846	80.009	19.994	103.325	19.850	4.143	0.466
99.499	125.032	80.010	19.994	103.322	19.849	4.203	0.455
99.999	125.272	80.010	19.995	103.315	19.851	4.090	0.430
100.499	125.521	80.010	19.994	103.313	19.856	3.765	0.457
100.999	125.721	80.009	19.994	103.313	19.853	3.921	0.469
101.499	125.964	80.011	19.994	103.317	19.852	4.032	0.446
102.000	126.202	80.008	19.995	103.320	19.853	3.923	0.462
102.501	126.459	80.009	19.994	103.326	19.855	3.843	0.488
103.001	126.668	80.008	19.994	103.327	19.853	3.976	0.481
103.500	126.868	80.010	19.994	103.323	19.853	3.956	0.437
103.999	127.126	80.009	19.995	103.322	19.853	3.968	0.433
104.499	127.352	80.009	19.993	103.321	19.852	4.015	0.471
105.000	127.579	80.010	19.995	103.321	19.849	4.233	0.468
105.500	127.836	80.010	19.994	103.320	19.853	3.968	0.468
105.999	128.070	80.011	19.994	103.322	19.853	3.976	0.487
106.500	128.322	80.009	19.994	103.324	19.856	3.748	0.488
107.001	128.523	80.009	19.994	103.326	19.853	3.919	0.470
107.500	128.728	80.010	19.994	103.327	19.852	3.997	0.430
108.000	128.996	80.011	19.994	103.329	19.852	4.026	0.440
108.500	129.213	80.008	19.993	103.329	19.851	4.094	0.479
108.999	129.441	80.011	19.994	103.328	19.855	3.804	0.465
109.499	129.711	80.010	19.994	103.325	19.853	3.969	0.472
109.999	129.963	80.010	19.993	103.325	19.855	3.823	0.510
110.499	130.152	80.010	19.994	103.325	19.853	3.971	0.481
110.999	130.450	80.009	19.993	103.327	19.853	3.960	0.464
111.499	130.674	80.010	19.994	103.330	19.854	3.911	0.504
111.999	130.881	80.010	19.995	103.333	19.854	3.911	0.476
112.499	131.120	80.011	19.994	103.333	19.855	3.818	0.438
112.999	131.331	80.009	19.994	103.332	19.854	3.898	0.448
113.499	131.644	80.010	19.994	103.332	19.856	3.771	0.487
113.999	131.800	80.009	19.994	103.332	19.856	3.705	0.496
114.499	132.105	80.010	19.993	103.332	19.854	3.911	0.465
115.000	132.351	80.011	19.994	103.332	19.855	3.837	0.506
115.500	132.579	80.009	19.993	103.333	19.854	3.899	0.512
115.999	132.835	80.011	19.993	103.334	19.855	3.809	0.479
116.499	133.038	80.010	19.994	103.333	19.854	3.906	0.472
116.999	133.299	80.010	19.995	103.332	19.856	3.762	0.462
117.499	133.535	80.012	19.994	103.332	19.853	3.942	0.480
117.999	133.808	80.012	19.994	103.331	19.854	3.883	0.503
118.500	134.027	80.013	19.994	103.327	19.853	3.983	0.501
119.000	134.259	80.010	19.994	103.326	19.854	3.914	0.472
119.499	134.505	80.011	19.994	103.321	19.853	3.971	0.465
119.999	134.768	80.011	19.993	103.318	19.853	3.961	0.494
120.499	135.018	80.010	19.994	103.319	19.856	3.729	0.511
121.000	135.252	80.011	19.995	103.319	19.852	4.041	0.498
121.500	135.465	80.010	19.995	103.316	19.852	4.000	0.465
121.999	135.730	80.010	19.994	103.321	19.854	3.854	0.462
122.499	135.997	80.010	19.994	103.324	19.855	3.833	0.505
122.999	136.206	80.011	19.994	103.323	19.854	3.889	0.504
123.499	136.468	80.011	19.994	103.325	19.854	3.860	0.474
123.999	136.744	80.010	19.994	103.328	19.855	3.808	0.504
124.499	136.950	80.010	19.995	103.327	19.856	3.716	0.510
124.999	137.243	80.008	19.994	103.323	19.853	3.926	0.491
125.499	137.485	80.009	19.995	103.319	19.855	3.800	0.517
125.999	137.735	80.008	19.994	103.314	19.857	3.675	0.514
126.499	137.977	80.008	19.995	103.308	19.856	3.757	0.492
126.999	138.212	80.009	19.994	103.304	19.857	3.681	0.485
127.499	138.500	80.010	19.994	103.305	19.852	4.006	0.500
128.000	138.725	80.008	19.995	103.305	19.852	4.053	0.517
128.500	138.976	80.008	19.994	103.308	19.853	3.921	0.494
129.000	139.223	80.008	19.995	103.307	19.855	3.822	0.488
129.500	139.468	80.007	19.995	103.308	19.856	3.771	0.495
130.000	139.720	80.007	19.995	103.307	19.854	3.903	0.494
130.500	139.956	80.008	19.993	103.306	19.854	3.860	0.492
131.000	140.199	80.007	19.995	103.302	19.852	4.008	0.483
131.500	140.434	80.008	19.995	103.302	19.854	3.881	0.478
132.000	140.692	80.009	19.995	103.305	19.853	3.984	0.485
132.500	140.963	80.007	19.995	103.308	19.855	3.799	0.511
133.000	141.202	80.007	19.995	103.308	19.853	3.924	0.520
133.500	141.463	80.006	19.995	103.310	19.854	3.850	0.505
134.000	141.712	80.008	19.995	103.314	19.857	3.682	0.505
134.500	141.943	80.006	19.994	103.316	19.854	3.856	0.496
135.000	142.188	80.009	19.994	103.315	19.854	3.871	0.478
135.500	142.450	80.006	19.994	103.315	19.856	3.770	0.491
136.000	142.677	80.008	19.994	103.313	19.854	3.902	0.498
136.500	142.950	80.007	19.996	103.309	19.854	3.848	0.495
137.000	143.182	80.008	19.994	103.305	19.853	3.953	0.503
137.500	143.436	80.007	19.994	103.304	19.851	4.118	0.495
138.000	143.701	80.008	19.994	103.309	19.851	4.101	0.502
138.500	143.988	80.008	19.996	103.314	19.854	3.865	0.536
139.000	144.242	80.008	19.994	103.319	19.853	3.980	0.547
139.500	144.478	80.009	19.994	103.324	19.854	3.910	0.515
140.000	144.787	80.008	19.994	103.325	19.857	3.684	0.517
140.500	144.978	80.009	19.995	103.324	19.856	3.715	0.522
141.000	145.238	80.007	19.994	103.320	19.853	3.960	0.476
141.500	145.525	80.008	19.994	103.314	19.858	3.624	0.499
142.000	145.745	80.008	19.995	103.310	19.856	3.768	0.527
142.500	146.018	80.008	19.994	103.303	19.857	3.688	0.500
143.000	146.270	80.008	19.994	103.299	19.856	3.713	0.509
143.500	146.491	80.008	19.994	103.300	19.861	3.402	0.499
144.000	146.768	80.008	19.995	103.302	19.858	3.581	0.486
144.500	146.989	80.008	19.996	103.302	19.862	3.320	0.498
145.000	147.259	80.009	19.995	103.303	19.858	3.563	0.494
145.500	147.498	80.007	19.994	103.301	19.859	3.528	0.500
146.000	147.746	80.008	19.995	103.298	19.859	3.501	0.498
146.500	148.012	80.007	19.994	103.296	19.859	3.540	0.500
147.000	148.263	80.009	19.995	103.295	19.858	3.616	0.516
147.500	148.532	80.008	19.994	103.292	19.861	3.369	0.519
148.000	148.756	80.008	19.995	103.291	19.859	3.511	0.506
148.500	149.068	80.008	19.995	103.291	19.862	3.306	0.514
149.000	149.289	80.009	19.995	103.291	19.856	3.736	0.534
149.500	149.531	80.008	19.994	103.290	19.863	3.254	0.498
150.000	149.791	80.010	19.995	103.290	19.865	3.082	0.483
150.500	150.052	80.007	19.994	103.290	19.862	3.279	0.512
151.000	150.316	80.009	19.995	103.290	19.864	3.154	0.523
151.500	150.539	80.008	19.994	103.291	19.860	3.425	0.506
152.000	150.779	80.007	19.994	103.291	19.863	3.242	0.475
152.500	151.072	80.008	19.995	103.291	19.861	3.366	0.498
153.000	151.291	80.010	19.995	103.292	19.861	3.353	0.522
153.500	151.522	80.008	19.994	103.291	19.861	3.378	0.481
154.000	151.783	80.008	19.996	103.291	19.862	3.285	0.471
154.500	152.038	80.010	19.994	103.289	19.861	3.364	0.504
155.000	152.298	80.008	19.995	103.289	19.862	3.320	0.515
155.500	152.574	80.008	19.996	103.288	19.863	3.199	0.525
156.000	152.821	80.007	19.996	103.289	19.865	3.125	0.529
156.500	153.088	80.007	19.995	103.289	19.864	3.180	0.518
157.000	153.330	80.009	19.996	103.291	19.861	3.359	0.512
157.500	153.587	80.009	19.996	103.291	19.859	3.516	0.504
158.000	153.826	80.007	19.996	103.291	19.861	3.368	0.497
158.500	154.117	80.007	19.996	103.291	19.862	3.277	0.513
159.000	154.371	80.007	19.995	103.291	19.860	3.456	0.538
159.500	154.594	80.007	19.996	103.289	19.860	3.446	0.511
160.000	154.800	80.007	19.996	103.289	19.862	3.337	0.453
160.500	155.117	80.008	19.995	103.289	19.861	3.372	0.476
161.000	155.322	80.007	19.995	103.289	19.860	3.415	0.522
161.500	155.582	80.006	19.996	103.289	19.861	3.343	0.493
162.000	155.801	80.008	19.997	103.291	19.861	3.392	0.472
162.500	156.052	80.007	19.996	103.289	19.862	3.302	0.474
163.000	156.267	80.009	19.997	103.287	19.860	3.481	0.468
163.500	156.679	80.008	19.996	103.285	19.859	3.542	0.547
164.000	156.660	80.006	19.996	103.284	19.861	3.372	0.511
164.500	157.054	80.006	19.997	103.284	19.860	3.477	0.384
165.000	157.422	80.007	19.996	103.284	19.860	3.466	0.568
165.500	157.559	80.007	19.995	103.284	19.861	3.386	0.633
166.000	157.812	80.007	19.996	103.284	19.864	3.166	0.447
166.500	158.104	80.006	19.995	103.286	19.861	3.399	0.468
167.000	158.312	80.006	19.996	103.286	19.862	3.318	0.523
167.500	158.631	80.008	19.997	103.286	19.864	3.182	0.513
168.000	158.811	80.008	19.996	103.286	19.861	3.357	0.513
168.500	159.094	80.009	19.995	103.286	19.863	3.217	0.482
169.000	159.315	80.007	19.996	103.285	19.865	3.119	0.484
169.500	159.602	80.007	19.994	103.284	19.861	3.343	0.505
170.000	159.817	80.007	19.994	103.285	19.862	3.333	0.505
170.500	160.084	80.008	19.994	103.287	19.861	3.411	0.492
171.000	160.257	80.008	19.994	103.287	19.863	3.265	0.461
171.500	160.529	80.007	19.996	103.285	19.860	3.474	0.442
172.000	160.776	80.008	19.995	103.281	19.864	3.147	0.482
172.500	161.043	80.008	19.994	103.280	19.862	3.273	0.517
173.000	161.306	80.008	19.995	103.278	19.865	3.092	0.522
173.500	161.525	80.009	19.995	103.281	19.864	3.137	0.506
174.000	161.786	80.008	19.994	103.284	19.862	3.275	0.481
174.500	162.017	80.008	19.995	103.290	19.864	3.181	0.486
175.000	162.281	80.011	19.994	103.288	19.866	2.995	0.494
175.500	162.528	80.008	19.995	103.287	19.866	3.014	0.502
176.000	162.725	80.010	19.994	103.286	19.863	3.251	0.477
176.500	163.023	80.009	19.994	103.285	19.861	3.366	0.470
177.000	163.259	80.009	19.994	103.283	19.860	3.434	0.515
177.500	163.508	80.010	19.995	103.284	19.860	3.454	0.509
178.000	163.755	80.010	19.995	103.286	19.860	3.415	0.491
178.500	164.017	80.010	19.993	103.287	19.861	3.378	0.502
179.000	164.269	80.009	19.994	103.287	19.861	3.368	0.511
179.500	164.500	80.010	19.995	103.288	19.861	3.353	0.498
180.000	164.806	80.008	19.993	103.284	19.864	3.140	0.510
180.500	165.048	80.011	19.994	103.279	19.864	3.148	0.542
181.000	165.285	80.009	19.994	103.279	19.862	3.312	0.514
181.500	165.530	80.011	19.995	103.280	19.867	2.944	0.481
182.000	165.808	80.011	19.994	103.281	19.862	3.326	0.502
182.500	166.065	80.010	19.996	103.287	19.862	3.298	0.529
183.000	166.284	80.008	19.996	103.292	19.865	3.076	0.506
183.500	166.520	80.010	19.994	103.287	19.861	3.351	0.466
184.000	166.736	80.009	19.994	103.286	19.860	3.423	0.453
184.500	166.966	80.009	19.994	103.285	19.860	3.424	0.449
185.000	167.202	80.009	19.994	103.283	19.865	3.089	0.457
185.500	167.513	80.011	19.995	103.282	19.864	3.161	0.507
186.000	167.704	80.010	19.995	103.284	19.861	3.362	0.524
186.500	167.959	80.010	19.995	103.282	19.863	3.214	0.474
187.000	168.271	80.009	19.994	103.283	19.864	3.175	0.506
187.500	168.494	80.009	19.995	103.283	19.865	3.109	0.551
188.000	168.773	80.009	19.994	103.283	19.862	3.310	0.519
188.500	169.006	80.009	19.994	103.283	19.867	2.961	0.507
189.000	169.258	80.008	19.995	103.284	19.860	3.442	0.498
189.500	169.476	80.009	19.994	103.282	19.860	3.464	0.478
190.000	169.738	80.010	19.993	103.280	19.862	3.298	0.475
190.500	170.008	80.008	19.994	103.280	19.863	3.261	0.506
191.000	170.205	80.010	19.995	103.282	19.862	3.317	0.500
191.500	170.464	80.009	19.994	103.283	19.867	2.973	0.462
192.000	170.693	80.009	19.995	103.283	19.863	3.241	0.472
192.500	171.008	80.009	19.994	103.285	19.868	2.889	0.516
193.000	171.184	80.009	19.994	103.287	19.863	3.214	0.517
193.500	171.456	80.008	19.994	103.285	19.866	3.010	0.470
194.000	171.719	80.009	19.995	103.281	19.863	3.241	0.492
194.500	171.880	80.009	19.994	103.279	19.864	3.159	0.480
195.000	172.203	80.008	19.994	103.275	19.865	3.097	0.454
195.500	172.432	80.008	19.994	103.268	19.866	3.048	0.518
196.000	172.695	80.010	19.994	103.263	19.866	3.037	0.522
196.500	172.943	80.009	19.994	103.263	19.867	2.982	0.502
197.000	173.203	80.010	19.993	103.262	19.866	2.986	0.510
197.500	173.475	80.009	19.994	103.265	19.863	3.243	0.520
198.000	173.674	80.009	19.994	103.269	19.865	3.111	0.501
198.500	173.912	80.009	19.995	103.275	19.867	2.932	0.454
199.000	174.104	80.009	19.995	103.279	19.865	3.070	0.433
199.500	174.457	80.009	19.994	103.285	19.866	2.996	0.488
200.000	174.662	80.009	19.994	103.287	19.865	3.097	0.552
200.500	174.904	80.010	19.994	103.289	19.867	2.977	0.502
201.000	175.145	80.009	19.994	103.286	19.868	2.899	0.465
201.500	175.387	80.009	19.993	103.279	19.868	2.856	0.483
202.000	175.664	80.010	19.994	103.272	19.868	2.844	0.501
202.500	175.911	80.010	19.994	103.270	19.868	2.879	0.521
203.000	176.169	80.010	19.995	103.267	19.867	2.963	0.514
203.500	176.347	80.010	19.994	103.264	19.867	2.932	0.471
204.000	176.632	80.010	19.994	103.269	19.867	2.963	0.450
204.500	176.861	80.012	19.993	103.273	19.866	3.054	0.488
205.000	177.182	80.011	19.994	103.269	19.865	3.111	0.532
205.500	177.411	80.010	19.993	103.265	19.869	2.785	0.550
206.000	177.600	80.011	19.993	103.265	19.867	2.953	0.484
206.500	177.888	80.012	19.994	103.261	19.871	2.682	0.447
207.000	178.141	80.011	19.994	103.256	19.865	3.093	0.509
207.500	178.370	80.010	19.994	103.260	19.867	2.943	0.511
208.000	178.610	80.011	19.994	103.267	19.865	3.079	0.476
208.500	178.862	80.011	19.995	103.269	19.867	2.924	0.481
209.000	179.086	80.012	19.994	103.273	19.868	2.850	0.484
209.500	179.351	80.009	19.994	103.274	19.869	2.778	0.482
210.000	179.612	80.010	19.994	103.273	19.869	2.789	0.508
210.500	179.861	80.011	19.994	103.268	19.871	2.694	0.518
211.000	180.093	80.012	19.993	103.267	19.868	2.856	0.496
211.500	180.330	80.010	19.994	103.269	19.867	2.933	0.475
212.000	180.600	80.012	19.994	103.269	19.871	2.669	0.488
212.500	180.884	80.009	19.994	103.268	19.869	2.811	0.531
213.000	181.117	80.010	19.994	103.270	19.867	2.926	0.536
213.500	181.333	80.010	19.994	103.271	19.869	2.821	0.483
214.000	181.575	80.009	19.994	103.268	19.868	2.898	0.453
214.500	181.821	80.010	19.994	103.267	19.865	3.064	0.473
215.000	182.105	80.009	19.994	103.265	19.871	2.692	0.509
215.500	182.327	80.009	19.994	103.262	19.866	3.013	0.518
216.000	182.577	80.009	19.995	103.259	19.865	3.056	0.490
216.500	182.792	80.008	19.995	103.254	19.867	2.933	0.468
217.000	183.109	80.008	19.995	103.254	19.867	2.968	0.498
217.500	183.331	80.009	19.994	103.255	19.866	3.048	0.536
218.000	183.562	80.007	19.994	103.257	19.866	3.009	0.496
218.500	183.810	80.009	19.995	103.258	19.864	3.167	0.466
219.000	184.119	80.010	19.993	103.260	19.866	2.986	0.518
219.500	184.225	80.008	19.994	103.262	19.865	3.089	0.486
220.000	184.587	80.010	19.994	103.265	19.864	3.149	0.441
220.500	184.787	80.007	19.995	103.264	19.865	3.091	0.515
221.000	185.010	80.008	19.994	103.262	19.867	2.914	0.493
221.500	185.307	80.009	19.994	103.261	19.870	2.752	0.472
222.000	185.504	80.007	19.995	103.262	19.869	2.828	0.507
222.500	185.796	80.010	19.995	103.258	19.867	2.970	0.491
223.000	186.043	80.009	19.995	103.257	19.866	2.996	0.514
223.500	186.332	80.009	19.995	103.259	19.867	2.945	0.538
224.000	186.548	80.006	19.995	103.261	19.866	3.007	0.520
224.500	186.806	80.009	19.995	103.259	19.865	3.120	0.489
225.000	187.044	80.008	19.995	103.259	19.866	3.015	0.485
225.500	187.253	80.009	19.994	103.257	19.865	3.062	0.472
226.000	187.519	80.007	19.995	103.256	19.865	3.097	0.461
226.500	187.742	80.007	19.995	103.253	19.868	2.898	0.482
227.000	187.996	80.007	19.996	103.251	19.865	3.114	0.483
227.500	188.236	80.009	19.996	103.253	19.864	3.147	0.486
228.000	188.473	80.009	19.996	103.255	19.866	3.015	0.486
228.500	188.752	80.008	19.995	103.254	19.866	3.054	0.496
229.000	188.969	80.007	19.995	103.256	19.867	2.966	0.506
229.500	189.219	80.007	19.994	103.256	19.865	3.120	0.482
230.000	189.484	80.009	19.995	103.254	19.868	2.857	0.491
230.500	189.711	80.007	19.995	103.255	19.865	3.093	0.504
231.000	189.952	80.008	19.995	103.255	19.867	2.961	0.480
231.500	190.208	80.008	19.995	103.255	19.864	3.126	0.483
232.000	190.460	80.009	19.996	103.259	19.864	3.171	0.503
232.500	190.692	80.008	19.995	103.259	19.865	3.066	0.496
233.000	190.906	80.007	19.995	103.259	19.865	3.095	0.465
233.500	191.153	80.009	19.995	103.260	19.868	2.894	0.453
234.000	191.422	80.009	19.995	103.260	19.864	3.147	0.488
234.500	191.691	80.008	19.995	103.255	19.867	2.929	0.527
235.000	191.902	80.009	19.994	103.253	19.867	2.963	0.510
235.500	192.165	80.009	19.996	103.252	19.868	2.865	0.478
236.000	192.420	80.010	19.995	103.251	19.866	3.048	0.496
236.500	192.644	80.008	19.994	103.252	19.866	3.023	0.498
237.000	192.910	80.008	19.995	103.253	19.864	3.182	0.485
237.500	193.152	80.008	19.995	103.252	19.865	3.124	0.499
238.000	193.380	80.008	19.995	103.253	19.866	3.015	0.489
238.500	193.635	80.009	19.994	103.255	19.867	2.935	0.476
239.000	193.872	80.008	19.995	103.254	19.866	2.988	0.487
239.500	194.126	80.009	19.995	103.255	19.866	3.042	0.492
240.000	194.347	80.009	19.995	103.255	19.868	2.867	0.483
240.500	194.617	80.009	19.995	103.255	19.868	2.869	0.483
241.000	194.830	80.007	19.995	103.254	19.867	2.943	0.487
241.500	195.058	80.006	19.994	103.253	19.866	2.984	0.462
242.000	195.330	80.007	19.995	103.254	19.867	2.961	0.471
242.500	195.598	80.008	19.995	103.255	19.870	2.743	0.520
243.000	195.823	80.008	19.995	103.256	19.866	3.001	0.517
243.500	196.025	80.006	19.995	103.256	19.868	2.883	0.459
244.000	196.280	80.007	19.994	103.256	19.869	2.770	0.442
244.500	196.574	80.008	19.994	103.257	19.866	2.984	0.503
245.000	196.809	80.007	19.994	103.256	19.867	2.953	0.539
245.500	197.037	80.008	19.995	103.256	19.866	3.054	0.496
246.000	197.265	80.008	19.994	103.256	19.871	2.686	0.459
246.500	197.507	80.008	19.994	103.256	19.867	2.966	0.462
247.000	197.755	80.008	19.995	103.256	19.867	2.955	0.480
247.500	198.016	80.007	19.995	103.256	19.867	2.962	0.500
248.000	198.256	80.005	19.995	103.255	19.869	2.801	0.505
248.500	198.502	80.006	19.995	103.256	19.867	2.976	0.494
249.000	198.746	80.006	19.995	103.255	19.867	2.972	0.488
249.500	199.001	80.006	19.995	103.255	19.869	2.774	0.495
250.000	199.220	80.006	19.996	103.255	19.870	2.700	0.486
250.500	199.468	80.006	19.996	103.255	19.865	3.060	0.470
251.000	199.691	80.007	19.995	103.255	19.868	2.840	0.469
251.500	199.961	80.005	19.995	103.255	19.870	2.750	0.482
252.000	200.183	80.006	19.995	103.255	19.866	3.030	0.492
252.500	200.420	80.007	19.996	103.255	19.866	3.029	0.476
253.000	200.677	80.006	19.996	103.256	19.865	3.075	0.477
253.500	200.921	80.006	19.996	103.255	19.865	3.062	0.498
254.000	201.163	80.008	19.996	103.255	19.867	2.949	0.493
254.500	201.415	80.006	19.994	103.255	19.868	2.902	0.490
255.000	201.660	80.006	19.996	103.255	19.869	2.822	0.496
255.500	201.898	80.007	19.994	103.254	19.867	2.914	0.490
256.000	202.133	80.007	19.996	103.255	19.869	2.813	0.478
256.500	202.383	80.006	19.997	103.255	19.871	2.674	0.478
257.000	202.649	80.007	19.997	103.254	19.870	2.746	0.500
257.500	202.882	80.009	19.997	103.254	19.869	2.770	0.507
258.000	203.105	80.008	19.995	103.255	19.869	2.793	0.478
258.500	203.390	80.008	19.996	103.254	19.867	2.916	0.483
259.000	203.607	80.006	19.996	103.254	19.869	2.770	0.505
259.500	203.880	80.008	19.995	103.254	19.868	2.871	0.496
260.000	204.100	80.008	19.995	103.254	19.866	3.025	0.491
260.500	204.322	80.009	19.995	103.252	19.868	2.859	0.467
261.000	204.574	80.007	19.995	103.249	19.867	2.976	0.458
261.500	204.813	80.008	19.994	103.249	19.867	2.931	0.483
262.000	205.062	80.008	19.996	103.247	19.871	2.655	0.490
262.500	205.333	80.009	19.995	103.246	19.869	2.830	0.504
263.000	205.594	80.008	19.996	103.248	19.869	2.838	0.526
263.500	205.819	80.008	19.996	103.250	19.866	2.990	0.509
264.000	206.072	80.010	19.996	103.249	19.868	2.853	0.482
264.500	206.293	80.007	19.995	103.251	19.868	2.859	0.476
265.000	206.517	80.009	19.996	103.252	19.866	2.999	0.459
265.500	206.753	80.007	19.995	103.252	19.867	2.918	0.452
266.000	207.015	80.009	19.994	103.252	19.869	2.832	0.479
266.500	207.254	80.008	19.995	103.254	19.868	2.869	0.500
267.000	207.541	80.009	19.995	103.254	19.870	2.731	0.514
267.500	207.815	80.008	19.995	103.254	19.869	2.811	0.543
268.000	208.022	80.009	19.994	103.254	19.871	2.657	0.521
268.500	208.282	80.008	19.994	103.254	19.868	2.865	0.474
269.000	208.510	80.009	19.995	103.254	19.865	3.056	0.478
269.500	208.762	80.008	19.995	103.255	19.867	2.950	0.484
270.000	209.017	80.010	19.995	103.255	19.868	2.906	0.493
270.500	209.221	80.009	19.995	103.254	19.870	2.758	0.483
271.000	209.485	80.009	19.995	103.252	19.867	2.916	0.463
271.500	209.717	80.009	19.994	103.250	19.867	2.921	0.482
272.000	209.983	80.010	19.994	103.249	19.869	2.828	0.497
272.500	210.209	80.009	19.994	103.248	19.869	2.814	0.495
273.000	210.432	80.009	19.994	103.249	19.868	2.881	0.470
273.500	210.700	80.009	19.995	103.250	19.866	3.025	0.470
274.000	210.984	80.010	19.994	103.251	19.866	3.015	0.521
274.500	211.143	80.009	19.995	103.250	19.867	2.945	0.498
275.000	211.431	80.010	19.994	103.250	19.868	2.853	0.446
275.500	211.672	80.009	19.995	103.250	19.870	2.758	0.488
276.000	211.927	80.009	19.994	103.250	19.867	2.942	0.512
276.500	212.171	80.009	19.994	103.250	19.869	2.804	0.497
277.000	212.453	80.011	19.995	103.252	19.867	2.927	0.513
277.500	212.656	80.008	19.997	103.252	19.867	2.947	0.506
278.000	212.903	80.010	19.996	103.251	19.867	2.951	0.468
278.500	213.137	80.008	19.994	103.251	19.869	2.787	0.466
279.000	213.395	80.009	19.995	103.245	19.867	2.956	0.486
279.500	213.606	80.010	19.994	103.241	19.867	2.958	0.480
280.000	213.895	80.008	19.994	103.240	19.867	2.958	0.485
280.500	214.153	80.010	19.994	103.240	19.869	2.789	0.524
281.000	214.357	80.010	19.995	103.240	19.867	2.960	0.504
281.500	214.635	80.009	19.995	103.246	19.866	3.040	0.472
282.000	214.858	80.010	19.995	103.248	19.866	2.991	0.492
282.500	215.100	80.010	19.995	103.249	19.869	2.830	0.483
283.000	215.328	80.009	19.994	103.250	19.871	2.682	0.467
283.500	215.548	80.010	19.995	103.250	19.873	2.499	0.459
284.000	215.824	80.009	19.994	103.249	19.874	2.470	0.472
284.500	216.069	80.009	19.995	103.252	19.875	2.353	0.508
285.000	216.304	80.010	19.995	103.250	19.876	2.291	0.501
285.500	216.540	80.009	19.995	103.246	19.872	2.620	0.475
286.000	216.760	80.012	19.994	103.238	19.872	2.556	0.463
286.500	217.052	80.010	19.995	103.234	19.871	2.672	0.484
287.000	217.301	80.011	19.995	103.233	19.869	2.820	0.526
287.500	217.476	80.010	19.994	103.235	19.869	2.801	0.482
288.000	217.733	80.010	19.995	103.236	19.870	2.731	0.428
288.500	217.999	80.010	19.994	103.243	19.866	2.986	0.478
289.000	218.245	80.011	19.994	103.245	19.866	3.001	0.518
289.500	218.483	80.011	19.994	103.246	19.868	2.892	0.499
290.000	218.733	80.011	19.993	103.246	19.867	2.927	0.486
290.500	219.011	80.012	19.995	103.244	19.869	2.775	0.508
291.000	219.228	80.009	19.993	103.238	19.866	2.984	0.511
291.500	219.477	80.011	19.995	103.239	19.869	2.832	0.481
292.000	219.710	80.010	19.996	103.239	19.870	2.746	0.474
292.500	219.949	80.011	19.995	103.239	19.870	2.713	0.477
293.000	220.177	80.012	19.994	103.242	19.868	2.883	0.469
293.500	220.442	80.010	19.994	103.247	19.867	2.929	0.480
294.000	220.653	80.009	19.995	103.247	19.867	2.916	0.484
294.500	220.925	80.012	19.995	103.247	19.867	2.956	0.479
295.000	221.148	80.011	19.994	103.247	19.867	2.911	0.489
295.500	221.407	80.011	19.994	103.247	19.864	3.157	0.489
296.000	221.695	80.011	19.995	103.247	19.870	2.732	0.515
296.500	221.924	80.010	19.995	103.249	19.867	2.964	0.532
297.000	222.167	80.011	19.994	103.249	19.870	2.703	0.495
297.500	222.362	80.011	19.995	103.249	19.870	2.746	0.455
298.000	222.640	80.010	19.995	103.250	19.871	2.635	0.455
298.500	222.878	80.010	19.994	103.250	19.870	2.701	0.494
299.000	223.152	80.009	19.994	103.248	19.873	2.522	0.514
299.500	223.415	80.009	19.994	103.247	19.873	2.510	0.524
300.000	223.658	80.008	19.995	103.246	19.872	2.584	0.522
300.500	223.866	80.008	19.995	103.245	19.872	2.561	0.479
301.000	224.137	80.008	19.995	103.245	19.873	2.530	0.465
301.500	224.368	80.010	19.994	103.246	19.872	2.605	0.490
302.000	224.599	80.009	19.995	103.246	19.872	2.594	0.482
302.500	224.844	80.009	19.993	103.246	19.869	2.814	0.469
303.000	225.101	80.009	19.995	103.247	19.870	2.720	0.489
303.500	225.353	80.008	19.993	103.247	19.873	2.530	0.505
304.000	225.601	80.009	19.994	103.248	19.873	2.532	0.505
304.500	225.833	80.008	19.994	103.248	19.869	2.771	0.490
305.000	226.059	80.009	19.993	103.248	19.871	2.670	0.469
305.500	226.285	80.009	19.994	103.243	19.872	2.586	0.455
306.000	226.534	80.008	19.995	103.238	19.869	2.798	0.464
306.500	226.841	80.008	19.995	103.238	19.869	2.804	0.516
307.000	227.042	80.008	19.994	103.237	19.870	2.732	0.532
307.500	227.267	80.010	19.995	103.237	19.873	2.483	0.467
308.000	227.580	80.008	19.996	103.241	19.873	2.532	0.482
308.500	227.781	80.009	19.995	103.245	19.872	2.616	0.526
309.000	228.005	80.007	19.993	103.239	19.873	2.546	0.469
309.500	228.251	80.009	19.993	103.234	19.874	2.433	0.447
310.000	228.520	80.008	19.995	103.229	19.871	2.627	0.492
310.500	228.793	80.008	19.994	103.224	19.872	2.557	0.529
311.000	229.046	80.007	19.993	103.220	19.872	2.581	0.534
311.500	229.304	80.008	19.994	103.220	19.873	2.538	0.518
312.000	229.526	80.007	19.994	103.220	19.874	2.443	0.496
312.500	229.791	80.010	19.995	103.220	19.872	2.624	0.484
313.000	230.014	80.008	19.994	103.221	19.874	2.468	0.488
313.500	230.291	80.008	19.994	103.221	19.873	2.497	0.494
314.000	230.522	80.009	19.994	103.222	19.874	2.470	0.504
314.500	230.784	80.008	19.994	103.224	19.871	2.632	0.500
315.000	231.007	80.009	19.994	103.228	19.872	2.608	0.489
315.500	231.265	80.009	19.993	103.227	19.875	2.377	0.483
316.000	231.483	80.010	19.994	103.227	19.873	2.488	0.479
316.500	231.722	80.008	19.994	103.227	19.871	2.678	0.466
317.000	231.939	80.007	19.994	103.228	19.874	2.460	0.456
317.500	232.232	80.008	19.995	103.227	19.872	2.554	0.483
318.000	232.442	80.009	19.995	103.231	19.873	2.534	0.507
318.500	232.674	80.008	19.994	103.231	19.876	2.279	0.473
319.000	232.937	80.009	19.994	103.232	19.872	2.562	0.469
319.500	233.162	80.008	19.995	103.234	19.873	2.521	0.492
320.000	233.409	80.009	19.994	103.237	19.870	2.735	0.481
320.500	233.625	80.011	19.994	103.236	19.874	2.456	0.468
321.000	233.892	80.007	19.994	103.240	19.868	2.875	0.473
321.500	234.172	80.008	19.995	103.240	19.870	2.733	0.515
322.000	234.374	80.008	19.995	103.240	19.872	2.593	0.515
322.500	234.660	80.008	19.995	103.241	19.872	2.571	0.485
323.000	234.901	80.009	19.995	103.245	19.873	2.499	0.507
323.500	235.168	80.009	19.995	103.248	19.870	2.717	0.517
324.000	235.361	80.009	19.994	103.253	19.873	2.490	0.484
324.500	235.617	80.010	19.994	103.254	19.870	2.733	0.455
325.000	235.865	80.007	19.996	103.254	19.868	2.852	0.476
325.500	236.084	80.007	19.995	103.254	19.873	2.517	0.485
326.000	236.370	80.008	19.995	103.253	19.870	2.739	0.486
326.500	236.579	80.008	19.994	103.253	19.870	2.752	0.500
327.000	236.878	80.007	19.994	103.254	19.873	2.521	0.501
327.500	237.114	80.007	19.995	103.254	19.872	2.565	0.521
328.000	237.399	80.008	19.996	103.255	19.874	2.468	0.529
328.500	237.638	80.010	19.995	103.256	19.870	2.741	0.523
329.000	237.850	80.007	19.995	103.256	19.872	2.608	0.487
329.500	238.123	80.007	19.995	103.257	19.875	2.408	0.468
330.000	238.384	80.009	19.994	103.257	19.873	2.497	0.510
330.500	238.647	80.007	19.995	103.257	19.874	2.474	0.529
331.000	238.924	80.007	19.995	103.256	19.874	2.478	0.532
331.500	239.125	80.006	19.995	103.256	19.869	2.776	0.509
332.000	239.371	80.007	19.995	103.258	19.873	2.542	0.462
332.500	239.632	80.006	19.996	103.258	19.869	2.772	0.477
333.000	239.878	80.005	19.995	103.257	19.872	2.571	0.507
333.500	240.151	80.007	19.995	103.258	19.872	2.557	0.513
334.000	240.411	80.007	19.995	103.257	19.869	2.789	0.526
334.500	240.637	80.006	19.995	103.256	19.871	2.670	0.509
335.000	240.884	80.007	19.994	103.256	19.872	2.618	0.479
335.500	241.189	80.006	19.995	103.256	19.874	2.441	0.512
336.000	241.416	80.007	19.994	103.255	19.868	2.849	0.542
336.500	241.673	80.007	19.995	103.256	19.869	2.783	0.508
337.000	241.955	80.007	19.995	103.256	19.868	2.908	0.512
337.500	242.218	80.008	19.995	103.256	19.866	3.025	0.542
338.000	242.470	80.008	19.994	103.255	19.868	2.865	0.530
338.500	242.674	80.006	19.995	103.256	19.872	2.620	0.485
339.000	242.976	80.007	19.994	103.255	19.869	2.785	0.481
339.500	243.285	80.007	19.994	103.255	19.871	2.637	0.558
340.000	243.539	80.008	19.994	103.255	19.868	2.886	0.587
340.500	243.762	80.009	19.995	103.254	19.867	2.968	0.520
341.000	244.054	80.008	19.995	103.254	19.870	2.746	0.496
341.500	244.301	80.009	19.996	103.254	19.872	2.559	0.527
342.000	244.583	80.007	19.994	103.254	19.868	2.865	0.535
342.500	244.832	80.009	19.994	103.254	19.870	2.727	0.530
343.000	245.126	80.009	19.995	103.254	19.872	2.598	0.537
343.500	245.346	80.007	19.996	103.252	19.873	2.546	0.529
344.000	245.641	80.008	19.994	103.246	19.872	2.604	0.515
344.500	245.903	80.008	19.994	103.245	19.869	2.787	0.536
345.000	246.151	80.008	19.995	103.238	19.870	2.733	0.533
345.500	246.417	80.008	19.994	103.237	19.873	2.511	0.512
346.000	246.709	80.009	19.995	103.238	19.870	2.715	0.536
346.500	246.970	80.007	19.995	103.244	19.871	2.688	0.555
347.000	247.208	80.011	19.995	103.245	19.872	2.620	0.526
347.500	247.492	80.010	19.995	103.252	19.871	2.689	0.511
348.000	247.717	80.007	19.995	103.252	19.871	2.637	0.516
348.500	248.001	80.009	19.994	103.251	19.873	2.497	0.509
349.000	248.266	80.010	19.995	103.251	19.874	2.441	0.529
349.500	248.531	80.014	19.995	103.251	19.873	2.481	0.540
350.000	248.820	80.009	19.996	103.251	19.872	2.569	0.542
350.500	249.058	80.011	19.994	103.249	19.873	2.518	0.540
351.000	249.277	80.009	19.994	103.248	19.870	2.719	0.492
351.500	249.603	80.009	19.995	103.247	19.873	2.487	0.501
352.000	249.864	80.010	19.995	103.245	19.874	2.429	0.566
352.500	250.155	80.009	19.996	103.245	19.874	2.434	0.570
353.000	250.405	80.006	19.996	103.241	19.874	2.458	0.547
353.500	250.657	80.009	19.995	103.238	19.873	2.504	0.522
354.000	250.933	80.008	19.996	103.238	19.873	2.545	0.515
354.500	251.217	80.011	19.994	103.240	19.873	2.543	0.544
355.000	251.491	80.009	19.997	103.240	19.873	2.522	0.559
355.500	251.765	80.008	19.995	103.242	19.873	2.498	0.553
356.000	252.073	80.008	19.996	103.246	19.875	2.364	0.565
356.500	252.345	80.007	19.995	103.246	19.869	2.796	0.581
357.000	252.580	80.012	19.996	103.243	19.872	2.572	0.544
357.500	252.861	80.007	19.996	103.240	19.872	2.580	0.511
358.000	253.142	80.009	19.996	103.238	19.872	2.567	0.539
358.500	253.409	80.009	19.995	103.234	19.873	2.514	0.555
359.000	253.640	80.007	19.997	103.235	19.872	2.611	0.523
359.500	253.903	80.008	19.996	103.238	19.875	2.339	0.496
360.000	254.174	80.010	19.995	103.240	19.877	2.236	0.514
360.500	254.440	80.010	19.995	103.243	19.871	2.625	0.536
361.000	254.690	80.006	19.996	103.242	19.874	2.440	0.527
361.500	254.994	80.007	19.995	103.242	19.873	2.522	0.535
362.000	255.249	80.009	19.995	103.240	19.874	2.411	0.556
362.500	255.529	80.008	19.996	103.238	19.875	2.399	0.547
363.000	255.782	80.009	19.996	103.235	19.876	2.271	0.534
363.500	256.077	80.008	19.996	103.231	19.873	2.481	0.540
364.000	256.287	80.010	19.995	103.227	19.875	2.341	0.527
364.500	256.544	80.009	19.995	103.226	19.872	2.588	0.486
365.000	256.840	80.012	19.994	103.225	19.876	2.273	0.510
365.500	257.091	80.007	19.996	103.226	19.875	2.378	0.550
366.000	257.359	80.008	19.995	103.226	19.871	2.687	0.533
366.500	257.602	80.009	19.994	103.223	19.871	2.678	0.515
367.000	257.939	80.011	19.994	103.219	19.873	2.489	0.546
367.500	258.169	80.010	19.995	103.220	19.873	2.518	0.574
368.000	258.423	80.008	19.995	103.224	19.873	2.506	0.525
368.500	258.689	80.012	19.994	103.230	19.875	2.407	0.501
369.000	258.971	80.007	19.994	103.231	19.875	2.380	0.534
369.500	259.230	80.009	19.994	103.230	19.873	2.537	0.545
370.000	259.481	80.009	19.993	103.225	19.874	2.419	0.526
370.500	259.747	80.009	19.994	103.220	19.871	2.652	0.514
371.000	260.005	80.011	19.994	103.216	19.874	2.446	0.520
371.500	260.258	80.009	19.994	103.216	19.872	2.574	0.517
372.000	260.527	80.011	19.994	103.218	19.871	2.635	0.517
372.500	260.819	80.011	19.994	103.220	19.869	2.804	0.542
373.000	261.069	80.012	19.993	103.224	19.871	2.629	0.552
373.500	261.333	80.010	19.994	103.229	19.870	2.730	0.528
374.000	261.603	80.008	19.993	103.234	19.871	2.640	0.524
374.500	261.855	80.011	19.994	103.234	19.871	2.625	0.528
375.000	262.130	80.011	19.993	103.236	19.875	2.392	0.525
375.500	262.393	80.009	19.994	103.233	19.874	2.417	0.533
376.000	262.640	80.010	19.993	103.230	19.876	2.306	0.524
376.500	262.944	80.011	19.994	103.231	19.874	2.473	0.530
377.000	263.176	80.011	19.995	103.233	19.872	2.555	0.543
377.500	263.447	80.010	19.993	103.230	19.877	2.210	0.520
378.000	263.702	80.009	19.994	103.229	19.874	2.458	0.515
378.500	263.983	80.010	19.993	103.227	19.877	2.208	0.531
379.000	264.209	80.008	19.994	103.221	19.875	2.370	0.521
379.500	264.503	80.011	19.994	103.220	19.878	2.150	0.513
380.000	264.757	80.010	19.994	103.219	19.879	2.055	0.534
380.500	265.030	80.011	19.994	103.220	19.876	2.294	0.538
381.000	265.289	80.009	19.994	103.222	19.878	2.127	0.530
381.500	265.524	80.011	19.993	103.220	19.874	2.421	0.512
382.000	265.785	80.007	19.994	103.219	19.878	2.193	0.495
382.500	266.083	80.010	19.994	103.218	19.879	2.081	0.528
383.000	266.297	80.008	19.994	103.217	19.877	2.250	0.536
383.500	266.566	80.007	19.994	103.215	19.880	2.034	0.497
384.000	266.807	80.008	19.994	103.216	19.876	2.273	0.496
384.500	267.106	80.007	19.994	103.219	19.878	2.181	0.525
385.000	267.338	80.007	19.994	103.220	19.877	2.246	0.536
385.500	267.617	80.006	19.995	103.221	19.879	2.061	0.521
386.000	267.860	80.007	19.994	103.226	19.881	1.972	0.516
386.500	268.130	80.010	19.995	103.228	19.875	2.382	0.518
387.000	268.396	80.008	19.993	103.226	19.880	2.049	0.525
387.500	268.663	80.008	19.994	103.226	19.882	1.887	0.534
388.000	268.935	80.006	19.995	103.226	19.882	1.895	0.536
388.500	269.172	80.009	19.994	103.222	19.877	2.205	0.524
389.000	269.463	80.007	19.995	103.220	19.880	1.992	0.519
389.500	269.664	80.011	19.994	103.220	19.878	2.150	0.510
390.000	269.953	80.009	19.994	103.221	19.876	2.269	0.491
390.500	270.222	80.007	19.994	103.221	19.876	2.315	0.524
391.000	270.466	80.006	19.994	103.221	19.878	2.131	0.536
391.500	270.755	80.009	19.994	103.219	19.876	2.267	0.523
392.000	271.012	80.007	19.995	103.219	19.877	2.199	0.540
392.500	271.256	80.008	19.994	103.228	19.881	1.957	0.524
393.000	271.514	80.009	19.994	103.214	19.880	2.026	0.502
393.500	271.773	80.008	19.995	103.192	19.882	1.876	0.509
394.000	272.064	80.007	19.995	103.178	19.882	1.870	0.533
394.500	272.309	80.008	19.995	103.171	19.878	2.133	0.543
395.000	272.548	80.007	19.995	103.167	19.876	2.271	0.510
395.500	272.820	80.008	19.994	103.200	19.879	2.099	0.498
396.000	273.043	80.007	19.994	103.237	19.879	2.086	0.503
396.500	273.317	80.008	19.993	103.254	19.874	2.422	0.496
397.000	273.579	80.008	19.994	103.261	19.878	2.148	0.517
397.500	273.809	80.009	19.994	103.256	19.877	2.214	0.514
398.000	274.076	80.009	19.994	103.236	19.880	1.996	0.494
398.500	274.335	80.006	19.994	103.221	19.880	1.998	0.511
399.000	274.563	80.008	19.994	103.217	19.878	2.160	0.506
399.500	274.866	80.009	19.994	103.217	19.881	1.934	0.509
400.000	275.120	80.011	19.994	103.217	19.879	2.091	0.544
400.500	275.376	80.009	19.995	103.218	19.878	2.162	0.534
401.000	275.628	80.007	19.995	103.218	19.882	1.864	0.509
401.500	275.868	80.010	19.994	103.219	19.879	2.099	0.500
402.000	276.139	80.007	19.994	103.219	19.877	2.239	0.502
402.500	276.368	80.008	19.994	103.219	19.876	2.282	0.506
403.000	276.622	80.008	19.995	103.219	19.881	1.959	0.491
403.500	276.888	80.009	19.995	103.219	19.879	2.121	0.501
404.000	277.073	80.011	19.994	103.219	19.877	2.232	0.486
404.500	277.376	80.001	19.994	103.219	19.880	1.987	0.470
405.000	277.618	80.008	19.994	103.217	19.879	2.082	0.516
405.500	277.855	80.008	19.995	103.217	19.879	2.084	0.512
406.000	278.134	80.009	19.994	103.216	19.881	1.963	0.498
406.500	278.342	80.008	19.994	103.216	19.882	1.905	0.502
407.000	278.625	80.010	19.994	103.217	19.879	2.109	0.489
407.500	278.875	80.008	19.995	103.219	19.879	2.116	0.512
408.000	279.132	80.008	19.995	103.218	19.884	1.760	0.520
408.500	279.366	80.010	19.995	103.219	19.879	2.118	0.499
409.000	279.624	80.006	19.994	103.215	19.880	2.029	0.491
409.500	279.844	80.008	19.994	103.213	19.881	1.942	0.485
410.000	280.062	80.008	19.995	103.211	19.881	1.914	0.458
410.500	280.335	80.008	19.994	103.210	19.883	1.800	0.465
411.000	280.599	80.009	19.993	103.208	19.884	1.749	0.514
411.500	280.837	80.008	19.995	103.208	19.884	1.753	0.519
412.000	281.079	80.009	19.994	103.208	19.881	1.942	0.491
412.500	281.300	80.009	19.996	103.210	19.879	2.082	0.471
413.000	281.553	80.008	19.994	103.210	19.882	1.852	0.469
413.500	281.801	80.008	19.995	103.208	19.883	1.831	0.488
414.000	282.069	80.000	19.996	103.207	19.880	1.996	0.509
414.500	282.320	80.006	19.995	103.207	19.880	1.994	0.518
415.000	282.557	80.007	19.995	103.210	19.879	2.111	0.503
415.500	282.786	80.009	19.995	103.212	19.878	2.177	0.476
416.000	283.070	80.008	19.995	103.216	19.877	2.206	0.489
416.500	283.293	80.008	19.996	103.219	19.878	2.152	0.511
417.000	283.545	80.007	19.995	103.214	19.880	2.014	0.491
417.500	283.786	80.008	19.996	103.205	19.878	2.193	0.483
418.000	284.016	80.008	19.994	103.194	19.879	2.117	0.482
418.500	284.305	80.006	19.994	103.190	19.876	2.286	0.495
419.000	284.559	80.007	19.994	103.191	19.876	2.290	0.531
419.500	284.756	80.007	19.994	103.196	19.878	2.136	0.497
420.000	285.003	80.008	19.995	103.200	19.877	2.216	0.448
420.500	285.270	80.011	19.994	103.205	19.879	2.119	0.479
421.000	285.510	80.005	19.996	103.206	19.879	2.111	0.511
421.500	285.740	80.008	19.995	103.204	19.879	2.091	0.488
422.000	285.977	80.007	19.996	103.200	19.877	2.226	0.468
422.500	286.241	80.007	19.996	103.201	19.878	2.148	0.484
423.000	286.447	80.004	19.996	103.203	19.879	2.109	0.486
423.500	286.756	80.006	19.996	103.203	19.876	2.327	0.493
424.000	286.994	80.010	19.996	103.205	19.876	2.331	0.531
424.500	287.241	80.008	19.995	103.210	19.879	2.078	0.516
425.000	287.474	80.010	19.994	103.211	19.880	1.984	0.482
425.500	287.728	80.009	19.996	103.211	19.881	1.918	0.483
426.000	287.967	80.008	19.996	103.212	19.882	1.905	0.490
426.500	288.203	80.007	19.996	103.214	19.877	2.239	0.484
427.000	288.452	80.011	19.996	103.213	19.874	2.434	0.480
427.500	288.668	80.007	19.996	103.214	19.879	2.078	0.475
428.000	288.936	80.011	19.995	103.214	19.881	1.951	0.475
428.500	289.156	80.008	19.995	103.214	19.880	1.986	0.487
429.000	289.397	80.009	19.994	103.214	19.883	1.790	0.475
429.500	289.667	80.009	19.995	103.214	19.882	1.895	0.486
430.000	289.907	80.007	19.995	103.213	19.881	1.922	0.510
430.500	290.161	80.009	19.996	103.209	19.880	2.010	0.502
431.000	290.391	80.010	19.995	103.209	19.880	2.004	0.489
431.500	290.621	80.009	19.995	103.209	19.881	1.978	0.472
432.000	290.906	80.009	19.996	103.208	19.884	1.762	0.487
432.500	291.134	80.012	19.995	103.206	19.880	2.011	0.514
433.000	291.343	80.008	19.994	103.209	19.879	2.112	0.475
433.500	291.633	80.010	19.996	103.207	19.882	1.906	0.468
434.000	291.870	80.009	19.995	103.204	19.884	1.765	0.513
434.500	292.112	80.009	19.995	103.203	19.879	2.067	0.503
435.000	292.345	80.010	19.995	103.203	19.884	1.752	0.477
435.500	292.642	80.010	19.995	103.203	19.879	2.114	0.502
436.000	292.837	80.010	19.995	103.205	19.884	1.752	0.512
436.500	293.074	80.009	19.994	103.208	19.878	2.148	0.462
437.000	293.321	80.008	19.994	103.208	19.882	1.854	0.458
437.500	293.549	80.009	19.994	103.211	19.880	1.983	0.479
438.000	293.832	80.008	19.994	103.212	19.880	2.004	0.493
438.500	294.045	80.004	19.995	103.212	19.879	2.066	0.504
439.000	294.324	80.009	19.995	103.212	19.881	1.944	0.494
439.500	294.568	80.012	19.994	103.211	19.881	1.975	0.507
440.000	294.822	80.007	19.996	103.213	19.882	1.897	0.510
440.500	295.035	80.008	19.995	103.213	19.882	1.864	0.483
441.000	295.266	80.007	19.994	103.212	19.882	1.852	0.456
441.500	295.529	80.010	19.996	103.222	19.879	2.119	0.469
442.000	295.779	80.008	19.995	103.210	19.881	1.965	0.503
442.500	295.994	80.008	19.996	103.187	19.881	1.938	0.488
443.000	296.255	80.011	19.994	103.170	19.883	1.817	0.470
443.500	296.514	80.007	19.994	103.160	19.882	1.874	0.498
444.000	296.788	80.005	19.995	103.150	19.882	1.841	0.526
444.500	297.018	80.006	19.995	103.184	19.881	1.916	0.519
445.000	297.236	80.009	19.994	103.224	19.879	2.103	0.476
445.500	297.480	80.008	19.995	103.248	19.885	1.660	0.455
446.000	297.706	80.008	19.995	103.259	19.884	1.712	0.466
446.500	298.009	80.007	19.995	103.262	19.888	1.469	0.499
447.000	298.275	80.006	19.995	103.242	19.883	1.771	0.549
447.500	298.477	80.008	19.995	103.223	19.883	1.821	0.518
448.000	298.729	80.009	19.995	103.216	19.886	1.588	0.460
448.500	298.979	80.008	19.995	103.215	19.884	1.704	0.478
449.000	299.249	80.008	19.995	103.215	19.883	1.766	0.512
449.500	299.450	80.006	19.995	103.215	19.883	1.802	0.496
450.000	299.703	80.009	19.996	103.216	19.885	1.656	0.462
450.500	299.945	80.009	19.996	103.215	19.884	1.735	0.474
451.000	300.194	80.007	19.995	103.214	19.881	1.971	0.493
451.500	300.434	80.009	19.995	103.212	19.882	1.889	0.490
452.000	300.671	80.004	19.996	103.211	19.887	1.521	0.483
452.500	300.908	80.006	19.996	103.211	19.885	1.636	0.476
453.000	301.158	80.008	19.995	103.211	19.886	1.560	0.481
453.500	301.426	80.012	19.994	103.212	19.889	1.393	0.503
454.000	301.682	80.009	19.995	103.214	19.887	1.513	0.521
454.500	301.895	80.008	19.996	103.214	19.885	1.630	0.496
455.000	302.153	80.010	19.996	103.215	19.886	1.613	0.470
455.500	302.389	80.009	19.996	103.214	19.886	1.566	0.483
456.000	302.650	80.015	19.994	103.210	19.888	1.410	0.496
456.500	302.889	80.019	19.994	103.210	19.885	1.638	0.498
457.000	303.151	80.016	19.994	103.213	19.884	1.733	0.500
457.500	303.392	80.003	19.996	103.216	19.888	1.416	0.502
458.000	303.661	80.011	19.994	103.215	19.887	1.492	0.507
458.500	303.883	80.009	19.995	103.218	19.888	1.444	0.500
459.000	304.120	80.005	19.997	103.212	19.888	1.469	0.474
459.500	304.368	80.006	19.996	103.206	19.888	1.434	0.472
460.000	304.609	80.002	19.996	103.203	19.886	1.557	0.487
460.500	304.869	80.022	19.995	103.204	19.884	1.706	0.495
461.000	305.110	80.007	19.994	103.205	19.885	1.658	0.501
461.500	305.370	80.009	19.995	103.207	19.886	1.558	0.501
462.000	305.569	80.004	19.997	103.208	19.885	1.667	0.480
462.500	305.849	80.003	19.995	103.206	19.887	1.492	0.469
463.000	306.108	80.004	19.996	103.205	19.885	1.644	0.509
463.500	306.334	80.007	19.994	103.203	19.886	1.611	0.512
464.000	306.583	79.992	19.996	103.202	19.888	1.469	0.480
464.500	306.883	80.008	19.995	103.194	19.887	1.500	0.512
465.000	307.121	79.993	19.996	103.193	19.888	1.428	0.543
465.500	307.346	80.010	19.993	103.191	19.887	1.523	0.501
466.000	307.593	80.014	19.995	103.195	19.885	1.685	0.468
466.500	307.816	79.991	19.997	103.197	19.889	1.348	0.471
467.000	308.070	80.004	19.995	103.202	19.890	1.323	0.474
467.500	308.312	80.008	19.995	103.204	19.890	1.327	0.487
468.000	308.568	80.012	19.993	103.207	19.888	1.418	0.497
468.500	308.794	80.006	19.995	103.209	19.887	1.490	0.489
469.000	309.057	80.013	19.993	103.210	19.890	1.327	0.485
469.500	309.271	80.004	19.994	103.217	19.890	1.294	0.483
470.000	309.575	80.008	19.994	103.218	19.893	1.054	0.498
470.500	309.772	80.002	19.995	103.217	19.887	1.521	0.510
471.000	310.054	79.996	19.996	103.213	19.892	1.187	0.490
471.500	310.340	80.005	19.995	103.210	19.892	1.167	0.523
472.000	310.566	80.006	19.994	103.207	19.891	1.257	0.539
472.500	310.804	80.002	19.996	103.206	19.889	1.397	0.488
473.000	311.056	80.008	19.995	103.202	19.894	1.006	0.477
473.500	311.294	80.007	19.995	103.204	19.893	1.089	0.490
474.000	311.562	80.006	19.994	103.207	19.889	1.346	0.498
474.500	311.824	80.006	19.995	103.208	19.894	0.990	0.518
475.000	312.076	80.002	19.995	103.209	19.896	0.905	0.522
475.500	312.283	80.005	19.996	103.211	19.891	1.206	0.486
476.000	312.563	80.009	19.994	103.209	19.893	1.095	0.473
476.500	312.787	80.009	19.994	103.211	19.891	1.253	0.496
477.000	313.045	80.015	19.994	103.210	19.887	1.479	0.493
477.500	313.273	80.008	19.995	103.210	19.892	1.181	0.485
478.000	313.546	80.004	19.994	103.209	19.895	0.914	0.494
478.500	313.781	80.008	19.994	103.207	19.890	1.296	0.505
479.000	314.033	80.008	19.994	103.200	19.893	1.074	0.497
479.500	314.280	80.008	19.993	103.198	19.892	1.132	0.493
480.000	314.515	80.007	19.996	103.196	19.889	1.399	0.490
480.500	314.769	80.009	19.995	103.198	19.891	1.251	0.485
481.000	315.030	80.007	19.995	103.201	19.889	1.362	0.502
481.500	315.291	80.009	19.995	103.206	19.895	0.977	0.518
482.000	315.544	80.009	19.994	103.209	19.893	1.095	0.518
482.500	315.754	80.009	19.994	103.210	19.893	1.080	0.488
483.000	316.026	80.008	19.994	103.209	19.891	1.202	0.472
483.500	316.299	80.007	19.995	103.205	19.892	1.146	0.514
484.000	316.539	80.010	19.995	103.198	19.894	1.033	0.529
484.500	316.762	80.005	19.995	103.192	19.891	1.210	0.488
485.000	317.025	80.007	19.995	103.190	19.890	1.282	0.474
485.500	317.267	80.009	19.996	103.188	19.891	1.198	0.495
486.000	317.514	80.010	19.995	103.191	19.895	0.965	0.497
486.500	317.776	80.006	19.996	103.195	19.893	1.105	0.499
487.000	318.031	80.009	19.995	103.199	19.890	1.317	0.513
487.500	318.261	80.009	19.995	103.200	19.890	1.323	0.501
488.000	318.539	80.009	19.994	103.203	19.896	0.870	0.496
488.500	318.793	80.011	19.996	103.202	19.893	1.099	0.520
489.000	319.037	80.011	19.994	103.199	19.893	1.062	0.515
489.500	319.298	80.008	19.993	103.196	19.887	1.496	0.502
490.000	319.540	80.005	19.995	103.192	19.887	1.484	0.504
490.500	319.770	80.007	19.993	103.191	19.888	1.410	0.487
491.000	319.962	80.008	19.995	103.191	19.891	1.253	0.447
491.500	320.240	80.006	19.994	103.195	19.889	1.367	0.446
492.000	320.484	80.008	19.994	103.200	19.889	1.338	0.496
492.500	320.737	80.008	19.994	103.205	19.890	1.286	0.510
493.000	320.975	80.009	19.995	103.206	19.887	1.523	0.494
493.500	321.252	80.008	19.995	103.203	19.894	1.008	0.503
494.000	321.512	80.008	19.995	103.199	19.892	1.156	0.526
494.500	321.732	80.010	19.994	103.194	19.894	1.049	0.509
495.000	321.979	80.010	19.995	103.190	19.897	0.805	0.474
495.500	322.247	80.012	19.995	103.188	19.885	1.626	0.490
496.000	322.507	80.010	19.995	103.190	19.891	1.214	0.521
496.500	322.714	80.005	19.996	103.193	19.894	1.029	0.497
497.000	322.993	80.005	19.996	103.198	19.894	0.980	0.477
497.500	323.246	80.010	19.993	103.202	19.889	1.389	0.509
498.000	323.504	80.007	19.994	103.203	19.895	0.922	0.522
498.500	323.739	80.014	19.994	103.201	19.898	0.737	0.502
499.000	323.974	80.013	19.994	103.198	19.891	1.212	0.482
499.500	324.265	80.021	19.992	103.195	19.889	1.346	0.498
500.000	324.504	80.012	19.994	103.195	19.892	1.189	0.527
500.500	324.743	80.023	19.993	103.190	19.899	0.638	0.504
501.000	324.936	80.003	19.994	103.193	19.899	0.638	0.456
501.500	325.223	80.011	19.994	103.190	19.891	1.259	0.457
502.000	325.478	80.013	19.994	103.187	19.894	0.986	0.511
502.500	325.710	80.002	19.995	103.183	19.897	0.809	0.514
503.000	325.964	80.008	19.995	103.184	19.896	0.856	0.486
503.500	326.244	80.008	19.994	103.183	19.895	0.932	0.510
504.000	326.464	79.994	19.995	103.189	19.892	1.160	0.517
504.500	326.689	80.005	19.994	103.191	19.896	0.852	0.473
505.000	326.961	80.010	19.995	103.195	19.894	0.986	0.471
505.500	327.188	79.989	19.997	103.202	19.893	1.095	0.498
506.000	327.435	80.009	19.995	103.197	19.893	1.066	0.487
506.500	327.736	80.006	19.995	103.192	19.895	0.942	0.511
507.000	327.960	80.012	19.993	103.189	19.895	0.967	0.536
507.500	328.220	80.003	19.995	103.189	19.896	0.854	0.504
508.000	328.470	80.007	19.994	103.187	19.895	0.939	0.497
508.500	328.759	80.007	19.995	103.194	19.896	0.891	0.525
509.000	328.969	80.001	19.995	103.195	19.891	1.251	0.519
509.500	329.236	79.989	19.995	103.198	19.894	1.013	0.488
510.000	329.481	79.992	19.997	103.191	19.893	1.058	0.495
510.500	329.748	80.007	19.994	103.187	19.895	0.955	0.512
511.000	330.008	80.007	19.994	103.189	19.897	0.831	0.519
511.500	330.228	79.994	19.995	103.193	19.900	0.584	0.504
512.000	330.499	80.020	19.993	103.194	19.900	0.591	0.486
512.500	330.793	80.009	19.994	103.199	19.898	0.745	0.528
513.000	330.983	80.006	19.994	103.202	19.895	0.969	0.524
513.500	331.228	80.027	19.993	103.200	19.892	1.122	0.459
514.000	331.543	80.018	19.994	103.200	19.898	0.753	0.497
514.500	331.782	80.016	19.995	103.204	19.892	1.185	0.558
515.000	332.035	80.012	19.993	103.206	19.899	0.638	0.523
515.500	332.255	79.999	19.996	103.209	19.896	0.852	0.483
516.000	332.515	80.011	19.995	103.209	19.893	1.097	0.476
516.500	332.768	80.001	19.996	103.205	19.891	1.257	0.496
517.000	333.019	80.006	19.995	103.198	19.891	1.200	0.508
517.500	333.305	80.006	19.995	103.193	19.894	1.008	0.520
518.000	333.599	80.006	19.994	103.185	19.894	0.996	0.559
518.500	333.834	80.001	19.995	103.181	19.894	1.000	0.555
519.000	334.071	80.017	19.992	103.178	19.892	1.140	0.500
519.500	334.320	80.015	19.994	103.179	19.896	0.834	0.478
520.000	334.561	80.009	19.994	103.180	19.895	0.934	0.488
520.500	334.818	80.019	19.994	103.183	19.895	0.941	0.494
521.000	335.046	80.009	19.996	103.188	19.896	0.870	0.492
521.500	335.303	79.992	19.997	103.191	19.893	1.060	0.485
522.000	335.576	80.009	19.996	103.189	19.893	1.050	0.507
522.500	335.796	80.010	19.994	103.191	19.893	1.050	0.511
523.000	336.032	79.996	19.995	103.189	19.895	0.969	0.474
523.500	336.320	80.010	19.994	103.186	19.894	1.006	0.490
524.000	336.546	80.009	19.994	103.185	19.893	1.105	0.520
524.500	336.849	80.009	19.993	103.186	19.895	0.953	0.522
525.000	337.108	80.008	19.995	103.182	19.896	0.846	0.545
525.500	337.338	80.007	19.996	103.180	19.893	1.087	0.526
526.000	337.569	80.007	19.995	103.180	19.895	0.942	0.475
526.500	337.850	80.008	19.995	103.181	19.898	0.710	0.486
527.000	338.081	80.010	19.994	103.183	19.896	0.840	0.512
527.500	338.339	80.016	19.992	103.191	19.896	0.871	0.501
528.000	338.546	80.007	19.995	103.197	19.894	1.015	0.477
528.500	338.840	79.996	19.995	103.200	19.894	0.996	0.483
529.000	339.074	80.007	19.994	103.200	19.898	0.745	0.514
529.500	339.341	80.014	19.993	103.200	19.902	0.441	0.515
530.000	339.584	79.993	19.995	103.195	19.896	0.871	0.506
530.500	339.848	80.015	19.993	103.188	19.901	0.517	0.508
531.000	340.090	80.002	19.995	103.191	19.899	0.655	0.506
531.500	340.310	80.008	19.993	103.190	19.901	0.510	0.483
532.000	340.558	80.008	19.994	103.193	19.894	0.984	0.465
532.500	340.799	80.005	19.995	103.193	19.896	0.856	0.479
533.000	341.106	80.009	19.994	103.192	19.898	0.735	0.519
533.500	341.359	80.015	19.993	103.189	19.900	0.607	0.554
534.000	341.594	80.007	19.995	103.189	19.897	0.782	0.523
534.500	341.860	80.016	19.992	103.184	19.899	0.661	0.494
535.000	342.079	80.005	19.994	103.185	19.895	0.914	0.493
535.500	342.317	80.009	19.993	103.192	19.897	0.809	0.472
536.000	342.597	80.010	19.993	103.193	19.895	0.969	0.488
536.500	342.809	80.007	19.994	103.193	19.899	0.630	0.505
537.000	343.069	80.010	19.994	103.193	19.900	0.591	0.482
537.500	343.339	80.009	19.994	103.190	19.896	0.879	0.501
538.000	343.600	80.007	19.994	103.183	19.900	0.580	0.531
538.500	343.833	80.004	19.995	103.179	19.904	0.331	0.512
539.000	344.062	80.008	19.995	103.176	19.897	0.766	0.477
539.500	344.290	80.007	19.994	103.173	19.899	0.679	0.459
540.000	344.570	79.996	19.996	103.172	19.901	0.531	0.482
540.500	344.818	80.009	19.996	103.170	19.901	0.482	0.518
541.000	345.111	80.013	19.993	103.170	19.899	0.638	0.535
541.500	345.342	80.000	19.995	103.172	19.899	0.646	0.533
542.000	345.608	80.008	19.995	103.173	19.900	0.552	0.511
542.500	345.878	80.012	19.993	103.176	19.898	0.751	0.516
543.000	346.157	80.017	19.994	103.186	19.901	0.492	0.543
543.500	346.415	80.010	19.995	103.195	19.899	0.622	0.543
544.000	346.651	80.009	19.995	103.193	19.905	0.257	0.515
544.500	346.899	80.013	19.994	103.192	19.904	0.263	0.489
545.000	347.146	80.007	19.996	103.192	19.901	0.494	0.489
545.500	347.382	80.011	19.994	103.187	19.901	0.513	0.489
546.000	347.633	80.008	19.996	103.179	19.903	0.397	0.485
546.500	347.872	80.011	19.995	103.178	19.899	0.640	0.489
547.000	348.118	80.007	19.995	103.180	19.905	0.259	0.488
547.500	348.386	80.010	19.995	103.181	19.896	0.840	0.499
548.000	348.666	80.008	19.996	103.179	19.900	0.580	0.531
548.500	348.907	80.010	19.995	103.177	19.901	0.529	0.535
549.000	349.145	80.006	19.995	103.178	19.903	0.383	0.500
549.500	349.415	80.008	19.996	103.175	19.904	0.288	0.493
550.000	349.689	79.997	19.994	103.172	19.900	0.603	0.526
550.500	349.964	80.010	19.995	103.171	19.904	0.333	0.547
551.000	350.164	80.010	19.995	103.174	19.902	0.473	0.512
551.500	350.409	79.996	19.996	103.177	19.905	0.230	0.460
552.000	350.670	80.008	19.992	103.175	19.902	0.440	0.475
552.500	350.942	80.000	19.997	103.179	19.903	0.375	0.519
553.000	351.198	80.006	19.995	103.181	19.904	0.290	0.530
553.500	351.446	80.007	19.996	103.181	19.906	0.179	0.516
554.000	351.719	80.005	19.996	103.179	19.902	0.476	0.513
554.500	351.993	80.013	19.994	103.182	19.903	0.405	0.534
555.000	352.241	80.009	19.995	103.180	19.907	0.115	0.534
555.500	352.508	80.000	19.996	103.182	19.906	0.156	0.518
556.000	352.754	80.005	19.996	103.183	19.906	0.138	0.514
556.500	353.006	80.005	19.995	103.181	19.907	0.066	0.506
557.000	353.273	80.008	19.995	103.180	19.905	0.194	0.508
557.500	353.513	80.008	19.995	103.179	19.908	-0.006	0.513
558.000	353.795	80.011	19.996	103.177	19.907	0.095	0.515
558.500	354.020	80.009	19.996	103.176	19.907	0.093	0.515
559.000	354.291	80.009	19.996	103.178	19.904	0.300	0.501
559.500	354.568	80.010	19.996	103.178	19.904	0.268	0.522
560.000	354.791	80.011	19.994	103.179	19.905	0.224	0.524
560.500	355.070	80.010	19.995	103.179	19.906	0.167	0.501
561.000	355.349	80.011	19.994	103.177	19.908	-0.016	0.530
561.500	355.547	80.010	19.994	103.178	19.905	0.202	0.517
562.000	355.784	80.006	19.994	103.178	19.905	0.194	0.456
562.500	356.055	80.013	19.995	103.179	19.905	0.191	0.472
563.000	356.308	80.007	19.994	103.178	19.905	0.191	0.516
563.500	356.592	79.998	19.996	103.178	19.910	-0.113	0.531
564.000	356.845	79.999	19.996	103.174	19.910	-0.113	0.537
564.500	357.106	80.009	19.994	103.172	19.909	-0.072	0.525
565.000	357.314	80.001	19.996	103.172	19.906	0.128	0.492
565.500	357.597	80.012	19.995	103.170	19.906	0.158	0.480
566.000	357.839	80.003	19.996	103.169	19.905	0.210	0.508
566.500	358.086	80.007	19.994	103.172	19.908	0.035	0.507
567.000	358.328	80.003	19.996	103.172	19.910	-0.138	0.489
567.500	358.613	80.012	19.995	103.171	19.908	0.047	0.508
568.000	358.868	80.000	19.996	103.174	19.908	0.033	0.534
568.500	359.115	80.008	19.995	103.174	19.905	0.249	0.521
569.000	359.348	80.004	19.996	103.175	19.906	0.161	0.491
569.500	359.614	80.003	19.994	103.176	19.905	0.208	0.490
570.000	359.857	80.007	19.994	103.175	19.906	0.175	0.504
570.500	360.172	80.010	19.995	103.175	19.908	-0.018	0.533
571.000	360.434	80.006	19.994	103.178	19.911	-0.185	0.568
571.500	360.657	80.005	19.995	103.178	19.910	-0.109	0.531
572.000	360.878	80.013	19.994	103.176	19.906	0.183	0.465
572.500	361.142	80.006	19.994	103.178	19.907	0.086	0.464
573.000	361.401	80.003	19.997	103.177	19.912	-0.251	0.504
573.500	361.666	80.012	19.994	103.174	19.910	-0.159	0.523
574.000	361.945	80.005	19.993	103.175	19.906	0.167	0.534
574.500	362.203	80.008	19.994	103.177	19.909	-0.053	0.541
575.000	362.457	79.989	19.997	103.177	19.907	0.097	0.524
575.500	362.688	80.004	19.994	103.174	19.912	-0.307	0.499
576.000	362.939	80.014	19.993	103.175	19.910	-0.132	0.484
576.500	363.182	80.017	19.993	103.176	19.908	-0.021	0.488
577.000	363.402	80.007	19.996	103.177	19.910	-0.123	0.478
577.500	363.704	80.007	19.995	103.176	19.909	-0.078	0.492
578.000	363.925	80.010	19.994	103.184	19.914	-0.412	0.522
578.500	364.164	80.008	19.994	103.186	19.913	-0.329	0.491
579.000	364.448	80.013	19.993	103.184	19.912	-0.296	0.492
579.500	364.696	80.014	19.993	103.184	19.908	-0.016	0.528
580.000	364.939	80.012	19.993	103.188	19.911	-0.208	0.512
580.500	365.195	80.009	19.995	103.186	19.913	-0.373	0.495
581.000	365.432	80.016	19.994	103.184	19.910	-0.134	0.496
581.500	365.731	80.010	19.993	103.187	19.911	-0.196	0.514
582.000	365.939	79.991	19.996	103.189	19.907	0.074	0.522
582.500	366.207	80.008	19.994	103.182	19.913	-0.336	0.491
583.000	366.429	80.011	19.993	103.183	19.908	0.031	0.483
583.500	366.697	80.014	19.994	103.184	19.915	-0.486	0.490
584.000	366.923	80.003	19.994	103.182	19.911	-0.195	0.492
584.500	367.154	80.000	19.995	103.179	19.913	-0.366	0.475
585.000	367.447	79.997	19.996	103.179	19.912	-0.276	0.490
585.500	367.637	80.018	19.995	103.175	19.911	-0.210	0.503
586.000	367.906	80.008	19.995	103.172	19.912	-0.257	0.471
586.500	368.176	80.008	19.993	103.172	19.912	-0.278	0.500
587.000	368.442	79.994	19.997	103.174	19.911	-0.181	0.538
587.500	368.712	80.011	19.994	103.173	19.912	-0.266	0.536
588.000	368.920	80.007	19.994	103.177	19.914	-0.389	0.506
588.500	369.226	80.001	19.994	103.177	19.913	-0.381	0.496
589.000	369.461	80.001	19.995	103.176	19.914	-0.397	0.528
589.500	369.725	80.015	19.992	103.174	19.913	-0.354	0.520
590.000	369.965	80.003	19.994	103.179	19.917	-0.638	0.501
590.500	370.225	80.013	19.995	103.177	19.913	-0.364	0.502
591.000	370.478	80.011	19.992	103.178	19.912	-0.239	0.507
591.500	370.745	80.008	19.995	103.180	19.913	-0.377	0.517
592.000	370.972	80.008	19.995	103.181	19.920	-0.852	0.507
592.500	371.208	80.012	19.993	103.179	19.915	-0.473	0.478
593.000	371.444	80.007	19.995	103.182	19.920	-0.829	0.467
593.500	371.683	80.011	19.993	103.179	19.912	-0.239	0.474
594.000	371.976	80.008	19.995	103.179	19.910	-0.163	0.504
594.500	372.238	80.004	19.995	103.179	19.913	-0.379	0.543
595.000	372.463	80.005	19.994	103.179	19.910	-0.148	0.521
595.500	372.697	80.009	19.995	103.177	19.914	-0.383	0.473
596.000	372.963	80.011	19.992	103.178	19.912	-0.278	0.480
596.500	373.207	80.009	19.994	103.178	19.916	-0.525	0.505
597.000	373.489	80.002	19.995	103.180	19.913	-0.358	0.518
597.500	373.754	80.003	19.995	103.178	19.913	-0.370	0.537
598.000	374.012	80.009	19.994	103.177	19.913	-0.370	0.535
598.500	374.241	80.012	19.994	103.180	19.915	-0.459	0.505
599.000	374.520	80.024	19.992	103.179	19.914	-0.443	0.498
599.500	374.720	79.996	19.995	103.180	19.917	-0.632	0.493
600.000	374.980	80.023	19.993	103.177	19.917	-0.655	0.469
600.500	375.235	80.006	19.995	103.179	19.914	-0.432	0.487
601.000	375.526	80.017	19.993	103.176	19.917	-0.601	0.531
601.500	375.793	80.014	19.993	103.177	19.915	-0.496	0.552
602.000	376.053	80.016	19.993	103.175	19.913	-0.375	0.543
602.500	376.278	80.006	19.994	103.182	19.914	-0.405	0.506
603.000	376.524	80.020	19.993	103.179	19.915	-0.523	0.478
603.500	376.763	80.013	19.993	103.184	19.917	-0.630	0.477
604.000	377.011	80.020	19.993	103.185	19.914	-0.441	0.486
604.500	377.295	80.008	19.993	103.185	19.916	-0.541	0.510
605.000	377.558	80.008	19.996	103.182	19.914	-0.426	0.539
605.500	377.781	80.008	19.995	103.182	19.913	-0.379	0.516
606.000	378.006	80.014	19.996	103.177	19.915	-0.480	0.467
606.500	378.269	80.013	19.997	103.174	19.916	-0.556	0.468
607.000	378.545	80.019	19.993	103.171	19.916	-0.589	0.513
607.500	378.785	80.013	19.995	103.173	19.917	-0.632	0.527
608.000	379.036	80.012	19.993	103.174	19.916	-0.535	0.504
608.500	379.316	80.017	19.993	103.176	19.920	-0.867	0.512
609.000	379.533	80.008	19.993	103.178	19.916	-0.531	0.514
609.500	379.802	80.020	19.993	103.179	19.916	-0.580	0.491
610.000	380.069	80.017	19.994	103.179	19.911	-0.224	0.511
610.500	380.286	79.997	19.998	103.180	19.918	-0.710	0.510
611.000	380.568	80.013	19.993	103.175	19.912	-0.272	0.491
611.500	380.794	80.009	19.995	103.175	19.915	-0.500	0.503
612.000	381.063	80.015	19.994	103.174	19.916	-0.543	0.501
612.500	381.277	80.018	19.993	103.174	19.918	-0.723	0.489
613.000	381.541	80.007	19.996	103.176	19.914	-0.422	0.481
613.500	381.769	80.002	19.996	103.178	19.912	-0.249	0.485
614.000	382.041	80.008	19.994	103.174	19.919	-0.743	0.496
614.500	382.303	80.001	19.995	103.176	19.911	-0.187	0.517
615.000	382.548	80.015	19.995	103.172	19.914	-0.436	0.520
615.500	382.755	80.009	19.995	103.170	19.917	-0.663	0.479
616.000	383.034	80.012	19.994	103.170	19.912	-0.276	0.469
616.500	383.265	80.006	19.996	103.174	19.919	-0.749	0.498
617.000	383.544	79.995	19.996	103.170	19.916	-0.531	0.510
617.500	383.820	80.012	19.995	103.170	19.918	-0.704	0.533
618.000	384.013	80.007	19.995	103.168	19.917	-0.603	0.512
618.500	384.289	80.011	19.994	103.168	19.919	-0.801	0.469
619.000	384.515	80.010	19.995	103.167	19.919	-0.758	0.486
619.500	384.773	80.009	19.995	103.170	19.917	-0.642	0.494
620.000	384.975	80.006	19.995	103.171	19.915	-0.511	0.472
620.500	385.277	80.018	19.995	103.170	19.919	-0.794	0.481
621.000	385.512	80.004	19.997	103.171	19.918	-0.669	0.521
621.500	385.768	80.009	19.995	103.167	19.917	-0.632	0.514
622.000	386.036	80.011	19.994	103.166	19.917	-0.626	0.507
622.500	386.284	80.012	19.994	103.166	19.919	-0.778	0.520
623.000	386.554	80.003	19.994	103.168	19.919	-0.784	0.517
623.500	386.763	79.994	19.996	103.168	19.919	-0.809	0.498
624.000	387.005	80.013	19.992	103.168	19.920	-0.846	0.465
624.500	387.308	80.016	19.993	103.170	19.924	-1.111	0.498
625.000	387.515	80.013	19.995	103.170	19.924	-1.138	0.527
625.500	387.764	79.993	19.997	103.167	19.922	-0.976	0.483
626.000	388.044	80.011	19.995	103.162	19.922	-1.011	0.492
626.500	388.285	80.001	19.995	103.165	19.920	-0.827	0.525
627.000	388.537	80.010	19.994	103.165	19.921	-0.906	0.507
627.500	388.756	80.003	19.994	103.168	19.921	-0.936	0.482
628.000	388.977	80.004	19.997	103.169	19.921	-0.941	0.456
628.500	389.229	80.004	19.995	103.170	19.922	-1.009	0.457
629.000	389.488	80.010	19.994	103.169	19.921	-0.934	0.492
629.500	389.813	80.009	19.994	103.168	19.922	-0.990	0.547
630.000	390.029	80.008	19.994	103.166	19.924	-1.099	0.563
630.500	390.278	80.008	19.994	103.165	19.920	-0.848	0.503
631.000	390.529	80.011	19.994	103.169	19.916	-0.535	0.482
631.500	390.766	80.002	19.995	103.170	19.918	-0.683	0.494
632.000	391.061	80.017	19.993	103.169	19.919	-0.747	0.510
632.500	391.290	80.009	19.994	103.174	19.920	-0.867	0.528
633.000	391.576	80.005	19.997	103.175	19.919	-0.803	0.519
633.500	391.807	80.003	19.995	103.173	19.918	-0.735	0.516
634.000	392.071	80.003	19.995	103.173	19.924	-1.111	0.506
634.500	392.294	80.006	19.994	103.176	19.921	-0.910	0.491
635.000	392.550	80.006	19.996	103.173	19.919	-0.801	0.483
635.500	392.793	80.005	19.996	103.174	19.925	-1.237	0.489
636.000	393.061	79.998	19.996	103.175	19.918	-0.720	0.505
636.500	393.344	80.010	19.994	103.174	19.921	-0.928	0.531
637.000	393.641	80.013	19.995	103.179	19.926	-1.264	0.565
637.500	393.912	80.012	19.994	103.181	19.922	-1.017	0.574
638.000	394.135	80.015	19.994	103.183	19.925	-1.206	0.531
638.500	394.377	79.994	19.997	103.185	19.922	-0.998	0.479
639.000	394.624	79.993	19.996	103.183	19.925	-1.188	0.477
639.500	394.873	80.006	19.995	103.175	19.925	-1.208	0.492
640.000	395.108	80.013	19.996	103.173	19.925	-1.225	0.490
640.500	395.392	80.010	19.996	103.169	19.918	-0.690	0.502
641.000	395.632	79.989	19.997	103.170	19.923	-1.072	0.521
641.500	395.893	80.004	19.996	103.169	19.923	-1.033	0.512
642.000	396.110	80.004	19.996	103.171	19.926	-1.268	0.490
642.500	396.327	80.017	19.995	103.170	19.926	-1.256	0.456
643.000	396.616	80.003	19.997	103.172	19.924	-1.112	0.470
643.500	396.881	80.008	19.994	103.170	19.927	-1.354	0.530
644.000	397.159	80.022	19.995	103.176	19.924	-1.111	0.549
644.500	397.377	80.013	19.995	103.178	19.923	-1.078	0.520
645.000	397.583	79.994	19.996	103.180	19.921	-0.941	0.460
645.500	397.850	79.994	19.997	103.177	19.925	-1.237	0.449
646.000	398.106	80.018	19.995	103.174	19.926	-1.241	0.498
646.500	398.366	80.003	19.996	103.173	19.928	-1.385	0.519
647.000	398.586	79.995	19.997	103.170	19.927	-1.354	0.498
647.500	398.874	79.995	19.996	103.167	19.930	-1.577	0.494
648.000	399.133	80.019	19.995	103.168	19.929	-1.500	0.528
648.500	399.409	80.011	19.995	103.173	19.926	-1.278	0.541
649.000	399.642	79.997	19.995	103.175	19.924	-1.118	0.522
649.500	399.881	79.997	19.996	103.174	19.929	-1.496	0.491
650.000	400.138	80.013	19.996	103.172	19.927	-1.373	0.484
650.500	400.414	80.013	19.994	103.173	19.922	-0.969	0.514
651.000	400.648	80.006	19.995	103.170	19.926	-1.245	0.521
651.500	400.918	80.004	19.996	103.163	19.927	-1.336	0.507
652.000	401.174	80.009	19.996	103.162	19.927	-1.319	0.515
652.500	401.380	79.993	19.997	103.165	19.929	-1.517	0.494
653.000	401.655	80.004	19.995	103.163	19.928	-1.404	0.472
653.500	401.901	80.002	19.996	103.163	19.928	-1.451	0.501
654.000	402.180	80.014	19.994	103.168	19.930	-1.579	0.523
654.500	402.379	80.002	19.996	103.173	19.926	-1.278	0.501
655.000	402.652	80.005	19.994	103.174	19.926	-1.309	0.474
655.500	402.890	80.003	19.995	103.177	19.929	-1.480	0.491
656.000	403.153	80.001	19.996	103.177	19.929	-1.467	0.506
656.500	403.408	80.011	19.994	103.175	19.928	-1.447	0.510
657.000	403.687	80.007	19.994	103.174	19.926	-1.260	0.526
657.500	403.900	80.007	19.994	103.171	19.934	-1.883	0.512
658.000	404.142	80.007	19.993	103.171	19.934	-1.846	0.473
658.500	404.410	80.011	19.994	103.172	19.933	-1.782	0.483
659.000	404.669	80.003	19.995	103.175	19.928	-1.389	0.518
659.500	404.897	80.018	19.993	103.173	19.932	-1.721	0.507
660.000	405.144	80.004	19.994	103.179	19.931	-1.665	0.481
660.500	405.401	80.001	19.996	103.179	19.932	-1.671	0.489
661.000	405.684	79.999	19.996	103.178	19.927	-1.371	0.522
661.500	405.911	80.012	19.994	103.175	19.930	-1.531	0.525
662.000	406.183	80.004	19.993	103.177	19.932	-1.721	0.505
662.500	406.409	79.999	19.996	103.171	19.928	-1.435	0.499
663.000	406.688	80.009	19.993	103.166	19.928	-1.445	0.501
663.500	406.889	80.008	19.994	103.167	19.929	-1.513	0.493
664.000	407.166	80.005	19.994	103.167	19.933	-1.752	0.479
664.500	407.411	80.005	19.994	103.166	19.930	-1.568	0.500
665.000	407.665	80.008	19.993	103.169	19.932	-1.733	0.510
665.500	407.953	80.013	19.994	103.175	19.935	-1.889	0.521
666.000	408.160	79.998	19.995	103.177	19.933	-1.772	0.518
666.500	408.389	79.999	19.995	103.177	19.931	-1.620	0.466
667.000	408.645	80.009	19.995	103.176	19.932	-1.733	0.461
667.500	408.912	80.011	19.995	103.176	19.931	-1.624	0.504
668.000	409.185	80.004	19.994	103.176	19.931	-1.643	0.531
668.500	409.398	80.001	19.994	103.172	19.931	-1.667	0.512
669.000	409.630	80.009	19.994	103.173	19.935	-1.914	0.465
669.500	409.902	80.014	19.994	103.175	19.929	-1.523	0.475
670.000	410.163	80.007	19.995	103.175	19.933	-1.764	0.519
670.500	410.433	80.018	19.993	103.173	19.929	-1.505	0.532
671.000	410.668	80.003	19.996	103.179	19.936	-1.997	0.519
671.500	410.916	80.001	19.996	103.178	19.934	-1.875	0.494
672.000	411.165	80.001	19.996	103.175	19.935	-1.931	0.489
672.500	411.427	80.011	19.995	103.173	19.933	-1.766	0.504
673.000	411.659	80.013	19.995	103.175	19.931	-1.649	0.503
673.500	411.908	80.023	19.994	103.172	19.933	-1.783	0.487
674.000	412.183	80.014	19.995	103.176	19.934	-1.840	0.502
674.500	412.384	80.019	19.992	103.177	19.936	-1.974	0.501
675.000	412.670	80.014	19.994	103.179	19.936	-1.984	0.482
675.500	412.916	80.014	19.995	103.180	19.937	-2.034	0.509
676.000	413.164	80.010	19.997	103.181	19.933	-1.764	0.513
676.500	413.404	80.007	19.993	103.176	19.935	-1.948	0.491
677.000	413.684	80.009	19.996	103.176	19.934	-1.816	0.504
677.500	413.932	80.011	19.994	103.169	19.934	-1.845	0.524
678.000	414.169	80.011	19.994	103.162	19.934	-1.832	0.507
678.500	414.413	79.995	19.998	103.161	19.936	-1.976	0.483
679.000	414.634	80.003	19.996	103.159	19.935	-1.910	0.473
679.500	414.892	80.006	19.995	103.157	19.938	-2.110	0.472
680.000	415.144	80.015	19.996	103.162	19.934	-1.834	0.494
680.500	415.449	80.018	19.994	103.166	19.936	-2.007	0.533
681.000	415.657	80.002	19.995	103.165	19.937	-2.096	0.535
681.500	415.860	80.015	19.995	103.163	19.937	-2.081	0.462
682.000	416.122	80.002	19.993	103.163	19.941	-2.384	0.438
682.500	416.414	80.004	19.995	103.158	19.936	-1.991	0.510
683.000	416.668	80.007	19.993	103.152	19.941	-2.380	0.550
683.500	416.925	80.004	19.994	103.148	19.940	-2.263	0.528
684.000	417.138	80.009	19.995	103.151	19.939	-2.221	0.490
684.500	417.397	80.014	19.993	103.154	19.941	-2.349	0.471
685.000	417.654	80.014	19.994	103.159	19.941	-2.324	0.494
685.500	417.904	80.008	19.996	103.165	19.944	-2.557	0.512
686.000	418.147	80.020	19.994	103.166	19.944	-2.596	0.500
686.500	418.390	80.004	19.994	103.165	19.944	-2.552	0.489
687.000	418.656	80.016	19.994	103.158	19.941	-2.320	0.498
687.500	418.909	80.009	19.995	103.156	19.945	-2.649	0.514
688.000	419.142	80.017	19.993	103.156	19.944	-2.573	0.502
688.500	419.411	80.022	19.994	103.159	19.940	-2.305	0.494
689.000	419.607	80.007	19.997	103.166	19.944	-2.585	0.484
689.500	419.905	80.013	19.994	103.167	19.939	-2.186	0.480
690.000	420.127	80.017	19.994	103.166	19.940	-2.293	0.507
690.500	420.340	80.009	19.994	103.162	19.936	-1.976	0.477
691.000	420.610	80.006	19.994	103.155	19.942	-2.406	0.459
691.500	420.843	80.003	19.995	103.147	19.943	-2.485	0.493
692.000	421.108	80.004	19.995	103.151	19.938	-2.153	0.500
692.500	421.328	80.011	19.996	103.152	19.943	-2.503	0.491
693.000	421.624	80.002	19.994	103.157	19.943	-2.512	0.500
693.500	421.811	80.006	19.995	103.161	19.942	-2.398	0.500
694.000	422.107	80.006	19.994	103.161	19.945	-2.631	0.483
694.500	422.351	80.005	19.994	103.155	19.944	-2.555	0.511
695.000	422.547	79.998	19.996	103.156	19.945	-2.602	0.490
695.500	422.813	80.005	19.995	103.150	19.941	-2.316	0.451
696.000	423.083	80.018	19.994	103.151	19.938	-2.151	0.499
696.500	423.321	80.018	19.993	103.157	19.939	-2.229	0.522
697.000	423.561	80.014	19.993	103.166	19.939	-2.207	0.493
697.500	423.813	80.011	19.995	103.167	19.939	-2.236	0.485
698.000	424.073	80.009	19.994	103.172	19.942	-2.448	0.502
698.500	424.301	80.010	19.994	103.171	19.940	-2.298	0.500
699.000	424.544	80.024	19.993	103.170	19.939	-2.215	0.480
699.500	424.787	80.008	19.996	103.171	19.940	-2.246	0.478
700.000	425.047	80.018	19.994	103.168	19.939	-2.240	0.494
700.500	425.280	79.999	19.997	103.171	19.939	-2.193	0.498
701.000	425.539	80.012	19.996	103.168	19.937	-2.057	0.493
701.500	425.763	80.000	19.996	103.169	19.935	-1.933	0.488
702.000	426.058	80.011	19.993	103.162	19.940	-2.271	0.501
702.500	426.285	80.013	19.993	103.161	19.939	-2.194	0.520
703.000	426.488	80.007	19.996	103.153	19.939	-2.215	0.476
703.500	426.734	79.998	19.994	103.149	19.940	-2.285	0.439
704.000	427.012	80.010	19.994	103.145	19.941	-2.330	0.487
704.500	427.273	80.009	19.993	103.150	19.938	-2.100	0.532
705.000	427.466	80.000	19.995	103.154	19.944	-2.582	0.496
705.500	427.751	80.012	19.993	103.159	19.943	-2.505	0.466
706.000	427.956	80.002	19.996	103.169	19.940	-2.301	0.484
706.500	428.216	80.013	19.994	103.168	19.940	-2.268	0.477
707.000	428.466	79.999	19.996	103.166	19.939	-2.231	0.488
707.500	428.752	80.012	19.993	103.162	19.943	-2.505	0.523
708.000	428.963	79.995	19.996	103.162	19.937	-2.056	0.516
708.500	429.231	80.011	19.995	103.158	19.938	-2.114	0.488
709.000	429.467	80.008	19.995	103.154	19.938	-2.161	0.492
709.500	429.693	80.013	19.995	103.150	19.943	-2.503	0.483
710.000	429.963	80.018	19.993	103.149	19.937	-2.056	0.479
710.500	430.184	79.996	19.997	103.150	19.939	-2.186	0.494
711.000	430.407	80.009	19.993	103.145	19.945	-2.627	0.468
711.500	430.700	80.010	19.996	103.148	19.935	-1.886	0.480
712.000	430.922	80.009	19.996	103.153	19.941	-2.330	0.515
712.500	431.177	80.011	19.996	103.155	19.942	-2.448	0.496
713.000	431.419	80.013	19.995	103.151	19.938	-2.153	0.487
713.500	431.658	80.007	19.994	103.157	19.941	-2.359	0.489
714.000	431.951	80.014	19.993	103.155	19.941	-2.320	0.506
714.500	432.159	80.002	19.995	103.157	19.943	-2.524	0.516
715.000	432.384	80.007	19.994	103.155	19.940	-2.274	0.467
715.500	432.661	79.992	19.995	103.157	19.941	-2.340	0.467
716.000	432.925	80.014	19.994	103.157	19.941	-2.384	0.522
716.500	433.168	80.010	19.994	103.164	19.939	-2.229	0.524
717.000	433.452	80.002	19.995	103.160	19.941	-2.316	0.517
717.500	433.692	80.003	19.995	103.162	19.943	-2.462	0.526
718.000	433.927	80.005	19.993	103.161	19.939	-2.204	0.499
718.500	434.227	80.023	19.993	103.165	19.938	-2.124	0.505
719.000	434.436	80.011	19.995	103.169	19.943	-2.495	0.522
719.500	434.711	80.013	19.995	103.173	19.944	-2.557	0.496
720.000	434.977	80.009	19.995	103.177	19.940	-2.254	0.513
720.500	435.242	80.010	19.994	103.177	19.944	-2.544	0.536
721.000	435.458	79.998	19.994	103.173	19.942	-2.392	0.506
721.500	435.717	80.011	19.995	103.163	19.947	-2.808	0.478
722.000	435.985	80.011	19.994	103.161	19.943	-2.466	0.501
722.500	436.221	80.016	19.993	103.163	19.942	-2.404	0.515
723.000	436.463	80.003	19.996	103.163	19.939	-2.227	0.490
723.500	436.736	80.003	19.994	103.160	19.943	-2.474	0.496
724.000	436.966	80.003	19.994	103.160	19.941	-2.334	0.509
724.500	437.260	80.009	19.994	103.162	19.946	-2.703	0.514
725.000	437.498	80.006	19.995	103.162	19.946	-2.691	0.528
725.500	437.740	80.016	19.993	103.165	19.934	-1.851	0.507
726.000	437.987	80.006	19.996	103.169	19.942	-2.452	0.484
726.500	438.294	80.010	19.995	103.167	19.942	-2.433	0.521
727.000	438.531	80.015	19.993	103.167	19.940	-2.277	0.549
727.500	438.789	80.010	19.996	103.170	19.947	-2.783	0.520
728.000	439.035	80.013	19.992	103.168	19.940	-2.262	0.499
728.500	439.294	80.004	19.994	103.168	19.941	-2.340	0.505
729.000	439.547	80.002	19.994	103.169	19.943	-2.497	0.509
729.500	439.776	80.006	19.995	103.163	19.940	-2.244	0.497
730.000	440.068	80.002	19.994	103.156	19.945	-2.656	0.501
730.500	440.323	80.016	19.993	103.153	19.941	-2.376	0.534
731.000	440.546	80.002	19.996	103.156	19.945	-2.645	0.512
731.500	440.824	80.004	19.994	103.158	19.944	-2.587	0.490
732.000	441.112	80.001	19.995	103.163	19.947	-2.746	0.534
732.500	441.346	80.011	19.993	103.166	19.944	-2.561	0.544
733.000	441.559	80.019	19.994	103.174	19.945	-2.610	0.485
733.500	441.850	80.011	19.995	103.174	19.944	-2.594	0.476
734.000	442.108	80.010	19.993	103.171	19.945	-2.631	0.526
734.500	442.334	79.995	19.996	103.169	19.943	-2.479	0.517
735.000	442.596	79.996	19.995	103.161	19.945	-2.606	0.486
735.500	442.903	80.018	19.995	103.152	19.948	-2.824	0.528
736.000	443.138	80.006	19.997	103.148	19.945	-2.668	0.555
736.500	443.406	80.007	19.997	103.150	19.949	-2.920	0.523
737.000	443.673	80.009	19.997	103.152	19.943	-2.500	0.519
737.500	443.915	80.006	19.996	103.160	19.950	-3.021	0.522
738.000	444.193	80.010	19.994	103.166	19.947	-2.759	0.514
738.500	444.420	80.004	19.997	103.166	19.951	-3.033	0.512
739.000	444.660	80.000	19.996	103.167	19.952	-3.152	0.486
739.500	444.951	80.012	19.993	103.166	19.942	-2.444	0.499
740.000	445.217	80.017	19.995	103.161	19.949	-2.919	0.544
740.500	445.493	80.007	19.997	103.159	19.948	-2.864	0.549
741.000	445.770	80.010	19.996	103.159	19.946	-2.715	0.548
741.500	445.994	80.009	19.994	103.161	19.950	-3.006	0.528
742.000	446.255	80.004	19.995	103.166	19.952	-3.139	0.493
742.500	446.546	80.004	19.994	103.169	19.947	-2.753	0.519
743.000	446.767	80.006	19.997	103.166	19.948	-2.846	0.532
743.500	447.043	80.005	19.996	103.163	19.947	-2.771	0.504
744.000	447.329	80.002	19.996	103.160	19.948	-2.831	0.529
744.500	447.569	80.014	19.993	103.156	19.952	-3.129	0.543
745.000	447.848	80.005	19.993	103.154	19.947	-2.769	0.522
745.500	448.124	80.011	19.994	103.157	19.947	-2.765	0.537
746.000	448.419	80.001	19.997	103.160	19.948	-2.858	0.563
746.500	448.658	80.013	19.995	103.155	19.948	-2.858	0.553
747.000	448.908	80.007	19.997	103.150	19.949	-2.907	0.512
747.500	449.150	80.005	19.996	103.146	19.948	-2.860	0.491
748.000	449.409	80.008	19.996	103.142	19.946	-2.682	0.496
748.500	449.705	80.005	19.996	103.141	19.952	-3.154	0.528
749.000	449.963	80.008	19.995	103.144	19.949	-2.956	0.555
749.500	450.252	80.005	19.995	103.145	19.951	-3.070	0.551
750.000	450.483	80.001	19.997	103.148	19.951	-3.036	0.533
750.500	450.777	80.019	19.993	103.148	19.953	-3.226	0.522
751.000	451.009	80.015	19.993	103.155	19.951	-3.063	0.525
751.500	451.263	80.009	19.995	103.160	19.953	-3.191	0.506
752.000	451.534	80.003	19.994	103.160	19.950	-3.010	0.505
752.500	451.831	80.011	19.996	103.158	19.950	-2.973	0.546
753.000	452.064	80.013	19.995	103.156	19.952	-3.140	0.549
753.500	452.324	80.007	19.995	103.146	19.951	-3.049	0.512
754.000	452.623	80.007	19.995	103.140	19.952	-3.164	0.526
754.500	452.878	80.013	19.995	103.145	19.956	-3.452	0.556
755.000	453.153	80.008	19.996	103.145	19.957	-3.457	0.542
755.500	453.454	80.010	19.994	103.148	19.952	-3.107	0.553
756.000	453.675	80.004	19.996	103.154	19.954	-3.300	0.549
756.500	453.945	80.005	19.994	103.153	19.953	-3.185	0.506
757.000	454.168	80.007	19.995	103.147	19.955	-3.354	0.492
757.500	454.437	80.012	19.995	103.151	19.956	-3.434	0.492
758.000	454.740	80.008	19.994	103.155	19.959	-3.604	0.532
758.500	455.029	80.008	19.995	103.151	19.951	-3.059	0.582
759.000	455.257	80.009	19.996	103.155	19.957	-3.485	0.554
759.500	455.546	80.011	19.996	103.157	19.954	-3.312	0.517
760.000	455.817	80.003	19.996	103.156	19.956	-3.452	0.539
760.500	456.059	80.012	19.995	103.155	19.953	-3.225	0.537
761.000	456.346	80.008	19.993	103.159	19.949	-2.943	0.521
761.500	456.607	80.009	19.994	103.162	19.955	-3.364	0.539
762.000	456.876	80.009	19.994	103.166	19.952	-3.162	0.538
762.500	457.120	80.011	19.995	103.163	19.956	-3.435	0.522
763.000	457.397	80.013	19.994	103.162	19.953	-3.205	0.517
763.500	457.658	80.011	19.995	103.157	19.955	-3.339	0.529
764.000	457.938	80.009	19.995	103.154	19.953	-3.232	0.539
764.500	458.203	80.010	19.994	103.152	19.957	-3.487	0.543
765.000	458.419	80.012	19.997	103.155	19.956	-3.409	0.513
765.500	458.726	80.001	19.996	103.153	19.956	-3.429	0.502
766.000	459.014	80.004	19.995	103.152	19.957	-3.475	0.559
766.500	459.273	80.014	19.993	103.150	19.958	-3.565	0.571
767.000	459.569	80.006	19.995	103.154	19.954	-3.275	0.551
767.500	459.838	80.006	19.994	103.154	19.954	-3.269	0.560
768.000	460.061	80.008	19.996	103.157	19.954	-3.275	0.529
768.500	460.324	80.002	19.995	103.160	19.952	-3.141	0.489
769.000	460.584	80.006	19.995	103.164	19.952	-3.133	0.505
769.500	460.869	80.015	19.994	103.160	19.951	-3.092	0.534
770.000	461.139	80.007	19.995	103.164	19.957	-3.477	0.550
770.500	461.404	80.025	19.992	103.164	19.957	-3.516	0.545
771.000	461.667	80.013	19.994	103.170	19.956	-3.387	0.531
771.500	461.933	80.004	19.995	103.173	19.960	-3.706	0.529
772.000	462.186	79.994	19.995	103.170	19.960	-3.695	0.524
772.500	462.472	80.010	19.993	103.167	19.958	-3.551	0.529
773.000	462.763	80.024	19.992	103.173	19.959	-3.631	0.558
773.500	462.991	79.997	19.995	103.175	19.957	-3.508	0.547
774.000	463.259	80.016	19.994	103.170	19.957	-3.469	0.508
774.500	463.467	80.003	19.995	103.175	19.961	-3.759	0.487
775.000	463.771	80.001	19.995	103.174	19.960	-3.737	0.494
775.500	464.013	80.010	19.993	103.167	19.959	-3.665	0.529
776.000	464.290	80.021	19.994	103.162	19.962	-3.854	0.533
776.500	464.559	80.015	19.994	103.168	19.960	-3.693	0.532
777.000	464.815	80.013	19.993	103.164	19.964	-3.994	0.535
777.500	465.089	80.011	19.994	103.164	19.958	-3.537	0.527
778.000	465.325	80.011	19.991	103.165	19.962	-3.854	0.520
778.500	465.557	80.004	19.996	103.165	19.963	-3.896	0.489
779.000	465.811	80.018	19.994	103.158	19.959	-3.605	0.477
779.500	466.109	79.996	19.996	103.157	19.959	-3.610	0.519
780.000	466.374	80.018	19.994	103.154	19.967	-4.178	0.558
780.500	466.626	80.006	19.995	103.152	19.964	-3.992	0.540
781.000	466.899	80.004	19.994	103.150	19.962	-3.836	0.521
781.500	467.186	80.005	19.996	103.151	19.966	-4.138	0.543
782.000	467.441	80.010	19.993	103.151	19.966	-4.148	0.551
782.500	467.666	80.013	19.995	103.156	19.955	-3.368	0.511
783.000	467.935	80.003	19.995	103.160	19.955	-3.319	0.487
783.500	468.214	80.016	19.994	103.155	19.966	-4.120	0.521
784.000	468.497	80.011	19.994	103.156	19.964	-3.970	0.555
784.500	468.752	80.007	19.995	103.155	19.958	-3.549	0.550
785.000	469.007	80.010	19.997	103.154	19.970	-4.404	0.524
785.500	469.257	80.007	19.994	103.149	19.963	-3.901	0.507
786.000	469.530	80.011	19.995	103.151	19.964	-4.006	0.514
786.500	469.797	80.011	19.993	103.152	19.960	-3.698	0.532
787.000	470.069	80.012	19.994	103.153	19.962	-3.844	0.540
787.500	470.338	80.021	19.991	103.152	19.962	-3.856	0.540
788.000	470.587	80.018	19.994	103.156	19.968	-4.254	0.529
788.500	470.859	80.007	19.994	103.155	19.964	-3.988	0.519
789.000	471.105	79.999	19.994	103.149	19.965	-4.077	0.519
789.500	471.418	80.010	19.994	103.143	19.961	-3.751	0.539
790.000	471.660	80.008	19.993	103.142	19.964	-3.961	0.557
790.500	471.900	80.009	19.992	103.138	19.964	-3.976	0.518
791.000	472.143	80.011	19.993	103.137	19.963	-3.898	0.482
791.500	472.408	80.010	19.993	103.143	19.967	-4.229	0.495
792.000	472.688	80.010	19.992	103.150	19.967	-4.210	0.527
792.500	472.933	80.004	19.995	103.150	19.964	-4.004	0.535
793.000	473.188	80.007	19.993	103.149	19.961	-3.795	0.513
793.500	473.466	80.008	19.993	103.150	19.966	-4.101	0.516
794.000	473.743	80.011	19.994	103.147	19.964	-4.017	0.544
794.500	474.023	80.004	19.995	103.145	19.968	-4.254	0.556
795.000	474.261	80.016	19.989	103.146	19.967	-4.219	0.538
795.500	474.512	80.003	19.998	103.150	19.963	-3.924	0.503
796.000	474.798	80.017	19.995	103.148	19.966	-4.153	0.513
796.500	475.024	80.004	19.993	103.147	19.968	-4.299	0.525
797.000	475.297	80.011	19.992	103.149	19.965	-4.073	0.505
797.500	475.558	80.011	19.995	103.150	19.962	-3.856	0.516
798.000	475.825	80.010	19.992	103.147	19.969	-4.334	0.531
798.500	476.069	80.011	19.993	103.148	19.968	-4.289	0.519
799.000	476.319	80.006	19.996	103.148	19.969	-4.318	0.503
799.500	476.598	80.008	19.992	103.145	19.959	-3.659	0.512
800.000	476.810	80.009	19.994	103.144	19.968	-4.281	0.510
800.500	477.096	80.013	19.993	103.142	19.967	-4.223	0.495
801.000	477.350	80.011	19.994	103.141	19.961	-3.772	0.519
801.500	477.613	80.010	19.994	103.142	19.966	-4.143	0.528
802.000	477.912	80.018	19.995	103.143	19.966	-4.100	0.539
802.500	478.121	80.011	19.994	103.143	19.968	-4.306	0.535
803.000	478.389	80.016	19.994	103.146	19.968	-4.287	0.493
803.500	478.656	79.995	19.995	103.149	19.970	-4.445	0.506
804.000	478.869	80.002	19.997	103.145	19.966	-4.143	0.507
804.500	479.171	80.009	19.996	103.143	19.967	-4.199	0.498
805.000	479.432	80.006	19.996	103.142	19.968	-4.264	0.539
805.500	479.652	80.005	19.996	103.140	19.965	-4.034	0.522
806.000	479.934	80.010	19.997	103.137	19.975	-4.796	0.491
806.500	480.197	80.009	19.996	103.140	19.974	-4.701	0.523
807.000	480.417	80.011	19.995	103.143	19.969	-4.347	0.514
807.500	480.710	80.011	19.995	103.144	19.970	-4.411	0.498
808.000	480.965	80.007	19.996	103.145	19.974	-4.701	0.530
808.500	481.196	80.012	19.996	103.143	19.972	-4.543	0.517
809.000	481.431	80.012	19.994	103.142	19.969	-4.334	0.476
809.500	481.706	80.009	19.994	103.142	19.974	-4.695	0.488
810.000	481.961	80.009	19.995	103.139	19.967	-4.194	0.520
810.500	482.234	80.008	19.995	103.139	19.971	-4.519	0.529
811.000	482.457	80.013	19.994	103.139	19.972	-4.573	0.512
811.500	482.751	79.996	19.995	103.139	19.971	-4.521	0.506
812.000	482.991	80.017	19.997	103.134	19.970	-4.451	0.525
812.500	483.277	80.014	19.996	103.134	19.972	-4.536	0.531
813.000	483.507	80.000	19.996	103.138	19.971	-4.524	0.521
813.500	483.779	80.011	19.995	103.136	19.974	-4.700	0.509
814.000	483.998	80.010	19.996	103.136	19.971	-4.458	0.496
814.500	484.309	80.005	19.995	103.137	19.969	-4.353	0.511
815.000	484.531	79.998	19.995	103.137	19.971	-4.521	0.531
815.500	484.768	79.999	19.997	103.133	19.966	-4.104	0.496
816.000	485.059	80.010	19.994	103.133	19.971	-4.499	0.493
816.500	485.319	80.011	19.995	103.135	19.970	-4.404	0.540
817.000	485.607	80.010	19.995	103.136	19.969	-4.373	0.550
817.500	485.820	80.010	19.996	103.137	19.974	-4.713	0.524
818.000	486.080	80.004	19.996	103.137	19.971	-4.468	0.486
818.500	486.326	80.005	19.996	103.137	19.968	-4.301	0.490
819.000	486.612	80.005	19.995	103.134	19.966	-4.102	0.519
819.500	486.890	80.007	19.994	103.133	19.970	-4.413	0.548
820.000	487.140	80.011	19.996	103.133	19.971	-4.509	0.546
820.500	487.376	80.010	19.994	103.134	19.968	-4.299	0.507
821.000	487.634	80.008	19.994	103.139	19.972	-4.551	0.490
821.500	487.912	79.995	19.997	103.142	19.970	-4.388	0.515
822.000	488.188	80.014	19.994	103.142	19.972	-4.550	0.545
822.500	488.429	80.009	19.995	103.143	19.973	-4.647	0.535
823.000	488.658	80.011	19.995	103.143	19.970	-4.386	0.493
823.500	488.936	80.017	19.995	103.141	19.975	-4.789	0.489
824.000	489.194	80.011	19.992	103.140	19.969	-4.353	0.522
824.500	489.439	80.006	19.997	103.143	19.974	-4.732	0.519
825.000	489.662	80.004	19.995	103.143	19.972	-4.577	0.485
825.500	489.954	80.009	19.995	103.143	19.974	-4.742	0.492
826.000	490.189	80.009	19.996	103.142	19.970	-4.410	0.521
826.500	490.451	80.011	19.994	103.142	19.972	-4.565	0.512
827.000	490.687	80.007	19.994	103.142	19.970	-4.392	0.497
827.500	490.928	80.015	19.995	103.141	19.974	-4.680	0.488
828.000	491.183	80.007	19.995	103.141	19.971	-4.501	0.487
828.500	491.448	80.004	19.996	103.140	19.974	-4.680	0.508
829.000	491.682	80.016	19.996	103.140	19.968	-4.260	0.509
829.500	491.917	79.993	19.996	103.139	19.977	-4.933	0.484
830.000	492.178	80.007	19.995	103.136	19.974	-4.742	0.483
830.500	492.479	80.008	19.997	103.136	19.973	-4.604	0.529
831.000	492.686	80.005	19.996	103.137	19.974	-4.728	0.535
831.500	492.956	80.005	19.996	103.137	19.974	-4.707	0.493
832.000	493.227	80.008	19.996	103.136	19.975	-4.794	0.509
832.500	493.483	80.003	19.995	103.139	19.969	-4.372	0.534
833.000	493.711	80.006	19.996	103.138	19.971	-4.491	0.505
833.500	493.987	80.006	19.997	103.137	19.970	-4.398	0.494
834.000	494.251	80.011	19.995	103.136	19.974	-4.742	0.522
834.500	494.516	80.008	19.996	103.136	19.973	-4.647	0.534
835.000	494.731	79.997	19.998	103.136	19.972	-4.534	0.504
835.500	495.027	80.018	19.995	103.135	19.972	-4.555	0.496
836.000	495.256	80.009	19.993	103.139	19.973	-4.643	0.518
836.500	495.531	80.015	19.994	103.141	19.971	-4.458	0.514
837.000	495.751	80.006	19.997	103.141	19.972	-4.546	0.499
837.500	496.031	80.011	19.996	103.140	19.971	-4.497	0.497
838.000	496.295	80.000	19.995	103.142	19.969	-4.369	0.522
838.500	496.525	80.020	19.993	103.138	19.973	-4.641	0.519
839.000	496.796	80.009	19.995	103.140	19.972	-4.579	0.498
839.500	497.021	80.003	19.995	103.142	19.973	-4.662	0.499
840.000	497.320	80.004	19.994	103.143	19.973	-4.653	0.510
840.500	497.517	80.008	19.996	103.142	19.974	-4.684	0.510
841.000	497.786	80.003	19.996	103.143	19.976	-4.876	0.481
841.500	498.062	80.002	19.995	103.139	19.973	-4.664	0.506
842.000	498.298	80.024	19.994	103.134	19.971	-4.468	0.528
842.500	498.598	80.005	19.995	103.137	19.979	-5.081	0.524
843.000	498.821	80.007	19.994	103.136	19.978	-5.028	0.529
843.500	499.100	80.014	19.994	103.134	19.975	-4.748	0.512
844.000	499.316	80.011	19.994	103.136	19.975	-4.748	0.498
844.500	499.561	80.000	19.995	103.140	19.973	-4.654	0.478
845.000	499.775	79.996	19.998	103.136	19.971	-4.506	0.460
845.500	500.080	80.009	19.994	103.133	19.971	-4.491	0.489
846.000	500.360	80.015	19.991	103.133	19.975	-4.797	0.552
846.500	500.587	79.988	19.996	103.136	19.979	-5.053	0.546
847.000	500.816	80.011	19.993	103.132	19.974	-4.721	0.481
847.500	501.065	80.010	19.993	103.134	19.975	-4.746	0.467
848.000	501.354	80.004	19.994	103.138	19.976	-4.857	0.509
848.500	501.576	80.007	19.994	103.137	19.980	-5.160	0.524
849.000	501.853	80.009	19.994	103.133	19.979	-5.051	0.505
849.500	502.072	80.009	19.995	103.138	19.981	-5.232	0.497
850.000	502.291	80.003	19.995	103.138	19.979	-5.071	0.467
850.500	502.553	80.009	19.994	103.139	19.980	-5.164	0.460
851.000	502.798	80.016	19.993	103.138	19.979	-5.042	0.494
851.500	503.040	80.006	19.994	103.141	19.980	-5.123	0.497
852.000	503.360	80.009	19.993	103.140	19.977	-4.937	0.525
852.500	503.588	80.018	19.994	103.140	19.979	-5.092	0.555
853.000	503.800	80.015	19.995	103.142	19.980	-5.150	0.494
853.500	504.054	79.979	19.998	103.143	19.980	-5.160	0.453
854.000	504.366	80.007	19.993	103.133	19.979	-5.039	0.516
854.500	504.582	80.014	19.994	103.132	19.980	-5.127	0.547
855.000	504.857	80.016	19.993	103.132	19.977	-4.944	0.509
855.500	505.092	80.002	19.994	103.131	19.981	-5.183	0.501
856.000	505.338	80.008	19.993	103.130	19.980	-5.117	0.496
856.500	505.581	80.002	19.997	103.142	19.981	-5.237	0.485
857.000	505.838	80.002	19.995	103.139	19.986	-5.576	0.495
857.500	506.073	80.005	19.993	103.137	19.980	-5.146	0.496
858.000	506.362	80.008	19.993	103.137	19.986	-5.587	0.508
858.500	506.596	80.007	19.994	103.137	19.985	-5.473	0.524
859.000	506.865	80.004	19.994	103.135	19.986	-5.574	0.513
859.500	507.138	80.016	19.993	103.136	19.985	-5.523	0.522
860.000	507.333	80.001	19.995	103.140	19.985	-5.498	0.505
860.500	507.621	80.004	19.996	103.140	19.986	-5.595	0.476
861.000	507.863	80.011	19.994	103.140	19.986	-5.582	0.506
861.500	508.112	80.006	19.996	103.143	19.987	-5.634	0.510
862.000	508.369	80.006	19.995	103.142	19.986	-5.537	0.499
862.500	508.608	80.015	19.993	103.139	19.983	-5.383	0.501
863.000	508.872	79.997	19.996	103.139	19.985	-5.515	0.499
863.500	509.114	80.013	19.995	103.136	19.987	-5.654	0.504
864.000	509.369	80.002	19.996	103.131	19.984	-5.418	0.501
864.500	509.656	80.015	19.995	103.130	19.989	-5.782	0.520
865.000	509.882	80.012	19.994	103.133	19.988	-5.710	0.528
865.500	510.120	80.009	19.994	103.132	19.990	-5.842	0.488
866.000	510.376	80.005	19.994	103.132	19.988	-5.707	0.479
866.500	510.652	80.008	19.995	103.132	19.989	-5.805	0.513
867.000	510.874	80.001	19.995	103.134	19.983	-5.370	0.515
867.500	511.133	80.011	19.994	103.131	19.985	-5.484	0.489
868.000	511.394	80.009	19.994	103.129	19.985	-5.525	0.501
868.500	511.684	80.010	19.994	103.129	19.985	-5.504	0.535
869.000	511.880	80.013	19.995	103.130	19.984	-5.452	0.519
869.500	512.147	80.010	19.994	103.131	19.991	-5.903	0.475
870.000	512.408	80.010	19.993	103.132	19.993	-6.068	0.496
870.500	512.636	80.006	19.995	103.131	19.985	-5.516	0.508
871.000	512.869	80.016	19.995	103.132	19.988	-5.733	0.475
871.500	513.145	80.008	19.995	103.132	19.983	-5.370	0.485
872.000	513.419	80.003	19.996	103.131	19.986	-5.574	0.530
872.500	513.653	80.007	19.996	103.129	19.983	-5.374	0.530
873.000	513.902	80.003	19.995	103.131	19.991	-5.941	0.496
873.500	514.183	80.008	19.995	103.132	19.985	-5.465	0.507
874.000	514.462	80.020	19.992	103.131	19.985	-5.494	0.545
874.500	514.696	80.008	19.996	103.134	19.988	-5.693	0.536
875.000	514.978	80.009	19.994	103.133	19.995	-6.243	0.515
875.500	515.220	80.003	19.995	103.134	19.990	-5.840	0.520
876.000	515.430	79.997	19.996	103.131	19.984	-5.395	0.488
876.500	515.732	79.999	19.994	103.125	19.987	-5.673	0.482
877.000	515.952	80.016	19.994	103.123	19.988	-5.683	0.517
877.500	516.217	80.008	19.994	103.128	19.987	-5.638	0.504
878.000	516.491	80.006	19.995	103.128	19.995	-6.184	0.512
878.500	516.735	80.005	19.994	103.130	19.987	-5.662	0.528
879.000	516.993	80.009	19.995	103.135	19.988	-5.704	0.510
879.500	517.246	80.011	19.994	103.137	19.993	-6.031	0.507
880.000	517.486	80.010	19.995	103.136	19.993	-6.031	0.502
880.500	517.763	80.010	19.994	103.135	19.988	-5.695	0.505
881.000	518.011	80.010	19.995	103.137	19.998	-6.403	0.521
881.500	518.265	80.006	19.995	103.137	19.993	-6.059	0.513
882.000	518.541	80.013	19.992	103.136	19.987	-5.660	0.516
882.500	518.745	80.015	19.991	103.138	19.989	-5.807	0.505
883.000	519.014	80.000	19.995	103.137	19.984	-5.446	0.477
883.500	519.289	80.007	19.994	103.134	19.987	-5.669	0.508
884.000	519.554	80.010	19.996	103.135	19.984	-5.409	0.542
884.500	519.796	80.009	19.994	103.137	19.987	-5.609	0.524
885.000	520.014	80.008	19.995	103.134	19.989	-5.793	0.484
885.500	520.262	80.009	19.994	103.133	19.990	-5.842	0.463
886.000	520.565	80.008	19.994	103.134	19.989	-5.797	0.509
886.500	520.803	80.004	19.993	103.134	19.995	-6.229	0.546
887.000	521.050	80.007	19.995	103.132	19.990	-5.834	0.513
887.500	521.312	80.009	19.995	103.132	19.988	-5.739	0.497
888.000	521.580	80.011	19.995	103.134	19.992	-6.021	0.520
888.500	521.791	79.999	19.994	103.136	19.992	-6.019	0.504
889.000	522.063	80.017	19.993	103.133	19.989	-5.774	0.481
889.500	522.309	80.014	19.995	103.137	19.995	-6.223	0.501
890.000	522.588	80.015	19.992	103.137	19.994	-6.140	0.521
890.500	522.838	80.012	19.994	103.140	19.994	-6.151	0.527
891.000	523.114	80.007	19.993	103.143	19.994	-6.159	0.528
891.500	523.335	80.004	19.995	103.147	19.997	-6.377	0.512
892.000	523.577	80.005	19.996	103.145	19.992	-5.986	0.481
892.500	523.846	80.009	19.995	103.143	19.993	-6.050	0.487
893.000	524.104	80.001	19.995	103.140	19.998	-6.416	0.518
893.500	524.370	80.013	19.992	103.132	19.998	-6.391	0.525
894.000	524.615	80.015	19.994	103.134	19.994	-6.128	0.518
894.500	524.869	80.003	19.996	103.134	20.000	-6.560	0.505
895.000	525.102	80.003	19.997	103.132	19.998	-6.397	0.493
895.500	525.407	80.014	19.993	103.127	19.997	-6.356	0.512
896.000	525.630	80.007	19.994	103.130	19.995	-6.179	0.533
896.500	525.889	80.008	19.996	103.128	19.997	-6.328	0.505
897.000	526.170	80.010	19.995	103.127	19.997	-6.383	0.511
897.500	526.380	79.998	19.995	103.131	19.996	-6.297	0.515
898.000	526.652	80.008	19.994	103.134	19.994	-6.155	0.486
898.500	526.897	80.005	19.995	103.134	19.993	-6.033	0.500
899.000	527.145	80.009	19.994	103.133	19.996	-6.278	0.505
899.500	527.375	80.006	19.996	103.133	19.994	-6.118	0.486
900.000	527.645	80.008	19.994	103.131	19.999	-6.505	0.489
900.500	527.927	80.007	19.995	103.134	19.996	-6.252	0.526
901.000	528.173	80.008	19.995	103.134	19.996	-6.285	0.539
901.500	528.407	80.007	19.994	103.134	19.998	-6.404	0.504
902.000	528.662	80.011	19.993	103.134	19.995	-6.225	0.485
902.500	528.929	80.007	19.993	103.137	19.993	-6.081	0.506
903.000	529.176	80.006	19.994	103.137	20.003	-6.777	0.518
903.500	529.445	80.013	19.993	103.136	19.991	-5.912	0.515
904.000	529.702	80.006	19.995	103.138	19.998	-6.450	0.521
904.500	529.939	80.005	19.995	103.138	19.996	-6.250	0.510
905.000	530.201	80.006	19.994	103.136	19.993	-6.065	0.497
905.500	530.476	80.009	19.995	103.135	19.997	-6.324	0.518
906.000	530.759	80.005	19.993	103.137	19.994	-6.159	0.547
906.500	530.987	79.999	19.994	103.136	19.999	-6.517	0.535
907.000	531.225	80.007	19.995	103.135	19.995	-6.177	0.489
907.500	531.537	80.004	19.996	103.135	19.997	-6.326	0.508
908.000	531.784	80.006	19.994	103.136	19.996	-6.248	0.554
908.500	532.073	80.014	19.995	103.135	19.999	-6.472	0.548
909.000	532.276	80.003	19.995	103.137	19.995	-6.227	0.514
909.500	532.526	80.006	19.996	103.134	19.999	-6.527	0.472
910.000	532.755	80.008	19.995	103.134	19.996	-6.287	0.466
910.500	533.039	80.009	19.994	103.129	19.998	-6.396	0.496
911.000	533.275	80.007	19.995	103.125	20.002	-6.699	0.516
911.500	533.583	80.010	19.996	103.123	20.001	-6.612	0.532
912.000	533.797	80.005	19.995	103.127	19.997	-6.339	0.534
912.500	534.076	80.007	19.994	103.127	19.997	-6.337	0.508
913.000	534.314	79.998	19.995	103.132	19.996	-6.291	0.505
913.500	534.608	80.001	19.995	103.132	19.998	-6.408	0.524
914.000	534.836	80.007	19.994	103.129	19.995	-6.229	0.527
914.500	535.077	79.995	19.997	103.127	19.998	-6.424	0.496
915.000	535.393	80.005	19.995	103.126	20.000	-6.550	0.513
915.500	535.634	80.012	19.994	103.124	19.997	-6.365	0.557
916.000	535.888	80.006	19.995	103.128	19.999	-6.517	0.526
916.500	536.120	80.003	19.994	103.133	19.995	-6.206	0.490
917.000	536.428	80.014	19.995	103.132	20.000	-6.536	0.513
917.500	536.659	79.999	19.996	103.133	19.999	-6.515	0.540
918.000	536.896	80.019	19.995	103.132	19.996	-6.305	0.504
918.500	537.186	80.005	19.993	103.131	20.000	-6.582	0.497
919.000	537.421	80.006	19.997	103.132	20.004	-6.837	0.525
919.500	537.657	80.007	19.995	103.132	19.995	-6.228	0.498
920.000	537.949	80.009	19.994	103.133	19.996	-6.257	0.500
920.500	538.187	80.009	19.995	103.136	19.996	-6.260	0.529
921.000	538.408	80.004	19.995	103.134	19.997	-6.328	0.494
921.500	538.721	80.008	19.997	103.130	19.998	-6.398	0.496
922.000	538.960	80.004	19.996	103.130	19.996	-6.272	0.543
922.500	539.221	80.007	19.995	103.128	19.999	-6.509	0.526
923.000	539.444	80.007	19.995	103.124	19.999	-6.474	0.492
923.500	539.724	80.008	19.996	103.122	20.003	-6.810	0.494
924.000	539.997	80.005	19.996	103.125	20.001	-6.658	0.528
924.500	540.202	80.006	19.996	103.126	19.999	-6.506	0.515
925.000	540.499	80.009	19.996	103.130	19.999	-6.489	0.489
925.500	540.726	80.008	19.996	103.135	19.998	-6.421	0.513
926.000	541.021	80.008	19.996	103.137	19.995	-6.205	0.523
926.500	541.265	80.006	19.995	103.134	19.999	-6.468	0.531
927.000	541.475	80.006	19.996	103.133	19.999	-6.511	0.497
927.500	541.745	80.010	19.995	103.133	20.005	-6.931	0.468
928.000	542.032	80.009	19.995	103.132	19.997	-6.377	0.518
928.500	542.288	80.014	19.995	103.131	19.995	-6.198	0.549
929.000	542.557	80.005	19.995	103.129	20.006	-7.014	0.534
929.500	542.803	80.010	19.996	103.126	20.000	-6.545	0.520
930.000	543.041	80.006	19.996	103.125	20.004	-6.880	0.500
930.500	543.319	80.002	19.995	103.120	20.007	-7.032	0.500
931.000	543.539	80.011	19.995	103.118	20.000	-6.550	0.507
931.500	543.828	80.007	19.995	103.123	20.000	-6.540	0.503
932.000	544.065	80.008	19.996	103.127	20.005	-6.911	0.518
932.500	544.315	80.006	19.995	103.125	20.003	-6.764	0.507
933.000	544.563	80.009	19.995	103.130	19.997	-6.352	0.492
933.500	544.783	80.004	19.996	103.133	20.004	-6.845	0.483
934.000	545.071	80.003	19.996	103.129	20.005	-6.902	0.488
934.500	545.269	79.996	19.997	103.126	20.003	-6.795	0.497
935.000	545.563	80.008	19.995	103.124	20.001	-6.641	0.489
935.500	545.785	80.007	19.995	103.121	20.008	-7.109	0.504
936.000	546.073	80.006	19.995	103.116	20.008	-7.150	0.513
936.500	546.291	80.013	19.996	103.118	20.002	-6.694	0.508
937.000	546.601	80.009	19.995	103.122	20.006	-6.976	0.517
937.500	546.857	80.010	19.995	103.125	20.007	-7.083	0.547
938.000	547.111	80.008	19.996	103.129	20.001	-6.620	0.538
938.500	547.363	80.013	19.994	103.131	20.009	-7.201	0.508
939.000	547.621	80.010	19.996	103.130	20.006	-6.976	0.508
939.500	547.849	80.007	19.995	103.127	20.007	-7.075	0.497
940.000	548.086	80.012	19.994	103.125	20.006	-7.016	0.475
940.500	548.390	80.013	19.994	103.123	20.009	-7.224	0.504
941.000	548.622	80.009	19.995	103.126	20.012	-7.397	0.539
941.500	548.921	80.005	19.995	103.127	20.004	-6.831	0.533
942.000	549.168	80.009	19.994	103.129	20.000	-6.595	0.539
942.500	549.386	80.011	19.993	103.131	20.011	-7.329	0.506
943.000	549.706	80.013	19.994	103.133	20.005	-6.925	0.501
943.500	549.938	80.011	19.995	103.134	20.009	-7.224	0.545
944.000	550.230	80.011	19.994	103.133	20.009	-7.209	0.539
944.500	550.465	80.009	19.996	103.133	20.008	-7.146	0.526
945.000	550.695	80.011	19.993	103.132	20.008	-7.123	0.495
945.500	550.987	80.009	19.995	103.131	20.009	-7.186	0.493
946.000	551.264	80.007	19.993	103.129	20.012	-7.415	0.545
946.500	551.485	80.014	19.993	103.128	20.008	-7.174	0.534
947.000	551.718	80.007	19.994	103.131	20.010	-7.300	0.477
947.500	552.023	80.012	19.994	103.131	20.008	-7.104	0.496
948.000	552.239	80.018	19.994	103.131	20.012	-7.435	0.529
948.500	552.487	80.006	19.994	103.133	20.013	-7.468	0.492
949.000	552.781	80.009	19.993	103.134	20.012	-7.401	0.503
949.500	553.030	80.018	19.995	103.132	20.011	-7.366	0.543
950.000	553.281	80.004	19.995	103.134	20.007	-7.057	0.522
950.500	553.529	80.011	19.995	103.133	20.014	-7.554	0.499
951.000	553.779	80.008	19.994	103.133	20.008	-7.134	0.499
951.500	554.048	80.009	19.995	103.130	20.013	-7.461	0.509
952.000	554.298	80.008	19.994	103.130	20.005	-6.927	0.519
952.500	554.596	80.018	19.994	103.128	20.013	-7.469	0.533
953.000	554.854	80.000	19.995	103.132	20.017	-7.773	0.552
953.500	555.114	80.007	19.995	103.130	20.007	-7.036	0.537
954.000	555.347	80.009	19.995	103.132	20.018	-7.862	0.506
954.500	555.600	80.010	19.995	103.130	20.015	-7.626	0.489
955.000	555.874	80.013	19.995	103.131	20.011	-7.372	0.506
955.500	556.093	80.007	19.995	103.130	20.012	-7.434	0.509
956.000	556.344	80.001	19.995	103.131	20.010	-7.314	0.481
956.500	556.604	80.002	19.997	103.132	20.017	-7.753	0.491
957.000	556.834	80.003	19.996	103.134	20.019	-7.924	0.500
957.500	557.118	80.016	19.994	103.133	20.019	-7.942	0.502
958.000	557.381	80.006	19.995	103.133	20.012	-7.429	0.531
958.500	557.634	80.004	19.994	103.133	20.014	-7.586	0.532
959.000	557.874	80.008	19.995	103.134	20.013	-7.485	0.505
959.500	558.162	79.998	19.996	103.134	20.013	-7.499	0.510
960.000	558.409	80.001	19.996	103.131	20.011	-7.331	0.531
960.500	558.663	80.003	19.993	103.125	20.020	-7.965	0.518
961.000	558.891	79.996	19.996	103.122	20.016	-7.699	0.491
961.500	559.174	80.001	19.994	103.122	20.014	-7.541	0.496
962.000	559.447	80.008	19.993	103.121	20.017	-7.776	0.533
962.500	559.707	80.017	19.993	103.125	20.015	-7.673	0.545
963.000	559.910	80.009	19.995	103.132	20.010	-7.271	0.498
963.500	560.164	80.010	19.995	103.132	20.015	-7.610	0.461
964.000	560.417	80.006	19.994	103.131	20.012	-7.452	0.482
964.500	560.661	80.018	19.994	103.131	20.018	-7.827	0.502
965.000	560.952	79.998	19.995	103.130	20.016	-7.676	0.516
965.500	561.181	80.000	19.996	103.126	20.014	-7.535	0.528
966.000	561.454	80.007	19.993	103.126	20.012	-7.452	0.511
966.500	561.703	80.003	19.995	103.128	20.014	-7.533	0.512
967.000	561.970	80.013	19.994	103.128	20.011	-7.381	0.519
967.500	562.255	79.990	19.996	103.131	20.016	-7.704	0.534
968.000	562.492	80.009	19.995	103.131	20.018	-7.836	0.537
968.500	562.758	80.010	19.995	103.133	20.021	-8.083	0.512
969.000	563.029	80.012	19.992	103.134	20.019	-7.897	0.519
969.500	563.239	79.999	19.994	103.136	20.019	-7.918	0.509
970.000	563.481	80.017	19.993	103.132	20.015	-7.665	0.467
970.500	563.753	80.006	19.996	103.135	20.018	-7.859	0.483
971.000	563.973	80.006	19.994	103.133	20.021	-8.102	0.503
971.500	564.273	80.006	19.994	103.131	20.022	-8.135	0.506
972.000	564.479	80.004	19.995	103.129	20.019	-7.927	0.513
972.500	564.764	80.004	19.995	103.129	20.021	-8.079	0.498
973.000	565.016	80.006	19.994	103.128	20.018	-7.822	0.514
973.500	565.271	80.019	19.993	103.129	20.016	-7.735	0.522
974.000	565.523	80.010	19.993	103.132	20.019	-7.919	0.507
974.500	565.743	79.994	19.997	103.134	20.022	-8.154	0.489
975.000	565.995	80.006	19.994	103.132	20.017	-7.785	0.472
975.500	566.263	80.009	19.995	103.131	20.021	-8.046	0.497
976.000	566.504	80.007	19.995	103.133	20.019	-7.920	0.515
976.500	566.742	80.002	19.995	103.131	20.023	-8.193	0.493
977.000	567.009	80.004	19.993	103.129	20.025	-8.385	0.492
977.500	567.227	80.009	19.995	103.129	20.023	-8.183	0.495
978.000	567.530	79.998	19.995	103.125	20.021	-8.033	0.503
978.500	567.791	80.010	19.994	103.122	20.018	-7.865	0.543
979.000	568.009	80.010	19.994	103.121	20.014	-7.548	0.522
979.500	568.270	80.007	19.995	103.122	20.021	-8.074	0.479
980.000	568.529	80.001	19.995	103.128	20.021	-8.062	0.499
980.500	568.789	79.997	19.994	103.130	20.019	-7.953	0.519
981.000	569.042	80.010	19.993	103.124	20.027	-8.476	0.516
981.500	569.278	80.007	19.994	103.122	20.020	-7.982	0.501
982.000	569.567	80.006	19.994	103.117	20.021	-8.032	0.507
982.500	569.817	80.007	19.994	103.110	20.018	-7.863	0.532
983.000	570.069	80.008	19.995	103.114	20.023	-8.222	0.521
983.500	570.318	80.009	19.994	103.118	20.023	-8.194	0.501
984.000	570.552	80.007	19.995	103.118	20.020	-8.000	0.492
984.500	570.777	80.005	19.996	103.119	20.024	-8.247	0.471
985.000	571.068	80.004	19.996	103.119	20.022	-8.111	0.488
985.500	571.324	80.008	19.995	103.116	20.021	-8.094	0.532
986.000	571.567	80.005	19.995	103.119	20.026	-8.444	0.523
986.500	571.852	80.005	19.996	103.122	20.027	-8.476	0.513
987.000	572.072	80.006	19.995	103.126	20.023	-8.201	0.516
987.500	572.317	80.005	19.995	103.132	20.025	-8.352	0.485
988.000	572.576	80.002	19.996	103.132	20.020	-7.988	0.484
988.500	572.777	80.005	19.996	103.133	20.015	-7.630	0.482
989.000	573.069	80.005	19.995	103.129	20.022	-8.119	0.477
989.500	573.321	80.007	19.996	103.125	20.025	-8.368	0.518
990.000	573.549	80.011	19.993	103.121	20.020	-8.013	0.512
990.500	573.802	80.009	19.995	103.126	20.025	-8.348	0.481
991.000	574.054	80.007	19.996	103.124	20.022	-8.170	0.493
991.500	574.331	80.007	19.995	103.127	20.024	-8.271	0.517
992.000	574.586	80.010	19.996	103.132	20.028	-8.534	0.531
992.500	574.845	80.008	19.994	103.129	20.026	-8.410	0.523
993.000	575.129	80.006	19.995	103.123	20.016	-7.745	0.529
993.500	575.348	79.999	19.994	103.119	20.020	-7.965	0.523
994.000	575.591	80.002	19.996	103.112	20.028	-8.537	0.482
994.500	575.849	80.010	19.995	103.104	20.023	-8.181	0.482
995.000	576.099	80.007	19.996	103.105	20.027	-8.523	0.505
995.500	576.350	80.008	19.996	103.105	20.026	-8.391	0.504
996.000	576.573	80.008	19.995	103.108	20.026	-8.418	0.487
996.500	576.802	80.007	19.995	103.114	20.021	-8.101	0.462
997.000	577.028	80.004	19.996	103.121	20.023	-8.233	0.453
997.500	577.304	80.007	19.997	103.122	20.028	-8.601	0.479
998.000	577.571	80.004	19.996	103.118	20.029	-8.610	0.523
998.500	577.825	79.998	19.997	103.112	20.024	-8.272	0.532
999.000	578.092	80.001	19.996	103.102	20.033	-8.950	0.521
999.500	578.336	80.020	19.995	103.092	20.023	-8.180	0.516
1000.000	578.576	80.015	19.995	103.091	20.023	-8.192	0.497
1000.500	578.805	80.013	19.996	103.092	20.023	-8.181	0.476
1001.000	579.100	80.008	19.993	103.097	20.026	-8.404	0.497
1001.500	579.336	80.010	19.997	103.107	20.017	-7.790	0.528
1002.000	579.575	80.010	19.994	103.117	20.027	-8.463	0.503
1002.500	579.854	80.009	19.993	103.121	20.020	-7.984	0.497
1003.000	580.060	80.009	19.998	103.124	20.029	-8.643	0.502
1003.500	580.317	80.010	19.996	103.127	20.019	-7.926	0.474
1004.000	580.592	80.007	19.996	103.129	20.021	-8.078	0.497
1004.500	580.835	80.008	19.995	103.128	20.021	-8.091	0.525
1005.000	581.106	80.016	19.995	103.130	20.025	-8.367	0.516
1005.500	581.352	80.011	19.995	103.133	20.032	-8.836	0.515
1006.000	581.612	80.011	19.996	103.134	20.024	-8.275	0.512
1006.500	581.890	80.012	19.994	103.132	20.020	-7.973	0.522
1007.000	582.166	80.006	19.993	103.134	20.026	-8.440	0.546
1007.500	582.398	80.007	19.995	103.133	20.022	-8.156	0.531
1008.000	582.672	80.014	19.995	103.133	20.028	-8.574	0.507
1008.500	582.899	80.007	19.995	103.131	20.029	-8.607	0.503
1009.000	583.218	80.019	19.995	103.128	20.027	-8.510	0.523
1009.500	583.436	80.012	19.995	103.126	20.021	-8.039	0.541
1010.000	583.727	80.006	19.994	103.124	20.032	-8.860	0.523
1010.500	583.975	80.008	19.996	103.126	20.023	-8.230	0.524
1011.000	584.239	80.007	19.995	103.126	20.031	-8.773	0.526
1011.500	584.473	80.001	19.997	103.131	20.028	-8.601	0.505
1012.000	584.759	80.008	19.995	103.130	20.031	-8.775	0.509
1012.500	585.013	80.008	19.995	103.132	20.025	-8.373	0.530
1013.000	585.278	80.007	19.998	103.130	20.027	-8.470	0.529
1013.500	585.500	79.992	19.998	103.130	20.029	-8.612	0.503
1014.000	585.773	80.009	19.998	103.128	20.031	-8.779	0.490
1014.500	586.092	80.006	19.996	103.131	20.027	-8.516	0.543
1015.000	586.333	80.007	19.996	103.130	20.028	-8.592	0.576
1015.500	586.620	80.009	19.995	103.130	20.019	-7.918	0.544
1016.000	586.843	80.015	19.996	103.129	20.033	-8.934	0.519
1016.500	587.124	80.007	19.998	103.126	20.033	-8.911	0.507
1017.000	587.403	80.005	19.996	103.119	20.026	-8.427	0.532
1017.500	587.686	80.008	19.996	103.112	20.029	-8.639	0.561
1018.000	587.913	80.007	19.996	103.112	20.026	-8.426	0.536
1018.500	588.175	80.008	19.997	103.107	20.024	-8.274	0.499
1019.000	588.503	80.009	19.996	103.107	20.030	-8.682	0.539
1019.500	588.747	80.000	19.997	103.106	20.031	-8.757	0.581
1020.000	589.016	80.011	19.996	103.108	20.031	-8.771	0.543
1020.500	589.297	80.009	19.997	103.109	20.028	-8.580	0.532
1021.000	589.579	80.011	19.995	103.114	20.031	-8.788	0.556
1021.500	589.840	80.009	19.995	103.118	20.034	-9.013	0.553
1022.000	590.091	80.017	19.996	103.122	20.028	-8.570	0.527
1022.500	590.384	80.007	19.996	103.128	20.029	-8.607	0.528
1023.000	590.666	80.005	19.996	103.125	20.030	-8.680	0.560
1023.500	590.914	80.008	19.996	103.121	20.027	-8.461	0.553
1024.001	591.186	80.020	19.996	103.120	20.030	-8.711	0.525
1024.500	591.506	80.008	19.994	103.121	20.029	-8.635	0.556
1024.999	591.727	80.014	19.996	103.120	20.031	-8.781	0.566
1025.499	591.997	80.001	19.995	103.121	20.032	-8.861	0.516
1025.999	592.299	80.009	19.995	103.124	20.033	-8.931	0.531
1026.500	592.543	80.015	19.994	103.121	20.032	-8.832	0.560
1027.000	592.795	80.003	19.994	103.121	20.032	-8.822	0.521
1027.499	593.095	80.003	19.995	103.121	20.031	-8.789	0.524
1027.999	593.371	80.008	19.994	103.121	20.031	-8.747	0.564
1028.499	593.660	80.010	19.993	103.123	20.030	-8.730	0.570
1029.000	593.910	80.007	19.996	103.130	20.033	-8.919	0.552
1029.500	594.200	80.008	19.994	103.127	20.029	-8.621	0.540
1029.999	594.463	80.012	19.994	103.123	20.032	-8.839	0.547
1030.499	594.738	80.004	19.993	103.122	20.033	-8.897	0.545
1030.999	594.992	80.009	19.994	103.119	20.035	-9.062	0.533
1031.499	595.246	80.009	19.994	103.111	20.029	-8.632	0.518
1031.999	595.528	80.008	19.996	103.112	20.032	-8.848	0.522
1032.499	595.796	80.006	19.995	103.114	20.033	-8.901	0.543
1032.999	596.042	80.004	19.995	103.111	20.030	-8.696	0.532
1033.499	596.295	80.004	19.997	103.107	20.028	-8.564	0.507
1033.999	596.579	80.014	19.993	103.105	20.034	-9.007	0.518
1034.499	596.878	80.000	19.995	103.105	20.037	-9.214	0.560
1034.999	597.117	80.007	19.994	103.103	20.036	-9.133	0.561
1035.499	597.418	80.006	19.996	103.102	20.037	-9.232	0.540
1035.999	597.654	80.007	19.994	103.105	20.035	-9.034	0.539
1036.500	597.937	79.999	19.996	103.109	20.038	-9.246	0.528
1037.000	598.195	80.012	19.993	103.104	20.039	-9.384	0.530
1037.499	598.455	80.004	19.996	103.106	20.032	-8.820	0.529
1037.999	598.712	80.021	19.994	103.106	20.039	-9.321	0.517
1038.499	598.974	79.997	19.996	103.107	20.036	-9.150	0.518
1038.999	599.224	80.014	19.993	103.108	20.035	-9.096	0.515
1039.499	599.520	80.005	19.997	103.118	20.035	-9.054	0.528
1039.999	599.780	80.015	19.994	103.120	20.032	-8.885	0.551
1040.499	599.985	80.003	19.996	103.121	20.034	-8.963	0.510
1040.999	600.280	80.009	19.994	103.119	20.033	-8.953	0.482
1041.499	600.501	80.006	19.996	103.120	20.033	-8.955	0.508
1041.999	600.815	80.013	19.993	103.112	20.033	-8.941	0.525
1042.499	601.039	80.006	19.994	103.111	20.028	-8.533	0.536
1042.999	601.317	80.011	19.994	103.113	20.038	-9.268	0.520
1043.499	601.581	80.008	19.995	103.112	20.033	-8.938	0.523
1043.999	601.825	79.998	19.996	103.108	20.033	-8.911	0.525
1044.499	602.064	80.005	19.995	103.106	20.035	-9.064	0.495
1044.999	602.341	80.005	19.996	103.102	20.031	-8.778	0.499
1045.499	602.548	80.006	19.995	103.101	20.033	-8.955	0.500
1045.999	602.830	80.009	19.994	103.103	20.032	-8.855	0.486
1046.500	603.115	80.014	19.993	103.105	20.036	-9.147	0.528
1047.001	603.386	79.991	19.995	103.108	20.034	-8.983	0.561
1047.500	603.613	79.996	19.996	103.107	20.037	-9.209	0.527
1048.000	603.877	80.004	19.996	103.103	20.037	-9.178	0.494
1048.500	604.139	80.003	19.996	103.101	20.039	-9.379	0.509
1049.000	604.438	80.009	19.994	103.102	20.032	-8.871	0.544
1049.500	604.652	79.996	19.995	103.103	20.036	-9.138	0.537
1050.000	604.901	80.003	19.995	103.108	20.038	-9.277	0.488
1050.500	605.182	80.003	19.995	103.111	20.043	-9.646	0.496
1051.000	605.383	80.009	19.995	103.114	20.033	-8.931	0.506
1051.500	605.646	80.010	19.994	103.113	20.039	-9.324	0.473
1051.999	605.897	80.009	19.995	103.112	20.039	-9.363	0.489
1052.499	606.175	80.000	19.997	103.108	20.041	-9.470	0.521
1053.000	606.444	80.013	19.994	103.108	20.034	-9.009	0.538
1053.500	606.669	80.010	19.994	103.110	20.042	-9.577	0.521
1053.999	606.912	80.000	19.995	103.116	20.040	-9.427	0.481
1054.499	607.179	80.007	19.994	103.118	20.036	-9.172	0.489
1054.999	607.420	79.997	19.995	103.119	20.038	-9.248	0.509
1055.499	607.683	80.007	19.995	103.116	20.044	-9.693	0.506
1055.999	607.932	80.001	19.996	103.115	20.034	-8.988	0.507
1056.499	608.178	80.007	19.994	103.109	20.037	-9.179	0.503
1056.999	608.422	80.004	19.995	103.106	20.040	-9.419	0.493
1057.499	608.718	80.017	19.993	103.110	20.036	-9.160	0.515
1057.999	608.951	80.014	19.993	103.119	20.037	-9.199	0.534
1058.500	609.192	80.017	19.994	103.124	20.036	-9.167	0.501
1059.001	609.457	80.010	19.993	103.130	20.040	-9.439	0.490
1059.500	609.688	80.008	19.996	103.133	20.045	-9.800	0.501
1059.999	609.986	80.002	19.994	103.129	20.036	-9.110	0.512
1060.499	610.218	80.010	19.994	103.118	20.041	-9.506	0.530
1060.999	610.457	80.009	19.994	103.111	20.037	-9.215	0.501
1061.499	610.689	80.007	19.994	103.108	20.035	-9.075	0.471
1062.000	610.953	80.017	19.994	103.106	20.038	-9.301	0.483
1062.501	611.245	80.014	19.994	103.109	20.038	-9.287	0.526
1063.000	611.486	80.008	19.994	103.114	20.038	-9.303	0.544
1063.499	611.718	80.004	19.995	103.114	20.041	-9.528	0.503
1063.999	611.985	80.008	19.995	103.111	20.033	-8.929	0.486
1064.500	612.272	80.011	19.995	103.108	20.041	-9.472	0.526
1065.000	612.504	80.002	19.996	103.106	20.039	-9.324	0.537
1065.499	612.769	80.018	19.994	103.102	20.037	-9.210	0.508
1065.999	613.017	80.000	19.995	103.104	20.038	-9.298	0.505
1066.499	613.234	80.016	19.995	103.108	20.036	-9.111	0.489
1066.999	613.512	80.004	19.994	103.115	20.037	-9.212	0.480
1067.499	613.771	80.010	19.995	103.119	20.043	-9.621	0.515
1067.999	614.026	80.001	19.995	103.125	20.044	-9.722	0.525
1068.499	614.334	80.029	19.992	103.123	20.042	-9.542	0.539
1068.999	614.529	79.993	19.997	103.127	20.039	-9.349	0.533
1069.499	614.822	80.010	19.995	103.116	20.041	-9.497	0.496
1069.999	615.047	80.012	19.994	103.114	20.036	-9.110	0.503
1070.500	615.279	80.006	19.995	103.108	20.047	-9.897	0.487
1071.001	615.559	79.994	19.995	103.109	20.040	-9.395	0.484
1071.501	615.813	80.007	19.995	103.100	20.045	-9.781	0.523
1072.000	616.098	80.004	19.995	103.108	20.041	-9.481	0.537
1072.500	616.349	80.004	19.994	103.108	20.041	-9.495	0.537
1073.000	616.575	80.010	19.996	103.110	20.040	-9.456	0.506
1073.499	616.858	80.012	19.995	103.108	20.045	-9.764	0.493
1073.999	617.101	80.005	19.993	103.112	20.043	-9.650	0.517
1074.499	617.346	80.005	19.996	103.109	20.043	-9.664	0.506
1074.999	617.589	80.009	19.995	103.106	20.045	-9.806	0.488
1075.499	617.830	80.001	19.996	103.107	20.041	-9.509	0.486
1076.000	618.110	80.001	19.995	103.106	20.043	-9.637	0.503
1076.500	618.376	80.004	19.995	103.100	20.041	-9.516	0.534
1077.000	618.619	80.004	19.995	103.100	20.042	-9.583	0.528
1077.500	618.929	80.017	19.994	103.098	20.040	-9.427	0.531
1077.999	619.168	80.003	19.993	103.098	20.047	-9.923	0.551
1078.499	619.361	80.010	19.994	103.100	20.040	-9.417	0.490
1078.999	619.669	80.014	19.994	103.108	20.040	-9.418	0.466
1079.499	619.913	80.007	19.994	103.115	20.051	-10.230	0.526
1079.999	620.166	80.021	19.994	103.124	20.047	-9.895	0.525
1080.500	620.397	79.996	19.995	103.127	20.044	-9.709	0.491
1081.000	620.660	80.021	19.995	103.126	20.044	-9.719	0.489
1081.499	620.933	80.014	19.995	103.128	20.046	-9.851	0.515
1081.999	621.198	80.006	19.997	103.125	20.048	-9.979	0.537
1082.499	621.437	80.006	19.997	103.115	20.048	-10.030	0.521
1082.999	621.725	80.008	19.995	103.107	20.040	-9.431	0.516
1083.499	621.932	80.022	19.995	103.108	20.044	-9.738	0.511
1083.999	622.207	79.999	19.996	103.103	20.045	-9.780	0.488
1084.499	622.447	80.013	19.995	103.096	20.050	-10.149	0.498
1084.999	622.744	80.010	19.995	103.102	20.045	-9.800	0.526
1085.499	623.001	80.019	19.994	103.104	20.045	-9.784	0.546
1085.999	623.250	80.010	19.995	103.107	20.047	-9.939	0.530
1086.500	623.507	80.013	19.994	103.109	20.043	-9.646	0.506
1087.001	623.784	80.011	19.996	103.111	20.046	-9.889	0.520
1087.500	624.067	80.007	19.994	103.107	20.049	-10.099	0.547
1087.999	624.300	80.006	19.996	103.112	20.044	-9.683	0.538
1088.499	624.576	80.009	19.994	103.110	20.047	-9.959	0.513
1088.999	624.823	80.004	19.995	103.112	20.047	-9.897	0.516
1089.499	625.076	80.008	19.995	103.110	20.046	-9.830	0.511
1089.999	625.330	80.008	19.995	103.112	20.049	-10.081	0.503
1090.499	625.573	80.007	19.995	103.109	20.048	-9.970	0.502
1090.999	625.813	80.006	19.996	103.108	20.052	-10.256	0.490
1091.499	626.104	80.007	19.995	103.110	20.048	-9.990	0.506
1091.999	626.356	80.006	19.995	103.112	20.051	-10.237	0.537
1092.499	626.603	80.009	19.994	103.111	20.047	-9.959	0.521
1092.999	626.887	80.009	19.994	103.112	20.046	-9.873	0.515
1093.499	627.146	80.008	19.997	103.110	20.048	-10.013	0.537
1093.999	627.433	80.006	19.994	103.107	20.047	-9.912	0.545
1094.499	627.645	80.010	19.995	103.105	20.045	-9.784	0.523
1094.999	627.930	80.008	19.994	103.106	20.049	-10.071	0.498
1095.499	628.188	80.010	19.996	103.103	20.049	-10.067	0.519
1095.999	628.424	80.008	19.994	103.102	20.044	-9.695	0.519
1096.499	628.680	80.008	19.995	103.101	20.043	-9.669	0.494
1096.999	628.952	80.007	19.994	103.101	20.047	-9.937	0.510
1097.499	629.162	80.011	19.995	103.101	20.040	-9.413	0.505
1097.999	629.449	80.007	19.995	103.103	20.048	-9.992	0.489
1098.500	629.715	80.009	19.996	103.103	20.046	-9.885	0.525
1099.000	629.943	80.008	19.995	103.102	20.047	-9.895	0.524
1099.499	630.231	80.009	19.995	103.101	20.044	-9.712	0.505
1099.999	630.461	80.007	19.994	103.100	20.044	-9.737	0.517
1100.499	630.769	80.005	19.995	103.099	20.049	-10.058	0.527
1100.999	630.983	80.008	19.995	103.099	20.048	-10.010	0.530
1101.500	631.221	80.010	19.997	103.101	20.045	-9.796	0.487
1102.000	631.532	80.006	19.996	103.101	20.043	-9.623	0.501
1102.499	631.802	80.007	19.996	103.101	20.052	-10.272	0.565
1102.999	632.035	80.008	19.996	103.101	20.049	-10.064	0.542
1103.499	632.335	80.007	19.995	103.100	20.050	-10.116	0.518
1103.999	632.538	80.008	19.995	103.098	20.052	-10.262	0.518
1104.499	632.790	80.007	19.997	103.097	20.045	-9.804	0.479
1105.000	633.058	80.009	19.995	103.099	20.046	-9.874	0.488
1105.500	633.339	80.011	19.995	103.099	20.048	-10.019	0.535
1105.999	633.565	80.011	19.998	103.099	20.050	-10.168	0.528
1106.500	633.815	80.010	19.996	103.100	20.049	-10.036	0.491
1107.000	634.096	80.010	19.995	103.103	20.049	-10.052	0.503
1107.499	634.378	80.008	19.996	103.101	20.051	-10.206	0.547
1107.999	634.602	80.001	19.996	103.101	20.055	-10.501	0.534
1108.499	634.883	80.010	19.996	103.103	20.052	-10.262	0.506
1108.999	635.153	80.007	19.996	103.104	20.051	-10.200	0.529
1109.499	635.397	80.002	19.996	103.101	20.052	-10.290	0.533
1109.999	635.645	80.006	19.993	103.101	20.054	-10.414	0.503
1110.499	635.933	80.008	19.995	103.103	20.053	-10.342	0.514
1110.999	636.156	80.000	19.997	103.103	20.052	-10.270	0.523
1111.500	636.421	80.008	19.994	103.104	20.055	-10.465	0.499
1112.000	636.682	80.007	19.995	103.105	20.054	-10.422	0.507
1112.499	636.937	80.003	19.995	103.104	20.056	-10.599	0.522
1112.999	637.222	80.004	19.996	103.102	20.048	-9.992	0.528
1113.499	637.470	80.007	19.994	103.101	20.052	-10.307	0.536
1114.000	637.717	80.006	19.994	103.102	20.054	-10.415	0.514
1114.500	637.955	80.008	19.995	103.103	20.055	-10.533	0.490
1114.999	638.238	80.006	19.997	103.104	20.057	-10.609	0.503
1115.499	638.515	80.005	19.995	103.105	20.049	-10.033	0.541
1115.999	638.752	80.008	19.996	103.104	20.052	-10.313	0.538
1116.499	639.029	80.007	19.995	103.100	20.053	-10.382	0.514
1116.999	639.280	80.008	19.995	103.099	20.056	-10.553	0.521
1117.499	639.557	80.006	19.995	103.099	20.057	-10.622	0.528
1117.999	639.817	79.999	19.996	103.100	20.056	-10.536	0.532
1118.499	640.042	80.004	19.994	103.100	20.057	-10.625	0.511
1118.999	640.304	80.009	19.995	103.103	20.055	-10.489	0.486
1119.499	640.589	80.010	19.994	103.103	20.061	-10.936	0.517
1119.999	640.814	80.016	19.994	103.103	20.058	-10.676	0.529
1120.499	641.074	80.011	19.993	103.106	20.053	-10.327	0.497
1121.000	641.324	80.008	19.994	103.107	20.054	-10.399	0.497
1121.500	641.572	80.003	19.994	103.105	20.053	-10.327	0.504
1121.999	641.883	80.005	19.995	103.104	20.054	-10.429	0.529
1122.499	642.141	80.002	19.996	103.105	20.052	-10.305	0.564
1122.999	642.402	80.007	19.994	103.104	20.052	-10.307	0.544
1123.499	642.628	80.005	19.994	103.105	20.054	-10.403	0.503
1123.999	642.873	80.003	19.995	103.106	20.058	-10.682	0.478
1124.499	643.142	80.012	19.995	103.108	20.063	-11.051	0.492
1124.999	643.403	80.006	19.996	103.112	20.053	-10.325	0.522
1125.499	643.651	80.009	19.995	103.113	20.060	-10.856	0.520
1125.999	643.934	79.999	19.996	103.109	20.056	-10.549	0.520
1126.499	644.173	80.013	19.994	103.106	20.054	-10.437	0.526
1126.999	644.431	80.009	19.994	103.106	20.061	-10.942	0.509
1127.500	644.723	80.006	19.994	103.100	20.052	-10.299	0.523
1128.000	644.960	80.009	19.996	103.099	20.053	-10.376	0.540
1128.499	645.220	80.008	19.995	103.101	20.059	-10.765	0.513
1128.999	645.475	80.009	19.996	103.103	20.053	-10.370	0.506
1129.499	645.763	80.011	19.992	103.101	20.058	-10.712	0.529
1129.999	646.015	80.005	19.994	103.102	20.064	-11.110	0.542
1130.499	646.266	80.007	19.993	103.099	20.054	-10.411	0.521
1130.999	646.531	80.000	19.995	103.097	20.056	-10.534	0.510
1131.499	646.755	80.010	19.995	103.095	20.057	-10.670	0.502
1131.999	647.043	80.005	19.995	103.095	20.058	-10.700	0.500
1132.499	647.287	80.010	19.996	103.095	20.053	-10.364	0.522
1132.999	647.546	80.009	19.994	103.101	20.061	-10.957	0.517
1133.500	647.820	80.009	19.997	103.104	20.059	-10.772	0.518
1134.000	648.084	80.008	19.995	103.108	20.055	-10.468	0.536
1134.500	648.311	80.013	19.994	103.110	20.056	-10.591	0.514
1135.000	648.594	80.005	19.993	103.117	20.054	-10.400	0.501
1135.499	648.873	80.012	19.994	103.115	20.056	-10.583	0.537
1135.999	649.117	80.016	19.992	103.113	20.055	-10.524	0.543
1136.499	649.352	80.006	19.995	103.112	20.054	-10.439	0.501
1136.999	649.630	80.012	19.993	103.110	20.052	-10.285	0.496
1137.500	649.925	80.010	19.995	103.103	20.056	-10.555	0.543
1138.000	650.146	80.004	19.994	103.101	20.061	-10.921	0.544
1138.499	650.465	80.008	19.996	103.099	20.061	-10.915	0.528
1138.999	650.659	80.007	19.994	103.097	20.056	-10.538	0.527
1139.499	650.958	80.007	19.995	103.098	20.056	-10.587	0.503
1140.000	651.157	80.003	19.997	103.097	20.057	-10.628	0.495
1140.500	651.503	80.009	19.995	103.093	20.057	-10.673	0.522
1140.999	651.710	80.006	19.995	103.093	20.056	-10.545	0.549
1141.499	651.973	80.008	19.994	103.094	20.059	-10.805	0.512
1141.999	652.274	80.007	19.995	103.098	20.060	-10.855	0.517
1142.499	652.499	80.008	19.996	103.103	20.058	-10.703	0.545
1143.000	652.751	80.009	19.996	103.111	20.062	-11.012	0.501
1143.500	653.036	80.006	19.996	103.113	20.060	-10.884	0.507
1143.999	653.287	80.008	19.997	103.113	20.058	-10.738	0.537
1144.499	653.546	80.007	19.994	103.109	20.061	-10.954	0.523
1144.999	653.820	80.008	19.995	103.105	20.063	-11.051	0.521
1145.499	654.091	80.005	19.995	103.103	20.067	-11.329	0.539
1145.999	654.319	80.007	19.995	103.102	20.060	-10.826	0.522
1146.499	654.581	80.008	19.994	103.101	20.063	-11.076	0.495
1146.999	654.856	80.007	19.995	103.102	20.063	-11.092	0.513
1147.499	655.117	80.007	19.997	103.101	20.061	-10.960	0.536
1147.999	655.401	80.010	19.994	103.098	20.059	-10.807	0.540
1148.500	655.663	80.002	19.995	103.100	20.058	-10.739	0.546
1149.000	655.914	79.998	19.995	103.100	20.060	-10.846	0.529
1149.499	656.131	80.005	19.995	103.098	20.062	-10.972	0.491
1149.999	656.409	80.006	19.995	103.101	20.063	-11.078	0.482
1150.499	656.692	80.007	19.995	103.106	20.059	-10.757	0.528
1150.999	656.922	80.008	19.993	103.111	20.063	-11.035	0.537
1151.499	657.209	80.007	19.995	103.112	20.061	-10.955	0.515
1151.999	657.486	80.006	19.995	103.114	20.058	-10.709	0.540
1152.499	657.743	80.009	19.995	103.112	20.064	-11.169	0.549
1152.999	658.013	80.006	19.994	103.107	20.062	-10.967	0.530
1153.499	658.282	80.007	19.995	103.102	20.059	-10.810	0.533
1154.000	658.480	80.005	19.994	103.099	20.060	-10.884	0.503
1154.500	658.785	80.010	19.994	103.100	20.063	-11.067	0.485
1154.999	659.024	80.006	19.995	103.101	20.065	-11.228	0.524
1155.499	659.253	80.009	19.994	103.101	20.062	-10.975	0.506
1155.999	659.527	80.007	19.994	103.102	20.060	-10.841	0.485
1156.499	659.842	80.007	19.995	103.101	20.067	-11.356	0.546
1156.999	660.081	80.011	19.995	103.101	20.061	-10.897	0.572
1157.499	660.324	80.008	19.994	103.101	20.060	-10.888	0.518
1157.999	660.621	80.012	19.993	103.101	20.064	-11.129	0.511
1158.499	660.878	80.016	19.993	103.103	20.062	-11.027	0.547
1158.999	661.119	80.009	19.994	103.105	20.068	-11.393	0.526
1159.499	661.364	80.013	19.995	103.106	20.063	-11.097	0.492
1159.999	661.639	79.999	19.995	103.106	20.062	-11.016	0.503
1160.500	661.891	80.006	19.994	103.104	20.063	-11.041	0.524
1161.000	662.165	80.010	19.995	103.101	20.064	-11.129	0.526
1161.499	662.419	80.008	19.995	103.098	20.059	-10.786	0.527
1161.999	662.663	80.009	19.994	103.098	20.063	-11.095	0.513
1162.499	662.906	80.008	19.996	103.097	20.064	-11.171	0.492
1162.999	663.176	80.009	19.995	103.098	20.065	-11.202	0.500
1163.499	663.461	80.012	19.994	103.100	20.068	-11.449	0.534
1163.999	663.661	80.010	19.995	103.101	20.067	-11.366	0.520
1164.499	663.957	80.002	19.995	103.102	20.063	-11.038	0.491
1164.999	664.220	80.007	19.995	103.101	20.065	-11.236	0.528
1165.499	664.468	80.007	19.995	103.103	20.068	-11.397	0.535
1165.999	664.736	80.007	19.994	103.101	20.063	-11.100	0.513
1166.499	665.015	80.009	19.995	103.100	20.063	-11.055	0.531
1166.999	665.247	80.009	19.994	103.100	20.060	-10.847	0.529
1167.499	665.502	80.008	19.995	103.100	20.059	-10.775	0.499
1168.000	665.730	80.009	19.996	103.099	20.063	-11.102	0.485
1168.501	666.016	80.002	19.996	103.100	20.066	-11.254	0.498
1169.001	666.231	79.999	19.996	103.099	20.064	-11.137	0.508
1169.501	666.526	80.004	19.995	103.097	20.063	-11.051	0.506
1170.000	666.813	80.008	19.994	103.096	20.066	-11.313	0.546
1170.499	667.045	80.009	19.995	103.097	20.060	-10.882	0.551
1170.999	667.285	80.006	19.996	103.097	20.067	-11.346	0.496
1171.499	667.538	80.006	19.996	103.098	20.064	-11.148	0.482
1171.999	667.792	80.005	19.996	103.099	20.065	-11.227	0.500
1172.499	668.008	80.003	19.996	103.099	20.061	-10.926	0.488
1172.999	668.312	80.006	19.997	103.098	20.067	-11.356	0.495
1173.500	668.551	80.006	19.996	103.097	20.066	-11.272	0.531
1174.000	668.868	80.012	19.996	103.096	20.067	-11.369	0.550
1174.499	669.050	80.010	19.995	103.099	20.066	-11.309	0.528
1174.999	669.357	80.011	19.995	103.100	20.062	-11.026	0.494
1175.499	669.567	80.015	19.993	103.102	20.060	-10.837	0.503
1175.999	669.812	80.000	19.996	103.105	20.057	-10.635	0.486
1176.499	670.096	80.005	19.996	103.103	20.064	-11.172	0.492
1176.999	670.336	80.006	19.997	103.101	20.062	-11.016	0.526
1177.499	670.606	80.003	19.995	103.101	20.062	-10.989	0.517
1177.999	670.872	80.010	19.995	103.101	20.061	-10.952	0.523
1178.500	671.128	80.008	19.995	103.101	20.058	-10.715	0.529
1179.000	671.374	80.014	19.993	103.103	20.072	-11.692	0.512
1179.499	671.653	80.010	19.995	103.104	20.061	-10.953	0.514
1179.999	671.893	80.010	19.995	103.104	20.068	-11.435	0.522
1180.500	672.142	80.010	19.995	103.103	20.069	-11.527	0.504
1181.001	672.393	80.012	19.996	103.098	20.066	-11.307	0.494
1181.500	672.681	80.010	19.995	103.097	20.065	-11.239	0.520
1181.999	672.924	80.011	19.994	103.095	20.063	-11.084	0.535
1182.499	673.186	80.011	19.995	103.095	20.062	-10.989	0.517
1182.999	673.405	80.007	19.994	103.095	20.066	-11.317	0.493
1183.499	673.696	80.008	19.995	103.097	20.067	-11.371	0.496
1183.999	673.989	80.011	19.995	103.097	20.071	-11.612	0.548
1184.499	674.176	80.009	19.995	103.097	20.074	-11.844	0.532
1184.999	674.455	80.010	19.995	103.097	20.066	-11.313	0.473
1185.499	674.739	80.009	19.994	103.097	20.070	-11.538	0.514
1185.999	674.994	80.009	19.996	103.099	20.075	-11.892	0.551
1186.499	675.229	80.009	19.994	103.099	20.073	-11.764	0.515
1186.999	675.499	80.016	19.995	103.099	20.068	-11.418	0.498
1187.499	675.764	80.007	19.995	103.103	20.075	-11.902	0.520
1187.999	676.009	80.011	19.995	103.102	20.068	-11.437	0.522
1188.500	676.268	80.003	19.996	103.102	20.075	-11.913	0.507
1189.000	676.545	80.014	19.995	103.101	20.072	-11.742	0.520
1189.499	676.791	80.006	19.995	103.101	20.069	-11.523	0.530
1189.999	676.989	80.012	19.994	103.096	20.075	-11.894	0.484
1190.500	677.263	80.003	19.996	103.096	20.071	-11.667	0.458
1191.000	677.527	80.014	19.993	103.094	20.070	-11.534	0.505
1191.499	677.779	80.007	19.997	103.098	20.073	-11.809	0.527
1191.999	678.004	80.009	19.996	103.097	20.072	-11.725	0.497
1192.499	678.272	80.008	19.997	103.099	20.071	-11.624	0.485
1192.999	678.527	80.007	19.997	103.099	20.069	-11.490	0.508
1193.499	678.794	80.008	19.996	103.100	20.076	-12.011	0.522
1193.999	678.986	80.006	19.997	103.097	20.077	-12.042	0.490
1194.499	679.310	80.007	19.996	103.097	20.070	-11.579	0.488
1195.000	679.553	80.004	19.996	103.097	20.070	-11.532	0.541
1195.500	679.846	80.006	19.996	103.096	20.069	-11.503	0.551
1195.999	680.061	80.006	19.996	103.097	20.077	-12.065	0.522
1196.500	680.337	80.004	19.995	103.096	20.072	-11.709	0.500
1197.000	680.593	80.006	19.996	103.096	20.073	-11.814	0.511
1197.499	680.835	80.006	19.997	103.095	20.074	-11.842	0.515
1197.999	681.090	80.007	19.996	103.095	20.073	-11.777	0.498
1198.499	681.341	80.009	19.997	103.095	20.075	-11.948	0.502
1198.999	681.640	80.007	19.995	103.095	20.077	-12.071	0.529
1199.499	681.871	80.007	19.996	103.096	20.073	-11.779	0.540
1199.999	682.113	80.006	19.996	103.096	20.081	-12.366	0.501
1200.499	682.398	80.004	19.996	103.096	20.077	-12.104	0.500
1200.999	682.630	80.005	19.995	103.096	20.074	-11.878	0.522
1201.499	682.868	80.007	19.996	103.096	20.073	-11.766	0.493
1201.999	683.098	80.006	19.996	103.096	20.080	-12.252	0.469
1202.499	683.380	80.007	19.997	103.097	20.074	-11.879	0.490
1202.999	683.615	80.006	19.996	103.098	20.072	-11.692	0.515
1203.499	683.855	80.006	19.995	103.098	20.072	-11.741	0.496
1203.999	684.122	80.011	19.996	103.097	20.078	-12.122	0.491
1204.499	684.380	80.010	19.996	103.099	20.075	-11.894	0.516
1204.999	684.610	80.006	19.996	103.097	20.076	-12.014	0.506
1205.499	684.886	80.008	19.996	103.096	20.073	-11.812	0.497
1205.999	685.137	80.006	19.996	103.095	20.074	-11.863	0.517
1206.499	685.358	80.006	19.996	103.096	20.079	-12.191	0.500
1207.000	685.631	80.005	19.996	103.094	20.075	-11.900	0.483
1207.500	685.915	80.006	19.995	103.095	20.076	-12.032	0.525
1208.000	686.118	80.006	19.995	103.095	20.073	-11.749	0.522
1208.500	686.378	80.008	19.995	103.096	20.074	-11.867	0.475
1208.999	686.613	80.004	19.994	103.096	20.074	-11.863	0.479
1209.499	686.902	80.007	19.994	103.095	20.073	-11.815	0.509
1209.999	687.140	80.007	19.995	103.095	20.078	-12.130	0.526
1210.500	687.400	80.007	19.995	103.095	20.079	-12.211	0.513
1211.000	687.646	80.006	19.995	103.095	20.078	-12.159	0.502
1211.499	687.878	80.007	19.996	103.095	20.077	-12.060	0.491
1211.999	688.143	80.008	19.994	103.096	20.079	-12.182	0.487
1212.500	688.435	80.009	19.994	103.096	20.080	-12.276	0.527
1213.000	688.671	80.008	19.994	103.096	20.077	-12.044	0.543
1213.499	688.935	80.007	19.994	103.097	20.077	-12.036	0.514
1213.999	689.144	80.010	19.996	103.097	20.074	-11.881	0.487
1214.499	689.413	80.007	19.995	103.097	20.081	-12.352	0.476
1214.999	689.612	80.011	19.994	103.098	20.081	-12.362	0.473
1215.500	689.889	80.004	19.994	103.098	20.080	-12.288	0.472
1216.000	690.146	80.005	19.995	103.096	20.080	-12.307	0.505
1216.500	690.397	80.009	19.994	103.095	20.079	-12.187	0.521
1217.000	690.627	80.007	19.994	103.095	20.079	-12.240	0.494
1217.499	690.892	80.010	19.994	103.095	20.078	-12.145	0.488
1217.999	691.163	80.007	19.994	103.095	20.080	-12.262	0.516
1218.499	691.399	80.006	19.995	103.097	20.081	-12.332	0.522
1218.999	691.653	80.006	19.994	103.099	20.080	-12.250	0.498
1219.499	691.912	80.006	19.994	103.098	20.080	-12.306	0.501
1219.999	692.138	80.007	19.995	103.099	20.077	-12.079	0.500
1220.499	692.431	80.008	19.995	103.099	20.080	-12.281	0.502
1220.999	692.673	80.010	19.994	103.099	20.080	-12.301	0.527
1221.499	692.919	80.013	19.995	103.100	20.081	-12.365	0.511
1221.999	693.169	80.007	19.995	103.101	20.079	-12.190	0.492
1222.499	693.409	80.009	19.994	103.101	20.077	-12.069	0.493
1223.000	693.649	80.010	19.995	103.102	20.079	-12.225	0.485
1223.500	693.923	80.006	19.995	103.101	20.073	-11.815	0.497
1223.999	694.176	80.009	19.994	103.101	20.077	-12.067	0.520
1224.500	694.425	80.004	19.995	103.100	20.086	-12.699	0.515
1225.000	694.684	79.998	19.998	103.098	20.080	-12.310	0.505
1225.499	694.938	80.005	19.995	103.092	20.078	-12.174	0.510
1225.999	695.197	80.004	19.994	103.092	20.079	-12.198	0.513
1226.499	695.431	80.007	19.996	103.093	20.079	-12.225	0.503
1226.999	695.686	80.009	19.994	103.092	20.076	-12.025	0.491
1227.499	695.936	80.000	19.994	103.094	20.081	-12.380	0.497
1227.999	696.204	80.010	19.995	103.099	20.081	-12.326	0.512
1228.499	696.466	80.007	19.996	103.100	20.080	-12.275	0.524
1228.999	696.716	80.009	19.996	103.100	20.080	-12.269	0.521
1229.499	696.967	80.007	19.995	103.100	20.079	-12.195	0.507
1229.999	697.219	80.008	19.995	103.100	20.074	-11.876	0.502
1230.499	697.494	80.008	19.995	103.100	20.079	-12.220	0.515
1230.999	697.715	80.008	19.996	103.099	20.076	-11.992	0.512
1231.500	697.956	80.010	19.994	103.099	20.079	-12.235	0.479
1232.000	698.215	80.008	19.996	103.100	20.081	-12.358	0.481
1232.499	698.438	80.007	19.995	103.100	20.079	-12.238	0.492
1232.999	698.704	80.007	19.995	103.100	20.082	-12.404	0.486
1233.500	699.007	80.011	19.994	103.101	20.077	-12.054	0.529
1234.000	699.225	80.007	19.995	103.103	20.080	-12.248	0.545
1234.499	699.422	80.006	19.995	103.101	20.083	-12.518	0.468
1235.000	699.685	80.010	19.996	103.100	20.077	-12.100	0.438
1235.500	699.949	80.010	19.993	103.100	20.081	-12.328	0.493
1235.999	700.225	80.015	19.994	103.100	20.079	-12.236	0.533
1236.500	700.459	80.006	19.993	103.101	20.081	-12.333	0.525
1237.000	700.705	80.019	19.993	103.101	20.081	-12.365	0.495
1237.499	700.964	80.011	19.994	103.104	20.077	-12.038	0.493
1237.999	701.243	80.010	19.993	103.103	20.079	-12.230	0.522
1238.499	701.487	80.009	19.996	103.099	20.081	-12.387	0.530
1238.999	701.777	80.008	19.994	103.097	20.080	-12.303	0.528
1239.499	702.001	80.008	19.994	103.097	20.078	-12.121	0.524
1239.999	702.221	80.009	19.994	103.095	20.080	-12.269	0.479
1240.499	702.472	80.005	19.995	103.097	20.082	-12.460	0.458
1240.999	702.716	80.006	19.994	103.095	20.077	-12.070	0.483
1241.499	702.934	80.011	19.994	103.091	20.077	-12.068	0.479
1241.999	703.187	80.011	19.995	103.091	20.079	-12.191	0.466
1242.500	703.442	80.009	19.995	103.091	20.077	-12.043	0.490
1243.001	703.658	80.007	19.996	103.090	20.081	-12.356	0.490
1243.500	703.926	80.016	19.993	103.096	20.084	-12.559	0.477
1243.999	704.217	80.014	19.993	103.101	20.083	-12.491	0.521
1244.499	704.478	80.010	19.995	103.102	20.080	-12.257	0.556
1244.999	704.659	80.007	19.994	103.102	20.083	-12.465	0.498
1245.499	704.921	80.008	19.995	103.101	20.079	-12.214	0.443
1245.999	705.186	80.010	19.994	103.100	20.078	-12.156	0.485
1246.499	705.467	80.006	19.994	103.099	20.083	-12.477	0.536
1246.999	705.669	80.007	19.995	103.099	20.085	-12.627	0.514
1247.499	705.909	80.010	19.994	103.098	20.077	-12.096	0.463
1247.999	706.181	80.004	19.996	103.098	20.080	-12.255	0.477
1248.500	706.445	80.000	19.996	103.095	20.079	-12.211	0.524
1249.000	706.679	80.005	19.994	103.091	20.080	-12.269	0.517
1249.499	706.891	80.009	19.994	103.089	20.083	-12.521	0.472
1249.999	707.189	80.006	19.994	103.090	20.079	-12.230	0.478
1250.499	707.426	80.009	19.994	103.089	20.083	-12.498	0.523
1250.999	707.684	80.005	19.994	103.093	20.080	-12.290	0.515
1251.499	707.940	80.006	19.995	103.097	20.082	-12.421	0.505
1251.999	708.216	80.007	19.994	103.101	20.082	-12.421	0.523
1252.499	708.437	80.006	19.995	103.106	20.080	-12.306	0.514
1252.999	708.710	80.009	19.995	103.107	20.080	-12.265	0.495
1253.499	708.923	80.008	19.995	103.106	20.081	-12.358	0.490
1253.999	709.201	80.008	19.995	103.106	20.082	-12.415	0.489
1254.499	709.439	80.010	19.996	103.101	20.082	-12.403	0.504
1254.999	709.705	80.008	19.995	103.096	20.080	-12.306	0.510
1255.499	709.927	80.009	19.995	103.093	20.082	-12.440	0.496
1256.000	710.170	80.011	19.995	103.092	20.080	-12.290	0.476
1256.500	710.455	80.009	19.995	103.093	20.080	-12.275	0.496
1256.999	710.694	80.008	19.995	103.093	20.083	-12.496	0.527
1257.499	710.952	80.011	19.995	103.094	20.082	-12.420	0.511
1258.000	711.208	80.010	19.995	103.097	20.081	-12.379	0.505
1258.500	711.472	80.009	19.996	103.097	20.083	-12.479	0.517
1258.999	711.715	80.008	19.995	103.096	20.080	-12.263	0.514
1259.499	711.948	80.007	19.997	103.095	20.079	-12.199	0.492
1259.999	712.192	80.010	19.994	103.094	20.085	-12.644	0.477
1260.499	712.463	80.009	19.996	103.094	20.081	-12.379	0.496
1260.999	712.713	80.015	19.996	103.094	20.083	-12.467	0.518
1261.499	712.965	80.007	19.996	103.094	20.083	-12.492	0.511
1261.999	713.218	80.008	19.995	103.095	20.082	-12.450	0.503
1262.499	713.467	80.013	19.996	103.096	20.082	-12.446	0.504
1262.999	713.715	80.010	19.995	103.097	20.087	-12.760	0.500
1263.499	714.005	80.007	19.995	103.094	20.083	-12.508	0.517
1263.999	714.239	80.009	19.995	103.093	20.081	-12.383	0.531
1264.499	714.507	80.010	19.996	103.093	20.082	-12.400	0.513
1264.999	714.788	80.008	19.994	103.093	20.085	-12.624	0.525
1265.499	715.020	80.009	19.996	103.093	20.086	-12.743	0.530
1265.999	715.301	80.009	19.995	103.095	20.084	-12.570	0.513
1266.500	715.574	80.009	19.994	103.095	20.087	-12.755	0.534
1267.000	715.800	80.010	19.996	103.093	20.085	-12.644	0.527
1267.499	716.029	80.008	19.995	103.093	20.085	-12.658	0.477
1267.999	716.298	80.006	19.995	103.093	20.085	-12.650	0.477
1268.499	716.548	80.007	19.996	103.092	20.084	-12.590	0.508
1268.999	716.808	80.007	19.994	103.092	20.085	-12.667	0.514
1269.499	717.082	80.013	19.995	103.094	20.080	-12.317	0.522
1269.999	717.354	80.009	19.995	103.093	20.084	-12.564	0.540
1270.500	717.586	80.007	19.994	103.093	20.087	-12.769	0.525
1271.000	717.836	80.010	19.994	103.092	20.086	-12.702	0.493
1271.499	718.053	80.007	19.995	103.093	20.086	-12.743	0.475
1271.999	718.347	80.005	19.996	103.093	20.081	-12.339	0.489
1272.499	718.583	80.007	19.994	103.095	20.084	-12.588	0.520
1272.999	718.864	80.007	19.996	103.095	20.083	-12.467	0.524
1273.499	719.096	80.007	19.995	103.095	20.084	-12.536	0.515
1273.999	719.341	80.008	19.997	103.092	20.085	-12.627	0.495
1274.499	719.573	80.008	19.997	103.091	20.084	-12.588	0.477
1274.999	719.866	80.008	19.995	103.090	20.088	-12.882	0.501
1275.500	720.115	80.008	19.996	103.090	20.084	-12.555	0.534
1276.000	720.383	80.007	19.995	103.091	20.086	-12.689	0.530
1276.499	720.641	80.005	19.995	103.093	20.086	-12.724	0.522
1276.999	720.899	80.005	19.996	103.094	20.084	-12.576	0.521
1277.499	721.149	80.007	19.996	103.096	20.085	-12.660	0.512
1277.999	721.377	80.006	19.995	103.096	20.085	-12.654	0.493
1278.499	721.668	80.007	19.997	103.096	20.081	-12.382	0.498
1278.999	721.916	80.007	19.995	103.094	20.085	-12.654	0.529
1279.499	722.145	80.005	19.996	103.095	20.084	-12.551	0.508
1279.999	722.405	80.006	19.995	103.095	20.085	-12.654	0.483
1280.499	722.653	80.007	19.995	103.094	20.087	-12.786	0.499
1280.999	722.922	80.007	19.996	103.096	20.083	-12.464	0.512
1281.499	723.154	80.005	19.995	103.097	20.084	-12.537	0.509
1281.999	723.445	80.007	19.995	103.095	20.082	-12.454	0.512
1282.499	723.703	80.007	19.996	103.096	20.087	-12.788	0.536
1282.999	723.931	80.005	19.996	103.096	20.085	-12.621	0.517
1283.499	724.168	80.006	19.996	103.096	20.084	-12.539	0.475
1283.999	724.459	80.006	19.995	103.096	20.088	-12.870	0.497
1284.499	724.694	80.006	19.996	103.097	20.084	-12.535	0.527
1284.999	724.955	80.005	19.995	103.098	20.086	-12.724	0.510
1285.499	725.197	80.006	19.996	103.098	20.085	-12.625	0.499
1286.000	725.428	80.007	19.996	103.098	20.084	-12.592	0.488
1286.500	725.668	80.005	19.995	103.098	20.088	-12.868	0.472
1287.000	725.957	80.006	19.995	103.097	20.085	-12.613	0.500
1287.500	726.220	80.004	19.995	103.097	20.086	-12.722	0.541
1287.999	726.441	80.006	19.996	103.096	20.088	-12.866	0.518
1288.499	726.710	80.007	19.996	103.096	20.086	-12.736	0.487
1289.000	727.012	80.005	19.996	103.095	20.088	-12.876	0.530
1289.500	727.236	80.008	19.996	103.095	20.084	-12.598	0.549
1289.999	727.495	80.007	19.996	103.095	20.088	-12.819	0.504
1290.499	727.730	80.006	19.996	103.097	20.089	-12.936	0.488
1290.999	728.004	80.008	19.995	103.097	20.092	-13.113	0.502
1291.499	728.256	80.005	19.996	103.097	20.085	-12.676	0.518
1291.999	728.526	80.006	19.996	103.097	20.090	-13.018	0.524
1292.499	728.780	80.008	19.997	103.097	20.089	-12.919	0.523
1292.999	728.993	80.004	19.995	103.096	20.088	-12.855	0.496
1293.499	729.261	80.006	19.996	103.096	20.087	-12.756	0.474
1293.999	729.508	80.006	19.996	103.096	20.087	-12.813	0.498
1294.499	729.787	80.006	19.996	103.096	20.085	-12.661	0.520
1294.999	730.002	80.005	19.994	103.097	20.086	-12.693	0.510
1295.499	730.265	80.006	19.995	103.097	20.087	-12.765	0.486
1295.999	730.524	80.004	19.995	103.097	20.088	-12.846	0.500
1296.499	730.807	80.008	19.995	103.097	20.086	-12.687	0.532
1296.999	731.049	80.004	19.996	103.097	20.083	-12.528	0.534
1297.499	731.297	80.004	19.996	103.097	20.086	-12.707	0.508
1297.999	731.541	80.006	19.994	103.097	20.089	-12.961	0.491
1298.499	731.783	80.007	19.994	103.098	20.082	-12.458	0.489
1298.999	732.021	80.008	19.995	103.098	20.090	-13.017	0.484
1299.499	732.303	80.007	19.995	103.098	20.091	-13.043	0.500
1299.999	732.567	80.005	19.994	103.098	20.086	-12.745	0.532
1300.500	732.841	80.007	19.994	103.098	20.089	-12.895	0.542
1301.000	733.065	80.007	19.995	103.098	20.081	-12.376	0.518
1301.499	733.325	80.007	19.994	103.099	20.086	-12.728	0.491
1301.999	733.593	80.005	19.994	103.098	20.083	-12.463	0.506
1302.499	733.855	80.003	19.994	103.099	20.087	-12.759	0.529
1302.999	734.071	80.006	19.995	103.100	20.092	-13.138	0.504
1303.499	734.306	80.004	19.995	103.102	20.087	-12.763	0.465
1303.999	734.605	80.007	19.994	103.105	20.086	-12.708	0.492
1304.499	734.829	80.005	19.995	103.106	20.089	-12.926	0.528
1304.999	735.098	80.009	19.994	103.106	20.088	-12.839	0.508
1305.499	735.316	80.005	19.993	103.106	20.089	-12.961	0.490
1305.999	735.583	80.004	19.995	103.102	20.088	-12.852	0.486
1306.499	735.832	80.007	19.994	103.098	20.086	-12.729	0.501
1306.999	736.101	80.006	19.994	103.097	20.089	-12.949	0.517
1307.499	736.333	80.006	19.994	103.097	20.087	-12.816	0.509
1307.999	736.560	80.006	19.996	103.097	20.088	-12.846	0.480
1308.499	736.832	80.007	19.993	103.098	20.087	-12.760	0.479
1308.999	737.092	80.009	19.995	103.099	20.083	-12.489	0.515
1309.499	737.368	80.006	19.994	103.098	20.087	-12.796	0.534
1309.999	737.631	80.007	19.994	103.097	20.092	-13.118	0.537
1310.500	737.868	80.005	19.994	103.097	20.085	-12.640	0.520
1311.000	738.086	80.008	19.993	103.096	20.088	-12.873	0.478
1311.499	738.357	80.007	19.995	103.096	20.084	-12.578	0.472
1312.000	738.583	80.009	19.994	103.095	20.089	-12.959	0.493
1312.500	738.853	80.008	19.995	103.096	20.084	-12.566	0.497
1312.999	739.125	80.009	19.996	103.095	20.091	-13.068	0.519
1313.499	739.359	80.007	19.995	103.096	20.089	-12.913	0.524
1313.999	739.638	80.010	19.994	103.096	20.090	-13.014	0.509
1314.499	739.867	80.010	19.995	103.097	20.091	-13.094	0.511
1314.999	740.135	80.009	19.994	103.098	20.093	-13.230	0.503
1315.500	740.375	80.008	19.994	103.099	20.088	-12.888	0.502
1316.001	740.652	80.008	19.995	103.099	20.091	-13.084	0.513
1316.500	740.886	80.007	19.995	103.099	20.091	-13.041	0.514
1316.999	741.129	80.005	19.995	103.096	20.091	-13.080	0.494
1317.499	741.423	80.008	19.994	103.093	20.092	-13.107	0.507
1317.999	741.636	80.007	19.995	103.091	20.091	-13.086	0.522
1318.500	741.912	80.009	19.995	103.091	20.086	-12.711	0.498
1319.001	742.188	80.009	19.995	103.091	20.087	-12.755	0.521
1319.500	742.414	80.007	19.996	103.094	20.087	-12.763	0.527
1319.999	742.703	80.006	19.995	103.095	20.090	-13.023	0.508
1320.499	742.952	80.009	19.994	103.095	20.090	-12.982	0.526
1320.999	743.182	80.006	19.995	103.094	20.089	-12.905	0.508
1321.499	743.421	80.009	19.996	103.092	20.089	-12.920	0.474
