Sample ID:	C:\MCC\MCC Cal\Test\PP_MCC_30K_min_210928_R2.txt
Sample Weight (mg):	5
Heating Rate (C/s):	0.5
Combustor Temp (C):	900
N2 Flow Rate (cc/min):	80
O2 Flow Rate (cc/min):	20
Calibration File:	C:\MCC\MCC Cal\Coeff1 JN10440_30_210304.txt.txt
T Correction Coefficients:	0	1.024463	0
Time Shift (s):	14
*
Time (s)	Temperature (C)	N2 flow rate (cc/min)	O2 flow rate (cc/min)	Flow Rate (cc/min)	Oxygen (%)	HRR (W/g)	Heating rate (C/s)
0.000	109.399	80.006	19.995	100.198	20.080	-0.224	-0.002
0.500	109.419	80.005	19.994	100.194	20.075	0.044	-0.006
1.000	109.439	80.005	19.994	100.190	20.074	0.109	0.015
1.500	109.400	80.006	19.994	100.188	20.075	0.041	0.011
2.000	109.429	80.005	19.994	100.183	20.075	0.060	-0.015
2.500	109.405	80.005	19.994	100.181	20.078	-0.140	-0.003
3.000	109.390	80.006	19.994	100.180	20.077	-0.027	-0.017
3.500	109.389	80.006	19.994	100.177	20.076	-0.017	-0.027
4.000	109.370	80.005	19.994	100.175	20.077	-0.073	-0.017
4.500	109.389	80.005	19.995	100.176	20.074	0.114	-0.010
5.000	109.393	80.006	19.995	100.179	20.077	-0.050	0.011
5.500	109.390	80.006	19.995	100.185	20.077	-0.053	0.012
6.000	109.391	80.005	19.995	100.192	20.077	-0.043	-0.000
6.500	109.386	80.005	19.994	100.200	20.075	0.067	-0.003
7.000	109.366	80.005	19.995	100.206	20.076	-0.003	-0.015
7.500	109.355	80.005	19.995	100.211	20.077	-0.077	-0.028
8.001	109.374	80.004	19.995	100.210	20.076	-0.026	-0.012
8.501	109.385	80.005	19.995	100.210	20.076	0.012	0.018
9.000	109.341	80.005	19.994	100.214	20.076	0.005	-0.001
9.500	109.429	80.004	19.994	100.221	20.076	-0.017	0.006
10.000	109.380	80.002	19.994	100.228	20.076	0.024	0.041
10.500	109.409	80.005	19.995	100.238	20.073	0.222	0.010
11.000	109.398	80.006	19.995	100.246	20.074	0.103	-0.001
11.500	109.416	80.005	19.995	100.246	20.073	0.220	0.012
12.000	109.392	80.005	19.995	100.245	20.072	0.226	0.000
12.500	109.417	80.005	19.995	100.246	20.072	0.232	-0.002
13.000	109.433	80.005	19.995	100.246	20.070	0.354	0.021
13.500	109.394	80.004	19.995	100.246	20.072	0.287	0.009
14.000	109.425	80.006	19.994	100.250	20.071	0.294	-0.016
14.500	109.426	80.005	19.996	100.252	20.070	0.407	0.012
15.001	109.407	80.005	19.994	100.254	20.068	0.478	0.007
15.500	109.437	80.006	19.995	100.258	20.069	0.437	-0.004
16.000	109.438	80.005	19.995	100.265	20.072	0.270	0.021
16.500	109.486	80.006	19.995	100.273	20.068	0.506	0.040
17.000	109.457	80.007	19.995	100.281	20.067	0.566	0.034
17.500	109.514	80.006	19.994	100.290	20.065	0.702	0.023
18.000	109.523	80.005	19.995	100.294	20.065	0.668	0.047
18.500	109.560	80.007	19.994	100.297	20.066	0.639	0.056
19.000	109.557	80.006	19.995	100.301	20.064	0.786	0.040
19.500	109.588	80.007	19.995	100.306	20.061	0.965	0.031
20.000	109.608	80.005	19.995	100.308	20.060	1.005	0.040
20.500	109.642	80.006	19.997	100.308	20.062	0.873	0.052
21.000	109.683	80.005	19.996	100.311	20.060	1.031	0.065
21.500	109.711	80.006	19.998	100.315	20.061	0.952	0.072
22.000	109.750	80.006	19.996	100.317	20.056	1.248	0.068
22.500	109.793	80.006	19.997	100.321	20.060	1.032	0.075
23.000	109.799	80.007	19.995	100.327	20.059	1.072	0.065
23.500	109.829	80.007	19.995	100.329	20.057	1.224	0.043
24.000	109.904	80.007	19.996	100.329	20.055	1.330	0.071
24.500	109.910	80.008	19.995	100.329	20.055	1.330	0.093
25.000	109.969	80.006	19.996	100.332	20.054	1.367	0.073
25.500	110.025	80.006	19.997	100.336	20.057	1.191	0.090
26.000	110.061	80.006	19.994	100.342	20.054	1.395	0.103
26.500	110.065	80.006	19.995	100.346	20.055	1.291	0.066
27.000	110.156	80.007	19.996	100.348	20.054	1.376	0.067
27.500	110.218	80.007	19.994	100.349	20.050	1.645	0.124
28.000	110.273	80.006	19.994	100.347	20.053	1.456	0.135
28.500	110.361	80.007	19.994	100.343	20.051	1.559	0.130
29.000	110.384	80.007	19.994	100.341	20.052	1.528	0.127
29.500	110.452	80.006	19.995	100.340	20.053	1.429	0.100
30.000	110.513	80.006	19.995	100.337	20.053	1.431	0.110
30.500	110.567	80.005	19.995	100.338	20.052	1.491	0.123
31.000	110.574	80.005	19.995	100.344	20.054	1.410	0.088
31.500	110.632	80.007	19.994	100.344	20.050	1.644	0.063
32.001	110.715	80.006	19.995	100.350	20.052	1.535	0.103
32.501	110.797	80.007	19.994	100.355	20.049	1.686	0.153
33.001	110.812	80.007	19.994	100.359	20.048	1.768	0.131
33.501	110.914	80.007	19.995	100.359	20.052	1.493	0.107
34.000	110.988	80.006	19.994	100.365	20.048	1.746	0.147
34.500	111.067	80.007	19.994	100.366	20.050	1.633	0.164
35.000	111.127	80.007	19.994	100.368	20.047	1.797	0.145
35.500	111.202	80.007	19.995	100.370	20.047	1.821	0.137
36.000	111.254	80.006	19.995	100.370	20.044	1.983	0.131
36.500	111.368	80.005	19.996	100.372	20.047	1.853	0.147
37.000	111.419	80.007	19.995	100.372	20.044	1.981	0.165
37.500	111.507	80.005	19.994	100.374	20.047	1.853	0.152
38.000	111.591	80.005	19.994	100.377	20.047	1.845	0.156
38.500	111.686	80.006	19.994	100.380	20.043	2.072	0.175
39.000	111.786	80.005	19.994	100.380	20.045	1.968	0.187
39.500	111.833	80.007	19.994	100.380	20.045	1.954	0.171
40.000	111.939	80.007	19.994	100.379	20.044	1.987	0.150
40.501	111.999	80.006	19.994	100.377	20.047	1.848	0.159
41.001	112.070	80.005	19.994	100.375	20.046	1.886	0.149
41.500	112.187	80.006	19.994	100.375	20.047	1.853	0.160
42.000	112.303	80.005	19.993	100.377	20.046	1.894	0.210
42.500	112.376	80.006	19.995	100.377	20.044	2.002	0.211
43.000	112.494	80.005	19.995	100.380	20.044	2.004	0.190
43.500	112.594	80.008	19.995	100.386	20.044	2.040	0.204
44.000	112.676	80.007	19.994	100.391	20.044	1.988	0.200
44.500	112.793	80.006	19.995	100.395	20.044	2.006	0.191
45.000	112.915	80.006	19.995	100.402	20.043	2.065	0.219
45.500	112.996	80.007	19.995	100.402	20.046	1.896	0.221
46.000	113.133	80.005	19.995	100.401	20.042	2.147	0.210
46.500	113.240	80.006	19.995	100.397	20.041	2.219	0.231
47.000	113.294	80.007	19.994	100.393	20.043	2.043	0.203
47.500	113.410	80.007	19.994	100.390	20.039	2.301	0.166
48.000	113.561	80.007	19.994	100.390	20.040	2.289	0.218
48.500	113.628	80.006	19.993	100.393	20.041	2.193	0.242
49.000	113.721	80.007	19.995	100.397	20.041	2.183	0.189
49.500	113.907	80.007	19.995	100.403	20.042	2.134	0.219
50.000	114.010	80.008	19.995	100.406	20.043	2.062	0.284
50.500	114.093	80.008	19.994	100.409	20.042	2.125	0.238
51.000	114.217	80.007	19.994	100.408	20.042	2.118	0.197
51.500	114.339	80.007	19.996	100.404	20.039	2.353	0.227
52.000	114.459	80.006	19.995	100.400	20.042	2.124	0.244
52.500	114.571	80.007	19.995	100.399	20.038	2.404	0.237
53.001	114.655	80.005	19.996	100.397	20.043	2.095	0.214
53.501	114.812	80.006	19.996	100.397	20.040	2.266	0.219
54.001	114.936	80.006	19.995	100.399	20.039	2.307	0.261
54.501	115.081	80.006	19.995	100.399	20.040	2.255	0.275
55.000	115.207	80.006	19.995	100.397	20.041	2.228	0.270
55.500	115.327	80.006	19.995	100.396	20.040	2.276	0.258
56.000	115.484	80.006	19.995	100.390	20.039	2.307	0.261
56.500	115.607	80.007	19.995	100.386	20.040	2.247	0.278
57.000	115.717	80.006	19.995	100.389	20.038	2.416	0.256
57.500	115.856	80.004	19.994	100.389	20.040	2.261	0.241
58.000	116.020	80.005	19.996	100.388	20.040	2.290	0.276
58.500	116.121	80.005	19.995	100.390	20.040	2.271	0.284
59.000	116.281	80.005	19.995	100.393	20.038	2.358	0.263
59.501	116.416	80.004	19.995	100.389	20.039	2.326	0.278
60.001	116.563	80.005	19.995	100.390	20.037	2.432	0.289
60.500	116.711	80.005	19.995	100.393	20.038	2.397	0.289
61.000	116.839	80.005	19.995	100.397	20.039	2.353	0.285
61.500	116.939	80.005	19.994	100.398	20.038	2.356	0.252
62.000	117.085	80.004	19.995	100.402	20.038	2.375	0.237
62.500	117.237	80.005	19.994	100.401	20.042	2.148	0.273
63.000	117.394	80.005	19.996	100.401	20.038	2.368	0.303
63.500	117.523	80.006	19.995	100.401	20.041	2.177	0.297
64.000	117.722	80.005	19.994	100.404	20.040	2.286	0.307
64.500	117.842	80.006	19.994	100.407	20.040	2.279	0.323
65.000	117.980	80.004	19.995	100.410	20.039	2.320	0.288
65.500	118.120	80.006	19.995	100.410	20.039	2.355	0.268
66.000	118.247	80.005	19.996	100.411	20.042	2.160	0.273
66.500	118.409	80.006	19.994	100.410	20.039	2.295	0.278
67.000	118.608	80.004	19.995	100.410	20.043	2.072	0.325
67.501	118.736	80.005	19.995	100.409	20.040	2.262	0.345
68.001	118.881	80.004	19.995	100.409	20.042	2.151	0.300
68.500	119.071	80.005	19.996	100.409	20.041	2.213	0.304
69.000	119.210	80.005	19.995	100.408	20.036	2.485	0.332
69.500	119.395	80.004	19.995	100.408	20.038	2.377	0.327
70.000	119.520	80.004	19.996	100.409	20.037	2.455	0.317
70.500	119.654	80.004	19.995	100.409	20.037	2.467	0.284
71.001	119.829	80.005	19.994	100.408	20.039	2.300	0.284
71.501	119.985	80.004	19.995	100.408	20.041	2.223	0.320
72.000	120.149	80.004	19.995	100.407	20.040	2.255	0.325
72.500	120.323	80.003	19.995	100.406	20.043	2.096	0.329
73.000	120.489	80.005	19.995	100.406	20.043	2.098	0.339
73.500	120.665	80.004	19.997	100.407	20.041	2.175	0.341
74.000	120.822	80.005	19.995	100.408	20.041	2.209	0.338
74.500	121.013	80.004	19.996	100.408	20.039	2.334	0.341
75.000	121.142	80.004	19.996	100.408	20.041	2.203	0.333
75.500	121.307	80.005	19.997	100.408	20.039	2.346	0.307
76.000	121.508	80.005	19.996	100.408	20.037	2.418	0.330
76.501	121.679	80.006	19.995	100.407	20.040	2.263	0.369
77.001	121.845	80.005	19.996	100.407	20.040	2.288	0.355
77.500	122.058	80.005	19.995	100.407	20.043	2.095	0.359
78.000	122.177	80.005	19.996	100.407	20.040	2.264	0.356
78.500	122.380	80.004	19.996	100.406	20.038	2.411	0.327
79.000	122.538	80.004	19.996	100.407	20.038	2.401	0.341
79.501	122.706	80.006	19.996	100.407	20.038	2.377	0.343
80.001	122.899	80.004	19.995	100.407	20.039	2.351	0.344
80.501	123.073	80.004	19.995	100.407	20.037	2.435	0.364
81.000	123.244	80.005	19.995	100.407	20.037	2.426	0.356
81.500	123.437	80.003	19.995	100.407	20.036	2.490	0.355
82.000	123.607	80.003	19.995	100.407	20.035	2.556	0.363
82.500	123.757	80.004	19.995	100.409	20.035	2.586	0.341
83.000	123.935	80.006	19.995	100.409	20.035	2.567	0.324
83.501	124.136	80.006	19.996	100.411	20.037	2.420	0.354
84.001	124.292	80.005	19.995	100.412	20.034	2.658	0.368
84.500	124.458	80.004	19.997	100.412	20.034	2.649	0.340
85.000	124.657	80.006	19.996	100.413	20.037	2.466	0.344
85.500	124.861	80.005	19.996	100.414	20.036	2.484	0.384
86.000	125.046	80.003	19.996	100.418	20.038	2.410	0.395
86.500	125.251	80.004	19.996	100.417	20.037	2.431	0.389
87.000	125.400	80.004	19.996	100.421	20.036	2.482	0.372
87.500	125.624	80.005	19.996	100.426	20.039	2.353	0.363
88.000	125.791	80.005	19.995	100.428	20.039	2.341	0.382
88.500	125.983	80.005	19.997	100.423	20.034	2.618	0.375
89.000	126.183	80.005	19.995	100.422	20.038	2.408	0.376
89.500	126.348	80.005	19.995	100.417	20.037	2.433	0.379
90.000	126.524	80.005	19.996	100.409	20.038	2.382	0.353
90.501	126.754	80.005	19.995	100.406	20.035	2.597	0.373
91.001	126.882	80.004	19.996	100.407	20.035	2.572	0.382
91.501	127.114	80.004	19.997	100.408	20.034	2.621	0.359
92.001	127.291	80.004	19.995	100.408	20.039	2.341	0.385
92.500	127.458	80.005	19.994	100.410	20.037	2.456	0.377
93.000	127.707	80.005	19.995	100.410	20.035	2.555	0.380
93.500	127.847	80.005	19.995	100.411	20.037	2.418	0.402
94.000	128.023	80.004	19.995	100.412	20.037	2.456	0.352
94.500	128.221	80.004	19.995	100.413	20.037	2.425	0.345
95.000	128.410	80.004	19.993	100.418	20.037	2.466	0.381
95.500	128.598	80.004	19.994	100.426	20.035	2.584	0.382
96.000	128.816	80.004	19.994	100.429	20.035	2.575	0.392
96.500	129.001	80.006	19.995	100.435	20.037	2.474	0.404
97.000	129.213	80.005	19.995	100.440	20.037	2.452	0.400
97.500	129.384	80.005	19.994	100.442	20.034	2.640	0.391
98.000	129.614	80.004	19.993	100.438	20.036	2.527	0.392
98.500	129.838	80.006	19.995	100.432	20.035	2.572	0.427
99.000	130.023	80.005	19.994	100.426	20.034	2.632	0.431
99.500	130.229	80.006	19.995	100.420	20.035	2.574	0.400
100.000	130.399	80.005	19.996	100.412	20.033	2.721	0.383
100.500	130.634	80.005	19.994	100.409	20.036	2.522	0.390
101.000	130.801	80.005	19.994	100.410	20.036	2.519	0.404
101.500	131.011	80.006	19.994	100.410	20.036	2.510	0.390
102.000	131.215	80.004	19.994	100.410	20.039	2.319	0.396
102.500	131.465	80.005	19.994	100.411	20.037	2.440	0.434
103.000	131.604	80.006	19.995	100.412	20.041	2.206	0.422
103.500	131.841	80.006	19.996	100.416	20.038	2.397	0.383
104.001	132.076	80.006	19.994	100.423	20.038	2.416	0.424
104.501	132.249	80.004	19.995	100.431	20.041	2.223	0.440
105.000	132.463	80.005	19.996	100.433	20.037	2.447	0.398
105.501	132.672	80.005	19.994	100.432	20.036	2.497	0.405
106.001	132.878	80.006	19.995	100.428	20.038	2.358	0.419
106.501	133.083	80.006	19.995	100.421	20.036	2.541	0.412
107.001	133.282	80.006	19.996	100.414	20.039	2.326	0.407
107.500	133.490	80.006	19.996	100.413	20.036	2.526	0.406
108.000	133.737	80.005	19.996	100.413	20.039	2.309	0.431
108.500	133.950	80.005	19.995	100.412	20.041	2.227	0.457
109.000	134.151	80.005	19.995	100.413	20.037	2.474	0.437
109.500	134.357	80.008	19.994	100.415	20.039	2.336	0.410
110.000	134.591	80.006	19.994	100.415	20.037	2.478	0.424
110.500	134.812	80.005	19.994	100.415	20.037	2.458	0.448
111.000	134.992	80.006	19.994	100.416	20.039	2.348	0.428
111.501	135.195	80.005	19.994	100.417	20.039	2.329	0.392
112.001	135.384	80.004	19.996	100.414	20.039	2.350	0.387
112.501	135.636	80.005	19.996	100.414	20.037	2.461	0.416
113.000	135.855	80.005	19.994	100.414	20.037	2.430	0.456
113.500	136.068	80.004	19.994	100.414	20.039	2.297	0.452
114.001	136.268	80.006	19.995	100.412	20.037	2.478	0.423
114.501	136.515	80.005	19.994	100.412	20.043	2.086	0.430
115.000	136.728	80.006	19.994	100.412	20.042	2.129	0.453
115.500	136.921	80.005	19.994	100.411	20.040	2.257	0.433
116.000	137.195	80.006	19.995	100.411	20.037	2.464	0.437
116.500	137.412	80.006	19.995	100.412	20.037	2.445	0.479
117.000	137.617	80.005	19.995	100.414	20.039	2.329	0.456
117.500	137.845	80.006	19.994	100.418	20.037	2.442	0.427
118.000	138.055	80.005	19.995	100.419	20.036	2.488	0.435
118.500	138.309	80.007	19.995	100.420	20.039	2.297	0.451
119.000	138.507	80.005	19.995	100.419	20.036	2.517	0.458
119.500	138.721	80.005	19.995	100.418	20.039	2.327	0.432
120.000	138.962	80.005	19.994	100.414	20.038	2.416	0.434
120.500	139.168	80.005	19.994	100.414	20.035	2.604	0.451
121.000	139.397	80.004	19.993	100.416	20.037	2.425	0.441
121.500	139.609	80.007	19.995	100.420	20.040	2.279	0.438
122.001	139.832	80.005	19.995	100.422	20.037	2.428	0.437
122.501	140.114	80.006	19.993	100.422	20.038	2.375	0.470
123.001	140.313	80.005	19.994	100.422	20.037	2.438	0.493
123.500	140.566	80.006	19.995	100.420	20.037	2.466	0.466
124.000	140.804	80.005	19.994	100.415	20.042	2.139	0.471
124.500	141.033	80.006	19.994	100.414	20.042	2.148	0.479
125.000	141.230	80.006	19.994	100.414	20.041	2.197	0.447
125.501	141.485	80.006	19.995	100.414	20.040	2.269	0.439
126.001	141.675	80.006	19.995	100.413	20.042	2.134	0.448
126.500	141.900	80.005	19.994	100.413	20.041	2.182	0.430
127.000	142.147	80.007	19.995	100.413	20.041	2.204	0.443
127.500	142.360	80.006	19.994	100.414	20.042	2.114	0.466
128.000	142.620	80.008	19.995	100.414	20.040	2.232	0.467
128.500	142.835	80.006	19.993	100.414	20.039	2.321	0.474
129.000	143.076	80.007	19.995	100.414	20.043	2.078	0.466
129.500	143.307	80.007	19.993	100.413	20.039	2.329	0.464
130.000	143.583	80.008	19.994	100.411	20.041	2.182	0.489
130.500	143.764	80.008	19.995	100.410	20.043	2.100	0.481
131.000	144.010	80.007	19.993	100.410	20.042	2.149	0.442
131.500	144.261	80.008	19.994	100.409	20.042	2.132	0.463
132.000	144.508	80.009	19.995	100.410	20.041	2.204	0.498
132.500	144.774	80.007	19.995	100.412	20.038	2.406	0.505
133.000	144.949	80.008	19.994	100.412	20.040	2.269	0.477
133.500	145.189	80.009	19.994	100.412	20.037	2.479	0.428
134.000	145.429	80.007	19.994	100.411	20.038	2.356	0.448
134.500	145.694	80.007	19.995	100.410	20.039	2.334	0.493
135.000	145.876	80.007	19.994	100.409	20.040	2.290	0.476
135.500	146.159	80.006	19.993	100.408	20.038	2.409	0.456
136.000	146.354	80.008	19.993	100.407	20.038	2.372	0.471
136.500	146.583	80.006	19.995	100.407	20.038	2.384	0.450
137.000	146.856	80.007	19.995	100.407	20.039	2.346	0.463
137.500	147.077	80.006	19.995	100.408	20.039	2.319	0.498
138.000	147.331	80.007	19.995	100.409	20.037	2.467	0.485
138.500	147.576	80.006	19.994	100.409	20.037	2.445	0.487
139.000	147.790	80.006	19.995	100.410	20.036	2.515	0.479
139.500	148.072	80.005	19.995	100.412	20.038	2.414	0.478
140.000	148.290	80.006	19.995	100.412	20.036	2.539	0.498
140.501	148.569	80.004	19.994	100.411	20.037	2.421	0.498
141.000	148.775	80.005	19.993	100.411	20.037	2.420	0.491
141.500	149.003	80.006	19.993	100.411	20.037	2.440	0.460
142.000	149.248	80.004	19.996	100.409	20.039	2.339	0.454
142.500	149.490	80.005	19.995	100.409	20.038	2.387	0.480
143.000	149.762	80.005	19.995	100.409	20.037	2.420	0.501
143.500	149.965	80.005	19.996	100.409	20.038	2.413	0.495
144.000	150.228	80.003	19.995	100.408	20.038	2.365	0.471
144.500	150.441	80.005	19.995	100.408	20.037	2.445	0.471
145.000	150.685	80.005	19.996	100.408	20.036	2.512	0.466
145.500	150.921	80.006	19.996	100.408	20.037	2.474	0.468
146.000	151.166	80.004	19.995	100.408	20.036	2.527	0.480
146.500	151.355	80.005	19.995	100.408	20.037	2.476	0.458
147.000	151.606	80.006	19.996	100.408	20.035	2.560	0.437
147.500	151.839	80.003	19.995	100.408	20.040	2.245	0.462
148.001	152.084	80.003	19.995	100.408	20.037	2.479	0.481
148.500	152.363	80.003	19.996	100.408	20.037	2.459	0.501
149.000	152.581	80.006	19.995	100.408	20.039	2.326	0.510
149.500	152.849	80.003	19.995	100.408	20.039	2.346	0.492
150.000	153.050	80.005	19.997	100.408	20.036	2.502	0.477
150.500	153.303	80.005	19.996	100.408	20.036	2.520	0.461
151.000	153.540	80.003	19.995	100.408	20.040	2.252	0.472
151.500	153.765	80.005	19.996	100.408	20.039	2.336	0.476
152.000	154.015	80.005	19.997	100.411	20.040	2.254	0.468
152.500	154.250	80.004	19.997	100.411	20.041	2.216	0.480
153.000	154.481	80.004	19.998	100.412	20.039	2.331	0.476
153.500	154.706	80.004	19.997	100.412	20.039	2.295	0.462
154.000	154.936	80.004	19.996	100.413	20.039	2.319	0.455
154.500	155.216	80.006	19.997	100.412	20.040	2.235	0.482
155.000	155.418	80.005	19.997	100.412	20.039	2.298	0.496
155.500	155.695	80.004	19.996	100.412	20.039	2.329	0.481
156.000	155.909	80.005	19.998	100.411	20.039	2.305	0.485
156.500	156.130	80.006	19.997	100.410	20.038	2.380	0.463
157.000	156.376	80.005	19.995	100.409	20.041	2.177	0.451
157.500	156.633	80.005	19.997	100.408	20.041	2.225	0.485
158.000	156.874	80.006	19.995	100.408	20.039	2.332	0.500
158.500	157.120	80.005	19.995	100.408	20.040	2.232	0.492
159.000	157.387	80.006	19.996	100.408	20.037	2.420	0.500
159.501	157.614	80.006	19.996	100.408	20.037	2.418	0.504
160.000	157.826	80.007	19.996	100.407	20.038	2.399	0.466
160.500	158.087	80.007	19.995	100.407	20.039	2.343	0.456
161.000	158.333	80.006	19.995	100.406	20.039	2.314	0.490
161.500	158.556	80.005	19.996	100.407	20.036	2.505	0.488
162.000	158.826	80.005	19.995	100.407	20.035	2.594	0.481
162.500	159.081	80.006	19.995	100.407	20.039	2.346	0.510
163.000	159.330	80.004	19.995	100.407	20.035	2.551	0.515
163.500	159.547	80.005	19.996	100.407	20.037	2.437	0.485
164.000	159.837	80.004	19.995	100.407	20.038	2.409	0.486
164.500	160.041	80.006	19.996	100.407	20.037	2.454	0.500
165.000	160.285	80.005	19.995	100.407	20.035	2.585	0.471
165.500	160.502	80.005	19.995	100.407	20.036	2.539	0.454
166.000	160.787	80.005	19.995	100.408	20.037	2.449	0.481
166.501	161.052	80.004	19.996	100.407	20.037	2.442	0.526
167.000	161.284	80.005	19.995	100.407	20.038	2.394	0.523
167.500	161.523	80.004	19.995	100.408	20.037	2.457	0.484
168.000	161.806	80.004	19.996	100.409	20.038	2.404	0.497
168.500	162.003	80.004	19.995	100.409	20.039	2.355	0.501
169.000	162.277	80.004	19.996	100.409	20.039	2.317	0.475
169.500	162.509	80.003	19.996	100.409	20.037	2.442	0.489
170.000	162.757	80.003	19.997	100.409	20.035	2.546	0.493
170.500	162.965	80.004	19.996	100.409	20.039	2.310	0.468
171.000	163.248	80.003	19.997	100.409	20.037	2.466	0.474
171.500	163.495	80.003	19.994	100.410	20.036	2.493	0.510
172.000	163.720	80.004	19.997	100.410	20.037	2.459	0.501
172.500	163.984	80.002	19.996	100.410	20.037	2.447	0.481
173.000	164.211	80.003	19.996	100.410	20.034	2.642	0.491
173.500	164.460	80.004	19.994	100.409	20.037	2.442	0.484
174.000	164.715	80.003	19.995	100.408	20.035	2.546	0.489
174.500	164.956	80.003	19.996	100.405	20.038	2.389	0.500
175.000	165.219	80.003	19.997	100.405	20.040	2.279	0.500
175.500	165.459	80.003	19.997	100.404	20.038	2.396	0.503
176.000	165.686	80.003	19.997	100.404	20.037	2.437	0.485
176.500	165.962	80.003	19.996	100.404	20.037	2.452	0.485
177.000	166.206	80.001	19.996	100.406	20.039	2.302	0.512
177.500	166.465	80.003	19.996	100.406	20.036	2.514	0.511
178.000	166.699	80.003	19.996	100.406	20.039	2.351	0.498
178.500	166.955	80.004	19.996	100.408	20.038	2.377	0.492
179.000	167.153	80.004	19.996	100.409	20.039	2.332	0.472
179.500	167.410	80.003	19.996	100.409	20.037	2.418	0.454
180.000	167.691	80.004	19.995	100.409	20.037	2.456	0.497
180.500	167.923	80.003	19.996	100.409	20.040	2.266	0.526
181.000	168.157	80.003	19.996	100.409	20.038	2.401	0.490
181.500	168.408	80.003	19.995	100.409	20.039	2.326	0.475
182.000	168.609	80.004	19.996	100.408	20.037	2.437	0.468
182.500	168.859	80.002	19.996	100.409	20.036	2.497	0.452
183.000	169.119	80.003	19.995	100.407	20.038	2.377	0.480
183.501	169.384	80.004	19.995	100.407	20.037	2.420	0.517
184.000	169.614	80.004	19.996	100.406	20.038	2.397	0.510
184.500	169.912	80.004	19.996	100.404	20.037	2.478	0.512
185.000	170.133	80.004	19.995	100.403	20.039	2.353	0.524
185.500	170.398	80.007	19.994	100.403	20.038	2.385	0.503
186.000	170.655	80.004	19.995	100.401	20.038	2.380	0.504
186.500	170.905	80.005	19.995	100.403	20.042	2.125	0.515
187.000	171.119	80.006	19.995	100.405	20.041	2.195	0.486
187.500	171.379	80.007	19.994	100.406	20.041	2.176	0.469
188.000	171.620	80.006	19.994	100.407	20.043	2.099	0.487
188.500	171.908	80.004	19.994	100.408	20.040	2.235	0.515
189.000	172.142	80.006	19.994	100.408	20.041	2.212	0.526
189.500	172.363	80.004	19.994	100.409	20.040	2.269	0.489
190.000	172.572	80.006	19.994	100.408	20.041	2.185	0.442
190.500	172.902	80.004	19.995	100.408	20.039	2.323	0.485
191.000	173.100	80.005	19.993	100.409	20.041	2.205	0.534
191.500	173.364	80.005	19.994	100.409	20.038	2.385	0.495
192.000	173.604	80.006	19.995	100.408	20.040	2.257	0.483
192.500	173.898	80.007	19.995	100.408	20.042	2.135	0.519
193.000	174.076	80.004	19.994	100.409	20.041	2.224	0.503
193.500	174.385	80.004	19.995	100.409	20.041	2.226	0.480
194.000	174.613	80.007	19.995	100.408	20.040	2.277	0.512
194.500	174.838	80.005	19.994	100.409	20.039	2.329	0.495
195.000	175.078	80.005	19.994	100.407	20.044	1.992	0.459
195.500	175.341	80.005	19.997	100.405	20.044	2.024	0.484
196.000	175.562	80.005	19.994	100.403	20.043	2.062	0.494
196.500	175.827	80.004	19.994	100.398	20.044	2.041	0.485
197.000	176.048	80.004	19.995	100.395	20.041	2.216	0.486
197.500	176.309	80.006	19.992	100.393	20.041	2.226	0.484
198.000	176.586	80.004	19.997	100.392	20.040	2.291	0.510
198.500	176.811	80.005	19.995	100.390	20.044	1.995	0.520
199.000	177.045	80.006	19.996	100.391	20.042	2.146	0.481
199.500	177.346	80.006	19.993	100.392	20.042	2.161	0.497
200.000	177.569	80.006	19.994	100.392	20.045	1.970	0.529
200.500	177.857	80.005	19.993	100.388	20.042	2.139	0.518
201.000	178.084	80.006	19.992	100.385	20.041	2.170	0.513
201.500	178.332	80.006	19.995	100.384	20.043	2.064	0.495
202.000	178.602	80.006	19.993	100.381	20.044	2.034	0.497
202.500	178.807	80.004	19.994	100.379	20.042	2.118	0.496
203.000	179.052	80.006	19.993	100.386	20.045	1.942	0.462
203.500	179.295	80.006	19.996	100.392	20.046	1.855	0.469
204.000	179.573	80.005	19.993	100.396	20.044	1.980	0.505
204.500	179.816	80.005	19.991	100.399	20.045	1.937	0.522
205.000	180.079	80.008	19.994	100.400	20.046	1.870	0.514
205.500	180.285	80.006	19.996	100.393	20.045	1.974	0.487
206.000	180.534	80.005	19.993	100.389	20.045	1.935	0.462
206.500	180.859	80.005	19.993	100.388	20.046	1.903	0.515
207.000	181.048	80.004	19.996	100.390	20.044	2.010	0.544
207.500	181.303	80.005	19.996	100.393	20.044	2.014	0.478
208.001	181.572	80.004	19.996	100.396	20.043	2.079	0.484
208.501	181.814	80.007	19.996	100.393	20.046	1.899	0.518
209.000	182.049	80.006	19.997	100.392	20.047	1.833	0.494
209.500	182.368	80.006	19.994	100.391	20.044	2.014	0.515
210.000	182.615	80.008	19.996	100.389	20.046	1.860	0.560
210.500	182.839	80.006	19.996	100.390	20.046	1.913	0.519
211.000	183.066	80.008	19.994	100.395	20.047	1.828	0.461
211.500	183.315	80.004	19.995	100.393	20.048	1.788	0.463
212.000	183.515	80.007	19.993	100.391	20.046	1.913	0.463
212.500	183.807	80.007	19.994	100.390	20.044	2.005	0.471
213.000	184.045	80.007	19.993	100.387	20.045	1.920	0.511
213.500	184.284	80.008	19.994	100.383	20.045	1.952	0.504
214.000	184.523	80.007	19.994	100.385	20.043	2.084	0.478
214.500	184.833	80.009	19.994	100.384	20.044	2.027	0.513
215.000	185.075	80.007	19.993	100.381	20.045	1.918	0.550
215.500	185.301	80.007	19.995	100.383	20.042	2.152	0.510
216.001	185.522	80.006	19.995	100.383	20.045	1.943	0.457
216.500	185.832	80.007	19.994	100.378	20.046	1.896	0.489
217.000	186.099	80.007	19.994	100.376	20.044	2.024	0.554
217.500	186.351	80.007	19.995	100.379	20.043	2.067	0.548
218.000	186.610	80.009	19.994	100.377	20.043	2.079	0.515
218.500	186.876	80.007	19.994	100.377	20.047	1.826	0.518
219.000	187.137	80.006	19.994	100.381	20.046	1.908	0.526
219.500	187.360	80.007	19.994	100.384	20.043	2.090	0.505
220.000	187.581	80.006	19.995	100.385	20.049	1.701	0.464
220.500	187.859	80.004	19.995	100.390	20.047	1.832	0.471
221.000	188.108	80.007	19.994	100.393	20.047	1.846	0.513
221.500	188.367	80.007	19.994	100.390	20.044	2.017	0.518
222.000	188.584	80.006	19.996	100.386	20.045	1.944	0.492
222.500	188.852	80.006	19.995	100.381	20.046	1.904	0.480
223.000	189.100	80.006	19.995	100.374	20.045	1.938	0.500
223.500	189.349	80.005	19.994	100.369	20.043	2.046	0.506
224.000	189.576	80.005	19.995	100.367	20.047	1.827	0.487
224.500	189.824	80.005	19.994	100.367	20.046	1.897	0.476
225.000	190.050	80.004	19.994	100.368	20.045	1.937	0.474
225.500	190.358	80.005	19.996	100.368	20.039	2.309	0.504
226.000	190.570	80.004	19.993	100.369	20.043	2.077	0.527
226.500	190.792	80.003	19.994	100.369	20.044	2.010	0.477
227.000	191.024	80.004	19.994	100.370	20.045	1.962	0.444
227.500	191.316	80.006	19.994	100.370	20.041	2.188	0.489
228.000	191.545	80.004	19.996	100.372	20.045	1.923	0.522
228.500	191.776	80.003	19.996	100.373	20.041	2.180	0.490
229.000	192.052	80.003	19.994	100.373	20.044	1.985	0.483
229.500	192.245	80.005	19.994	100.373	20.044	2.022	0.488
230.000	192.502	80.005	19.994	100.373	20.045	1.978	0.459
230.500	192.777	80.005	19.994	100.371	20.045	1.976	0.491
231.000	193.014	80.005	19.995	100.370	20.045	1.961	0.522
231.500	193.244	80.003	19.996	100.370	20.044	1.997	0.490
232.000	193.505	80.005	19.994	100.370	20.044	1.995	0.479
232.500	193.728	80.005	19.996	100.370	20.047	1.848	0.487
233.000	194.038	80.004	19.994	100.371	20.042	2.123	0.508
233.500	194.253	80.004	19.996	100.372	20.041	2.181	0.529
234.000	194.556	80.004	19.996	100.375	20.042	2.114	0.522
234.500	194.772	80.005	19.995	100.376	20.044	2.005	0.519
235.000	194.979	80.004	19.996	100.378	20.048	1.750	0.471
235.500	195.283	80.003	19.995	100.379	20.046	1.867	0.467
236.000	195.544	80.002	19.995	100.379	20.045	1.923	0.538
236.500	195.770	80.004	19.996	100.377	20.045	1.967	0.526
237.000	195.982	80.005	19.997	100.376	20.045	1.923	0.463
237.500	196.252	80.004	19.996	100.378	20.046	1.882	0.460
238.000	196.474	80.004	19.994	100.376	20.046	1.909	0.488
238.500	196.677	80.002	19.996	100.378	20.046	1.865	0.459
239.000	196.988	80.005	19.995	100.382	20.050	1.607	0.470
239.500	197.195	80.003	19.996	100.381	20.046	1.868	0.516
240.000	197.504	80.005	19.995	100.379	20.044	2.002	0.517
240.500	197.693	80.003	19.998	100.380	20.048	1.771	0.507
241.000	197.962	80.003	19.996	100.378	20.044	2.027	0.477
241.500	198.209	80.003	19.996	100.375	20.048	1.745	0.487
242.000	198.461	80.004	19.995	100.376	20.044	2.038	0.508
242.500	198.711	80.004	19.995	100.377	20.045	1.930	0.501
243.000	198.977	80.003	19.995	100.376	20.045	1.961	0.509
243.500	199.193	80.005	19.995	100.375	20.046	1.874	0.499
244.000	199.438	80.003	19.994	100.374	20.048	1.768	0.472
244.500	199.743	80.003	19.995	100.375	20.046	1.870	0.506
245.000	199.976	80.004	19.997	100.373	20.047	1.809	0.544
245.500	200.208	80.005	19.995	100.373	20.048	1.769	0.501
246.000	200.512	80.005	19.994	100.373	20.045	1.971	0.501
246.500	200.737	80.004	19.993	100.372	20.044	2.027	0.533
247.000	200.983	80.004	19.996	100.370	20.046	1.896	0.500
247.500	201.223	80.003	19.995	100.370	20.046	1.899	0.478
248.000	201.453	80.006	19.996	100.370	20.046	1.873	0.478
248.500	201.707	80.004	19.994	100.371	20.044	1.993	0.477
249.000	201.929	80.005	19.995	100.372	20.046	1.863	0.480
249.500	202.248	80.006	19.995	100.372	20.047	1.841	0.509
250.000	202.471	80.006	19.994	100.372	20.047	1.850	0.542
250.500	202.736	80.004	19.995	100.372	20.048	1.759	0.515
251.000	202.936	80.004	19.995	100.371	20.048	1.783	0.476
251.500	203.218	80.004	19.993	100.371	20.050	1.665	0.474
252.000	203.464	80.005	19.997	100.371	20.045	1.962	0.505
252.500	203.752	80.005	19.995	100.371	20.047	1.807	0.531
253.000	203.981	80.005	19.995	100.371	20.048	1.781	0.525
253.500	204.167	80.006	19.995	100.372	20.048	1.730	0.466
254.000	204.480	80.003	19.996	100.374	20.047	1.826	0.458
254.501	204.688	80.003	19.996	100.376	20.048	1.771	0.511
255.001	204.957	80.003	19.995	100.377	20.046	1.856	0.499
255.500	205.212	80.004	19.996	100.377	20.050	1.610	0.500
256.000	205.454	80.001	19.993	100.377	20.050	1.661	0.510
256.500	205.702	80.003	19.995	100.375	20.048	1.766	0.494
257.000	206.003	80.005	19.995	100.372	20.047	1.837	0.520
257.500	206.221	80.002	19.996	100.372	20.049	1.690	0.534
258.000	206.484	80.002	19.995	100.373	20.049	1.702	0.499
258.500	206.701	80.006	19.996	100.373	20.050	1.644	0.480
259.000	206.975	80.002	19.995	100.374	20.050	1.610	0.486
259.500	207.222	80.004	19.995	100.374	20.048	1.783	0.506
260.000	207.425	80.004	19.995	100.374	20.046	1.856	0.486
260.500	207.732	80.006	19.995	100.373	20.051	1.584	0.480
261.000	207.957	80.004	19.997	100.372	20.048	1.737	0.521
261.500	208.211	80.003	19.994	100.372	20.046	1.890	0.505
262.000	208.427	80.005	19.995	100.372	20.049	1.704	0.475
262.500	208.726	80.005	19.996	100.372	20.048	1.735	0.493
263.000	208.984	80.004	19.997	100.371	20.048	1.759	0.536
263.500	209.221	80.005	19.994	100.370	20.049	1.706	0.526
264.000	209.456	80.003	19.995	100.369	20.047	1.795	0.483
264.500	209.704	80.003	19.997	100.369	20.048	1.754	0.477
265.000	209.999	80.005	19.994	100.368	20.046	1.866	0.513
265.500	210.216	80.005	19.997	100.369	20.046	1.868	0.527
266.000	210.436	80.004	19.995	100.369	20.046	1.902	0.475
266.500	210.704	80.004	19.997	100.369	20.048	1.735	0.463
267.001	210.952	80.004	19.995	100.368	20.050	1.619	0.502
267.500	211.275	80.006	19.998	100.367	20.046	1.880	0.544
268.000	211.523	80.004	19.997	100.367	20.047	1.853	0.571
268.500	211.722	80.005	19.996	100.365	20.045	1.921	0.509
269.000	211.954	80.006	19.996	100.364	20.047	1.812	0.440
269.500	212.209	80.006	19.996	100.364	20.046	1.894	0.459
270.000	212.468	80.007	19.998	100.365	20.049	1.721	0.500
270.500	212.714	80.005	19.996	100.365	20.046	1.868	0.510
271.000	212.961	80.005	19.996	100.365	20.047	1.815	0.499
271.500	213.228	80.005	19.996	100.365	20.046	1.882	0.503
272.000	213.492	80.006	19.996	100.365	20.044	2.025	0.522
272.500	213.738	80.005	19.997	100.364	20.046	1.904	0.521
273.000	213.997	80.006	19.998	100.364	20.046	1.907	0.507
273.500	214.241	80.003	19.996	100.365	20.045	1.943	0.504
274.000	214.496	80.004	19.996	100.365	20.046	1.909	0.501
274.500	214.746	80.005	19.996	100.365	20.047	1.813	0.502
275.000	214.963	80.007	19.996	100.365	20.048	1.788	0.486
275.500	215.234	80.006	19.997	100.365	20.045	1.918	0.478
276.000	215.455	80.006	19.997	100.365	20.049	1.684	0.490
276.500	215.686	80.004	19.996	100.365	20.047	1.843	0.472
277.000	215.953	80.005	19.996	100.365	20.045	1.923	0.475
277.500	216.222	80.006	19.996	100.366	20.046	1.890	0.517
278.000	216.444	80.006	19.998	100.366	20.047	1.815	0.514
278.500	216.674	80.006	19.996	100.366	20.045	1.923	0.472
279.000	216.955	80.005	19.995	100.366	20.045	1.940	0.481
279.500	217.186	80.004	19.995	100.366	20.046	1.873	0.511
280.000	217.455	80.005	19.996	100.361	20.047	1.849	0.506
280.500	217.725	80.004	19.995	100.360	20.045	1.921	0.520
281.000	217.912	80.006	19.994	100.358	20.048	1.764	0.498
281.500	218.171	80.005	19.995	100.357	20.049	1.701	0.451
282.000	218.432	80.007	19.996	100.351	20.049	1.704	0.483
282.500	218.710	80.007	19.997	100.350	20.046	1.856	0.529
283.000	218.930	80.007	19.997	100.349	20.049	1.672	0.518
283.500	219.203	80.007	19.995	100.351	20.047	1.812	0.495
284.000	219.450	80.004	19.995	100.353	20.047	1.817	0.506
284.500	219.673	80.006	19.995	100.359	20.046	1.873	0.495
285.000	219.931	80.006	19.995	100.363	20.051	1.602	0.476
285.500	220.221	80.006	19.995	100.366	20.048	1.790	0.515
286.000	220.433	80.005	19.994	100.367	20.049	1.702	0.525
286.500	220.685	80.005	19.995	100.366	20.049	1.708	0.483
287.000	220.923	80.006	19.994	100.366	20.049	1.668	0.477
287.500	221.112	80.006	19.995	100.366	20.049	1.711	0.458
288.000	221.443	80.007	19.995	100.365	20.049	1.689	0.473
288.500	221.677	80.005	19.995	100.363	20.048	1.776	0.543
289.000	221.880	80.007	19.991	100.363	20.047	1.794	0.501
289.500	222.153	80.007	19.993	100.364	20.047	1.849	0.456
290.000	222.418	80.005	19.996	100.364	20.048	1.728	0.507
290.500	222.650	80.007	19.995	100.365	20.045	1.929	0.518
291.000	222.920	80.005	19.997	100.362	20.048	1.774	0.500
291.500	223.170	80.007	19.996	100.360	20.049	1.719	0.511
292.000	223.434	80.009	19.996	100.359	20.048	1.733	0.517
292.500	223.673	80.006	19.994	100.357	20.051	1.588	0.508
293.000	223.914	80.008	19.996	100.357	20.053	1.419	0.491
293.500	224.139	80.008	19.995	100.362	20.050	1.622	0.473
294.000	224.421	80.008	19.995	100.364	20.049	1.719	0.487
294.500	224.693	80.009	19.995	100.365	20.046	1.877	0.531
295.000	224.919	80.008	19.995	100.368	20.049	1.719	0.526
295.501	225.190	80.007	19.997	100.368	20.046	1.876	0.498
296.000	225.438	80.007	19.997	100.368	20.047	1.810	0.508
296.500	225.681	80.008	19.996	100.368	20.047	1.841	0.505
297.000	225.932	80.006	19.995	100.368	20.046	1.914	0.493
297.500	226.172	80.008	19.994	100.368	20.048	1.782	0.493
298.000	226.465	80.008	19.994	100.367	20.047	1.795	0.512
298.500	226.674	80.006	19.994	100.365	20.047	1.798	0.518
299.000	226.931	80.006	19.994	100.363	20.046	1.878	0.485
299.500	227.176	80.006	19.994	100.357	20.046	1.870	0.484
300.000	227.426	80.008	19.996	100.353	20.048	1.771	0.498
300.500	227.652	80.006	19.995	100.353	20.050	1.630	0.485
301.000	227.936	80.006	19.993	100.352	20.047	1.815	0.493
301.500	228.182	80.006	19.994	100.348	20.049	1.677	0.520
302.000	228.433	80.006	19.995	100.350	20.048	1.757	0.513
302.500	228.670	80.006	19.995	100.353	20.048	1.738	0.493
303.000	228.918	80.005	19.995	100.353	20.046	1.880	0.487
303.500	229.219	80.006	19.994	100.357	20.050	1.644	0.517
304.000	229.403	80.006	19.993	100.360	20.049	1.711	0.517
304.500	229.642	80.006	19.996	100.364	20.046	1.858	0.455
305.000	229.922	80.005	19.993	100.363	20.049	1.702	0.471
305.500	230.133	80.004	19.994	100.357	20.048	1.738	0.505
306.000	230.439	80.004	19.996	100.353	20.047	1.829	0.504
306.500	230.682	80.006	19.997	100.352	20.045	1.967	0.533
307.000	230.927	80.004	19.995	100.348	20.044	1.979	0.519
307.500	231.150	80.003	19.993	100.347	20.049	1.713	0.478
308.000	231.397	80.005	19.994	100.349	20.046	1.883	0.469
308.500	231.656	80.002	19.996	100.353	20.048	1.740	0.488
309.000	231.880	80.005	19.996	100.356	20.049	1.711	0.494
309.500	232.158	80.005	19.996	100.355	20.047	1.825	0.492
310.000	232.390	80.004	19.996	100.356	20.047	1.815	0.506
310.500	232.661	80.003	19.994	100.358	20.050	1.629	0.506
311.000	232.872	80.005	19.994	100.354	20.046	1.904	0.493
311.500	233.113	80.004	19.993	100.354	20.048	1.746	0.467
312.000	233.352	80.005	19.995	100.357	20.046	1.890	0.466
312.500	233.657	80.005	19.997	100.358	20.045	1.929	0.512
313.000	233.869	80.005	19.995	100.359	20.047	1.796	0.531
313.500	234.114	80.004	19.994	100.360	20.047	1.828	0.487
314.000	234.352	80.002	19.996	100.358	20.044	2.030	0.470
314.500	234.656	80.005	19.998	100.358	20.048	1.786	0.512
315.000	234.884	80.002	19.996	100.360	20.047	1.834	0.537
315.500	235.097	80.004	19.994	100.361	20.047	1.835	0.486
316.000	235.407	80.004	19.995	100.364	20.046	1.859	0.482
316.500	235.611	80.004	19.994	100.367	20.047	1.841	0.518
317.000	235.865	80.002	19.994	100.368	20.046	1.854	0.486
317.500	236.124	80.005	19.994	100.365	20.046	1.906	0.486
318.000	236.357	80.003	19.993	100.361	20.049	1.680	0.503
318.500	236.597	80.004	19.995	100.357	20.050	1.665	0.482
319.000	236.834	80.006	19.993	100.356	20.050	1.656	0.475
319.500	237.098	80.002	19.996	100.356	20.053	1.477	0.489
320.000	237.361	80.006	19.995	100.356	20.048	1.762	0.514
320.500	237.618	80.005	19.993	100.354	20.048	1.729	0.524
321.000	237.865	80.006	19.993	100.352	20.050	1.656	0.512
321.500	238.085	80.005	19.994	100.347	20.050	1.611	0.485
322.000	238.351	80.007	19.993	100.345	20.050	1.627	0.476
322.500	238.590	80.004	19.994	100.341	20.050	1.652	0.495
323.000	238.823	80.006	19.994	100.341	20.052	1.528	0.488
323.500	239.087	80.005	19.995	100.341	20.049	1.721	0.484
324.000	239.317	80.006	19.996	100.344	20.051	1.564	0.496
324.500	239.605	80.006	19.997	100.343	20.053	1.442	0.506
325.000	239.812	80.004	19.995	100.344	20.050	1.659	0.506
325.500	240.063	80.006	19.994	100.346	20.051	1.557	0.476
326.000	240.304	80.004	19.994	100.348	20.051	1.581	0.475
326.500	240.566	80.006	19.994	100.349	20.051	1.576	0.498
327.000	240.818	80.002	19.995	100.353	20.051	1.548	0.509
327.500	241.054	80.006	19.995	100.354	20.053	1.466	0.501
328.000	241.311	80.007	19.997	100.357	20.051	1.569	0.490
328.500	241.567	80.005	19.994	100.361	20.052	1.499	0.503
329.000	241.779	80.004	19.997	100.358	20.051	1.565	0.491
329.500	242.031	80.005	19.995	100.358	20.050	1.635	0.466
330.000	242.300	80.006	19.996	100.356	20.050	1.624	0.493
330.500	242.574	80.006	19.994	100.351	20.049	1.690	0.532
331.000	242.771	80.007	19.992	100.344	20.049	1.680	0.507
331.500	243.031	80.007	19.992	100.341	20.050	1.656	0.464
332.000	243.339	80.006	19.995	100.334	20.053	1.437	0.513
332.500	243.543	80.006	19.995	100.333	20.051	1.550	0.540
333.000	243.762	80.004	19.995	100.332	20.050	1.658	0.467
333.500	244.053	80.004	19.994	100.334	20.052	1.504	0.466
334.000	244.306	80.005	19.995	100.336	20.052	1.514	0.527
334.500	244.526	80.003	19.995	100.339	20.051	1.560	0.508
335.000	244.807	80.005	19.994	100.342	20.051	1.598	0.487
335.500	245.038	80.004	19.993	100.344	20.051	1.576	0.507
336.000	245.303	80.004	19.994	100.345	20.050	1.606	0.504
336.500	245.515	80.005	19.997	100.348	20.050	1.661	0.487
337.000	245.802	80.004	19.996	100.346	20.048	1.775	0.488
337.500	246.023	80.003	19.996	100.345	20.047	1.804	0.504
338.000	246.310	80.006	19.997	100.346	20.049	1.678	0.508
338.500	246.515	80.002	19.995	100.344	20.050	1.618	0.500
339.000	246.784	80.003	19.996	100.341	20.049	1.705	0.483
339.500	247.025	80.005	19.996	100.343	20.049	1.688	0.492
340.000	247.264	80.004	19.996	100.348	20.048	1.750	0.495
340.500	247.533	80.003	19.996	100.347	20.052	1.478	0.494
341.000	247.738	80.006	19.997	100.352	20.050	1.615	0.491
341.500	248.008	80.003	19.996	100.352	20.051	1.553	0.475
342.000	248.291	80.003	19.995	100.352	20.049	1.710	0.514
342.500	248.523	80.006	19.997	100.347	20.051	1.574	0.534
343.000	248.776	80.003	19.997	100.347	20.051	1.562	0.500
343.500	249.001	80.005	19.994	100.344	20.050	1.623	0.482
344.000	249.245	80.004	19.997	100.345	20.050	1.647	0.474
344.500	249.513	80.005	19.995	100.346	20.053	1.452	0.490
345.000	249.809	80.005	19.995	100.347	20.050	1.616	0.538
345.500	250.041	80.004	19.995	100.348	20.049	1.688	0.546
346.000	250.314	80.006	19.995	100.346	20.051	1.572	0.517
346.500	250.533	80.005	19.996	100.342	20.050	1.623	0.498
347.000	250.800	80.005	19.996	100.339	20.051	1.572	0.488
347.500	251.054	80.005	19.998	100.339	20.050	1.649	0.503
348.000	251.287	80.006	19.996	100.336	20.051	1.584	0.504
348.500	251.530	80.005	19.996	100.335	20.051	1.569	0.482
349.000	251.788	80.005	19.995	100.335	20.052	1.483	0.489
349.500	252.031	80.006	19.995	100.336	20.049	1.714	0.501
350.000	252.272	80.007	19.997	100.339	20.048	1.736	0.493
350.500	252.540	80.006	19.994	100.345	20.051	1.587	0.496
351.000	252.809	80.006	19.997	100.352	20.048	1.743	0.522
351.500	253.014	80.006	19.995	100.353	20.051	1.570	0.505
352.000	253.244	80.005	19.994	100.351	20.049	1.670	0.455
352.500	253.475	80.006	19.995	100.346	20.048	1.731	0.448
353.000	253.763	80.003	19.996	100.339	20.050	1.656	0.490
353.500	254.010	80.008	19.995	100.332	20.049	1.668	0.527
354.000	254.248	80.006	19.998	100.331	20.051	1.582	0.509
354.500	254.507	80.006	19.998	100.332	20.049	1.716	0.491
355.000	254.737	80.006	19.995	100.334	20.052	1.500	0.493
355.500	255.040	80.006	19.995	100.336	20.052	1.500	0.511
356.000	255.244	80.006	19.996	100.337	20.049	1.668	0.520
356.500	255.508	80.005	19.996	100.338	20.048	1.760	0.488
357.000	255.709	80.005	19.997	100.337	20.047	1.813	0.466
357.500	255.997	80.006	19.993	100.335	20.050	1.610	0.477
358.000	256.221	80.005	19.995	100.333	20.052	1.526	0.501
358.500	256.488	80.006	19.995	100.332	20.046	1.864	0.502
359.000	256.700	80.005	19.993	100.331	20.049	1.678	0.485
359.500	256.961	80.006	19.997	100.332	20.047	1.793	0.476
360.000	257.231	80.006	19.996	100.332	20.047	1.823	0.502
360.500	257.474	80.003	19.997	100.333	20.050	1.622	0.522
361.000	257.693	80.004	19.998	100.334	20.051	1.591	0.488
361.500	257.942	80.007	19.995	100.336	20.049	1.669	0.465
362.001	258.197	80.004	19.996	100.337	20.051	1.591	0.486
362.500	258.404	80.006	19.996	100.341	20.051	1.545	0.483
363.000	258.698	80.006	19.996	100.342	20.050	1.623	0.481
363.500	258.910	80.005	19.997	100.341	20.053	1.463	0.503
364.000	259.195	80.004	19.996	100.339	20.050	1.634	0.502
364.500	259.451	80.006	19.996	100.336	20.049	1.695	0.519
365.001	259.696	80.004	19.996	100.334	20.051	1.550	0.521
365.500	259.917	80.004	19.995	100.334	20.050	1.625	0.483
366.000	260.161	80.005	19.997	100.336	20.049	1.666	0.465
366.500	260.425	80.002	19.996	100.337	20.051	1.557	0.486
367.000	260.681	80.005	19.996	100.339	20.052	1.497	0.514
367.500	260.919	80.004	19.996	100.343	20.049	1.678	0.507
368.000	261.158	80.006	19.996	100.343	20.051	1.567	0.485
368.500	261.427	80.003	19.997	100.344	20.051	1.593	0.492
369.000	261.628	80.004	19.996	100.344	20.050	1.639	0.489
369.500	261.889	80.004	19.995	100.344	20.048	1.767	0.466
370.000	262.127	80.006	19.997	100.342	20.049	1.673	0.481
370.500	262.351	80.005	19.996	100.339	20.045	1.928	0.481
371.000	262.612	80.004	19.995	100.341	20.050	1.620	0.473
371.500	262.853	80.004	19.996	100.341	20.049	1.683	0.493
372.000	263.133	80.006	19.997	100.340	20.048	1.786	0.512
372.500	263.356	80.007	19.996	100.340	20.050	1.622	0.512
373.000	263.597	80.006	19.996	100.340	20.050	1.652	0.483
373.500	263.853	80.005	19.996	100.337	20.047	1.810	0.481
374.000	264.104	80.007	19.996	100.339	20.051	1.570	0.502
374.500	264.349	80.007	19.994	100.338	20.050	1.615	0.502
375.000	264.626	80.007	19.996	100.337	20.052	1.490	0.509
375.500	264.888	80.007	19.996	100.337	20.053	1.422	0.531
376.000	265.113	80.007	19.996	100.339	20.053	1.473	0.513
376.500	265.348	80.007	19.993	100.341	20.051	1.557	0.473
377.000	265.611	80.006	19.995	100.342	20.050	1.617	0.479
377.500	265.839	80.007	19.997	100.341	20.053	1.458	0.495
378.000	266.113	80.007	19.995	100.341	20.051	1.560	0.496
378.500	266.345	80.007	19.993	100.340	20.049	1.721	0.504
379.000	266.579	80.007	19.996	100.336	20.049	1.675	0.486
379.500	266.826	80.007	19.993	100.335	20.050	1.623	0.474
380.000	267.107	80.007	19.996	100.336	20.051	1.601	0.504
380.500	267.316	80.008	19.994	100.335	20.051	1.550	0.509
381.000	267.601	80.006	19.996	100.337	20.051	1.589	0.492
381.500	267.857	80.008	19.995	100.341	20.050	1.635	0.517
382.000	268.094	80.007	19.994	100.342	20.052	1.533	0.517
382.500	268.314	80.005	19.992	100.343	20.047	1.832	0.475
383.000	268.601	80.006	19.996	100.342	20.049	1.714	0.482
383.500	268.856	80.007	19.995	100.343	20.052	1.509	0.525
384.000	269.060	80.006	19.995	100.341	20.050	1.603	0.500
384.500	269.296	80.007	19.995	100.340	20.050	1.659	0.449
385.000	269.548	80.005	19.995	100.337	20.051	1.589	0.464
385.501	269.850	80.005	19.997	100.337	20.048	1.769	0.521
386.001	270.040	80.006	19.995	100.336	20.050	1.661	0.523
386.500	270.337	80.005	19.996	100.335	20.049	1.704	0.489
387.000	270.556	80.006	19.997	100.335	20.045	1.951	0.501
387.500	270.831	80.004	19.995	100.338	20.048	1.762	0.505
388.000	271.118	80.004	19.995	100.339	20.050	1.649	0.528
388.500	271.354	80.004	19.996	100.341	20.047	1.845	0.542
389.000	271.623	80.004	19.998	100.340	20.049	1.707	0.514
389.501	271.887	80.005	19.996	100.341	20.048	1.768	0.520
390.000	272.159	80.005	19.996	100.339	20.051	1.601	0.535
390.500	272.410	80.005	19.995	100.338	20.051	1.548	0.529
391.000	272.635	80.005	19.996	100.336	20.050	1.657	0.499
391.500	272.849	80.004	19.996	100.336	20.050	1.635	0.457
392.000	273.144	80.006	19.996	100.336	20.049	1.705	0.474
392.500	273.335	80.004	19.997	100.336	20.049	1.722	0.498
393.000	273.606	80.004	19.995	100.338	20.050	1.652	0.474
393.500	273.872	80.006	19.996	100.339	20.048	1.777	0.499
394.000	274.127	80.005	19.996	100.342	20.051	1.548	0.529
394.500	274.335	80.003	19.994	100.342	20.050	1.603	0.492
395.000	274.628	80.005	19.996	100.343	20.049	1.690	0.482
395.500	274.853	80.005	19.996	100.341	20.051	1.577	0.510
396.000	275.119	80.004	19.996	100.339	20.053	1.420	0.505
396.500	275.389	80.003	19.998	100.335	20.051	1.539	0.513
397.000	275.598	80.007	19.996	100.332	20.050	1.606	0.508
397.500	275.879	80.005	19.996	100.331	20.053	1.452	0.484
398.000	276.096	80.004	19.995	100.331	20.055	1.316	0.494
398.500	276.364	80.005	19.996	100.331	20.051	1.565	0.492
399.000	276.598	80.003	19.995	100.334	20.050	1.662	0.494
399.500	276.861	80.004	19.994	100.335	20.049	1.671	0.500
400.000	277.107	80.006	19.993	100.334	20.048	1.727	0.503
400.500	277.347	80.004	19.995	100.334	20.051	1.596	0.498
401.000	277.595	80.006	19.993	100.334	20.047	1.791	0.486
401.500	277.826	80.006	19.996	100.330	20.049	1.685	0.483
402.000	278.108	80.005	19.994	100.331	20.048	1.767	0.497
402.500	278.381	80.005	19.995	100.331	20.050	1.659	0.534
403.000	278.570	80.005	19.995	100.331	20.048	1.772	0.508
403.500	278.858	80.005	19.996	100.331	20.048	1.729	0.469
404.000	279.084	80.006	19.996	100.330	20.050	1.620	0.495
404.500	279.376	80.006	19.996	100.330	20.050	1.604	0.516
405.000	279.614	80.006	19.996	100.330	20.050	1.613	0.524
405.500	279.859	80.006	19.995	100.330	20.050	1.611	0.507
406.000	280.099	80.005	19.995	100.330	20.050	1.613	0.484
406.500	280.359	80.005	19.995	100.329	20.053	1.422	0.492
407.000	280.634	80.006	19.995	100.329	20.051	1.570	0.518
407.500	280.909	80.008	19.995	100.329	20.050	1.630	0.543
408.000	281.119	80.006	19.993	100.329	20.049	1.700	0.517
408.500	281.359	80.005	19.997	100.329	20.048	1.775	0.468
409.000	281.583	80.006	19.994	100.330	20.050	1.642	0.457
409.500	281.867	80.006	19.993	100.329	20.052	1.492	0.486
410.000	282.106	80.004	19.994	100.329	20.050	1.608	0.515
410.500	282.385	80.005	19.994	100.329	20.053	1.437	0.520
411.000	282.610	80.006	19.996	100.330	20.054	1.382	0.511
411.500	282.881	80.006	19.995	100.330	20.049	1.714	0.500
412.000	283.139	80.007	19.996	100.330	20.052	1.509	0.513
412.500	283.343	80.005	19.995	100.331	20.050	1.654	0.496
413.000	283.600	80.006	19.994	100.330	20.052	1.485	0.462
413.500	283.835	80.005	19.996	100.330	20.050	1.613	0.476
414.000	284.115	80.007	19.994	100.330	20.054	1.394	0.503
414.500	284.351	80.005	19.995	100.330	20.051	1.546	0.515
415.000	284.569	80.005	19.992	100.329	20.053	1.459	0.485
415.500	284.819	80.006	19.994	100.330	20.049	1.726	0.461
416.000	285.076	80.006	19.994	100.329	20.054	1.374	0.488
416.500	285.331	80.006	19.994	100.329	20.051	1.562	0.510
417.000	285.599	80.005	19.993	100.328	20.052	1.512	0.517
417.501	285.825	80.006	19.991	100.329	20.051	1.545	0.508
418.001	286.056	80.006	19.996	100.328	20.054	1.375	0.476
418.500	286.336	80.006	19.997	100.329	20.053	1.475	0.484
419.000	286.599	80.007	19.994	100.329	20.052	1.538	0.527
419.500	286.851	80.004	19.996	100.330	20.052	1.533	0.529
420.000	287.121	80.005	19.994	100.329	20.054	1.369	0.519
420.500	287.316	80.004	19.997	100.330	20.051	1.591	0.494
421.000	287.618	80.004	19.993	100.330	20.051	1.601	0.481
421.501	287.860	80.005	19.995	100.330	20.052	1.531	0.520
422.000	288.110	80.005	19.996	100.329	20.050	1.630	0.518
422.500	288.310	80.005	19.996	100.329	20.051	1.541	0.471
423.000	288.566	80.004	19.995	100.327	20.053	1.459	0.453
423.500	288.819	80.004	19.994	100.327	20.052	1.487	0.483
424.000	289.073	80.005	19.994	100.327	20.050	1.642	0.508
424.500	289.302	80.005	19.993	100.329	20.051	1.601	0.495
425.000	289.571	80.005	19.997	100.329	20.051	1.582	0.490
425.500	289.818	80.006	19.994	100.330	20.051	1.546	0.507
426.000	290.062	80.005	19.994	100.330	20.052	1.529	0.504
426.500	290.326	80.006	19.995	100.329	20.052	1.481	0.500
427.000	290.608	80.005	19.996	100.328	20.050	1.613	0.527
427.500	290.855	80.007	19.995	100.328	20.050	1.644	0.537
428.000	291.109	80.005	19.996	100.327	20.051	1.548	0.514
428.500	291.318	80.005	19.995	100.328	20.049	1.671	0.481
429.000	291.572	80.005	19.995	100.327	20.052	1.517	0.463
429.500	291.805	80.005	19.995	100.327	20.050	1.661	0.475
430.000	292.073	80.005	19.995	100.328	20.053	1.452	0.494
430.500	292.299	80.006	19.995	100.329	20.050	1.630	0.497
431.000	292.552	80.004	19.994	100.329	20.050	1.623	0.486
431.500	292.793	80.004	19.994	100.330	20.053	1.435	0.487
432.000	293.028	80.006	19.995	100.330	20.048	1.768	0.485
432.500	293.298	80.006	19.996	100.330	20.052	1.509	0.490
433.000	293.550	80.006	19.995	100.331	20.053	1.440	0.514
433.500	293.775	80.006	19.996	100.331	20.051	1.581	0.500
434.001	294.022	80.008	19.994	100.330	20.052	1.492	0.474
434.500	294.252	80.005	19.994	100.330	20.051	1.562	0.474
435.000	294.512	80.005	19.997	100.330	20.052	1.502	0.483
435.500	294.779	80.007	19.996	100.330	20.052	1.480	0.508
436.000	295.028	80.007	19.997	100.330	20.050	1.623	0.522
436.500	295.272	80.006	19.996	100.331	20.050	1.622	0.504
437.000	295.517	80.007	19.996	100.332	20.050	1.613	0.491
437.500	295.780	80.005	19.995	100.331	20.051	1.558	0.499
438.000	296.039	80.006	19.995	100.329	20.051	1.589	0.515
438.500	296.292	80.005	19.996	100.328	20.051	1.592	0.517
439.000	296.515	80.005	19.994	100.328	20.052	1.538	0.494
439.500	296.768	80.007	19.995	100.328	20.052	1.531	0.476
440.000	296.988	80.005	19.995	100.329	20.053	1.463	0.474
440.500	297.252	80.005	19.996	100.331	20.051	1.598	0.479
441.000	297.513	80.007	19.995	100.331	20.046	1.900	0.504
441.500	297.735	80.005	19.995	100.331	20.050	1.613	0.504
442.000	298.018	80.006	19.995	100.331	20.050	1.644	0.494
442.500	298.272	80.005	19.994	100.331	20.050	1.616	0.520
443.000	298.537	80.004	19.996	100.331	20.047	1.804	0.528
443.500	298.749	80.005	19.995	100.332	20.049	1.716	0.498
444.000	299.008	80.003	19.995	100.333	20.048	1.763	0.475
444.500	299.301	80.006	19.997	100.333	20.053	1.454	0.511
445.000	299.534	80.004	19.996	100.333	20.049	1.709	0.538
445.500	299.780	80.004	19.995	100.333	20.049	1.726	0.503
446.000	300.019	80.004	19.997	100.333	20.046	1.891	0.483
446.500	300.281	80.003	19.995	100.333	20.048	1.774	0.493
447.000	300.527	80.005	19.995	100.333	20.046	1.854	0.504
447.500	300.788	80.004	19.995	100.333	20.050	1.659	0.508
448.000	301.044	80.005	19.993	100.333	20.048	1.731	0.512
448.500	301.297	80.004	19.995	100.332	20.051	1.594	0.513
449.000	301.567	80.005	19.998	100.332	20.047	1.844	0.516
449.500	301.798	80.004	19.998	100.333	20.047	1.827	0.512
450.000	302.028	80.005	19.996	100.334	20.050	1.649	0.481
450.500	302.276	80.003	19.996	100.335	20.049	1.707	0.469
451.000	302.565	80.004	19.996	100.335	20.051	1.568	0.508
451.500	302.797	80.004	19.996	100.335	20.047	1.814	0.529
452.000	303.061	80.005	19.994	100.335	20.051	1.584	0.509
452.500	303.296	80.004	19.997	100.334	20.050	1.642	0.497
453.000	303.543	80.006	19.994	100.334	20.051	1.556	0.490
453.500	303.796	80.005	19.997	100.333	20.048	1.760	0.491
454.000	304.041	80.006	19.999	100.333	20.051	1.577	0.500
454.500	304.269	80.005	19.995	100.333	20.050	1.649	0.486
455.000	304.580	80.005	19.997	100.333	20.047	1.826	0.506
455.500	304.808	80.006	19.997	100.332	20.051	1.575	0.539
456.000	305.096	80.005	19.996	100.333	20.049	1.688	0.527
456.500	305.338	80.005	19.996	100.332	20.047	1.799	0.523
457.000	305.598	80.006	19.996	100.332	20.047	1.835	0.516
457.500	305.816	80.005	19.995	100.331	20.049	1.691	0.490
458.000	306.048	80.006	19.996	100.329	20.049	1.666	0.464
458.500	306.320	80.006	19.996	100.329	20.049	1.681	0.477
459.000	306.615	80.007	19.995	100.328	20.050	1.618	0.535
459.500	306.805	80.007	19.996	100.329	20.050	1.616	0.526
460.000	307.085	80.007	19.996	100.328	20.050	1.640	0.478
460.500	307.322	80.006	19.996	100.329	20.049	1.722	0.494
461.000	307.580	80.007	19.996	100.327	20.050	1.632	0.506
461.501	307.831	80.005	19.996	100.326	20.049	1.714	0.502
462.000	308.069	80.006	19.996	100.324	20.047	1.833	0.498
462.500	308.322	80.008	19.996	100.324	20.047	1.801	0.490
463.000	308.596	80.007	19.996	100.324	20.044	1.999	0.509
463.500	308.798	80.007	19.995	100.325	20.046	1.893	0.502
464.000	309.045	80.007	19.997	100.326	20.048	1.768	0.462
464.500	309.303	80.008	19.997	100.326	20.049	1.698	0.477
465.000	309.573	80.007	19.996	100.325	20.046	1.903	0.517
465.500	309.824	80.008	19.997	100.324	20.044	2.000	0.525
466.000	310.064	80.008	19.997	100.324	20.046	1.910	0.506
466.500	310.316	80.007	19.997	100.324	20.046	1.861	0.491
467.000	310.595	80.007	19.997	100.325	20.050	1.659	0.512
467.500	310.843	80.006	19.995	100.326	20.048	1.760	0.529
468.000	311.094	80.005	19.997	100.327	20.050	1.632	0.513
468.500	311.322	80.005	19.997	100.327	20.045	1.920	0.489
469.000	311.545	80.005	19.997	100.327	20.049	1.724	0.465
469.500	311.870	80.006	19.997	100.327	20.047	1.803	0.499
470.000	312.080	80.005	19.996	100.326	20.048	1.751	0.542
470.500	312.358	80.004	19.995	100.326	20.046	1.879	0.512
471.000	312.605	80.004	19.996	100.326	20.047	1.794	0.506
471.500	312.898	80.005	19.996	100.326	20.047	1.821	0.533
472.000	313.130	80.006	19.996	100.326	20.047	1.844	0.533
472.500	313.372	80.005	19.995	100.327	20.046	1.912	0.499
473.000	313.616	80.005	19.996	100.326	20.049	1.705	0.480
473.500	313.872	80.006	19.996	100.327	20.049	1.722	0.493
474.000	314.147	80.005	19.996	100.327	20.045	1.950	0.515
474.500	314.368	80.005	19.995	100.323	20.049	1.709	0.513
475.000	314.630	80.003	19.994	100.320	20.048	1.736	0.490
475.500	314.859	80.006	19.995	100.316	20.048	1.748	0.488
476.000	315.062	80.004	19.993	100.314	20.048	1.762	0.462
476.500	315.322	80.005	19.995	100.313	20.048	1.773	0.447
477.000	315.588	80.005	19.996	100.317	20.046	1.871	0.494
477.500	315.834	80.006	19.996	100.320	20.047	1.816	0.519
478.000	316.090	80.005	19.995	100.324	20.049	1.722	0.507
478.500	316.351	80.005	19.996	100.326	20.047	1.820	0.509
479.000	316.550	80.003	19.993	100.327	20.046	1.885	0.488
479.500	316.830	80.005	19.997	100.327	20.044	2.021	0.470
480.000	317.044	80.005	19.997	100.328	20.045	1.943	0.487
480.500	317.342	80.004	19.996	100.328	20.048	1.785	0.503
481.000	317.582	80.005	19.996	100.329	20.048	1.755	0.525
481.500	317.793	80.006	19.996	100.328	20.050	1.616	0.495
482.000	318.063	80.005	19.995	100.327	20.047	1.801	0.466
482.500	318.288	80.006	19.996	100.326	20.048	1.733	0.488
483.000	318.577	80.006	19.996	100.325	20.047	1.835	0.505
483.500	318.807	80.005	19.995	100.325	20.047	1.850	0.517
484.000	319.066	80.004	19.996	100.326	20.047	1.850	0.504
484.500	319.293	80.002	19.994	100.327	20.045	1.970	0.487
485.000	319.582	80.007	19.996	100.328	20.046	1.874	0.501
485.500	319.789	80.005	19.996	100.329	20.044	2.025	0.506
486.000	320.060	80.006	19.996	100.328	20.044	2.009	0.487
486.500	320.310	80.005	19.995	100.327	20.043	2.047	0.500
487.000	320.532	80.007	19.995	100.327	20.046	1.876	0.496
487.500	320.823	80.007	19.997	100.326	20.048	1.777	0.493
488.000	321.088	80.005	19.995	100.327	20.047	1.838	0.535
488.500	321.325	80.005	19.997	100.327	20.045	1.958	0.529
489.000	321.584	80.005	19.996	100.328	20.045	1.973	0.499
489.500	321.817	80.006	19.996	100.329	20.045	1.932	0.494
490.000	322.071	80.006	19.998	100.329	20.045	1.973	0.489
490.500	322.342	80.005	19.996	100.327	20.044	1.997	0.506
491.000	322.596	80.006	19.996	100.326	20.043	2.086	0.525
491.500	322.798	80.005	19.994	100.326	20.043	2.071	0.490
492.000	323.103	80.006	19.995	100.326	20.042	2.129	0.482
492.500	323.341	80.006	19.996	100.326	20.044	2.040	0.525
493.000	323.576	80.004	19.996	100.327	20.044	2.016	0.508
493.500	323.799	80.007	19.995	100.328	20.044	2.013	0.465
494.000	324.059	80.005	19.994	100.328	20.044	2.004	0.471
494.500	324.344	80.005	19.995	100.329	20.042	2.105	0.515
495.000	324.621	80.006	19.995	100.328	20.043	2.089	0.554
495.500	324.866	80.005	19.994	100.329	20.042	2.108	0.542
496.000	325.078	80.006	19.995	100.329	20.044	2.031	0.489
496.500	325.357	80.005	19.995	100.329	20.041	2.185	0.474
497.000	325.592	80.006	19.994	100.328	20.041	2.187	0.503
497.500	325.855	80.006	19.995	100.325	20.041	2.209	0.507
498.000	326.124	80.005	19.995	100.325	20.043	2.096	0.516
498.500	326.347	80.006	19.995	100.325	20.045	1.922	0.512
499.000	326.584	80.004	19.995	100.325	20.042	2.122	0.476
499.500	326.866	80.004	19.995	100.326	20.043	2.091	0.489
500.000	327.105	80.006	19.996	100.329	20.044	2.020	0.520
500.500	327.358	80.004	19.995	100.329	20.040	2.274	0.507
501.000	327.610	80.004	19.995	100.326	20.043	2.054	0.498
501.500	327.896	80.005	19.996	100.325	20.042	2.122	0.521
502.000	328.158	80.004	19.996	100.325	20.041	2.177	0.543
502.500	328.371	80.005	19.994	100.325	20.039	2.346	0.512
503.000	328.636	80.005	19.995	100.324	20.043	2.074	0.477
503.500	328.911	80.005	19.995	100.326	20.045	1.961	0.509
504.000	329.163	80.004	19.995	100.325	20.043	2.043	0.533
504.500	329.409	80.004	19.996	100.324	20.042	2.115	0.512
505.000	329.676	80.005	19.995	100.322	20.043	2.084	0.505
505.500	329.950	80.004	19.993	100.320	20.036	2.535	0.527
506.000	330.182	80.006	19.993	100.317	20.039	2.322	0.523
506.500	330.429	80.004	19.994	100.318	20.041	2.204	0.492
507.000	330.681	80.005	19.995	100.319	20.041	2.177	0.489
507.500	330.938	80.005	19.994	100.320	20.041	2.173	0.504
508.000	331.200	80.005	19.995	100.322	20.038	2.359	0.514
508.500	331.441	80.005	19.996	100.327	20.038	2.354	0.511
509.000	331.691	80.005	19.996	100.327	20.040	2.262	0.497
509.500	331.942	80.005	19.996	100.327	20.041	2.207	0.496
510.000	332.194	80.006	19.995	100.329	20.042	2.139	0.502
510.500	332.467	80.006	19.994	100.331	20.041	2.216	0.514
511.000	332.723	80.006	19.996	100.331	20.040	2.252	0.527
511.500	332.977	80.006	19.996	100.331	20.044	2.033	0.519
512.000	333.205	80.005	19.996	100.328	20.040	2.228	0.496
512.500	333.504	80.005	19.996	100.328	20.038	2.377	0.505
513.000	333.747	80.006	19.997	100.328	20.041	2.223	0.535
513.500	333.968	80.006	19.995	100.327	20.041	2.219	0.503
514.000	334.240	80.005	19.995	100.325	20.040	2.258	0.478
514.500	334.501	80.005	19.994	100.324	20.039	2.308	0.513
515.000	334.724	80.005	19.996	100.321	20.040	2.276	0.509
515.500	334.986	80.006	19.995	100.316	20.041	2.213	0.485
516.001	335.259	80.007	19.994	100.315	20.042	2.110	0.510
516.500	335.521	80.007	19.995	100.318	20.041	2.190	0.535
517.000	335.755	80.006	19.994	100.321	20.042	2.148	0.516
517.500	336.022	80.007	19.994	100.323	20.040	2.279	0.499
518.000	336.265	80.007	19.994	100.324	20.038	2.383	0.506
518.500	336.537	80.006	19.994	100.325	20.039	2.315	0.512
519.000	336.747	80.007	19.995	100.324	20.038	2.356	0.498
519.500	336.993	80.006	19.994	100.321	20.037	2.419	0.469
520.000	337.284	80.006	19.994	100.323	20.036	2.479	0.497
520.500	337.561	80.006	19.994	100.325	20.041	2.216	0.553
521.000	337.798	80.007	19.995	100.325	20.040	2.267	0.541
521.500	338.042	80.006	19.994	100.326	20.040	2.267	0.498
522.000	338.283	80.005	19.995	100.329	20.040	2.289	0.483
522.500	338.540	80.006	19.995	100.328	20.040	2.250	0.492
523.000	338.819	80.006	19.995	100.328	20.036	2.505	0.517
523.500	339.061	80.006	19.994	100.325	20.037	2.426	0.528
524.000	339.308	80.005	19.994	100.320	20.036	2.486	0.505
524.500	339.568	80.006	19.995	100.317	20.035	2.554	0.498
525.000	339.829	80.007	19.994	100.316	20.037	2.435	0.514
525.500	340.059	80.006	19.995	100.318	20.038	2.399	0.506
526.000	340.319	80.006	19.997	100.321	20.035	2.546	0.491
526.500	340.555	80.005	19.996	100.325	20.035	2.549	0.493
527.000	340.782	80.006	19.995	100.327	20.035	2.563	0.479
527.500	341.038	80.004	19.996	100.323	20.035	2.544	0.473
528.000	341.309	80.006	19.996	100.319	20.036	2.508	0.505
528.500	341.539	80.004	19.996	100.315	20.032	2.769	0.514
529.000	341.795	80.006	19.996	100.311	20.034	2.665	0.494
529.500	342.042	80.006	19.996	100.308	20.036	2.501	0.495
530.000	342.327	80.006	19.995	100.313	20.034	2.641	0.518
530.500	342.548	80.005	19.995	100.314	20.035	2.600	0.519
531.000	342.799	80.006	19.995	100.317	20.033	2.679	0.489
531.500	343.030	80.006	19.995	100.320	20.032	2.768	0.477
532.000	343.285	80.005	19.994	100.324	20.033	2.723	0.484
532.500	343.558	80.006	19.995	100.323	20.028	3.008	0.507
533.000	343.765	80.005	19.996	100.325	20.028	2.981	0.504
533.500	344.005	80.006	19.996	100.326	20.025	3.169	0.463
534.000	344.261	80.005	19.995	100.324	20.028	2.981	0.471
534.500	344.528	80.006	19.995	100.320	20.028	3.037	0.510
535.000	344.790	80.006	19.995	100.318	20.027	3.087	0.526
535.500	345.019	80.007	19.996	100.318	20.028	2.993	0.510
536.000	345.294	80.006	19.996	100.319	20.028	3.008	0.497
536.500	345.538	80.006	19.995	100.321	20.027	3.087	0.511
537.000	345.810	80.007	19.996	100.325	20.025	3.171	0.517
537.500	346.013	80.005	19.994	100.327	20.025	3.182	0.495
538.000	346.270	80.007	19.995	100.326	20.025	3.179	0.467
538.500	346.524	80.006	19.994	100.323	20.026	3.123	0.485
539.000	346.771	80.007	19.994	100.323	20.023	3.331	0.506
539.500	347.019	80.007	19.995	100.322	20.025	3.186	0.498
540.000	347.303	80.007	19.994	100.322	20.024	3.234	0.514
540.500	347.551	80.008	19.995	100.322	20.025	3.212	0.532
541.000	347.779	80.007	19.994	100.325	20.024	3.241	0.504
541.500	348.021	80.007	19.994	100.325	20.023	3.336	0.473
542.000	348.278	80.007	19.995	100.324	20.026	3.142	0.484
542.500	348.529	80.008	19.995	100.320	20.025	3.208	0.504
543.000	348.793	80.008	19.995	100.319	20.021	3.448	0.511
543.500	349.034	80.008	19.995	100.313	20.021	3.475	0.510
544.000	349.295	80.009	19.994	100.311	20.020	3.536	0.504
544.500	349.557	80.008	19.995	100.312	20.023	3.294	0.512
545.000	349.824	80.009	19.994	100.314	20.020	3.495	0.526
545.500	350.049	80.008	19.995	100.315	20.021	3.471	0.510
546.000	350.292	80.008	19.995	100.319	20.021	3.422	0.480
546.500	350.507	80.008	19.996	100.317	20.020	3.492	0.463
547.000	350.770	80.007	19.995	100.316	20.017	3.697	0.468
547.500	351.038	80.008	19.994	100.311	20.018	3.665	0.505
548.001	351.278	80.008	19.995	100.309	20.019	3.596	0.519
548.500	351.572	80.008	19.996	100.308	20.016	3.786	0.521
549.000	351.779	80.008	19.995	100.310	20.018	3.620	0.518
549.500	352.033	80.007	19.995	100.307	20.014	3.914	0.481
550.000	352.313	80.007	19.996	100.307	20.014	3.870	0.497
550.500	352.544	80.007	19.996	100.307	20.018	3.644	0.523
551.000	352.834	80.007	19.997	100.310	20.017	3.670	0.516
551.500	353.097	80.006	19.995	100.309	20.017	3.730	0.537
552.000	353.356	80.006	19.997	100.312	20.016	3.748	0.538
552.500	353.581	80.005	19.996	100.316	20.015	3.852	0.503
553.000	353.799	80.005	19.997	100.316	20.015	3.801	0.463
553.500	354.085	80.004	19.995	100.316	20.016	3.743	0.473
554.000	354.351	80.005	19.995	100.316	20.011	4.049	0.528
554.500	354.600	80.005	19.996	100.319	20.015	3.823	0.534
555.000	354.833	80.005	19.995	100.319	20.013	3.940	0.498
555.500	355.112	80.004	19.997	100.318	20.010	4.127	0.497
556.000	355.337	80.004	19.996	100.315	20.013	3.975	0.509
556.500	355.596	80.004	19.997	100.315	20.010	4.144	0.494
557.000	355.859	80.005	19.995	100.314	20.013	3.968	0.503
557.500	356.118	80.006	19.997	100.312	20.011	4.097	0.522
558.000	356.327	80.004	19.997	100.315	20.013	3.957	0.495
558.500	356.627	80.003	19.995	100.319	20.011	4.076	0.488
559.000	356.885	80.004	19.997	100.319	20.011	4.069	0.533
559.500	357.135	80.005	19.996	100.321	20.009	4.221	0.533
560.000	357.373	80.004	19.996	100.323	20.009	4.202	0.498
560.500	357.636	80.004	19.996	100.324	20.007	4.315	0.495
561.000	357.905	80.004	19.996	100.325	20.006	4.377	0.516
561.500	358.147	80.003	19.996	100.325	20.006	4.418	0.522
562.000	358.389	80.002	19.996	100.323	20.004	4.539	0.498
562.500	358.609	80.003	19.996	100.319	20.004	4.540	0.473
563.000	358.887	80.003	19.997	100.315	20.004	4.533	0.480
563.500	359.130	80.004	19.995	100.314	20.004	4.532	0.510
564.000	359.405	80.004	19.997	100.312	20.004	4.501	0.520
564.500	359.653	80.004	19.996	100.313	20.002	4.662	0.520
565.000	359.917	80.005	19.996	100.317	20.004	4.486	0.517
565.500	360.130	80.005	19.995	100.319	20.001	4.696	0.495
566.000	360.438	80.005	19.995	100.315	20.003	4.544	0.500
566.500	360.664	80.005	19.995	100.317	19.997	4.949	0.527
567.000	360.916	80.005	19.995	100.315	19.997	4.952	0.505
567.500	361.194	80.005	19.995	100.314	19.995	5.063	0.504
568.000	361.416	80.004	19.996	100.312	19.997	4.950	0.515
568.500	361.687	80.004	19.995	100.315	19.996	5.020	0.496
569.000	361.946	80.006	19.995	100.313	19.996	5.017	0.511
569.500	362.169	80.005	19.995	100.309	19.994	5.121	0.506
570.000	362.447	80.005	19.995	100.304	19.993	5.218	0.492
570.500	362.714	80.004	19.995	100.305	19.990	5.367	0.523
571.000	362.953	80.005	19.994	100.303	19.987	5.604	0.525
571.500	363.199	80.004	19.994	100.305	19.988	5.486	0.496
572.000	363.456	80.006	19.995	100.309	19.987	5.596	0.495
572.500	363.697	80.006	19.996	100.311	19.986	5.616	0.500
573.000	363.931	80.005	19.995	100.308	19.985	5.714	0.487
573.500	364.208	80.004	19.995	100.306	19.986	5.661	0.493
574.000	364.480	80.006	19.994	100.302	19.980	6.004	0.530
574.500	364.716	80.006	19.995	100.301	19.983	5.848	0.528
575.000	364.995	80.004	19.994	100.303	19.981	5.933	0.512
575.500	365.254	80.006	19.995	100.309	19.980	6.017	0.527
576.000	365.487	80.006	19.995	100.312	19.980	6.036	0.515
576.500	365.756	80.005	19.994	100.313	19.978	6.165	0.497
577.000	366.031	80.006	19.994	100.312	19.979	6.077	0.523
577.500	366.266	80.006	19.995	100.311	19.976	6.256	0.527
578.000	366.551	80.006	19.995	100.307	19.976	6.268	0.515
578.500	366.810	80.004	19.995	100.305	19.975	6.318	0.532
579.000	367.059	80.005	19.995	100.303	19.974	6.399	0.526
579.500	367.273	80.005	19.994	100.301	19.975	6.351	0.486
580.000	367.539	80.005	19.995	100.297	19.976	6.281	0.472
580.500	367.815	80.005	19.994	100.294	19.974	6.419	0.511
581.000	368.056	80.004	19.995	100.294	19.972	6.515	0.529
581.500	368.290	80.004	19.995	100.294	19.971	6.592	0.496
582.000	368.559	80.004	19.995	100.295	19.969	6.677	0.489
582.500	368.832	80.003	19.995	100.296	19.968	6.793	0.522
583.000	369.062	80.004	19.995	100.296	19.966	6.919	0.522
583.500	369.341	80.005	19.995	100.295	19.969	6.723	0.506
584.000	369.603	80.003	19.995	100.299	19.965	6.948	0.526
584.500	369.832	80.005	19.994	100.304	19.967	6.847	0.517
585.000	370.087	80.005	19.994	100.308	19.965	6.969	0.487
585.500	370.328	80.004	19.994	100.311	19.964	7.013	0.489
586.000	370.581	80.004	19.994	100.314	19.961	7.173	0.495
586.500	370.859	80.005	19.995	100.316	19.962	7.117	0.513
587.000	371.106	80.004	19.994	100.313	19.957	7.426	0.528
587.500	371.385	80.003	19.995	100.314	19.959	7.327	0.525
588.000	371.626	80.004	19.996	100.317	19.955	7.602	0.523
588.500	371.884	80.006	19.995	100.318	19.952	7.773	0.510
589.000	372.154	80.005	19.996	100.317	19.949	7.933	0.513
589.500	372.424	80.005	19.996	100.317	19.946	8.145	0.534
590.000	372.703	80.004	19.994	100.313	19.947	8.094	0.545
590.501	372.919	80.004	19.994	100.308	19.943	8.299	0.522
591.000	373.184	80.006	19.995	100.307	19.945	8.198	0.488
591.500	373.442	80.005	19.996	100.304	19.941	8.441	0.502
592.000	373.711	80.005	19.996	100.300	19.939	8.554	0.525
592.500	373.955	80.006	19.995	100.300	19.941	8.480	0.520
593.000	374.181	80.006	19.995	100.297	19.938	8.662	0.492
593.500	374.486	80.005	19.997	100.294	19.936	8.738	0.501
594.000	374.736	80.006	19.995	100.294	19.935	8.813	0.543
594.501	375.001	80.006	19.994	100.294	19.935	8.827	0.535
595.001	375.214	80.005	19.995	100.294	19.935	8.812	0.496
595.500	375.481	80.005	19.995	100.294	19.937	8.715	0.479
596.000	375.735	80.005	19.995	100.293	19.934	8.889	0.501
596.500	375.991	80.006	19.994	100.293	19.934	8.868	0.515
597.000	376.215	80.005	19.995	100.291	19.936	8.743	0.495
597.500	376.547	80.006	19.995	100.292	19.936	8.793	0.518
598.000	376.782	80.007	19.996	100.292	19.933	8.926	0.562
598.500	377.002	80.006	19.995	100.293	19.933	8.949	0.511
599.000	377.283	80.006	19.995	100.291	19.933	8.956	0.478
599.500	377.547	80.007	19.995	100.291	19.935	8.831	0.523
600.000	377.795	80.007	19.995	100.290	19.932	9.029	0.528
600.500	378.024	80.007	19.995	100.290	19.933	8.939	0.495
601.000	378.313	80.006	19.995	100.289	19.932	9.010	0.497
601.500	378.573	80.007	19.994	100.290	19.932	9.002	0.533
602.000	378.807	80.006	19.994	100.291	19.937	8.681	0.521
602.500	379.050	80.007	19.995	100.291	19.935	8.804	0.486
603.000	379.322	80.007	19.994	100.293	19.935	8.826	0.496
603.500	379.591	80.006	19.995	100.296	19.937	8.733	0.528
604.000	379.816	80.008	19.995	100.296	19.933	8.972	0.517
604.500	380.138	80.008	19.994	100.296	19.932	9.011	0.521
605.000	380.367	80.008	19.994	100.295	19.930	9.170	0.549
605.500	380.641	80.007	19.994	100.295	19.932	9.032	0.527
606.000	380.880	80.007	19.994	100.293	19.930	9.173	0.508
606.500	381.154	80.007	19.995	100.297	19.927	9.307	0.514
607.000	381.372	80.008	19.993	100.303	19.929	9.216	0.503
607.500	381.677	80.007	19.994	100.308	19.925	9.460	0.507
608.000	381.900	80.006	19.994	100.308	19.926	9.378	0.525
608.500	382.218	80.008	19.995	100.310	19.924	9.539	0.534
609.000	382.472	80.008	19.995	100.308	19.922	9.657	0.556
609.500	382.727	80.007	19.995	100.305	19.924	9.529	0.541
610.000	382.993	80.007	19.995	100.304	19.922	9.667	0.515
610.500	383.239	80.006	19.994	100.305	19.921	9.688	0.517
611.000	383.492	80.006	19.995	100.303	19.920	9.768	0.506
611.500	383.743	80.006	19.994	100.304	19.916	10.024	0.502
612.000	383.999	80.005	19.995	100.302	19.916	10.014	0.505
612.500	384.262	80.007	19.994	100.302	19.916	10.041	0.513
613.000	384.556	80.006	19.994	100.301	19.914	10.126	0.538
613.500	384.781	80.007	19.994	100.300	19.914	10.137	0.538
614.000	385.043	80.006	19.995	100.297	19.911	10.343	0.502
614.500	385.304	80.006	19.996	100.296	19.911	10.335	0.505
615.000	385.554	80.007	19.996	100.292	19.910	10.417	0.517
615.500	385.779	80.006	19.996	100.292	19.908	10.514	0.493
616.000	386.082	80.006	19.995	100.290	19.907	10.562	0.502
616.500	386.349	80.005	19.996	100.291	19.907	10.606	0.549
617.000	386.630	80.007	19.995	100.291	19.902	10.898	0.559
617.500	386.863	80.006	19.996	100.290	19.901	10.970	0.531
618.000	387.129	80.006	19.996	100.290	19.899	11.090	0.507
618.500	387.345	80.005	19.996	100.291	19.897	11.223	0.490
619.000	387.622	80.006	19.995	100.290	19.895	11.323	0.487
619.500	387.859	80.006	19.996	100.290	19.894	11.402	0.504
620.000	388.171	80.007	19.995	100.291	19.890	11.624	0.531
620.500	388.424	80.006	19.996	100.293	19.889	11.728	0.557
621.000	388.659	80.006	19.995	100.293	19.888	11.800	0.527
621.500	388.905	80.007	19.995	100.293	19.883	12.089	0.484
622.000	389.210	80.007	19.996	100.293	19.881	12.214	0.516
622.500	389.425	80.007	19.996	100.292	19.878	12.417	0.536
623.000	389.731	80.007	19.996	100.290	19.877	12.465	0.521
623.500	389.960	80.009	19.995	100.289	19.875	12.557	0.528
624.000	390.245	80.008	19.996	100.290	19.872	12.778	0.524
624.500	390.467	80.008	19.995	100.289	19.870	12.908	0.510
625.000	390.736	80.006	19.995	100.289	19.865	13.181	0.499
625.500	391.018	80.008	19.995	100.289	19.867	13.106	0.521
626.000	391.284	80.008	19.995	100.290	19.863	13.310	0.550
626.500	391.497	80.007	19.995	100.290	19.859	13.604	0.513
627.000	391.766	80.009	19.994	100.290	19.859	13.570	0.480
627.500	392.037	80.008	19.994	100.290	19.856	13.752	0.511
628.000	392.256	80.008	19.995	100.290	19.857	13.727	0.515
628.500	392.538	80.008	19.995	100.290	19.853	13.952	0.495
629.000	392.763	80.008	19.995	100.289	19.852	14.055	0.504
629.500	393.063	80.007	19.995	100.288	19.853	13.930	0.516
630.000	393.311	80.008	19.995	100.287	19.853	13.946	0.537
630.500	393.557	80.008	19.994	100.286	19.850	14.120	0.520
631.000	393.808	80.008	19.993	100.287	19.847	14.345	0.495
631.500	394.040	80.007	19.996	100.287	19.848	14.280	0.490
632.000	394.307	80.007	19.995	100.289	19.847	14.333	0.491
632.500	394.541	80.007	19.995	100.290	19.846	14.429	0.500
633.000	394.827	80.006	19.995	100.291	19.844	14.516	0.510
633.500	395.089	80.006	19.994	100.291	19.842	14.630	0.534
634.000	395.351	80.006	19.995	100.290	19.837	14.959	0.536
634.500	395.583	80.006	19.994	100.289	19.837	14.935	0.509
635.000	395.814	80.006	19.995	100.287	19.835	15.076	0.478
635.500	396.082	80.005	19.994	100.285	19.835	15.114	0.481
636.000	396.321	80.005	19.994	100.285	19.832	15.248	0.503
636.500	396.586	80.006	19.995	100.286	19.826	15.623	0.506
637.000	396.859	80.006	19.995	100.287	19.827	15.584	0.521
637.500	397.087	80.005	19.994	100.289	19.823	15.844	0.519
638.000	397.322	80.006	19.995	100.291	19.819	16.081	0.482
638.500	397.594	80.005	19.995	100.291	19.819	16.106	0.485
639.000	397.817	80.007	19.995	100.291	19.813	16.476	0.501
639.500	398.070	80.005	19.995	100.291	19.812	16.511	0.485
640.000	398.317	80.005	19.996	100.292	19.806	16.916	0.488
640.500	398.548	80.005	19.996	100.292	19.804	17.055	0.489
641.000	398.860	80.005	19.995	100.291	19.800	17.262	0.510
641.500	399.065	80.004	19.995	100.292	19.799	17.344	0.530
642.000	399.338	80.005	19.996	100.292	19.797	17.442	0.497
642.500	399.561	80.004	19.996	100.292	19.794	17.674	0.487
643.000	399.798	80.003	19.995	100.293	19.793	17.712	0.479
643.500	400.110	80.005	19.995	100.291	19.791	17.860	0.505
644.000	400.364	80.005	19.996	100.290	19.788	18.012	0.557
644.500	400.565	80.005	19.995	100.287	19.786	18.164	0.510
645.000	400.840	80.005	19.996	100.284	19.786	18.178	0.466
645.500	401.103	80.005	19.995	100.280	19.784	18.289	0.507
646.000	401.357	80.004	19.995	100.281	19.780	18.553	0.527
646.500	401.627	80.004	19.996	100.282	19.780	18.505	0.520
647.000	401.863	80.004	19.995	100.284	19.776	18.764	0.515
647.500	402.092	80.004	19.995	100.284	19.774	18.918	0.485
648.000	402.369	80.004	19.995	100.282	19.770	19.143	0.486
648.500	402.611	80.005	19.996	100.277	19.768	19.254	0.513
649.000	402.845	80.005	19.995	100.272	19.763	19.573	0.497
649.500	403.114	80.004	19.996	100.268	19.761	19.707	0.490
650.000	403.358	80.004	19.996	100.268	19.758	19.892	0.509
650.500	403.630	80.005	19.996	100.271	19.755	20.076	0.515
651.000	403.814	80.004	19.996	100.273	19.754	20.165	0.485
651.501	404.106	80.004	19.995	100.276	19.748	20.548	0.466
652.000	404.371	80.004	19.996	100.279	19.743	20.854	0.517
652.500	404.612	80.005	19.996	100.278	19.740	21.022	0.532
653.000	404.847	80.005	19.996	100.281	19.736	21.265	0.491
653.500	405.109	80.005	19.996	100.284	19.732	21.548	0.487
654.001	405.339	80.004	19.996	100.286	19.728	21.804	0.495
654.500	405.586	80.004	19.996	100.289	19.727	21.834	0.484
655.000	405.876	80.004	19.996	100.291	19.721	22.237	0.507
655.500	406.091	80.006	19.997	100.291	19.716	22.498	0.521
656.000	406.338	80.005	19.996	100.290	19.711	22.870	0.484
656.500	406.609	80.005	19.995	100.289	19.707	23.061	0.490
657.000	406.866	80.005	19.996	100.289	19.703	23.310	0.523
657.500	407.142	80.004	19.995	100.287	19.698	23.643	0.531
658.000	407.384	80.004	19.996	100.283	19.693	23.999	0.526
658.500	407.635	80.004	19.997	100.283	19.686	24.411	0.506
659.000	407.879	80.005	19.995	100.283	19.683	24.581	0.494
659.500	408.146	80.004	19.996	100.281	19.674	25.163	0.502
660.000	408.392	80.005	19.996	100.282	19.666	25.650	0.512
660.500	408.642	80.004	19.996	100.285	19.665	25.726	0.504
661.000	408.888	80.005	19.996	100.287	19.659	26.083	0.496
661.500	409.125	80.005	19.996	100.287	19.656	26.316	0.490
662.000	409.387	80.005	19.995	100.288	19.651	26.621	0.491
662.500	409.649	80.005	19.995	100.286	19.647	26.828	0.511
663.000	409.921	80.005	19.996	100.284	19.644	27.053	0.529
663.500	410.158	80.005	19.995	100.278	19.639	27.375	0.522
664.000	410.379	80.005	19.995	100.273	19.636	27.555	0.484
664.500	410.626	80.004	19.995	100.268	19.627	28.082	0.463
665.000	410.949	80.004	19.995	100.261	19.624	28.290	0.519
665.500	411.183	80.004	19.995	100.258	19.622	28.402	0.564
666.000	411.440	80.005	19.996	100.256	19.618	28.635	0.524
666.500	411.691	80.005	19.994	100.257	19.612	29.019	0.499
667.000	411.958	80.006	19.996	100.257	19.605	29.443	0.513
667.500	412.169	80.006	19.995	100.261	19.597	29.941	0.498
668.000	412.429	80.006	19.995	100.262	19.594	30.155	0.475
668.500	412.681	80.005	19.995	100.267	19.585	30.699	0.492
669.000	412.961	80.005	19.995	100.270	19.582	30.904	0.522
669.500	413.203	80.004	19.995	100.274	19.573	31.446	0.527
670.000	413.452	80.005	19.995	100.278	19.566	31.913	0.506
670.500	413.736	80.005	19.995	100.281	19.560	32.267	0.512
671.000	413.957	80.005	19.995	100.278	19.554	32.660	0.519
671.501	414.215	80.005	19.994	100.274	19.548	33.022	0.492
672.000	414.457	80.004	19.995	100.276	19.541	33.454	0.489
672.500	414.710	80.004	19.996	100.276	19.532	34.051	0.497
673.000	414.996	80.004	19.994	100.279	19.526	34.400	0.517
673.500	415.224	80.004	19.995	100.282	19.519	34.833	0.526
674.000	415.491	80.005	19.994	100.281	19.509	35.456	0.504
674.500	415.764	80.005	19.995	100.273	19.501	35.975	0.517
675.000	416.023	80.006	19.995	100.267	19.496	36.303	0.536
675.500	416.280	80.005	19.996	100.264	19.486	36.920	0.524
676.000	416.527	80.005	19.996	100.265	19.479	37.353	0.510
676.500	416.784	80.005	19.994	100.268	19.470	37.898	0.504
677.000	417.045	80.006	19.995	100.271	19.462	38.410	0.511
677.500	417.327	80.005	19.995	100.270	19.453	38.986	0.531
678.000	417.572	80.006	19.995	100.265	19.443	39.588	0.535
678.500	417.788	80.006	19.994	100.260	19.437	39.986	0.494
679.000	418.072	80.006	19.996	100.255	19.426	40.699	0.480
679.500	418.370	80.006	19.995	100.252	19.416	41.288	0.541
680.000	418.634	80.005	19.995	100.253	19.408	41.787	0.573
680.500	418.856	80.007	19.995	100.257	19.395	42.598	0.524
681.000	419.144	80.006	19.995	100.262	19.389	42.985	0.498
681.500	419.397	80.006	19.996	100.266	19.381	43.460	0.525
682.000	419.670	80.007	19.995	100.267	19.372	44.041	0.533
682.500	419.906	80.006	19.995	100.265	19.361	44.748	0.518
683.000	420.175	80.008	19.994	100.261	19.353	45.207	0.507
683.500	420.423	80.008	19.995	100.255	19.341	45.954	0.511
684.000	420.711	80.007	19.995	100.250	19.330	46.675	0.527
684.500	420.962	80.007	19.994	100.249	19.321	47.236	0.538
685.000	421.212	80.008	19.995	100.249	19.310	47.931	0.520
685.500	421.503	80.007	19.995	100.249	19.302	48.436	0.520
686.000	421.739	80.008	19.995	100.250	19.292	49.040	0.534
686.500	422.005	80.006	19.995	100.250	19.274	50.178	0.515
687.000	422.230	80.008	19.994	100.250	19.263	50.873	0.497
687.500	422.487	80.007	19.995	100.250	19.252	51.563	0.486
688.000	422.725	80.007	19.995	100.250	19.239	52.340	0.488
688.500	423.007	80.007	19.994	100.251	19.224	53.281	0.507
689.001	423.248	80.007	19.995	100.254	19.212	54.068	0.521
689.500	423.485	80.007	19.995	100.256	19.199	54.887	0.501
690.000	423.774	80.007	19.995	100.258	19.187	55.640	0.502
690.500	424.018	80.006	19.995	100.257	19.174	56.406	0.529
691.000	424.283	80.007	19.995	100.257	19.160	57.316	0.521
691.500	424.563	80.008	19.996	100.254	19.147	58.110	0.527
692.000	424.795	80.005	19.995	100.252	19.133	58.971	0.529
692.500	425.071	80.006	19.995	100.249	19.121	59.775	0.510
693.000	425.318	80.006	19.995	100.248	19.105	60.740	0.515
693.500	425.573	80.006	19.994	100.247	19.091	61.610	0.513
694.001	425.832	80.006	19.995	100.247	19.082	62.174	0.508
694.501	426.117	80.006	19.994	100.245	19.069	63.002	0.529
695.000	426.371	80.006	19.995	100.243	19.055	63.890	0.541
695.500	426.622	80.006	19.995	100.241	19.042	64.667	0.522
696.000	426.893	80.007	19.995	100.235	19.032	65.315	0.513
696.500	427.141	80.006	19.995	100.227	19.015	66.368	0.520
697.000	427.410	80.005	19.995	100.222	19.000	67.301	0.518
697.500	427.646	80.006	19.995	100.219	18.984	68.250	0.511
698.000	427.919	80.007	19.994	100.216	18.966	69.394	0.507
698.500	428.183	80.006	19.994	100.218	18.948	70.522	0.523
699.000	428.423	80.006	19.994	100.224	18.929	71.692	0.520
699.500	428.730	80.007	19.994	100.232	18.907	73.046	0.526
700.000	428.964	80.007	19.994	100.239	18.888	74.247	0.544
700.501	429.232	80.007	19.995	100.244	18.870	75.395	0.522
701.000	429.459	80.006	19.994	100.251	18.852	76.547	0.498
701.500	429.717	80.007	19.994	100.253	18.832	77.755	0.489
702.000	429.981	80.006	19.995	100.253	18.810	79.138	0.503
702.500	430.202	80.006	19.995	100.253	18.794	80.136	0.504
703.000	430.492	80.006	19.994	100.253	18.770	81.672	0.498
703.500	430.732	80.007	19.994	100.251	18.748	83.038	0.520
704.000	430.966	80.007	19.994	100.246	18.727	84.381	0.502
704.500	431.221	80.006	19.993	100.241	18.703	85.882	0.482
705.000	431.503	80.007	19.994	100.237	18.680	87.291	0.513
705.500	431.759	80.008	19.995	100.232	18.664	88.271	0.537
706.000	432.008	80.008	19.995	100.228	18.641	89.703	0.521
706.500	432.272	80.008	19.994	100.225	18.620	91.019	0.509
707.000	432.524	80.007	19.994	100.222	18.597	92.424	0.515
707.500	432.767	80.007	19.994	100.212	18.577	93.703	0.506
708.000	433.050	80.009	19.995	100.201	18.555	95.074	0.511
708.500	433.268	80.007	19.994	100.192	18.531	96.577	0.513
709.000	433.515	80.008	19.994	100.184	18.506	98.118	0.483
709.500	433.763	80.009	19.994	100.175	18.482	99.643	0.480
710.000	434.028	80.009	19.993	100.172	18.455	101.317	0.504
710.500	434.289	80.008	19.994	100.171	18.427	103.120	0.520
711.000	434.575	80.007	19.995	100.171	18.399	104.869	0.537
711.500	434.806	80.008	19.994	100.174	18.367	106.813	0.532
712.000	435.053	80.007	19.995	100.176	18.345	108.219	0.497
712.500	435.285	80.007	19.994	100.183	18.315	110.095	0.479
713.000	435.538	80.007	19.995	100.191	18.288	111.743	0.482
713.500	435.814	80.007	19.993	100.199	18.259	113.558	0.507
714.000	436.011	80.008	19.994	100.204	18.230	115.327	0.501
714.500	436.307	80.006	19.995	100.211	18.200	117.219	0.483
715.000	436.521	80.007	19.995	100.210	18.167	119.237	0.502
715.500	436.770	80.006	19.995	100.204	18.130	121.546	0.487
716.000	437.048	80.007	19.995	100.196	18.102	123.317	0.495
716.500	437.259	80.007	19.996	100.189	18.067	125.535	0.508
717.000	437.536	80.006	19.995	100.181	18.029	127.905	0.489
717.500	437.771	80.006	19.995	100.176	17.992	130.214	0.500
718.000	437.982	80.006	19.995	100.174	17.949	132.903	0.479
718.500	438.224	80.006	19.994	100.175	17.910	135.341	0.449
719.000	438.438	80.004	19.995	100.178	17.869	137.867	0.455
719.500	438.685	80.006	19.995	100.178	17.829	140.373	0.458
720.000	438.947	80.005	19.996	100.179	17.787	143.008	0.485
720.500	439.194	80.006	19.995	100.184	17.746	145.512	0.509
721.000	439.456	80.005	19.994	100.187	17.706	148.017	0.509
721.500	439.707	80.005	19.996	100.184	17.664	150.643	0.511
722.000	439.973	80.006	19.995	100.183	17.623	153.165	0.515
722.500	440.255	80.006	19.994	100.181	17.584	155.574	0.532
723.000	440.498	80.005	19.995	100.177	17.541	158.244	0.536
723.500	440.721	80.005	19.995	100.171	17.494	161.139	0.496
724.000	440.969	80.005	19.995	100.165	17.454	163.597	0.469
724.500	441.249	80.006	19.995	100.155	17.404	166.720	0.500
725.000	441.461	80.006	19.995	100.140	17.357	169.650	0.510
725.500	441.667	80.005	19.995	100.124	17.307	172.787	0.455
726.000	441.945	80.006	19.996	100.109	17.258	175.812	0.451
726.500	442.197	80.005	19.995	100.102	17.203	179.298	0.506
727.001	442.428	80.005	19.995	100.103	17.147	182.732	0.506
727.500	442.681	80.005	19.995	100.111	17.098	185.867	0.483
728.000	442.945	80.005	19.995	100.118	17.044	189.260	0.500
728.500	443.201	80.006	19.995	100.127	16.986	192.918	0.519
729.000	443.438	80.005	19.995	100.124	16.924	196.789	0.507
729.500	443.700	80.004	19.994	100.122	16.866	200.450	0.496
730.000	443.940	80.005	19.995	100.118	16.807	204.072	0.501
730.500	444.190	80.005	19.995	100.110	16.749	207.649	0.496
731.000	444.470	80.005	19.996	100.098	16.690	211.249	0.510
731.500	444.706	80.004	19.994	100.095	16.631	214.828	0.523
732.000	444.971	80.006	19.995	100.098	16.574	218.265	0.508
732.500	445.201	80.005	19.995	100.094	16.513	221.993	0.498
733.000	445.439	80.005	19.995	100.079	16.447	226.059	0.482
733.500	445.708	80.006	19.996	100.056	16.382	230.063	0.488
734.000	445.965	80.005	19.995	100.044	16.318	233.965	0.516
734.500	446.217	80.006	19.997	100.026	16.247	238.303	0.518
735.000	446.467	80.005	19.996	99.998	16.177	242.607	0.506
735.500	446.704	80.005	19.996	100.006	16.102	247.212	0.495
736.001	446.958	80.006	19.996	100.005	16.019	252.395	0.489
736.500	447.200	80.006	19.995	100.000	15.934	257.756	0.494
737.000	447.468	80.006	19.996	99.987	15.845	263.320	0.503
737.500	447.736	80.005	19.996	100.003	15.756	268.935	0.523
738.000	448.004	80.005	19.995	99.992	15.671	274.292	0.536
738.500	448.261	80.005	19.995	100.015	15.585	279.729	0.531
739.000	448.504	80.006	19.995	100.021	15.504	284.936	0.512
739.500	448.779	80.004	19.994	100.042	15.423	290.053	0.509
740.000	449.043	80.005	19.995	100.057	15.352	294.603	0.529
740.500	449.288	80.005	19.996	100.078	15.272	299.548	0.524
741.000	449.524	80.004	19.996	100.054	15.195	304.241	0.495
741.500	449.774	80.005	19.995	100.022	15.118	308.853	0.484
742.000	450.032	80.004	19.995	99.989	15.042	313.352	0.497
742.500	450.279	80.005	19.997	99.940	14.973	317.416	0.507
743.000	450.532	80.005	19.997	99.874	14.905	321.430	0.503
743.500	450.796	80.005	19.996	99.842	14.837	325.534	0.508
744.000	451.057	80.005	19.995	99.833	14.770	329.574	0.520
744.500	451.300	80.004	19.996	99.800	14.700	333.743	0.514
745.000	451.537	80.005	19.997	99.762	14.621	338.561	0.492
745.500	451.763	80.005	19.996	99.738	14.538	343.654	0.472
746.000	451.999	80.006	19.996	99.715	14.452	348.828	0.463
746.500	452.263	80.004	19.995	99.698	14.360	354.383	0.481
747.000	452.493	80.004	19.996	99.704	14.259	360.541	0.497
747.500	452.765	80.003	19.996	99.722	14.162	366.585	0.498
748.000	453.014	80.003	19.996	99.742	14.062	372.754	0.511
748.500	453.279	80.004	19.996	99.760	13.959	379.263	0.518
749.000	453.555	80.004	19.996	99.790	13.860	385.568	0.527
749.500	453.772	80.004	19.996	99.827	13.767	391.282	0.517
750.000	454.081	80.004	19.996	99.865	13.679	396.704	0.509
750.500	454.296	80.005	19.996	99.905	13.597	401.758	0.525
751.000	454.567	80.005	19.996	99.935	13.517	406.607	0.505
751.500	454.849	80.006	19.996	99.926	13.437	411.669	0.519
752.000	455.083	80.005	19.996	99.881	13.361	416.531	0.534
752.500	455.319	80.004	19.996	99.824	13.281	421.883	0.493
753.000	455.624	80.005	19.996	99.762	13.208	426.849	0.506
753.500	455.814	80.004	19.996	99.686	13.140	431.411	0.518
754.000	456.081	80.004	19.996	99.623	13.078	435.490	0.476
754.500	456.348	80.004	19.998	99.578	13.024	439.069	0.496
755.000	456.571	80.002	19.997	99.541	12.972	442.074	0.512
755.500	456.817	80.003	19.997	99.494	12.924	444.585	0.479
756.000	457.118	80.004	19.996	99.461	12.868	447.654	0.508
756.500	457.359	80.004	19.996	99.441	12.814	450.561	0.545
757.000	457.622	80.004	19.995	99.398	12.763	453.286	0.523
757.500	457.838	80.004	19.995	99.350	12.710	456.183	0.491
758.000	458.109	80.005	19.995	99.329	12.665	458.633	0.483
758.500	458.408	80.005	19.996	99.330	12.630	460.466	0.529
759.000	458.616	80.006	19.996	99.323	12.592	462.495	0.538
759.500	458.916	80.005	19.995	99.360	12.551	464.813	0.508
760.001	459.149	80.006	19.994	99.397	12.506	467.593	0.521
760.500	459.423	80.005	19.995	99.392	12.453	470.896	0.520
761.000	459.684	80.005	19.996	99.376	12.394	474.452	0.521
761.500	459.915	80.006	19.994	99.370	12.326	478.517	0.513
762.000	460.193	80.005	19.994	99.352	12.255	482.800	0.500
762.500	460.420	80.006	19.995	99.371	12.178	487.435	0.507
763.000	460.681	80.006	19.995	99.402	12.110	491.649	0.497
763.500	460.934	80.007	19.996	99.497	12.048	495.665	0.501
764.000	461.213	80.006	19.994	99.600	11.991	499.519	0.523
764.500	461.429	80.007	19.994	99.681	11.935	503.350	0.514
765.000	461.683	80.006	19.995	99.730	11.888	506.755	0.483
765.500	461.935	80.007	19.996	99.780	11.838	510.250	0.488
766.000	462.158	80.008	19.995	99.723	11.797	513.015	0.490
766.500	462.434	80.007	19.995	99.620	11.760	515.457	0.486
767.000	462.702	80.007	19.995	99.524	11.723	517.758	0.521
767.500	462.951	80.007	19.994	99.423	11.694	519.366	0.531
768.000	463.233	80.008	19.995	99.331	11.667	520.866	0.524
768.500	463.448	80.007	19.994	99.252	11.652	521.599	0.514
769.000	463.722	80.007	19.994	99.177	11.641	522.115	0.493
769.500	463.956	80.007	19.995	99.097	11.642	521.936	0.499
770.000	464.201	80.006	19.994	99.034	11.655	521.071	0.493
770.500	464.453	80.007	19.994	98.994	11.674	519.876	0.488
771.000	464.716	80.005	19.994	98.985	11.693	518.882	0.506
771.500	464.955	80.006	19.995	98.991	11.717	517.571	0.508
772.000	465.214	80.006	19.995	98.978	11.731	516.991	0.500
772.500	465.494	80.007	19.995	98.952	11.738	516.837	0.518
773.000	465.729	80.006	19.995	98.926	11.740	516.861	0.526
773.500	465.960	80.007	19.996	98.907	11.741	516.808	0.491
774.000	466.237	80.005	19.994	98.907	11.747	516.317	0.487
774.500	466.501	80.007	19.995	98.948	11.767	514.556	0.524
775.000	466.768	80.007	19.995	99.013	11.792	512.501	0.536
775.500	467.032	80.006	19.995	99.088	11.825	509.963	0.531
776.000	467.262	80.006	19.994	99.185	11.864	507.302	0.512
776.500	467.551	80.005	19.996	99.263	11.901	504.829	0.506
777.000	467.774	80.006	19.994	99.308	11.935	502.861	0.515
777.500	468.028	80.006	19.995	99.330	11.969	500.880	0.495
778.000	468.303	80.006	19.994	99.331	11.995	499.337	0.503
778.500	468.531	80.007	19.995	99.295	12.026	497.680	0.516
779.000	468.794	80.006	19.995	99.261	12.051	496.411	0.497
779.500	469.069	80.006	19.995	99.233	12.078	495.034	0.515
780.000	469.321	80.005	19.995	99.200	12.099	493.970	0.533
780.500	469.589	80.005	19.995	99.170	12.118	493.065	0.523
781.000	469.802	80.005	19.995	99.160	12.144	491.602	0.500
781.500	470.077	80.006	19.995	99.163	12.171	490.021	0.484
782.000	470.349	80.006	19.994	99.189	12.206	488.011	0.518
782.500	470.591	80.006	19.995	99.231	12.251	485.234	0.531
783.000	470.858	80.005	19.995	99.283	12.300	482.178	0.511
783.500	471.105	80.005	19.995	99.333	12.356	478.684	0.511
784.000	471.340	80.006	19.994	99.367	12.418	474.756	0.498
784.500	471.602	80.006	19.995	99.370	12.481	470.791	0.490
785.000	471.889	80.006	19.996	99.348	12.547	466.652	0.523
785.500	472.132	80.006	19.995	99.237	12.606	462.910	0.539
786.000	472.367	80.008	19.995	99.140	12.677	458.557	0.504
786.500	472.620	80.008	19.995	99.054	12.743	454.472	0.484
787.000	472.902	80.007	19.996	99.001	12.812	450.181	0.511
787.500	473.152	80.007	19.995	98.960	12.881	445.822	0.533
788.000	473.423	80.007	19.994	98.988	12.950	441.647	0.526
788.500	473.633	80.007	19.995	99.009	13.019	437.313	0.501
789.000	473.915	80.009	19.995	99.030	13.097	432.549	0.487
789.500	474.210	80.009	19.995	99.070	13.172	427.954	0.535
790.000	474.445	80.007	19.994	99.125	13.256	422.943	0.553
790.500	474.732	80.009	19.995	99.184	13.338	417.888	0.526
791.000	474.992	80.008	19.995	99.241	13.424	412.667	0.534
791.500	475.246	80.008	19.994	99.297	13.513	407.291	0.531
792.000	475.469	80.009	19.994	99.322	13.605	401.710	0.496
792.500	475.736	80.008	19.995	99.345	13.699	395.982	0.483
793.000	475.969	80.008	19.996	99.375	13.800	389.903	0.495
793.500	476.257	80.008	19.994	99.377	13.905	383.513	0.511
794.000	476.530	80.007	19.994	99.373	14.006	377.347	0.541
794.500	476.717	80.008	19.995	99.369	14.115	370.695	0.510
795.000	476.977	80.009	19.995	99.356	14.224	364.048	0.453
795.500	477.277	80.008	19.994	99.335	14.346	356.579	0.503
796.000	477.501	80.008	19.994	99.322	14.468	349.070	0.542
796.500	477.792	80.007	19.994	99.313	14.591	341.479	0.519
797.000	478.014	80.007	19.993	99.313	14.723	333.348	0.514
797.500	478.283	80.007	19.994	99.314	14.851	325.422	0.502
798.000	478.557	80.008	19.994	99.311	14.982	317.325	0.517
798.500	478.803	80.006	19.993	99.304	15.117	308.951	0.532
799.000	479.047	80.005	19.994	99.315	15.252	300.542	0.505
799.500	479.309	80.006	19.995	99.314	15.389	291.936	0.498
800.000	479.549	80.007	19.994	99.328	15.525	283.089	0.504
800.500	479.789	80.005	19.994	99.343	15.661	274.201	0.491
801.000	480.033	80.006	19.996	99.375	15.799	265.258	0.482
801.500	480.316	80.005	19.995	99.391	15.937	256.511	0.505
802.000	480.532	80.004	19.995	99.423	16.071	248.130	0.513
802.500	480.777	80.006	19.995	99.449	16.205	240.046	0.480
803.000	481.048	80.005	19.995	99.487	16.340	232.026	0.489
803.500	481.299	80.006	19.995	99.517	16.471	224.221	0.518
804.000	481.573	80.005	19.995	99.554	16.601	216.339	0.523
804.500	481.846	80.006	19.994	99.593	16.725	208.782	0.537
805.000	482.060	80.006	19.996	99.629	16.855	200.736	0.517
805.500	482.325	80.005	19.995	99.664	16.981	192.958	0.483
806.000	482.613	80.006	19.995	99.698	17.100	185.547	0.515
806.500	482.855	80.006	19.995	99.729	17.219	178.162	0.542
807.000	483.129	80.005	19.995	99.753	17.331	171.209	0.523
807.500	483.358	80.006	19.996	99.776	17.445	164.119	0.509
808.000	483.608	80.006	19.996	99.795	17.554	157.346	0.491
808.500	483.887	80.006	19.996	99.813	17.661	150.679	0.504
809.000	484.099	80.006	19.995	99.828	17.761	144.424	0.510
809.500	484.358	80.005	19.995	99.841	17.863	138.035	0.481
810.000	484.566	80.006	19.995	99.838	17.963	131.785	0.470
810.500	484.840	80.006	19.996	99.811	18.058	125.927	0.475
811.000	485.135	80.005	19.994	99.690	18.146	120.459	0.525
811.500	485.366	80.005	19.996	99.535	18.232	115.110	0.548
812.000	485.638	80.005	19.995	99.400	18.319	109.754	0.515
812.500	485.887	80.005	19.996	99.314	18.399	104.800	0.512
813.000	486.150	80.007	19.995	99.294	18.477	99.953	0.516
813.500	486.358	80.006	19.996	99.388	18.553	95.218	0.491
814.000	486.600	80.005	19.994	99.532	18.629	90.464	0.461
814.500	486.894	80.004	19.996	99.662	18.695	86.317	0.493
815.000	487.113	80.005	19.996	99.765	18.762	82.162	0.524
815.500	487.367	80.004	19.997	99.830	18.825	78.210	0.493
816.000	487.625	80.006	19.995	99.877	18.887	74.344	0.493
816.500	487.882	80.006	19.995	99.906	18.949	70.436	0.514
817.000	488.132	80.006	19.996	99.926	19.000	67.292	0.511
817.500	488.378	80.006	19.996	99.937	19.056	63.760	0.501
818.000	488.643	80.005	19.995	99.950	19.109	60.493	0.504
818.500	488.870	80.007	19.996	99.960	19.155	57.558	0.502
819.000	489.116	80.007	19.996	99.974	19.199	54.855	0.482
819.500	489.359	80.007	19.995	99.983	19.244	52.051	0.481
820.000	489.630	80.007	19.996	99.966	19.287	49.374	0.502
820.500	489.879	80.006	19.996	99.959	19.321	47.193	0.517
821.000	490.115	80.007	19.995	99.966	19.363	44.616	0.503
821.500	490.362	80.006	19.996	99.979	19.399	42.338	0.484
822.000	490.587	80.006	19.995	100.005	19.430	40.418	0.477
822.500	490.845	80.006	19.994	100.057	19.464	38.269	0.477
823.000	491.073	80.006	19.995	100.098	19.494	36.367	0.484
823.500	491.357	80.007	19.995	100.125	19.522	34.625	0.499
824.000	491.599	80.005	19.996	100.143	19.552	32.742	0.519
824.500	491.843	80.006	19.995	100.157	19.578	31.135	0.506
825.000	492.104	80.005	19.995	100.166	19.607	29.313	0.496
825.500	492.339	80.007	19.995	100.172	19.628	28.028	0.500
826.000	492.585	80.006	19.995	100.175	19.653	26.464	0.488
826.500	492.816	80.006	19.995	100.178	19.676	25.016	0.479
827.000	493.076	80.005	19.995	100.182	19.694	23.890	0.485
827.500	493.313	80.005	19.994	100.183	19.715	22.601	0.494
828.001	493.588	80.005	19.995	100.186	19.732	21.526	0.504
828.500	493.817	80.006	19.996	100.189	19.754	20.139	0.508
829.000	494.081	80.006	19.996	100.193	19.768	19.268	0.499
829.500	494.324	80.004	19.994	100.196	19.781	18.468	0.500
830.000	494.589	80.006	19.996	100.202	19.799	17.306	0.507
830.500	494.837	80.005	19.996	100.207	19.815	16.331	0.510
831.000	495.095	80.006	19.996	100.211	19.827	15.568	0.510
831.500	495.330	80.005	19.995	100.211	19.843	14.587	0.499
832.000	495.604	80.005	19.996	100.211	19.853	13.931	0.501
832.500	495.823	80.005	19.994	100.213	19.865	13.200	0.501
833.000	496.079	80.005	19.996	100.209	19.874	12.661	0.484
833.500	496.329	80.005	19.995	100.208	19.885	11.951	0.490
834.000	496.533	80.005	19.995	100.208	19.899	11.069	0.480
834.500	496.770	80.006	19.995	100.205	19.905	10.718	0.447
835.000	497.021	80.004	19.995	100.202	19.913	10.215	0.464
835.500	497.287	80.004	19.996	100.204	19.928	9.266	0.503
836.000	497.520	80.004	19.996	100.206	19.933	8.941	0.508
836.500	497.757	80.004	19.995	100.207	19.941	8.455	0.484
837.000	498.013	80.004	19.996	100.211	19.950	7.897	0.481
837.500	498.261	80.004	19.996	100.213	19.954	7.663	0.498
838.000	498.537	80.005	19.995	100.214	19.961	7.182	0.514
838.500	498.750	80.006	19.995	100.215	19.967	6.854	0.507
839.000	499.010	80.005	19.996	100.215	19.973	6.455	0.481
839.500	499.279	80.003	19.996	100.215	19.983	5.839	0.501
840.000	499.523	80.004	19.996	100.216	19.985	5.687	0.521
840.500	499.795	80.004	19.996	100.216	19.988	5.525	0.515
841.000	500.024	80.005	19.996	100.215	19.993	5.202	0.509
841.500	500.240	80.005	19.996	100.215	19.996	4.986	0.473
842.000	500.546	80.006	19.996	100.214	20.002	4.625	0.484
842.500	500.756	80.005	19.996	100.213	20.005	4.434	0.519
843.000	501.037	80.006	19.997	100.211	20.007	4.344	0.503
843.500	501.267	80.006	19.997	100.210	20.012	3.990	0.501
844.000	501.502	80.007	19.996	100.211	20.015	3.804	0.488
844.500	501.758	80.005	19.996	100.211	20.016	3.756	0.478
845.000	501.983	80.006	19.997	100.212	20.017	3.690	0.486
845.500	502.256	80.008	19.996	100.216	20.020	3.533	0.489
846.000	502.504	80.007	19.997	100.219	20.022	3.364	0.510
846.500	502.750	80.006	19.996	100.226	20.024	3.229	0.508
847.000	502.998	80.006	19.995	100.231	20.027	3.077	0.494
847.500	503.245	80.007	19.995	100.234	20.030	2.862	0.495
848.000	503.481	80.008	19.995	100.238	20.030	2.907	0.489
848.500	503.754	80.007	19.996	100.243	20.030	2.859	0.495
849.000	503.975	80.006	19.995	100.244	20.032	2.734	0.501
849.500	504.246	80.007	19.996	100.246	20.035	2.598	0.493
850.000	504.487	80.006	19.995	100.251	20.038	2.376	0.502
850.500	504.738	80.007	19.995	100.253	20.035	2.594	0.502
851.000	505.004	80.006	19.996	100.253	20.037	2.466	0.504
851.500	505.211	80.006	19.995	100.254	20.040	2.273	0.495
852.000	505.492	80.007	19.996	100.255	20.040	2.282	0.480
852.500	505.766	80.008	19.994	100.256	20.039	2.318	0.522
853.000	505.999	80.007	19.996	100.256	20.041	2.225	0.532
853.500	506.250	80.007	19.995	100.257	20.043	2.101	0.496
854.000	506.508	80.007	19.995	100.257	20.044	2.014	0.496
854.500	506.739	80.007	19.995	100.258	20.041	2.207	0.499
855.000	506.998	80.007	19.996	100.257	20.045	1.915	0.489
855.500	507.256	80.007	19.995	100.257	20.041	2.167	0.503
856.000	507.505	80.008	19.995	100.258	20.042	2.150	0.512
856.500	507.741	80.007	19.995	100.262	20.045	1.920	0.496
857.001	508.002	80.005	19.994	100.263	20.046	1.870	0.491
857.500	508.223	80.007	19.995	100.269	20.046	1.886	0.490
858.000	508.503	80.008	19.995	100.276	20.043	2.053	0.492
858.500	508.774	80.006	19.994	100.279	20.047	1.814	0.526
859.000	509.050	80.008	19.995	100.281	20.048	1.744	0.549
859.500	509.274	80.006	19.994	100.285	20.047	1.814	0.524
860.000	509.531	80.007	19.995	100.286	20.049	1.701	0.491
860.500	509.771	80.006	19.995	100.286	20.050	1.626	0.489
861.000	510.054	80.007	19.995	100.288	20.049	1.672	0.510
861.500	510.291	80.007	19.995	100.289	20.047	1.804	0.521
862.000	510.531	80.006	19.995	100.289	20.053	1.426	0.498
862.500	510.817	80.007	19.995	100.289	20.052	1.525	0.501
863.000	511.069	80.006	19.995	100.288	20.050	1.655	0.532
863.500	511.295	80.007	19.994	100.288	20.050	1.619	0.509
864.000	511.568	80.007	19.995	100.289	20.051	1.548	0.488
864.500	511.830	80.008	19.995	100.289	20.048	1.746	0.517
865.000	512.047	80.007	19.995	100.290	20.051	1.597	0.507
865.500	512.322	80.008	19.994	100.291	20.050	1.609	0.486
866.000	512.568	80.007	19.995	100.292	20.056	1.259	0.507
866.500	512.827	80.008	19.995	100.292	20.053	1.431	0.513
867.000	513.075	80.007	19.994	100.293	20.056	1.278	0.506
867.500	513.348	80.007	19.994	100.292	20.054	1.390	0.514
868.000	513.594	80.007	19.995	100.292	20.054	1.399	0.520
868.500	513.890	80.008	19.995	100.292	20.055	1.300	0.530
869.000	514.117	80.008	19.995	100.292	20.053	1.462	0.532
869.500	514.385	80.007	19.995	100.292	20.055	1.346	0.509
870.000	514.676	80.007	19.995	100.293	20.055	1.325	0.528
870.500	514.932	80.009	19.995	100.294	20.055	1.334	0.553
871.000	515.164	80.008	19.994	100.295	20.054	1.380	0.517
871.500	515.422	80.007	19.995	100.296	20.053	1.445	0.489
872.000	515.688	80.008	19.995	100.296	20.056	1.235	0.507
872.500	515.934	80.008	19.994	100.296	20.055	1.327	0.518
873.000	516.205	80.007	19.995	100.294	20.054	1.399	0.514
873.500	516.449	80.009	19.996	100.294	20.056	1.283	0.516
874.000	516.746	80.009	19.995	100.299	20.056	1.281	0.528
874.500	516.974	80.008	19.994	100.300	20.057	1.172	0.533
875.000	517.268	80.008	19.997	100.306	20.057	1.185	0.524
875.500	517.542	80.009	19.996	100.312	20.055	1.342	0.545
876.000	517.790	80.008	19.996	100.311	20.055	1.295	0.544
876.500	518.042	80.008	19.995	100.308	20.053	1.471	0.511
877.000	518.306	80.009	19.996	100.308	20.056	1.261	0.508
877.500	518.558	80.009	19.996	100.304	20.058	1.127	0.516
878.000	518.805	80.009	19.996	100.301	20.054	1.351	0.507
878.500	519.089	80.009	19.995	100.301	20.057	1.202	0.515
879.000	519.307	80.010	19.995	100.298	20.056	1.230	0.517
879.500	519.630	80.008	19.995	100.296	20.056	1.228	0.522
880.000	519.877	80.009	19.995	100.294	20.054	1.358	0.556
880.500	520.134	80.007	19.995	100.291	20.057	1.202	0.537
881.000	520.393	80.007	19.995	100.290	20.057	1.213	0.510
881.500	520.635	80.007	19.996	100.292	20.056	1.278	0.509
882.000	520.925	80.008	19.995	100.293	20.059	1.049	0.516
882.500	521.186	80.008	19.996	100.293	20.056	1.288	0.541
883.000	521.435	80.007	19.996	100.293	20.057	1.180	0.531
883.500	521.708	80.007	19.994	100.294	20.057	1.218	0.516
884.000	521.965	80.006	19.995	100.293	20.054	1.399	0.526
884.500	522.223	80.007	19.995	100.292	20.057	1.216	0.523
885.000	522.452	80.007	19.995	100.293	20.056	1.242	0.501
885.500	522.732	80.006	19.995	100.293	20.053	1.452	0.498
886.000	522.978	80.006	19.996	100.292	20.055	1.300	0.518
886.500	523.248	80.006	19.994	100.292	20.055	1.303	0.521
887.000	523.498	80.006	19.995	100.297	20.056	1.269	0.518
887.500	523.767	80.006	19.994	100.298	20.057	1.211	0.519
888.000	524.026	80.005	19.994	100.299	20.055	1.319	0.523
888.500	524.275	80.006	19.996	100.299	20.057	1.196	0.518
889.000	524.556	80.005	19.994	100.298	20.058	1.107	0.519
889.500	524.807	80.006	19.994	100.294	20.060	1.011	0.531
890.000	525.087	80.006	19.994	100.292	20.058	1.136	0.531
890.500	525.294	80.005	19.995	100.292	20.055	1.331	0.509
891.000	525.616	80.005	19.995	100.292	20.059	1.049	0.508
891.500	525.863	80.006	19.995	100.292	20.057	1.206	0.549
892.000	526.131	80.006	19.994	100.293	20.056	1.286	0.542
892.500	526.374	80.006	19.995	100.294	20.056	1.245	0.512
893.000	526.609	80.004	19.995	100.300	20.060	1.004	0.494
893.501	526.894	80.005	19.995	100.305	20.060	1.013	0.499
894.001	527.146	80.006	19.995	100.308	20.057	1.173	0.529
894.500	527.427	80.006	19.994	100.311	20.059	1.086	0.535
895.000	527.697	80.006	19.995	100.312	20.057	1.196	0.542
895.500	527.919	80.007	19.994	100.308	20.058	1.139	0.522
896.000	528.195	80.007	19.995	100.304	20.056	1.242	0.495
896.500	528.482	80.005	19.995	100.300	20.057	1.179	0.531
897.000	528.735	80.005	19.995	100.296	20.060	1.032	0.551
897.501	528.983	80.005	19.995	100.294	20.057	1.215	0.520
898.000	529.245	80.005	19.995	100.295	20.058	1.117	0.506
898.500	529.503	80.005	19.994	100.295	20.056	1.273	0.515
899.000	529.749	80.004	19.994	100.297	20.057	1.175	0.512
899.500	530.002	80.006	19.995	100.301	20.060	1.006	0.501
900.000	530.258	80.006	19.995	100.302	20.058	1.151	0.504
900.500	530.509	80.005	19.994	100.302	20.059	1.064	0.508
901.001	530.815	80.006	19.996	100.302	20.058	1.121	0.532
901.500	531.054	80.004	19.995	100.304	20.056	1.227	0.551
902.000	531.323	80.006	19.996	100.301	20.059	1.092	0.527
902.500	531.581	80.005	19.995	100.302	20.057	1.187	0.518
903.000	531.866	80.008	19.995	100.301	20.058	1.116	0.535
903.500	532.082	80.006	19.995	100.301	20.058	1.114	0.521
904.000	532.363	80.005	19.996	100.299	20.058	1.136	0.499
904.500	532.646	80.006	19.995	100.301	20.057	1.177	0.531
905.000	532.897	80.006	19.996	100.300	20.059	1.061	0.549
905.500	533.160	80.005	19.996	100.299	20.058	1.128	0.524
906.000	533.423	80.005	19.995	100.300	20.057	1.187	0.520
906.500	533.679	80.005	19.995	100.301	20.059	1.064	0.522
907.000	533.911	80.006	19.995	100.299	20.059	1.097	0.503
907.500	534.163	80.006	19.996	100.300	20.060	1.032	0.485
908.000	534.455	80.006	19.997	100.302	20.058	1.141	0.514
908.500	534.730	80.005	19.996	100.303	20.060	1.028	0.556
909.000	534.967	80.005	19.996	100.304	20.060	0.981	0.540
909.500	535.242	80.006	19.995	100.306	20.061	0.919	0.512
910.000	535.507	80.005	19.995	100.306	20.057	1.189	0.526
910.500	535.773	80.005	19.996	100.305	20.061	0.922	0.535
911.000	536.057	80.005	19.996	100.306	20.059	1.049	0.540
911.500	536.335	80.005	19.995	100.306	20.063	0.839	0.556
912.000	536.585	80.004	19.996	100.306	20.060	1.015	0.545
912.500	536.833	80.006	19.996	100.309	20.061	0.950	0.513
913.000	537.097	80.005	19.995	100.314	20.060	0.996	0.505
913.500	537.385	80.004	19.995	100.316	20.060	1.008	0.532
914.000	537.611	80.005	19.995	100.315	20.059	1.086	0.533
914.500	537.848	80.004	19.996	100.318	20.061	0.965	0.489
915.000	538.113	80.005	19.996	100.321	20.058	1.108	0.483
915.500	538.350	80.005	19.996	100.321	20.057	1.167	0.502
916.000	538.610	80.004	19.995	100.321	20.058	1.161	0.500
916.500	538.905	80.005	19.996	100.319	20.057	1.213	0.526
917.000	539.184	80.004	19.996	100.315	20.059	1.095	0.565
917.500	539.406	80.005	19.995	100.309	20.059	1.097	0.538
918.000	539.637	80.004	19.995	100.306	20.059	1.081	0.477
918.500	539.954	80.005	19.995	100.305	20.056	1.240	0.500
919.000	540.181	80.005	19.994	100.307	20.057	1.220	0.546
919.500	540.436	80.005	19.995	100.306	20.058	1.162	0.513
920.000	540.722	80.005	19.996	100.306	20.058	1.127	0.512
920.500	540.948	80.005	19.996	100.305	20.060	1.006	0.526
921.000	541.207	80.006	19.996	100.306	20.058	1.143	0.498
921.500	541.463	80.004	19.996	100.308	20.062	0.852	0.500
922.000	541.725	80.007	19.995	100.310	20.062	0.890	0.517
922.500	541.991	80.006	19.996	100.312	20.059	1.040	0.523
923.000	542.261	80.006	19.996	100.312	20.060	0.991	0.532
923.500	542.524	80.006	19.996	100.310	20.060	1.032	0.535
924.000	542.777	80.006	19.996	100.306	20.061	0.957	0.525
924.500	543.044	80.007	19.995	100.304	20.060	0.994	0.518
925.000	543.311	80.005	19.997	100.301	20.063	0.844	0.527
925.500	543.525	80.005	19.996	100.297	20.062	0.909	0.508
926.000	543.792	80.005	19.995	100.293	20.059	1.090	0.480
926.500	544.032	80.007	19.996	100.294	20.060	1.016	0.494
927.000	544.296	80.006	19.996	100.294	20.059	1.066	0.505
927.500	544.524	80.007	19.996	100.292	20.060	1.018	0.498
928.000	544.758	80.006	19.996	100.293	20.061	0.972	0.477
928.500	545.044	80.006	19.995	100.295	20.058	1.160	0.491
929.000	545.280	80.005	19.995	100.298	20.061	0.951	0.521
929.500	545.573	80.007	19.996	100.300	20.058	1.149	0.526
930.000	545.800	80.007	19.996	100.301	20.062	0.910	0.524
930.500	546.061	80.006	19.997	100.301	20.061	0.924	0.504
931.000	546.317	80.006	19.995	100.299	20.061	0.972	0.502
931.500	546.614	80.006	19.996	100.298	20.059	1.069	0.535
932.000	546.838	80.007	19.996	100.302	20.059	1.069	0.537
932.500	547.104	80.007	19.996	100.308	20.059	1.045	0.506
933.000	547.336	80.006	19.997	100.315	20.060	1.028	0.494
933.500	547.595	80.007	19.996	100.322	20.059	1.050	0.494
934.000	547.877	80.007	19.997	100.327	20.060	1.003	0.516
934.500	548.146	80.006	19.997	100.326	20.058	1.131	0.547
935.001	548.381	80.006	19.996	100.323	20.059	1.076	0.527
935.501	548.635	80.007	19.996	100.319	20.060	1.015	0.497
936.000	548.899	80.007	19.997	100.317	20.059	1.052	0.504
936.500	549.167	80.009	19.996	100.312	20.058	1.131	0.525
937.000	549.419	80.005	19.996	100.306	20.058	1.138	0.526
937.500	549.704	80.006	19.996	100.301	20.060	0.994	0.528
938.000	549.954	80.006	19.997	100.298	20.061	0.948	0.536
938.500	550.213	80.005	19.996	100.293	20.060	1.008	0.522
939.000	550.461	80.006	19.995	100.290	20.063	0.849	0.508
939.500	550.718	80.004	19.996	100.290	20.057	1.172	0.507
940.000	550.931	80.007	19.996	100.292	20.056	1.279	0.488
940.500	551.201	80.006	19.996	100.292	20.059	1.074	0.477
941.000	551.488	80.006	19.996	100.292	20.059	1.100	0.520
941.500	551.727	80.006	19.996	100.292	20.059	1.056	0.541
942.000	551.975	80.006	19.996	100.293	20.060	1.023	0.507
942.500	552.255	80.006	19.996	100.292	20.057	1.220	0.507
943.000	552.461	80.005	19.996	100.292	20.060	0.987	0.507
943.500	552.746	80.006	19.996	100.291	20.058	1.117	0.489
944.000	552.980	80.006	19.996	100.291	20.063	0.798	0.505
944.500	553.243	80.006	19.995	100.291	20.059	1.069	0.508
945.000	553.515	80.005	19.997	100.294	20.061	0.963	0.516
945.500	553.758	80.006	19.995	100.295	20.061	0.974	0.525
946.000	554.002	80.004	19.996	100.297	20.061	0.969	0.501
946.500	554.266	80.006	19.996	100.297	20.059	1.062	0.498
947.000	554.562	80.006	19.996	100.301	20.059	1.074	0.534
947.500	554.808	80.006	19.995	100.299	20.062	0.909	0.550
948.000	555.043	80.007	19.995	100.299	20.062	0.910	0.511
948.500	555.283	80.007	19.995	100.301	20.061	0.965	0.478
949.000	555.555	80.006	19.995	100.305	20.059	1.073	0.494
949.500	555.776	80.007	19.994	100.302	20.060	1.023	0.503
950.000	556.032	80.005	19.994	100.303	20.057	1.208	0.485
950.500	556.279	80.007	19.995	100.304	20.060	0.989	0.489
951.000	556.548	80.008	19.996	100.303	20.062	0.910	0.509
951.501	556.818	80.006	19.997	100.302	20.062	0.900	0.528
952.001	557.107	80.009	19.995	100.306	20.060	1.009	0.549
952.500	557.299	80.007	19.995	100.306	20.059	1.057	0.520
953.000	557.557	80.007	19.994	100.304	20.061	0.931	0.465
953.500	557.812	80.007	19.995	100.302	20.060	1.003	0.481
954.000	558.083	80.007	19.994	100.302	20.061	0.931	0.520
954.500	558.327	80.009	19.995	100.297	20.060	1.016	0.521
955.000	558.577	80.006	19.994	100.298	20.060	0.987	0.505
955.500	558.869	80.008	19.994	100.300	20.058	1.134	0.518
956.000	559.087	80.007	19.995	100.302	20.062	0.871	0.526
956.500	559.397	80.009	19.994	100.304	20.061	0.958	0.519
957.000	559.628	80.008	19.995	100.306	20.061	0.967	0.534
957.500	559.849	80.009	19.995	100.303	20.061	0.967	0.496
958.000	560.119	80.007	19.994	100.303	20.061	0.914	0.472
958.500	560.376	80.007	19.994	100.302	20.063	0.806	0.509
959.000	560.624	80.008	19.994	100.299	20.061	0.955	0.516
959.500	560.843	80.008	19.994	100.299	20.059	1.057	0.486
960.000	561.113	80.009	19.995	100.300	20.062	0.912	0.478
960.500	561.406	80.008	19.994	100.298	20.062	0.890	0.526
961.000	561.619	80.007	19.996	100.297	20.059	1.078	0.535
961.500	561.857	80.006	19.994	100.297	20.058	1.150	0.478
962.000	562.124	80.007	19.994	100.297	20.060	0.992	0.478
962.500	562.385	80.007	19.996	100.299	20.062	0.904	0.517
963.000	562.637	80.006	19.995	100.297	20.062	0.861	0.521
963.500	562.874	80.007	19.995	100.298	20.063	0.818	0.501
964.000	563.147	80.005	19.994	100.298	20.062	0.893	0.499
964.500	563.399	80.005	19.994	100.296	20.062	0.907	0.518
965.000	563.665	80.006	19.993	100.294	20.064	0.779	0.522
965.500	563.891	80.004	19.995	100.296	20.061	0.931	0.505
966.000	564.113	80.004	19.994	100.299	20.057	1.225	0.470
966.500	564.396	80.006	19.998	100.301	20.063	0.808	0.476
967.000	564.627	80.006	19.997	100.306	20.062	0.885	0.509
967.500	564.906	80.016	19.998	100.312	20.059	1.097	0.512
968.000	565.105	80.010	19.998	100.317	20.058	1.117	0.494
968.500	565.381	80.006	19.996	100.315	20.061	0.940	0.476
969.000	565.659	80.004	19.996	100.315	20.056	1.238	0.514
969.500	565.907	80.004	19.996	100.313	20.061	0.945	0.540
970.000	566.176	80.004	19.997	100.309	20.063	0.811	0.521
970.500	566.414	80.005	19.995	100.307	20.064	0.738	0.512
971.000	566.658	80.004	19.992	100.309	20.061	0.946	0.494
971.500	566.907	80.003	19.994	100.307	20.062	0.898	0.488
972.000	567.150	80.003	19.997	100.304	20.059	1.080	0.493
972.500	567.437	80.004	19.998	100.306	20.063	0.805	0.511
973.000	567.640	80.004	19.995	100.305	20.059	1.061	0.511
973.500	567.894	80.005	19.994	100.307	20.060	0.982	0.473
974.000	568.149	80.004	19.996	100.313	20.061	0.962	0.482
974.500	568.399	80.005	19.996	100.317	20.060	1.001	0.507
975.000	568.623	80.004	19.997	100.316	20.061	0.917	0.490
975.500	568.887	80.004	19.996	100.318	20.063	0.828	0.481
976.000	569.121	80.005	19.994	100.315	20.060	0.982	0.493
976.500	569.363	80.005	19.992	100.311	20.064	0.733	0.487
977.000	569.648	80.004	19.995	100.307	20.067	0.577	0.501
977.500	569.883	80.002	19.996	100.304	20.067	0.589	0.523
978.000	570.134	80.005	19.996	100.300	20.064	0.747	0.503
978.500	570.403	80.004	19.994	100.297	20.061	0.945	0.503
979.000	570.633	80.004	19.996	100.300	20.063	0.847	0.509
979.500	570.899	80.004	19.992	100.306	20.060	1.035	0.497
980.000	571.122	80.004	19.994	100.308	20.066	0.615	0.493
980.500	571.391	80.005	19.992	100.307	20.060	0.984	0.491
981.000	571.657	80.003	19.994	100.307	20.061	0.958	0.513
981.500	571.887	80.004	19.996	100.304	20.060	1.037	0.516
982.001	572.158	80.004	19.993	100.300	20.059	1.095	0.499
982.500	572.395	80.003	19.993	100.300	20.059	1.091	0.504
983.000	572.634	80.005	19.994	100.301	20.060	0.994	0.492
983.500	572.926	80.005	19.996	100.302	20.063	0.815	0.503
984.000	573.162	80.005	19.996	100.303	20.061	0.953	0.529
984.501	573.399	80.006	19.995	100.305	20.061	0.972	0.501
985.001	573.690	80.005	19.995	100.305	20.058	1.133	0.501
985.500	573.926	80.006	19.994	100.306	20.062	0.905	0.528
986.000	574.188	80.006	19.996	100.306	20.062	0.881	0.512
986.500	574.501	80.005	19.994	100.306	20.061	0.929	0.536
987.000	574.708	80.005	19.996	100.304	20.059	1.038	0.548
987.500	574.975	80.007	19.994	100.303	20.060	1.035	0.497
988.000	575.258	80.006	19.994	100.306	20.061	0.927	0.512
988.500	575.473	80.005	19.995	100.309	20.061	0.946	0.524
989.000	575.780	80.006	19.994	100.309	20.060	1.006	0.510
989.500	576.022	80.007	19.995	100.309	20.060	1.015	0.536
990.000	576.208	80.007	19.996	100.307	20.061	0.950	0.488
990.500	576.434	80.007	19.994	100.302	20.060	1.004	0.419
991.000	576.750	80.006	19.994	100.299	20.059	1.090	0.477
991.500	577.009	80.006	19.994	100.298	20.058	1.126	0.559
992.000	577.259	80.005	19.995	100.297	20.061	0.919	0.542
992.500	577.462	80.007	19.996	100.298	20.058	1.114	0.481
993.000	577.727	80.005	19.995	100.297	20.058	1.134	0.461
993.500	577.985	80.006	19.995	100.296	20.058	1.127	0.495
994.000	578.241	80.005	19.995	100.295	20.059	1.054	0.518
994.500	578.434	80.004	19.995	100.295	20.059	1.044	0.481
995.000	578.763	80.005	19.993	100.296	20.061	0.960	0.486
995.500	578.968	80.004	19.992	100.300	20.060	1.003	0.528
996.000	579.214	80.005	19.994	100.302	20.060	0.980	0.493
996.500	579.497	80.005	19.996	100.303	20.062	0.875	0.490
997.000	579.701	80.005	19.996	100.302	20.059	1.090	0.508
997.500	579.981	80.005	19.996	100.299	20.061	0.970	0.485
998.000	580.192	80.006	19.995	100.295	20.060	0.991	0.487
998.500	580.499	80.004	19.996	100.293	20.061	0.922	0.505
999.000	580.753	80.004	19.994	100.293	20.059	1.097	0.540
999.500	580.974	80.004	19.996	100.292	20.062	0.909	0.518
1000.000	581.223	80.002	19.994	100.295	20.060	1.028	0.472
1000.500	581.484	80.003	19.996	100.296	20.062	0.863	0.490
1001.000	581.772	80.003	19.995	100.299	20.062	0.905	0.529
1001.500	582.003	80.005	19.998	100.301	20.062	0.886	0.533
1002.000	582.238	80.004	19.994	100.306	20.061	0.975	0.492
1002.500	582.499	80.005	19.995	100.307	20.058	1.102	0.481
1003.000	582.775	80.004	19.995	100.307	20.060	1.006	0.517
1003.500	583.000	80.004	19.995	100.307	20.060	0.987	0.519
1004.000	583.228	80.006	19.997	100.308	20.061	0.916	0.477
1004.500	583.469	80.005	19.996	100.304	20.060	1.028	0.461
1005.000	583.732	80.005	19.995	100.301	20.061	0.919	0.487
1005.500	584.008	80.005	19.995	100.301	20.063	0.813	0.521
1006.000	584.224	80.006	19.998	100.300	20.062	0.858	0.515
1006.500	584.478	80.005	19.995	100.300	20.061	0.923	0.481
1007.000	584.757	80.006	19.996	100.301	20.062	0.851	0.502
1007.500	584.980	80.004	19.995	100.301	20.062	0.900	0.517
1008.000	585.234	80.006	19.996	100.300	20.060	0.987	0.489
1008.500	585.482	80.005	19.995	100.299	20.063	0.810	0.490
1009.000	585.739	80.004	19.996	100.298	20.061	0.951	0.503
1009.500	585.995	80.004	19.997	100.298	20.061	0.936	0.509
1010.000	586.255	80.005	19.995	100.302	20.061	0.963	0.514
1010.500	586.495	80.006	19.995	100.303	20.060	0.992	0.508
1011.000	586.730	80.006	19.996	100.304	20.062	0.897	0.488
1011.500	587.013	80.006	19.996	100.301	20.062	0.912	0.497
1012.000	587.281	80.007	19.997	100.301	20.063	0.837	0.535
1012.500	587.499	80.006	19.995	100.299	20.067	0.572	0.518
1013.000	587.755	80.005	19.996	100.299	20.060	1.008	0.480
1013.500	588.031	80.007	19.997	100.301	20.065	0.683	0.503
1014.000	588.248	80.007	19.997	100.308	20.062	0.897	0.512
1014.500	588.517	80.007	19.997	100.311	20.062	0.876	0.489
1015.000	588.782	80.006	19.995	100.311	20.063	0.825	0.510
1015.500	589.042	80.006	19.996	100.312	20.061	0.974	0.530
1016.000	589.305	80.007	19.994	100.312	20.062	0.883	0.524
1016.500	589.559	80.006	19.996	100.310	20.063	0.834	0.520
1017.000	589.775	80.006	19.995	100.311	20.064	0.764	0.493
1017.500	590.071	80.007	19.997	100.313	20.059	1.045	0.491
1018.000	590.301	80.006	19.997	100.312	20.062	0.904	0.519
1018.500	590.568	80.006	19.995	100.309	20.061	0.941	0.511
1019.000	590.844	80.006	19.994	100.307	20.064	0.746	0.520
1019.500	591.088	80.007	19.995	100.302	20.062	0.912	0.532
1020.000	591.335	80.007	19.994	100.299	20.062	0.902	0.505
1020.500	591.616	80.006	19.995	100.298	20.063	0.799	0.510
1021.000	591.845	80.006	19.995	100.298	20.062	0.859	0.519
1021.500	592.058	80.004	19.996	100.297	20.063	0.793	0.476
1022.000	592.320	80.006	19.992	100.300	20.060	0.981	0.459
1022.500	592.615	80.007	19.996	100.304	20.060	1.003	0.516
1023.000	592.819	80.007	19.996	100.305	20.064	0.738	0.528
1023.500	593.074	80.005	19.996	100.307	20.061	0.914	0.479
1024.001	593.376	80.004	19.995	100.312	20.062	0.893	0.508
1024.501	593.622	80.006	19.996	100.313	20.064	0.781	0.552
1025.001	593.849	80.005	19.994	100.312	20.062	0.898	0.510
1025.500	594.149	80.006	19.995	100.313	20.064	0.752	0.500
1026.000	594.378	80.006	19.997	100.311	20.063	0.798	0.528
1026.500	594.670	80.004	19.996	100.305	20.064	0.765	0.525
1027.001	594.943	80.004	19.995	100.301	20.065	0.702	0.543
1027.501	595.148	80.006	19.995	100.303	20.064	0.767	0.522
1028.000	595.440	80.004	19.996	100.302	20.064	0.784	0.487
1028.500	595.685	80.005	19.995	100.303	20.069	0.472	0.517
1029.000	595.965	80.005	19.997	100.304	20.063	0.834	0.531
1029.501	596.193	80.004	19.995	100.304	20.066	0.637	0.517
1030.001	596.425	80.004	19.995	100.302	20.064	0.788	0.484
1030.500	596.714	80.006	19.995	100.299	20.064	0.729	0.490
1031.000	596.930	80.006	19.997	100.298	20.060	0.986	0.513
1031.500	597.225	80.005	19.994	100.300	20.064	0.755	0.508
1032.000	597.440	80.005	19.995	100.301	20.060	0.989	0.510
1032.500	597.706	80.005	19.996	100.305	20.059	1.059	0.495
1033.000	598.002	80.007	20.000	100.311	20.061	0.940	0.521
1033.500	598.201	80.006	20.001	100.316	20.061	0.957	0.528
1034.001	598.507	80.005	19.998	100.319	20.060	0.993	0.500
1034.501	598.741	80.006	19.996	100.319	20.064	0.764	0.522
1035.001	598.993	80.005	19.997	100.315	20.062	0.871	0.513
1035.500	599.281	80.005	19.995	100.308	20.062	0.899	0.513
1036.001	599.518	80.005	19.996	100.303	20.063	0.818	0.533
1036.501	599.737	80.006	19.995	100.302	20.063	0.794	0.490
1037.001	600.016	80.007	19.996	100.303	20.063	0.832	0.477
1037.501	600.284	80.005	19.996	100.306	20.060	1.001	0.523
1038.000	600.504	80.007	19.995	100.311	20.063	0.829	0.518
1038.500	600.770	80.023	19.998	100.314	20.063	0.815	0.488
1039.001	601.042	80.025	19.998	100.317	20.062	0.876	0.512
1039.501	601.269	80.022	19.997	100.322	20.063	0.841	0.518
1040.000	601.530	80.013	19.996	100.323	20.060	1.005	0.493
1040.500	601.772	80.024	19.998	100.321	20.062	0.868	0.496
1041.001	602.048	80.023	19.997	100.320	20.060	0.998	0.510
1041.501	602.338	80.020	19.997	100.318	20.062	0.897	0.542
1042.000	602.571	80.016	19.997	100.317	20.064	0.784	0.544
1042.500	602.791	80.009	19.997	100.317	20.067	0.581	0.488
1043.000	603.081	80.007	19.995	100.316	20.063	0.849	0.482
1043.501	603.348	80.007	19.995	100.314	20.067	0.593	0.534
1044.001	603.602	80.007	19.993	100.312	20.069	0.451	0.539
1044.501	603.782	80.008	19.993	100.311	20.063	0.808	0.477
1045.001	604.064	80.008	19.995	100.310	20.068	0.509	0.448
1045.501	604.326	80.006	19.994	100.313	20.065	0.724	0.503
1046.001	604.574	80.007	19.996	100.312	20.063	0.801	0.527
1046.500	604.826	80.006	19.994	100.311	20.065	0.704	0.505
1047.000	605.094	80.007	19.994	100.312	20.067	0.581	0.510
1047.500	605.326	80.005	19.994	100.313	20.066	0.618	0.510
1048.001	605.576	80.005	19.993	100.314	20.064	0.752	0.491
1048.501	605.829	80.006	19.996	100.316	20.065	0.675	0.492
1049.000	606.074	80.004	19.996	100.318	20.066	0.651	0.501
1049.500	606.326	80.005	19.996	100.318	20.063	0.822	0.497
1050.000	606.520	80.005	19.996	100.320	20.062	0.859	0.471
1050.500	606.849	80.005	19.995	100.318	20.062	0.883	0.485
1051.000	607.063	80.004	19.997	100.322	20.062	0.890	0.533
1051.500	607.322	80.005	19.994	100.324	20.063	0.811	0.508
1052.000	607.542	80.005	19.996	100.325	20.065	0.714	0.476
1052.500	607.795	80.005	19.995	100.324	20.065	0.673	0.476
1053.001	608.064	80.005	19.995	100.321	20.066	0.606	0.498
1053.501	608.352	80.003	19.994	100.318	20.067	0.565	0.540
1054.001	608.573	80.005	19.992	100.316	20.064	0.759	0.533
1054.501	608.782	80.017	19.995	100.314	20.063	0.830	0.470
1055.000	609.040	80.023	19.997	100.316	20.067	0.555	0.449
1055.500	609.297	80.023	19.997	100.319	20.064	0.779	0.491
1056.000	609.569	80.017	19.996	100.320	20.066	0.625	0.522
1056.500	609.810	80.022	19.995	100.321	20.067	0.559	0.521
1057.000	610.082	80.014	19.994	100.322	20.069	0.454	0.513
1057.500	610.324	80.013	19.995	100.323	20.067	0.588	0.514
1058.000	610.548	80.005	19.997	100.321	20.066	0.648	0.490
1058.500	610.789	80.005	19.995	100.321	20.068	0.485	0.465
1059.000	611.049	80.005	19.995	100.323	20.067	0.583	0.483
1059.500	611.331	80.004	19.996	100.321	20.070	0.401	0.521
1060.000	611.519	80.005	19.995	100.315	20.066	0.622	0.506
1060.500	611.779	80.005	19.994	100.313	20.068	0.521	0.459
1061.000	612.039	80.006	19.995	100.312	20.067	0.571	0.484
1061.500	612.268	80.006	19.995	100.309	20.067	0.552	0.505
1062.000	612.467	80.003	19.993	100.311	20.069	0.434	0.458
1062.500	612.772	80.006	19.995	100.313	20.068	0.495	0.465
1063.000	612.974	80.006	19.995	100.314	20.066	0.603	0.506
1063.500	613.260	80.004	19.994	100.314	20.068	0.495	0.498
1064.000	613.492	80.005	19.996	100.314	20.069	0.463	0.503
1064.501	613.737	80.006	19.995	100.316	20.068	0.485	0.497
1065.001	614.023	80.005	19.995	100.319	20.067	0.591	0.504
1065.501	614.271	80.005	19.996	100.323	20.068	0.525	0.533
1066.001	614.542	80.005	19.995	100.325	20.068	0.533	0.527
1066.500	614.801	80.006	19.996	100.327	20.068	0.535	0.525
1067.000	615.022	80.006	19.994	100.325	20.067	0.571	0.505
1067.500	615.268	80.005	19.996	100.323	20.068	0.531	0.473
1068.000	615.523	80.006	19.996	100.323	20.065	0.665	0.484
1068.500	615.773	80.006	19.995	100.320	20.065	0.678	0.503
1069.000	616.018	80.007	19.997	100.322	20.066	0.641	0.499
1069.500	616.309	80.005	19.995	100.321	20.065	0.721	0.515
1070.000	616.523	80.006	19.995	100.323	20.067	0.540	0.521
1070.500	616.820	80.006	19.994	100.322	20.067	0.595	0.508
1071.000	617.058	80.006	19.996	100.326	20.066	0.622	0.523
1071.501	617.319	80.006	19.994	100.325	20.067	0.567	0.517
1072.001	617.583	80.005	19.995	100.326	20.065	0.723	0.512
1072.500	617.840	80.007	19.995	100.322	20.068	0.497	0.523
1073.000	618.061	80.005	19.995	100.319	20.065	0.675	0.500
1073.500	618.309	80.006	19.996	100.317	20.064	0.731	0.473
1074.000	618.552	80.006	19.993	100.318	20.066	0.610	0.480
1074.500	618.800	80.004	19.993	100.317	20.065	0.675	0.491
1075.000	619.088	80.007	19.993	100.318	20.066	0.644	0.513
1075.501	619.307	80.022	19.999	100.321	20.065	0.723	0.521
1076.001	619.576	80.024	19.999	100.323	20.065	0.673	0.498
1076.500	619.834	80.026	19.999	100.326	20.065	0.673	0.508
1077.001	620.084	80.024	20.000	100.330	20.067	0.555	0.518
1077.501	620.336	80.026	20.001	100.333	20.068	0.531	0.505
1078.000	620.590	80.024	19.996	100.334	20.065	0.670	0.504
1078.500	620.844	80.020	19.997	100.333	20.065	0.716	0.507
1079.000	621.099	80.010	19.995	100.328	20.067	0.554	0.509
1079.500	621.376	80.008	19.998	100.322	20.066	0.627	0.520
1080.000	621.592	80.004	19.995	100.321	20.064	0.745	0.513
1080.500	621.869	80.006	19.997	100.322	20.066	0.624	0.493
1081.001	622.121	80.005	19.994	100.322	20.065	0.719	0.511
1081.501	622.371	80.006	19.996	100.323	20.067	0.562	0.516
1082.000	622.649	80.005	19.993	100.327	20.063	0.793	0.515
1082.500	622.902	80.006	19.994	100.326	20.065	0.673	0.530
1083.000	623.142	80.005	19.996	100.325	20.065	0.670	0.512
1083.500	623.384	80.005	19.996	100.326	20.063	0.800	0.488
1084.001	623.674	80.006	19.993	100.327	20.065	0.677	0.507
1084.501	623.876	80.004	19.996	100.328	20.061	0.935	0.512
1085.000	624.169	80.004	19.994	100.328	20.064	0.769	0.493
1085.501	624.425	80.005	19.996	100.328	20.064	0.774	0.522
1086.001	624.708	80.006	19.995	100.329	20.062	0.851	0.545
1086.500	624.933	80.005	19.998	100.329	20.062	0.895	0.524
1087.000	625.179	80.006	19.994	100.331	20.065	0.704	0.489
1087.500	625.455	80.005	19.998	100.332	20.063	0.789	0.496
1088.000	625.690	80.007	19.997	100.333	20.062	0.856	0.516
1088.500	625.965	80.006	19.994	100.332	20.063	0.830	0.510
1089.000	626.193	80.004	19.995	100.332	20.062	0.856	0.506
1089.500	626.467	80.006	19.997	100.330	20.063	0.806	0.503
1090.000	626.738	80.005	19.993	100.331	20.062	0.885	0.524
1090.500	626.971	80.005	19.995	100.330	20.060	1.012	0.525
1091.000	627.242	80.005	19.997	100.331	20.059	1.042	0.504
1091.500	627.525	80.006	19.996	100.331	20.063	0.827	0.529
1092.000	627.731	80.007	19.996	100.331	20.062	0.864	0.522
1092.500	628.004	80.007	19.997	100.330	20.063	0.817	0.484
1093.000	628.253	80.006	19.996	100.331	20.062	0.897	0.501
1093.500	628.514	80.006	19.992	100.331	20.063	0.815	0.516
1094.000	628.812	80.007	19.994	100.330	20.061	0.953	0.534
1094.500	629.030	80.006	19.995	100.331	20.060	0.989	0.537
1095.000	629.293	80.006	19.994	100.330	20.059	1.073	0.499
1095.500	629.551	80.007	19.994	100.331	20.062	0.856	0.501
1096.000	629.760	80.007	19.995	100.330	20.059	1.068	0.493
1096.500	630.027	80.007	19.995	100.330	20.062	0.892	0.471
1097.000	630.325	80.006	19.993	100.325	20.062	0.904	0.521
1097.500	630.547	80.008	19.997	100.320	20.063	0.789	0.543
1098.000	630.806	80.007	19.996	100.319	20.062	0.866	0.501
1098.500	631.053	80.006	19.995	100.316	20.060	0.981	0.494
1099.000	631.329	80.007	19.996	100.317	20.062	0.866	0.514
1099.500	631.580	80.007	19.995	100.322	20.060	0.996	0.525
1100.000	631.848	80.007	19.997	100.327	20.060	0.991	0.523
1100.500	632.117	80.007	19.994	100.327	20.062	0.859	0.528
1101.000	632.379	80.005	19.996	100.330	20.060	0.977	0.534
1101.501	632.602	80.006	19.996	100.329	20.063	0.803	0.508
1102.001	632.851	80.004	19.995	100.327	20.063	0.817	0.478
1102.500	633.123	80.005	19.996	100.323	20.062	0.906	0.496
1103.000	633.400	80.006	19.995	100.322	20.061	0.924	0.535
1103.500	633.655	80.007	19.996	100.323	20.060	1.001	0.540
1104.000	633.932	80.005	19.995	100.324	20.061	0.924	0.532
1104.500	634.140	80.007	19.996	100.326	20.062	0.863	0.509
1105.000	634.415	80.006	19.997	100.329	20.061	0.959	0.484
1105.500	634.673	80.005	19.995	100.328	20.058	1.128	0.508
1106.000	634.918	80.006	19.996	100.328	20.059	1.070	0.518
1106.500	635.216	80.005	19.996	100.327	20.061	0.952	0.523
1107.000	635.489	80.006	19.996	100.326	20.062	0.882	0.557
1107.500	635.690	80.006	19.992	100.325	20.061	0.967	0.523
1108.000	635.995	80.006	19.997	100.327	20.062	0.890	0.490
1108.500	636.255	80.006	19.994	100.327	20.059	1.070	0.536
1109.000	636.514	80.006	19.995	100.327	20.062	0.871	0.542
1109.500	636.779	80.005	19.997	100.329	20.064	0.781	0.522
1110.001	636.998	80.005	19.993	100.332	20.060	1.013	0.504
1110.501	637.325	80.004	19.995	100.333	20.064	0.783	0.515
1111.000	637.523	80.006	19.994	100.334	20.062	0.856	0.536
1111.500	637.810	80.006	19.997	100.334	20.061	0.962	0.505
1112.000	638.056	80.006	19.995	100.335	20.061	0.957	0.509
1112.501	638.326	80.006	19.993	100.334	20.064	0.728	0.524
1113.001	638.561	80.006	19.997	100.334	20.063	0.829	0.511
1113.500	638.814	80.006	19.994	100.334	20.063	0.800	0.496
1114.000	639.085	80.007	19.995	100.334	20.063	0.820	0.506
1114.500	639.347	80.006	19.995	100.334	20.064	0.747	0.529
1115.000	639.589	80.006	19.994	100.334	20.064	0.733	0.519
1115.500	639.877	80.006	19.995	100.332	20.064	0.742	0.517
1116.000	640.138	80.008	19.994	100.330	20.061	0.960	0.540
1116.501	640.370	80.007	19.994	100.330	20.062	0.866	0.521
1117.001	640.666	80.007	19.994	100.330	20.067	0.588	0.510
1117.501	640.925	80.008	19.994	100.330	20.065	0.702	0.541
1118.001	641.168	80.008	19.994	100.331	20.065	0.670	0.528
1118.500	641.432	80.009	19.995	100.331	20.062	0.863	0.505
1119.000	641.677	80.008	19.994	100.331	20.060	0.979	0.508
1119.500	641.922	80.008	19.996	100.328	20.063	0.789	0.500
1120.001	642.169	80.007	19.996	100.328	20.065	0.692	0.491
1120.501	642.439	80.006	19.995	100.328	20.061	0.914	0.504
1121.000	642.706	80.008	19.996	100.328	20.059	1.046	0.526
1121.500	642.962	80.007	19.996	100.327	20.062	0.868	0.530
1122.000	643.199	80.007	19.995	100.328	20.059	1.046	0.508
1122.500	643.463	80.008	19.996	100.327	20.061	0.926	0.497
1123.000	643.717	80.007	19.996	100.327	20.060	1.027	0.509
1123.501	643.978	80.007	19.995	100.328	20.062	0.900	0.517
1124.001	644.221	80.007	19.994	100.328	20.063	0.805	0.509
1124.500	644.487	80.007	19.995	100.328	20.057	1.182	0.506
1125.001	644.758	80.007	19.995	100.327	20.059	1.063	0.523
1125.501	644.995	80.007	19.995	100.327	20.059	1.088	0.523
1126.000	645.281	80.007	19.997	100.326	20.061	0.914	0.515
1126.500	645.519	80.009	19.996	100.326	20.060	0.994	0.523
1127.000	645.753	80.006	19.995	100.327	20.063	0.839	0.498
1127.500	646.061	80.006	19.996	100.329	20.063	0.849	0.507
1128.000	646.308	80.006	19.996	100.329	20.063	0.847	0.549
1128.500	646.534	80.007	19.993	100.330	20.064	0.752	0.514
1129.000	646.805	80.007	19.994	100.330	20.062	0.875	0.485
1129.500	647.075	80.006	19.996	100.329	20.062	0.856	0.519
1130.001	647.333	80.006	19.997	100.328	20.066	0.636	0.535
1130.501	647.557	80.006	19.996	100.325	20.060	0.993	0.505
1131.001	647.834	80.005	19.998	100.325	20.063	0.842	0.491
1131.500	648.109	80.007	19.996	100.325	20.058	1.109	0.527
1132.000	648.365	80.005	19.997	100.325	20.063	0.791	0.542
1132.500	648.591	80.005	19.995	100.324	20.061	0.933	0.506
1133.000	648.831	80.004	19.995	100.325	20.063	0.825	0.474
1133.500	649.091	80.006	19.997	100.326	20.064	0.738	0.483
1134.000	649.341	80.006	19.997	100.327	20.066	0.625	0.504
1134.500	649.581	80.005	19.996	100.329	20.061	0.933	0.500
1135.001	649.847	80.007	19.998	100.331	20.061	0.950	0.498
1135.501	650.090	80.004	19.995	100.331	20.059	1.073	0.508
1136.000	650.350	80.005	19.996	100.331	20.063	0.837	0.506
1136.500	650.612	80.005	19.994	100.331	20.063	0.830	0.513
1137.000	650.894	80.005	19.997	100.330	20.065	0.673	0.533
1137.500	651.115	80.006	19.996	100.330	20.063	0.796	0.523
1138.000	651.383	80.006	19.997	100.330	20.059	1.100	0.496
1138.500	651.589	80.006	19.996	100.330	20.063	0.837	0.482
1139.000	651.885	80.006	19.996	100.329	20.064	0.747	0.488
1139.500	652.112	80.006	19.995	100.331	20.061	0.967	0.513
1140.001	652.361	80.006	19.996	100.331	20.062	0.897	0.500
1140.501	652.648	80.006	19.995	100.331	20.060	0.988	0.506
1141.000	652.871	80.006	19.995	100.332	20.066	0.661	0.522
1141.500	653.110	80.006	19.996	100.334	20.061	0.969	0.486
1142.000	653.374	80.006	19.996	100.333	20.063	0.820	0.483
1142.500	653.641	80.005	19.996	100.334	20.063	0.841	0.517
1143.000	653.887	80.006	19.996	100.334	20.062	0.866	0.522
1143.501	654.135	80.006	19.995	100.333	20.062	0.858	0.504
1144.001	654.395	80.005	19.996	100.330	20.060	0.979	0.501
1144.500	654.652	80.007	19.996	100.330	20.063	0.848	0.512
1145.000	654.938	80.007	19.995	100.331	20.059	1.054	0.530
1145.500	655.173	80.006	19.997	100.332	20.063	0.829	0.532
1146.000	655.432	80.007	19.995	100.335	20.061	0.955	0.507
1146.500	655.675	80.006	19.997	100.336	20.063	0.808	0.498
1147.000	655.943	80.007	19.995	100.335	20.062	0.895	0.507
1147.500	656.189	80.006	19.994	100.333	20.063	0.832	0.512
1148.000	656.463	80.006	19.995	100.332	20.062	0.853	0.517
1148.501	656.697	80.006	19.997	100.331	20.062	0.904	0.514
1149.001	656.971	80.006	19.993	100.331	20.061	0.962	0.508
1149.501	657.174	80.008	19.995	100.331	20.063	0.813	0.492
1150.000	657.421	80.007	19.995	100.333	20.062	0.906	0.464
1150.500	657.704	80.008	19.996	100.334	20.062	0.865	0.490
1151.000	657.974	80.007	19.995	100.333	20.062	0.865	0.541
1151.501	658.202	80.007	19.996	100.333	20.061	0.966	0.525
1152.001	658.466	80.007	19.994	100.333	20.059	1.046	0.495
1152.501	658.715	80.007	19.995	100.333	20.062	0.853	0.502
1153.000	658.973	80.007	19.995	100.333	20.061	0.959	0.510
1153.500	659.229	80.006	19.993	100.333	20.060	0.977	0.511
1154.000	659.479	80.007	19.995	100.334	20.060	1.022	0.511
1154.500	659.731	80.007	19.995	100.336	20.061	0.965	0.504
1155.000	659.999	80.006	19.996	100.333	20.060	1.010	0.511
1155.500	660.217	80.006	19.995	100.334	20.063	0.818	0.503
1156.000	660.488	80.006	19.995	100.333	20.061	0.962	0.488
1156.501	660.719	80.006	19.995	100.332	20.062	0.866	0.495
1157.001	660.959	80.005	19.997	100.332	20.060	1.036	0.486
1157.501	661.241	80.006	19.995	100.332	20.062	0.902	0.496
1158.001	661.501	80.005	19.993	100.333	20.057	1.191	0.532
1158.500	661.708	80.006	19.994	100.336	20.061	0.933	0.505
1159.000	661.995	80.004	19.995	100.339	20.059	1.047	0.480
1159.500	662.253	80.005	19.996	100.342	20.059	1.080	0.519
1160.000	662.501	80.006	19.996	100.343	20.060	0.994	0.525
1160.501	662.760	80.005	19.996	100.345	20.059	1.073	0.507
1161.001	662.991	80.005	19.996	100.345	20.059	1.068	0.499
1161.500	663.259	80.005	19.994	100.345	20.060	0.981	0.495
1162.000	663.502	80.004	19.995	100.346	20.061	0.921	0.505
1162.500	663.769	80.003	19.993	100.350	20.061	0.940	0.510
1163.000	664.037	80.006	19.996	100.349	20.058	1.118	0.522
1163.500	664.278	80.004	19.997	100.349	20.061	0.945	0.523
1164.000	664.517	80.006	19.997	100.348	20.059	1.065	0.495
1164.500	664.766	80.006	19.994	100.346	20.065	0.718	0.483
1165.000	665.022	80.004	19.995	100.341	20.061	0.957	0.496
1165.500	665.289	80.005	19.995	100.341	20.061	0.924	0.514
1166.000	665.508	80.005	19.997	100.338	20.059	1.077	0.505
1166.501	665.812	80.006	19.997	100.338	20.058	1.112	0.505
1167.001	666.048	80.006	19.995	100.339	20.060	1.034	0.532
1167.500	666.322	80.003	19.995	100.339	20.058	1.162	0.525
1168.000	666.570	80.006	19.996	100.338	20.063	0.803	0.516
1168.500	666.808	80.004	19.996	100.337	20.061	0.965	0.504
1169.000	667.058	80.003	19.993	100.336	20.060	0.981	0.487
1169.500	667.324	80.004	19.996	100.334	20.060	0.991	0.502
1170.000	667.608	80.004	19.996	100.334	20.059	1.049	0.533
1170.500	667.829	80.004	19.994	100.335	20.059	1.065	0.527
1171.000	668.074	80.005	19.995	100.335	20.057	1.167	0.486
1171.500	668.322	80.005	19.995	100.335	20.061	0.942	0.479
1172.000	668.589	80.004	19.994	100.336	20.060	0.998	0.504
1172.500	668.850	80.006	19.994	100.338	20.058	1.133	0.522
1173.000	669.104	80.005	19.994	100.339	20.061	0.974	0.521
1173.500	669.316	80.006	19.995	100.343	20.059	1.099	0.490
1174.001	669.600	80.007	19.995	100.348	20.057	1.189	0.481
1174.501	669.795	80.006	19.991	100.348	20.057	1.207	0.488
1175.001	670.105	80.006	19.994	100.346	20.059	1.049	0.492
1175.501	670.357	80.007	19.996	100.347	20.056	1.285	0.533
1176.000	670.571	80.006	19.992	100.343	20.059	1.042	0.514
1176.500	670.852	80.007	19.996	100.337	20.058	1.143	0.480
1177.001	671.107	80.006	19.992	100.336	20.056	1.266	0.515
1177.501	671.396	80.006	19.995	100.336	20.058	1.159	0.540
1178.000	671.623	80.007	19.994	100.335	20.056	1.254	0.530
1178.500	671.864	80.006	19.995	100.335	20.055	1.304	0.493
1179.000	672.126	80.008	19.994	100.335	20.057	1.218	0.486
1179.500	672.379	80.008	19.994	100.335	20.060	0.991	0.509
1180.000	672.651	80.007	19.995	100.338	20.058	1.133	0.520
1180.500	672.903	80.006	19.995	100.337	20.057	1.177	0.524
1181.000	673.127	80.007	19.996	100.336	20.060	0.993	0.500
1181.500	673.411	80.007	19.993	100.337	20.055	1.292	0.492
1182.000	673.659	80.008	19.993	100.338	20.059	1.063	0.520
1182.500	673.946	80.007	19.995	100.338	20.058	1.126	0.534
1183.000	674.188	80.007	19.994	100.342	20.055	1.336	0.532
1183.500	674.457	80.007	19.995	100.344	20.057	1.220	0.520
1184.000	674.714	80.007	19.996	100.349	20.057	1.207	0.518
1184.500	674.937	80.008	19.994	100.349	20.058	1.137	0.503
1185.000	675.177	80.007	19.994	100.350	20.057	1.210	0.471
1185.500	675.482	80.006	19.994	100.350	20.057	1.200	0.504
1186.000	675.742	80.006	19.996	100.355	20.060	1.032	0.555
1186.500	675.992	80.006	19.994	100.351	20.055	1.324	0.538
1187.000	676.227	80.006	19.994	100.351	20.059	1.085	0.497
1187.500	676.485	80.006	19.997	100.351	20.057	1.165	0.489
1188.000	676.745	80.005	19.994	100.351	20.055	1.314	0.506
1188.500	677.010	80.005	19.994	100.349	20.056	1.239	0.521
1189.000	677.245	80.006	19.995	100.351	20.055	1.347	0.512
1189.500	677.494	80.004	19.995	100.349	20.054	1.374	0.492
1190.000	677.767	80.005	19.995	100.348	20.055	1.318	0.503
1190.500	677.989	80.006	19.995	100.348	20.054	1.379	0.508
1191.000	678.265	80.006	19.996	100.348	20.055	1.326	0.496
1191.500	678.521	80.006	19.995	100.347	20.058	1.152	0.515
1192.000	678.747	80.006	19.996	100.349	20.058	1.148	0.507
1192.500	679.007	80.006	19.996	100.347	20.055	1.294	0.484
1193.000	679.226	80.005	19.996	100.348	20.058	1.121	0.482
1193.500	679.533	80.008	19.996	100.350	20.061	0.945	0.502
1194.000	679.791	80.006	19.996	100.355	20.058	1.106	0.546
1194.501	680.013	80.006	19.995	100.357	20.061	0.957	0.523
1195.001	680.299	80.006	19.996	100.358	20.058	1.119	0.494
1195.500	680.528	80.006	19.995	100.355	20.058	1.138	0.511
1196.000	680.753	80.005	19.995	100.351	20.055	1.290	0.484
1196.500	681.030	80.006	19.996	100.344	20.058	1.109	0.478
1197.000	681.262	80.007	19.996	100.339	20.057	1.171	0.505
1197.500	681.510	80.006	19.995	100.337	20.057	1.222	0.495
1198.000	681.767	80.007	19.996	100.338	20.054	1.386	0.493
1198.500	682.036	80.007	19.995	100.342	20.056	1.231	0.516
1199.000	682.257	80.008	19.997	100.348	20.055	1.349	0.508
1199.500	682.539	80.007	19.996	100.354	20.059	1.053	0.497
1200.000	682.770	80.007	19.995	100.355	20.057	1.171	0.508
1200.500	683.028	80.006	19.994	100.355	20.058	1.154	0.501
1201.000	683.260	80.008	19.996	100.354	20.056	1.231	0.489
1201.500	683.514	80.009	19.995	100.352	20.059	1.063	0.488
1202.001	683.765	80.008	19.995	100.352	20.056	1.253	0.496
1202.501	683.997	80.009	19.996	100.351	20.057	1.188	0.494
1203.000	684.303	80.009	19.997	100.354	20.058	1.147	0.510
1203.500	684.546	80.008	19.994	100.353	20.062	0.877	0.544
1204.000	684.758	80.008	19.993	100.355	20.054	1.378	0.502
1204.500	685.034	80.008	19.997	100.356	20.057	1.213	0.472
1205.000	685.310	80.008	19.994	100.353	20.056	1.253	0.520
1205.500	685.537	80.007	19.995	100.350	20.053	1.422	0.527
1206.000	685.821	80.008	19.994	100.352	20.054	1.384	0.507
1206.500	686.063	80.007	19.994	100.353	20.057	1.225	0.519
1207.001	686.310	80.009	19.995	100.353	20.056	1.285	0.507
1207.501	686.552	80.007	19.993	100.358	20.057	1.200	0.489
1208.001	686.825	80.008	19.996	100.361	20.059	1.068	0.502
1208.501	687.079	80.006	19.994	100.361	20.059	1.065	0.521
1209.000	687.333	80.007	19.994	100.361	20.058	1.143	0.517
1209.500	687.567	80.007	19.996	100.361	20.058	1.135	0.498
1210.000	687.831	80.007	19.995	100.361	20.060	1.010	0.493
1210.500	688.064	80.008	19.994	100.360	20.059	1.089	0.498
1211.000	688.323	80.008	19.995	100.360	20.059	1.058	0.495
1211.500	688.530	80.007	19.996	100.357	20.060	0.986	0.479
1212.000	688.789	80.006	19.995	100.356	20.058	1.107	0.466
1212.500	689.023	80.006	19.995	100.358	20.055	1.290	0.480
1213.000	689.321	80.007	19.995	100.359	20.060	1.027	0.512
1213.500	689.571	80.006	19.994	100.359	20.057	1.178	0.540
1214.000	689.811	80.006	19.997	100.359	20.057	1.198	0.519
1214.501	690.107	80.004	19.995	100.360	20.057	1.195	0.513
1215.001	690.303	80.005	19.994	100.359	20.059	1.044	0.514
1215.500	690.593	80.005	19.995	100.358	20.056	1.241	0.489
1216.000	690.854	80.005	19.998	100.353	20.057	1.193	0.518
1216.500	691.110	80.005	19.998	100.352	20.059	1.101	0.534
1217.000	691.318	80.005	19.997	100.348	20.055	1.290	0.491
1217.500	691.551	80.005	19.997	100.344	20.056	1.270	0.453
1218.000	691.821	80.006	19.997	100.346	20.058	1.164	0.472
1218.500	692.053	80.004	19.995	100.348	20.058	1.102	0.502
1219.000	692.295	80.004	19.995	100.345	20.060	1.008	0.488
1219.500	692.580	80.006	19.996	100.345	20.058	1.147	0.501
1220.000	692.800	80.004	19.995	100.344	20.054	1.359	0.516
1220.500	693.080	80.004	19.996	100.339	20.053	1.467	0.502
1221.000	693.344	80.005	19.996	100.340	20.053	1.429	0.522
1221.500	693.574	80.004	19.996	100.346	20.057	1.190	0.520
1222.001	693.859	80.006	19.996	100.351	20.056	1.227	0.505
1222.501	694.084	80.006	19.997	100.355	20.059	1.051	0.513
1223.000	694.342	80.005	19.997	100.357	20.057	1.172	0.497
1223.500	694.596	80.005	19.996	100.361	20.058	1.152	0.497
1224.000	694.840	80.004	19.996	100.362	20.058	1.125	0.505
1224.500	695.145	80.003	19.996	100.361	20.057	1.195	0.523
1225.001	695.391	80.006	19.996	100.361	20.057	1.222	0.550
1225.501	695.594	80.003	19.996	100.361	20.059	1.060	0.500
1226.000	695.858	80.004	19.995	100.361	20.060	1.000	0.458
1226.500	696.121	80.005	19.997	100.356	20.060	1.008	0.497
1227.000	696.377	80.004	19.996	100.358	20.054	1.385	0.523
1227.500	696.628	80.005	19.998	100.357	20.057	1.222	0.513
1228.000	696.824	80.005	19.995	100.358	20.053	1.449	0.477
1228.501	697.104	80.004	19.995	100.358	20.056	1.229	0.462
1229.001	697.381	80.005	19.995	100.362	20.057	1.207	0.516
1229.500	697.644	80.005	19.996	100.361	20.057	1.173	0.548
1230.000	697.847	80.004	19.995	100.363	20.052	1.499	0.503
1230.500	698.101	80.006	19.996	100.364	20.053	1.436	0.462
1231.000	698.390	80.007	19.997	100.364	20.051	1.595	0.500
1231.500	698.623	80.006	19.997	100.364	20.052	1.535	0.532
1232.000	698.854	80.006	19.994	100.363	20.053	1.429	0.493
1232.500	699.101	80.006	19.995	100.359	20.053	1.437	0.471
1233.000	699.359	80.007	19.995	100.358	20.050	1.612	0.491
1233.500	699.606	80.006	19.996	100.356	20.051	1.552	0.505
1234.000	699.884	80.007	19.995	100.353	20.054	1.393	0.515
1234.500	700.112	80.006	19.994	100.353	20.054	1.390	0.515
1235.000	700.351	80.006	19.995	100.356	20.056	1.227	0.487
1235.500	700.634	80.006	19.996	100.355	20.053	1.467	0.494
1236.001	700.881	80.008	19.994	100.356	20.056	1.270	0.526
1236.501	701.129	80.006	19.995	100.360	20.054	1.403	0.513
1237.001	701.364	80.005	19.994	100.362	20.051	1.597	0.489
1237.501	701.631	80.007	19.996	100.365	20.053	1.456	0.492
1238.000	701.890	80.006	19.994	100.367	20.054	1.407	0.514
1238.500	702.123	80.004	19.995	100.368	20.055	1.340	0.509
1239.000	702.374	80.005	19.995	100.369	20.053	1.431	0.488
1239.500	702.652	80.006	19.995	100.370	20.056	1.268	0.506
1240.000	702.895	80.006	19.994	100.369	20.053	1.431	0.525
1240.500	703.141	80.006	19.995	100.368	20.054	1.367	0.505
1241.000	703.372	80.006	19.994	100.366	20.055	1.342	0.483
1241.500	703.626	80.005	19.994	100.364	20.057	1.183	0.481
1242.000	703.848	80.005	19.994	100.361	20.052	1.499	0.481
1242.501	704.143	80.005	19.995	100.358	20.053	1.436	0.497
1243.001	704.383	80.005	19.996	100.359	20.053	1.415	0.526
1243.500	704.597	80.006	19.994	100.361	20.053	1.456	0.494
1244.000	704.851	80.005	19.994	100.363	20.055	1.297	0.461
1244.500	705.100	80.005	19.994	100.367	20.056	1.234	0.485
1245.000	705.292	80.003	19.995	100.370	20.051	1.588	0.473
1245.500	705.596	80.005	19.995	100.370	20.054	1.393	0.469
1246.000	705.832	80.006	19.995	100.371	20.058	1.162	0.518
1246.501	706.079	80.005	19.993	100.371	20.053	1.420	0.511
1247.001	706.332	80.006	19.996	100.371	20.054	1.367	0.491
1247.500	706.564	80.004	19.995	100.372	20.056	1.265	0.492
1248.000	706.806	80.005	19.995	100.373	20.054	1.410	0.479
1248.500	707.084	80.005	19.993	100.373	20.052	1.516	0.497
1249.000	707.359	80.005	19.993	100.373	20.054	1.383	0.537
1249.501	707.603	80.006	19.997	100.372	20.054	1.388	0.537
1250.001	707.856	80.006	19.995	100.372	20.056	1.239	0.508
1250.500	708.075	80.005	19.996	100.371	20.056	1.232	0.484
1251.000	708.341	80.006	19.995	100.371	20.056	1.231	0.478
1251.500	708.578	80.006	19.995	100.371	20.056	1.243	0.494
1252.000	708.853	80.006	19.995	100.371	20.055	1.347	0.508
1252.500	709.075	80.006	19.994	100.371	20.061	0.967	0.505
1253.000	709.374	80.007	19.995	100.373	20.056	1.268	0.509
1253.500	709.597	80.007	19.993	100.374	20.052	1.494	0.522
1254.001	709.849	80.005	19.992	100.373	20.056	1.243	0.499
1254.501	710.095	80.006	19.996	100.372	20.055	1.347	0.486
1255.000	710.373	80.007	19.992	100.372	20.053	1.468	0.511
1255.500	710.590	80.006	19.998	100.370	20.057	1.207	0.509
1256.000	710.873	80.008	19.997	100.368	20.056	1.244	0.497
1256.500	711.070	80.006	19.996	100.370	20.055	1.325	0.490
1257.000	711.355	80.006	19.997	100.370	20.054	1.357	0.481
1257.500	711.617	80.008	19.997	100.370	20.056	1.268	0.514
1258.000	711.887	80.006	19.994	100.370	20.057	1.212	0.539
1258.501	712.114	80.008	19.995	100.370	20.055	1.318	0.515
1259.001	712.376	80.009	19.994	100.369	20.056	1.289	0.493
1259.501	712.656	80.007	19.994	100.369	20.057	1.167	0.515
1260.001	712.891	80.008	19.994	100.368	20.054	1.400	0.528
1260.500	713.126	80.008	19.995	100.368	20.052	1.516	0.493
1261.000	713.384	80.008	19.994	100.368	20.058	1.149	0.482
1261.500	713.649	80.008	19.995	100.367	20.054	1.402	0.508
1262.000	713.886	80.007	19.995	100.367	20.054	1.367	0.512
1262.500	714.136	80.007	19.993	100.365	20.052	1.516	0.494
1263.000	714.404	80.009	19.995	100.366	20.054	1.376	0.502
1263.500	714.657	80.007	19.996	100.366	20.052	1.526	0.520
1264.000	714.948	80.010	19.996	100.366	20.051	1.574	0.533
1264.500	715.176	80.008	19.994	100.366	20.052	1.482	0.532
1265.000	715.447	80.009	19.997	100.367	20.052	1.501	0.509
1265.501	715.713	80.008	19.994	100.368	20.050	1.653	0.518
1266.001	715.954	80.009	19.994	100.368	20.053	1.458	0.522
1266.500	716.211	80.007	19.994	100.368	20.053	1.427	0.502
1267.000	716.438	80.007	19.995	100.368	20.053	1.425	0.491
1267.501	716.700	80.009	19.994	100.369	20.049	1.706	0.487
1268.001	716.961	80.007	19.995	100.368	20.051	1.559	0.506
1268.501	717.205	80.008	19.994	100.368	20.054	1.374	0.514
1269.001	717.485	80.009	19.996	100.368	20.054	1.386	0.514
1269.501	717.711	80.009	19.995	100.367	20.050	1.610	0.515
1270.001	717.984	80.007	19.994	100.367	20.052	1.506	0.502
1270.501	718.231	80.008	19.994	100.367	20.051	1.572	0.510
1271.000	718.513	80.008	19.994	100.366	20.051	1.576	0.525
1271.500	718.722	80.008	19.994	100.364	20.052	1.508	0.510
1272.000	719.008	80.009	19.995	100.363	20.052	1.538	0.493
1272.500	719.234	80.008	19.994	100.363	20.050	1.634	0.503
1273.000	719.485	80.008	19.994	100.364	20.052	1.492	0.495
1273.500	719.769	80.008	19.996	100.365	20.051	1.584	0.507
1274.000	720.011	80.008	19.995	100.367	20.049	1.685	0.531
1274.500	720.284	80.007	19.995	100.366	20.050	1.658	0.520
1275.000	720.523	80.009	19.995	100.364	20.052	1.504	0.514
1275.501	720.734	80.008	19.994	100.363	20.050	1.622	0.481
1276.001	720.998	80.008	19.994	100.362	20.053	1.467	0.463
1276.500	721.258	80.007	19.995	100.362	20.051	1.595	0.499
1277.000	721.520	80.007	19.995	100.363	20.054	1.388	0.523
1277.500	721.756	80.007	19.994	100.365	20.051	1.561	0.510
1278.000	721.971	80.008	19.995	100.361	20.053	1.461	0.474
1278.500	722.245	80.007	19.995	100.359	20.053	1.448	0.470
1279.000	722.467	80.008	19.996	100.359	20.053	1.431	0.493
1279.501	722.764	80.008	19.993	100.359	20.052	1.494	0.508
1280.001	723.014	80.007	19.995	100.359	20.051	1.590	0.533
1280.501	723.282	80.009	19.996	100.363	20.053	1.468	0.532
1281.001	723.494	80.007	19.995	100.365	20.052	1.484	0.498
1281.501	723.778	80.009	19.995	100.365	20.051	1.543	0.488
1282.000	724.010	80.007	19.996	100.365	20.055	1.337	0.506
1282.500	724.268	80.008	19.994	100.365	20.052	1.525	0.503
1283.000	724.513	80.008	19.995	100.365	20.053	1.477	0.497
1283.500	724.760	80.008	19.996	100.366	20.048	1.759	0.497
1284.000	725.038	80.007	19.995	100.367	20.050	1.629	0.508
1284.500	725.270	80.009	19.996	100.367	20.049	1.675	0.518
1285.001	725.546	80.009	19.996	100.367	20.048	1.738	0.509
1285.501	725.768	80.008	19.996	100.367	20.050	1.644	0.503
1286.000	726.047	80.008	19.995	100.367	20.051	1.602	0.499
1286.500	726.235	80.007	19.994	100.368	20.051	1.595	0.484
1287.000	726.561	80.009	19.995	100.368	20.049	1.701	0.491
1287.500	726.770	80.007	19.996	100.367	20.051	1.581	0.524
1288.000	727.043	80.008	19.995	100.366	20.052	1.497	0.509
1288.500	727.296	80.007	19.995	100.366	20.050	1.636	0.504
1289.000	727.581	80.009	19.996	100.365	20.049	1.699	0.532
1289.500	727.808	80.009	19.995	100.366	20.048	1.785	0.525
1290.000	728.043	80.009	19.997	100.367	20.047	1.834	0.487
1290.500	728.296	80.011	19.993	100.368	20.052	1.513	0.475
1291.000	728.577	80.007	19.997	100.369	20.047	1.810	0.511
1291.500	728.798	80.007	19.994	100.369	20.049	1.706	0.518
1292.000	729.063	80.008	19.995	100.369	20.048	1.735	0.494
1292.500	729.359	80.006	19.996	100.368	20.050	1.607	0.524
1293.000	729.593	80.007	19.995	100.369	20.051	1.573	0.546
1293.500	729.835	80.007	19.995	100.369	20.047	1.829	0.503
1294.001	730.096	80.007	19.996	100.369	20.049	1.698	0.489
1294.501	730.355	80.007	19.995	100.370	20.051	1.546	0.512
1295.000	730.566	80.008	19.996	100.370	20.051	1.547	0.495
1295.500	730.796	80.007	19.995	100.370	20.046	1.867	0.456
1296.000	731.117	80.006	19.995	100.370	20.049	1.706	0.496
1296.501	731.338	80.007	19.995	100.370	20.050	1.638	0.546
1297.001	731.604	80.006	19.997	100.369	20.049	1.675	0.514
1297.500	731.832	80.005	19.995	100.369	20.048	1.757	0.490
1298.000	732.116	80.006	19.995	100.368	20.051	1.600	0.503
1298.500	732.352	80.006	19.995	100.369	20.050	1.639	0.516
1299.000	732.611	80.005	19.997	100.369	20.051	1.578	0.508
1299.500	732.845	80.006	19.996	100.370	20.050	1.658	0.494
1300.000	733.105	80.007	19.995	100.371	20.048	1.732	0.494
1300.500	733.336	80.006	19.995	100.371	20.046	1.903	0.492
1301.000	733.612	80.006	19.994	100.371	20.049	1.696	0.499
1301.500	733.863	80.005	19.996	100.371	20.046	1.872	0.518
1302.000	734.093	80.006	19.996	100.371	20.051	1.573	0.504
1302.500	734.338	80.007	19.996	100.371	20.048	1.764	0.478
1303.000	734.619	80.006	19.993	100.374	20.047	1.798	0.500
1303.501	734.844	80.006	19.995	100.375	20.047	1.798	0.516
1304.001	735.091	80.005	19.995	100.377	20.052	1.485	0.489
1304.501	735.320	80.005	19.995	100.383	20.050	1.607	0.474
1305.001	735.593	80.007	19.995	100.386	20.051	1.595	0.488
1305.500	735.790	80.006	19.996	100.390	20.048	1.756	0.486
1306.000	736.089	80.006	19.995	100.392	20.052	1.518	0.484
1306.500	736.323	80.004	19.995	100.391	20.049	1.682	0.515
1307.000	736.560	80.006	19.996	100.385	20.052	1.533	0.502
1307.500	736.825	80.007	19.996	100.383	20.055	1.335	0.487
1308.000	737.095	80.005	19.995	100.377	20.045	1.916	0.519
1308.500	737.327	80.006	19.995	100.374	20.052	1.496	0.518
1309.000	737.581	80.005	19.996	100.373	20.049	1.668	0.494
1309.501	737.810	80.004	19.996	100.373	20.053	1.470	0.485
1310.001	738.035	80.005	19.995	100.372	20.047	1.841	0.468
1310.500	738.316	80.005	19.997	100.373	20.054	1.378	0.480
1311.000	738.576	80.005	19.996	100.373	20.055	1.296	0.524
1311.500	738.840	80.005	19.994	100.373	20.054	1.355	0.532
1312.000	739.087	80.006	19.995	100.373	20.052	1.538	0.517
1312.500	739.316	80.006	19.994	100.374	20.051	1.559	0.494
1313.000	739.539	80.005	19.995	100.373	20.050	1.608	0.464
1313.501	739.827	80.006	19.997	100.373	20.051	1.552	0.481
1314.001	740.060	80.006	19.997	100.372	20.056	1.249	0.516
1314.500	740.295	80.006	19.997	100.372	20.051	1.595	0.494
1315.000	740.536	80.005	19.996	100.372	20.055	1.299	0.472
1315.500	740.791	80.006	19.997	100.372	20.055	1.335	0.487
1316.000	741.061	80.005	19.995	100.373	20.053	1.455	0.510
1316.500	741.318	80.006	19.995	100.374	20.053	1.450	0.525
1317.000	741.590	80.007	19.996	100.375	20.053	1.475	0.528
1317.500	741.856	80.006	19.997	100.375	20.051	1.583	0.534
1318.000	742.095	80.005	19.996	100.376	20.054	1.376	0.521
1318.500	742.345	80.006	19.996	100.376	20.056	1.268	0.496
1319.000	742.584	80.006	19.996	100.375	20.050	1.631	0.489
1319.500	742.838	80.006	19.996	100.373	20.056	1.274	0.491
1320.000	743.133	80.005	19.999	100.373	20.052	1.496	0.522
1320.500	743.358	80.005	19.996	100.372	20.054	1.373	0.535
1321.000	743.614	80.005	19.997	100.371	20.051	1.549	0.501
