Sample ID:	C:\MCC\MCC Cal\Test\R13_Fiberglas_InsulationB_MCC_30K_min_220216_R3.txt
Sample Weight (mg):	4.39
Heating Rate (C/s):	0.5
Combustor Temp (C):	900
N2 Flow Rate (cc/min):	80
O2 Flow Rate (cc/min):	20
Calibration File:	C:\MCC\MCC Cal\Coeff1 JN10440_30_210304.txt.txt
T Correction Coefficients:	0	1.024463	0
Time Shift (s):	14
*
Time (s)	Temperature (C)	N2 flow rate (cc/min)	O2 flow rate (cc/min)	Flow Rate (cc/min)	Oxygen (%)	HRR (W/g)	Heating rate (C/s)
0.001	112.932	80.009	19.994	103.746	19.934	0.201	-0.024
0.501	112.955	80.009	19.992	103.746	19.937	0.008	0.016
1.000	112.958	80.009	19.993	103.745	19.936	0.092	0.036
1.499	112.943	80.010	19.993	103.745	19.935	0.181	0.007
2.000	112.951	80.009	19.994	103.745	19.938	-0.088	-0.009
2.501	112.920	80.011	19.992	103.745	19.935	0.147	-0.015
3.000	112.921	80.010	19.993	103.746	19.935	0.173	-0.027
3.500	112.899	80.010	19.992	103.746	19.937	0.022	-0.026
4.000	112.926	80.009	19.993	103.746	19.936	0.080	-0.008
4.500	112.914	80.010	19.991	103.746	19.941	-0.291	0.011
5.000	112.894	80.010	19.993	103.745	19.936	0.066	-0.008
5.499	112.916	80.009	19.993	103.745	19.939	-0.135	-0.016
5.999	112.912	80.010	19.993	103.745	19.939	-0.149	0.010
6.499	112.892	80.011	19.993	103.745	19.934	0.219	-0.003
7.000	112.871	80.009	19.993	103.744	19.933	0.313	-0.032
7.500	112.892	80.011	19.993	103.743	19.935	0.127	-0.020
8.000	112.882	80.009	19.993	103.742	19.937	0.012	0.006
8.500	112.886	80.010	19.993	103.741	19.935	0.199	0.003
8.999	112.864	80.010	19.992	103.741	19.935	0.181	-0.012
9.500	112.854	80.010	19.993	103.741	19.932	0.413	-0.025
10.001	112.860	80.010	19.993	103.741	19.931	0.429	-0.018
10.500	112.893	80.011	19.993	103.742	19.932	0.387	0.017
10.999	112.853	80.010	19.993	103.743	19.932	0.419	0.016
11.499	112.863	80.010	19.992	103.743	19.932	0.399	-0.019
11.999	112.882	80.011	19.994	103.747	19.931	0.467	-0.000
12.499	112.889	80.011	19.994	103.752	19.931	0.490	0.028
12.999	112.894	80.010	19.994	103.752	19.930	0.538	0.019
13.499	112.872	80.011	19.992	103.752	19.930	0.544	-0.002
14.000	112.882	80.012	19.993	103.751	19.929	0.590	-0.015
14.500	112.871	80.012	19.993	103.749	19.927	0.720	-0.007
14.999	112.826	80.010	19.994	103.747	19.928	0.678	-0.029
15.499	112.881	80.010	19.994	103.754	19.928	0.646	-0.023
15.999	112.860	80.010	19.993	103.761	19.931	0.493	0.022
16.500	112.869	80.011	19.993	103.769	19.930	0.563	0.011
17.000	112.876	80.011	19.994	103.766	19.929	0.629	0.002
17.500	112.872	80.011	19.993	103.742	19.927	0.732	0.009
18.000	112.877	80.011	19.993	103.726	19.930	0.557	0.002
18.500	112.889	80.009	19.992	103.721	19.927	0.760	0.009
19.000	112.898	80.012	19.993	103.721	19.927	0.776	0.018
19.500	112.895	80.012	19.993	103.733	19.924	0.992	0.013
20.001	112.878	80.010	19.994	103.780	19.925	0.918	-0.006
20.500	112.889	80.010	19.994	103.845	19.922	1.092	-0.012
20.999	112.909	80.009	19.993	103.873	19.922	1.128	0.012
21.500	112.892	80.011	19.995	103.888	19.921	1.186	0.017
22.000	112.881	80.010	19.994	103.899	19.920	1.261	-0.013
22.499	112.901	80.010	19.993	103.897	19.919	1.369	-0.010
23.000	112.908	80.009	19.994	103.865	19.920	1.309	0.018
23.500	112.917	80.010	19.993	103.865	19.917	1.519	0.022
24.000	112.955	80.010	19.994	103.873	19.915	1.667	0.032
24.501	112.958	80.010	19.994	103.883	19.917	1.479	0.043
25.000	112.999	80.011	19.994	103.898	19.916	1.601	0.042
25.500	113.025	80.011	19.993	103.913	19.914	1.697	0.056
26.000	113.058	80.010	19.993	103.922	19.910	1.998	0.063
26.499	113.074	80.011	19.993	103.930	19.907	2.248	0.054
27.000	113.124	80.011	19.993	103.937	19.907	2.232	0.058
27.500	113.120	80.011	19.993	103.944	19.904	2.459	0.056
27.999	113.215	80.011	19.994	103.948	19.905	2.389	0.068
28.499	113.204	80.010	19.993	103.953	19.910	2.034	0.087
28.999	113.259	80.009	19.993	103.959	19.905	2.397	0.064
29.499	113.289	80.010	19.994	103.965	19.904	2.467	0.065
29.999	113.396	80.010	19.994	103.967	19.905	2.415	0.112
30.499	113.441	80.011	19.992	103.971	19.901	2.677	0.144
31.000	113.494	80.010	19.993	103.975	19.900	2.733	0.124
31.500	113.515	80.011	19.992	103.975	19.898	2.892	0.086
31.999	113.629	80.010	19.993	103.972	19.899	2.804	0.105
32.500	113.687	80.011	19.993	103.971	19.896	3.044	0.153
33.000	113.726	80.012	19.992	103.969	19.897	2.968	0.134
33.500	113.773	80.010	19.993	103.968	19.895	3.150	0.092
34.000	113.872	80.010	19.993	103.969	19.895	3.104	0.116
34.499	113.919	80.011	19.992	103.975	19.896	3.074	0.146
34.999	113.979	80.010	19.991	103.977	19.893	3.284	0.126
35.500	114.089	80.012	19.994	103.980	19.895	3.126	0.138
35.999	114.175	80.010	19.994	103.984	19.893	3.260	0.183
36.499	114.227	80.013	19.993	103.985	19.895	3.114	0.167
37.000	114.293	80.011	19.992	103.983	19.896	3.064	0.128
37.501	114.386	80.012	19.991	103.984	19.894	3.198	0.138
38.001	114.527	80.013	19.993	103.983	19.892	3.350	0.197
38.501	114.564	80.013	19.993	103.980	19.892	3.342	0.206
39.001	114.710	80.012	19.994	103.979	19.894	3.228	0.181
39.501	114.779	80.012	19.993	103.980	19.894	3.189	0.199
40.001	114.873	80.011	19.992	103.979	19.896	3.043	0.189
40.500	114.975	80.013	19.993	103.978	19.892	3.307	0.179
41.000	115.084	80.013	19.994	103.978	19.890	3.470	0.204
41.501	115.177	80.011	19.993	103.978	19.892	3.318	0.207
42.000	115.265	80.012	19.993	103.978	19.893	3.292	0.191
42.499	115.392	80.012	19.992	103.977	19.893	3.272	0.198
42.999	115.488	80.012	19.992	103.978	19.892	3.340	0.219
43.499	115.587	80.012	19.992	103.978	19.891	3.406	0.209
44.000	115.669	80.012	19.993	103.979	19.892	3.306	0.188
44.501	115.757	80.013	19.993	103.979	19.891	3.424	0.176
45.000	115.904	80.011	19.993	103.979	19.891	3.450	0.202
45.500	115.979	80.012	19.993	103.980	19.892	3.328	0.228
46.001	116.119	80.010	19.992	103.981	19.893	3.266	0.218
46.500	116.222	80.013	19.992	103.981	19.891	3.392	0.229
46.999	116.339	80.011	19.992	103.981	19.892	3.362	0.232
47.500	116.454	80.011	19.992	103.981	19.891	3.420	0.226
48.001	116.562	80.011	19.992	103.981	19.894	3.223	0.227
48.500	116.692	80.010	19.993	103.982	19.890	3.488	0.230
48.999	116.848	80.012	19.993	103.988	19.893	3.280	0.262
49.500	116.933	80.010	19.993	103.991	19.892	3.364	0.264
50.001	117.046	80.012	19.993	103.998	19.891	3.402	0.220
50.500	117.214	80.009	19.993	104.005	19.895	3.107	0.240
50.999	117.332	80.011	19.993	104.011	19.895	3.151	0.283
51.499	117.471	80.009	19.994	104.012	19.894	3.181	0.271
51.999	117.599	80.010	19.994	104.015	19.892	3.364	0.262
52.500	117.706	80.010	19.993	104.010	19.892	3.317	0.251
53.000	117.838	80.010	19.994	104.008	19.894	3.175	0.237
53.499	117.997	80.011	19.993	104.005	19.894	3.231	0.265
53.999	118.123	80.010	19.994	104.005	19.892	3.355	0.288
54.499	118.237	80.011	19.994	104.006	19.891	3.434	0.262
54.999	118.433	80.011	19.993	104.010	19.891	3.426	0.275
55.499	118.584	80.011	19.993	104.008	19.892	3.324	0.329
55.999	118.710	80.010	19.993	104.005	19.888	3.632	0.312
56.499	118.862	80.011	19.994	104.003	19.891	3.440	0.277
56.999	118.993	80.010	19.993	104.003	19.889	3.540	0.281
57.500	119.108	80.011	19.992	104.003	19.890	3.526	0.264
58.000	119.287	80.010	19.994	104.007	19.892	3.345	0.270
58.500	119.463	80.011	19.992	104.012	19.887	3.710	0.325
59.000	119.611	80.012	19.995	104.012	19.891	3.438	0.340
59.500	119.784	80.012	19.993	104.011	19.888	3.670	0.323
59.999	119.924	80.012	19.993	104.008	19.888	3.616	0.317
60.499	120.039	80.012	19.993	104.007	19.888	3.652	0.284
61.000	120.227	80.012	19.994	104.008	19.887	3.714	0.279
61.500	120.397	80.011	19.993	104.011	19.890	3.472	0.331
62.000	120.552	80.012	19.992	104.012	19.891	3.395	0.341
62.500	120.705	80.012	19.993	104.011	19.887	3.734	0.316
63.001	120.865	80.012	19.993	104.014	19.888	3.640	0.311
63.501	121.053	80.011	19.993	104.013	19.890	3.516	0.331
64.001	121.197	80.012	19.993	104.013	19.888	3.624	0.340
64.501	121.369	80.012	19.993	104.013	19.887	3.682	0.324
64.999	121.546	80.012	19.993	104.015	19.890	3.522	0.333
65.500	121.725	80.011	19.993	104.011	19.889	3.580	0.353
66.001	121.876	80.012	19.993	104.009	19.890	3.526	0.343
66.500	122.089	80.013	19.993	104.009	19.889	3.600	0.347
67.000	122.255	80.012	19.992	104.009	19.890	3.508	0.371
67.500	122.421	80.012	19.991	104.009	19.888	3.606	0.355
67.999	122.589	80.011	19.993	104.015	19.887	3.714	0.333
68.499	122.766	80.013	19.992	104.017	19.886	3.770	0.340
68.999	122.928	80.012	19.992	104.017	19.888	3.606	0.342
69.499	123.101	80.012	19.992	104.017	19.885	3.866	0.337
69.999	123.278	80.011	19.992	104.017	19.886	3.760	0.342
70.499	123.460	80.011	19.993	104.017	19.885	3.832	0.355
70.999	123.641	80.011	19.992	104.016	19.887	3.730	0.361
71.499	123.835	80.011	19.993	104.017	19.886	3.822	0.369
71.999	124.000	80.012	19.993	104.018	19.887	3.689	0.367
72.500	124.153	80.012	19.992	104.019	19.884	3.950	0.338
73.001	124.354	80.011	19.992	104.018	19.884	3.944	0.336
73.501	124.509	80.010	19.993	104.017	19.886	3.752	0.355
74.000	124.709	80.010	19.993	104.017	19.887	3.686	0.355
74.500	124.913	80.011	19.994	104.015	19.885	3.880	0.380
75.000	125.078	80.008	19.994	104.010	19.884	3.948	0.386
75.499	125.302	80.009	19.993	104.005	19.887	3.698	0.378
76.001	125.509	80.011	19.994	104.000	19.886	3.770	0.410
76.500	125.681	80.010	19.995	103.999	19.883	4.032	0.405
77.000	125.849	80.010	19.994	103.999	19.885	3.868	0.360
77.501	126.064	80.010	19.994	104.004	19.884	3.950	0.361
78.001	126.238	80.009	19.994	104.010	19.883	4.026	0.385
78.500	126.461	80.008	19.994	104.015	19.881	4.126	0.393
78.999	126.637	80.009	19.994	104.017	19.880	4.257	0.398
79.500	126.847	80.009	19.993	104.018	19.883	4.036	0.393
80.001	127.029	80.010	19.994	104.019	19.882	4.076	0.389
80.500	127.227	80.010	19.994	104.018	19.884	3.964	0.386
81.000	127.431	80.010	19.994	104.018	19.881	4.148	0.391
81.500	127.639	80.010	19.994	104.023	19.883	4.024	0.406
81.999	127.854	80.009	19.995	104.026	19.881	4.126	0.417
82.500	128.006	80.009	19.994	104.029	19.881	4.162	0.395
83.001	128.226	80.009	19.994	104.033	19.885	3.853	0.370
83.501	128.471	80.010	19.994	104.035	19.883	4.000	0.419
84.001	128.686	80.009	19.994	104.032	19.884	3.948	0.462
84.501	128.877	80.009	19.994	104.029	19.881	4.138	0.432
85.000	129.113	80.009	19.994	104.027	19.883	3.978	0.417
85.500	129.281	80.009	19.994	104.024	19.884	3.918	0.416
86.001	129.483	80.009	19.995	104.022	19.882	4.082	0.387
86.500	129.717	80.009	19.994	104.021	19.882	4.116	0.403
86.999	129.918	80.010	19.994	104.021	19.885	3.868	0.436
87.499	130.136	80.009	19.994	104.023	19.880	4.220	0.427
88.000	130.335	80.008	19.994	104.023	19.884	3.936	0.418
88.501	130.593	80.010	19.995	104.026	19.879	4.321	0.437
89.000	130.788	80.009	19.995	104.028	19.884	3.924	0.455
89.500	130.993	80.010	19.995	104.026	19.883	4.019	0.426
90.000	131.209	80.010	19.995	104.024	19.880	4.205	0.411
90.500	131.412	80.010	19.994	104.024	19.884	3.926	0.420
91.001	131.651	80.010	19.994	104.021	19.883	4.032	0.430
91.501	131.859	80.010	19.994	104.024	19.885	3.884	0.444
92.000	132.068	80.010	19.994	104.029	19.883	3.996	0.432
92.499	132.306	80.009	19.994	104.034	19.883	4.036	0.432
93.000	132.519	80.009	19.994	104.038	19.882	4.080	0.449
93.501	132.768	80.009	19.994	104.041	19.883	3.978	0.457
94.001	132.976	80.010	19.995	104.041	19.883	3.978	0.460
94.501	133.190	80.009	19.994	104.036	19.884	3.946	0.439
95.001	133.403	80.009	19.993	104.030	19.886	3.800	0.424
95.501	133.636	80.008	19.994	104.029	19.884	3.942	0.437
96.001	133.839	80.010	19.995	104.033	19.884	3.950	0.441
96.501	134.081	80.010	19.995	104.034	19.882	4.073	0.440
97.000	134.311	80.010	19.995	104.035	19.885	3.880	0.459
97.500	134.516	80.010	19.994	104.036	19.885	3.854	0.454
98.001	134.767	80.011	19.995	104.032	19.885	3.876	0.446
98.501	134.973	80.011	19.994	104.024	19.884	3.904	0.456
99.001	135.214	80.010	19.995	104.019	19.883	4.042	0.452
99.501	135.436	80.011	19.993	104.018	19.885	3.864	0.455
100.001	135.689	80.012	19.993	104.016	19.886	3.770	0.469
100.501	135.898	80.012	19.993	104.016	19.883	3.992	0.468
101.000	136.159	80.011	19.993	104.017	19.883	4.032	0.466
101.499	136.394	80.010	19.994	104.017	19.883	3.992	0.484
102.000	136.611	80.012	19.993	104.019	19.881	4.169	0.474
102.501	136.868	80.010	19.994	104.022	19.884	3.926	0.462
103.001	137.085	80.012	19.993	104.023	19.882	4.074	0.474
103.500	137.313	80.010	19.993	104.022	19.880	4.264	0.460
104.000	137.572	80.010	19.993	104.022	19.883	3.974	0.466
104.501	137.805	80.009	19.993	104.020	19.882	4.110	0.489
105.000	138.063	80.009	19.993	104.017	19.882	4.070	0.492
105.499	138.283	80.010	19.993	104.017	19.884	3.954	0.485
106.000	138.507	80.010	19.993	104.017	19.882	4.086	0.461
106.500	138.778	80.009	19.993	104.016	19.881	4.134	0.469
106.999	138.993	80.010	19.992	104.016	19.884	3.960	0.491
107.500	139.270	80.009	19.993	104.017	19.885	3.840	0.489
108.000	139.491	80.010	19.993	104.017	19.883	3.998	0.495
108.499	139.749	80.010	19.993	104.019	19.882	4.112	0.489
109.000	139.966	80.010	19.993	104.022	19.885	3.856	0.477
109.501	140.230	80.009	19.992	104.022	19.885	3.874	0.478
110.001	140.489	80.010	19.993	104.023	19.882	4.119	0.502
110.501	140.727	80.008	19.993	104.023	19.885	3.830	0.510
110.999	140.952	80.011	19.993	104.022	19.883	3.992	0.480
111.500	141.212	80.009	19.993	104.020	19.884	3.972	0.474
112.001	141.432	80.010	19.993	104.020	19.885	3.868	0.482
112.501	141.699	80.009	19.995	104.020	19.885	3.890	0.483
113.001	141.927	80.008	19.994	104.021	19.888	3.666	0.491
113.501	142.197	80.010	19.993	104.026	19.883	4.004	0.497
114.000	142.426	80.010	19.993	104.030	19.885	3.850	0.499
114.501	142.668	80.010	19.993	104.030	19.885	3.830	0.485
115.001	142.918	80.010	19.995	104.030	19.883	3.978	0.481
115.501	143.197	80.010	19.993	104.030	19.879	4.271	0.511
116.001	143.411	80.010	19.993	104.025	19.882	4.099	0.511
116.501	143.691	80.009	19.993	104.022	19.883	4.028	0.493
117.000	143.909	80.010	19.994	104.022	19.884	3.920	0.496
117.499	144.159	80.009	19.993	104.022	19.881	4.169	0.483
117.999	144.404	80.009	19.993	104.021	19.879	4.325	0.482
118.500	144.663	80.011	19.993	104.020	19.884	3.912	0.500
119.001	144.920	80.012	19.994	104.019	19.883	4.004	0.510
119.501	145.193	80.011	19.993	104.020	19.885	3.856	0.523
120.001	145.388	80.012	19.993	104.019	19.887	3.736	0.499
120.501	145.667	80.010	19.994	104.019	19.886	3.778	0.471
121.000	145.926	80.012	19.993	104.019	19.886	3.772	0.506
121.499	146.226	80.010	19.992	104.019	19.883	4.031	0.548
122.000	146.414	80.010	19.993	104.018	19.882	4.069	0.524
122.499	146.696	80.011	19.993	104.019	19.883	4.004	0.479
123.000	146.925	80.011	19.994	104.019	19.884	3.926	0.491
123.501	147.177	80.010	19.994	104.019	19.886	3.782	0.496
123.999	147.426	80.009	19.993	104.019	19.886	3.786	0.491
124.500	147.686	80.011	19.993	104.019	19.881	4.141	0.505
125.000	147.918	80.013	19.993	104.018	19.886	3.764	0.501
125.500	148.222	80.010	19.994	104.017	19.885	3.864	0.514
126.000	148.488	80.012	19.993	104.016	19.882	4.055	0.552
126.499	148.696	80.011	19.994	104.017	19.888	3.652	0.522
127.000	149.009	80.011	19.993	104.017	19.886	3.760	0.498
127.501	149.196	80.012	19.993	104.018	19.886	3.823	0.511
128.000	149.511	80.011	19.994	104.018	19.885	3.843	0.501
128.500	149.791	80.011	19.994	104.017	19.885	3.871	0.549
128.999	150.008	80.012	19.992	104.016	19.886	3.805	0.547
129.500	150.232	80.011	19.994	104.016	19.883	4.025	0.469
130.001	150.505	80.011	19.993	104.015	19.886	3.815	0.468
130.501	150.740	80.011	19.993	104.013	19.886	3.753	0.502
131.000	151.013	80.011	19.991	104.013	19.886	3.779	0.508
131.500	151.238	80.011	19.994	104.014	19.887	3.677	0.504
132.001	151.528	80.011	19.993	104.014	19.888	3.652	0.507
132.500	151.750	80.011	19.992	104.016	19.885	3.831	0.513
133.000	152.016	80.011	19.993	104.018	19.890	3.460	0.500
133.500	152.272	80.011	19.993	104.018	19.887	3.745	0.505
134.000	152.530	80.010	19.994	104.018	19.887	3.697	0.518
134.500	152.815	80.011	19.993	104.018	19.887	3.731	0.528
134.999	153.025	80.011	19.992	104.017	19.892	3.368	0.519
135.500	153.305	80.010	19.992	104.014	19.889	3.595	0.493
136.001	153.566	80.010	19.993	104.010	19.888	3.637	0.515
136.501	153.830	80.010	19.993	104.010	19.890	3.505	0.533
137.001	154.111	80.012	19.993	104.008	19.890	3.465	0.535
137.501	154.359	80.010	19.992	104.005	19.889	3.535	0.537
138.000	154.604	80.012	19.994	104.004	19.890	3.495	0.511
138.500	154.821	80.010	19.993	104.006	19.887	3.735	0.477
139.000	155.081	80.011	19.993	104.006	19.890	3.485	0.469
139.499	155.317	80.012	19.993	104.003	19.888	3.665	0.487
140.000	155.586	80.012	19.993	104.000	19.888	3.613	0.501
140.500	155.858	80.012	19.993	103.998	19.890	3.504	0.523
140.999	156.111	80.012	19.992	103.994	19.891	3.428	0.533
141.500	156.346	80.011	19.992	103.991	19.889	3.531	0.506
142.000	156.593	80.012	19.993	103.994	19.890	3.503	0.485
142.500	156.889	80.012	19.993	104.000	19.890	3.501	0.513
143.000	157.119	80.012	19.992	104.003	19.890	3.493	0.535
143.500	157.403	80.012	19.993	104.002	19.892	3.349	0.520
144.001	157.669	80.011	19.993	104.001	19.890	3.523	0.532
144.500	157.915	80.011	19.993	103.998	19.888	3.657	0.531
145.000	158.183	80.012	19.993	103.992	19.890	3.509	0.513
145.500	158.439	80.011	19.993	103.987	19.887	3.705	0.519
145.999	158.726	80.012	19.992	103.985	19.891	3.391	0.534
146.500	158.946	80.013	19.993	103.983	19.889	3.565	0.525
146.999	159.213	80.012	19.993	103.982	19.891	3.391	0.497
147.500	159.463	80.012	19.993	103.985	19.891	3.411	0.502
148.000	159.701	80.012	19.994	103.988	19.891	3.443	0.502
148.499	159.968	80.012	19.992	103.988	19.893	3.240	0.497
148.999	160.237	80.012	19.992	103.990	19.891	3.397	0.521
149.499	160.475	80.013	19.993	103.989	19.891	3.433	0.521
149.999	160.755	80.013	19.993	103.988	19.890	3.459	0.513
150.499	161.026	80.011	19.994	103.988	19.892	3.309	0.535
151.000	161.277	80.013	19.992	103.991	19.890	3.457	0.536
151.499	161.489	80.012	19.993	103.992	19.889	3.595	0.492
151.999	161.756	80.013	19.993	103.989	19.887	3.709	0.471
152.499	161.980	80.011	19.993	103.986	19.888	3.663	0.485
153.000	162.252	80.013	19.993	103.985	19.893	3.284	0.493
153.500	162.535	80.012	19.993	103.981	19.892	3.318	0.525
153.999	162.789	80.012	19.993	103.978	19.890	3.453	0.546
154.499	163.031	80.011	19.993	103.979	19.888	3.617	0.517
154.999	163.330	80.012	19.994	103.978	19.896	3.052	0.519
155.499	163.543	80.012	19.995	103.977	19.891	3.423	0.527
155.999	163.798	80.012	19.994	103.981	19.893	3.271	0.490
156.499	164.073	80.011	19.994	103.981	19.893	3.267	0.499
157.000	164.343	80.013	19.993	103.982	19.893	3.287	0.538
157.500	164.599	80.012	19.993	103.984	19.895	3.142	0.535
158.000	164.846	80.012	19.993	103.983	19.895	3.108	0.514
158.500	165.099	80.010	19.994	103.979	19.892	3.305	0.501
159.001	165.399	80.011	19.994	103.979	19.893	3.277	0.526
159.501	165.631	80.010	19.994	103.977	19.891	3.383	0.542
160.001	165.892	80.011	19.995	103.975	19.893	3.242	0.513
160.500	166.167	80.011	19.994	103.977	19.892	3.331	0.515
160.999	166.411	80.012	19.993	103.977	19.892	3.345	0.528
161.499	166.691	80.010	19.994	103.977	19.892	3.359	0.522
161.999	166.938	80.011	19.994	103.977	19.894	3.168	0.525
162.499	167.182	80.011	19.994	103.978	19.894	3.230	0.509
163.000	167.422	80.011	19.993	103.977	19.893	3.281	0.488
163.500	167.621	80.009	19.993	103.979	19.893	3.293	0.462
164.000	167.912	80.009	19.994	103.980	19.893	3.247	0.465
164.500	168.190	80.010	19.994	103.981	19.893	3.303	0.529
164.999	168.434	80.011	19.992	103.980	19.892	3.331	0.546
165.500	168.644	80.010	19.994	103.980	19.893	3.269	0.488
166.000	168.913	80.011	19.993	103.977	19.891	3.411	0.466
166.499	169.168	80.010	19.993	103.973	19.894	3.225	0.502
167.000	169.453	80.011	19.993	103.973	19.894	3.184	0.532
167.499	169.710	80.010	19.993	103.973	19.895	3.142	0.541
167.999	169.975	80.011	19.993	103.973	19.896	3.036	0.532
168.499	170.228	80.011	19.993	103.973	19.892	3.369	0.519
168.999	170.477	80.010	19.993	103.975	19.893	3.283	0.510
169.499	170.700	80.009	19.994	103.976	19.893	3.232	0.488
170.000	170.997	80.010	19.995	103.977	19.892	3.343	0.496
170.500	171.190	80.009	19.994	103.977	19.889	3.539	0.504
171.000	171.512	80.012	19.994	103.978	19.898	2.922	0.502
171.499	171.740	80.011	19.994	103.978	19.894	3.181	0.533
172.000	172.011	80.011	19.994	103.977	19.892	3.321	0.524
172.501	172.215	80.009	19.994	103.977	19.893	3.277	0.487
173.001	172.508	80.010	19.995	103.977	19.894	3.224	0.486
173.501	172.762	80.010	19.994	103.975	19.895	3.086	0.522
174.001	172.983	80.010	19.994	103.973	19.894	3.222	0.511
174.501	173.257	80.011	19.994	103.973	19.895	3.138	0.485
175.000	173.532	80.010	19.994	103.973	19.892	3.355	0.522
175.500	173.764	80.011	19.994	103.973	19.892	3.347	0.528
176.000	173.976	80.009	19.994	103.975	19.892	3.329	0.475
176.499	174.257	80.010	19.994	103.976	19.888	3.601	0.469
176.999	174.508	80.009	19.994	103.976	19.894	3.203	0.513
177.499	174.727	80.010	19.994	103.974	19.890	3.461	0.501
178.000	174.984	80.010	19.994	103.973	19.892	3.343	0.473
178.500	175.236	80.010	19.994	103.971	19.891	3.379	0.493
178.999	175.446	80.010	19.993	103.971	19.891	3.411	0.485
179.499	175.714	80.011	19.994	103.972	19.893	3.269	0.470
180.000	175.999	80.010	19.994	103.974	19.893	3.303	0.516
180.500	176.222	80.009	19.994	103.975	19.892	3.375	0.530
180.999	176.466	80.010	19.994	103.975	19.892	3.357	0.488
181.500	176.706	80.009	19.994	103.973	19.892	3.367	0.475
182.000	176.984	80.010	19.994	103.972	19.894	3.213	0.501
182.499	177.240	80.010	19.994	103.971	19.892	3.319	0.526
183.000	177.475	80.009	19.994	103.971	19.892	3.355	0.512
183.500	177.722	80.009	19.993	103.974	19.893	3.293	0.486
184.000	177.960	80.008	19.994	103.975	19.895	3.131	0.483
184.500	178.215	80.009	19.994	103.976	19.892	3.321	0.488
184.999	178.484	80.010	19.993	103.976	19.894	3.187	0.508
185.499	178.722	80.010	19.994	103.977	19.892	3.331	0.516
185.999	178.996	80.010	19.993	103.973	19.893	3.263	0.510
186.500	179.227	80.010	19.993	103.970	19.893	3.242	0.508
187.000	179.453	80.011	19.995	103.970	19.894	3.204	0.481
187.500	179.719	80.009	19.994	103.970	19.893	3.234	0.474
187.999	179.932	80.010	19.994	103.969	19.895	3.150	0.486
188.499	180.199	80.009	19.994	103.973	19.893	3.251	0.480
188.999	180.451	80.009	19.994	103.977	19.894	3.207	0.500
189.499	180.674	80.008	19.994	103.978	19.895	3.124	0.497
189.999	180.896	80.010	19.994	103.978	19.892	3.357	0.460
190.499	181.170	80.009	19.994	103.977	19.894	3.211	0.471
190.999	181.407	80.009	19.994	103.976	19.895	3.140	0.504
191.499	181.638	80.009	19.994	103.975	19.896	3.060	0.489
191.999	181.934	80.009	19.993	103.976	19.895	3.136	0.498
192.500	182.141	80.009	19.994	103.973	19.896	3.038	0.515
193.000	182.412	80.009	19.994	103.973	19.894	3.206	0.490
193.499	182.636	80.009	19.993	103.974	19.894	3.168	0.486
194.000	182.908	80.009	19.994	103.970	19.896	3.044	0.495
194.501	183.165	80.008	19.994	103.964	19.896	3.066	0.513
195.000	183.380	80.009	19.993	103.963	19.896	3.030	0.501
195.499	183.614	80.010	19.993	103.964	19.898	2.934	0.460
195.999	183.863	80.009	19.993	103.965	19.898	2.925	0.466
196.499	184.095	80.008	19.991	103.970	19.897	2.943	0.482
197.000	184.368	80.009	19.993	103.976	19.897	2.997	0.493
197.500	184.632	80.009	19.993	103.981	19.898	2.864	0.521
198.000	184.859	80.010	19.993	103.983	19.900	2.758	0.514
198.501	185.146	80.010	19.993	103.980	19.898	2.908	0.502
199.000	185.352	80.011	19.994	103.978	19.899	2.836	0.503
199.500	185.591	80.011	19.992	103.974	19.899	2.848	0.469
200.000	185.872	80.010	19.994	103.971	19.899	2.856	0.483
200.500	186.113	80.011	19.993	103.969	19.896	3.030	0.521
200.999	186.321	80.011	19.994	103.969	19.897	2.972	0.486
201.499	186.648	80.010	19.993	103.970	19.899	2.800	0.492
201.999	186.873	80.010	19.992	103.974	19.898	2.870	0.544
202.499	187.119	80.010	19.993	103.976	19.896	3.047	0.511
202.999	187.385	80.011	19.993	103.976	19.901	2.668	0.491
203.499	187.624	80.009	19.993	103.976	19.898	2.874	0.508
203.999	187.892	80.011	19.993	103.976	19.897	2.966	0.506
204.499	188.124	80.011	19.995	103.975	19.899	2.836	0.504
204.999	188.346	80.012	19.992	103.973	19.899	2.824	0.478
205.500	188.593	80.011	19.993	103.971	19.899	2.834	0.462
206.000	188.848	80.010	19.993	103.966	19.900	2.742	0.485
206.499	189.070	80.013	19.993	103.958	19.899	2.802	0.489
206.999	189.303	80.013	19.993	103.950	19.900	2.720	0.466
207.500	189.597	80.013	19.993	103.945	19.899	2.790	0.491
208.000	189.825	80.012	19.993	103.942	19.900	2.750	0.524
208.501	190.065	80.012	19.993	103.948	19.900	2.782	0.495
209.000	190.351	80.012	19.993	103.955	19.898	2.868	0.498
209.499	190.545	80.013	19.993	103.962	19.900	2.748	0.503
209.999	190.802	80.013	19.992	103.969	19.902	2.636	0.465
210.500	191.060	80.012	19.992	103.973	19.901	2.712	0.482
210.999	191.309	80.011	19.993	103.973	19.899	2.811	0.511
211.499	191.551	80.012	19.993	103.968	19.901	2.684	0.499
211.999	191.790	80.013	19.994	103.967	19.898	2.883	0.486
212.499	192.053	80.012	19.993	103.961	19.901	2.710	0.492
213.000	192.296	80.013	19.994	103.960	19.901	2.650	0.504
213.499	192.494	80.012	19.994	103.957	19.900	2.742	0.474
213.999	192.766	80.012	19.993	103.957	19.899	2.818	0.455
214.499	193.007	80.012	19.993	103.957	19.898	2.923	0.491
214.999	193.249	80.010	19.993	103.957	19.900	2.768	0.498
215.499	193.499	80.011	19.995	103.953	19.900	2.786	0.487
215.999	193.731	80.012	19.994	103.953	19.899	2.804	0.487
216.499	193.965	80.012	19.993	103.955	19.897	2.962	0.474
216.999	194.247	80.011	19.995	103.954	19.902	2.606	0.491
217.500	194.456	80.011	19.994	103.954	19.897	3.000	0.504
217.999	194.726	80.010	19.993	103.955	19.901	2.704	0.486
218.499	194.948	80.009	19.994	103.956	19.898	2.900	0.486
218.999	195.170	80.011	19.994	103.957	19.897	2.944	0.468
219.499	195.457	80.012	19.994	103.956	19.899	2.838	0.476
219.999	195.690	80.012	19.993	103.955	19.900	2.772	0.515
220.500	195.941	80.012	19.993	103.953	19.899	2.836	0.502
221.001	196.189	80.011	19.994	103.948	19.898	2.895	0.491
221.501	196.446	80.010	19.994	103.942	19.896	3.035	0.502
222.000	196.657	80.012	19.993	103.942	19.901	2.682	0.487
222.500	196.922	80.010	19.992	103.943	19.898	2.925	0.472
223.000	197.173	80.012	19.993	103.948	19.895	3.091	0.495
223.499	197.388	80.012	19.993	103.951	19.897	2.955	0.491
223.999	197.666	80.010	19.994	103.951	19.899	2.788	0.480
224.499	197.862	80.011	19.994	103.951	19.899	2.812	0.484
225.000	198.113	80.011	19.993	103.951	19.899	2.816	0.461
225.501	198.368	80.012	19.993	103.948	19.899	2.794	0.477
226.000	198.621	80.013	19.992	103.947	19.899	2.816	0.507
226.500	198.840	80.011	19.992	103.950	19.899	2.850	0.490
227.000	199.104	80.012	19.993	103.951	19.897	2.943	0.477
227.500	199.300	80.012	19.992	103.956	19.900	2.746	0.471
228.000	199.572	80.013	19.993	103.960	19.898	2.931	0.464
228.500	199.828	80.010	19.993	103.962	19.898	2.863	0.498
229.000	200.062	80.011	19.995	103.965	19.898	2.865	0.509
229.499	200.315	80.012	19.993	103.968	19.897	2.937	0.489
229.999	200.518	80.010	19.992	103.961	19.897	2.981	0.472
230.499	200.751	80.012	19.992	103.958	19.898	2.921	0.447
230.999	201.023	80.013	19.992	103.954	19.898	2.921	0.471
231.499	201.237	80.012	19.992	103.948	19.895	3.123	0.495
231.999	201.506	80.013	19.993	103.944	19.896	3.031	0.484
232.499	201.761	80.013	19.994	103.945	19.898	2.917	0.504
232.999	201.975	80.012	19.993	103.949	19.900	2.736	0.497
233.499	202.255	80.013	19.993	103.953	19.898	2.922	0.481
233.999	202.502	80.012	19.993	103.954	19.898	2.882	0.511
234.499	202.698	80.013	19.992	103.953	19.896	3.054	0.485
234.999	203.003	80.012	19.993	103.955	19.896	3.028	0.472
235.499	203.196	80.013	19.992	103.952	19.898	2.888	0.499
235.999	203.448	80.013	19.994	103.955	19.898	2.892	0.471
236.499	203.687	80.012	19.992	103.957	19.898	2.880	0.468
237.000	203.914	80.012	19.992	103.955	19.901	2.698	0.478
237.501	204.140	80.013	19.992	103.955	19.898	2.879	0.459
238.001	204.379	80.014	19.991	103.954	19.901	2.652	0.459
238.500	204.665	80.011	19.993	103.949	19.896	3.053	0.496
239.000	204.900	80.012	19.993	103.945	19.898	2.927	0.523
239.500	205.136	80.012	19.992	103.945	19.896	3.051	0.496
240.000	205.393	80.014	19.992	103.943	19.895	3.103	0.482
240.500	205.611	80.012	19.991	103.943	19.894	3.197	0.484
241.000	205.872	80.013	19.993	103.943	19.899	2.819	0.477
241.500	206.114	80.011	19.992	103.944	19.896	3.015	0.491
242.000	206.384	80.011	19.993	103.948	19.898	2.911	0.508
242.499	206.602	80.011	19.992	103.947	19.897	2.987	0.500
242.999	206.826	80.011	19.992	103.946	19.897	2.945	0.465
243.499	207.055	80.010	19.992	103.950	19.897	2.967	0.448
244.000	207.326	80.011	19.993	103.957	19.894	3.161	0.477
244.500	207.607	80.010	19.994	103.958	19.896	3.079	0.526
244.999	207.831	80.010	19.994	103.965	19.895	3.133	0.528
245.499	208.055	80.009	19.994	103.971	19.895	3.147	0.477
246.000	208.307	80.010	19.994	103.970	19.898	2.907	0.462
246.500	208.560	80.009	19.995	103.965	19.899	2.818	0.490
247.000	208.787	80.010	19.994	103.959	19.900	2.734	0.492
247.501	209.040	80.010	19.993	103.954	19.900	2.764	0.480
248.000	209.311	80.010	19.994	103.947	19.897	2.935	0.502
248.500	209.538	80.010	19.993	103.943	19.899	2.857	0.511
249.001	209.784	80.009	19.993	103.946	19.899	2.796	0.486
249.500	210.045	80.009	19.993	103.946	19.898	2.909	0.490
249.999	210.285	80.010	19.993	103.945	19.899	2.849	0.503
250.499	210.520	80.009	19.995	103.946	19.899	2.819	0.488
250.999	210.804	80.010	19.994	103.947	19.900	2.728	0.497
251.500	211.043	80.009	19.992	103.943	19.899	2.799	0.521
252.000	211.273	80.009	19.994	103.944	19.899	2.847	0.496
252.500	211.528	80.008	19.993	103.947	19.898	2.923	0.477
253.001	211.749	80.010	19.993	103.950	19.897	2.985	0.481
253.500	212.029	80.010	19.994	103.948	19.901	2.710	0.488
253.999	212.217	80.007	19.995	103.950	19.897	2.941	0.484
254.499	212.473	80.008	19.992	103.951	19.898	2.912	0.456
255.000	212.729	80.010	19.993	103.949	19.896	3.075	0.478
255.499	212.983	80.009	19.994	103.946	19.898	2.930	0.511
255.999	213.212	80.010	19.994	103.949	19.898	2.894	0.497
256.499	213.465	80.009	19.995	103.947	19.896	3.073	0.483
256.999	213.697	80.009	19.993	103.946	19.895	3.085	0.483
257.500	213.953	80.009	19.994	103.946	19.896	3.021	0.486
258.000	214.182	80.010	19.995	103.949	19.896	3.073	0.486
258.500	214.448	80.009	19.994	103.946	19.896	3.049	0.490
259.001	214.671	80.009	19.994	103.945	19.898	2.882	0.492
259.500	214.965	80.008	19.994	103.945	19.899	2.850	0.504
259.999	215.212	80.009	19.994	103.945	19.898	2.882	0.529
260.499	215.424	80.010	19.993	103.943	19.897	2.937	0.500
260.999	215.700	80.011	19.992	103.943	19.898	2.895	0.473
261.499	215.936	80.009	19.994	103.943	19.900	2.762	0.500
261.999	216.195	80.009	19.995	103.943	19.899	2.805	0.503
262.499	216.397	80.009	19.994	103.942	19.899	2.816	0.479
262.999	216.686	80.010	19.994	103.941	19.897	2.969	0.476
263.500	216.893	80.010	19.994	103.942	19.897	2.987	0.493
264.001	217.154	80.009	19.993	103.945	19.898	2.880	0.482
264.501	217.447	80.008	19.993	103.947	19.897	2.971	0.511
265.001	217.676	80.009	19.994	103.947	19.897	2.957	0.538
265.500	217.930	80.009	19.993	103.953	19.897	2.989	0.503
266.000	218.187	80.011	19.994	103.959	19.899	2.804	0.497
266.500	218.410	80.010	19.993	103.957	19.898	2.892	0.495
267.000	218.635	80.011	19.993	103.958	19.898	2.900	0.464
267.500	218.876	80.008	19.993	103.957	19.901	2.678	0.457
268.000	219.172	80.010	19.994	103.951	19.895	3.135	0.501
268.500	219.406	80.011	19.993	103.944	19.899	2.828	0.533
269.000	219.644	80.011	19.993	103.945	19.899	2.788	0.502
269.500	219.894	80.011	19.993	103.948	19.898	2.889	0.480
269.999	220.122	80.013	19.993	103.954	19.897	2.957	0.483
270.499	220.380	80.011	19.994	103.954	19.900	2.766	0.482
270.999	220.624	80.012	19.994	103.954	19.898	2.879	0.494
271.499	220.867	80.011	19.995	103.952	19.898	2.877	0.494
271.999	221.133	80.010	19.993	103.946	19.899	2.845	0.499
272.500	221.375	80.010	19.995	103.941	19.901	2.698	0.509
273.000	221.646	80.011	19.994	103.941	19.900	2.730	0.511
273.500	221.879	80.009	19.994	103.946	19.898	2.925	0.508
274.001	222.164	80.009	19.994	103.949	19.899	2.795	0.510
274.500	222.397	80.010	19.994	103.949	19.899	2.791	0.518
274.999	222.668	80.010	19.991	103.951	19.901	2.674	0.512
275.499	222.920	80.009	19.994	103.955	19.901	2.678	0.514
275.999	223.125	80.009	19.994	103.954	19.900	2.779	0.490
276.499	223.426	80.009	19.995	103.957	19.899	2.829	0.481
277.000	223.608	80.010	19.994	103.962	19.898	2.867	0.495
277.501	223.865	80.009	19.995	103.962	19.898	2.903	0.461
278.000	224.148	80.010	19.995	103.960	19.898	2.861	0.490
278.499	224.383	80.009	19.995	103.955	19.902	2.634	0.529
278.999	224.656	80.009	19.994	103.951	19.897	2.961	0.513
279.500	224.900	80.009	19.994	103.948	19.900	2.716	0.512
280.000	225.149	80.009	19.995	103.944	19.900	2.757	0.505
280.500	225.373	80.008	19.993	103.942	19.897	2.941	0.483
281.001	225.627	80.008	19.994	103.941	19.897	3.003	0.476
281.500	225.919	80.009	19.995	103.941	19.899	2.821	0.512
282.000	226.184	80.009	19.995	103.938	19.898	2.889	0.551
282.501	226.397	80.009	19.995	103.938	19.898	2.887	0.517
283.001	226.639	80.010	19.994	103.939	19.898	2.881	0.467
283.501	226.879	80.008	19.995	103.939	19.896	3.035	0.468
284.001	227.149	80.009	19.995	103.938	19.900	2.765	0.496
284.500	227.389	80.009	19.995	103.938	19.898	2.925	0.510
284.999	227.647	80.010	19.994	103.938	19.899	2.795	0.504
285.499	227.921	80.008	19.995	103.938	19.897	2.993	0.515
285.999	228.130	80.010	19.994	103.937	19.899	2.845	0.508
286.499	228.408	80.010	19.994	103.937	19.898	2.923	0.485
286.999	228.636	80.009	19.993	103.937	19.899	2.841	0.497
287.499	228.898	80.011	19.994	103.937	19.899	2.815	0.498
287.999	229.150	80.012	19.994	103.937	19.897	2.949	0.502
288.499	229.426	80.010	19.994	103.937	19.897	2.949	0.521
288.999	229.679	80.010	19.994	103.937	19.898	2.913	0.529
289.499	229.914	80.011	19.995	103.937	19.898	2.887	0.509
290.000	230.174	80.011	19.994	103.936	19.897	2.937	0.491
290.500	230.448	80.010	19.994	103.936	19.899	2.817	0.514
290.999	230.674	80.012	19.993	103.936	19.895	3.087	0.517
291.500	230.905	80.011	19.993	103.936	19.897	2.959	0.478
292.000	231.207	80.011	19.993	103.937	19.898	2.927	0.495
292.500	231.411	80.011	19.993	103.937	19.899	2.845	0.520
293.000	231.662	80.011	19.994	103.937	19.900	2.767	0.481
293.500	231.911	80.011	19.993	103.937	19.901	2.642	0.478
294.000	232.161	80.011	19.993	103.936	19.898	2.879	0.500
294.499	232.394	80.011	19.993	103.936	19.900	2.730	0.491
294.999	232.673	80.011	19.992	103.935	19.900	2.765	0.497
295.499	232.924	80.011	19.992	103.935	19.898	2.925	0.520
296.000	233.174	80.011	19.993	103.935	19.900	2.751	0.515
296.501	233.401	80.011	19.992	103.935	19.896	3.078	0.489
297.001	233.658	80.013	19.993	103.935	19.899	2.809	0.481
297.500	233.932	80.012	19.993	103.936	19.898	2.905	0.508
297.999	234.194	80.013	19.993	103.936	19.899	2.825	0.533
298.499	234.391	80.012	19.993	103.937	19.897	2.995	0.497
298.999	234.684	80.011	19.994	103.937	19.896	3.053	0.475
299.500	234.924	80.011	19.994	103.937	19.897	2.953	0.511
300.000	235.147	80.011	19.992	103.937	19.898	2.933	0.498
300.500	235.402	80.011	19.993	103.937	19.895	3.093	0.471
301.000	235.647	80.012	19.991	103.937	19.897	2.955	0.489
301.499	235.897	80.011	19.992	103.935	19.899	2.845	0.497
301.999	236.119	80.013	19.992	103.934	19.898	2.867	0.483
302.500	236.407	80.010	19.992	103.934	19.900	2.749	0.491
303.001	236.654	80.012	19.994	103.934	19.898	2.883	0.523
303.500	236.893	80.012	19.992	103.934	19.900	2.738	0.510
304.000	237.138	80.013	19.994	103.936	19.898	2.885	0.485
304.501	237.401	80.011	19.993	103.936	19.898	2.867	0.496
305.001	237.668	80.011	19.993	103.936	19.899	2.837	0.519
305.500	237.892	80.010	19.994	103.937	19.901	2.686	0.510
305.999	238.152	80.010	19.994	103.936	19.901	2.676	0.487
306.499	238.374	80.011	19.993	103.936	19.897	2.963	0.484
306.999	238.616	80.011	19.993	103.933	19.898	2.887	0.473
307.500	238.861	80.011	19.993	103.930	19.897	2.943	0.475
308.000	239.139	80.011	19.993	103.928	19.900	2.731	0.505
308.499	239.380	80.011	19.992	103.928	19.899	2.799	0.521
308.999	239.617	80.009	19.993	103.929	19.898	2.917	0.498
309.499	239.840	80.011	19.993	103.934	19.897	2.963	0.469
310.000	240.097	80.010	19.992	103.937	19.900	2.781	0.470
310.500	240.340	80.009	19.993	103.939	19.900	2.773	0.491
310.999	240.578	80.011	19.993	103.938	19.898	2.909	0.491
311.499	240.845	80.009	19.993	103.933	19.896	3.041	0.493
312.000	241.081	80.011	19.993	103.930	19.900	2.734	0.504
312.500	241.293	80.010	19.993	103.931	19.895	3.089	0.475
312.999	241.577	80.012	19.992	103.933	19.898	2.861	0.472
313.500	241.857	80.011	19.993	103.934	19.896	3.031	0.530
314.000	242.039	80.011	19.993	103.937	19.899	2.793	0.513
314.499	242.335	80.011	19.992	103.939	19.897	2.993	0.470
314.999	242.572	80.011	19.993	103.938	19.899	2.823	0.505
315.500	242.833	80.013	19.992	103.938	19.898	2.887	0.515
316.001	243.120	80.012	19.994	103.937	19.899	2.815	0.523
316.500	243.307	80.012	19.993	103.936	19.898	2.877	0.511
317.000	243.566	80.011	19.993	103.934	19.898	2.885	0.460
317.500	243.793	80.012	19.993	103.933	19.896	3.079	0.466
318.000	244.077	80.012	19.992	103.933	19.897	2.975	0.499
318.500	244.307	80.011	19.993	103.933	19.897	3.003	0.512
319.000	244.577	80.011	19.993	103.936	19.898	2.917	0.507
319.500	244.792	80.011	19.992	103.938	19.893	3.254	0.493
319.999	245.061	80.012	19.993	103.938	19.897	2.953	0.485
320.500	245.325	80.012	19.993	103.938	19.896	3.068	0.508
321.000	245.520	80.012	19.993	103.937	19.895	3.116	0.496
321.500	245.804	80.011	19.993	103.938	19.897	2.975	0.469
322.000	246.008	80.013	19.992	103.938	19.896	3.013	0.484
322.500	246.298	80.011	19.992	103.939	19.896	3.033	0.491
322.999	246.542	80.012	19.993	103.938	19.896	3.079	0.514
323.499	246.774	80.011	19.992	103.938	19.898	2.911	0.505
324.000	247.064	80.011	19.992	103.937	19.898	2.915	0.499
324.501	247.294	80.010	19.992	103.936	19.901	2.671	0.521
325.000	247.539	80.012	19.992	103.936	19.896	3.021	0.498
325.500	247.779	80.012	19.992	103.938	19.898	2.929	0.480
326.000	248.033	80.011	19.992	103.938	19.897	2.971	0.489
326.499	248.305	80.011	19.992	103.939	19.898	2.931	0.510
327.000	248.533	80.010	19.993	103.941	19.900	2.758	0.513
327.501	248.790	80.010	19.993	103.941	19.899	2.815	0.493
328.001	249.017	80.010	19.993	103.941	19.899	2.797	0.485
328.501	249.288	80.010	19.993	103.940	19.895	3.132	0.491
329.001	249.591	80.009	19.992	103.933	19.896	3.074	0.536
329.501	249.809	80.009	19.992	103.931	19.898	2.915	0.547
330.000	250.098	80.010	19.992	103.931	19.897	3.005	0.514
330.500	250.304	80.007	19.993	103.930	19.896	3.039	0.501
331.000	250.597	80.010	19.993	103.927	19.896	3.011	0.497
331.501	250.823	80.007	19.993	103.929	19.896	3.041	0.509
332.001	251.076	80.009	19.992	103.930	19.897	2.991	0.499
332.500	251.327	80.011	19.992	103.930	19.897	2.955	0.492
332.999	251.597	80.009	19.993	103.931	19.898	2.919	0.512
333.499	251.824	80.009	19.993	103.935	19.898	2.899	0.509
333.999	252.099	80.010	19.993	103.938	19.897	2.943	0.500
334.499	252.342	80.010	19.992	103.935	19.897	2.951	0.510
335.000	252.561	80.009	19.993	103.930	19.896	3.009	0.490
335.500	252.840	80.010	19.995	103.928	19.899	2.797	0.480
336.000	253.054	80.010	19.994	103.928	19.899	2.845	0.495
336.500	253.316	80.010	19.995	103.930	19.898	2.925	0.485
337.000	253.544	80.010	19.994	103.934	19.900	2.759	0.483
337.500	253.823	80.009	19.994	103.940	19.897	2.971	0.498
337.999	254.078	80.011	19.993	103.941	19.898	2.899	0.520
338.499	254.341	80.008	19.994	103.940	19.900	2.759	0.526
339.000	254.576	80.010	19.993	103.935	19.897	2.935	0.508
339.500	254.805	80.010	19.993	103.930	19.900	2.767	0.481
340.000	255.048	80.010	19.993	103.929	19.895	3.101	0.468
340.501	255.349	80.010	19.994	103.928	19.898	2.911	0.508
341.000	255.577	80.010	19.993	103.929	19.897	2.963	0.536
341.499	255.820	80.011	19.993	103.934	19.896	3.011	0.500
342.000	256.106	80.011	19.993	103.936	19.897	2.935	0.500
342.499	256.317	80.010	19.994	103.937	19.899	2.847	0.513
342.999	256.556	80.010	19.994	103.939	19.898	2.865	0.474
343.499	256.802	80.010	19.992	103.939	19.897	2.939	0.467
344.000	257.065	80.010	19.993	103.940	19.892	3.328	0.497
344.500	257.300	80.010	19.993	103.940	19.898	2.911	0.504
345.000	257.566	80.011	19.992	103.939	19.896	3.057	0.499
345.500	257.820	80.011	19.993	103.937	19.897	3.003	0.510
346.001	258.054	80.010	19.994	103.936	19.899	2.835	0.504
346.501	258.312	80.010	19.993	103.936	19.895	3.105	0.491
347.000	258.550	80.012	19.993	103.935	19.896	3.063	0.494
347.499	258.831	80.011	19.993	103.934	19.897	2.965	0.507
347.999	259.069	80.011	19.993	103.930	19.895	3.122	0.519
348.499	259.308	80.011	19.993	103.930	19.898	2.893	0.498
348.999	259.552	80.011	19.993	103.929	19.897	2.971	0.480
349.499	259.803	80.010	19.994	103.930	19.896	3.064	0.489
349.999	260.065	80.011	19.994	103.931	19.895	3.116	0.504
350.499	260.298	80.011	19.993	103.937	19.893	3.256	0.504
350.999	260.590	80.011	19.994	103.937	19.896	3.019	0.510
351.500	260.807	80.010	19.994	103.937	19.897	2.959	0.517
352.000	261.047	80.010	19.993	103.937	19.896	3.031	0.483
352.499	261.291	80.010	19.993	103.935	19.901	2.684	0.470
353.000	261.544	80.010	19.992	103.933	19.896	3.019	0.490
353.501	261.760	80.010	19.994	103.928	19.896	3.071	0.483
354.001	262.005	80.010	19.994	103.926	19.897	2.943	0.465
354.501	262.273	80.011	19.994	103.925	19.895	3.085	0.487
355.000	262.479	80.010	19.994	103.927	19.897	2.959	0.493
355.500	262.773	80.010	19.993	103.928	19.900	2.759	0.487
356.000	263.019	80.010	19.994	103.934	19.896	3.075	0.520
356.500	263.238	80.010	19.993	103.936	19.895	3.152	0.503
357.000	263.524	80.010	19.994	103.938	19.898	2.926	0.485
357.500	263.764	80.011	19.993	103.936	19.897	2.950	0.515
358.000	264.013	80.011	19.995	103.936	19.897	2.948	0.508
358.499	264.246	80.010	19.993	103.936	19.898	2.893	0.485
358.999	264.533	80.009	19.994	103.934	19.897	2.941	0.501
359.500	264.788	80.012	19.993	103.931	19.897	2.999	0.531
360.000	265.011	80.010	19.994	103.927	19.900	2.723	0.510
360.500	265.258	80.010	19.993	103.926	19.898	2.867	0.474
361.001	265.509	80.010	19.995	103.927	19.898	2.916	0.485
361.500	265.718	80.010	19.994	103.929	19.897	2.995	0.479
361.999	265.998	80.010	19.994	103.933	19.899	2.837	0.474
362.500	266.250	80.010	19.993	103.938	19.898	2.909	0.510
362.999	266.502	80.011	19.994	103.939	19.894	3.171	0.518
363.499	266.786	80.010	19.992	103.937	19.897	2.939	0.520
364.000	267.022	80.010	19.994	103.936	19.897	3.004	0.528
364.500	267.275	80.010	19.993	103.936	19.900	2.749	0.505
365.000	267.475	80.010	19.995	103.936	19.898	2.878	0.472
365.500	267.759	80.011	19.994	103.935	19.898	2.876	0.469
366.000	267.988	80.010	19.994	103.938	19.899	2.857	0.499
366.501	268.292	80.011	19.993	103.937	19.894	3.186	0.523
367.001	268.528	80.010	19.994	103.932	19.898	2.895	0.536
367.501	268.762	80.010	19.994	103.924	19.897	2.955	0.505
368.001	269.024	80.009	19.993	103.917	19.898	2.899	0.483
368.501	269.267	80.010	19.993	103.913	19.895	3.088	0.501
369.000	269.518	80.010	19.994	103.915	19.897	3.006	0.500
369.500	269.804	80.011	19.993	103.920	19.896	3.038	0.516
370.000	270.023	80.010	19.994	103.926	19.896	3.022	0.521
370.500	270.273	80.010	19.994	103.933	19.895	3.094	0.487
371.001	270.506	80.011	19.994	103.934	19.895	3.130	0.476
371.501	270.797	80.012	19.993	103.914	19.895	3.092	0.504
372.000	270.984	80.010	19.993	103.884	19.891	3.449	0.501
372.499	271.302	80.011	19.994	103.867	19.895	3.096	0.491
373.000	271.542	80.011	19.994	103.860	19.894	3.178	0.531
373.501	271.814	80.011	19.994	103.857	19.895	3.128	0.535
374.000	272.055	80.010	19.993	103.884	19.897	3.003	0.513
374.500	272.355	80.012	19.993	103.945	19.898	2.915	0.527
375.000	272.533	80.010	19.994	103.970	19.896	3.044	0.509
375.499	272.778	80.011	19.994	103.978	19.898	2.860	0.450
375.999	273.048	80.011	19.993	103.984	19.895	3.082	0.469
376.500	273.291	80.010	19.993	103.976	19.897	2.970	0.514
377.000	273.523	80.011	19.993	103.944	19.898	2.912	0.494
377.500	273.768	80.009	19.993	103.936	19.900	2.769	0.476
378.001	274.062	80.010	19.994	103.930	19.897	2.980	0.508
378.501	274.303	80.011	19.995	103.924	19.897	2.974	0.537
379.000	274.526	80.010	19.994	103.921	19.894	3.158	0.500
379.499	274.813	80.010	19.994	103.919	19.895	3.094	0.488
380.000	275.067	80.011	19.994	103.915	19.898	2.922	0.526
380.500	275.300	80.011	19.995	103.913	19.899	2.848	0.513
381.000	275.538	80.009	19.994	103.911	19.899	2.811	0.479
381.500	275.816	80.011	19.994	103.909	19.896	3.030	0.494
382.000	276.091	80.010	19.994	103.911	19.897	2.960	0.535
382.501	276.316	80.010	19.995	103.913	19.897	2.951	0.526
383.000	276.552	80.011	19.994	103.918	19.894	3.204	0.480
383.499	276.789	80.010	19.995	103.924	19.899	2.831	0.467
383.999	277.064	80.009	19.995	103.928	19.895	3.142	0.492
384.500	277.299	80.010	19.994	103.927	19.895	3.118	0.511
385.000	277.529	80.009	19.995	103.925	19.897	2.994	0.487
385.500	277.797	80.010	19.994	103.921	19.898	2.923	0.481
386.000	278.005	80.011	19.994	103.915	19.896	3.056	0.487
386.500	278.293	80.010	19.993	103.910	19.896	3.052	0.486
387.000	278.553	80.010	19.994	103.908	19.896	3.010	0.522
387.500	278.755	80.011	19.994	103.912	19.894	3.182	0.505
388.000	279.070	80.011	19.994	103.915	19.896	3.032	0.490
388.500	279.309	80.011	19.993	103.916	19.898	2.892	0.535
389.000	279.545	80.010	19.993	103.916	19.897	2.954	0.514
389.500	279.792	80.010	19.994	103.915	19.904	2.473	0.479
389.999	280.042	80.009	19.993	103.911	19.896	3.068	0.490
390.499	280.295	80.011	19.994	103.908	19.890	3.463	0.500
391.000	280.560	80.010	19.993	103.908	19.898	2.890	0.511
391.501	280.805	80.011	19.994	103.909	19.892	3.305	0.514
392.001	281.056	80.010	19.993	103.908	19.893	3.253	0.503
392.500	281.282	80.012	19.993	103.915	19.895	3.118	0.487
392.999	281.535	80.011	19.993	103.920	19.896	3.040	0.478
393.499	281.783	80.010	19.993	103.924	19.895	3.142	0.490
393.999	282.042	80.011	19.993	103.926	19.897	2.972	0.503
394.500	282.342	80.012	19.992	103.924	19.896	3.074	0.533
395.001	282.500	80.010	19.992	103.918	19.896	3.026	0.509
395.501	282.784	80.011	19.995	103.915	19.898	2.886	0.450
396.001	283.014	80.013	19.994	103.919	19.893	3.243	0.478
396.500	283.303	80.013	19.993	103.920	19.894	3.217	0.516
396.999	283.516	80.012	19.992	103.922	19.892	3.309	0.510
397.500	283.776	80.013	19.993	103.921	19.892	3.339	0.488
398.001	284.041	80.010	19.994	103.917	19.896	3.048	0.499
398.501	284.284	80.012	19.993	103.910	19.895	3.108	0.516
399.000	284.525	80.012	19.994	103.907	19.894	3.174	0.496
399.499	284.809	80.012	19.993	103.904	19.899	2.849	0.504
399.999	285.036	80.011	19.992	103.906	19.894	3.210	0.518
400.499	285.251	80.013	19.993	103.908	19.897	2.974	0.477
401.000	285.498	80.013	19.993	103.907	19.895	3.120	0.452
401.500	285.807	80.013	19.993	103.906	19.897	2.986	0.509
402.000	286.004	80.012	19.993	103.906	19.899	2.823	0.531
402.500	286.256	80.012	19.992	103.904	19.891	3.407	0.477
403.000	286.493	80.013	19.993	103.902	19.896	3.056	0.469
403.500	286.726	80.013	19.993	103.904	19.894	3.200	0.479
404.000	287.036	80.013	19.993	103.906	19.897	2.984	0.506
404.499	287.269	80.014	19.993	103.907	19.893	3.259	0.543
404.999	287.505	80.012	19.993	103.908	19.895	3.118	0.506
405.499	287.770	80.012	19.992	103.907	19.894	3.214	0.485
405.999	288.016	80.012	19.992	103.903	19.895	3.092	0.506
406.499	288.277	80.012	19.993	103.901	19.897	3.002	0.509
406.999	288.536	80.013	19.993	103.899	19.889	3.535	0.513
407.499	288.875	80.012	19.992	103.900	19.894	3.202	0.559
407.999	289.023	80.012	19.992	103.906	19.893	3.252	0.543
408.499	289.249	80.013	19.992	103.913	19.898	2.922	0.431
408.999	289.556	80.012	19.992	103.921	19.896	3.072	0.453
409.499	289.768	80.013	19.993	103.928	19.898	2.897	0.526
409.999	290.004	80.011	19.993	103.932	19.893	3.268	0.483
410.499	290.264	80.011	19.993	103.931	19.897	2.996	0.472
411.000	290.521	80.011	19.993	103.925	19.894	3.162	0.507
411.500	290.891	80.011	19.992	103.917	19.894	3.170	0.572
412.000	291.066	80.011	19.993	103.914	19.893	3.257	0.586
412.499	291.296	80.011	19.993	103.913	19.893	3.229	0.475
412.999	291.568	80.010	19.993	103.911	19.897	2.956	0.454
413.499	291.831	80.010	19.993	103.911	19.897	2.990	0.519
413.999	292.128	80.011	19.993	103.911	19.897	2.992	0.548
414.499	292.310	80.011	19.993	103.909	19.897	2.972	0.519
414.999	292.620	80.010	19.993	103.909	19.896	3.014	0.485
415.499	292.831	80.010	19.993	103.912	19.899	2.854	0.507
415.999	293.122	80.010	19.994	103.919	19.900	2.735	0.511
416.500	293.372	80.011	19.993	103.920	19.901	2.697	0.522
417.001	293.625	80.010	19.993	103.919	19.897	2.962	0.523
417.501	293.935	80.012	19.993	103.913	19.900	2.755	0.533
418.001	294.103	80.011	19.994	103.908	19.900	2.731	0.520
418.501	294.385	80.011	19.992	103.909	19.898	2.890	0.464
419.001	294.700	80.011	19.993	103.913	19.898	2.880	0.523
419.500	294.834	80.013	19.993	103.915	19.901	2.709	0.523
420.000	295.297	80.010	19.993	103.922	19.899	2.816	0.523
420.501	295.378	80.011	19.993	103.923	19.901	2.671	0.570
421.000	295.648	80.010	19.993	103.917	19.901	2.699	0.448
421.499	295.903	80.011	19.993	103.918	19.901	2.665	0.439
421.999	296.130	80.011	19.994	103.917	19.902	2.601	0.504
422.500	296.348	80.011	19.993	103.911	19.903	2.535	0.463
423.000	296.642	80.011	19.993	103.908	19.900	2.743	0.478
423.500	296.919	80.010	19.993	103.908	19.900	2.723	0.541
424.001	297.102	80.011	19.994	103.906	19.899	2.810	0.515
424.501	297.402	80.010	19.994	103.906	19.899	2.812	0.472
425.000	297.609	80.011	19.993	103.910	19.899	2.846	0.495
425.499	297.881	80.011	19.993	103.912	19.901	2.693	0.493
425.999	298.168	80.011	19.993	103.911	19.901	2.675	0.519
426.500	298.379	80.012	19.993	103.907	19.897	2.972	0.529
427.000	298.645	80.010	19.992	103.906	19.898	2.862	0.487
427.500	298.897	80.011	19.993	103.903	19.900	2.719	0.497
427.999	299.137	80.011	19.993	103.901	19.899	2.796	0.505
428.499	299.395	80.012	19.993	103.902	19.900	2.782	0.495
429.000	299.652	80.010	19.993	103.903	19.901	2.655	0.507
429.499	299.883	80.010	19.993	103.902	19.900	2.782	0.502
429.999	300.170	80.010	19.992	103.901	19.903	2.539	0.503
430.500	300.421	80.011	19.993	103.901	19.897	2.958	0.528
431.000	300.635	80.011	19.993	103.899	19.898	2.912	0.501
431.499	300.896	80.013	19.993	103.899	19.898	2.898	0.469
431.999	301.177	80.012	19.992	103.899	19.899	2.798	0.508
432.499	301.400	80.012	19.992	103.899	19.897	3.004	0.523
433.000	301.668	80.012	19.992	103.899	19.901	2.649	0.497
433.500	301.947	80.012	19.992	103.900	19.901	2.701	0.519
434.001	302.142	80.010	19.992	103.900	19.903	2.555	0.511
434.500	302.390	80.013	19.993	103.899	19.901	2.701	0.458
434.999	302.695	80.012	19.992	103.899	19.903	2.557	0.498
435.499	302.921	80.012	19.993	103.899	19.899	2.789	0.542
435.999	303.213	80.010	19.992	103.898	19.900	2.779	0.524
436.499	303.425	80.012	19.993	103.899	19.904	2.468	0.511
437.000	303.684	80.011	19.993	103.899	19.902	2.593	0.488
437.501	303.961	80.012	19.993	103.899	19.901	2.639	0.503
438.001	304.174	80.010	19.993	103.900	19.900	2.723	0.513
438.500	304.422	80.011	19.993	103.900	19.902	2.611	0.476
438.999	304.671	80.009	19.993	103.901	19.901	2.693	0.479
439.499	304.940	80.011	19.992	103.902	19.900	2.761	0.507
439.999	305.211	80.011	19.993	103.902	19.902	2.593	0.529
440.499	305.407	80.010	19.993	103.903	19.902	2.627	0.504
440.999	305.704	80.010	19.993	103.903	19.901	2.645	0.479
441.500	305.933	80.011	19.993	103.903	19.902	2.627	0.509
442.001	306.195	80.010	19.993	103.902	19.903	2.541	0.509
442.500	306.456	80.010	19.993	103.902	19.901	2.687	0.507
443.000	306.663	80.010	19.993	103.902	19.904	2.435	0.496
443.500	306.953	80.009	19.993	103.901	19.900	2.713	0.482
443.999	307.200	80.009	19.994	103.902	19.902	2.587	0.516
444.500	307.438	80.010	19.992	103.902	19.904	2.473	0.511
445.001	307.675	80.008	19.994	103.902	19.902	2.567	0.480
445.500	307.927	80.010	19.994	103.903	19.902	2.635	0.482
445.999	308.181	80.008	19.993	103.903	19.902	2.595	0.497
446.500	308.446	80.010	19.993	103.907	19.900	2.727	0.513
447.000	308.675	80.010	19.995	103.910	19.901	2.663	0.506
447.500	308.963	80.008	19.994	103.912	19.899	2.856	0.505
448.000	309.239	80.009	19.993	103.916	19.903	2.531	0.541
448.499	309.493	80.010	19.994	103.916	19.904	2.447	0.547
448.999	309.725	80.009	19.994	103.912	19.904	2.441	0.508
449.499	309.962	80.010	19.993	103.910	19.904	2.431	0.478
449.999	310.248	80.010	19.994	103.908	19.903	2.557	0.497
450.500	310.508	80.009	19.993	103.905	19.900	2.759	0.535
451.001	310.713	80.009	19.993	103.904	19.904	2.423	0.505
451.500	310.977	80.010	19.993	103.904	19.902	2.597	0.467
452.000	311.194	80.009	19.994	103.902	19.902	2.595	0.475
452.499	311.520	80.011	19.994	103.901	19.903	2.493	0.512
452.999	311.728	80.008	19.994	103.901	19.904	2.417	0.539
453.499	312.014	80.010	19.993	103.901	19.906	2.334	0.514
453.999	312.254	80.011	19.994	103.901	19.904	2.435	0.510
454.499	312.508	80.010	19.993	103.901	19.904	2.467	0.510
454.999	312.771	80.010	19.994	103.902	19.904	2.431	0.505
455.499	313.050	80.010	19.995	103.902	19.902	2.593	0.530
455.999	313.281	80.009	19.994	103.904	19.901	2.681	0.526
456.499	313.550	80.010	19.994	103.907	19.903	2.539	0.505
456.999	313.781	80.012	19.993	103.907	19.903	2.519	0.500
457.499	314.051	80.011	19.993	103.907	19.902	2.593	0.500
458.000	314.303	80.010	19.993	103.907	19.903	2.529	0.512
458.501	314.560	80.011	19.993	103.904	19.902	2.605	0.516
459.000	314.823	80.011	19.993	103.902	19.903	2.563	0.514
459.500	315.058	80.012	19.993	103.902	19.902	2.579	0.509
459.999	315.281	80.011	19.993	103.901	19.901	2.669	0.478
460.499	315.539	80.010	19.993	103.902	19.899	2.810	0.469
460.999	315.769	80.011	19.993	103.903	19.899	2.806	0.485
461.499	316.032	80.012	19.992	103.903	19.899	2.854	0.491
462.000	316.272	80.011	19.993	103.902	19.901	2.685	0.498
462.500	316.510	80.012	19.992	103.903	19.897	3.002	0.491
462.999	316.791	80.013	19.993	103.903	19.897	2.942	0.499
463.499	317.059	80.012	19.993	103.902	19.899	2.850	0.534
464.000	317.310	80.012	19.992	103.901	19.898	2.894	0.534
464.500	317.551	80.011	19.993	103.901	19.899	2.812	0.506
465.000	317.789	80.012	19.993	103.901	19.900	2.765	0.486
465.500	318.059	80.011	19.993	103.900	19.899	2.830	0.493
466.000	318.280	80.011	19.994	103.901	19.900	2.768	0.500
466.501	318.512	80.011	19.994	103.902	19.898	2.900	0.472
467.000	318.789	80.010	19.993	103.901	19.899	2.798	0.480
467.500	319.059	80.010	19.993	103.901	19.902	2.621	0.528
468.001	319.267	80.011	19.993	103.901	19.901	2.686	0.513
468.501	319.534	80.012	19.993	103.901	19.899	2.802	0.477
469.001	319.765	80.012	19.994	103.901	19.901	2.700	0.487
469.501	320.041	80.010	19.994	103.901	19.900	2.712	0.503
470.001	320.228	80.011	19.993	103.901	19.900	2.780	0.485
470.500	320.502	80.010	19.993	103.900	19.901	2.667	0.462
471.000	320.742	80.010	19.994	103.899	19.899	2.814	0.487
471.501	321.049	80.011	19.993	103.899	19.897	2.936	0.530
472.000	321.254	80.010	19.994	103.899	19.899	2.822	0.530
472.499	321.498	80.011	19.994	103.899	19.902	2.579	0.481
472.999	321.778	80.010	19.993	103.897	19.899	2.850	0.486
473.499	321.992	80.012	19.993	103.898	19.899	2.828	0.509
473.999	322.211	80.012	19.995	103.898	19.903	2.525	0.464
474.500	322.494	80.011	19.994	103.904	19.902	2.587	0.468
475.000	322.727	80.011	19.994	103.905	19.904	2.457	0.509
475.500	322.978	80.010	19.994	103.906	19.901	2.709	0.500
476.001	323.212	80.010	19.995	103.905	19.902	2.583	0.485
476.501	323.486	80.011	19.994	103.905	19.901	2.671	0.496
477.001	323.746	80.011	19.994	103.899	19.902	2.623	0.520
477.500	323.985	80.011	19.994	103.898	19.905	2.359	0.516
477.999	324.255	80.010	19.994	103.895	19.904	2.479	0.504
478.500	324.509	80.010	19.993	103.890	19.901	2.653	0.517
479.000	324.725	80.011	19.994	103.889	19.904	2.483	0.498
479.499	324.964	80.011	19.994	103.890	19.905	2.353	0.463
479.999	325.259	80.011	19.994	103.891	19.904	2.457	0.494
480.499	325.462	80.010	19.994	103.894	19.902	2.611	0.516
481.000	325.722	80.011	19.993	103.899	19.905	2.356	0.480
481.500	326.003	80.012	19.994	103.899	19.903	2.517	0.502
481.999	326.242	80.010	19.994	103.898	19.901	2.705	0.531
482.499	326.520	80.012	19.994	103.897	19.903	2.511	0.519
482.999	326.769	80.010	19.993	103.896	19.903	2.555	0.522
483.500	327.036	80.011	19.994	103.894	19.904	2.455	0.522
484.000	327.280	80.013	19.994	103.893	19.901	2.691	0.513
484.500	327.530	80.013	19.994	103.893	19.900	2.715	0.502
485.000	327.743	80.012	19.994	103.894	19.903	2.561	0.478
485.499	327.982	80.012	19.994	103.895	19.905	2.360	0.458
486.000	328.260	80.013	19.993	103.897	19.900	2.738	0.485
486.500	328.542	80.012	19.994	103.897	19.903	2.533	0.538
487.000	328.804	80.012	19.993	103.896	19.903	2.511	0.552
487.501	329.024	80.014	19.993	103.896	19.903	2.559	0.513
488.001	329.273	80.015	19.993	103.896	19.903	2.537	0.475
488.500	329.568	80.014	19.992	103.894	19.906	2.272	0.506
488.999	329.799	80.014	19.993	103.894	19.904	2.423	0.535
489.499	330.057	80.014	19.992	103.895	19.902	2.591	0.508
490.000	330.312	80.013	19.992	103.896	19.905	2.374	0.501
490.500	330.564	80.013	19.993	103.897	19.902	2.581	0.510
491.000	330.802	80.014	19.993	103.898	19.905	2.401	0.498
491.500	331.086	80.013	19.994	103.899	19.904	2.485	0.506
492.000	331.322	80.013	19.992	103.898	19.903	2.491	0.521
492.500	331.601	80.011	19.992	103.898	19.905	2.389	0.518
493.000	331.844	80.011	19.992	103.898	19.901	2.653	0.519
493.500	332.101	80.012	19.992	103.899	19.904	2.455	0.511
494.000	332.320	80.012	19.992	103.900	19.904	2.443	0.488
494.500	332.641	80.013	19.993	103.902	19.904	2.479	0.508
495.000	332.869	80.011	19.993	103.900	19.902	2.619	0.544
495.500	333.152	80.011	19.993	103.900	19.905	2.374	0.530
496.000	333.368	80.011	19.993	103.900	19.906	2.330	0.505
496.501	333.643	80.011	19.994	103.900	19.905	2.398	0.495
497.001	333.870	80.010	19.993	103.899	19.902	2.585	0.496
497.500	334.154	80.010	19.993	103.899	19.905	2.411	0.506
498.000	334.394	80.010	19.994	103.899	19.902	2.587	0.517
498.499	334.668	80.011	19.994	103.899	19.906	2.326	0.519
498.999	334.919	80.011	19.993	103.899	19.904	2.455	0.520
499.499	335.189	80.011	19.993	103.899	19.904	2.469	0.523
500.000	335.427	80.010	19.993	103.899	19.901	2.693	0.514
500.500	335.674	80.011	19.993	103.899	19.901	2.665	0.496
501.000	335.912	80.010	19.993	103.900	19.903	2.517	0.485
501.500	336.180	80.011	19.993	103.900	19.902	2.583	0.496
502.000	336.436	80.010	19.993	103.900	19.904	2.417	0.515
502.500	336.722	80.010	19.993	103.900	19.902	2.575	0.533
502.999	336.965	80.010	19.993	103.900	19.905	2.366	0.535
503.499	337.246	80.011	19.993	103.900	19.904	2.477	0.527
504.000	337.440	80.010	19.993	103.900	19.906	2.298	0.500
504.500	337.743	80.011	19.992	103.900	19.905	2.358	0.486
504.999	337.976	80.009	19.992	103.901	19.906	2.294	0.516
505.499	338.261	80.009	19.993	103.902	19.903	2.527	0.527
506.000	338.499	80.010	19.992	103.903	19.906	2.288	0.521
506.500	338.748	80.008	19.993	103.905	19.905	2.409	0.505
506.999	339.009	80.009	19.993	103.905	19.905	2.375	0.498
507.499	339.261	80.009	19.993	103.905	19.905	2.361	0.511
508.000	339.465	80.009	19.992	103.903	19.905	2.355	0.484
508.499	339.777	80.009	19.993	103.902	19.907	2.240	0.486
509.000	340.002	80.010	19.993	103.899	19.903	2.543	0.527
509.500	340.284	80.011	19.994	103.898	19.906	2.278	0.522
509.999	340.538	80.010	19.993	103.897	19.905	2.369	0.521
510.499	340.790	80.011	19.993	103.898	19.901	2.654	0.521
511.000	341.016	80.010	19.993	103.899	19.904	2.427	0.492
511.501	341.284	80.011	19.992	103.901	19.901	2.656	0.486
512.000	341.538	80.009	19.993	103.902	19.904	2.453	0.508
512.499	341.791	80.010	19.993	103.903	19.904	2.473	0.514
512.999	342.019	80.010	19.994	103.903	19.904	2.487	0.494
513.499	342.321	80.010	19.994	103.902	19.905	2.362	0.506
513.999	342.536	80.010	19.994	103.902	19.906	2.334	0.524
514.500	342.782	80.010	19.994	103.902	19.903	2.563	0.489
514.999	343.053	80.010	19.990	103.901	19.905	2.413	0.489
515.499	343.291	80.011	19.992	103.901	19.905	2.396	0.513
515.999	343.569	80.011	19.994	103.900	19.904	2.489	0.513
516.500	343.800	80.011	19.994	103.898	19.903	2.511	0.513
517.001	344.075	80.011	19.993	103.898	19.901	2.645	0.507
517.500	344.312	80.010	19.993	103.895	19.905	2.378	0.509
518.000	344.578	80.012	19.994	103.895	19.904	2.457	0.507
518.500	344.799	80.011	19.994	103.895	19.904	2.457	0.495
519.000	345.103	80.011	19.993	103.897	19.904	2.447	0.506
519.499	345.342	80.011	19.994	103.894	19.902	2.575	0.534
519.999	345.559	80.011	19.993	103.891	19.902	2.603	0.500
520.499	345.812	80.010	19.990	103.890	19.901	2.669	0.463
520.999	346.088	80.010	19.993	103.887	19.902	2.589	0.499
521.499	346.357	80.010	19.992	103.882	19.903	2.493	0.537
522.000	346.613	80.010	19.992	103.884	19.903	2.525	0.535
522.501	346.863	80.010	19.993	103.888	19.903	2.533	0.516
523.000	347.122	80.010	19.992	103.889	19.902	2.629	0.507
523.500	347.356	80.010	19.992	103.892	19.904	2.465	0.501
524.001	347.610	80.011	19.993	103.898	19.899	2.852	0.490
524.500	347.850	80.010	19.993	103.899	19.903	2.535	0.491
524.999	348.123	80.009	19.993	103.900	19.904	2.457	0.504
525.500	348.376	80.010	19.993	103.902	19.903	2.519	0.520
525.999	348.614	80.009	19.992	103.902	19.904	2.477	0.509
526.500	348.876	80.009	19.992	103.902	19.903	2.561	0.496
527.001	349.133	80.010	19.992	103.902	19.901	2.683	0.510
527.500	349.388	80.010	19.993	103.902	19.901	2.675	0.515
527.999	349.641	80.009	19.992	103.901	19.900	2.742	0.510
528.500	349.953	80.010	19.993	103.901	19.900	2.730	0.536
529.000	350.167	80.010	19.993	103.900	19.900	2.750	0.546
529.499	350.404	80.009	19.992	103.901	19.901	2.661	0.489
529.999	350.656	80.009	19.993	103.902	19.900	2.750	0.470
530.500	350.926	80.010	19.993	103.903	19.902	2.603	0.505
531.001	351.191	80.009	19.992	103.903	19.900	2.770	0.528
531.500	351.409	80.010	19.992	103.902	19.899	2.818	0.509
531.999	351.703	80.009	19.993	103.902	19.902	2.579	0.498
532.500	351.934	80.009	19.992	103.902	19.900	2.718	0.518
533.001	352.201	80.009	19.993	103.901	19.902	2.621	0.511
533.500	352.427	80.011	19.993	103.901	19.900	2.748	0.496
533.999	352.698	80.010	19.992	103.900	19.900	2.742	0.495
534.499	352.943	80.010	19.993	103.900	19.897	2.956	0.507
534.999	353.206	80.011	19.993	103.899	19.900	2.768	0.512
535.499	353.472	80.011	19.993	103.899	19.900	2.730	0.518
535.999	353.740	80.011	19.994	103.900	19.900	2.768	0.531
536.499	353.994	80.010	19.994	103.902	19.901	2.649	0.528
536.999	354.251	80.011	19.993	103.901	19.900	2.760	0.517
537.499	354.503	80.011	19.992	103.896	19.898	2.898	0.510
538.000	354.729	80.012	19.992	103.894	19.898	2.864	0.494
538.499	355.025	80.011	19.995	103.894	19.898	2.912	0.500
538.999	355.251	80.012	19.993	103.890	19.900	2.748	0.522
539.499	355.510	80.011	19.993	103.889	19.901	2.666	0.503
539.999	355.759	80.011	19.993	103.892	19.899	2.814	0.496
540.499	356.035	80.010	19.993	103.893	19.898	2.904	0.516
541.000	356.242	80.011	19.994	103.891	19.903	2.553	0.504
541.500	356.502	80.011	19.993	103.893	19.901	2.692	0.475
541.999	356.739	80.011	19.993	103.894	19.899	2.850	0.482
542.500	357.001	80.011	19.993	103.889	19.902	2.633	0.498
543.000	357.236	80.012	19.992	103.889	19.901	2.682	0.498
543.499	357.511	80.012	19.993	103.890	19.901	2.674	0.504
543.999	357.764	80.011	19.993	103.891	19.902	2.605	0.519
544.500	358.011	80.011	19.993	103.891	19.903	2.525	0.514
545.000	358.252	80.012	19.995	103.895	19.899	2.806	0.494
545.501	358.530	80.011	19.994	103.896	19.899	2.810	0.503
546.001	358.804	80.013	19.994	103.897	19.904	2.465	0.536
546.501	359.025	80.012	19.994	103.895	19.900	2.744	0.523
547.001	359.286	80.012	19.995	103.895	19.900	2.728	0.488
547.500	359.509	80.012	19.993	103.895	19.903	2.555	0.483
547.999	359.801	80.012	19.993	103.894	19.899	2.808	0.500
548.500	360.025	80.012	19.992	103.888	19.901	2.641	0.516
549.001	360.283	80.013	19.993	103.883	19.901	2.685	0.499
549.501	360.516	80.013	19.994	103.882	19.903	2.561	0.486
550.000	360.799	80.013	19.994	103.882	19.901	2.655	0.503
550.499	361.028	80.012	19.995	103.883	19.902	2.575	0.514
550.999	361.261	80.012	19.991	103.888	19.901	2.644	0.487
551.500	361.538	80.011	19.993	103.894	19.898	2.912	0.486
551.999	361.796	80.012	19.993	103.892	19.901	2.649	0.523
552.499	362.045	80.012	19.995	103.890	19.904	2.459	0.521
553.000	362.278	80.014	19.992	103.890	19.902	2.583	0.494
553.500	362.538	80.011	19.994	103.889	19.905	2.411	0.488
554.000	362.781	80.012	19.994	103.888	19.904	2.439	0.498
554.500	363.080	80.013	19.993	103.891	19.905	2.361	0.523
555.000	363.298	80.012	19.994	103.893	19.905	2.355	0.530
555.501	363.515	80.013	19.993	103.893	19.903	2.495	0.476
556.000	363.818	80.012	19.993	103.894	19.900	2.722	0.477
556.499	364.047	80.013	19.993	103.895	19.902	2.569	0.526
556.999	364.306	80.012	19.993	103.894	19.903	2.533	0.510
557.499	364.541	80.011	19.993	103.892	19.900	2.716	0.491
557.999	364.851	80.012	19.994	103.890	19.904	2.421	0.520
558.499	365.088	80.012	19.993	103.892	19.901	2.698	0.546
559.000	365.303	80.011	19.992	103.893	19.899	2.832	0.499
559.499	365.561	80.010	19.994	103.894	19.900	2.736	0.462
560.000	365.790	80.011	19.995	103.894	19.904	2.421	0.480
560.500	366.084	80.011	19.993	103.895	19.903	2.545	0.505
560.999	366.341	80.012	19.994	103.892	19.904	2.473	0.537
561.500	366.557	80.012	19.994	103.889	19.904	2.463	0.512
562.000	366.805	80.013	19.992	103.888	19.904	2.443	0.469
562.499	367.033	80.011	19.991	103.890	19.902	2.625	0.470
562.999	367.328	80.011	19.992	103.890	19.903	2.543	0.499
563.499	367.569	80.012	19.993	103.891	19.902	2.603	0.530
563.999	367.825	80.013	19.992	103.888	19.900	2.742	0.517
564.499	368.100	80.012	19.994	103.889	19.903	2.561	0.514
564.999	368.326	80.012	19.993	103.885	19.904	2.483	0.516
565.499	368.564	80.013	19.994	103.881	19.901	2.657	0.483
565.999	368.836	80.012	19.994	103.882	19.902	2.575	0.487
566.499	369.116	80.012	19.993	103.888	19.902	2.597	0.531
566.999	369.365	80.012	19.995	103.888	19.901	2.665	0.540
567.500	369.619	80.013	19.993	103.890	19.902	2.571	0.516
568.001	369.855	80.012	19.994	103.886	19.901	2.644	0.497
568.500	370.163	80.013	19.993	103.882	19.904	2.485	0.517
568.999	370.370	80.013	19.994	103.881	19.900	2.712	0.529
569.500	370.614	80.012	19.995	103.881	19.903	2.543	0.483
570.000	370.842	80.013	19.993	103.881	19.902	2.597	0.462
570.499	371.132	80.011	19.994	103.887	19.898	2.864	0.495
571.000	371.308	80.014	19.992	103.886	19.902	2.619	0.492
571.500	371.614	80.013	19.991	103.887	19.901	2.670	0.474
571.999	371.870	80.014	19.994	103.888	19.904	2.463	0.522
572.500	372.099	80.012	19.994	103.889	19.897	2.967	0.523
573.001	372.369	80.013	19.994	103.892	19.895	3.097	0.492
573.500	372.626	80.011	19.992	103.896	19.905	2.393	0.513
573.999	372.900	80.012	19.994	103.890	19.902	2.626	0.529
574.500	373.170	80.012	19.994	103.888	19.891	3.436	0.537
575.000	373.414	80.011	19.993	103.888	19.902	2.575	0.529
575.499	373.679	80.011	19.994	103.887	19.896	3.035	0.511
576.000	373.933	80.010	19.995	103.888	19.897	2.977	0.513
576.500	374.157	80.010	19.994	103.894	19.903	2.517	0.498
576.999	374.440	80.011	19.994	103.897	19.898	2.922	0.493
577.500	374.646	80.010	19.994	103.896	19.901	2.653	0.498
578.001	374.935	80.010	19.994	103.893	19.899	2.832	0.492
578.501	375.210	80.009	19.993	103.890	19.897	2.976	0.530
579.000	375.463	80.010	19.994	103.884	19.898	2.862	0.546
579.499	375.707	80.009	19.994	103.885	19.902	2.565	0.513
580.000	375.988	80.010	19.994	103.886	19.902	2.567	0.511
580.500	376.184	80.009	19.995	103.889	19.899	2.846	0.501
581.000	376.423	80.008	19.995	103.891	19.902	2.599	0.456
581.500	376.726	80.009	19.994	103.892	19.900	2.725	0.489
581.999	376.991	80.009	19.994	103.887	19.902	2.605	0.555
582.500	377.225	80.009	19.994	103.884	19.898	2.898	0.533
583.000	377.452	80.010	19.994	103.878	19.899	2.804	0.479
583.501	377.734	80.010	19.995	103.875	19.895	3.085	0.485
584.000	378.077	80.010	19.994	103.879	19.898	2.878	0.568
584.499	378.268	80.009	19.994	103.884	19.897	2.972	0.580
585.000	378.475	80.011	19.993	103.887	19.897	3.002	0.466
585.500	378.675	80.010	19.994	103.889	19.899	2.824	0.402
585.999	379.125	80.009	19.992	103.891	19.899	2.810	0.529
586.499	379.172	80.012	19.993	103.889	19.899	2.824	0.574
586.999	379.683	80.009	19.994	103.887	19.897	2.967	0.528
587.500	380.065	80.009	19.994	103.886	19.901	2.698	0.726
588.000	380.288	80.012	19.991	103.890	19.899	2.794	0.749
588.499	380.083	80.010	19.993	103.891	19.901	2.668	0.311
589.000	380.507	80.010	19.993	103.894	19.902	2.575	0.118
589.500	380.747	80.010	19.993	103.897	19.899	2.822	0.441
589.999	380.745	80.011	19.992	103.898	19.902	2.585	0.451
590.500	381.470	80.009	19.993	103.897	19.897	2.940	0.481
591.000	381.363	80.009	19.992	103.898	19.900	2.774	0.670
591.500	381.994	80.010	19.993	103.899	19.900	2.713	0.571
592.000	382.047	80.009	19.993	103.900	19.898	2.906	0.604
592.500	382.326	80.009	19.992	103.899	19.899	2.844	0.508
593.000	382.527	80.010	19.993	103.901	19.900	2.740	0.406
593.500	382.795	80.008	19.994	103.901	19.897	2.944	0.475
594.000	383.152	80.009	19.992	103.901	19.898	2.876	0.547
594.500	383.318	80.010	19.993	103.898	19.901	2.648	0.574
595.001	383.606	80.009	19.993	103.897	19.900	2.764	0.488
595.500	383.817	80.009	19.994	103.893	19.898	2.909	0.477
595.999	384.131	80.009	19.991	103.892	19.898	2.904	0.512
596.499	384.335	80.009	19.991	103.891	19.902	2.595	0.522
596.999	384.693	80.010	19.992	103.892	19.899	2.834	0.540
597.500	384.780	80.009	19.992	103.885	19.898	2.932	0.503
598.001	385.212	80.011	19.992	103.884	19.902	2.631	0.482
598.500	385.325	80.010	19.993	103.885	19.898	2.926	0.532
598.999	385.632	80.011	19.992	103.887	19.899	2.818	0.482
599.500	385.883	80.010	19.992	103.883	19.899	2.856	0.489
600.000	386.120	80.011	19.992	103.890	19.900	2.734	0.524
600.499	386.428	80.011	19.994	103.895	19.899	2.820	0.517
600.999	386.664	80.012	19.994	103.895	19.900	2.750	0.544
601.500	386.898	80.011	19.993	103.895	19.899	2.792	0.507
602.001	387.227	80.011	19.995	103.900	19.901	2.668	0.516
602.500	387.437	80.011	19.992	103.899	19.899	2.840	0.550
602.999	387.679	80.012	19.992	103.899	19.902	2.605	0.495
603.499	387.913	80.011	19.992	103.898	19.899	2.850	0.464
604.000	388.238	80.010	19.994	103.895	19.899	2.802	0.518
604.500	388.434	80.011	19.993	103.887	19.898	2.882	0.540
605.000	388.690	80.009	19.993	103.880	19.897	2.937	0.486
605.500	389.016	80.011	19.993	103.876	19.899	2.788	0.517
606.000	389.213	80.011	19.994	103.873	19.899	2.812	0.553
606.499	389.485	80.008	19.993	103.875	19.902	2.581	0.496
606.999	389.723	80.011	19.993	103.882	19.902	2.617	0.490
607.499	389.990	80.009	19.993	103.889	19.903	2.555	0.508
608.000	390.214	80.009	19.997	103.891	19.898	2.876	0.498
608.500	390.504	80.009	19.991	103.894	19.901	2.674	0.502
609.000	390.800	80.009	19.994	103.893	19.899	2.795	0.550
609.501	390.985	80.010	19.993	103.890	19.901	2.678	0.533
610.001	391.290	80.011	19.993	103.887	19.897	2.941	0.485
610.500	391.518	80.012	19.994	103.887	19.899	2.798	0.512
611.000	391.799	80.010	19.994	103.887	19.900	2.744	0.521
611.501	392.028	80.008	19.994	103.887	19.902	2.622	0.509
612.000	392.342	80.011	19.993	103.891	19.902	2.600	0.526
612.500	392.606	80.010	19.992	103.893	19.900	2.726	0.561
613.001	392.835	80.010	19.994	103.889	19.900	2.780	0.535
613.501	393.098	80.011	19.997	103.887	19.900	2.744	0.492
614.000	393.376	80.012	19.994	103.886	19.900	2.712	0.516
614.499	393.628	80.009	19.993	103.884	19.900	2.724	0.536
614.999	393.877	80.009	19.993	103.882	19.901	2.684	0.515
615.499	394.127	80.009	19.990	103.879	19.900	2.740	0.500
615.999	394.428	80.011	19.992	103.878	19.902	2.582	0.525
616.500	394.658	80.009	19.994	103.879	19.901	2.646	0.542
617.000	394.899	80.012	19.993	103.881	19.899	2.812	0.501
617.500	395.163	80.009	19.993	103.885	19.902	2.568	0.488
617.999	395.449	80.010	19.992	103.889	19.901	2.686	0.527
618.499	395.690	80.010	19.993	103.886	19.897	2.973	0.539
618.999	395.936	80.011	19.992	103.879	19.901	2.702	0.507
619.500	396.175	80.009	19.993	103.873	19.901	2.680	0.486
620.000	396.438	80.010	19.993	103.868	19.900	2.740	0.493
620.499	396.743	80.010	19.993	103.867	19.899	2.814	0.535
620.999	396.982	80.010	19.993	103.873	19.898	2.884	0.556
621.499	397.208	80.009	19.994	103.878	19.900	2.780	0.504
622.000	397.463	80.011	19.994	103.883	19.898	2.881	0.473
622.501	397.736	80.011	19.993	103.884	19.901	2.692	0.504
623.001	398.005	80.009	19.995	103.880	19.898	2.864	0.535
623.501	398.229	80.009	19.994	103.876	19.899	2.814	0.518
624.001	398.510	80.010	19.993	103.876	19.904	2.439	0.499
624.500	398.770	80.012	19.992	103.877	19.899	2.838	0.523
625.000	399.041	80.011	19.993	103.880	19.901	2.648	0.536
625.501	399.295	80.010	19.992	103.883	19.901	2.638	0.527
626.000	399.557	80.011	19.991	103.884	19.902	2.581	0.520
626.500	399.760	80.013	19.992	103.882	19.902	2.611	0.491
627.000	400.080	80.013	19.992	103.878	19.901	2.639	0.494
627.500	400.259	80.011	19.993	103.873	19.902	2.619	0.511
628.001	400.565	80.012	19.994	103.870	19.902	2.577	0.492
628.500	400.796	80.012	19.992	103.869	19.906	2.315	0.511
628.999	401.044	80.012	19.992	103.865	19.905	2.357	0.508
629.500	401.278	80.013	19.993	103.863	19.904	2.477	0.480
630.000	401.550	80.013	19.992	103.865	19.903	2.520	0.494
630.500	401.833	80.012	19.992	103.868	19.905	2.387	0.531
631.000	402.064	80.013	19.994	103.869	19.903	2.552	0.534
631.499	402.361	80.011	19.994	103.875	19.904	2.470	0.521
631.999	402.610	80.012	19.992	103.878	19.903	2.535	0.537
632.499	402.828	80.013	19.992	103.879	19.904	2.445	0.507
632.999	403.074	80.013	19.993	103.877	19.901	2.652	0.466
633.500	403.339	80.012	19.994	103.880	19.904	2.475	0.487
634.001	403.607	80.013	19.991	103.879	19.904	2.487	0.522
634.501	403.870	80.011	19.994	103.877	19.903	2.510	0.532
635.000	404.085	80.011	19.992	103.876	19.904	2.471	0.505
635.500	404.342	80.012	19.992	103.880	19.901	2.643	0.475
636.000	404.623	80.011	19.994	103.881	19.904	2.450	0.504
636.500	404.892	80.011	19.994	103.882	19.900	2.758	0.544
637.000	405.107	80.011	19.993	103.888	19.901	2.708	0.518
637.499	405.382	80.012	19.993	103.893	19.899	2.849	0.488
637.999	405.656	80.011	19.993	103.892	19.902	2.607	0.520
638.500	405.900	80.012	19.993	103.890	19.900	2.774	0.533
639.000	406.194	80.011	19.996	103.884	19.902	2.596	0.528
639.500	406.415	80.011	19.994	103.878	19.902	2.610	0.526
640.000	406.657	80.011	19.993	103.872	19.899	2.819	0.488
640.500	406.938	80.011	19.993	103.870	19.898	2.927	0.493
641.000	407.200	80.011	19.993	103.868	19.898	2.893	0.533
641.499	407.450	80.009	19.994	103.869	19.897	2.993	0.527
642.000	407.706	80.010	19.993	103.869	19.896	3.071	0.509
642.500	407.942	80.011	19.994	103.855	19.895	3.129	0.499
643.000	408.199	80.011	19.995	103.828	19.899	2.858	0.493
643.500	408.462	80.009	19.993	103.812	19.896	3.031	0.506
644.000	408.697	80.010	19.992	103.806	19.898	2.916	0.509
644.500	408.959	80.009	19.993	103.805	19.897	2.944	0.498
644.999	409.217	80.011	19.994	103.822	19.895	3.113	0.509
645.499	409.505	80.010	19.991	103.851	19.899	2.830	0.533
645.999	409.742	80.010	19.992	103.874	19.901	2.682	0.536
646.499	409.965	80.012	19.993	103.919	19.900	2.768	0.492
646.999	410.253	80.011	19.995	103.937	19.900	2.774	0.485
647.499	410.508	80.011	19.994	103.939	19.900	2.778	0.527
647.999	410.747	80.010	19.995	103.938	19.899	2.798	0.519
648.499	411.021	80.013	19.992	103.928	19.901	2.672	0.504
648.999	411.254	80.012	19.993	103.888	19.901	2.668	0.510
649.499	411.473	80.013	19.993	103.871	19.898	2.892	0.480
650.000	411.751	80.011	19.993	103.865	19.901	2.666	0.475
650.501	411.958	80.010	19.993	103.862	19.901	2.696	0.491
651.000	412.222	80.012	19.993	103.865	19.900	2.728	0.478
651.499	412.470	80.012	19.993	103.869	19.901	2.702	0.491
652.000	412.733	80.013	19.991	103.872	19.900	2.734	0.512
652.500	412.993	80.012	19.990	103.875	19.901	2.708	0.517
652.999	413.195	80.011	19.993	103.878	19.901	2.672	0.493
653.500	413.463	80.013	19.991	103.883	19.899	2.854	0.466
654.000	413.726	80.013	19.993	103.884	19.901	2.644	0.500
654.501	413.929	80.011	19.994	103.887	19.900	2.778	0.498
655.000	414.206	80.012	19.993	103.890	19.900	2.766	0.473
655.499	414.437	80.012	19.992	103.894	19.902	2.604	0.494
655.999	414.653	80.013	19.995	103.894	19.900	2.780	0.478
656.499	414.913	80.012	19.993	103.893	19.902	2.618	0.462
656.999	415.188	80.011	19.992	103.888	19.900	2.768	0.506
657.500	415.396	80.011	19.992	103.883	19.902	2.634	0.509
658.001	415.677	80.013	19.992	103.881	19.901	2.702	0.486
658.500	415.921	80.012	19.993	103.882	19.899	2.853	0.507
658.999	416.165	80.012	19.993	103.884	19.901	2.662	0.507
659.499	416.443	80.012	19.994	103.886	19.902	2.574	0.505
660.000	416.670	80.010	19.993	103.886	19.899	2.816	0.513
660.501	416.898	80.009	19.993	103.882	19.905	2.383	0.480
661.001	417.185	80.011	19.992	103.877	19.904	2.423	0.485
661.500	417.418	80.011	19.993	103.876	19.905	2.411	0.518
662.000	417.662	80.012	19.992	103.878	19.901	2.670	0.499
662.500	417.972	80.012	19.994	103.878	19.901	2.652	0.515
663.000	418.182	80.011	19.994	103.880	19.902	2.584	0.537
663.499	418.435	80.011	19.992	103.884	19.904	2.443	0.491
663.999	418.703	80.009	19.995	103.883	19.900	2.740	0.492
664.499	418.961	80.008	19.992	103.879	19.900	2.720	0.524
664.999	419.190	80.009	19.992	103.878	19.899	2.831	0.506
665.499	419.427	80.009	19.994	103.877	19.900	2.764	0.476
665.999	419.700	80.011	19.994	103.872	19.902	2.564	0.488
666.499	419.958	80.009	19.992	103.869	19.900	2.760	0.520
666.999	420.172	80.009	19.993	103.869	19.900	2.734	0.501
667.499	420.445	80.011	19.993	103.870	19.902	2.578	0.480
667.999	420.703	80.012	19.993	103.868	19.898	2.869	0.509
668.499	420.922	80.010	19.994	103.866	19.900	2.716	0.504
668.999	421.246	80.008	19.995	103.864	19.900	2.773	0.510
669.499	421.446	80.010	19.994	103.864	19.901	2.702	0.534
669.999	421.728	80.009	19.993	103.869	19.901	2.658	0.503
670.499	421.997	80.009	19.994	103.874	19.900	2.772	0.516
671.000	422.229	80.008	19.993	103.877	19.902	2.580	0.525
671.500	422.480	80.009	19.994	103.885	19.901	2.640	0.492
672.000	422.739	80.009	19.994	103.891	19.901	2.702	0.496
672.500	422.968	80.010	19.995	103.891	19.900	2.762	0.499
673.001	423.223	80.009	19.994	103.887	19.897	2.939	0.487
673.500	423.465	80.009	19.995	103.883	19.901	2.706	0.491
673.999	423.719	80.010	19.993	103.877	19.901	2.710	0.496
674.499	424.008	80.010	19.995	103.870	19.901	2.686	0.519
674.999	424.236	80.010	19.993	103.867	19.901	2.654	0.530
675.500	424.528	80.010	19.994	103.869	19.903	2.542	0.518
676.000	424.740	80.009	19.993	103.871	19.898	2.905	0.512
676.500	425.006	80.009	19.995	103.870	19.899	2.811	0.491
677.000	425.277	80.009	19.995	103.870	19.900	2.772	0.508
677.500	425.499	80.011	19.994	103.867	19.900	2.730	0.515
678.000	425.773	80.009	19.996	103.863	19.900	2.712	0.494
678.500	426.011	80.009	19.994	103.861	19.902	2.628	0.503
679.000	426.255	80.009	19.993	103.862	19.904	2.473	0.497
679.500	426.491	80.009	19.994	103.862	19.903	2.558	0.481
680.001	426.727	80.010	19.994	103.865	19.900	2.766	0.476
680.500	426.993	80.009	19.994	103.864	19.902	2.568	0.487
681.000	427.254	80.008	19.995	103.867	19.901	2.658	0.514
681.500	427.539	80.011	19.993	103.867	19.899	2.798	0.537
681.999	427.773	80.011	19.995	103.867	19.899	2.853	0.533
682.499	427.993	80.012	19.995	103.869	19.899	2.846	0.486
682.999	428.247	80.012	19.993	103.869	19.902	2.614	0.464
683.499	428.510	80.012	19.993	103.873	19.900	2.776	0.495
683.999	428.799	80.010	19.992	103.879	19.900	2.732	0.535
684.500	429.024	80.010	19.991	103.881	19.902	2.600	0.534
685.001	429.293	80.012	19.993	103.877	19.902	2.579	0.504
685.501	429.536	80.012	19.991	103.878	19.902	2.616	0.503
686.001	429.794	80.010	19.993	103.871	19.903	2.541	0.506
686.501	430.013	80.009	19.996	103.864	19.900	2.740	0.489
687.000	430.313	80.010	19.996	103.861	19.900	2.764	0.498
687.499	430.533	80.011	19.994	103.866	19.904	2.467	0.520
687.999	430.778	80.012	19.993	103.869	19.900	2.764	0.492
688.499	431.070	80.011	19.992	103.869	19.901	2.688	0.501
688.999	431.282	80.010	19.993	103.875	19.904	2.427	0.520
689.500	431.538	80.010	19.994	103.877	19.901	2.660	0.486
690.000	431.792	80.010	19.992	103.875	19.899	2.791	0.489
690.499	432.047	80.010	19.992	103.876	19.903	2.548	0.510
691.000	432.284	80.010	19.993	103.876	19.900	2.752	0.501
691.500	432.529	80.011	19.993	103.875	19.902	2.604	0.487
692.001	432.834	80.011	19.993	103.879	19.906	2.283	0.516
692.501	433.060	80.012	19.993	103.876	19.901	2.690	0.540
693.001	433.313	80.010	19.993	103.873	19.901	2.690	0.505
693.500	433.566	80.010	19.994	103.874	19.902	2.596	0.493
694.000	433.836	80.012	19.992	103.871	19.905	2.393	0.514
694.500	434.078	80.011	19.993	103.869	19.902	2.608	0.517
694.999	434.352	80.008	19.992	103.874	19.901	2.666	0.514
695.500	434.596	80.010	19.993	103.880	19.901	2.666	0.517
696.001	434.823	80.009	19.994	103.883	19.901	2.670	0.495
696.501	435.109	80.010	19.994	103.882	19.899	2.796	0.492
697.000	435.350	80.010	19.993	103.885	19.897	2.975	0.519
697.499	435.627	80.010	19.993	103.884	19.900	2.720	0.523
697.999	435.854	80.010	19.994	103.877	19.899	2.786	0.512
698.499	436.104	80.011	19.994	103.876	19.899	2.830	0.491
699.000	436.390	80.011	19.994	103.875	19.899	2.800	0.506
699.501	436.623	80.011	19.992	103.872	19.900	2.760	0.527
700.000	436.872	80.010	19.993	103.866	19.899	2.801	0.501
700.499	437.101	80.010	19.992	103.866	19.897	2.947	0.481
700.999	437.377	80.010	19.994	103.865	19.899	2.813	0.492
701.499	437.601	80.007	19.995	103.865	19.898	2.863	0.502
702.000	437.911	80.013	19.992	103.864	19.899	2.857	0.517
702.500	438.114	80.011	19.993	103.866	19.898	2.909	0.524
702.999	438.399	80.010	19.992	103.868	19.902	2.630	0.501
703.500	438.619	80.011	19.995	103.867	19.903	2.550	0.497
704.000	438.885	80.010	19.995	103.869	19.903	2.542	0.496
704.499	439.100	80.010	19.991	103.874	19.903	2.510	0.484
704.999	439.390	80.008	19.994	103.877	19.901	2.670	0.493
705.500	439.645	80.011	19.994	103.877	19.904	2.437	0.524
706.000	439.882	80.010	19.992	103.882	19.900	2.766	0.519
706.499	440.146	80.010	19.994	103.881	19.900	2.770	0.497
707.000	440.387	80.011	19.994	103.875	19.902	2.618	0.503
707.499	440.661	80.011	19.991	103.874	19.904	2.473	0.510
707.999	440.891	80.011	19.992	103.879	19.904	2.467	0.510
708.500	441.134	80.012	19.994	103.879	19.901	2.690	0.489
709.000	441.406	80.011	19.994	103.878	19.903	2.490	0.494
709.499	441.629	80.011	19.992	103.878	19.902	2.618	0.505
710.000	441.890	80.011	19.995	103.876	19.899	2.813	0.490
710.500	442.166	80.011	19.993	103.870	19.900	2.734	0.510
711.000	442.355	80.012	19.994	103.865	19.900	2.758	0.501
711.499	442.631	80.012	19.994	103.863	19.898	2.883	0.466
712.000	442.870	80.012	19.994	103.863	19.901	2.646	0.490
712.501	443.145	80.012	19.992	103.861	19.900	2.754	0.515
713.000	443.389	80.011	19.994	103.867	19.898	2.877	0.517
713.500	443.635	80.013	19.994	103.872	19.899	2.839	0.504
714.001	443.879	80.011	19.995	103.874	19.904	2.480	0.489
714.501	444.141	80.011	19.995	103.874	19.903	2.546	0.498
715.000	444.372	80.013	19.993	103.875	19.902	2.570	0.500
715.500	444.642	80.013	19.993	103.871	19.902	2.602	0.497
716.000	444.852	80.013	19.993	103.870	19.898	2.886	0.491
716.500	445.141	80.013	19.993	103.868	19.900	2.726	0.489
717.001	445.448	80.012	19.992	103.873	19.903	2.523	0.547
717.500	445.655	80.012	19.992	103.874	19.902	2.572	0.555
717.999	445.917	80.011	19.993	103.873	19.903	2.513	0.492
718.500	446.165	80.012	19.994	103.870	19.900	2.778	0.490
719.000	446.398	80.010	19.993	103.871	19.899	2.842	0.495
719.500	446.635	80.012	19.991	103.868	19.901	2.674	0.475
720.000	446.904	80.012	19.993	103.868	19.902	2.594	0.488
720.499	447.171	80.012	19.993	103.867	19.900	2.762	0.521
721.000	447.445	80.012	19.993	103.867	19.900	2.746	0.539
721.500	447.684	80.012	19.991	103.870	19.901	2.664	0.527
722.000	447.921	80.011	19.992	103.869	19.900	2.732	0.494
722.500	448.166	80.012	19.994	103.869	19.899	2.857	0.478
722.999	448.410	80.012	19.993	103.869	19.900	2.712	0.485
723.499	448.671	80.012	19.992	103.868	19.899	2.790	0.497
723.999	448.879	80.011	19.993	103.866	19.903	2.558	0.487
724.499	449.158	80.011	19.993	103.864	19.901	2.698	0.478
724.999	449.431	80.010	19.993	103.865	19.899	2.807	0.520
725.500	449.666	80.009	19.993	103.870	19.901	2.698	0.531
726.000	449.938	80.009	19.992	103.876	19.900	2.712	0.508
726.499	450.156	80.012	19.993	103.879	19.899	2.805	0.498
726.999	450.419	80.011	19.992	103.879	19.900	2.712	0.486
727.500	450.687	80.011	19.993	103.881	19.901	2.682	0.506
728.000	450.949	80.012	19.993	103.881	19.901	2.658	0.530
728.500	451.196	80.012	19.992	103.875	19.898	2.881	0.519
729.000	451.463	80.011	19.991	103.877	19.904	2.458	0.512
729.500	451.708	80.011	19.993	103.883	19.901	2.640	0.513
730.000	451.960	80.012	19.992	103.881	19.900	2.779	0.504
730.500	452.190	80.010	19.992	103.876	19.897	2.953	0.489
730.999	452.461	80.011	19.992	103.877	19.901	2.680	0.492
731.499	452.702	80.010	19.993	103.873	19.900	2.716	0.507
731.999	452.953	80.011	19.990	103.867	19.898	2.913	0.502
732.499	453.163	80.012	19.992	103.868	19.900	2.733	0.477
732.999	453.455	80.013	19.992	103.870	19.901	2.670	0.481
733.500	453.705	80.012	19.991	103.870	19.898	2.915	0.522
734.000	453.949	80.013	19.994	103.871	19.898	2.921	0.518
734.500	454.165	80.011	19.994	103.873	19.898	2.869	0.477
735.000	454.441	80.010	19.991	103.870	19.899	2.845	0.476
735.501	454.723	80.012	19.995	103.868	19.897	2.937	0.524
736.000	455.001	80.011	19.994	103.867	19.898	2.863	0.559
736.499	455.232	80.013	19.993	103.865	19.899	2.821	0.535
736.999	455.462	80.012	19.994	103.862	19.898	2.917	0.485
737.499	455.745	80.014	19.993	103.861	19.897	2.955	0.487
738.000	455.986	80.013	19.993	103.859	19.902	2.610	0.518
738.501	456.222	80.013	19.993	103.859	19.900	2.726	0.500
739.001	456.484	80.013	19.993	103.861	19.902	2.634	0.487
739.501	456.712	80.012	19.994	103.862	19.901	2.678	0.494
740.000	456.984	80.010	19.993	103.862	19.900	2.722	0.495
740.499	457.233	80.012	19.993	103.863	19.901	2.710	0.511
740.999	457.491	80.012	19.993	103.863	19.899	2.821	0.514
741.499	457.729	80.011	19.992	103.861	19.901	2.664	0.502
742.000	458.019	80.013	19.994	103.860	19.899	2.839	0.512
742.500	458.268	80.014	19.993	103.859	19.899	2.825	0.533
742.999	458.475	80.013	19.993	103.858	19.901	2.678	0.498
743.499	458.732	80.013	19.994	103.858	19.902	2.614	0.460
744.000	458.974	80.010	19.994	103.858	19.901	2.680	0.481
744.500	459.273	80.012	19.994	103.858	19.901	2.708	0.520
744.999	459.535	80.014	19.994	103.859	19.901	2.646	0.551
745.500	459.774	80.013	19.994	103.859	19.900	2.732	0.531
746.000	460.000	80.011	19.993	103.858	19.899	2.785	0.484
746.499	460.246	80.011	19.994	103.859	19.900	2.769	0.469
746.999	460.496	80.011	19.993	103.859	19.899	2.839	0.484
747.499	460.806	80.011	19.994	103.858	19.901	2.676	0.528
748.000	460.984	80.012	19.994	103.861	19.900	2.781	0.524
748.500	461.278	80.011	19.994	103.867	19.901	2.710	0.480
749.000	461.527	80.012	19.993	103.871	19.903	2.502	0.507
749.501	461.739	80.010	19.994	103.871	19.899	2.837	0.502
750.000	462.060	80.010	19.995	103.871	19.901	2.650	0.497
750.499	462.272	80.011	19.994	103.869	19.900	2.754	0.533
751.000	462.550	80.011	19.996	103.863	19.902	2.636	0.512
751.500	462.798	80.011	19.993	103.859	19.901	2.668	0.508
752.000	463.088	80.011	19.994	103.859	19.902	2.618	0.532
752.500	463.306	80.012	19.993	103.859	19.899	2.819	0.523
753.000	463.579	80.010	19.993	103.858	19.902	2.570	0.499
753.500	463.814	80.011	19.994	103.859	19.898	2.877	0.499
753.999	464.077	80.012	19.992	103.861	19.901	2.656	0.503
754.499	464.335	80.011	19.992	103.862	19.900	2.781	0.509
755.000	464.562	80.010	19.992	103.862	19.903	2.558	0.503
755.500	464.821	80.011	19.995	103.862	19.902	2.584	0.486
756.000	465.054	80.010	19.993	103.866	19.897	2.935	0.489
756.500	465.327	80.010	19.993	103.864	19.901	2.702	0.499
757.000	465.584	80.010	19.995	103.864	19.900	2.730	0.518
757.500	465.815	80.010	19.994	103.865	19.901	2.704	0.509
758.000	466.069	80.010	19.994	103.865	19.903	2.560	0.486
758.500	466.363	80.010	19.994	103.862	19.903	2.500	0.516
758.999	466.598	80.010	19.993	103.862	19.901	2.690	0.538
759.499	466.829	80.010	19.994	103.863	19.903	2.548	0.498
760.000	467.117	80.011	19.994	103.862	19.902	2.610	0.493
760.501	467.369	80.011	19.993	103.865	19.901	2.678	0.529
761.000	467.607	80.010	19.994	103.869	19.902	2.612	0.515
761.500	467.874	80.010	19.994	103.874	19.904	2.466	0.497
762.001	468.120	80.010	19.995	103.874	19.899	2.797	0.509
762.500	468.369	80.010	19.994	103.875	19.902	2.626	0.504
763.000	468.643	80.011	19.995	103.875	19.904	2.468	0.509
763.500	468.861	80.008	19.993	103.870	19.901	2.706	0.508
764.000	469.142	80.011	19.993	103.865	19.901	2.684	0.495
764.500	469.400	80.010	19.995	103.864	19.904	2.448	0.519
764.999	469.670	80.010	19.994	103.867	19.902	2.624	0.533
765.499	469.937	80.010	19.995	103.864	19.901	2.678	0.533
766.000	470.143	80.009	19.995	103.864	19.903	2.552	0.505
766.500	470.386	80.011	19.994	103.865	19.901	2.646	0.461
766.999	470.667	80.011	19.994	103.865	19.902	2.588	0.487
767.499	470.915	80.008	19.994	103.862	19.906	2.335	0.527
767.999	471.150	80.011	19.994	103.862	19.904	2.442	0.506
768.499	471.408	80.010	19.995	103.862	19.903	2.556	0.488
768.999	471.680	80.011	19.995	103.863	19.903	2.528	0.511
769.499	471.912	80.008	19.993	103.866	19.900	2.754	0.517
770.000	472.209	80.008	19.993	103.866	19.900	2.773	0.517
770.501	472.458	80.008	19.994	103.866	19.902	2.624	0.538
771.000	472.714	80.009	19.995	103.865	19.900	2.765	0.526
771.500	472.959	80.010	19.995	103.864	19.900	2.726	0.503
772.000	473.235	80.010	19.996	103.861	19.900	2.778	0.511
772.499	473.495	80.009	19.994	103.861	19.901	2.668	0.528
773.000	473.747	80.011	19.995	103.861	19.901	2.704	0.524
773.500	474.019	80.008	19.995	103.861	19.900	2.730	0.518
774.000	474.274	80.009	19.996	103.861	19.904	2.461	0.526
774.501	474.541	80.009	19.994	103.862	19.904	2.435	0.525
775.000	474.814	80.009	19.994	103.861	19.903	2.506	0.531
775.500	475.064	80.010	19.994	103.861	19.905	2.403	0.531
776.000	475.318	80.010	19.993	103.861	19.903	2.514	0.513
776.500	475.586	80.010	19.992	103.861	19.904	2.480	0.513
776.999	475.830	80.010	19.995	103.861	19.904	2.423	0.517
777.499	476.081	80.011	19.994	103.861	19.904	2.464	0.504
777.999	476.344	80.009	19.995	103.862	19.900	2.773	0.505
778.499	476.614	80.008	19.994	103.862	19.905	2.395	0.523
779.000	476.851	80.010	19.994	103.862	19.905	2.413	0.520
779.500	477.129	80.008	19.993	103.862	19.904	2.440	0.511
779.999	477.389	80.009	19.993	103.863	19.904	2.448	0.526
780.500	477.659	80.010	19.995	103.864	19.906	2.315	0.534
781.000	477.893	80.009	19.994	103.864	19.904	2.474	0.517
781.499	478.184	80.009	19.994	103.864	19.903	2.546	0.515
781.999	478.425	80.011	19.993	103.864	19.905	2.347	0.529
782.499	478.708	80.008	19.996	103.865	19.905	2.403	0.528
783.000	478.934	80.010	19.994	103.867	19.905	2.367	0.516
783.500	479.187	80.010	19.994	103.871	19.903	2.540	0.494
784.000	479.455	80.010	19.993	103.872	19.902	2.570	0.500
784.500	479.727	80.010	19.993	103.872	19.903	2.528	0.530
784.999	479.977	80.009	19.993	103.871	19.902	2.568	0.531
785.499	480.248	80.009	19.993	103.867	19.902	2.572	0.521
785.999	480.487	80.012	19.992	103.864	19.905	2.401	0.516
786.500	480.751	80.006	19.993	103.863	19.904	2.482	0.507
787.000	481.015	80.011	19.994	103.862	19.903	2.512	0.516
787.499	481.258	80.009	19.995	103.864	19.903	2.504	0.517
787.999	481.535	80.009	19.994	103.863	19.902	2.622	0.513
788.500	481.800	80.011	19.992	103.863	19.904	2.430	0.531
788.999	482.047	80.011	19.994	103.862	19.901	2.668	0.527
789.499	482.272	80.010	19.992	103.862	19.903	2.502	0.492
789.999	482.560	80.010	19.993	103.863	19.905	2.401	0.493
790.500	482.827	80.010	19.992	103.863	19.903	2.546	0.534
791.000	483.082	80.011	19.994	103.864	19.905	2.373	0.538
791.499	483.329	80.007	19.992	103.865	19.902	2.590	0.512
791.999	483.570	80.007	19.992	103.865	19.906	2.341	0.495
792.500	483.853	80.012	19.993	103.864	19.902	2.620	0.506
793.000	484.062	80.011	19.992	103.864	19.904	2.466	0.509
793.499	484.343	80.010	19.993	103.864	19.907	2.257	0.491
793.999	484.590	80.012	19.992	103.864	19.908	2.189	0.509
794.499	484.870	80.011	19.992	103.864	19.907	2.209	0.528
795.000	485.102	80.014	19.992	103.863	19.906	2.273	0.519
795.499	485.349	80.011	19.992	103.863	19.907	2.205	0.495
795.999	485.635	80.012	19.992	103.862	19.904	2.416	0.506
796.499	485.873	80.010	19.993	103.861	19.907	2.229	0.528
796.999	486.131	80.011	19.992	103.861	19.905	2.383	0.510
797.500	486.371	80.011	19.993	103.862	19.905	2.359	0.497
797.999	486.625	80.014	19.992	103.861	19.903	2.490	0.496
798.499	486.898	80.012	19.992	103.862	19.905	2.412	0.511
798.999	487.113	80.012	19.994	103.862	19.905	2.396	0.507
799.499	487.423	80.011	19.994	103.863	19.904	2.442	0.506
800.000	487.661	80.015	19.992	103.862	19.904	2.422	0.537
800.501	487.890	80.012	19.994	103.862	19.907	2.229	0.508
801.000	488.159	80.012	19.993	103.862	19.906	2.287	0.482
801.499	488.423	80.011	19.993	103.861	19.904	2.484	0.515
802.000	488.673	80.011	19.993	103.860	19.903	2.532	0.523
802.500	488.986	80.011	19.993	103.861	19.903	2.540	0.539
803.000	489.203	80.012	19.994	103.863	19.904	2.422	0.547
803.501	489.455	80.010	19.993	103.863	19.903	2.548	0.499
804.000	489.709	80.011	19.994	103.863	19.901	2.696	0.487
804.499	489.968	80.011	19.994	103.863	19.902	2.564	0.510
805.000	490.222	80.011	19.992	103.862	19.903	2.542	0.513
805.500	490.518	80.012	19.993	103.861	19.903	2.562	0.531
805.999	490.746	80.012	19.994	103.860	19.903	2.516	0.537
806.499	491.021	80.012	19.994	103.860	19.902	2.592	0.514
807.000	491.263	80.010	19.993	103.860	19.905	2.412	0.511
807.500	491.526	80.011	19.993	103.860	19.903	2.522	0.511
807.999	491.790	80.012	19.994	103.860	19.904	2.458	0.516
808.500	492.053	80.012	19.993	103.860	19.901	2.691	0.527
809.001	492.308	80.011	19.992	103.859	19.903	2.520	0.522
809.500	492.568	80.012	19.994	103.858	19.902	2.586	0.517
809.999	492.807	80.013	19.993	103.858	19.902	2.592	0.508
810.500	493.085	80.010	19.992	103.858	19.905	2.406	0.508
811.001	493.341	80.010	19.993	103.858	19.906	2.323	0.525
811.500	493.597	80.012	19.994	103.860	19.903	2.542	0.523
812.000	493.857	80.012	19.993	103.861	19.903	2.530	0.514
812.500	494.153	80.014	19.994	103.862	19.902	2.608	0.537
812.999	494.378	80.011	19.993	103.862	19.904	2.484	0.539
813.499	494.627	80.011	19.993	103.863	19.905	2.347	0.497
813.999	494.917	80.010	19.993	103.862	19.906	2.291	0.506
814.499	495.167	80.012	19.993	103.861	19.902	2.566	0.540
814.999	495.431	80.010	19.992	103.860	19.903	2.554	0.528
815.500	495.678	80.011	19.994	103.860	19.904	2.486	0.512
816.001	495.951	80.012	19.994	103.859	19.901	2.662	0.515
816.500	496.219	80.011	19.995	103.860	19.903	2.522	0.531
816.999	496.457	80.010	19.994	103.859	19.906	2.309	0.523
817.499	496.747	80.013	19.992	103.860	19.905	2.406	0.516
818.000	496.978	80.012	19.994	103.858	19.905	2.375	0.524
818.500	497.218	80.014	19.992	103.855	19.905	2.399	0.497
819.000	497.497	80.014	19.992	103.853	19.909	2.109	0.495
819.499	497.739	80.012	19.993	103.853	19.907	2.213	0.519
819.999	498.007	80.012	19.993	103.853	19.908	2.131	0.516
820.500	498.232	80.013	19.993	103.855	19.907	2.207	0.502
820.999	498.514	80.014	19.993	103.856	19.908	2.155	0.500
821.499	498.786	80.012	19.993	103.858	19.906	2.301	0.530
821.999	499.031	80.012	19.992	103.858	19.906	2.305	0.535
822.499	499.321	80.015	19.992	103.859	19.908	2.171	0.526
823.000	499.547	80.014	19.992	103.859	19.905	2.353	0.526
823.501	499.822	80.015	19.992	103.857	19.906	2.279	0.508
824.001	500.072	80.014	19.992	103.856	19.910	2.020	0.513
824.500	500.369	80.014	19.992	103.853	19.909	2.073	0.536
825.000	500.625	80.013	19.992	103.851	19.908	2.127	0.550
825.500	500.890	80.014	19.992	103.850	19.908	2.177	0.537
825.999	501.140	80.015	19.993	103.852	19.906	2.299	0.518
826.499	501.380	80.015	19.992	103.853	19.907	2.229	0.503
826.999	501.636	80.013	19.992	103.855	19.908	2.189	0.493
827.499	501.923	80.013	19.993	103.857	19.909	2.107	0.519
828.000	502.165	80.014	19.992	103.859	19.908	2.143	0.536
828.501	502.381	80.013	19.993	103.859	19.912	1.854	0.493
829.000	502.650	80.014	19.992	103.862	19.910	2.042	0.471
829.499	502.957	80.013	19.992	103.862	19.909	2.101	0.531
830.000	503.165	80.013	19.992	103.861	19.908	2.157	0.546
830.500	503.461	80.012	19.993	103.861	19.906	2.279	0.510
831.000	503.708	80.011	19.992	103.861	19.909	2.085	0.523
831.499	503.973	80.011	19.993	103.858	19.908	2.145	0.527
831.999	504.253	80.011	19.993	103.857	19.907	2.261	0.528
832.500	504.450	80.012	19.993	103.857	19.907	2.265	0.511
833.000	504.737	80.010	19.993	103.857	19.903	2.502	0.481
833.499	505.043	80.011	19.993	103.857	19.906	2.283	0.539
834.000	505.274	80.011	19.993	103.857	19.904	2.470	0.565
834.500	505.530	80.012	19.993	103.858	19.906	2.271	0.512
835.000	505.807	80.012	19.993	103.858	19.907	2.249	0.510
835.501	506.060	80.010	19.994	103.858	19.905	2.393	0.531
836.001	506.312	80.010	19.994	103.858	19.907	2.253	0.518
836.500	506.530	80.010	19.994	103.859	19.906	2.295	0.487
836.999	506.820	80.011	19.994	103.860	19.904	2.420	0.489
837.499	507.103	80.009	19.993	103.860	19.906	2.323	0.541
838.000	507.343	80.010	19.994	103.861	19.909	2.097	0.548
838.501	507.628	80.011	19.994	103.862	19.908	2.187	0.524
839.001	507.887	80.010	19.994	103.860	19.905	2.408	0.534
839.500	508.135	80.010	19.994	103.860	19.906	2.273	0.525
840.000	508.372	80.010	19.994	103.860	19.907	2.259	0.496
840.500	508.653	80.010	19.993	103.860	19.904	2.448	0.502
841.000	508.932	80.010	19.994	103.860	19.903	2.492	0.539
841.500	509.198	80.011	19.994	103.860	19.906	2.273	0.553
842.000	509.415	80.010	19.993	103.860	19.909	2.087	0.514
842.500	509.713	80.010	19.995	103.859	19.906	2.281	0.499
842.999	510.001	80.010	19.993	103.860	19.907	2.235	0.551
843.500	510.256	80.009	19.994	103.860	19.906	2.295	0.565
844.001	510.475	80.011	19.994	103.861	19.909	2.113	0.508
844.501	510.763	80.011	19.993	103.861	19.907	2.257	0.490
845.000	511.006	80.012	19.993	103.861	19.906	2.337	0.519
845.499	511.263	80.013	19.994	103.862	19.905	2.369	0.516
845.999	511.547	80.012	19.993	103.862	19.910	2.046	0.520
846.499	511.762	80.009	19.993	103.862	19.906	2.309	0.520
846.999	511.977	80.010	19.993	103.863	19.909	2.111	0.465
847.499	512.248	80.010	19.993	103.861	19.906	2.279	0.458
848.000	512.485	80.012	19.993	103.861	19.907	2.201	0.497
848.500	512.780	80.010	19.993	103.861	19.908	2.161	0.520
849.000	513.042	80.010	19.994	103.859	19.907	2.195	0.544
849.500	513.301	80.009	19.992	103.859	19.909	2.108	0.539
849.999	513.561	80.011	19.993	103.860	19.907	2.261	0.520
850.499	513.837	80.010	19.993	103.860	19.905	2.407	0.528
850.999	514.072	80.011	19.993	103.860	19.907	2.219	0.524
851.499	514.371	80.011	19.993	103.859	19.907	2.197	0.523
851.999	514.631	80.009	19.993	103.860	19.908	2.125	0.546
852.499	514.869	80.010	19.993	103.861	19.907	2.223	0.528
852.999	515.148	80.011	19.993	103.859	19.904	2.486	0.508
853.500	515.406	80.011	19.993	103.855	19.908	2.161	0.527
854.000	515.658	80.011	19.994	103.854	19.907	2.217	0.523
854.499	515.902	80.011	19.993	103.855	19.907	2.195	0.503
855.000	516.143	80.011	19.993	103.855	19.907	2.239	0.491
855.500	516.443	80.012	19.993	103.855	19.906	2.337	0.513
855.999	516.697	80.011	19.993	103.859	19.906	2.289	0.547
856.499	516.967	80.010	19.993	103.860	19.909	2.076	0.539
856.999	517.222	80.010	19.993	103.859	19.905	2.353	0.524
857.499	517.470	80.009	19.994	103.859	19.906	2.311	0.514
857.999	517.749	80.009	19.993	103.862	19.908	2.173	0.515
858.499	517.966	80.008	19.993	103.863	19.906	2.303	0.512
858.999	518.248	80.011	19.994	103.863	19.907	2.207	0.497
859.499	518.502	80.009	19.994	103.863	19.906	2.333	0.518
859.999	518.738	80.008	19.993	103.865	19.903	2.490	0.513
860.499	519.026	80.011	19.993	103.865	19.907	2.259	0.507
860.999	519.293	80.009	19.994	103.865	19.905	2.361	0.539
861.499	519.556	80.008	19.993	103.866	19.906	2.275	0.542
862.000	519.823	80.009	19.994	103.866	19.905	2.345	0.530
862.500	520.041	80.010	19.994	103.864	19.907	2.267	0.508
863.000	520.350	80.009	19.994	103.863	19.906	2.273	0.506
863.500	520.580	80.008	19.994	103.864	19.904	2.422	0.533
863.999	520.845	80.010	19.994	103.861	19.905	2.402	0.517
864.499	521.074	80.010	19.994	103.860	19.904	2.422	0.495
865.000	521.331	80.009	19.994	103.860	19.906	2.297	0.490
865.500	521.607	80.009	19.995	103.860	19.904	2.468	0.509
865.999	521.854	80.009	19.995	103.859	19.904	2.486	0.528
866.500	522.112	80.012	19.994	103.860	19.905	2.371	0.514
867.000	522.359	80.009	19.995	103.860	19.904	2.428	0.505
867.500	522.651	80.010	19.994	103.860	19.904	2.452	0.523
868.000	522.879	80.008	19.994	103.856	19.903	2.522	0.530
868.500	523.122	80.010	19.993	103.853	19.907	2.257	0.495
869.000	523.399	80.010	19.994	103.851	19.905	2.365	0.495
869.500	523.620	80.010	19.994	103.851	19.904	2.426	0.509
870.000	523.882	80.010	19.994	103.851	19.903	2.526	0.490
870.499	524.163	80.010	19.994	103.854	19.905	2.363	0.513
870.999	524.414	80.009	19.994	103.857	19.909	2.119	0.538
871.499	524.653	80.008	19.994	103.861	19.905	2.410	0.511
871.999	524.937	80.012	19.995	103.862	19.909	2.109	0.507
872.499	525.178	80.010	19.995	103.862	19.904	2.464	0.524
872.999	525.443	80.011	19.995	103.862	19.906	2.281	0.516
873.499	525.658	80.008	19.995	103.863	19.907	2.263	0.493
873.999	525.964	80.009	19.995	103.860	19.907	2.231	0.500
874.499	526.205	80.010	19.996	103.859	19.907	2.213	0.534
874.999	526.467	80.011	19.993	103.860	19.909	2.107	0.525
875.499	526.710	80.012	19.997	103.859	19.906	2.291	0.504
875.999	526.948	80.012	19.996	103.858	19.905	2.348	0.493
876.499	527.194	80.010	19.995	103.859	19.904	2.478	0.483
876.999	527.447	80.010	19.996	103.858	19.904	2.430	0.492
877.499	527.733	80.011	19.994	103.858	19.906	2.289	0.519
877.999	527.990	80.012	19.994	103.858	19.907	2.265	0.540
878.499	528.252	80.011	19.996	103.858	19.908	2.161	0.531
879.000	528.483	80.013	19.994	103.857	19.908	2.191	0.506
879.500	528.734	80.010	19.994	103.857	19.909	2.097	0.487
879.999	529.016	80.014	19.993	103.856	19.906	2.298	0.508
880.500	529.289	80.012	19.993	103.856	19.905	2.374	0.544
881.001	529.548	80.012	19.994	103.856	19.910	2.009	0.543
881.500	529.757	80.014	19.993	103.857	19.905	2.372	0.500
881.999	530.034	80.012	19.993	103.857	19.904	2.434	0.477
882.499	530.302	80.013	19.993	103.857	19.904	2.438	0.515
883.000	530.549	80.013	19.993	103.850	19.908	2.135	0.530
883.500	530.789	80.012	19.993	103.848	19.910	2.015	0.501
883.999	531.029	80.011	19.993	103.848	19.909	2.099	0.484
884.500	531.327	80.014	19.992	103.849	19.906	2.324	0.509
885.000	531.573	80.013	19.994	103.848	19.907	2.227	0.541
885.500	531.827	80.014	19.994	103.855	19.907	2.201	0.522
886.000	532.098	80.014	19.993	103.857	19.910	1.980	0.513
886.500	532.312	80.013	19.994	103.852	19.911	1.954	0.505
887.000	532.590	80.014	19.993	103.851	19.906	2.333	0.488
887.500	532.842	80.012	19.993	103.848	19.911	1.956	0.511
888.000	533.141	80.014	19.993	103.845	19.909	2.119	0.540
888.500	533.350	80.013	19.995	103.846	19.909	2.051	0.529
889.000	533.634	80.012	19.994	103.846	19.906	2.293	0.501
889.499	533.901	80.012	19.994	103.842	19.906	2.269	0.523
889.999	534.174	80.011	19.993	103.844	19.906	2.323	0.545
890.500	534.424	80.014	19.993	103.843	19.908	2.163	0.531
891.001	534.660	80.011	19.993	103.843	19.907	2.243	0.504
891.501	534.887	80.010	19.992	103.845	19.904	2.443	0.475
892.000	535.158	80.012	19.993	103.845	19.907	2.215	0.481
892.500	535.411	80.012	19.994	103.839	19.904	2.474	0.511
893.001	535.710	80.011	19.993	103.841	19.907	2.243	0.538
893.500	535.954	80.012	19.993	103.840	19.906	2.297	0.547
893.999	536.215	80.012	19.994	103.839	19.905	2.380	0.524
894.499	536.472	80.011	19.993	103.838	19.908	2.153	0.512
894.999	536.732	80.012	19.993	103.840	19.905	2.389	0.517
895.500	536.974	80.011	19.994	103.841	19.907	2.239	0.509
896.000	537.239	80.012	19.993	103.842	19.907	2.239	0.505
896.500	537.446	80.011	19.994	103.845	19.907	2.259	0.489
897.000	537.723	80.012	19.993	103.852	19.908	2.189	0.478
897.500	538.027	80.012	19.993	103.857	19.903	2.556	0.533
898.000	538.277	80.011	19.993	103.857	19.906	2.281	0.567
898.499	538.517	80.012	19.993	103.852	19.905	2.414	0.522
898.999	538.784	80.011	19.993	103.852	19.908	2.149	0.499
899.500	539.034	80.013	19.993	103.852	19.907	2.231	0.512
900.000	539.330	80.012	19.995	103.852	19.907	2.227	0.531
900.500	539.585	80.012	19.993	103.853	19.907	2.201	0.548
901.000	539.787	80.013	19.993	103.859	19.908	2.139	0.504
901.500	540.066	80.013	19.993	103.862	19.908	2.167	0.469
902.000	540.288	80.012	19.994	103.868	19.909	2.089	0.491
902.500	540.582	80.014	19.993	103.867	19.909	2.099	0.509
903.000	540.824	80.011	19.993	103.868	19.908	2.151	0.526
903.499	541.089	80.011	19.993	103.864	19.910	2.030	0.521
904.000	541.356	80.012	19.993	103.860	19.908	2.151	0.519
904.500	541.615	80.013	19.993	103.855	19.909	2.117	0.529
905.000	541.866	80.013	19.994	103.855	19.906	2.305	0.518
905.500	542.102	80.013	19.992	103.856	19.909	2.075	0.499
906.000	542.360	80.014	19.992	103.860	19.908	2.189	0.491
906.500	542.591	80.013	19.993	103.861	19.907	2.205	0.491
906.999	542.842	80.013	19.994	103.862	19.906	2.299	0.485
907.499	543.123	80.014	19.992	103.862	19.906	2.303	0.507
907.999	543.359	80.014	19.993	103.860	19.907	2.235	0.525
908.499	543.628	80.014	19.992	103.857	19.908	2.175	0.511
909.000	543.881	80.014	19.993	103.858	19.906	2.325	0.514
909.500	544.124	80.014	19.993	103.857	19.903	2.506	0.509
909.999	544.369	80.012	19.992	103.857	19.907	2.243	0.492
910.499	544.675	80.015	19.994	103.858	19.906	2.303	0.519
910.999	544.927	80.015	19.993	103.861	19.906	2.289	0.555
911.500	545.154	80.015	19.993	103.860	19.905	2.343	0.519
911.999	545.417	80.013	19.993	103.857	19.903	2.490	0.484
912.500	545.653	80.012	19.992	103.854	19.909	2.111	0.494
913.001	545.966	80.012	19.993	103.853	19.907	2.225	0.524
913.500	546.196	80.013	19.993	103.853	19.906	2.292	0.545
914.000	546.460	80.011	19.992	103.853	19.908	2.153	0.518
914.500	546.702	80.013	19.991	103.852	19.904	2.420	0.500
914.999	546.955	80.012	19.993	103.854	19.906	2.334	0.501
915.499	547.215	80.011	19.992	103.851	19.906	2.284	0.504
916.000	547.496	80.012	19.992	103.847	19.905	2.380	0.527
916.500	547.725	80.011	19.993	103.848	19.906	2.285	0.525
916.999	547.982	80.011	19.993	103.850	19.906	2.329	0.498
917.500	548.231	80.011	19.993	103.851	19.908	2.121	0.496
918.001	548.513	80.010	19.993	103.853	19.907	2.259	0.518
918.500	548.750	80.013	19.994	103.857	19.906	2.313	0.525
918.999	548.995	80.012	19.993	103.857	19.910	2.034	0.500
919.499	549.242	80.012	19.993	103.860	19.908	2.153	0.487
920.000	549.511	80.011	19.993	103.861	19.906	2.341	0.504
920.501	549.744	80.010	19.993	103.858	19.909	2.071	0.509
921.001	550.044	80.011	19.993	103.854	19.911	1.946	0.518
921.500	550.285	80.010	19.993	103.854	19.907	2.219	0.538
922.000	550.525	80.011	19.993	103.854	19.907	2.219	0.511
922.501	550.760	80.011	19.993	103.853	19.904	2.436	0.478
923.001	551.041	80.011	19.993	103.857	19.908	2.167	0.495
923.501	551.253	80.009	19.993	103.856	19.907	2.223	0.504
924.000	551.548	80.010	19.993	103.848	19.907	2.241	0.500
924.500	551.784	80.012	19.992	103.844	19.908	2.189	0.519
925.000	552.032	80.010	19.993	103.838	19.906	2.275	0.508
925.499	552.264	80.010	19.993	103.832	19.908	2.165	0.482
925.999	552.543	80.011	19.993	103.834	19.908	2.161	0.495
926.499	552.851	80.010	19.992	103.841	19.905	2.396	0.549
926.999	553.074	80.010	19.993	103.846	19.905	2.358	0.559
927.500	553.348	80.011	19.993	103.853	19.907	2.265	0.514
928.000	553.586	80.010	19.993	103.859	19.906	2.293	0.504
928.500	553.831	80.010	19.993	103.861	19.906	2.326	0.497
929.000	554.113	80.009	19.993	103.861	19.909	2.099	0.505
929.500	554.363	80.010	19.992	103.861	19.907	2.257	0.530
930.000	554.623	80.010	19.993	103.861	19.903	2.500	0.521
930.500	554.880	80.009	19.993	103.859	19.908	2.135	0.514
931.000	555.130	80.009	19.993	103.854	19.904	2.478	0.512
931.501	555.412	80.010	19.992	103.853	19.905	2.375	0.520
932.000	555.677	80.011	19.992	103.853	19.907	2.211	0.540
932.499	555.918	80.010	19.993	103.853	19.907	2.253	0.526
933.000	556.187	80.010	19.993	103.855	19.907	2.209	0.508
933.500	556.425	80.012	19.993	103.861	19.905	2.351	0.509
934.000	556.699	80.010	19.994	103.864	19.907	2.223	0.509
934.501	556.942	80.010	19.993	103.864	19.911	1.928	0.514
935.001	557.213	80.010	19.992	103.860	19.909	2.109	0.515
935.500	557.470	80.011	19.994	103.858	19.906	2.311	0.521
935.999	557.715	80.010	19.996	103.857	19.911	1.900	0.515
936.499	557.972	80.011	19.994	103.853	19.907	2.253	0.502
936.999	558.245	80.011	19.994	103.852	19.907	2.215	0.516
937.500	558.476	80.010	19.993	103.855	19.904	2.456	0.518
938.000	558.703	80.010	19.994	103.853	19.906	2.317	0.481
938.499	558.961	80.011	19.995	103.848	19.908	2.191	0.472
939.000	559.218	80.010	19.994	103.847	19.909	2.119	0.500
939.500	559.472	80.011	19.993	103.841	19.908	2.187	0.512
940.000	559.744	80.012	19.993	103.841	19.909	2.097	0.518
940.501	560.007	80.010	19.993	103.844	19.906	2.293	0.530
941.000	560.238	80.011	19.993	103.849	19.903	2.498	0.515
941.500	560.496	80.009	19.993	103.851	19.905	2.380	0.492
942.000	560.740	80.010	19.994	103.857	19.906	2.285	0.496
942.499	561.005	80.010	19.994	103.857	19.904	2.462	0.506
942.999	561.280	80.009	19.994	103.857	19.904	2.486	0.524
943.499	561.507	80.008	19.995	103.858	19.903	2.524	0.521
944.000	561.768	80.011	19.993	103.856	19.904	2.420	0.495
944.501	562.019	80.010	19.994	103.854	19.902	2.568	0.500
945.000	562.288	80.010	19.993	103.854	19.903	2.500	0.516
945.500	562.520	80.011	19.994	103.854	19.906	2.335	0.511
946.000	562.796	80.010	19.994	103.853	19.902	2.594	0.504
946.501	563.091	80.011	19.995	103.850	19.902	2.598	0.539
947.000	563.309	80.010	19.993	103.852	19.904	2.416	0.542
947.500	563.580	80.010	19.995	103.853	19.901	2.645	0.501
948.001	563.815	80.012	19.994	103.852	19.904	2.480	0.498
948.501	564.073	80.009	19.994	103.852	19.903	2.526	0.500
949.001	564.299	80.009	19.994	103.853	19.907	2.195	0.489
949.500	564.596	80.009	19.993	103.852	19.906	2.323	0.503
949.999	564.819	80.010	19.994	103.852	19.906	2.323	0.521
950.500	565.067	80.010	19.993	103.851	19.904	2.416	0.496
951.000	565.340	80.011	19.993	103.847	19.909	2.056	0.496
951.499	565.574	80.010	19.993	103.850	19.905	2.385	0.514
952.000	565.857	80.010	19.994	103.851	19.904	2.428	0.512
952.501	566.096	80.010	19.994	103.851	19.905	2.384	0.520
953.000	566.355	80.010	19.995	103.853	19.903	2.520	0.510
953.499	566.607	80.010	19.995	103.858	19.903	2.548	0.504
953.999	566.892	80.010	19.994	103.859	19.903	2.516	0.524
954.500	567.113	80.011	19.993	103.858	19.904	2.462	0.521
955.001	567.374	80.010	19.994	103.858	19.904	2.466	0.495
955.501	567.640	80.008	19.994	103.858	19.905	2.412	0.504
956.001	567.903	80.011	19.994	103.858	19.905	2.406	0.528
956.500	568.082	80.010	19.995	103.857	19.905	2.364	0.486
956.999	568.369	80.010	19.994	103.852	19.904	2.440	0.454
957.499	568.604	80.009	19.995	103.851	19.906	2.286	0.494
957.999	568.896	80.010	19.994	103.850	19.903	2.512	0.524
958.499	569.127	80.010	19.994	103.850	19.907	2.264	0.525
959.000	569.400	80.010	19.995	103.850	19.905	2.380	0.514
959.500	569.664	80.010	19.994	103.855	19.905	2.370	0.520
960.000	569.919	80.010	19.993	103.854	19.905	2.358	0.528
960.501	570.157	80.010	19.994	103.854	19.907	2.231	0.506
961.001	570.427	80.011	19.994	103.854	19.906	2.334	0.501
961.500	570.664	80.010	19.993	103.856	19.904	2.426	0.507
961.999	570.943	80.010	19.993	103.856	19.902	2.624	0.511
962.499	571.208	80.010	19.994	103.858	19.907	2.229	0.530
963.000	571.451	80.011	19.994	103.858	19.906	2.341	0.526
963.500	571.703	80.011	19.995	103.855	19.909	2.117	0.502
964.000	571.962	80.012	19.994	103.849	19.904	2.436	0.503
964.500	572.236	80.011	19.994	103.846	19.904	2.424	0.522
965.000	572.466	80.012	19.993	103.845	19.905	2.362	0.518
965.500	572.717	80.012	19.996	103.844	19.904	2.452	0.492
966.000	573.006	80.012	19.993	103.847	19.904	2.486	0.511
966.500	573.230	80.012	19.993	103.852	19.903	2.546	0.527
966.999	573.503	80.012	19.994	103.852	19.902	2.572	0.505
967.499	573.794	80.010	19.994	103.847	19.902	2.598	0.531
967.999	574.004	80.011	19.995	103.842	19.904	2.426	0.532
968.499	574.295	80.010	19.993	103.836	19.905	2.385	0.501
968.999	574.540	80.013	19.994	103.833	19.905	2.412	0.519
969.499	574.794	80.012	19.993	103.834	19.902	2.596	0.518
969.999	575.086	80.012	19.995	103.835	19.905	2.361	0.523
970.500	575.340	80.011	19.995	103.838	19.905	2.361	0.546
971.000	575.584	80.012	19.993	103.843	19.905	2.347	0.522
971.499	575.823	80.011	19.994	103.846	19.909	2.093	0.491
971.999	576.089	80.010	19.993	103.846	19.904	2.482	0.494
972.499	576.323	80.010	19.994	103.850	19.907	2.203	0.502
973.000	576.558	80.012	19.994	103.852	19.906	2.319	0.484
973.500	576.851	80.011	19.994	103.854	19.906	2.333	0.499
974.000	577.110	80.011	19.992	103.856	19.905	2.398	0.540
974.500	577.362	80.011	19.993	103.859	19.907	2.265	0.531
975.000	577.596	80.011	19.993	103.860	19.908	2.135	0.498
975.500	577.822	80.010	19.994	103.861	19.909	2.113	0.473
976.000	578.096	80.011	19.993	103.854	19.905	2.406	0.480
976.500	578.375	80.010	19.993	103.851	19.907	2.253	0.526
977.001	578.640	80.010	19.994	103.850	19.906	2.297	0.548
977.500	578.875	80.010	19.993	103.850	19.908	2.159	0.522
977.999	579.098	80.010	19.993	103.851	19.908	2.173	0.479
978.500	579.353	80.011	19.993	103.858	19.905	2.400	0.469
979.000	579.639	80.011	19.993	103.861	19.907	2.215	0.510
979.499	579.887	80.010	19.993	103.861	19.908	2.139	0.537
980.000	580.135	80.012	19.993	103.860	19.907	2.262	0.515
980.500	580.398	80.011	19.993	103.859	19.907	2.195	0.504
980.999	580.643	80.011	19.993	103.855	19.906	2.310	0.510
981.499	580.874	80.011	19.994	103.854	19.908	2.133	0.492
981.999	581.118	80.011	19.992	103.855	19.909	2.103	0.475
982.499	581.377	80.012	19.993	103.854	19.905	2.361	0.489
983.000	581.684	80.011	19.993	103.854	19.909	2.064	0.535
983.501	581.902	80.012	19.993	103.858	19.905	2.400	0.546
984.000	582.195	80.012	19.993	103.858	19.906	2.275	0.518
984.499	582.430	80.012	19.993	103.858	19.907	2.255	0.520
985.000	582.677	80.012	19.993	103.853	19.906	2.327	0.505
985.500	582.915	80.011	19.994	103.853	19.908	2.183	0.483
986.000	583.186	80.012	19.993	103.853	19.908	2.161	0.497
986.499	583.440	80.011	19.992	103.852	19.904	2.441	0.518
987.000	583.691	80.013	19.993	103.853	19.905	2.415	0.515
987.500	583.917	80.009	19.994	103.858	19.904	2.466	0.491
988.000	584.192	80.013	19.993	103.860	19.905	2.359	0.489
988.500	584.386	80.012	19.993	103.857	19.907	2.245	0.485
989.000	584.664	80.013	19.992	103.852	19.902	2.582	0.471
989.500	584.890	80.013	19.993	103.852	19.904	2.466	0.488
989.999	585.177	80.012	19.993	103.847	19.904	2.488	0.508
990.499	585.442	80.014	19.993	103.840	19.906	2.275	0.532
990.999	585.661	80.012	19.993	103.836	19.905	2.388	0.518
991.499	585.928	80.012	19.991	103.835	19.903	2.534	0.485
991.999	586.223	80.013	19.994	103.836	19.905	2.414	0.525
992.499	586.469	80.013	19.992	103.841	19.906	2.331	0.551
992.999	586.695	80.012	19.993	103.848	19.904	2.482	0.506
993.499	586.932	80.012	19.993	103.855	19.903	2.534	0.467
993.999	587.206	80.013	19.992	103.861	19.907	2.231	0.487
994.500	587.416	80.013	19.994	103.858	19.906	2.293	0.498
995.000	587.677	80.012	19.991	103.856	19.904	2.432	0.477
995.499	587.958	80.013	19.997	103.856	19.903	2.490	0.506
996.000	588.231	80.012	19.994	103.856	19.907	2.266	0.549
996.500	588.449	80.013	19.994	103.857	19.903	2.494	0.523
997.000	588.735	80.012	19.994	103.861	19.906	2.330	0.497
997.500	588.970	80.012	19.994	103.865	19.906	2.292	0.513
998.000	589.212	80.011	19.993	103.867	19.905	2.364	0.499
998.500	589.466	80.012	19.993	103.867	19.905	2.396	0.486
998.999	589.725	80.012	19.993	103.867	19.906	2.315	0.505
999.499	589.963	80.012	19.994	103.865	19.904	2.480	0.505
999.999	590.229	80.011	19.992	103.859	19.906	2.287	0.501
1000.500	590.460	80.012	19.993	103.858	19.907	2.213	0.501
1001.000	590.710	80.011	19.994	103.856	19.907	2.227	0.489
1001.499	591.003	80.011	19.993	103.856	19.906	2.305	0.512
1001.999	591.242	80.012	19.994	103.856	19.906	2.313	0.538
1002.499	591.471	80.010	19.993	103.860	19.909	2.077	0.500
1003.000	591.739	80.011	19.993	103.860	19.905	2.406	0.482
1003.500	591.990	80.011	19.995	103.860	19.903	2.534	0.508
1004.000	592.259	80.010	19.993	103.858	19.905	2.344	0.520
1004.500	592.515	80.010	19.994	103.857	19.907	2.235	0.522
1005.000	592.760	80.010	19.993	103.857	19.903	2.542	0.513
1005.500	593.029	80.010	19.993	103.857	19.903	2.512	0.507
1005.999	593.288	80.011	19.994	103.850	19.903	2.520	0.521
1006.500	593.530	80.011	19.994	103.843	19.903	2.546	0.515
1007.001	593.802	80.010	19.994	103.836	19.903	2.506	0.508
1007.501	594.061	80.010	19.993	103.830	19.902	2.604	0.523
1008.001	594.314	80.010	19.992	103.827	19.907	2.247	0.521
1008.500	594.560	80.010	19.993	103.829	19.907	2.209	0.505
1009.000	594.836	80.010	19.994	103.834	19.904	2.436	0.511
1009.499	595.132	80.011	19.992	103.842	19.906	2.293	0.547
1010.000	595.382	80.010	19.993	103.848	19.906	2.301	0.559
1010.500	595.612	80.010	19.993	103.851	19.906	2.336	0.513
1010.999	595.881	80.010	19.993	103.856	19.904	2.416	0.490
1011.499	596.160	80.011	19.994	103.859	19.906	2.308	0.523
1012.000	596.395	80.012	19.993	103.857	19.905	2.380	0.531
1012.500	596.652	80.010	19.994	103.856	19.905	2.358	0.503
1012.999	596.930	80.011	19.992	103.855	19.905	2.368	0.513
1013.499	597.196	80.010	19.993	103.853	19.909	2.117	0.540
1013.999	597.446	80.011	19.993	103.850	19.904	2.422	0.530
1014.500	597.728	80.010	19.994	103.848	19.905	2.355	0.524
1015.001	597.977	80.011	19.993	103.846	19.903	2.506	0.531
1015.500	598.251	80.011	19.993	103.846	19.903	2.508	0.527
1015.999	598.539	80.011	19.992	103.849	19.901	2.672	0.543
1016.499	598.745	80.012	19.993	103.850	19.903	2.496	0.528
1017.000	599.008	80.012	19.993	103.854	19.904	2.452	0.482
1017.500	599.253	80.011	19.992	103.855	19.902	2.622	0.488
1018.000	599.544	80.011	19.993	103.854	19.902	2.574	0.522
1018.500	599.760	80.012	19.993	103.854	19.902	2.580	0.522
1018.999	600.032	80.011	19.992	103.855	19.905	2.357	0.498
1019.500	600.304	80.010	19.992	103.856	19.905	2.406	0.516
1020.001	600.536	80.011	19.992	103.858	19.904	2.428	0.524
1020.501	600.826	80.011	19.993	103.858	19.905	2.402	0.513
1021.001	601.064	80.011	19.993	103.853	19.905	2.349	0.526
1021.500	601.329	80.012	19.994	103.849	19.905	2.378	0.516
1022.000	601.642	80.011	19.993	103.845	19.904	2.426	0.540
1022.501	601.860	80.011	19.992	103.842	19.905	2.347	0.555
1023.000	602.186	80.011	19.994	103.838	19.905	2.376	0.538
1023.500	602.405	80.012	19.993	103.842	19.907	2.261	0.544
1024.000	602.658	80.012	19.993	103.845	19.904	2.432	0.508
1024.499	602.888	80.011	19.992	103.847	19.902	2.584	0.477
1024.999	603.177	80.011	19.992	103.850	19.905	2.366	0.501
1025.500	603.417	80.012	19.993	103.855	19.906	2.333	0.525
1026.001	603.695	80.011	19.994	103.857	19.905	2.370	0.524
1026.500	603.973	80.011	19.994	103.858	19.904	2.480	0.537
1027.000	604.224	80.011	19.993	103.860	19.903	2.516	0.543
1027.501	604.483	80.011	19.993	103.860	19.903	2.524	0.520
1028.000	604.734	80.011	19.994	103.860	19.901	2.656	0.510
1028.499	605.013	80.011	19.993	103.860	19.903	2.554	0.520
1029.000	605.275	80.011	19.993	103.860	19.905	2.396	0.535
1029.501	605.512	80.011	19.993	103.855	19.906	2.335	0.520
1030.001	605.775	80.010	19.994	103.854	19.906	2.321	0.500
1030.500	606.040	80.010	19.993	103.853	19.903	2.562	0.514
1031.000	606.266	80.010	19.993	103.850	19.904	2.428	0.510
1031.501	606.548	80.010	19.993	103.850	19.904	2.438	0.500
1032.001	606.797	80.011	19.993	103.855	19.903	2.514	0.519
1032.501	607.053	80.011	19.994	103.856	19.906	2.285	0.518
1033.001	607.308	80.011	19.995	103.856	19.903	2.554	0.508
1033.501	607.578	80.010	19.993	103.853	19.905	2.393	0.518
1034.001	607.881	80.010	19.993	103.851	19.904	2.436	0.549
1034.500	608.089	80.011	19.994	103.848	19.902	2.584	0.542
1034.999	608.315	80.011	19.994	103.844	19.904	2.444	0.472
1035.500	608.609	80.010	19.993	103.845	19.905	2.406	0.477
1036.000	608.880	80.010	19.994	103.850	19.907	2.257	0.543
1036.500	609.112	80.010	19.994	103.851	19.906	2.325	0.534
1037.000	609.364	80.011	19.994	103.854	19.905	2.366	0.493
1037.499	609.655	80.010	19.994	103.858	19.907	2.243	0.513
1037.999	609.888	80.010	19.994	103.855	19.906	2.321	0.533
1038.499	610.166	80.009	19.993	103.855	19.906	2.313	0.517
1039.000	610.432	80.010	19.993	103.855	19.903	2.554	0.528
1039.500	610.686	80.010	19.993	103.856	19.904	2.448	0.532
1039.999	610.906	80.010	19.992	103.856	19.904	2.442	0.497
1040.500	611.171	80.011	19.993	103.862	19.903	2.524	0.480
1041.001	611.426	80.012	19.994	103.863	19.903	2.520	0.503
1041.500	611.657	80.011	19.994	103.863	19.903	2.544	0.503
1042.000	611.939	80.010	19.994	103.857	19.905	2.386	0.499
1042.500	612.209	80.011	19.995	103.856	19.903	2.532	0.532
1042.999	612.471	80.011	19.994	103.854	19.905	2.356	0.542
1043.499	612.714	80.012	19.994	103.854	19.902	2.630	0.519
1044.000	613.006	80.012	19.993	103.855	19.903	2.524	0.520
1044.501	613.234	80.011	19.994	103.861	19.903	2.490	0.527
1045.001	613.506	80.009	19.992	103.862	19.906	2.295	0.510
1045.501	613.731	80.011	19.993	103.861	19.906	2.291	0.498
1046.000	613.990	80.013	19.993	103.861	19.905	2.384	0.490
1046.500	614.268	80.012	19.993	103.857	19.905	2.384	0.511
1047.001	614.530	80.013	19.994	103.856	19.907	2.225	0.538
1047.501	614.780	80.011	19.993	103.854	19.902	2.598	0.525
1048.000	615.079	80.012	19.994	103.853	19.906	2.328	0.530
1048.499	615.321	80.012	19.994	103.852	19.904	2.482	0.545
1049.000	615.553	80.012	19.993	103.855	19.903	2.492	0.508
1049.501	615.818	80.013	19.993	103.856	19.908	2.135	0.486
1050.000	616.075	80.012	19.993	103.858	19.901	2.661	0.509
1050.500	616.329	80.013	19.993	103.859	19.905	2.360	0.517
1051.001	616.567	80.013	19.994	103.857	19.904	2.448	0.502
1051.501	616.850	80.013	19.993	103.852	19.903	2.558	0.506
1052.000	617.096	80.013	19.994	103.848	19.904	2.466	0.525
1052.500	617.388	80.013	19.994	103.841	19.905	2.356	0.534
1053.000	617.593	80.013	19.994	103.840	19.905	2.352	0.518
1053.499	617.879	80.012	19.993	103.843	19.902	2.608	0.494
1054.000	618.102	80.012	19.992	103.847	19.903	2.562	0.500
1054.500	618.368	80.012	19.994	103.851	19.903	2.516	0.499
1055.000	618.628	80.011	19.992	103.858	19.907	2.241	0.507
1055.500	618.881	80.012	19.994	103.860	19.903	2.554	0.519
1055.999	619.131	80.014	19.995	103.859	19.902	2.589	0.508
1056.500	619.404	80.012	19.996	103.855	19.901	2.691	0.513
1057.000	619.654	80.013	19.994	103.852	19.906	2.278	0.523
1057.499	619.899	80.012	19.994	103.849	19.906	2.336	0.509
1057.999	620.187	80.012	19.995	103.845	19.904	2.483	0.513
1058.499	620.421	80.011	19.994	103.845	19.906	2.294	0.527
1058.999	620.670	80.013	19.994	103.845	19.903	2.517	0.503
1059.500	620.950	80.012	19.994	103.846	19.904	2.438	0.506
1060.000	621.190	80.011	19.995	103.848	19.905	2.352	0.525
1060.499	621.428	80.012	19.994	103.848	19.904	2.444	0.499
1060.999	621.704	80.012	19.995	103.847	19.903	2.556	0.496
1061.499	621.965	80.011	19.994	103.847	19.905	2.380	0.525
1061.999	622.188	80.011	19.994	103.846	19.904	2.440	0.510
1062.499	622.453	80.011	19.994	103.845	19.902	2.593	0.486
1062.999	622.717	80.011	19.994	103.848	19.902	2.593	0.509
1063.499	622.936	80.011	19.994	103.849	19.901	2.637	0.506
1063.999	623.238	80.012	19.993	103.848	19.904	2.466	0.502
1064.500	623.480	80.012	19.993	103.852	19.904	2.462	0.533
1065.000	623.733	80.013	19.995	103.851	19.904	2.442	0.520
1065.499	623.998	80.012	19.994	103.844	19.906	2.328	0.506
1065.999	624.248	80.011	19.995	103.840	19.904	2.442	0.516
1066.500	624.504	80.013	19.994	103.841	19.899	2.839	0.511
1067.001	624.730	80.012	19.995	103.833	19.902	2.633	0.495
1067.500	625.042	80.012	19.994	103.832	19.905	2.366	0.510
1067.999	625.248	80.013	19.995	103.832	19.905	2.372	0.528
1068.499	625.514	80.012	19.994	103.829	19.902	2.592	0.495
1069.000	625.761	80.013	19.995	103.825	19.902	2.618	0.492
1069.500	626.026	80.012	19.995	103.824	19.903	2.524	0.512
1070.000	626.225	80.015	19.994	103.823	19.904	2.448	0.488
1070.500	626.496	80.012	19.994	103.824	19.905	2.414	0.467
1071.000	626.767	80.012	19.994	103.829	19.906	2.321	0.506
1071.500	627.049	80.012	19.994	103.836	19.907	2.247	0.547
1072.000	627.302	80.014	19.994	103.841	19.902	2.566	0.544
1072.500	627.511	80.013	19.994	103.843	19.906	2.330	0.498
1073.001	627.792	80.014	19.993	103.843	19.904	2.457	0.476
1073.501	628.027	80.013	19.994	103.840	19.902	2.594	0.503
1074.000	628.346	80.014	19.995	103.836	19.902	2.626	0.535
1074.500	628.553	80.014	19.993	103.831	19.903	2.520	0.539
1075.001	628.816	80.014	19.993	103.828	19.900	2.767	0.498
1075.500	629.052	80.013	19.994	103.826	19.900	2.742	0.485
1075.999	629.352	80.014	19.994	103.823	19.901	2.679	0.518
1076.499	629.583	80.015	19.993	103.823	19.903	2.497	0.534
1076.999	629.812	80.013	19.994	103.829	19.905	2.382	0.495
1077.499	630.052	80.013	19.993	103.837	19.902	2.600	0.464
1078.000	630.301	80.015	19.993	103.842	19.900	2.755	0.479
1078.501	630.578	80.013	19.992	103.849	19.904	2.470	0.507
1079.000	630.848	80.016	19.994	103.854	19.905	2.351	0.537
1079.499	631.139	80.013	19.994	103.854	19.904	2.488	0.555
1080.000	631.391	80.015	19.993	103.854	19.904	2.442	0.552
1080.500	631.566	80.014	19.993	103.856	19.904	2.478	0.485
1080.999	631.855	80.014	19.993	103.856	19.904	2.420	0.446
1081.499	632.129	80.014	19.993	103.857	19.904	2.484	0.514
1082.000	632.365	80.014	19.993	103.857	19.905	2.388	0.536
1082.500	632.625	80.014	19.992	103.863	19.904	2.481	0.503
1083.000	632.849	80.012	19.993	103.856	19.902	2.597	0.490
1083.501	633.104	80.014	19.993	103.830	19.902	2.589	0.482
1084.001	633.331	80.012	19.993	103.811	19.905	2.414	0.481
1084.500	633.627	80.013	19.993	103.798	19.905	2.398	0.502
1085.000	633.888	80.012	19.993	103.784	19.905	2.388	0.539
1085.501	634.164	80.013	19.994	103.791	19.903	2.500	0.547
1086.001	634.371	80.011	19.993	103.849	19.908	2.183	0.510
1086.501	634.662	80.012	19.993	103.885	19.908	2.161	0.490
1087.000	634.936	80.011	19.992	103.901	19.904	2.482	0.531
1087.501	635.181	80.011	19.994	103.909	19.908	2.177	0.542
1088.000	635.444	80.012	19.993	103.909	19.906	2.328	0.513
1088.500	635.673	80.011	19.993	103.877	19.906	2.314	0.500
1089.000	635.948	80.012	19.994	103.860	19.905	2.362	0.499
1089.500	636.160	80.012	19.994	103.856	19.906	2.296	0.495
1090.000	636.485	80.011	19.994	103.856	19.903	2.502	0.511
1090.500	636.715	80.012	19.993	103.857	19.906	2.314	0.546
1091.000	636.973	80.012	19.994	103.856	19.905	2.352	0.522
1091.500	637.199	80.011	19.993	103.850	19.906	2.292	0.486
1092.000	637.486	80.012	19.994	103.844	19.904	2.448	0.498
1092.500	637.746	80.012	19.993	103.839	19.905	2.398	0.530
1092.999	638.019	80.011	19.993	103.833	19.904	2.448	0.540
1093.500	638.249	80.011	19.994	103.826	19.907	2.236	0.518
1094.001	638.481	80.011	19.994	103.826	19.906	2.320	0.482
1094.501	638.762	80.012	19.993	103.825	19.903	2.532	0.488
1095.000	639.017	80.013	19.994	103.824	19.905	2.356	0.525
1095.499	639.248	80.011	19.992	103.828	19.903	2.552	0.511
1095.999	639.493	80.011	19.993	103.834	19.907	2.217	0.481
1096.499	639.759	80.011	19.994	103.839	19.902	2.574	0.493
1096.999	639.989	80.010	19.993	103.845	19.903	2.490	0.503
1097.499	640.259	80.011	19.992	103.850	19.903	2.518	0.498
1097.999	640.494	80.011	19.993	103.851	19.903	2.518	0.503
1098.499	640.758	80.010	19.993	103.845	19.902	2.622	0.502
1099.000	641.008	80.011	19.993	103.842	19.902	2.600	0.507
1099.501	641.266	80.011	19.993	103.838	19.901	2.665	0.511
1100.000	641.537	80.012	19.994	103.840	19.900	2.713	0.519
1100.500	641.789	80.011	19.993	103.839	19.903	2.492	0.526
1101.001	642.028	80.010	19.993	103.841	19.902	2.595	0.507
1101.500	642.293	80.012	19.993	103.838	19.904	2.466	0.498
1101.999	642.553	80.012	19.993	103.837	19.904	2.486	0.515
1102.500	642.814	80.012	19.993	103.829	19.904	2.460	0.523
1103.001	643.056	80.012	19.994	103.825	19.900	2.723	0.512
1103.500	643.294	80.012	19.994	103.825	19.901	2.671	0.491
1104.000	643.574	80.012	19.993	103.827	19.902	2.619	0.499
1104.501	643.794	80.013	19.993	103.829	19.904	2.416	0.509
1105.001	644.048	80.011	19.993	103.837	19.904	2.454	0.487
1105.501	644.305	80.012	19.992	103.845	19.903	2.522	0.492
1106.001	644.498	80.012	19.993	103.850	19.900	2.783	0.481
1106.501	644.779	80.011	19.993	103.857	19.901	2.707	0.462
1107.001	645.036	80.012	19.993	103.861	19.901	2.643	0.506
1107.501	645.287	80.012	19.994	103.861	19.901	2.695	0.523
1108.001	645.533	80.011	19.993	103.859	19.899	2.789	0.502
1108.501	645.773	80.012	19.992	103.855	19.901	2.665	0.492
1109.001	646.029	80.012	19.992	103.852	19.902	2.604	0.491
1109.500	646.287	80.012	19.994	103.851	19.904	2.424	0.505
1109.999	646.525	80.012	19.994	103.850	19.900	2.733	0.505
1110.499	646.799	80.012	19.992	103.849	19.901	2.639	0.504
1110.999	647.026	80.010	19.992	103.846	19.901	2.709	0.507
1111.499	647.285	80.013	19.992	103.842	19.900	2.739	0.494
1111.999	647.532	80.012	19.993	103.839	19.902	2.633	0.496
1112.500	647.769	80.012	19.993	103.837	19.901	2.642	0.495
1113.000	648.017	80.011	19.993	103.839	19.902	2.624	0.485
1113.500	648.272	80.012	19.993	103.846	19.906	2.311	0.494
1114.001	648.510	80.012	19.992	103.850	19.904	2.456	0.498
1114.501	648.776	80.012	19.993	103.848	19.902	2.598	0.498
1115.001	649.038	80.010	19.992	103.843	19.899	2.815	0.516
1115.501	649.303	80.011	19.994	103.840	19.904	2.456	0.527
1116.001	649.514	80.011	19.994	103.838	19.903	2.555	0.501
1116.501	649.812	80.011	19.993	103.840	19.900	2.781	0.493
1117.000	650.050	80.010	19.993	103.842	19.899	2.849	0.523
1117.499	650.295	80.013	19.994	103.843	19.900	2.765	0.509
1117.999	650.586	80.011	19.995	103.843	19.899	2.803	0.509
1118.499	650.802	80.010	19.993	103.841	19.900	2.771	0.521
1118.999	651.013	80.012	19.993	103.841	19.899	2.791	0.467
1119.499	651.317	80.012	19.993	103.845	19.900	2.741	0.471
1119.999	651.514	80.011	19.993	103.851	19.904	2.416	0.508
1120.499	651.801	80.011	19.993	103.849	19.902	2.628	0.493
1120.999	652.025	80.010	19.993	103.846	19.902	2.596	0.498
1121.499	652.265	80.012	19.993	103.841	19.899	2.801	0.488
1121.999	652.525	80.010	19.992	103.843	19.902	2.598	0.482
1122.499	652.805	80.011	19.993	103.844	19.902	2.570	0.520
1122.999	653.059	80.010	19.993	103.848	19.899	2.853	0.537
1123.499	653.310	80.010	19.993	103.853	19.900	2.781	0.520
1123.999	653.581	80.011	19.992	103.859	19.901	2.699	0.513
1124.499	653.779	80.011	19.992	103.857	19.900	2.743	0.495
1124.999	654.071	80.012	19.993	103.853	19.904	2.426	0.480
1125.499	654.325	80.011	19.993	103.849	19.902	2.633	0.518
1126.000	654.625	80.009	19.995	103.844	19.901	2.663	0.550
1126.500	654.884	80.011	19.993	103.840	19.900	2.771	0.556
1127.000	655.133	80.010	19.993	103.835	19.900	2.745	0.534
1127.500	655.365	80.011	19.994	103.839	19.901	2.693	0.495
1128.000	655.633	80.011	19.993	103.846	19.900	2.751	0.491
1128.500	655.899	80.011	19.994	103.851	19.902	2.577	0.517
1129.000	656.135	80.011	19.992	103.855	19.900	2.763	0.518
1129.500	656.382	80.012	19.993	103.859	19.902	2.601	0.493
1130.000	656.655	80.011	19.994	103.859	19.900	2.747	0.502
1130.500	656.919	80.012	19.995	103.857	19.902	2.575	0.528
1131.000	657.135	80.011	19.993	103.855	19.901	2.669	0.508
1131.500	657.342	80.011	19.993	103.850	19.903	2.511	0.451
1132.000	657.652	80.012	19.993	103.849	19.902	2.631	0.470
1132.500	657.914	80.013	19.993	103.849	19.899	2.791	0.544
1133.000	658.145	80.012	19.993	103.850	19.900	2.733	0.533
1133.500	658.409	80.013	19.994	103.852	19.900	2.743	0.495
1134.000	658.669	80.013	19.994	103.856	19.899	2.855	0.510
1134.499	658.884	80.013	19.995	103.855	19.901	2.679	0.499
1134.999	659.172	80.012	19.993	103.850	19.901	2.637	0.489
1135.500	659.423	80.013	19.993	103.845	19.903	2.501	0.521
1136.000	659.694	80.013	19.995	103.841	19.903	2.555	0.530
1136.499	659.914	80.013	19.994	103.837	19.901	2.681	0.507
1137.000	660.180	80.013	19.993	103.839	19.902	2.583	0.489
1137.500	660.420	80.013	19.994	103.843	19.903	2.503	0.496
1137.999	660.684	80.012	19.993	103.844	19.900	2.749	0.505
1138.499	660.945	80.012	19.994	103.843	19.902	2.607	0.515
1139.000	661.185	80.012	19.992	103.840	19.902	2.613	0.513
1139.500	661.480	80.014	19.994	103.839	19.899	2.815	0.518
1140.000	661.714	80.013	19.994	103.834	19.902	2.621	0.532
1140.501	661.953	80.013	19.993	103.834	19.899	2.856	0.501
1141.000	662.224	80.014	19.994	103.831	19.901	2.707	0.492
1141.500	662.499	80.012	19.993	103.832	19.901	2.651	0.528
1142.000	662.708	80.012	19.994	103.828	19.901	2.701	0.515
1142.500	662.995	80.013	19.994	103.828	19.900	2.771	0.490
1143.000	663.244	80.012	19.994	103.830	19.902	2.564	0.516
1143.499	663.509	80.013	19.993	103.836	19.901	2.667	0.525
1143.999	663.743	80.012	19.992	103.842	19.900	2.717	0.506
1144.499	664.017	80.013	19.992	103.846	19.904	2.476	0.504
1145.000	664.258	80.012	19.993	103.845	19.901	2.703	0.512
1145.500	664.480	80.013	19.994	103.838	19.901	2.660	0.489
1145.999	664.752	80.011	19.994	103.832	19.900	2.745	0.479
1146.500	665.012	80.012	19.994	103.825	19.900	2.717	0.513
1147.000	665.263	80.012	19.993	103.821	19.900	2.737	0.522
1147.499	665.508	80.012	19.994	103.820	19.901	2.671	0.504
1147.999	665.744	80.011	19.994	103.823	19.897	2.944	0.488
1148.500	666.004	80.014	19.993	103.825	19.899	2.834	0.488
1149.000	666.261	80.012	19.993	103.830	19.898	2.858	0.506
1149.499	666.512	80.013	19.993	103.830	19.896	3.026	0.513
1149.999	666.768	80.012	19.993	103.835	19.900	2.769	0.508
1150.500	667.061	80.012	19.994	103.838	19.899	2.857	0.528
1151.001	667.288	80.013	19.994	103.839	19.899	2.831	0.535
1151.501	667.580	80.012	19.993	103.836	19.898	2.903	0.520
1152.001	667.785	80.012	19.993	103.838	19.896	3.066	0.508
1152.501	668.037	80.012	19.994	103.836	19.899	2.833	0.477
1153.000	668.316	80.012	19.994	103.835	19.897	2.976	0.494
1153.499	668.515	80.013	19.994	103.840	19.900	2.749	0.504
1154.000	668.785	80.012	19.994	103.843	19.901	2.691	0.473
1154.501	669.060	80.012	19.993	103.848	19.900	2.711	0.507
1155.001	669.302	80.012	19.994	103.851	19.899	2.815	0.531
1155.501	669.589	80.013	19.994	103.854	19.901	2.689	0.523
1156.000	669.817	80.013	19.994	103.855	19.901	2.707	0.522
1156.499	670.062	80.013	19.994	103.853	19.898	2.892	0.494
1156.999	670.333	80.013	19.994	103.851	19.898	2.898	0.495
1157.499	670.573	80.014	19.994	103.849	19.899	2.829	0.514
1157.999	670.828	80.013	19.993	103.846	19.897	2.988	0.503
1158.499	671.073	80.014	19.993	103.839	19.899	2.811	0.497
1158.999	671.316	80.014	19.994	103.835	19.900	2.779	0.494
1159.500	671.570	80.013	19.995	103.831	19.896	3.006	0.493
1160.000	671.828	80.013	19.994	103.834	19.898	2.911	0.505
1160.500	672.097	80.014	19.993	103.836	19.898	2.926	0.520
1161.000	672.298	80.013	19.994	103.838	19.898	2.868	0.498
1161.500	672.553	80.014	19.993	103.840	19.901	2.707	0.463
1162.000	672.829	80.014	19.993	103.844	19.900	2.729	0.494
1162.499	673.040	80.013	19.994	103.844	19.899	2.843	0.508
1162.999	673.273	80.014	19.993	103.840	19.899	2.819	0.465
1163.499	673.523	80.013	19.993	103.839	19.899	2.805	0.464
1164.000	673.821	80.013	19.993	103.840	19.901	2.698	0.515
1164.500	674.088	80.013	19.994	103.836	19.897	2.979	0.557
1165.000	674.315	80.012	19.994	103.834	19.898	2.871	0.530
1165.500	674.542	80.012	19.994	103.834	19.896	3.060	0.474
1166.000	674.837	80.013	19.994	103.835	19.896	3.044	0.488
1166.500	675.057	80.012	19.994	103.837	19.898	2.907	0.519
1166.999	675.290	80.013	19.994	103.839	19.899	2.829	0.484
1167.500	675.583	80.012	19.994	103.838	19.897	2.947	0.490
1168.001	675.842	80.012	19.994	103.843	19.895	3.084	0.539
1168.500	676.087	80.012	19.995	103.847	19.897	2.993	0.528
1169.000	676.343	80.011	19.994	103.849	19.896	3.012	0.502
1169.501	676.549	80.010	19.995	103.852	19.897	2.994	0.481
1170.000	676.818	80.011	19.993	103.853	19.896	3.040	0.468
1170.500	677.076	80.011	19.994	103.853	19.896	3.062	0.501
1171.000	677.330	80.011	19.994	103.848	19.899	2.799	0.519
1171.499	677.571	80.010	19.995	103.842	19.896	3.054	0.503
1172.000	677.783	80.010	19.993	103.839	19.899	2.848	0.474
1172.501	678.040	80.010	19.993	103.841	19.897	2.956	0.461
1173.000	678.278	80.011	19.993	103.842	19.898	2.870	0.482
1173.499	678.504	80.010	19.993	103.848	19.897	2.940	0.480
1174.000	678.797	80.011	19.994	103.854	19.901	2.649	0.491
1174.500	679.034	80.010	19.993	103.859	19.899	2.856	0.524
1174.999	679.252	80.008	19.992	103.860	19.902	2.623	0.492
1175.499	679.562	80.011	19.994	103.858	19.899	2.838	0.492
1175.999	679.797	80.011	19.993	103.859	19.899	2.823	0.537
1176.499	680.036	80.010	19.994	103.860	19.901	2.659	0.510
1177.000	680.289	80.011	19.993	103.860	19.901	2.655	0.482
1177.500	680.518	80.012	19.994	103.859	19.899	2.799	0.487
1177.999	680.750	80.010	19.993	103.859	19.899	2.829	0.471
1178.499	681.004	80.012	19.993	103.858	19.899	2.785	0.474
1179.000	681.250	80.010	19.993	103.858	19.897	2.950	0.493
1179.500	681.532	80.011	19.993	103.854	19.900	2.717	0.514
1180.000	681.783	80.012	19.994	103.853	19.901	2.663	0.530
1180.501	681.995	80.012	19.993	103.849	19.900	2.780	0.498
1181.000	682.245	80.011	19.993	103.846	19.900	2.778	0.463
1181.499	682.530	80.011	19.993	103.841	19.898	2.916	0.499
1182.000	682.731	80.012	19.994	103.840	19.901	2.689	0.510
1182.500	683.003	80.011	19.994	103.835	19.899	2.851	0.479
1183.000	683.236	80.011	19.994	103.832	19.898	2.895	0.489
1183.501	683.517	80.011	19.993	103.829	19.899	2.805	0.510
1184.000	683.722	80.012	19.992	103.827	19.898	2.887	0.500
1184.499	683.990	80.011	19.993	103.824	19.899	2.839	0.479
1184.999	684.206	80.011	19.993	103.826	19.900	2.739	0.479
1185.499	684.430	80.011	19.994	103.831	19.898	2.861	0.463
1186.000	684.707	80.012	19.993	103.833	19.899	2.855	0.470
1186.500	684.924	80.012	19.994	103.833	19.898	2.863	0.497
1187.000	685.215	80.010	19.992	103.835	19.899	2.805	0.501
1187.501	685.481	80.011	19.992	103.840	19.898	2.873	0.533
1188.000	685.690	80.011	19.994	103.841	19.899	2.813	0.516
1188.499	685.963	80.011	19.993	103.843	19.900	2.743	0.478
1188.999	686.220	80.010	19.993	103.849	19.900	2.733	0.506
1189.500	686.452	80.011	19.993	103.852	19.897	2.980	0.510
1190.001	686.741	80.010	19.993	103.845	19.897	2.940	0.506
1190.501	686.989	80.010	19.994	103.838	19.899	2.836	0.529
1191.001	687.250	80.010	19.992	103.835	19.899	2.826	0.523
1191.500	687.425	80.011	19.993	103.828	19.895	3.149	0.473
1191.999	687.738	80.010	19.993	103.825	19.898	2.866	0.462
1192.499	687.957	80.011	19.993	103.825	19.897	2.968	0.510
1192.999	688.228	80.012	19.993	103.831	19.895	3.096	0.511
1193.499	688.451	80.012	19.993	103.838	19.898	2.903	0.492
1193.999	688.643	80.011	19.993	103.846	19.899	2.795	0.454
1194.499	689.015	80.012	19.994	103.850	19.899	2.795	0.490
1194.999	689.203	80.010	19.992	103.856	19.898	2.883	0.562
1195.500	689.451	80.012	19.993	103.855	19.900	2.777	0.498
1196.000	689.722	80.012	19.993	103.850	19.898	2.861	0.478
1196.500	689.937	80.011	19.992	103.849	19.900	2.775	0.503
1197.000	690.239	80.010	19.994	103.851	19.899	2.809	0.502
1197.499	690.453	80.011	19.993	103.847	19.897	2.976	0.516
1197.999	690.704	80.012	19.993	103.844	19.899	2.850	0.490
1198.499	690.946	80.011	19.994	103.842	19.894	3.153	0.479
1199.000	691.196	80.011	19.993	103.835	19.896	3.006	0.493
1199.499	691.428	80.010	19.993	103.830	19.899	2.801	0.487
1199.999	691.687	80.010	19.993	103.830	19.899	2.797	0.486
1200.500	691.974	80.010	19.993	103.832	19.901	2.685	0.518
1201.000	692.189	80.011	19.993	103.831	19.898	2.881	0.524
1201.500	692.472	80.009	19.994	103.832	19.898	2.924	0.500
1202.000	692.680	80.009	19.994	103.832	19.900	2.737	0.495
1202.500	692.956	80.010	19.992	103.833	19.897	2.956	0.488
1203.000	693.221	80.010	19.994	103.836	19.901	2.693	0.513
1203.499	693.468	80.011	19.994	103.840	19.901	2.691	0.526
1204.000	693.716	80.010	19.994	103.841	19.899	2.819	0.504
1204.500	693.970	80.011	19.994	103.846	19.897	2.996	0.498
1205.001	694.235	80.012	19.994	103.849	19.901	2.705	0.510
1205.500	694.471	80.010	19.993	103.849	19.901	2.658	0.510
1206.000	694.703	80.010	19.993	103.851	19.900	2.773	0.484
1206.501	694.994	80.010	19.993	103.857	19.900	2.737	0.496
1207.001	695.219	80.011	19.994	103.857	19.898	2.886	0.520
1207.501	695.475	80.010	19.994	103.853	19.899	2.807	0.498
1208.001	695.712	80.011	19.993	103.848	19.899	2.854	0.487
1208.500	696.009	80.011	19.993	103.843	19.898	2.882	0.514
1208.999	696.231	80.010	19.993	103.838	19.902	2.589	0.527
1209.500	696.499	80.012	19.993	103.836	19.899	2.785	0.505
1210.000	696.744	80.012	19.993	103.840	19.900	2.729	0.501
1210.499	696.998	80.012	19.993	103.846	19.898	2.887	0.505
1210.999	697.257	80.012	19.993	103.849	19.896	3.034	0.506
1211.500	697.527	80.011	19.994	103.854	19.897	2.974	0.521
1212.000	697.750	80.014	19.993	103.852	19.898	2.901	0.512
1212.499	697.998	80.013	19.993	103.845	19.896	3.058	0.483
1212.999	698.275	80.012	19.993	103.841	19.897	2.939	0.498
1213.500	698.526	80.012	19.992	103.840	19.897	2.987	0.526
1214.000	698.781	80.014	19.993	103.836	19.895	3.100	0.517
1214.500	699.022	80.014	19.993	103.838	19.897	2.945	0.501
1215.001	699.300	80.013	19.992	103.845	19.895	3.130	0.508
1215.501	699.518	80.012	19.993	103.850	19.893	3.288	0.508
1216.000	699.793	80.013	19.993	103.852	19.895	3.136	0.495
1216.500	700.042	80.013	19.993	103.852	19.895	3.136	0.509
1217.000	700.316	80.014	19.993	103.852	19.893	3.244	0.523
1217.500	700.545	80.014	19.993	103.847	19.895	3.080	0.513
1218.000	700.822	80.013	19.993	103.841	19.895	3.124	0.504
1218.501	701.035	80.014	19.993	103.834	19.896	3.018	0.498
1219.000	701.289	80.013	19.992	103.834	19.893	3.247	0.478
1219.499	701.584	80.013	19.993	103.834	19.893	3.295	0.508
1219.999	701.838	80.014	19.993	103.839	19.894	3.213	0.549
1220.500	702.070	80.013	19.994	103.842	19.895	3.082	0.518
1221.001	702.347	80.012	19.992	103.846	19.895	3.145	0.497
1221.501	702.596	80.013	19.994	103.846	19.895	3.113	0.518
1222.000	702.850	80.013	19.994	103.845	19.897	2.952	0.514
1222.499	703.081	80.012	19.993	103.844	19.895	3.147	0.494
1222.999	703.335	80.012	19.994	103.846	19.895	3.132	0.485
1223.500	703.608	80.013	19.994	103.850	19.898	2.881	0.506
1223.999	703.834	80.013	19.994	103.853	19.897	2.946	0.513
1224.499	704.093	80.012	19.993	103.856	19.899	2.849	0.493
1225.000	704.305	80.012	19.993	103.857	19.897	2.948	0.478
1225.500	704.586	80.012	19.994	103.856	19.898	2.871	0.482
1226.001	704.824	80.012	19.994	103.856	19.892	3.325	0.506
1226.500	705.087	80.014	19.995	103.856	19.895	3.148	0.510
1226.999	705.303	80.012	19.995	103.856	19.895	3.120	0.490
1227.499	705.543	80.011	19.994	103.855	19.894	3.158	0.467
1227.999	705.820	80.012	19.994	103.852	19.895	3.130	0.486
1228.499	706.057	80.012	19.994	103.845	19.891	3.377	0.516
1229.000	706.302	80.012	19.995	103.838	19.896	3.024	0.499
1229.501	706.545	80.012	19.995	103.834	19.896	3.024	0.485
1230.000	706.801	80.012	19.994	103.833	19.895	3.092	0.493
1230.499	707.022	80.012	19.994	103.835	19.894	3.171	0.488
1230.999	707.304	80.012	19.994	103.835	19.899	2.795	0.490
1231.499	707.551	80.011	19.994	103.834	19.894	3.221	0.516
1231.999	707.797	80.012	19.994	103.836	19.894	3.156	0.511
1232.499	708.023	80.011	19.994	103.833	19.895	3.110	0.482
1232.999	708.294	80.012	19.993	103.832	19.897	3.002	0.485
1233.499	708.526	80.011	19.994	103.835	19.896	3.012	0.500
1233.999	708.791	80.011	19.993	103.841	19.893	3.233	0.500
1234.499	709.051	80.012	19.994	103.842	19.896	3.016	0.511
1235.000	709.296	80.010	19.992	103.843	19.895	3.088	0.515
1235.500	709.567	80.012	19.994	103.843	19.895	3.116	0.511
1235.999	709.857	80.012	19.995	103.848	19.896	3.018	0.539
1236.500	710.041	80.012	19.994	103.845	19.896	3.064	0.517
1237.000	710.328	80.013	19.995	103.844	19.897	2.943	0.472
1237.500	710.576	80.012	19.994	103.849	19.897	2.988	0.503
1238.000	710.816	80.012	19.994	103.853	19.895	3.122	0.512
1238.500	711.065	80.012	19.994	103.853	19.895	3.128	0.489
1239.000	711.323	80.013	19.994	103.857	19.894	3.156	0.498
1239.499	711.590	80.012	19.994	103.856	19.896	3.070	0.516
1239.999	711.827	80.012	19.994	103.851	19.895	3.139	0.514
1240.499	712.069	80.012	19.993	103.843	19.898	2.900	0.491
1241.000	712.289	80.014	19.993	103.839	19.891	3.375	0.471
1241.501	712.577	80.013	19.993	103.838	19.893	3.257	0.485
1242.000	712.803	80.015	19.993	103.836	19.896	3.060	0.511
1242.499	713.050	80.013	19.994	103.840	19.897	2.996	0.494
1242.999	713.321	80.014	19.993	103.843	19.896	3.068	0.495
1243.500	713.542	80.013	19.993	103.840	19.896	3.064	0.505
1244.000	713.786	80.013	19.994	103.835	19.893	3.280	0.478
1244.500	714.083	80.014	19.993	103.835	19.897	2.973	0.503
1245.000	714.420	80.016	19.992	103.835	19.895	3.132	0.588
1245.500	714.591	80.012	19.994	103.839	19.895	3.146	0.571
1245.999	714.808	80.013	19.993	103.844	19.895	3.100	0.447
1246.499	715.065	80.013	19.993	103.848	19.894	3.190	0.431
1247.000	715.370	80.014	19.993	103.851	19.894	3.162	0.518
1247.500	715.557	80.014	19.993	103.851	19.895	3.092	0.527
1247.999	715.840	80.014	19.993	103.850	19.895	3.116	0.481
1248.499	716.079	80.014	19.992	103.851	19.895	3.136	0.496
1248.999	716.355	80.013	19.993	103.847	19.897	2.995	0.519
1249.499	716.604	80.012	19.993	103.845	19.895	3.134	0.520
1250.000	716.887	80.013	19.994	103.843	19.899	2.849	0.528
1250.500	717.086	80.012	19.994	103.841	19.894	3.178	0.507
1251.000	717.367	80.012	19.994	103.836	19.894	3.224	0.481
1251.499	717.613	80.012	19.993	103.837	19.897	2.982	0.503
1251.999	717.880	80.011	19.993	103.834	19.895	3.128	0.520
1252.500	718.106	80.011	19.993	103.834	19.898	2.864	0.503
1253.001	718.363	80.011	19.993	103.836	19.897	2.966	0.488
1253.500	718.629	80.011	19.994	103.840	19.899	2.803	0.503
1253.999	718.851	80.011	19.994	103.846	19.898	2.859	0.505
1254.499	719.128	80.012	19.994	103.853	19.898	2.924	0.493
1255.000	719.366	80.011	19.994	103.856	19.896	3.064	0.507
1255.500	719.625	80.010	19.994	103.855	19.895	3.104	0.506
1256.000	719.896	80.010	19.994	103.854	19.895	3.138	0.514
1256.500	720.141	80.011	19.994	103.849	19.895	3.126	0.523
1256.999	720.400	80.011	19.994	103.846	19.891	3.391	0.510
1257.500	720.640	80.010	19.995	103.844	19.894	3.162	0.502
1258.000	720.896	80.010	19.994	103.845	19.893	3.280	0.498
1258.500	721.146	80.009	19.993	103.849	19.894	3.186	0.500
1259.000	721.390	80.010	19.994	103.853	19.895	3.128	0.499
1259.499	721.648	80.010	19.994	103.856	19.893	3.278	0.498
1259.999	721.896	80.009	19.995	103.858	19.894	3.196	0.504
1260.500	722.148	80.011	19.994	103.858	19.894	3.226	0.503
1261.000	722.383	80.009	19.994	103.857	19.895	3.108	0.493
1261.500	722.638	80.010	19.994	103.857	19.893	3.291	0.489
1262.000	722.927	80.010	19.994	103.851	19.891	3.391	0.517
1262.501	723.184	80.010	19.994	103.844	19.894	3.156	0.545
1263.001	723.435	80.010	19.995	103.842	19.892	3.343	0.527
1263.501	723.663	80.010	19.995	103.838	19.893	3.299	0.493
1264.001	723.947	80.010	19.994	103.834	19.889	3.526	0.495
1264.501	724.187	80.011	19.995	103.837	19.890	3.478	0.519
1265.000	724.438	80.010	19.995	103.839	19.892	3.303	0.508
1265.499	724.721	80.010	19.994	103.839	19.889	3.558	0.513
1265.999	724.966	80.010	19.994	103.840	19.893	3.243	0.531
1266.499	725.259	80.012	19.994	103.841	19.891	3.409	0.533
1266.999	725.502	80.010	19.995	103.844	19.891	3.393	0.537
1267.500	725.793	80.012	19.994	103.847	19.893	3.279	0.535
1268.000	725.990	80.012	19.994	103.850	19.896	3.032	0.511
1268.499	726.252	80.012	19.993	103.854	19.895	3.152	0.473
1268.999	726.518	80.010	19.993	103.857	19.893	3.299	0.493
1269.499	726.754	80.012	19.994	103.854	19.894	3.220	0.515
1270.000	727.005	80.012	19.994	103.853	19.895	3.144	0.495
1270.501	727.273	80.011	19.995	103.851	19.890	3.449	0.503
1271.001	727.492	80.010	19.994	103.849	19.892	3.301	0.503
1271.501	727.760	80.012	19.994	103.847	19.893	3.230	0.487
1272.001	728.022	80.011	19.993	103.850	19.893	3.265	0.509
1272.500	728.317	80.012	19.993	103.850	19.896	3.068	0.543
1272.999	728.550	80.011	19.993	103.850	19.896	3.066	0.542
1273.500	728.816	80.011	19.993	103.848	19.897	2.970	0.514
1274.001	729.067	80.011	19.992	103.848	19.893	3.273	0.508
1274.501	729.342	80.011	19.993	103.847	19.896	3.070	0.521
1275.001	729.595	80.011	19.993	103.843	19.896	3.078	0.527
1275.501	729.848	80.010	19.993	103.840	19.897	2.978	0.517
1276.000	730.124	80.011	19.995	103.838	19.895	3.142	0.518
1276.499	730.347	80.012	19.993	103.835	19.894	3.220	0.514
1276.999	730.644	80.012	19.993	103.833	19.896	3.062	0.509
1277.500	730.875	80.013	19.994	103.838	19.893	3.271	0.524
1278.000	731.131	80.013	19.993	103.842	19.893	3.289	0.508
1278.500	731.366	80.012	19.994	103.846	19.893	3.235	0.489
1279.000	731.642	80.012	19.994	103.850	19.893	3.299	0.501
1279.499	731.913	80.010	19.994	103.852	19.893	3.275	0.529
1279.999	732.170	80.011	19.992	103.851	19.894	3.187	0.538
1280.500	732.409	80.011	19.993	103.852	19.894	3.182	0.512
1280.999	732.694	80.011	19.993	103.855	19.894	3.160	0.509
1281.499	732.963	80.011	19.993	103.855	19.894	3.197	0.539
1281.999	733.229	80.011	19.994	103.852	19.894	3.221	0.545
1282.500	733.494	80.012	19.994	103.848	19.894	3.205	0.533
1283.000	733.728	80.011	19.993	103.843	19.894	3.164	0.515
1283.500	733.998	80.012	19.993	103.838	19.893	3.255	0.501
1283.999	734.231	80.011	19.993	103.834	19.893	3.228	0.504
1284.499	734.526	80.010	19.993	103.838	19.891	3.403	0.516
1284.999	734.769	80.011	19.993	103.840	19.891	3.395	0.533
1285.499	735.003	80.011	19.995	103.844	19.890	3.449	0.508
1285.999	735.286	80.010	19.993	103.848	19.891	3.389	0.497
1286.499	735.531	80.010	19.994	103.853	19.894	3.204	0.523
1287.000	735.786	80.011	19.994	103.851	19.891	3.443	0.514
1287.500	736.046	80.011	19.993	103.852	19.892	3.361	0.507
1287.999	736.303	80.013	19.994	103.852	19.893	3.287	0.516
1288.500	736.558	80.011	19.994	103.850	19.892	3.337	0.515
1289.000	736.801	80.011	19.993	103.845	19.893	3.258	0.505
1289.499	737.059	80.011	19.994	103.845	19.894	3.192	0.499
1289.999	737.336	80.012	19.994	103.841	19.890	3.505	0.518
1290.499	737.569	80.011	19.995	103.840	19.890	3.488	0.522
1291.000	737.823	80.012	19.993	103.839	19.894	3.197	0.499
1291.500	738.063	80.012	19.993	103.843	19.893	3.295	0.491
1291.999	738.331	80.012	19.994	103.842	19.893	3.283	0.501
1292.499	738.571	80.012	19.993	103.842	19.891	3.413	0.508
1292.999	738.852	80.012	19.994	103.838	19.890	3.491	0.514
1293.500	739.078	80.010	19.994	103.840	19.892	3.347	0.513
1294.000	739.361	80.012	19.994	103.841	19.887	3.674	0.508
1294.500	739.593	80.012	19.994	103.842	19.887	3.690	0.512
1295.000	739.879	80.011	19.993	103.847	19.890	3.489	0.516
1295.501	740.130	80.012	19.995	103.853	19.888	3.652	0.528
1296.001	740.408	80.012	19.995	103.856	19.890	3.514	0.533
1296.500	740.636	80.010	19.993	103.857	19.893	3.227	0.518
1297.000	740.882	80.014	19.995	103.857	19.891	3.389	0.490
1297.501	741.137	80.014	19.994	103.853	19.892	3.329	0.487
1298.000	741.402	80.013	19.994	103.851	19.890	3.514	0.511
1298.500	741.632	80.013	19.993	103.850	19.892	3.333	0.508
1299.001	741.865	80.013	19.994	103.851	19.890	3.461	0.479
1299.500	742.136	80.012	19.993	103.853	19.888	3.608	0.483
1299.999	742.379	80.014	19.994	103.853	19.891	3.399	0.509
1300.499	742.650	80.014	19.993	103.851	19.890	3.508	0.514
1301.000	742.897	80.014	19.993	103.847	19.887	3.721	0.515
1301.501	743.137	80.014	19.994	103.842	19.892	3.359	0.502
1302.000	743.430	80.012	19.994	103.839	19.889	3.534	0.510
1302.499	743.684	80.015	19.993	103.837	19.889	3.554	0.540
