Sample ID:	C:\MCC\MCC Cal\Test\CPVC_Pipe_MCC_30K_min_211119_R3.txt
Sample Weight (mg):	4.3
Heating Rate (C/s):	0.5
Combustor Temp (C):	900
N2 Flow Rate (cc/min):	80
O2 Flow Rate (cc/min):	20
Calibration File:	C:\MCC\MCC Cal\Coeff1 JN10440_30_210304.txt.txt
T Correction Coefficients:	0	1.024463	0
Time Shift (s):	14
*
Time (s)	Temperature (C)	N2 flow rate (cc/min)	O2 flow rate (cc/min)	Flow Rate (cc/min)	Oxygen (%)	HRR (W/g)	Heating rate (C/s)
-0.001	107.319	80.007	19.992	103.035	20.233	0.087	-0.031
0.499	107.357	80.008	19.997	103.039	20.235	-0.063	-0.018
1.000	107.340	80.007	19.996	103.043	20.232	0.134	0.017
1.500	107.334	80.007	19.995	103.048	20.232	0.118	-0.000
2.000	107.345	80.008	19.994	103.050	20.229	0.357	-0.009
2.500	107.343	80.007	19.996	103.047	20.232	0.093	0.006
2.999	107.343	80.006	19.995	103.046	20.233	0.057	0.003
3.499	107.324	80.005	19.993	103.046	20.232	0.116	-0.010
3.999	107.316	80.007	19.995	103.046	20.234	0.006	-0.023
4.499	107.350	80.006	19.995	103.046	20.235	-0.075	-0.001
4.999	107.337	80.004	19.997	103.048	20.233	0.059	0.024
5.499	107.366	80.004	19.994	103.048	20.237	-0.231	0.019
6.000	107.332	80.004	19.995	103.049	20.234	-0.039	0.006
6.500	107.364	80.005	19.996	103.049	20.233	0.059	-0.003
6.999	107.364	80.005	19.995	103.047	20.233	0.077	0.015
7.499	107.339	80.004	19.995	103.049	20.232	0.150	0.004
7.999	107.373	80.006	19.995	103.043	20.232	0.142	-0.008
8.499	107.339	80.005	19.996	103.038	20.230	0.266	0.004
8.999	107.358	80.006	19.994	103.033	20.232	0.122	-0.008
9.499	107.325	80.005	19.995	103.035	20.233	0.057	-0.015
9.999	107.337	80.006	19.994	103.036	20.231	0.234	-0.017
10.499	107.351	80.005	19.994	103.041	20.231	0.201	0.003
10.999	107.362	80.005	19.993	103.047	20.232	0.110	0.026
11.499	107.320	80.006	19.993	103.051	20.230	0.311	-0.003
11.999	107.341	80.006	19.995	103.053	20.230	0.313	-0.026
12.499	107.375	80.006	19.995	103.054	20.226	0.615	0.017
12.999	107.327	80.005	19.995	103.060	20.231	0.223	0.020
13.499	107.346	80.004	19.994	103.068	20.229	0.339	-0.021
13.999	107.344	80.005	19.996	103.077	20.230	0.254	-0.006
14.499	107.366	80.006	19.993	103.086	20.230	0.272	0.019
14.999	107.336	80.006	19.996	103.101	20.225	0.620	0.006
15.499	107.349	80.005	19.995	103.112	20.228	0.416	-0.013
15.999	107.355	80.006	19.993	103.107	20.228	0.459	0.001
16.499	107.381	80.006	19.995	103.098	20.227	0.516	0.026
16.999	107.392	80.005	19.997	103.093	20.225	0.656	0.035
17.499	107.361	80.005	19.992	103.086	20.225	0.640	0.009
17.999	107.406	80.005	19.994	103.079	20.225	0.634	-0.003
18.499	107.403	80.004	19.993	103.087	20.223	0.788	0.028
18.999	107.422	80.003	19.995	103.103	20.221	0.945	0.029
19.499	107.459	80.004	19.994	103.109	20.222	0.852	0.036
19.999	107.437	80.005	19.993	103.108	20.219	1.104	0.035
20.499	107.420	80.005	19.994	103.108	20.221	0.943	-0.012
20.999	107.469	80.006	19.992	103.108	20.222	0.900	-0.004
21.499	107.467	80.007	19.994	103.101	20.224	0.744	0.040
21.999	107.495	80.006	19.996	103.102	20.222	0.862	0.037
22.499	107.487	80.005	19.994	103.104	20.220	1.027	0.023
22.999	107.501	80.006	19.992	103.104	20.220	0.992	0.013
23.499	107.543	80.005	19.993	103.108	20.219	1.069	0.031
23.999	107.541	80.005	19.996	103.115	20.221	0.966	0.048
24.499	107.542	80.005	19.993	103.121	20.219	1.082	0.020
24.999	107.567	80.006	19.996	103.127	20.218	1.151	0.012
25.499	107.597	80.006	19.995	103.134	20.218	1.194	0.041
25.999	107.585	80.007	19.994	103.138	20.215	1.377	0.037
26.499	107.622	80.006	19.996	103.146	20.214	1.486	0.022
26.999	107.643	80.007	19.994	103.153	20.215	1.426	0.041
27.499	107.687	80.004	19.993	103.161	20.211	1.678	0.061
27.999	107.713	80.005	19.995	103.169	20.212	1.649	0.067
28.499	107.737	80.005	19.995	103.175	20.211	1.700	0.060
28.999	107.744	80.005	19.997	103.175	20.210	1.769	0.041
29.499	107.783	80.005	19.995	103.178	20.208	1.928	0.039
29.999	107.799	80.005	19.993	103.181	20.208	1.962	0.051
30.499	107.880	80.005	19.992	103.184	20.210	1.779	0.076
30.999	107.915	80.005	19.995	103.185	20.207	2.021	0.107
31.499	107.941	80.006	19.994	103.188	20.208	1.913	0.088
32.000	107.971	80.005	19.996	103.192	20.206	2.088	0.058
32.500	107.993	80.003	19.995	103.197	20.202	2.381	0.054
32.999	108.032	80.005	19.992	103.201	20.202	2.383	0.057
33.499	108.109	80.002	19.994	103.208	20.200	2.528	0.089
33.999	108.118	80.004	19.994	103.213	20.199	2.591	0.101
34.499	108.186	80.004	19.993	103.215	20.202	2.381	0.081
34.999	108.216	80.004	19.995	103.219	20.200	2.540	0.087
35.499	108.272	80.004	19.997	103.225	20.198	2.703	0.092
35.999	108.345	80.004	19.997	103.232	20.199	2.607	0.107
36.499	108.408	80.002	19.993	103.239	20.198	2.707	0.133
37.000	108.454	80.004	19.995	103.245	20.201	2.483	0.122
37.500	108.539	80.004	19.996	103.249	20.199	2.585	0.120
37.999	108.576	80.003	19.994	103.251	20.199	2.576	0.127
38.499	108.653	80.005	19.992	103.249	20.196	2.796	0.118
38.999	108.689	80.003	19.998	103.243	20.198	2.682	0.113
39.499	108.772	80.005	19.997	103.243	20.194	2.961	0.116
39.999	108.849	80.006	19.993	103.243	20.196	2.794	0.139
40.499	108.891	80.004	19.996	103.242	20.196	2.859	0.139
40.999	108.957	80.005	19.995	103.241	20.196	2.790	0.113
41.499	109.018	80.005	19.995	103.246	20.196	2.833	0.118
41.999	109.128	80.004	19.997	103.248	20.192	3.106	0.149
42.499	109.190	80.005	19.996	103.248	20.193	3.059	0.171
42.999	109.301	80.004	19.994	103.248	20.194	2.984	0.172
43.499	109.343	80.004	19.995	103.251	20.191	3.214	0.163
43.999	109.448	80.004	19.995	103.252	20.194	2.976	0.150
44.499	109.535	80.004	19.997	103.256	20.191	3.182	0.170
45.000	109.590	80.004	19.995	103.259	20.195	2.939	0.167
45.501	109.721	80.005	19.996	103.259	20.189	3.334	0.164
46.001	109.782	80.005	19.994	103.259	20.189	3.344	0.189
46.500	109.825	80.006	19.996	103.259	20.190	3.247	0.148
46.999	109.971	80.005	19.995	103.255	20.190	3.259	0.146
47.499	110.058	80.006	19.993	103.252	20.190	3.283	0.211
47.999	110.157	80.006	19.996	103.251	20.188	3.403	0.210
48.499	110.207	80.007	19.994	103.251	20.187	3.515	0.168
48.999	110.349	80.006	19.994	103.251	20.187	3.519	0.171
49.500	110.456	80.007	19.993	103.251	20.186	3.550	0.221
50.000	110.567	80.007	19.996	103.254	20.185	3.640	0.233
50.499	110.668	80.006	19.994	103.259	20.186	3.603	0.215
50.999	110.746	80.006	19.993	103.259	20.185	3.662	0.196
51.499	110.865	80.007	19.993	103.261	20.182	3.900	0.188
51.999	110.966	80.006	19.995	103.262	20.185	3.638	0.208
52.499	111.078	80.008	19.994	103.267	20.184	3.711	0.217
53.000	111.189	80.008	19.994	103.269	20.182	3.875	0.218
53.500	111.306	80.008	19.993	103.274	20.184	3.749	0.225
53.999	111.429	80.007	19.994	103.280	20.182	3.841	0.234
54.499	111.545	80.007	19.994	103.285	20.183	3.809	0.240
54.999	111.636	80.006	19.996	103.283	20.184	3.721	0.223
55.499	111.790	80.004	19.994	103.286	20.184	3.722	0.226
55.999	111.865	80.007	19.994	103.287	20.182	3.913	0.237
56.499	112.028	80.006	19.995	103.287	20.179	4.094	0.233
56.999	112.133	80.005	19.996	103.288	20.180	4.021	0.253
57.499	112.248	80.006	19.995	103.288	20.179	4.131	0.244
57.999	112.381	80.005	19.996	103.288	20.182	3.866	0.234
58.499	112.518	80.006	19.995	103.288	20.180	4.063	0.259
58.999	112.587	80.004	19.996	103.288	20.183	3.801	0.238
59.499	112.765	80.007	19.994	103.289	20.181	3.966	0.227
59.999	112.889	80.005	19.996	103.289	20.179	4.074	0.274
60.499	113.046	80.006	19.995	103.289	20.182	3.880	0.292
60.999	113.168	80.005	19.995	103.295	20.180	4.011	0.280
61.499	113.282	80.006	19.995	103.301	20.181	3.919	0.257
61.999	113.463	80.005	19.995	103.300	20.178	4.177	0.265
62.500	113.579	80.005	19.996	103.303	20.179	4.114	0.296
63.001	113.734	80.006	19.994	103.302	20.180	4.059	0.284
63.500	113.823	80.005	19.995	103.297	20.177	4.247	0.257
63.999	114.022	80.005	19.994	103.291	20.176	4.291	0.265
64.499	114.129	80.004	19.994	103.292	20.180	4.041	0.297
64.999	114.297	80.005	19.997	103.295	20.180	4.035	0.291
65.499	114.470	80.005	19.995	103.302	20.177	4.216	0.308
65.999	114.605	80.004	19.996	103.309	20.178	4.199	0.324
66.499	114.771	80.005	19.995	103.316	20.178	4.196	0.304
66.999	114.881	80.004	19.995	103.318	20.179	4.098	0.288
67.499	115.044	80.004	19.996	103.316	20.179	4.135	0.275
67.999	115.194	80.006	19.995	103.315	20.177	4.216	0.294
68.499	115.352	80.004	19.996	103.316	20.179	4.124	0.310
68.999	115.544	80.006	19.995	103.315	20.179	4.069	0.329
69.499	115.660	80.005	19.994	103.314	20.177	4.283	0.329
69.999	115.838	80.005	19.995	103.316	20.176	4.364	0.301
70.499	115.995	80.005	19.993	103.318	20.181	3.972	0.315
70.999	116.152	80.003	19.995	103.314	20.179	4.080	0.325
71.499	116.348	80.006	19.994	103.315	20.182	3.911	0.334
71.999	116.548	80.007	19.995	103.316	20.180	4.032	0.374
72.499	116.702	80.006	19.994	103.314	20.178	4.183	0.375
72.999	116.880	80.006	19.996	103.309	20.176	4.311	0.343
73.499	117.025	80.005	19.995	103.313	20.181	3.971	0.328
73.999	117.205	80.005	19.993	103.314	20.180	4.044	0.324
74.499	117.422	80.007	19.995	103.313	20.181	3.990	0.361
75.000	117.521	80.006	19.995	103.312	20.184	3.754	0.356
75.501	117.699	80.007	19.993	103.312	20.180	4.055	0.296
76.000	117.874	80.006	19.994	103.309	20.180	4.010	0.315
76.499	118.068	80.006	19.995	103.304	20.180	4.008	0.362
76.999	118.256	80.008	19.996	103.306	20.182	3.886	0.376
77.499	118.431	80.005	19.994	103.311	20.182	3.863	0.372
77.999	118.577	80.007	19.991	103.308	20.181	3.953	0.342
78.499	118.766	80.007	19.992	103.310	20.181	3.985	0.328
78.999	118.970	80.007	19.993	103.309	20.180	4.014	0.364
79.499	119.135	80.007	19.994	103.304	20.180	4.034	0.381
80.000	119.334	80.006	19.995	103.302	20.181	3.920	0.366
80.500	119.497	80.008	19.994	103.309	20.179	4.075	0.363
80.999	119.668	80.006	19.994	103.311	20.177	4.222	0.348
81.500	119.914	80.008	19.993	103.314	20.182	3.847	0.375
82.000	120.075	80.006	19.991	103.314	20.180	4.036	0.412
82.499	120.227	80.006	19.994	103.310	20.179	4.073	0.361
82.999	120.390	80.007	19.994	103.302	20.182	3.865	0.314
83.499	120.591	80.006	19.993	103.295	20.179	4.130	0.339
83.999	120.780	80.007	19.991	103.292	20.180	4.040	0.376
84.499	120.997	80.006	19.994	103.294	20.177	4.242	0.397
84.999	121.201	80.007	19.994	103.297	20.179	4.071	0.413
85.499	121.392	80.006	19.993	103.302	20.178	4.171	0.408
85.999	121.611	80.004	19.994	103.305	20.180	4.014	0.403
86.499	121.753	80.006	19.996	103.309	20.181	3.970	0.386
86.999	121.977	80.005	19.993	103.305	20.178	4.206	0.363
87.499	122.196	80.006	19.994	103.303	20.178	4.185	0.404
87.999	122.377	80.006	19.993	103.297	20.177	4.269	0.422
88.499	122.570	80.005	19.995	103.294	20.179	4.134	0.387
88.999	122.784	80.006	19.996	103.290	20.181	3.988	0.390
89.499	122.965	80.004	19.994	103.290	20.180	4.051	0.401
89.999	123.120	80.003	19.994	103.291	20.176	4.332	0.366
90.499	123.346	80.006	19.995	103.292	20.179	4.134	0.359
90.999	123.546	80.005	19.995	103.294	20.179	4.073	0.403
91.499	123.748	80.004	19.995	103.295	20.180	4.002	0.414
91.999	123.925	80.003	19.994	103.298	20.177	4.228	0.390
92.499	124.157	80.005	19.994	103.297	20.178	4.167	0.394
92.999	124.301	80.005	19.994	103.297	20.181	3.967	0.393
93.500	124.533	80.004	19.993	103.295	20.180	4.018	0.376
94.000	124.730	80.005	19.994	103.294	20.178	4.209	0.402
94.499	124.968	80.004	19.995	103.293	20.181	3.963	0.432
94.999	125.129	80.006	19.995	103.293	20.178	4.189	0.417
95.499	125.343	80.005	19.995	103.293	20.180	4.022	0.387
95.999	125.574	80.004	19.996	103.296	20.175	4.380	0.410
96.500	125.766	80.005	19.996	103.297	20.176	4.299	0.434
97.001	125.993	80.005	19.994	103.299	20.178	4.167	0.421
97.500	126.164	80.006	19.994	103.305	20.177	4.279	0.408
97.999	126.404	80.005	19.996	103.306	20.177	4.222	0.405
98.499	126.584	80.004	19.996	103.304	20.178	4.173	0.415
98.999	126.759	80.004	19.994	103.308	20.178	4.205	0.387
99.499	127.011	80.005	19.994	103.308	20.179	4.124	0.391
99.999	127.190	80.007	19.995	103.303	20.176	4.313	0.429
100.499	127.437	80.004	19.996	103.303	20.178	4.165	0.429
100.999	127.610	80.005	19.993	103.305	20.176	4.325	0.423
101.499	127.819	80.005	19.993	103.301	20.175	4.390	0.401
101.999	128.031	80.005	19.994	103.298	20.178	4.209	0.402
102.499	128.248	80.005	19.994	103.298	20.177	4.250	0.425
102.999	128.444	80.006	19.994	103.297	20.178	4.179	0.421
103.499	128.671	80.006	19.994	103.297	20.172	4.610	0.417
104.000	128.894	80.005	19.993	103.298	20.177	4.283	0.436
104.500	129.123	80.006	19.992	103.299	20.177	4.226	0.451
104.999	129.280	80.005	19.993	103.300	20.178	4.167	0.419
105.499	129.511	80.005	19.993	103.299	20.176	4.320	0.387
105.999	129.753	80.004	19.994	103.298	20.175	4.381	0.431
106.500	129.976	80.005	19.994	103.298	20.176	4.302	0.470
107.000	130.174	80.006	19.991	103.298	20.176	4.338	0.443
107.499	130.411	80.005	19.995	103.302	20.174	4.485	0.428
107.999	130.645	80.007	19.994	103.302	20.176	4.296	0.453
108.499	130.811	80.005	19.994	103.302	20.177	4.271	0.436
108.999	131.079	80.004	19.993	103.301	20.179	4.122	0.417
109.499	131.255	80.007	19.995	103.299	20.176	4.332	0.438
110.000	131.456	80.005	19.995	103.295	20.177	4.277	0.410
110.500	131.697	80.006	19.993	103.297	20.179	4.122	0.410
110.999	131.910	80.005	19.994	103.299	20.176	4.334	0.448
111.499	132.123	80.008	19.994	103.301	20.178	4.143	0.440
111.999	132.290	80.005	19.994	103.302	20.176	4.318	0.403
112.499	132.530	80.004	19.994	103.300	20.176	4.300	0.394
112.999	132.777	80.007	19.994	103.299	20.175	4.440	0.447
113.499	132.993	80.007	19.995	103.300	20.177	4.232	0.475
113.999	133.191	80.003	19.992	103.303	20.177	4.283	0.438
114.500	133.423	80.002	19.996	103.306	20.179	4.102	0.422
115.001	133.622	80.005	19.993	103.312	20.178	4.189	0.431
115.500	133.853	80.007	19.994	103.318	20.179	4.136	0.431
115.999	134.093	80.006	19.994	103.320	20.179	4.079	0.451
116.500	134.342	80.006	19.995	103.323	20.177	4.242	0.480
117.000	134.572	80.004	19.994	103.322	20.176	4.340	0.484
117.499	134.765	80.006	19.993	103.322	20.177	4.226	0.451
117.999	135.014	80.006	19.995	103.320	20.177	4.271	0.432
118.499	135.242	80.005	19.994	103.321	20.178	4.168	0.460
118.999	135.455	80.006	19.994	103.320	20.179	4.104	0.459
119.499	135.673	80.005	19.994	103.319	20.176	4.328	0.436
119.999	135.914	80.005	19.991	103.313	20.174	4.444	0.445
120.500	136.153	80.006	19.995	103.308	20.175	4.426	0.469
121.000	136.347	80.007	19.995	103.305	20.177	4.235	0.456
121.499	136.569	80.004	19.994	103.303	20.173	4.522	0.425
121.999	136.826	80.005	19.994	103.305	20.175	4.424	0.448
122.500	137.014	80.006	19.995	103.310	20.174	4.452	0.462
123.000	137.251	80.005	19.993	103.318	20.175	4.369	0.435
123.500	137.527	80.003	19.996	103.317	20.175	4.425	0.469
124.000	137.770	80.005	19.994	103.314	20.174	4.494	0.516
124.499	137.973	80.006	19.995	103.313	20.178	4.209	0.482
124.999	138.241	80.005	19.995	103.312	20.178	4.169	0.458
125.499	138.452	80.005	19.994	103.306	20.172	4.606	0.475
125.999	138.668	80.004	19.994	103.306	20.177	4.240	0.453
126.499	138.899	80.003	19.996	103.305	20.173	4.523	0.437
126.999	139.166	80.005	19.994	103.303	20.177	4.275	0.473
127.499	139.343	80.003	19.995	103.306	20.175	4.417	0.471
127.999	139.603	80.007	19.995	103.311	20.173	4.537	0.441
128.500	139.871	80.004	19.995	103.312	20.173	4.551	0.483
129.000	140.100	80.007	19.995	103.317	20.175	4.404	0.512
129.500	140.353	80.006	19.995	103.321	20.172	4.604	0.489
130.000	140.580	80.006	19.996	103.321	20.176	4.354	0.481
130.500	140.778	80.006	19.995	103.322	20.173	4.569	0.453
131.000	141.028	80.006	19.994	103.321	20.173	4.557	0.437
131.500	141.303	80.005	19.996	103.320	20.176	4.299	0.486
132.000	141.543	80.006	19.995	103.320	20.176	4.311	0.520
132.500	141.748	80.006	19.994	103.320	20.175	4.399	0.480
133.000	141.968	80.007	19.995	103.320	20.174	4.498	0.435
133.500	142.249	80.005	19.994	103.316	20.174	4.476	0.463
134.000	142.510	80.006	19.996	103.310	20.173	4.543	0.521
134.500	142.752	80.004	19.994	103.305	20.176	4.348	0.522
135.000	142.965	80.007	19.994	103.303	20.173	4.584	0.479
135.500	143.207	80.006	19.994	103.297	20.172	4.608	0.455
136.000	143.451	80.008	19.994	103.299	20.174	4.507	0.471
136.500	143.672	80.007	19.994	103.305	20.173	4.568	0.476
137.000	143.949	80.005	19.994	103.310	20.174	4.509	0.481
137.500	144.191	80.006	19.993	103.310	20.173	4.523	0.508
138.000	144.404	80.007	19.994	103.311	20.177	4.282	0.487
138.500	144.685	80.008	19.994	103.310	20.174	4.504	0.474
139.000	144.926	80.006	19.994	103.304	20.172	4.653	0.508
139.500	145.179	80.005	19.992	103.297	20.176	4.345	0.508
140.000	145.436	80.007	19.995	103.292	20.174	4.463	0.502
140.500	145.650	80.006	19.996	103.294	20.172	4.610	0.490
141.000	145.911	80.005	19.994	103.292	20.175	4.396	0.473
141.500	146.099	80.006	19.993	103.295	20.174	4.484	0.462
142.000	146.384	80.006	19.996	103.297	20.175	4.433	0.462
142.500	146.571	80.006	19.996	103.300	20.175	4.398	0.473
143.000	146.808	80.006	19.994	103.297	20.177	4.268	0.448
143.500	147.067	80.006	19.994	103.298	20.174	4.510	0.460
144.000	147.334	80.007	19.992	103.297	20.172	4.636	0.511
144.500	147.594	80.004	19.995	103.295	20.174	4.443	0.526
145.000	147.852	80.005	19.995	103.295	20.176	4.345	0.523
145.500	148.071	80.005	19.994	103.297	20.177	4.288	0.498
146.000	148.334	80.007	19.993	103.300	20.175	4.384	0.480
146.500	148.572	80.004	19.994	103.306	20.172	4.620	0.491
147.000	148.803	80.004	19.994	103.309	20.177	4.278	0.485
147.500	149.082	80.005	19.994	103.308	20.175	4.400	0.490
148.000	149.274	80.005	19.994	103.305	20.174	4.449	0.491
148.500	149.591	80.005	19.995	103.303	20.175	4.366	0.490
149.000	149.816	80.006	19.995	103.296	20.171	4.724	0.525
149.500	150.066	80.007	19.994	103.293	20.171	4.701	0.508
150.000	150.319	80.001	19.995	103.292	20.174	4.465	0.489
150.500	150.545	80.008	19.994	103.292	20.175	4.404	0.491
151.000	150.782	80.004	19.995	103.292	20.172	4.644	0.471
151.500	151.019	80.007	19.994	103.292	20.171	4.705	0.468
152.000	151.314	80.006	19.995	103.292	20.172	4.602	0.503
152.500	151.544	80.006	19.994	103.291	20.172	4.622	0.529
153.000	151.832	80.004	19.994	103.291	20.173	4.524	0.521
153.500	152.091	80.004	19.994	103.290	20.172	4.644	0.532
154.000	152.308	80.007	19.994	103.290	20.175	4.414	0.512
154.500	152.532	80.004	19.995	103.289	20.173	4.532	0.458
155.000	152.810	80.006	19.995	103.290	20.176	4.304	0.471
155.500	153.035	80.005	19.997	103.290	20.177	4.250	0.503
156.000	153.323	80.006	19.996	103.291	20.176	4.315	0.508
156.500	153.552	80.006	19.995	103.291	20.174	4.508	0.515
157.000	153.787	80.004	19.994	103.291	20.173	4.583	0.490
157.500	154.039	80.004	19.994	103.291	20.171	4.666	0.475
158.000	154.298	80.007	19.996	103.291	20.174	4.465	0.499
158.500	154.525	80.007	19.996	103.291	20.172	4.638	0.499
159.000	154.786	80.008	19.995	103.291	20.174	4.444	0.487
159.500	155.044	80.006	19.995	103.291	20.172	4.629	0.504
160.000	155.261	80.008	19.993	103.290	20.172	4.634	0.497
160.500	155.504	80.007	19.991	103.290	20.174	4.489	0.468
161.000	155.784	80.008	19.993	103.290	20.174	4.459	0.492
161.500	156.017	80.008	19.995	103.290	20.173	4.579	0.518
162.000	156.263	80.007	19.993	103.290	20.175	4.424	0.496
162.500	156.503	80.006	19.995	103.291	20.173	4.573	0.482
163.000	156.782	80.006	19.996	103.290	20.171	4.676	0.502
163.500	157.004	80.008	19.995	103.289	20.175	4.371	0.510
164.000	157.258	80.006	19.995	103.289	20.174	4.489	0.488
164.500	157.526	80.010	19.995	103.289	20.176	4.302	0.499
165.000	157.758	80.006	19.994	103.286	20.171	4.671	0.511
165.500	157.968	80.007	19.995	103.287	20.175	4.386	0.471
166.000	158.283	80.006	19.995	103.287	20.175	4.420	0.483
166.500	158.499	80.006	19.997	103.287	20.174	4.482	0.528
167.000	158.751	80.007	19.994	103.287	20.176	4.303	0.500
167.500	159.016	80.005	19.994	103.289	20.174	4.467	0.492
168.000	159.243	80.007	19.993	103.289	20.174	4.508	0.504
168.500	159.552	80.005	19.992	103.285	20.176	4.320	0.514
169.000	159.754	80.007	19.995	103.280	20.176	4.314	0.523
169.500	160.027	80.004	19.993	103.276	20.175	4.434	0.493
170.000	160.265	80.005	19.994	103.276	20.174	4.446	0.493
170.500	160.533	80.005	19.995	103.277	20.175	4.416	0.509
171.000	160.771	80.006	19.995	103.281	20.175	4.432	0.506
171.500	161.016	80.006	19.995	103.282	20.171	4.664	0.494
172.000	161.278	80.005	19.994	103.286	20.171	4.725	0.495
172.500	161.507	80.004	19.994	103.286	20.172	4.658	0.499
173.000	161.745	80.004	19.994	103.284	20.169	4.833	0.479
173.500	162.017	80.005	19.994	103.277	20.173	4.532	0.489
174.000	162.274	80.007	19.994	103.280	20.172	4.623	0.519
174.500	162.541	80.005	19.994	103.281	20.172	4.609	0.526
175.000	162.788	80.007	19.995	103.279	20.170	4.749	0.519
175.500	163.021	80.007	19.995	103.281	20.172	4.659	0.497
176.000	163.288	80.006	19.994	103.287	20.170	4.757	0.490
176.500	163.484	80.006	19.993	103.288	20.173	4.568	0.482
177.000	163.777	80.005	19.993	103.289	20.171	4.686	0.476
177.500	164.062	80.005	19.996	103.289	20.171	4.668	0.533
178.000	164.262	80.006	19.994	103.290	20.171	4.668	0.531
178.500	164.545	80.006	19.995	103.286	20.171	4.731	0.484
179.000	164.776	80.007	19.994	103.280	20.170	4.757	0.499
179.500	165.080	80.005	19.996	103.275	20.169	4.841	0.525
180.000	165.308	80.006	19.995	103.269	20.174	4.499	0.533
180.500	165.555	80.007	19.995	103.265	20.172	4.661	0.503
181.000	165.789	80.006	19.994	103.264	20.175	4.438	0.478
181.500	166.079	80.005	19.994	103.268	20.173	4.564	0.503
182.000	166.329	80.005	19.994	103.272	20.174	4.511	0.532
182.500	166.586	80.005	19.995	103.276	20.174	4.444	0.524
183.000	166.825	80.004	19.995	103.280	20.172	4.601	0.502
183.500	167.093	80.006	19.994	103.285	20.172	4.637	0.502
184.000	167.319	80.007	19.994	103.281	20.171	4.696	0.500
184.500	167.605	80.007	19.994	103.275	20.175	4.409	0.503
185.000	167.788	80.007	19.994	103.272	20.170	4.751	0.491
185.500	168.033	80.007	19.995	103.269	20.172	4.657	0.449
186.000	168.276	80.004	19.996	103.264	20.172	4.602	0.458
186.500	168.545	80.005	19.994	103.264	20.173	4.535	0.500
187.000	168.772	80.006	19.996	103.267	20.173	4.578	0.504
187.500	169.074	80.006	19.995	103.267	20.172	4.606	0.513
188.000	169.305	80.004	19.994	103.263	20.176	4.352	0.531
188.500	169.531	80.004	19.995	103.265	20.172	4.653	0.495
189.000	169.775	80.006	19.995	103.266	20.174	4.440	0.463
189.500	170.045	80.006	19.995	103.266	20.169	4.814	0.492
190.001	170.288	80.005	19.994	103.266	20.173	4.568	0.514
190.501	170.547	80.007	19.995	103.268	20.174	4.484	0.507
191.000	170.776	80.007	19.994	103.265	20.173	4.517	0.495
191.500	171.022	80.006	19.995	103.264	20.176	4.328	0.482
192.000	171.267	80.007	19.995	103.266	20.173	4.578	0.483
192.500	171.529	80.007	19.994	103.269	20.177	4.287	0.499
193.000	171.789	80.004	19.995	103.273	20.174	4.496	0.514
193.500	171.979	80.006	19.995	103.276	20.174	4.496	0.486
194.000	172.272	80.007	19.995	103.274	20.172	4.629	0.467
194.500	172.543	80.005	19.994	103.271	20.173	4.576	0.524
195.000	172.763	80.007	19.994	103.267	20.175	4.438	0.527
195.500	173.013	80.007	19.994	103.262	20.174	4.458	0.480
196.000	173.227	80.006	19.994	103.263	20.176	4.324	0.468
196.500	173.540	80.006	19.995	103.263	20.175	4.377	0.496
197.000	173.743	80.004	19.994	103.260	20.175	4.436	0.521
197.500	174.003	80.007	19.994	103.261	20.178	4.202	0.489
198.000	174.275	80.005	19.994	103.261	20.176	4.289	0.498
198.500	174.505	80.005	19.994	103.258	20.175	4.383	0.517
199.000	174.762	80.005	19.995	103.262	20.178	4.175	0.494
199.500	174.981	80.007	19.994	103.264	20.176	4.326	0.481
200.000	175.242	80.005	19.994	103.262	20.178	4.155	0.478
200.500	175.477	80.005	19.995	103.262	20.176	4.291	0.488
201.000	175.736	80.006	19.994	103.263	20.173	4.586	0.496
201.500	175.981	80.005	19.995	103.260	20.173	4.580	0.499
202.000	176.205	80.006	19.995	103.259	20.173	4.576	0.486
202.500	176.456	80.005	19.994	103.259	20.175	4.415	0.472
203.000	176.720	80.005	19.995	103.258	20.172	4.606	0.495
203.500	176.956	80.006	19.995	103.255	20.173	4.521	0.507
204.000	177.251	80.008	19.995	103.254	20.172	4.615	0.515
204.500	177.463	80.004	19.994	103.255	20.174	4.458	0.519
205.000	177.727	80.006	19.993	103.259	20.170	4.785	0.492
205.500	177.988	80.007	19.994	103.259	20.171	4.728	0.501
206.000	178.207	80.004	19.994	103.260	20.169	4.846	0.502
206.500	178.461	80.007	19.994	103.260	20.171	4.684	0.476
207.000	178.725	80.004	19.994	103.261	20.172	4.627	0.496
207.500	178.952	80.005	19.993	103.259	20.172	4.649	0.505
208.000	179.220	80.004	19.994	103.259	20.170	4.810	0.493
208.500	179.485	80.005	19.993	103.260	20.169	4.814	0.514
209.000	179.731	80.007	19.994	103.262	20.171	4.728	0.522
209.500	180.005	80.005	19.994	103.260	20.170	4.743	0.516
210.000	180.240	80.006	19.994	103.259	20.171	4.688	0.515
210.500	180.505	80.006	19.994	103.259	20.174	4.502	0.504
211.000	180.695	80.005	19.994	103.258	20.173	4.561	0.477
211.500	180.974	80.006	19.994	103.259	20.172	4.625	0.462
212.000	181.254	80.005	19.994	103.258	20.173	4.570	0.514
212.500	181.478	80.009	19.995	103.261	20.171	4.686	0.531
213.000	181.722	80.006	19.996	103.262	20.171	4.690	0.486
213.500	181.994	80.005	19.994	103.261	20.173	4.572	0.493
214.000	182.242	80.005	19.997	103.260	20.170	4.771	0.518
214.500	182.494	80.007	19.995	103.259	20.171	4.722	0.510
215.000	182.724	80.006	19.995	103.260	20.169	4.814	0.491
215.500	182.940	80.005	19.995	103.260	20.170	4.759	0.464
216.000	183.213	80.004	19.995	103.262	20.174	4.511	0.468
216.500	183.400	80.007	19.995	103.261	20.169	4.850	0.475
217.000	183.662	80.008	19.995	103.261	20.169	4.828	0.454
217.500	183.905	80.008	19.994	103.258	20.173	4.515	0.476
218.000	184.175	80.009	19.994	103.256	20.172	4.621	0.509
218.500	184.373	80.006	19.995	103.255	20.172	4.645	0.491
219.000	184.637	80.005	19.995	103.256	20.173	4.539	0.465
219.500	184.893	80.007	19.995	103.256	20.173	4.580	0.491
220.000	185.099	80.006	19.994	103.256	20.170	4.808	0.491
220.500	185.382	80.007	19.994	103.257	20.171	4.710	0.475
221.000	185.608	80.007	19.994	103.258	20.174	4.472	0.499
221.500	185.881	80.007	19.995	103.255	20.169	4.885	0.504
222.000	186.150	80.007	19.995	103.256	20.170	4.753	0.521
222.500	186.408	80.004	19.994	103.257	20.172	4.641	0.535
223.000	186.637	80.005	19.994	103.256	20.172	4.639	0.507
223.500	186.894	80.008	19.995	103.261	20.173	4.527	0.487
224.000	187.121	80.006	19.994	103.261	20.169	4.826	0.485
224.500	187.400	80.005	19.994	103.260	20.172	4.592	0.495
225.000	187.658	80.007	19.995	103.260	20.171	4.669	0.521
225.500	187.884	80.005	19.995	103.261	20.171	4.696	0.510
226.000	188.141	80.006	19.994	103.258	20.170	4.785	0.483
226.500	188.362	80.005	19.995	103.258	20.172	4.602	0.481
227.000	188.611	80.005	19.994	103.258	20.172	4.643	0.474
227.500	188.872	80.006	19.995	103.257	20.173	4.551	0.490
228.000	189.068	80.005	19.995	103.256	20.174	4.500	0.484
228.500	189.349	80.004	19.994	103.255	20.176	4.336	0.468
229.000	189.589	80.003	19.995	103.259	20.174	4.484	0.499
229.500	189.859	80.005	19.995	103.262	20.173	4.516	0.515
230.000	190.125	80.005	19.994	103.263	20.174	4.480	0.523
230.500	190.331	80.009	19.994	103.264	20.170	4.740	0.504
231.000	190.622	80.007	19.993	103.264	20.172	4.640	0.484
231.500	190.840	80.003	19.994	103.260	20.171	4.736	0.503
232.000	191.066	80.006	19.995	103.258	20.170	4.783	0.477
232.500	191.359	80.006	19.994	103.256	20.172	4.604	0.482
233.000	191.602	80.006	19.995	103.256	20.169	4.832	0.527
233.500	191.793	80.008	19.994	103.255	20.171	4.702	0.485
234.000	192.072	80.007	19.995	103.255	20.171	4.712	0.452
234.500	192.288	80.007	19.995	103.255	20.170	4.779	0.483
235.000	192.548	80.006	19.995	103.255	20.169	4.860	0.485
235.500	192.781	80.004	19.994	103.254	20.171	4.677	0.484
236.000	192.996	80.007	19.994	103.254	20.168	4.907	0.471
236.500	193.271	80.007	19.994	103.254	20.168	4.944	0.469
237.000	193.514	80.006	19.994	103.254	20.170	4.779	0.504
237.500	193.768	80.007	19.994	103.254	20.172	4.657	0.508
238.000	194.045	80.007	19.994	103.254	20.167	4.990	0.514
238.500	194.285	80.008	19.994	103.253	20.169	4.832	0.524
239.000	194.489	80.006	19.994	103.252	20.171	4.710	0.480
239.500	194.732	80.007	19.994	103.253	20.169	4.878	0.446
240.000	195.031	80.008	19.994	103.252	20.170	4.762	0.495
240.500	195.306	80.008	19.995	103.251	20.174	4.510	0.558
241.000	195.487	80.007	19.995	103.251	20.173	4.533	0.515
241.500	195.723	80.007	19.994	103.251	20.170	4.809	0.436
242.000	196.015	80.009	19.995	103.250	20.171	4.722	0.473
242.500	196.212	80.010	19.994	103.250	20.169	4.866	0.509
243.000	196.529	80.008	19.995	103.250	20.169	4.823	0.501
243.500	196.707	80.009	19.995	103.252	20.170	4.776	0.505
244.000	196.956	80.009	19.994	103.251	20.170	4.801	0.461
244.500	197.142	80.007	19.995	103.252	20.170	4.795	0.430
245.000	197.449	80.007	19.995	103.252	20.170	4.809	0.464
245.500	197.620	80.006	19.995	103.253	20.167	4.966	0.486
246.000	197.901	80.008	19.994	103.251	20.169	4.836	0.465
246.500	198.175	80.007	19.995	103.251	20.172	4.624	0.503
247.000	198.408	80.005	19.994	103.250	20.168	4.925	0.530
247.500	198.649	80.007	19.995	103.251	20.169	4.842	0.490
248.000	198.866	80.007	19.994	103.251	20.166	5.055	0.466
248.500	199.138	80.006	19.995	103.249	20.164	5.192	0.474
249.000	199.408	80.007	19.996	103.250	20.166	5.039	0.516
249.500	199.665	80.007	19.994	103.250	20.169	4.852	0.535
250.000	199.858	80.005	19.995	103.248	20.165	5.167	0.489
250.500	200.090	80.005	19.996	103.248	20.165	5.118	0.437
251.000	200.326	80.005	19.994	103.249	20.166	5.057	0.447
251.500	200.592	80.005	19.995	103.249	20.166	5.070	0.485
252.000	200.827	80.004	19.995	103.249	20.166	5.039	0.501
252.500	201.082	80.006	19.996	103.249	20.165	5.161	0.495
253.000	201.316	80.003	19.995	103.249	20.166	5.108	0.489
253.500	201.582	80.006	19.995	103.248	20.166	5.108	0.495
254.000	201.819	80.006	19.996	103.245	20.165	5.126	0.502
254.500	202.087	80.007	19.995	103.242	20.164	5.226	0.504
255.000	202.322	80.004	19.995	103.240	20.166	5.090	0.504
255.500	202.557	80.005	19.995	103.240	20.167	5.029	0.487
256.000	202.823	80.005	19.996	103.241	20.165	5.112	0.485
256.500	203.039	80.004	19.995	103.244	20.163	5.295	0.491
257.000	203.291	80.004	19.995	103.248	20.164	5.222	0.475
257.500	203.536	80.007	19.995	103.249	20.162	5.354	0.482
258.000	203.768	80.005	19.995	103.249	20.163	5.312	0.487
258.500	203.997	80.006	19.995	103.250	20.161	5.430	0.469
259.000	204.272	80.006	19.996	103.250	20.163	5.289	0.483
259.500	204.501	80.005	19.995	103.250	20.162	5.377	0.504
260.000	204.789	80.007	19.995	103.250	20.167	5.008	0.511
260.500	204.994	80.007	19.995	103.250	20.166	5.074	0.505
261.000	205.206	80.005	19.995	103.249	20.167	5.012	0.455
261.500	205.489	80.005	19.994	103.249	20.164	5.208	0.456
262.000	205.726	80.005	19.994	103.249	20.166	5.106	0.508
262.500	206.013	80.006	19.995	103.250	20.163	5.297	0.522
263.000	206.196	80.004	19.995	103.251	20.163	5.309	0.497
263.500	206.461	80.006	19.995	103.251	20.163	5.291	0.459
264.000	206.696	80.004	19.993	103.250	20.162	5.356	0.474
264.500	206.925	80.006	19.995	103.249	20.163	5.289	0.482
265.000	207.185	80.006	19.994	103.248	20.163	5.326	0.476
265.500	207.422	80.006	19.995	103.246	20.164	5.204	0.493
266.000	207.691	80.006	19.994	103.244	20.159	5.621	0.501
266.500	207.957	80.006	19.994	103.244	20.159	5.621	0.520
267.000	208.184	80.006	19.994	103.244	20.160	5.547	0.514
267.500	208.456	80.005	19.994	103.245	20.159	5.569	0.496
268.000	208.627	80.005	19.992	103.246	20.158	5.638	0.471
268.500	208.957	80.007	19.993	103.248	20.161	5.443	0.472
269.000	209.186	80.007	19.994	103.250	20.160	5.496	0.530
269.500	209.408	80.006	19.994	103.251	20.161	5.433	0.506
270.000	209.644	80.006	19.994	103.250	20.163	5.331	0.455
270.500	209.869	80.006	19.994	103.250	20.164	5.230	0.459
271.000	210.139	80.006	19.994	103.248	20.160	5.520	0.478
271.500	210.378	80.005	19.994	103.247	20.162	5.350	0.502
272.000	210.616	80.006	19.993	103.246	20.161	5.456	0.493
272.500	210.861	80.006	19.994	103.245	20.160	5.523	0.481
273.000	211.119	80.007	19.993	103.244	20.160	5.503	0.493
273.500	211.382	80.004	19.993	103.246	20.158	5.655	0.512
274.000	211.618	80.006	19.994	103.247	20.160	5.551	0.510
274.500	211.867	80.006	19.994	103.248	20.160	5.515	0.492
275.000	212.137	80.005	19.996	103.251	20.162	5.397	0.502
275.500	212.373	80.005	19.993	103.252	20.162	5.397	0.512
276.000	212.628	80.005	19.994	103.252	20.161	5.417	0.499
276.500	212.831	80.006	19.995	103.252	20.161	5.476	0.474
277.000	213.098	80.006	19.994	103.252	20.159	5.635	0.464
277.500	213.317	80.003	19.994	103.251	20.160	5.535	0.478
278.000	213.573	80.005	19.994	103.244	20.160	5.525	0.480
278.500	213.804	80.005	19.995	103.241	20.160	5.515	0.480
279.000	214.060	80.004	19.993	103.240	20.159	5.598	0.487
279.500	214.314	80.005	19.995	103.238	20.159	5.620	0.499
280.000	214.533	80.006	19.994	103.234	20.160	5.531	0.492
280.500	214.777	80.005	19.995	103.236	20.157	5.752	0.468
281.000	214.982	80.006	19.995	103.236	20.161	5.429	0.456
281.500	215.259	80.003	19.995	103.236	20.160	5.527	0.466
282.000	215.491	80.006	19.993	103.238	20.158	5.667	0.496
282.500	215.740	80.002	19.994	103.244	20.158	5.696	0.495
283.000	215.994	80.005	19.994	103.249	20.157	5.730	0.492
283.500	216.272	80.006	19.995	103.250	20.157	5.743	0.517
284.000	216.515	80.004	19.995	103.250	20.157	5.726	0.527
284.500	216.739	80.006	19.994	103.245	20.153	6.054	0.494
285.000	216.973	80.004	19.994	103.245	20.154	5.991	0.462
285.500	217.248	80.003	19.994	103.244	20.155	5.868	0.483
286.000	217.520	80.003	19.993	103.243	20.155	5.887	0.528
286.500	217.779	80.003	19.994	103.244	20.153	6.084	0.539
287.000	217.964	80.007	19.993	103.248	20.155	5.892	0.488
287.500	218.227	80.005	19.995	103.248	20.154	5.976	0.446
288.000	218.469	80.004	19.994	103.247	20.154	5.982	0.477
288.500	218.696	80.005	19.995	103.248	20.153	6.027	0.488
289.000	218.969	80.005	19.995	103.248	20.152	6.094	0.485
289.500	219.221	80.005	19.994	103.247	20.152	6.096	0.512
290.000	219.488	80.004	19.995	103.243	20.153	6.082	0.521
290.500	219.708	80.005	19.994	103.241	20.151	6.201	0.503
291.000	219.971	80.003	19.994	103.239	20.154	5.964	0.485
291.500	220.201	80.004	19.994	103.236	20.154	5.962	0.488
292.000	220.455	80.005	19.994	103.239	20.154	6.001	0.488
292.500	220.652	80.005	19.994	103.244	20.149	6.322	0.468
293.000	220.929	80.005	19.995	103.248	20.149	6.316	0.463
293.500	221.199	80.005	19.995	103.248	20.149	6.316	0.510
294.000	221.419	80.006	19.993	103.250	20.150	6.251	0.519
294.500	221.674	80.005	19.994	103.250	20.148	6.387	0.483
295.000	221.934	80.007	19.993	103.250	20.151	6.163	0.495
295.500	222.221	80.005	19.993	103.249	20.149	6.332	0.531
296.000	222.423	80.008	19.995	103.247	20.152	6.094	0.518
296.500	222.692	80.007	19.995	103.244	20.151	6.185	0.480
297.000	222.927	80.007	19.992	103.242	20.151	6.224	0.487
297.500	223.158	80.007	19.995	103.240	20.151	6.204	0.485
298.000	223.442	80.007	19.994	103.239	20.149	6.368	0.491
298.500	223.680	80.007	19.993	103.241	20.148	6.425	0.519
299.000	223.892	80.006	19.993	103.243	20.150	6.309	0.486
299.500	224.140	80.005	19.993	103.245	20.146	6.563	0.454
300.000	224.362	80.007	19.992	103.245	20.145	6.622	0.465
300.500	224.651	80.009	19.994	103.241	20.147	6.530	0.491
301.000	224.868	80.007	19.994	103.238	20.148	6.441	0.509
301.500	225.137	80.008	19.994	103.237	20.144	6.754	0.496
302.000	225.410	80.008	19.994	103.237	20.144	6.691	0.514
302.500	225.687	80.006	19.995	103.237	20.143	6.797	0.546
303.000	225.906	80.008	19.993	103.243	20.142	6.887	0.523
303.500	226.153	80.007	19.994	103.248	20.142	6.875	0.481
304.000	226.403	80.006	19.993	103.251	20.143	6.830	0.482
304.500	226.619	80.008	19.994	103.249	20.141	6.926	0.481
305.000	226.909	80.007	19.994	103.250	20.140	7.027	0.486
305.500	227.172	80.008	19.993	103.248	20.139	7.086	0.529
306.000	227.372	80.005	19.994	103.244	20.136	7.297	0.508
306.500	227.640	80.007	19.993	103.242	20.139	7.090	0.466
307.000	227.899	80.006	19.993	103.240	20.138	7.135	0.498
307.500	228.152	80.006	19.994	103.238	20.138	7.151	0.519
308.000	228.390	80.005	19.993	103.240	20.139	7.080	0.501
308.500	228.667	80.003	19.994	103.242	20.138	7.201	0.503
309.000	228.913	80.007	19.994	103.241	20.134	7.469	0.519
309.500	229.150	80.006	19.994	103.241	20.137	7.268	0.503
310.000	229.456	80.007	19.994	103.238	20.137	7.274	0.513
310.500	229.676	80.006	19.994	103.233	20.133	7.512	0.534
311.000	229.945	80.006	19.995	103.227	20.134	7.465	0.507
311.500	230.216	80.005	19.995	103.225	20.133	7.533	0.515
312.000	230.437	80.008	19.995	103.225	20.133	7.551	0.516
312.500	230.680	80.006	19.995	103.227	20.135	7.415	0.478
313.000	230.938	80.006	19.995	103.231	20.134	7.468	0.483
313.500	231.203	80.006	19.996	103.238	20.134	7.462	0.512
314.000	231.451	80.005	19.995	103.244	20.133	7.515	0.518
314.500	231.682	80.006	19.995	103.247	20.133	7.523	0.497
315.000	231.959	80.008	19.995	103.246	20.133	7.561	0.493
315.500	232.166	80.007	19.994	103.242	20.134	7.494	0.495
316.000	232.441	80.005	19.995	103.240	20.133	7.515	0.483
316.500	232.676	80.004	19.994	103.234	20.131	7.712	0.496
317.000	232.982	80.008	19.993	103.228	20.130	7.789	0.526
317.500	233.180	80.007	19.995	103.231	20.130	7.734	0.522
318.000	233.429	80.007	19.995	103.235	20.128	7.949	0.475
318.500	233.664	80.008	19.995	103.233	20.128	7.908	0.466
319.000	233.926	80.007	19.994	103.232	20.123	8.294	0.491
319.500	234.186	80.003	19.995	103.231	20.128	7.890	0.510
320.000	234.472	80.007	19.995	103.225	20.126	8.069	0.534
320.500	234.662	80.006	19.995	103.219	20.126	8.053	0.511
321.000	234.952	80.007	19.995	103.219	20.127	7.990	0.478
321.500	235.181	80.007	19.994	103.221	20.126	8.079	0.499
322.000	235.452	80.009	19.995	103.224	20.123	8.309	0.509
322.500	235.670	80.009	19.994	103.228	20.123	8.297	0.494
323.000	235.951	80.009	19.995	103.234	20.124	8.215	0.494
323.500	236.194	80.008	19.995	103.235	20.119	8.579	0.512
324.000	236.449	80.007	19.995	103.237	20.124	8.182	0.511
324.500	236.688	80.009	19.995	103.237	20.122	8.388	0.496
325.000	236.936	80.008	19.995	103.237	20.122	8.365	0.490
325.500	237.207	80.010	19.994	103.232	20.120	8.489	0.503
326.000	237.465	80.009	19.994	103.229	20.123	8.294	0.524
326.500	237.717	80.009	19.994	103.230	20.123	8.298	0.519
327.000	237.977	80.009	19.995	103.234	20.121	8.469	0.511
327.500	238.222	80.010	19.994	103.232	20.119	8.556	0.509
328.000	238.444	80.009	19.994	103.229	20.118	8.646	0.486
328.500	238.700	80.007	19.994	103.229	20.117	8.735	0.472
329.000	238.963	80.007	19.995	103.224	20.119	8.626	0.498
329.500	239.236	80.007	19.994	103.217	20.116	8.815	0.528
330.000	239.458	80.007	19.995	103.218	20.117	8.732	0.516
330.500	239.709	80.006	19.994	103.219	20.118	8.667	0.484
331.000	239.970	80.007	19.995	103.219	20.116	8.805	0.492
331.500	240.207	80.006	19.995	103.222	20.111	9.184	0.505
332.000	240.444	80.008	19.995	103.224	20.114	8.967	0.486
332.500	240.656	80.008	19.995	103.224	20.112	9.099	0.462
333.000	240.908	80.007	19.994	103.228	20.114	8.961	0.457
333.500	241.182	80.007	19.993	103.227	20.113	9.067	0.495
334.000	241.441	80.005	19.996	103.224	20.113	9.077	0.530
334.500	241.695	80.006	19.995	103.222	20.112	9.129	0.523
335.000	241.965	80.006	19.995	103.219	20.114	8.972	0.518
335.500	242.203	80.005	19.996	103.216	20.111	9.209	0.516
336.000	242.457	80.006	19.996	103.216	20.115	8.887	0.500
336.500	242.703	80.006	19.994	103.216	20.118	8.692	0.496
337.000	242.947	80.004	19.993	103.215	20.116	8.826	0.495
337.500	243.205	80.005	19.994	103.214	20.115	8.861	0.496
338.000	243.458	80.003	19.994	103.214	20.114	8.975	0.507
338.500	243.696	80.005	19.994	103.214	20.116	8.808	0.501
339.000	243.965	80.004	19.994	103.214	20.116	8.833	0.499
339.500	244.224	80.005	19.994	103.214	20.118	8.666	0.517
340.000	244.486	80.006	19.995	103.219	20.116	8.853	0.524
340.500	244.723	80.005	19.995	103.220	20.119	8.573	0.510
341.000	244.940	80.005	19.995	103.222	20.120	8.508	0.477
341.500	245.207	80.006	19.996	103.222	20.121	8.415	0.469
342.000	245.401	80.005	19.994	103.221	20.122	8.392	0.472
342.500	245.683	80.005	19.996	103.216	20.123	8.318	0.468
343.000	245.937	80.004	19.995	103.216	20.123	8.322	0.506
343.500	246.176	80.005	19.995	103.214	20.128	7.945	0.515
344.000	246.373	80.005	19.995	103.215	20.126	8.104	0.464
344.500	246.636	80.005	19.994	103.218	20.125	8.167	0.448
345.000	246.886	80.005	19.995	103.221	20.131	7.728	0.486
345.500	247.116	80.004	19.995	103.228	20.129	7.842	0.497
346.000	247.392	80.004	19.994	103.233	20.131	7.678	0.493
346.500	247.648	80.005	19.995	103.235	20.129	7.868	0.519
347.000	247.878	80.004	19.995	103.233	20.130	7.791	0.509
347.500	248.110	80.005	19.995	103.232	20.130	7.774	0.474
348.000	248.337	80.005	19.996	103.233	20.135	7.424	0.461
348.500	248.594	80.006	19.996	103.233	20.132	7.646	0.472
349.000	248.848	80.004	19.995	103.236	20.134	7.493	0.498
349.500	249.092	80.004	19.995	103.239	20.132	7.648	0.505
350.000	249.349	80.004	19.996	103.243	20.132	7.609	0.500
350.500	249.660	80.004	19.995	103.242	20.139	7.121	0.534
351.000	249.901	80.006	19.995	103.242	20.139	7.080	0.559
351.500	250.142	80.003	19.995	103.244	20.139	7.076	0.517
352.000	250.398	80.006	19.995	103.247	20.139	7.087	0.490
352.500	250.627	80.005	19.995	103.247	20.140	7.020	0.491
353.000	250.867	80.003	19.995	103.246	20.140	7.030	0.477
353.500	251.164	80.007	19.995	103.240	20.139	7.060	0.503
354.000	251.417	80.004	19.996	103.235	20.142	6.885	0.544
354.500	251.673	80.005	19.995	103.228	20.140	7.021	0.530
355.000	251.896	80.005	19.995	103.224	20.144	6.708	0.494
355.500	252.156	80.006	19.994	103.226	20.144	6.747	0.481
356.000	252.359	80.006	19.994	103.233	20.144	6.733	0.473
356.500	252.632	80.008	19.993	103.239	20.142	6.839	0.470
357.000	252.913	80.004	19.993	103.245	20.143	6.820	0.515
357.500	253.155	80.005	19.994	103.251	20.142	6.895	0.539
358.000	253.408	80.006	19.993	103.253	20.142	6.883	0.509
358.500	253.663	80.007	19.994	103.251	20.143	6.830	0.501
359.000	253.898	80.006	19.993	103.251	20.143	6.812	0.499
359.500	254.159	80.008	19.994	103.251	20.146	6.602	0.493
360.000	254.376	80.004	19.994	103.249	20.146	6.586	0.487
360.500	254.652	80.007	19.994	103.248	20.148	6.436	0.486
361.000	254.925	80.006	19.993	103.247	20.148	6.461	0.521
361.500	255.138	80.005	19.995	103.246	20.148	6.440	0.517
362.000	255.373	80.006	19.995	103.246	20.147	6.481	0.467
362.500	255.653	80.005	19.995	103.246	20.146	6.540	0.482
363.000	255.919	80.006	19.994	103.247	20.147	6.469	0.531
363.500	256.154	80.005	19.993	103.249	20.145	6.654	0.524
364.000	256.403	80.006	19.994	103.249	20.146	6.591	0.492
364.500	256.653	80.005	19.994	103.246	20.147	6.515	0.491
365.000	256.915	80.004	19.995	103.243	20.148	6.393	0.506
365.500	257.164	80.004	19.994	103.243	20.146	6.558	0.512
366.000	257.433	80.004	19.994	103.243	20.149	6.332	0.515
366.500	257.661	80.005	19.995	103.243	20.145	6.619	0.507
367.000	257.921	80.005	19.993	103.245	20.149	6.369	0.493
367.500	258.131	80.006	19.994	103.250	20.148	6.444	0.479
368.000	258.408	80.006	19.994	103.249	20.146	6.588	0.478
368.500	258.632	80.005	19.994	103.247	20.147	6.511	0.494
369.000	258.928	80.006	19.995	103.245	20.151	6.195	0.511
369.500	259.186	80.006	19.995	103.242	20.149	6.334	0.537
370.000	259.435	80.004	19.994	103.241	20.149	6.334	0.531
370.500	259.650	80.004	19.995	103.242	20.147	6.476	0.485
371.000	259.900	80.007	19.994	103.244	20.151	6.226	0.464
371.500	260.137	80.004	19.994	103.246	20.147	6.503	0.476
372.000	260.368	80.006	19.994	103.250	20.146	6.538	0.478
372.500	260.625	80.006	19.995	103.251	20.151	6.214	0.479
373.000	260.857	80.005	19.995	103.250	20.149	6.361	0.489
373.500	261.152	80.005	19.994	103.250	20.150	6.278	0.508
374.000	261.431	80.006	19.993	103.250	20.152	6.156	0.550
374.500	261.638	80.006	19.995	103.249	20.152	6.153	0.530
375.000	261.936	80.005	19.995	103.250	20.149	6.371	0.496
375.500	262.143	80.007	19.995	103.250	20.150	6.296	0.505
376.000	262.381	80.005	19.994	103.250	20.152	6.104	0.475
376.500	262.671	80.006	19.995	103.249	20.149	6.322	0.487
377.000	262.921	80.007	19.994	103.250	20.150	6.281	0.534
377.500	263.170	80.007	19.994	103.249	20.152	6.159	0.519
378.000	263.410	80.006	19.994	103.247	20.150	6.269	0.494
378.500	263.649	80.007	19.994	103.243	20.153	6.062	0.484
379.000	263.893	80.007	19.994	103.242	20.153	6.027	0.482
379.500	264.177	80.007	19.994	103.239	20.150	6.296	0.506
380.000	264.435	80.006	19.994	103.239	20.153	6.017	0.535
380.500	264.647	80.005	19.993	103.238	20.153	6.058	0.505
381.000	264.903	80.007	19.994	103.239	20.155	5.912	0.469
381.500	265.127	80.009	19.995	103.239	20.150	6.237	0.474
382.000	265.405	80.007	19.995	103.240	20.153	6.068	0.491
382.500	265.677	80.007	19.994	103.240	20.151	6.210	0.526
383.000	265.928	80.008	19.994	103.246	20.153	6.070	0.537
383.500	266.179	80.008	19.994	103.249	20.151	6.184	0.512
384.000	266.430	80.007	19.993	103.250	20.153	6.084	0.502
384.500	266.650	80.006	19.994	103.252	20.153	6.015	0.487
385.000	266.905	80.006	19.995	103.251	20.152	6.096	0.473
385.500	267.167	80.006	19.995	103.249	20.149	6.341	0.496
386.000	267.444	80.006	19.994	103.249	20.152	6.139	0.528
386.500	267.709	80.007	19.996	103.247	20.151	6.182	0.541
387.000	267.970	80.006	19.994	103.246	20.150	6.294	0.534
387.500	268.171	80.008	19.993	103.249	20.151	6.207	0.494
388.000	268.445	80.006	19.994	103.249	20.151	6.181	0.468
388.500	268.684	80.007	19.993	103.248	20.151	6.221	0.494
389.000	268.902	80.007	19.995	103.250	20.150	6.258	0.485
389.500	269.150	80.007	19.995	103.250	20.151	6.194	0.462
390.000	269.413	80.007	19.993	103.249	20.151	6.198	0.488
390.500	269.703	80.007	19.994	103.250	20.150	6.290	0.532
391.000	269.943	80.007	19.994	103.250	20.151	6.227	0.542
391.500	270.192	80.007	19.994	103.251	20.152	6.087	0.509
392.000	270.484	80.007	19.995	103.251	20.148	6.438	0.515
392.500	270.743	80.006	19.994	103.247	20.152	6.101	0.546
393.000	270.988	80.007	19.994	103.247	20.151	6.209	0.528
393.500	271.243	80.007	19.994	103.246	20.149	6.373	0.502
394.000	271.496	80.005	19.994	103.245	20.149	6.341	0.504
394.500	271.741	80.008	19.995	103.245	20.150	6.245	0.503
395.000	272.028	80.005	19.995	103.249	20.151	6.227	0.515
395.500	272.227	80.006	19.995	103.249	20.149	6.382	0.509
396.000	272.511	80.007	19.994	103.249	20.150	6.250	0.484
396.500	272.758	80.006	19.994	103.251	20.148	6.398	0.507
397.000	272.983	80.006	19.994	103.253	20.152	6.140	0.501
397.500	273.233	80.006	19.994	103.254	20.150	6.287	0.473
398.000	273.471	80.006	19.994	103.260	20.147	6.507	0.482
398.500	273.770	80.007	19.993	103.263	20.149	6.360	0.513
399.000	274.009	80.007	19.994	103.264	20.151	6.226	0.538
399.500	274.243	80.006	19.993	103.262	20.150	6.250	0.506
400.000	274.493	80.007	19.994	103.261	20.149	6.356	0.478
400.500	274.760	80.007	19.994	103.254	20.150	6.297	0.500
401.000	274.989	80.006	19.995	103.252	20.152	6.136	0.506
401.500	275.244	80.007	19.995	103.252	20.152	6.147	0.491
402.000	275.483	80.006	19.994	103.253	20.149	6.336	0.489
402.500	275.754	80.007	19.993	103.253	20.147	6.483	0.502
403.000	276.007	80.007	19.993	103.255	20.147	6.489	0.516
403.500	276.263	80.006	19.994	103.255	20.148	6.459	0.516
404.000	276.509	80.008	19.994	103.254	20.148	6.420	0.506
404.500	276.776	80.007	19.994	103.254	20.147	6.471	0.508
405.000	277.019	80.008	19.995	103.255	20.146	6.597	0.512
405.500	277.279	80.007	19.994	103.257	20.148	6.444	0.507
406.000	277.496	80.008	19.993	103.258	20.147	6.532	0.490
406.500	277.754	80.008	19.993	103.258	20.144	6.758	0.476
407.000	277.990	80.009	19.994	103.259	20.142	6.874	0.484
407.500	278.253	80.009	19.994	103.263	20.142	6.846	0.496
408.000	278.490	80.009	19.995	103.267	20.142	6.846	0.500
408.500	278.773	80.009	19.994	103.269	20.141	6.972	0.510
409.000	279.002	80.008	19.995	103.272	20.142	6.846	0.516
409.500	279.254	80.007	19.994	103.277	20.140	7.023	0.496
410.000	279.518	80.007	19.994	103.275	20.142	6.860	0.498
410.500	279.732	80.007	19.994	103.270	20.141	6.927	0.497
411.000	280.011	80.008	19.995	103.269	20.141	6.956	0.485
411.500	280.276	80.008	19.994	103.272	20.139	7.096	0.519
412.000	280.518	80.008	19.994	103.272	20.140	7.009	0.526
412.500	280.764	80.007	19.994	103.276	20.139	7.076	0.498
413.000	281.018	80.007	19.995	103.281	20.140	7.027	0.494
413.500	281.275	80.008	19.994	103.285	20.138	7.208	0.506
414.000	281.527	80.007	19.994	103.286	20.138	7.176	0.510
414.500	281.786	80.008	19.994	103.286	20.140	7.062	0.510
415.000	282.031	80.006	19.994	103.285	20.138	7.165	0.508
415.500	282.292	80.006	19.995	103.284	20.137	7.222	0.505
416.000	282.546	80.006	19.995	103.282	20.136	7.314	0.510
416.500	282.764	80.006	19.994	103.282	20.137	7.265	0.493
417.000	282.989	80.007	19.995	103.282	20.133	7.534	0.458
417.500	283.282	80.004	19.995	103.285	20.133	7.560	0.481
418.000	283.547	80.004	19.995	103.289	20.133	7.579	0.538
418.500	283.773	80.005	19.994	103.293	20.135	7.434	0.524
419.000	284.014	80.005	19.995	103.295	20.133	7.577	0.479
419.500	284.271	80.005	19.994	103.295	20.132	7.630	0.483
420.000	284.502	80.004	19.995	103.294	20.132	7.608	0.493
420.500	284.759	80.005	19.995	103.293	20.131	7.673	0.488
421.000	284.980	80.005	19.994	103.293	20.132	7.643	0.483
421.500	285.227	80.004	19.993	103.293	20.132	7.649	0.473
422.000	285.467	80.005	19.994	103.294	20.131	7.686	0.477
422.500	285.775	80.006	19.994	103.296	20.131	7.692	0.517
423.000	286.000	80.005	19.994	103.297	20.132	7.633	0.541
423.500	286.235	80.005	19.996	103.299	20.130	7.784	0.496
424.000	286.523	80.005	19.994	103.299	20.130	7.754	0.491
424.500	286.751	80.005	19.995	103.299	20.131	7.735	0.519
425.000	287.020	80.005	19.995	103.298	20.129	7.865	0.506
425.500	287.273	80.005	19.994	103.298	20.127	7.977	0.510
426.000	287.526	80.005	19.994	103.297	20.126	8.104	0.514
426.500	287.780	80.006	19.994	103.298	20.127	8.032	0.507
427.000	288.044	80.005	19.994	103.300	20.127	8.030	0.512
427.500	288.274	80.005	19.994	103.300	20.124	8.212	0.506
428.000	288.522	80.005	19.994	103.302	20.125	8.161	0.486
428.500	288.739	80.006	19.995	103.304	20.124	8.238	0.472
429.000	288.995	80.005	19.995	103.304	20.124	8.195	0.469
429.500	289.229	80.006	19.994	103.302	20.121	8.471	0.482
430.000	289.510	80.005	19.994	103.308	20.125	8.133	0.502
430.500	289.738	80.006	19.995	103.310	20.120	8.530	0.512
431.000	289.997	80.007	19.994	103.311	20.122	8.366	0.498
431.500	290.240	80.005	19.994	103.316	20.119	8.595	0.495
432.000	290.502	80.006	19.995	103.323	20.118	8.703	0.504
432.500	290.753	80.004	19.994	103.322	20.116	8.799	0.509
433.000	291.032	80.006	19.995	103.324	20.114	8.951	0.521
433.500	291.257	80.005	19.994	103.327	20.117	8.739	0.517
434.000	291.544	80.006	19.995	103.327	20.116	8.864	0.508
434.500	291.771	80.006	19.993	103.327	20.118	8.703	0.513
435.000	292.019	80.005	19.994	103.328	20.112	9.116	0.495
435.500	292.301	80.004	19.994	103.327	20.111	9.240	0.502
436.000	292.505	80.005	19.995	103.326	20.110	9.271	0.508
436.500	292.759	80.004	19.995	103.327	20.113	9.025	0.472
437.000	293.036	80.005	19.995	103.328	20.106	9.582	0.495
437.500	293.268	80.004	19.994	103.328	20.109	9.383	0.520
438.000	293.526	80.005	19.996	103.329	20.108	9.451	0.499
438.500	293.781	80.005	19.995	103.329	20.110	9.315	0.502
439.000	294.041	80.005	19.994	103.329	20.107	9.539	0.514
439.500	294.286	80.004	19.994	103.329	20.105	9.674	0.510
440.000	294.509	80.005	19.995	103.331	20.104	9.725	0.486
440.500	294.810	80.004	19.994	103.336	20.104	9.743	0.496
441.000	295.036	80.006	19.995	103.343	20.102	9.890	0.525
441.500	295.302	80.005	19.995	103.346	20.102	9.880	0.510
442.000	295.535	80.005	19.995	103.346	20.101	9.927	0.495
442.500	295.796	80.006	19.996	103.344	20.102	9.890	0.496
443.000	296.053	80.005	19.995	103.344	20.100	10.012	0.506
443.500	296.331	80.005	19.995	103.341	20.101	9.976	0.526
444.000	296.567	80.004	19.994	103.337	20.096	10.341	0.525
444.500	296.806	80.004	19.995	103.337	20.096	10.312	0.495
445.000	297.061	80.004	19.995	103.340	20.092	10.606	0.484
445.500	297.306	80.005	19.995	103.340	20.098	10.209	0.497
446.000	297.529	80.005	19.995	103.339	20.094	10.508	0.484
446.500	297.800	80.004	19.995	103.339	20.092	10.643	0.481
447.000	298.041	80.006	19.995	103.342	20.090	10.766	0.503
447.500	298.311	80.005	19.996	103.341	20.089	10.826	0.511
448.000	298.544	80.005	19.994	103.343	20.090	10.745	0.507
448.500	298.800	80.006	19.995	103.347	20.089	10.844	0.496
449.000	299.005	80.005	19.994	103.354	20.090	10.816	0.475
449.500	299.273	80.005	19.995	103.358	20.090	10.802	0.467
450.000	299.496	80.003	19.995	103.362	20.087	10.989	0.482
450.500	299.754	80.006	19.995	103.362	20.085	11.147	0.486
451.000	299.975	80.004	19.994	103.362	20.088	10.939	0.480
451.500	300.264	80.005	19.995	103.363	20.082	11.374	0.494
452.000	300.475	80.005	19.995	103.363	20.083	11.286	0.505
452.500	300.741	80.005	19.994	103.365	20.081	11.463	0.489
453.000	300.988	80.005	19.995	103.367	20.082	11.348	0.495
453.500	301.204	80.004	19.992	103.367	20.080	11.551	0.487
454.000	301.469	80.005	19.994	103.367	20.079	11.614	0.472
454.500	301.719	80.005	19.995	103.369	20.079	11.613	0.498
455.000	301.972	80.005	19.994	103.374	20.078	11.706	0.509
455.500	302.196	80.005	19.994	103.375	20.079	11.647	0.491
456.000	302.455	80.005	19.994	103.376	20.076	11.845	0.480
456.500	302.700	80.005	19.994	103.376	20.076	11.814	0.493
457.000	302.970	80.006	19.995	103.373	20.074	11.997	0.510
457.500	303.190	80.005	19.994	103.369	20.071	12.215	0.503
458.000	303.420	80.005	19.994	103.374	20.071	12.210	0.470
458.500	303.711	80.005	19.995	103.378	20.071	12.214	0.485
459.000	303.920	80.007	19.994	103.386	20.070	12.273	0.510
459.500	304.155	80.007	19.994	103.394	20.068	12.403	0.472
460.000	304.421	80.006	19.994	103.400	20.068	12.401	0.473
460.500	304.638	80.006	19.995	103.403	20.067	12.489	0.492
461.000	304.881	80.008	19.994	103.402	20.065	12.645	0.471
461.500	305.127	80.006	19.994	103.394	20.066	12.613	0.474
462.000	305.355	80.007	19.994	103.387	20.065	12.672	0.482
462.500	305.615	80.007	19.994	103.385	20.065	12.638	0.481
463.000	305.891	80.007	19.994	103.381	20.061	12.964	0.512
463.500	306.115	80.007	19.995	103.383	20.066	12.616	0.518
464.000	306.415	80.007	19.995	103.391	20.062	12.873	0.512
464.500	306.627	80.008	19.994	103.398	20.061	12.991	0.518
465.000	306.869	80.008	19.994	103.403	20.060	13.039	0.483
465.500	307.093	80.008	19.994	103.406	20.059	13.129	0.460
466.000	307.388	80.006	19.994	103.407	20.057	13.283	0.493
466.500	307.580	80.007	19.994	103.406	20.058	13.216	0.503
467.000	307.835	80.006	19.993	103.405	20.055	13.413	0.467
467.500	308.060	80.006	19.994	103.405	20.057	13.297	0.464
468.000	308.371	80.006	19.994	103.405	20.053	13.584	0.509
468.500	308.565	80.006	19.994	103.406	20.054	13.503	0.521
469.000	308.803	80.008	19.994	103.407	20.052	13.611	0.468
469.500	309.061	80.006	19.994	103.407	20.052	13.641	0.464
470.000	309.315	80.006	19.994	103.408	20.049	13.874	0.504
470.500	309.570	80.006	19.994	103.408	20.047	14.024	0.511
471.000	309.789	80.007	19.994	103.408	20.045	14.174	0.492
471.500	310.029	80.007	19.994	103.408	20.047	13.994	0.467
472.000	310.333	80.006	19.994	103.408	20.047	14.042	0.501
472.500	310.542	80.006	19.994	103.408	20.044	14.213	0.529
473.000	310.772	80.006	19.994	103.408	20.042	14.382	0.476
473.500	311.042	80.008	19.994	103.410	20.040	14.534	0.469
474.000	311.276	80.006	19.994	103.413	20.041	14.423	0.502
474.500	311.541	80.006	19.994	103.416	20.040	14.505	0.502
475.000	311.789	80.007	19.993	103.416	20.039	14.600	0.506
475.500	312.020	80.005	19.994	103.416	20.040	14.547	0.496
476.000	312.302	80.007	19.994	103.414	20.038	14.686	0.495
476.500	312.556	80.006	19.994	103.411	20.038	14.689	0.524
477.000	312.807	80.007	19.994	103.409	20.037	14.747	0.521
477.500	313.054	80.007	19.994	103.409	20.038	14.707	0.502
478.000	313.314	80.006	19.994	103.409	20.036	14.847	0.503
478.500	313.574	80.007	19.994	103.409	20.036	14.862	0.513
479.000	313.824	80.006	19.994	103.409	20.037	14.771	0.514
479.500	314.088	80.007	19.993	103.409	20.036	14.818	0.512
480.000	314.298	80.005	19.994	103.406	20.033	15.016	0.494
480.500	314.565	80.007	19.995	103.402	20.034	14.940	0.475
481.000	314.838	80.007	19.994	103.397	20.030	15.275	0.509
481.500	315.096	80.005	19.994	103.390	20.032	15.145	0.536
482.000	315.352	80.006	19.994	103.383	20.032	15.123	0.522
482.500	315.575	80.006	19.995	103.379	20.030	15.293	0.496
483.000	315.841	80.006	19.994	103.375	20.029	15.312	0.484
483.500	316.076	80.007	19.994	103.373	20.031	15.204	0.495
484.000	316.347	80.007	19.994	103.371	20.031	15.161	0.504
484.500	316.590	80.006	19.993	103.366	20.030	15.249	0.510
485.000	316.829	80.007	19.993	103.362	20.027	15.451	0.498
485.500	317.104	80.006	19.993	103.362	20.031	15.209	0.498
486.000	317.347	80.008	19.994	103.362	20.029	15.314	0.516
486.500	317.638	80.008	19.993	103.363	20.029	15.302	0.525
487.000	317.860	80.008	19.993	103.367	20.032	15.119	0.523
487.500	318.071	80.007	19.993	103.369	20.031	15.160	0.473
488.000	318.357	80.008	19.992	103.365	20.028	15.367	0.465
488.500	318.642	80.008	19.993	103.356	20.033	15.046	0.534
489.000	318.890	80.007	19.992	103.349	20.029	15.284	0.552
489.500	319.177	80.008	19.993	103.341	20.030	15.251	0.534
490.000	319.399	80.008	19.993	103.329	20.032	15.087	0.522
490.500	319.649	80.008	19.992	103.320	20.029	15.324	0.490
491.000	319.933	80.009	19.992	103.313	20.029	15.345	0.503
491.500	320.186	80.009	19.993	103.305	20.033	15.003	0.536
492.000	320.442	80.009	19.993	103.297	20.032	15.065	0.523
492.500	320.689	80.007	19.994	103.288	20.032	15.098	0.506
493.000	320.968	80.010	19.993	103.278	20.035	14.888	0.514
493.500	321.198	80.007	19.993	103.270	20.036	14.818	0.518
494.000	321.506	80.008	19.993	103.261	20.033	14.980	0.524
494.500	321.767	80.007	19.992	103.248	20.034	14.921	0.554
495.000	321.986	80.007	19.993	103.240	20.039	14.590	0.525
495.500	322.233	80.008	19.992	103.233	20.039	14.590	0.473
496.000	322.493	80.006	19.993	103.225	20.040	14.498	0.486
496.500	322.747	80.007	19.994	103.213	20.041	14.403	0.510
497.000	323.039	80.007	19.993	103.203	20.040	14.452	0.530
497.500	323.340	80.007	19.995	103.193	20.042	14.344	0.570
498.000	323.576	80.007	19.994	103.181	20.046	14.032	0.565
498.500	323.851	80.006	19.994	103.167	20.047	13.985	0.524
499.000	324.101	80.006	19.994	103.154	20.047	13.959	0.518
499.500	324.354	80.005	19.994	103.140	20.047	13.960	0.514
500.000	324.608	80.006	19.995	103.125	20.050	13.702	0.505
500.500	324.907	80.006	19.994	103.113	20.051	13.689	0.530
501.000	325.157	80.005	19.994	103.098	20.048	13.891	0.551
501.500	325.449	80.007	19.994	103.085	20.048	13.882	0.545
502.000	325.694	80.004	19.996	103.076	20.049	13.852	0.540
502.500	325.980	80.005	19.995	103.063	20.053	13.525	0.534
503.000	326.178	80.005	19.994	103.048	20.057	13.205	0.507
503.500	326.472	80.005	19.994	103.038	20.056	13.294	0.488
504.000	326.770	80.005	19.994	103.031	20.055	13.358	0.542
504.500	327.024	80.005	19.996	103.025	20.055	13.361	0.572
505.000	327.252	80.006	19.994	103.022	20.057	13.200	0.517
505.500	327.567	80.005	19.994	103.020	20.058	13.152	0.513
506.000	327.816	80.005	19.996	103.019	20.063	12.763	0.553
506.500	328.117	80.005	19.995	103.018	20.060	12.977	0.557
507.000	328.330	80.006	19.995	103.015	20.057	13.230	0.532
507.500	328.623	80.004	19.994	103.015	20.060	12.999	0.510
508.000	328.858	80.005	19.994	103.015	20.061	12.955	0.517
508.500	329.124	80.005	19.994	103.016	20.058	13.178	0.515
509.000	329.410	80.005	19.995	103.018	20.060	12.974	0.526
509.500	329.689	80.006	19.995	103.026	20.063	12.806	0.558
510.000	329.929	80.005	19.995	103.034	20.060	13.002	0.542
510.500	330.220	80.006	19.995	103.042	20.058	13.169	0.525
511.000	330.470	80.005	19.995	103.052	20.057	13.239	0.537
511.500	330.739	80.006	19.995	103.063	20.060	13.039	0.530
512.000	331.016	80.006	19.995	103.069	20.059	13.123	0.532
512.500	331.292	80.005	19.994	103.077	20.059	13.055	0.549
513.000	331.522	80.007	19.995	103.084	20.057	13.253	0.530
513.500	331.770	80.005	19.993	103.095	20.052	13.597	0.492
514.000	332.057	80.005	19.996	103.105	20.055	13.400	0.506
514.500	332.331	80.005	19.995	103.115	20.052	13.639	0.549
515.000	332.608	80.005	19.995	103.123	20.051	13.660	0.556
515.500	332.837	80.004	19.995	103.132	20.052	13.584	0.528
516.000	333.109	80.006	19.995	103.142	20.051	13.716	0.503
516.500	333.366	80.006	19.994	103.148	20.049	13.857	0.515
517.000	333.689	80.006	19.995	103.155	20.048	13.919	0.555
517.500	333.944	80.005	19.996	103.162	20.048	13.931	0.579
518.000	334.201	80.006	19.995	103.168	20.048	13.905	0.545
518.500	334.484	80.005	19.995	103.173	20.046	14.047	0.526
519.000	334.775	80.005	19.995	103.183	20.046	14.095	0.557
519.500	335.032	80.006	19.995	103.193	20.043	14.311	0.561
520.000	335.268	80.006	19.995	103.201	20.042	14.378	0.520
520.500	335.550	80.007	19.994	103.209	20.046	14.081	0.505
521.000	335.818	80.006	19.995	103.215	20.045	14.172	0.534
521.500	336.084	80.006	19.994	103.221	20.041	14.484	0.542
522.000	336.320	80.006	19.994	103.227	20.040	14.535	0.518
522.500	336.606	80.008	19.994	103.235	20.040	14.545	0.512
523.000	336.885	80.005	19.995	103.243	20.038	14.661	0.543
523.500	337.145	80.007	19.995	103.250	20.041	14.429	0.552
524.000	337.404	80.007	19.994	103.253	20.037	14.769	0.529
524.500	337.647	80.005	19.994	103.256	20.038	14.720	0.511
525.000	337.958	80.006	19.994	103.262	20.036	14.853	0.528
525.500	338.211	80.006	19.995	103.268	20.038	14.697	0.559
526.000	338.460	80.007	19.994	103.274	20.037	14.743	0.533
526.500	338.751	80.005	19.995	103.283	20.036	14.813	0.521
527.000	339.009	80.006	19.995	103.291	20.037	14.786	0.544
527.500	339.275	80.006	19.994	103.300	20.034	15.014	0.537
528.000	339.531	80.006	19.994	103.310	20.035	14.904	0.523
528.500	339.796	80.005	19.994	103.318	20.039	14.642	0.522
529.000	340.063	80.005	19.994	103.326	20.036	14.854	0.527
529.500	340.322	80.004	19.995	103.335	20.037	14.762	0.529
530.000	340.602	80.004	19.996	103.342	20.037	14.758	0.532
530.500	340.851	80.005	19.996	103.349	20.038	14.664	0.534
531.000	341.102	80.004	19.995	103.357	20.037	14.764	0.515
531.500	341.398	80.004	19.996	103.365	20.038	14.715	0.523
532.000	341.636	80.004	19.996	103.372	20.038	14.715	0.540
532.500	341.930	80.006	19.995	103.376	20.037	14.726	0.533
533.000	342.193	80.004	19.996	103.377	20.038	14.663	0.544
533.500	342.408	80.004	19.997	103.377	20.038	14.682	0.517
534.000	342.708	80.004	19.996	103.378	20.040	14.563	0.497
534.500	342.919	80.004	19.995	103.375	20.039	14.643	0.513
535.000	343.208	80.003	19.996	103.377	20.038	14.696	0.506
535.500	343.461	80.003	19.995	103.385	20.040	14.504	0.521
536.000	343.755	80.004	19.996	103.393	20.041	14.463	0.544
536.500	344.000	80.003	19.996	103.399	20.046	14.098	0.543
537.000	344.244	80.004	19.995	103.406	20.043	14.300	0.514
537.500	344.514	80.005	19.996	103.409	20.046	14.120	0.502
538.000	344.797	80.004	19.995	103.410	20.047	13.994	0.533
538.500	345.045	80.004	19.995	103.410	20.045	14.166	0.542
539.000	345.318	80.003	19.995	103.410	20.045	14.136	0.526
539.500	345.554	80.005	19.995	103.412	20.045	14.165	0.515
540.000	345.820	80.005	19.995	103.412	20.044	14.255	0.506
540.500	346.062	80.006	19.995	103.412	20.046	14.104	0.505
541.000	346.333	80.005	19.996	103.413	20.047	14.028	0.511
541.500	346.597	80.005	19.994	103.413	20.049	13.863	0.524
542.000	346.876	80.006	19.995	103.411	20.050	13.819	0.538
542.500	347.096	80.005	19.996	103.411	20.053	13.548	0.521
543.000	347.415	80.006	19.995	103.412	20.051	13.707	0.519
543.500	347.648	80.006	19.994	103.417	20.052	13.618	0.545
544.000	347.902	80.006	19.995	103.420	20.052	13.671	0.520
544.500	348.184	80.006	19.995	103.425	20.052	13.655	0.511
545.000	348.408	80.006	19.995	103.430	20.052	13.675	0.521
545.500	348.679	80.007	19.995	103.431	20.055	13.434	0.501
546.000	348.961	80.007	19.994	103.433	20.052	13.615	0.524
546.500	349.205	80.007	19.993	103.434	20.056	13.327	0.540
547.000	349.466	80.007	19.994	103.431	20.056	13.355	0.516
547.500	349.720	80.007	19.993	103.428	20.058	13.184	0.510
548.000	349.990	80.007	19.994	103.428	20.058	13.155	0.520
548.500	350.255	80.007	19.993	103.423	20.058	13.192	0.529
549.000	350.538	80.006	19.993	103.426	20.056	13.324	0.541
549.500	350.776	80.007	19.993	103.431	20.062	12.905	0.534
550.000	351.041	80.007	19.994	103.436	20.058	13.160	0.512
550.500	351.319	80.005	19.993	103.440	20.064	12.774	0.523
551.000	351.597	80.007	19.993	103.444	20.063	12.780	0.550
551.500	351.834	80.007	19.993	103.442	20.065	12.635	0.535
552.000	352.125	80.006	19.993	103.438	20.065	12.625	0.521
552.500	352.353	80.007	19.993	103.436	20.065	12.626	0.524
553.000	352.626	80.006	19.994	103.430	20.068	12.440	0.510
553.500	352.884	80.006	19.994	103.428	20.067	12.511	0.516
554.000	353.126	80.004	19.993	103.430	20.067	12.479	0.515
554.500	353.426	80.005	19.993	103.433	20.069	12.338	0.522
555.000	353.683	80.006	19.994	103.430	20.069	12.389	0.550
555.500	353.945	80.007	19.993	103.433	20.066	12.554	0.538
556.000	354.210	80.006	19.993	103.433	20.069	12.352	0.523
556.500	354.428	80.007	19.993	103.430	20.073	12.089	0.505
557.000	354.683	80.006	19.993	103.423	20.068	12.462	0.478
557.500	355.016	80.005	19.994	103.421	20.072	12.149	0.531
558.000	355.224	80.005	19.994	103.417	20.071	12.234	0.565
558.500	355.493	80.004	19.995	103.414	20.071	12.202	0.509
559.000	355.694	80.005	19.994	103.412	20.072	12.163	0.473
559.500	355.980	80.007	19.993	103.412	20.074	11.983	0.478
560.000	356.283	80.005	19.995	103.413	20.072	12.107	0.538
560.500	356.493	80.006	19.994	103.415	20.074	11.966	0.551
561.000	356.777	80.007	19.995	103.419	20.078	11.648	0.504
561.500	357.049	80.006	19.995	103.424	20.078	11.685	0.525
562.000	357.282	80.006	19.994	103.425	20.080	11.530	0.530
562.500	357.551	80.005	19.994	103.423	20.078	11.679	0.503
563.000	357.783	80.006	19.993	103.421	20.081	11.484	0.502
563.500	358.096	80.006	19.994	103.418	20.077	11.789	0.523
564.000	358.340	80.006	19.995	103.411	20.084	11.206	0.551
564.500	358.631	80.006	19.994	103.410	20.075	11.882	0.546
565.000	358.852	80.006	19.995	103.409	20.079	11.591	0.524
565.500	359.115	80.005	19.994	103.408	20.077	11.782	0.498
566.000	359.370	80.006	19.995	103.406	20.080	11.564	0.500
566.500	359.609	80.007	19.994	103.406	20.082	11.405	0.506
567.000	359.911	80.007	19.995	103.407	20.079	11.617	0.518
567.500	360.158	80.008	19.995	103.407	20.078	11.680	0.545
568.000	360.405	80.008	19.994	103.408	20.085	11.179	0.522
568.500	360.658	80.007	19.995	103.408	20.082	11.370	0.497
569.000	360.921	80.006	19.994	103.408	20.084	11.225	0.508
569.500	361.169	80.008	19.994	103.408	20.081	11.479	0.513
570.000	361.400	80.007	19.993	103.408	20.087	10.992	0.495
570.500	361.699	80.008	19.994	103.406	20.081	11.468	0.505
571.000	361.894	80.009	19.994	103.401	20.088	10.943	0.512
571.500	362.172	80.007	19.994	103.397	20.086	11.067	0.483
572.000	362.470	80.007	19.993	103.396	20.080	11.519	0.524
572.500	362.699	80.009	19.994	103.394	20.085	11.139	0.552
573.000	362.979	80.009	19.993	103.394	20.093	10.528	0.519
573.500	363.165	80.008	19.994	103.398	20.081	11.426	0.488
574.000	363.451	80.008	19.995	103.402	20.083	11.330	0.469
574.500	363.718	80.009	19.995	103.398	20.094	10.467	0.512
575.000	363.990	80.008	19.995	103.397	20.084	11.222	0.546
575.500	364.194	80.008	19.995	103.392	20.088	10.908	0.507
576.000	364.468	80.009	19.994	103.391	20.095	10.438	0.477
576.500	364.712	80.007	19.995	103.389	20.085	11.188	0.498
577.000	365.013	80.009	19.994	103.391	20.086	11.051	0.531
577.500	365.301	80.006	19.994	103.392	20.090	10.801	0.567
578.000	365.470	80.009	19.994	103.392	20.088	10.942	0.523
578.500	365.705	80.006	19.994	103.387	20.087	11.031	0.430
579.000	366.083	80.006	19.993	103.390	20.090	10.799	0.508
579.500	366.169	80.007	19.993	103.386	20.092	10.664	0.538
580.000	366.482	80.008	19.994	103.380	20.095	10.436	0.432
580.500	366.768	80.006	19.994	103.377	20.090	10.798	0.499
581.000	367.044	80.005	19.992	103.377	20.094	10.470	0.581
581.500	367.220	80.006	19.993	103.371	20.092	10.639	0.507
582.000	367.467	80.006	19.993	103.371	20.093	10.546	0.437
582.500	367.777	80.006	19.994	103.372	20.095	10.431	0.490
583.000	368.006	80.005	19.994	103.373	20.093	10.580	0.548
583.500	368.325	80.005	19.995	103.373	20.096	10.313	0.543
584.000	368.720	80.007	19.996	103.373	20.094	10.460	0.631
584.500	368.563	80.005	19.994	103.372	20.094	10.444	0.477
585.000	369.292	80.006	19.993	103.371	20.093	10.552	0.406
585.500	369.107	80.005	19.993	103.371	20.095	10.395	0.558
586.000	369.547	80.006	19.993	103.371	20.096	10.354	0.399
586.500	370.024	80.006	19.995	103.369	20.098	10.205	0.586
587.000	370.420	80.006	19.994	103.373	20.097	10.258	0.895
587.500	370.331	80.006	19.994	103.374	20.098	10.181	0.590
588.000	370.245	80.006	19.993	103.376	20.098	10.193	0.066
588.500	370.837	80.006	19.994	103.379	20.097	10.268	0.165
589.000	371.025	80.005	19.993	103.379	20.097	10.288	0.643
589.500	370.991	80.005	19.994	103.375	20.094	10.516	0.467
590.000	371.757	80.007	19.993	103.374	20.099	10.133	0.443
590.500	371.840	80.007	19.993	103.371	20.093	10.545	0.791
591.000	371.801	80.005	19.994	103.368	20.095	10.425	0.447
591.500	372.365	80.004	19.994	103.366	20.095	10.371	0.285
592.000	372.547	80.006	19.994	103.365	20.095	10.395	0.635
592.500	372.853	80.005	19.994	103.366	20.095	10.399	0.617
593.000	373.089	80.004	19.994	103.367	20.096	10.365	0.515
593.500	373.331	80.005	19.995	103.365	20.096	10.325	0.510
594.000	373.684	80.005	19.994	103.365	20.099	10.109	0.536
594.500	373.842	80.006	19.995	103.366	20.097	10.239	0.553
595.000	374.102	80.005	19.994	103.367	20.098	10.172	0.465
595.500	374.321	80.006	19.995	103.367	20.099	10.105	0.449
596.000	374.586	80.006	19.995	103.367	20.099	10.139	0.481
596.500	374.897	80.006	19.994	103.365	20.099	10.121	0.530
597.000	375.054	80.006	19.994	103.364	20.099	10.119	0.522
597.500	375.397	80.004	19.994	103.364	20.098	10.161	0.484
598.000	375.661	80.005	19.995	103.363	20.099	10.107	0.554
598.500	375.859	80.005	19.995	103.361	20.098	10.152	0.535
599.000	376.128	80.004	19.995	103.359	20.100	10.062	0.464
599.500	376.351	80.006	19.994	103.355	20.099	10.089	0.479
600.000	376.593	80.005	19.995	103.355	20.096	10.292	0.479
600.500	376.859	80.005	19.994	103.355	20.100	10.005	0.487
601.000	377.118	80.005	19.994	103.358	20.101	9.937	0.516
601.500	377.381	80.006	19.994	103.359	20.099	10.132	0.523
602.000	377.632	80.005	19.994	103.358	20.099	10.086	0.518
602.500	377.878	80.006	19.994	103.356	20.102	9.908	0.505
603.000	378.087	80.005	19.995	103.349	20.102	9.912	0.476
603.500	378.368	80.005	19.994	103.350	20.099	10.138	0.473
604.000	378.636	80.005	19.995	103.353	20.101	9.957	0.520
604.500	378.822	80.006	19.994	103.358	20.098	10.187	0.502
605.000	379.067	80.005	19.994	103.354	20.099	10.079	0.442
605.500	379.350	80.005	19.994	103.354	20.096	10.300	0.479
606.000	379.605	80.005	19.994	103.355	20.096	10.325	0.533
606.500	379.823	80.004	19.994	103.356	20.095	10.394	0.506
607.000	380.056	80.005	19.994	103.352	20.098	10.150	0.462
607.500	380.344	80.005	19.995	103.352	20.100	10.050	0.486
608.000	380.595	80.005	19.995	103.352	20.100	10.003	0.530
608.500	380.840	80.006	19.995	103.348	20.100	10.018	0.517
609.000	381.079	80.005	19.995	103.341	20.101	9.966	0.490
609.500	381.286	80.005	19.994	103.338	20.100	10.017	0.465
610.000	381.595	80.005	19.994	103.339	20.100	10.048	0.481
610.500	381.841	80.005	19.994	103.338	20.099	10.066	0.535
611.000	382.095	80.004	19.994	103.335	20.099	10.121	0.528
611.500	382.331	80.005	19.994	103.338	20.101	9.925	0.495
612.000	382.576	80.004	19.994	103.344	20.100	10.013	0.485
612.500	382.850	80.004	19.995	103.345	20.101	9.954	0.500
613.000	383.092	80.006	19.994	103.348	20.102	9.893	0.518
613.500	383.304	80.006	19.994	103.347	20.100	9.995	0.485
614.000	383.550	80.006	19.994	103.342	20.100	10.017	0.456
614.500	383.764	80.005	19.994	103.340	20.101	9.954	0.459
615.000	384.067	80.005	19.993	103.340	20.102	9.860	0.489
615.500	384.301	80.004	19.995	103.339	20.099	10.135	0.527
616.000	384.581	80.004	19.994	103.339	20.104	9.724	0.526
616.500	384.844	80.005	19.994	103.339	20.100	10.003	0.529
617.000	385.044	80.005	19.996	103.336	20.099	10.068	0.503
617.500	385.330	80.004	19.995	103.336	20.097	10.284	0.474
618.000	385.511	80.003	19.995	103.336	20.098	10.184	0.476
618.500	385.796	80.003	19.995	103.337	20.102	9.874	0.466
619.000	386.030	80.003	19.994	103.337	20.101	9.953	0.493
619.500	386.274	80.003	19.993	103.338	20.100	10.036	0.498
620.000	386.477	80.004	19.994	103.336	20.102	9.908	0.462
620.500	386.778	80.004	19.996	103.335	20.100	10.024	0.476
621.000	387.002	80.005	19.995	103.334	20.099	10.083	0.515
621.500	387.220	80.004	19.996	103.334	20.104	9.735	0.484
622.000	387.498	80.005	19.995	103.332	20.101	9.914	0.469
622.500	387.803	80.004	19.995	103.332	20.103	9.835	0.540
623.000	388.002	80.004	19.995	103.332	20.101	9.981	0.544
623.500	388.261	80.004	19.995	103.333	20.101	9.959	0.480
624.000	388.524	80.005	19.995	103.333	20.102	9.870	0.489
624.500	388.782	80.005	19.995	103.333	20.100	9.992	0.522
625.000	388.998	80.005	19.995	103.333	20.099	10.075	0.498
625.500	389.247	80.006	19.994	103.332	20.105	9.650	0.469
626.000	389.493	80.006	19.995	103.332	20.101	9.945	0.480
626.500	389.724	80.004	19.996	103.332	20.104	9.747	0.486
627.000	390.009	80.006	19.994	103.332	20.105	9.682	0.497
627.500	390.265	80.006	19.996	103.334	20.103	9.822	0.528
628.000	390.474	80.007	19.995	103.334	20.101	9.932	0.503
628.500	390.735	80.006	19.995	103.332	20.101	9.967	0.468
629.000	390.992	80.006	19.995	103.330	20.101	9.981	0.494
629.500	391.227	80.005	19.995	103.328	20.105	9.672	0.505
630.000	391.478	80.006	19.995	103.324	20.102	9.908	0.489
630.500	391.680	80.006	19.994	103.321	20.100	10.027	0.470
631.000	391.961	80.006	19.995	103.321	20.100	10.019	0.468
631.500	392.233	80.006	19.994	103.322	20.101	9.970	0.517
632.000	392.464	80.006	19.995	103.322	20.101	9.927	0.528
632.500	392.697	80.006	19.994	103.323	20.103	9.787	0.484
633.000	392.955	80.005	19.994	103.323	20.102	9.888	0.477
633.500	393.236	80.006	19.994	103.323	20.102	9.855	0.515
634.000	393.425	80.006	19.996	103.323	20.101	9.983	0.505
634.500	393.664	80.005	19.996	103.324	20.103	9.804	0.450
635.000	393.998	80.006	19.995	103.323	20.099	10.097	0.501
635.500	394.257	80.005	19.996	103.324	20.101	9.965	0.583
636.000	394.466	80.006	19.995	103.322	20.101	9.934	0.530
636.500	394.704	80.007	19.995	103.322	20.101	9.922	0.457
637.000	394.994	80.007	19.995	103.321	20.103	9.802	0.488
637.500	395.226	80.007	19.995	103.322	20.102	9.904	0.525
638.000	395.475	80.006	19.995	103.320	20.103	9.829	0.502
638.500	395.743	80.006	19.995	103.318	20.103	9.765	0.499
639.000	395.998	80.005	19.994	103.318	20.103	9.784	0.520
639.500	396.260	80.006	19.996	103.319	20.106	9.541	0.520
640.000	396.505	80.006	19.995	103.321	20.102	9.895	0.512
640.500	396.769	80.005	19.995	103.322	20.102	9.905	0.508
641.000	397.018	80.005	19.995	103.326	20.106	9.551	0.511
641.500	397.268	80.005	19.995	103.327	20.105	9.687	0.506
642.000	397.508	80.005	19.994	103.327	20.104	9.736	0.494
642.500	397.758	80.006	19.994	103.327	20.104	9.718	0.490
643.000	397.972	80.006	19.994	103.328	20.107	9.504	0.477
643.500	398.245	80.006	19.994	103.327	20.101	9.950	0.475
644.001	398.501	80.006	19.994	103.326	20.104	9.704	0.508
644.500	398.732	80.006	19.994	103.324	20.105	9.645	0.508
645.000	398.989	80.006	19.995	103.323	20.106	9.592	0.487
645.500	399.270	80.007	19.994	103.321	20.104	9.751	0.513
646.000	399.481	80.006	19.994	103.318	20.103	9.810	0.515
646.500	399.728	80.007	19.994	103.318	20.103	9.764	0.475
647.000	399.989	80.006	19.995	103.320	20.104	9.696	0.483
647.500	400.238	80.005	19.994	103.320	20.103	9.826	0.508
648.000	400.501	80.007	19.994	103.318	20.102	9.846	0.511
648.500	400.757	80.007	19.994	103.322	20.105	9.628	0.516
649.000	400.991	80.006	19.994	103.322	20.102	9.900	0.505
649.500	401.231	80.008	19.994	103.320	20.104	9.689	0.482
650.000	401.509	80.006	19.994	103.318	20.101	9.957	0.496
650.500	401.751	80.008	19.995	103.316	20.105	9.646	0.519
651.000	402.007	80.008	19.994	103.313	20.102	9.837	0.509
651.500	402.226	80.008	19.994	103.309	20.101	9.933	0.487
652.000	402.526	80.009	19.994	103.308	20.107	9.534	0.496
652.500	402.760	80.008	19.994	103.310	20.107	9.531	0.526
653.000	402.989	80.009	19.994	103.312	20.107	9.464	0.499
653.500	403.237	80.008	19.993	103.314	20.106	9.600	0.470
654.000	403.518	80.007	19.994	103.314	20.105	9.670	0.503
654.500	403.773	80.009	19.994	103.315	20.104	9.708	0.533
655.000	404.056	80.009	19.994	103.310	20.104	9.722	0.537
655.500	404.310	80.008	19.994	103.310	20.104	9.726	0.537
656.000	404.478	80.010	19.994	103.312	20.105	9.665	0.479
656.500	404.775	80.008	19.995	103.316	20.103	9.820	0.443
657.000	405.024	80.009	19.994	103.318	20.103	9.761	0.505
657.500	405.283	80.009	19.993	103.321	20.106	9.566	0.527
658.000	405.534	80.007	19.993	103.319	20.103	9.835	0.509
658.500	405.779	80.009	19.993	103.316	20.102	9.849	0.503
659.000	406.009	80.008	19.993	103.311	20.102	9.859	0.485
659.500	406.256	80.008	19.993	103.304	20.103	9.761	0.476
660.000	406.502	80.008	19.994	103.302	20.105	9.681	0.486
660.500	406.771	80.007	19.994	103.305	20.105	9.635	0.504
661.000	407.024	80.006	19.994	103.305	20.102	9.891	0.518
661.500	407.281	80.006	19.993	103.303	20.104	9.690	0.516
662.000	407.530	80.006	19.994	103.304	20.103	9.773	0.508
662.500	407.814	80.006	19.995	103.303	20.107	9.488	0.519
663.000	408.068	80.007	19.995	103.300	20.101	9.942	0.536
663.500	408.279	80.006	19.993	103.296	20.104	9.708	0.502
664.000	408.538	80.005	19.993	103.295	20.103	9.816	0.467
664.500	408.815	80.006	19.995	103.294	20.103	9.799	0.503
665.000	409.022	80.005	19.993	103.296	20.104	9.749	0.510
665.500	409.291	80.006	19.994	103.293	20.104	9.751	0.480
666.000	409.533	80.005	19.995	103.293	20.102	9.873	0.493
666.500	409.802	80.005	19.994	103.293	20.103	9.802	0.511
667.000	410.073	80.005	19.994	103.294	20.104	9.712	0.526
667.500	410.303	80.005	19.993	103.294	20.108	9.405	0.521
668.000	410.597	80.007	19.994	103.297	20.110	9.273	0.513
668.500	410.829	80.006	19.993	103.298	20.104	9.702	0.525
669.000	411.043	80.005	19.994	103.297	20.105	9.667	0.486
669.500	411.328	80.004	19.994	103.296	20.107	9.490	0.473
670.000	411.558	80.005	19.994	103.295	20.105	9.661	0.507
670.500	411.795	80.005	19.994	103.292	20.106	9.537	0.491
671.000	412.084	80.005	19.994	103.292	20.106	9.608	0.497
671.500	412.342	80.006	19.994	103.292	20.106	9.568	0.537
672.000	412.588	80.004	19.994	103.292	20.102	9.905	0.525
672.500	412.840	80.006	19.994	103.291	20.107	9.503	0.501
673.000	413.064	80.004	19.994	103.292	20.103	9.819	0.487
673.500	413.314	80.003	19.994	103.292	20.105	9.649	0.475
674.000	413.599	80.005	19.994	103.292	20.106	9.586	0.504
674.500	413.819	80.005	19.994	103.292	20.104	9.712	0.520
675.000	414.058	80.005	19.993	103.292	20.105	9.662	0.482
675.500	414.329	80.004	19.994	103.292	20.102	9.906	0.485
676.000	414.564	80.006	19.993	103.292	20.103	9.764	0.508
676.500	414.787	80.005	19.994	103.292	20.106	9.608	0.482
677.000	415.077	80.005	19.994	103.292	20.108	9.439	0.486
677.500	415.340	80.005	19.993	103.292	20.105	9.677	0.532
678.000	415.564	80.005	19.994	103.292	20.104	9.730	0.520
678.500	415.808	80.004	19.993	103.292	20.105	9.659	0.478
679.000	416.069	80.005	19.994	103.292	20.100	9.991	0.487
679.500	416.295	80.006	19.994	103.290	20.106	9.598	0.496
680.000	416.573	80.005	19.993	103.288	20.102	9.862	0.496
680.500	416.826	80.005	19.994	103.289	20.104	9.758	0.518
681.000	417.121	80.005	19.993	103.289	20.103	9.827	0.540
681.500	417.345	80.006	19.994	103.289	20.098	10.151	0.534
682.000	417.613	80.005	19.994	103.291	20.102	9.856	0.505
682.500	417.865	80.006	19.993	103.293	20.102	9.840	0.505
683.000	418.126	80.004	19.994	103.293	20.102	9.885	0.516
683.500	418.389	80.006	19.994	103.300	20.098	10.167	0.519
684.000	418.634	80.004	19.993	103.303	20.098	10.208	0.516
684.500	418.882	80.005	19.994	103.296	20.097	10.222	0.501
685.000	419.126	80.006	19.994	103.291	20.100	10.055	0.493
685.500	419.374	80.005	19.993	103.289	20.101	9.950	0.492
686.000	419.624	80.006	19.994	103.282	20.098	10.206	0.495
686.500	419.874	80.006	19.994	103.277	20.095	10.363	0.499
687.000	420.105	80.006	19.994	103.284	20.099	10.093	0.490
687.500	420.383	80.006	19.993	103.289	20.098	10.179	0.495
688.000	420.660	80.005	19.994	103.290	20.099	10.092	0.532
688.500	420.889	80.005	19.993	103.290	20.100	10.049	0.530
689.000	421.181	80.005	19.994	103.292	20.103	9.760	0.514
689.500	421.393	80.006	19.994	103.292	20.096	10.315	0.512
690.000	421.672	80.005	19.993	103.292	20.094	10.443	0.497
690.500	421.936	80.005	19.995	103.292	20.094	10.443	0.517
691.000	422.206	80.006	19.995	103.289	20.095	10.390	0.538
691.500	422.416	80.005	19.995	103.287	20.093	10.524	0.507
692.000	422.648	80.006	19.994	103.286	20.095	10.392	0.461
692.500	422.930	80.005	19.994	103.285	20.095	10.380	0.478
693.000	423.189	80.006	19.995	103.285	20.096	10.344	0.527
693.500	423.448	80.005	19.993	103.288	20.095	10.364	0.529
694.000	423.697	80.005	19.995	103.289	20.093	10.579	0.513
694.500	423.951	80.006	19.996	103.289	20.093	10.522	0.506
695.000	424.197	80.006	19.996	103.288	20.097	10.235	0.501
695.500	424.458	80.005	19.995	103.283	20.097	10.282	0.503
696.000	424.707	80.005	19.994	103.279	20.095	10.386	0.509
696.500	424.967	80.005	19.996	103.274	20.097	10.248	0.509
697.000	425.219	80.005	19.995	103.273	20.094	10.505	0.510
697.500	425.466	80.005	19.996	103.274	20.096	10.336	0.506
698.000	425.738	80.005	19.995	103.277	20.095	10.421	0.510
698.500	425.976	80.005	19.995	103.280	20.094	10.451	0.514
699.000	426.203	80.006	19.996	103.285	20.095	10.363	0.487
699.500	426.523	80.005	19.996	103.285	20.095	10.358	0.506
700.000	426.743	80.005	19.995	103.281	20.094	10.494	0.543
700.500	427.007	80.005	19.995	103.281	20.095	10.421	0.512
701.000	427.271	80.005	19.996	103.279	20.094	10.507	0.506
701.500	427.505	80.004	19.996	103.278	20.091	10.660	0.513
702.000	427.770	80.005	19.996	103.278	20.092	10.656	0.499
702.500	428.021	80.006	19.996	103.280	20.093	10.538	0.507
703.000	428.280	80.004	19.996	103.282	20.094	10.493	0.513
703.500	428.584	80.005	19.995	103.284	20.091	10.716	0.536
704.000	428.802	80.004	19.995	103.281	20.089	10.809	0.543
704.500	429.020	80.005	19.995	103.280	20.090	10.748	0.480
705.000	429.322	80.006	19.996	103.275	20.091	10.689	0.478
705.500	429.574	80.006	19.996	103.273	20.092	10.610	0.537
706.000	429.814	80.006	19.994	103.274	20.089	10.833	0.523
706.500	430.061	80.007	19.995	103.277	20.089	10.880	0.489
707.000	430.297	80.005	19.994	103.280	20.088	10.892	0.485
707.500	430.598	80.007	19.995	103.286	20.086	11.096	0.510
708.000	430.846	80.006	19.994	103.285	20.088	10.919	0.543
708.500	431.120	80.007	19.994	103.283	20.086	11.077	0.536
709.000	431.394	80.007	19.994	103.278	20.084	11.224	0.535
709.500	431.637	80.007	19.994	103.276	20.087	11.002	0.533
710.000	431.859	80.007	19.994	103.271	20.085	11.111	0.490
710.500	432.140	80.008	19.994	103.267	20.088	10.916	0.483
711.000	432.393	80.007	19.994	103.262	20.085	11.172	0.519
711.500	432.678	80.008	19.994	103.264	20.087	10.977	0.536
712.000	432.928	80.008	19.995	103.264	20.085	11.154	0.536
712.500	433.168	80.007	19.994	103.270	20.085	11.117	0.512
713.000	433.432	80.006	19.994	103.273	20.085	11.120	0.497
713.500	433.719	80.009	19.994	103.272	20.087	11.000	0.527
714.000	433.958	80.008	19.995	103.268	20.086	11.069	0.538
714.500	434.221	80.007	19.996	103.262	20.085	11.132	0.514
715.000	434.485	80.006	19.995	103.258	20.085	11.120	0.515
715.500	434.750	80.007	19.995	103.256	20.081	11.408	0.528
716.000	435.013	80.006	19.995	103.255	20.083	11.329	0.528
716.500	435.227	80.008	19.995	103.257	20.081	11.463	0.502
717.000	435.529	80.007	19.995	103.257	20.080	11.490	0.497
717.500	435.747	80.005	19.996	103.255	20.078	11.641	0.518
718.000	436.037	80.007	19.995	103.256	20.081	11.473	0.514
718.500	436.260	80.006	19.996	103.260	20.073	12.012	0.511
719.000	436.545	80.007	19.995	103.257	20.075	11.920	0.511
719.500	436.773	80.004	19.995	103.258	20.075	11.856	0.510
720.000	437.060	80.006	19.997	103.256	20.077	11.727	0.514
720.500	437.294	80.005	19.995	103.253	20.075	11.881	0.518
721.000	437.559	80.004	19.994	103.249	20.080	11.538	0.510
721.500	437.806	80.004	19.996	103.250	20.079	11.588	0.505
722.000	438.049	80.006	19.996	103.251	20.075	11.857	0.501
722.500	438.323	80.005	19.994	103.251	20.076	11.792	0.504
723.000	438.588	80.005	19.994	103.252	20.077	11.757	0.528
723.500	438.806	80.005	19.995	103.251	20.076	11.843	0.511
724.000	439.105	80.006	19.995	103.253	20.075	11.910	0.500
724.500	439.357	80.005	19.994	103.252	20.072	12.133	0.534
725.000	439.620	80.004	19.995	103.252	20.073	12.025	0.533
725.500	439.880	80.005	19.997	103.253	20.071	12.204	0.519
726.000	440.122	80.006	19.996	103.255	20.071	12.177	0.513
726.500	440.372	80.005	19.995	103.253	20.070	12.236	0.497
727.000	440.651	80.005	19.995	103.252	20.070	12.230	0.510
727.500	440.882	80.005	19.996	103.252	20.070	12.297	0.519
728.000	441.142	80.006	19.994	103.255	20.069	12.335	0.501
728.500	441.408	80.005	19.995	103.263	20.072	12.106	0.509
729.000	441.660	80.005	19.995	103.270	20.067	12.470	0.522
729.500	441.911	80.005	19.995	103.266	20.070	12.301	0.510
730.000	442.149	80.007	19.995	103.259	20.069	12.329	0.496
730.500	442.396	80.007	19.995	103.254	20.068	12.380	0.487
731.000	442.671	80.007	19.996	103.246	20.068	12.412	0.504
731.500	442.927	80.006	19.994	103.239	20.066	12.583	0.527
732.000	443.194	80.005	19.995	103.246	20.066	12.557	0.527
732.500	443.408	80.007	19.994	103.256	20.067	12.529	0.502
733.000	443.641	80.006	19.994	103.261	20.067	12.478	0.464
733.500	443.908	80.007	19.994	103.264	20.065	12.677	0.473
734.000	444.147	80.007	19.995	103.264	20.064	12.726	0.503
734.500	444.436	80.007	19.993	103.265	20.063	12.777	0.517
735.000	444.703	80.008	19.994	103.264	20.063	12.815	0.543
735.500	444.938	80.008	19.995	103.261	20.060	13.049	0.529
736.000	445.218	80.008	19.994	103.259	20.061	12.927	0.508
736.500	445.454	80.008	19.994	103.258	20.062	12.854	0.516
737.000	445.712	80.009	19.993	103.254	20.058	13.185	0.505
737.500	445.965	80.009	19.993	103.251	20.060	13.037	0.502
738.000	446.217	80.007	19.993	103.250	20.060	12.982	0.508
738.500	446.461	80.008	19.994	103.251	20.056	13.285	0.501
739.000	446.720	80.007	19.994	103.251	20.059	13.055	0.499
739.500	446.989	80.007	19.994	103.251	20.057	13.253	0.515
740.000	447.206	80.007	19.994	103.250	20.056	13.338	0.507
740.500	447.471	80.007	19.993	103.249	20.053	13.560	0.484
741.000	447.742	80.007	19.993	103.248	20.054	13.432	0.510
741.500	448.029	80.008	19.993	103.248	20.052	13.582	0.547
742.000	448.265	80.007	19.992	103.249	20.049	13.832	0.540
742.500	448.494	80.006	19.994	103.249	20.051	13.655	0.494
743.000	448.756	80.007	19.994	103.250	20.049	13.862	0.478
743.500	448.994	80.008	19.994	103.250	20.048	13.937	0.496
744.000	449.309	80.008	19.994	103.250	20.050	13.728	0.526
744.500	449.542	80.006	19.994	103.251	20.046	14.037	0.550
745.000	449.758	80.006	19.993	103.251	20.044	14.223	0.498
745.500	449.992	80.006	19.993	103.251	20.047	14.011	0.450
746.000	450.251	80.007	19.993	103.251	20.044	14.197	0.471
746.500	450.536	80.004	19.994	103.251	20.042	14.369	0.519
747.000	450.789	80.005	19.993	103.251	20.045	14.152	0.541
747.500	451.040	80.005	19.994	103.251	20.045	14.149	0.521
748.000	451.277	80.005	19.994	103.249	20.044	14.228	0.496
748.500	451.553	80.006	19.993	103.250	20.044	14.196	0.501
749.000	451.799	80.004	19.994	103.250	20.044	14.204	0.518
749.500	452.053	80.004	19.994	103.251	20.044	14.226	0.511
750.000	452.284	80.005	19.994	103.251	20.041	14.454	0.492
750.500	452.554	80.005	19.995	103.253	20.041	14.474	0.493
751.000	452.823	80.005	19.994	103.253	20.040	14.476	0.520
751.500	453.041	80.005	19.994	103.253	20.040	14.476	0.512
752.000	453.311	80.005	19.994	103.253	20.040	14.548	0.487
752.500	453.543	80.003	19.994	103.252	20.039	14.558	0.496
753.000	453.810	80.004	19.994	103.249	20.039	14.611	0.501
753.500	454.052	80.004	19.993	103.246	20.037	14.739	0.503
754.000	454.316	80.006	19.995	103.246	20.035	14.901	0.507
754.500	454.550	80.005	19.994	103.244	20.035	14.858	0.502
755.000	454.822	80.005	19.995	103.246	20.037	14.740	0.502
755.500	455.045	80.005	19.995	103.249	20.036	14.788	0.501
756.000	455.317	80.005	19.994	103.252	20.033	15.004	0.495
756.500	455.561	80.005	19.995	103.253	20.036	14.799	0.506
757.000	455.828	80.005	19.994	103.255	20.034	14.986	0.513
757.500	456.064	80.005	19.995	103.253	20.032	15.088	0.507
758.000	456.321	80.005	19.994	103.252	20.031	15.151	0.498
758.500	456.573	80.004	19.994	103.251	20.029	15.324	0.501
759.000	456.805	80.004	19.993	103.250	20.028	15.434	0.497
759.500	457.095	80.006	19.995	103.249	20.029	15.302	0.503
760.000	457.314	80.006	19.994	103.249	20.029	15.373	0.515
760.500	457.577	80.005	19.995	103.249	20.029	15.353	0.496
761.000	457.825	80.007	19.994	103.248	20.030	15.300	0.497
761.500	458.095	80.005	19.993	103.249	20.027	15.516	0.515
762.000	458.371	80.005	19.994	103.248	20.026	15.526	0.532
762.500	458.595	80.004	19.994	103.248	20.027	15.516	0.523
763.000	458.855	80.007	19.994	103.248	20.026	15.574	0.492
763.500	459.114	80.006	19.994	103.248	20.026	15.562	0.501
764.000	459.372	80.006	19.994	103.248	20.024	15.684	0.518
764.500	459.629	80.006	19.994	103.248	20.027	15.517	0.516
765.000	459.865	80.005	19.993	103.246	20.025	15.672	0.504
765.500	460.104	80.006	19.994	103.242	20.024	15.694	0.483
766.000	460.372	80.005	19.995	103.240	20.023	15.794	0.491
766.500	460.639	80.007	19.994	103.241	20.025	15.615	0.521
767.000	460.862	80.005	19.993	103.240	20.023	15.784	0.513
767.500	461.108	80.006	19.994	103.241	20.023	15.820	0.480
768.000	461.393	80.006	19.994	103.245	20.025	15.600	0.500
768.500	461.629	80.006	19.994	103.246	20.022	15.893	0.526
769.000	461.913	80.004	19.994	103.245	20.022	15.888	0.521
769.500	462.121	80.005	19.994	103.246	20.022	15.851	0.506
770.000	462.364	80.006	19.994	103.247	20.022	15.895	0.471
770.500	462.645	80.005	19.995	103.247	20.020	15.992	0.487
771.000	462.909	80.006	19.995	103.248	20.022	15.840	0.534
771.500	463.135	80.005	19.994	103.249	20.024	15.681	0.518
772.000	463.392	80.006	19.993	103.249	20.026	15.540	0.487
772.500	463.643	80.006	19.994	103.249	20.025	15.644	0.495
773.000	463.887	80.006	19.995	103.250	20.020	15.997	0.501
773.500	464.134	80.005	19.994	103.248	20.021	15.944	0.493
774.000	464.369	80.005	19.993	103.247	20.025	15.644	0.486
774.500	464.620	80.006	19.994	103.247	20.024	15.743	0.484
775.000	464.872	80.006	19.994	103.245	20.024	15.690	0.495
775.500	465.151	80.005	19.995	103.244	20.022	15.843	0.517
776.000	465.410	80.005	19.994	103.246	20.021	15.913	0.535
776.500	465.618	80.004	19.994	103.247	20.027	15.506	0.503
777.000	465.882	80.005	19.993	103.245	20.026	15.568	0.469
777.500	466.115	80.006	19.994	103.247	20.023	15.778	0.485
778.000	466.375	80.006	19.992	103.247	20.025	15.619	0.495
778.500	466.605	80.006	19.995	103.246	20.028	15.437	0.491
779.000	466.894	80.006	19.993	103.245	20.025	15.637	0.505
779.500	467.167	80.006	19.993	103.245	20.025	15.629	0.540
780.000	467.396	80.006	19.994	103.238	20.024	15.728	0.532
780.500	467.633	80.006	19.994	103.233	20.022	15.824	0.484
781.000	467.878	80.006	19.994	103.229	20.023	15.797	0.473
781.500	468.150	80.006	19.995	103.227	20.021	15.935	0.499
782.000	468.391	80.006	19.993	103.226	20.023	15.784	0.515
782.500	468.648	80.006	19.995	103.230	20.021	15.938	0.506
783.000	468.893	80.006	19.994	103.234	20.022	15.841	0.501
783.500	469.158	80.004	19.994	103.239	20.026	15.554	0.506
784.000	469.428	80.005	19.994	103.243	20.027	15.514	0.522
784.500	469.654	80.006	19.995	103.246	20.026	15.524	0.515
785.000	469.913	80.005	19.995	103.248	20.027	15.494	0.491
785.500	470.166	80.006	19.995	103.250	20.029	15.372	0.498
786.000	470.435	80.006	19.995	103.249	20.027	15.457	0.517
786.500	470.718	80.005	19.994	103.247	20.028	15.422	0.537
787.000	470.954	80.005	19.994	103.243	20.027	15.462	0.536
787.500	471.227	80.005	19.994	103.238	20.029	15.328	0.514
788.000	471.425	80.005	19.995	103.234	20.027	15.466	0.490
788.500	471.671	80.006	19.994	103.234	20.028	15.443	0.457
789.000	471.941	80.005	19.994	103.235	20.028	15.437	0.480
789.500	472.214	80.005	19.994	103.239	20.029	15.335	0.530
790.000	472.467	80.006	19.995	103.245	20.032	15.133	0.535
790.500	472.738	80.007	19.995	103.245	20.030	15.259	0.525
791.000	473.003	80.006	19.995	103.240	20.028	15.384	0.529
791.500	473.267	80.006	19.995	103.232	20.027	15.485	0.533
792.000	473.521	80.006	19.995	103.228	20.031	15.209	0.524
792.500	473.752	80.006	19.994	103.225	20.031	15.222	0.501
793.000	474.032	80.007	19.994	103.225	20.033	15.063	0.497
793.500	474.287	80.007	19.994	103.229	20.034	14.978	0.523
794.000	474.516	80.007	19.994	103.233	20.032	15.101	0.510
794.500	474.757	80.007	19.994	103.233	20.035	14.904	0.477
795.000	475.066	80.007	19.996	103.235	20.033	15.048	0.510
795.500	475.328	80.007	19.995	103.238	20.034	14.988	0.561
796.000	475.553	80.008	19.995	103.237	20.035	14.870	0.529
796.500	475.834	80.008	19.994	103.239	20.034	14.923	0.496
797.000	476.075	80.006	19.993	103.238	20.034	14.951	0.514
797.500	476.342	80.008	19.995	103.234	20.034	14.939	0.515
798.000	476.613	80.007	19.994	103.232	20.035	14.850	0.523
798.500	476.821	80.008	19.994	103.232	20.034	14.990	0.508
799.000	477.097	80.007	19.993	103.229	20.036	14.777	0.481
799.500	477.340	80.007	19.994	103.227	20.038	14.687	0.501
800.000	477.609	80.006	19.993	103.227	20.038	14.629	0.515
800.500	477.882	80.006	19.994	103.226	20.036	14.787	0.527
801.000	478.157	80.006	19.994	103.230	20.040	14.543	0.546
801.500	478.422	80.006	19.993	103.233	20.039	14.603	0.544
802.000	478.640	80.006	19.995	103.236	20.038	14.650	0.511
802.500	478.896	80.006	19.993	103.238	20.042	14.393	0.478
803.000	479.149	80.005	19.994	103.235	20.040	14.492	0.492
803.500	479.390	80.007	19.994	103.228	20.041	14.438	0.502
804.000	479.649	80.006	19.994	103.229	20.040	14.481	0.497
804.500	479.902	80.006	19.994	103.229	20.043	14.284	0.506
805.000	480.183	80.006	19.995	103.225	20.042	14.397	0.523
805.500	480.410	80.006	19.996	103.224	20.045	14.143	0.521
806.000	480.695	80.006	19.995	103.223	20.044	14.224	0.510
806.500	480.946	80.006	19.995	103.217	20.047	13.973	0.524
807.000	481.181	80.005	19.995	103.213	20.046	14.052	0.511
807.500	481.464	80.006	19.994	103.213	20.051	13.708	0.502
808.000	481.684	80.005	19.994	103.214	20.049	13.820	0.511
808.500	481.927	80.006	19.994	103.214	20.051	13.692	0.483
809.000	482.220	80.007	19.994	103.214	20.053	13.502	0.500
809.500	482.453	80.005	19.995	103.216	20.052	13.624	0.531
810.000	482.706	80.006	19.994	103.217	20.051	13.711	0.506
810.500	482.969	80.006	19.995	103.217	20.052	13.575	0.501
811.000	483.209	80.006	19.994	103.217	20.052	13.573	0.510
811.500	483.455	80.005	19.994	103.218	20.055	13.421	0.495
812.000	483.717	80.006	19.994	103.217	20.054	13.437	0.497
812.500	483.988	80.005	19.994	103.220	20.056	13.297	0.520
813.000	484.231	80.006	19.996	103.225	20.057	13.239	0.524
813.500	484.522	80.005	19.993	103.230	20.060	13.015	0.524
814.000	484.752	80.006	19.995	103.232	20.059	13.113	0.527
814.500	485.028	80.005	19.995	103.235	20.059	13.119	0.513
815.000	485.243	80.006	19.995	103.238	20.062	12.848	0.499
815.500	485.541	80.007	19.995	103.239	20.064	12.719	0.502
816.000	485.770	80.006	19.996	103.236	20.065	12.656	0.520
816.500	486.017	80.007	19.994	103.234	20.062	12.892	0.502
817.000	486.245	80.008	19.995	103.233	20.066	12.585	0.476
817.500	486.532	80.007	19.995	103.227	20.067	12.500	0.495
818.000	486.767	80.006	19.995	103.223	20.065	12.602	0.519
818.500	487.038	80.007	19.995	103.222	20.067	12.502	0.514
819.000	487.269	80.006	19.994	103.221	20.068	12.432	0.503
819.500	487.527	80.007	19.995	103.218	20.068	12.422	0.495
820.000	487.795	80.007	19.995	103.218	20.068	12.390	0.508
820.500	488.098	80.008	19.994	103.215	20.067	12.463	0.548
821.000	488.334	80.007	19.996	103.213	20.066	12.542	0.555
821.500	488.638	80.008	19.994	103.214	20.069	12.344	0.540
822.000	488.880	80.007	19.994	103.215	20.072	12.102	0.543
822.500	489.129	80.007	19.995	103.214	20.071	12.192	0.518
823.000	489.347	80.007	19.995	103.215	20.073	12.020	0.479
823.500	489.623	80.008	19.996	103.219	20.073	12.011	0.480
824.000	489.896	80.007	19.995	103.221	20.073	12.015	0.521
824.500	490.149	80.007	19.993	103.219	20.077	11.744	0.537
825.000	490.407	80.006	19.993	103.222	20.080	11.530	0.519
825.500	490.653	80.006	19.994	103.222	20.075	11.864	0.508
826.000	490.931	80.006	19.994	103.218	20.076	11.779	0.514
826.500	491.175	80.006	19.994	103.215	20.077	11.756	0.523
827.000	491.433	80.006	19.995	103.214	20.077	11.744	0.512
827.500	491.684	80.006	19.995	103.215	20.077	11.729	0.505
828.000	491.892	80.006	19.997	103.215	20.078	11.690	0.484
828.500	492.196	80.006	19.994	103.215	20.083	11.312	0.485
829.000	492.465	80.006	19.995	103.216	20.078	11.653	0.542
829.500	492.718	80.007	19.996	103.216	20.084	11.200	0.547
830.000	492.972	80.004	19.995	103.212	20.081	11.403	0.514
830.500	493.246	80.005	19.994	103.211	20.084	11.207	0.518
831.000	493.481	80.006	19.994	103.211	20.082	11.358	0.519
831.500	493.767	80.006	19.996	103.210	20.085	11.153	0.515
832.000	493.980	80.004	19.993	103.213	20.082	11.366	0.510
832.500	494.245	80.004	19.994	103.218	20.087	11.006	0.488
833.000	494.539	80.005	19.995	103.223	20.085	11.126	0.519
833.500	494.766	80.004	19.994	103.227	20.090	10.760	0.540
834.000	495.026	80.006	19.995	103.227	20.088	10.900	0.504
834.500	495.269	80.005	19.994	103.225	20.088	10.914	0.495
835.000	495.541	80.006	19.994	103.220	20.088	10.916	0.509
835.500	495.778	80.005	19.993	103.217	20.090	10.764	0.512
836.000	496.065	80.003	19.993	103.211	20.090	10.764	0.516
836.500	496.269	80.004	19.994	103.217	20.089	10.829	0.507
837.000	496.538	80.006	19.994	103.220	20.092	10.590	0.482
837.500	496.824	80.004	19.993	103.220	20.091	10.691	0.514
838.000	497.102	80.005	19.994	103.222	20.090	10.736	0.560
838.500	497.340	80.006	19.995	103.227	20.089	10.831	0.540
839.000	497.601	80.005	19.995	103.225	20.090	10.752	0.507
839.500	497.851	80.004	19.994	103.224	20.090	10.760	0.505
840.000	498.095	80.005	19.993	103.225	20.092	10.607	0.503
840.500	498.348	80.005	19.994	103.225	20.093	10.552	0.495
841.000	498.619	80.005	19.994	103.223	20.093	10.503	0.510
841.500	498.848	80.004	19.994	103.220	20.093	10.515	0.512
842.000	499.124	80.004	19.994	103.219	20.094	10.475	0.503
842.500	499.369	80.006	19.995	103.219	20.094	10.500	0.513
843.000	499.631	80.004	19.993	103.220	20.097	10.244	0.514
843.500	499.883	80.005	19.995	103.218	20.096	10.288	0.511
844.000	500.124	80.006	19.993	103.217	20.100	9.979	0.504
844.500	500.393	80.004	19.994	103.217	20.097	10.262	0.502
845.000	500.649	80.005	19.994	103.217	20.099	10.125	0.517
845.500	500.922	80.005	19.994	103.214	20.097	10.259	0.527
846.000	501.183	80.005	19.994	103.214	20.096	10.327	0.532
846.500	501.422	80.006	19.995	103.216	20.097	10.237	0.517
847.000	501.716	80.005	19.995	103.216	20.100	10.020	0.516
847.500	501.939	80.007	19.995	103.219	20.102	9.898	0.525
848.000	502.188	80.006	19.994	103.222	20.101	9.943	0.495
848.500	502.476	80.006	19.995	103.222	20.100	10.000	0.504
849.000	502.738	80.007	19.995	103.221	20.100	10.008	0.543
849.500	502.965	80.007	19.995	103.219	20.104	9.684	0.520
850.000	503.238	80.005	19.994	103.216	20.106	9.593	0.495
850.500	503.517	80.006	19.993	103.214	20.108	9.426	0.526
851.000	503.774	80.007	19.993	103.213	20.104	9.715	0.544
851.500	504.022	80.006	19.994	103.212	20.101	9.967	0.520
852.000	504.270	80.006	19.993	103.212	20.104	9.687	0.500
852.500	504.492	80.005	19.994	103.211	20.104	9.717	0.483
853.000	504.775	80.005	19.993	103.213	20.104	9.746	0.487
853.500	504.995	80.006	19.993	103.215	20.106	9.548	0.504
854.000	505.282	80.006	19.994	103.217	20.108	9.440	0.506
854.500	505.553	80.007	19.993	103.217	20.105	9.656	0.533
855.000	505.793	80.005	19.994	103.218	20.104	9.680	0.534
855.500	506.058	80.005	19.993	103.216	20.109	9.337	0.508
856.000	506.304	80.005	19.994	103.213	20.108	9.451	0.508
856.500	506.580	80.005	19.993	103.212	20.107	9.495	0.516
857.000	506.849	80.005	19.995	103.212	20.106	9.570	0.533
857.500	507.079	80.005	19.995	103.213	20.106	9.593	0.522
858.000	507.369	80.006	19.994	103.214	20.108	9.450	0.510
858.500	507.592	80.005	19.993	103.215	20.108	9.436	0.517
859.000	507.854	80.006	19.993	103.216	20.110	9.292	0.499
859.500	508.096	80.005	19.993	103.216	20.106	9.530	0.495
860.000	508.355	80.005	19.994	103.215	20.111	9.212	0.503
860.500	508.628	80.005	19.992	103.215	20.107	9.525	0.516
861.000	508.896	80.006	19.993	103.217	20.107	9.454	0.537
861.500	509.150	80.006	19.994	103.215	20.110	9.284	0.532
862.000	509.418	80.006	19.994	103.215	20.113	9.040	0.522
862.500	509.676	80.006	19.994	103.218	20.112	9.135	0.524
863.000	509.927	80.006	19.994	103.218	20.113	9.019	0.517
863.500	510.190	80.005	19.994	103.216	20.113	9.007	0.511
864.000	510.468	80.006	19.994	103.216	20.110	9.247	0.527
864.500	510.725	80.006	19.995	103.216	20.113	9.066	0.538
865.000	510.965	80.005	19.995	103.214	20.110	9.284	0.516
865.500	511.229	80.005	19.994	103.214	20.110	9.245	0.501
866.000	511.520	80.006	19.993	103.214	20.110	9.263	0.529
866.500	511.737	80.005	19.994	103.214	20.109	9.353	0.531
867.000	511.988	80.006	19.993	103.214	20.109	9.343	0.488
867.500	512.249	80.005	19.993	103.214	20.111	9.221	0.490
868.000	512.506	80.006	19.994	103.213	20.113	9.007	0.515
868.500	512.745	80.005	19.993	103.213	20.119	8.560	0.507
869.000	513.017	80.006	19.994	103.213	20.113	9.066	0.504
869.500	513.271	80.006	19.995	103.213	20.112	9.129	0.518
870.000	513.534	80.005	19.993	103.213	20.113	9.032	0.521
870.500	513.759	80.006	19.993	103.212	20.112	9.115	0.503
871.000	514.081	80.005	19.994	103.211	20.115	8.879	0.518
871.500	514.348	80.006	19.994	103.211	20.116	8.851	0.568
872.000	514.570	80.007	19.994	103.211	20.114	8.958	0.539
872.500	514.861	80.007	19.993	103.211	20.113	9.054	0.501
873.000	515.091	80.005	19.993	103.211	20.116	8.840	0.517
873.500	515.327	80.006	19.992	103.213	20.115	8.895	0.494
874.000	515.613	80.007	19.995	103.212	20.112	9.151	0.493
874.500	515.870	80.007	19.993	103.212	20.116	8.796	0.532
875.000	516.150	80.007	19.994	103.212	20.115	8.905	0.540
875.500	516.392	80.007	19.994	103.213	20.118	8.684	0.530
876.000	516.656	80.007	19.995	103.213	20.118	8.659	0.514
876.500	516.925	80.006	19.992	103.213	20.116	8.846	0.519
877.000	517.213	80.007	19.994	103.213	20.117	8.706	0.545
877.500	517.466	80.007	19.993	103.214	20.117	8.731	0.549
878.000	517.706	80.006	19.993	103.213	20.116	8.790	0.517
878.500	517.951	80.008	19.994	103.213	20.119	8.625	0.489
879.000	518.182	80.008	19.994	103.213	20.116	8.818	0.480
879.500	518.439	80.008	19.993	103.213	20.115	8.913	0.482
880.000	518.710	80.006	19.994	103.212	20.114	8.933	0.508
880.500	518.984	80.007	19.994	103.211	20.117	8.710	0.537
881.000	519.220	80.007	19.993	103.212	20.119	8.556	0.527
881.500	519.474	80.008	19.995	103.212	20.118	8.649	0.500
882.000	519.745	80.006	19.993	103.212	20.119	8.570	0.507
882.500	520.079	80.006	19.994	103.211	20.116	8.832	0.565
883.000	520.294	80.006	19.994	103.209	20.121	8.407	0.577
883.500	520.544	80.006	19.994	103.209	20.117	8.718	0.506
884.000	520.792	80.007	19.995	103.209	20.115	8.867	0.482
884.500	521.061	80.005	19.994	103.209	20.119	8.582	0.508
885.000	521.323	80.007	19.995	103.210	20.120	8.539	0.524
885.500	521.592	80.007	19.993	103.212	20.118	8.704	0.531
886.000	521.828	80.006	19.995	103.211	20.115	8.857	0.518
886.500	522.076	80.006	19.994	103.211	20.117	8.777	0.494
887.000	522.343	80.006	19.996	103.210	20.117	8.743	0.500
887.500	522.608	80.007	19.994	103.210	20.116	8.816	0.524
888.000	522.851	80.007	19.993	103.211	20.116	8.826	0.520
888.500	523.110	80.006	19.994	103.211	20.117	8.741	0.505
889.000	523.391	80.007	19.994	103.211	20.118	8.633	0.521
889.500	523.617	80.006	19.994	103.207	20.118	8.702	0.524
890.000	523.898	80.006	19.995	103.206	20.120	8.543	0.507
890.500	524.178	80.006	19.995	103.205	20.115	8.899	0.534
891.000	524.418	80.007	19.994	103.205	20.117	8.741	0.541
891.500	524.706	80.007	19.995	103.205	20.119	8.580	0.524
892.000	524.938	80.007	19.995	103.209	20.118	8.653	0.524
892.500	525.203	80.006	19.994	103.209	20.121	8.474	0.508
893.000	525.443	80.008	19.994	103.208	20.119	8.570	0.501
893.500	525.696	80.007	19.994	103.208	20.120	8.501	0.500
894.000	525.967	80.008	19.994	103.208	20.117	8.732	0.508
894.500	526.220	80.006	19.994	103.208	20.117	8.716	0.524
895.000	526.480	80.005	19.995	103.208	20.118	8.665	0.519
895.500	526.742	80.006	19.994	103.209	20.122	8.356	0.517
896.000	526.949	80.007	19.994	103.210	20.119	8.626	0.495
896.500	527.206	80.008	19.994	103.210	20.118	8.701	0.467
897.000	527.462	80.008	19.994	103.209	20.121	8.437	0.489
897.500	527.786	80.006	19.994	103.210	20.120	8.539	0.547
898.000	528.010	80.007	19.994	103.209	20.122	8.360	0.563
898.500	528.263	80.007	19.993	103.209	20.122	8.334	0.512
899.000	528.503	80.008	19.993	103.208	20.122	8.356	0.485
899.500	528.769	80.007	19.993	103.209	20.121	8.452	0.500
900.000	529.032	80.007	19.995	103.207	20.123	8.301	0.517
900.500	529.252	80.008	19.994	103.207	20.119	8.582	0.506
901.000	529.542	80.008	19.994	103.207	20.122	8.403	0.497
901.500	529.772	80.008	19.993	103.208	20.121	8.405	0.515
902.000	530.035	80.008	19.993	103.208	20.121	8.466	0.507
902.500	530.297	80.007	19.994	103.208	20.121	8.466	0.509
903.000	530.565	80.007	19.994	103.208	20.121	8.460	0.527
903.500	530.808	80.009	19.994	103.206	20.121	8.456	0.520
904.000	531.055	80.007	19.993	103.206	20.118	8.675	0.500
904.500	531.322	80.007	19.993	103.206	20.121	8.406	0.502
905.000	531.562	80.008	19.994	103.206	20.118	8.652	0.510
905.500	531.827	80.008	19.994	103.205	20.122	8.362	0.506
906.000	532.078	80.008	19.994	103.206	20.124	8.216	0.510
906.500	532.336	80.008	19.995	103.203	20.120	8.486	0.512
907.000	532.627	80.007	19.994	103.202	20.119	8.602	0.529
907.500	532.871	80.008	19.995	103.198	20.123	8.307	0.542
908.000	533.131	80.007	19.995	103.198	20.121	8.454	0.519
908.500	533.340	80.007	19.994	103.198	20.126	8.051	0.487
909.000	533.602	80.007	19.994	103.201	20.125	8.132	0.471
909.500	533.850	80.007	19.995	103.202	20.124	8.220	0.490
910.000	534.113	80.006	19.995	103.206	20.122	8.394	0.510
910.500	534.367	80.007	19.994	103.207	20.124	8.193	0.514
911.000	534.638	80.007	19.994	103.206	20.123	8.277	0.522
911.500	534.905	80.007	19.994	103.206	20.125	8.173	0.532
912.000	535.174	80.006	19.994	103.206	20.125	8.116	0.537
912.500	535.415	80.006	19.996	103.206	20.126	8.064	0.523
913.000	535.679	80.005	19.996	103.207	20.124	8.212	0.508
913.500	535.925	80.006	19.995	103.207	20.123	8.265	0.508
914.000	536.221	80.006	19.995	103.207	20.120	8.520	0.526
914.500	536.481	80.006	19.996	103.203	20.122	8.348	0.549
915.000	536.726	80.006	19.995	103.196	20.122	8.362	0.530
915.500	536.960	80.006	19.994	103.196	20.124	8.188	0.492
916.000	537.204	80.006	19.995	103.197	20.125	8.176	0.479
916.500	537.461	80.005	19.994	103.197	20.123	8.319	0.489
917.000	537.729	80.005	19.995	103.201	20.121	8.437	0.513
917.500	537.954	80.005	19.994	103.207	20.121	8.435	0.509
918.000	538.220	80.005	19.994	103.205	20.121	8.425	0.492
918.500	538.485	80.006	19.995	103.204	20.125	8.122	0.511
919.000	538.746	80.004	19.994	103.204	20.122	8.354	0.529
919.500	538.979	80.005	19.996	103.204	20.123	8.261	0.510
920.000	539.283	80.007	19.994	103.204	20.123	8.287	0.515
920.500	539.515	80.004	19.994	103.202	20.122	8.393	0.536
921.000	539.788	80.004	19.994	103.200	20.121	8.475	0.521
921.500	539.981	80.005	19.995	103.201	20.122	8.361	0.486
922.000	540.252	80.005	19.994	103.201	20.120	8.521	0.465
922.500	540.520	80.006	19.996	103.202	20.127	8.005	0.502
923.000	540.796	80.005	19.994	103.205	20.122	8.399	0.541
923.500	541.029	80.006	19.995	103.207	20.123	8.294	0.526
924.000	541.268	80.005	19.995	103.207	20.122	8.387	0.490
924.500	541.516	80.004	19.995	103.203	20.118	8.649	0.479
925.000	541.844	80.006	19.995	103.199	20.122	8.375	0.532
925.500	542.053	80.006	19.994	103.200	20.121	8.419	0.557
926.000	542.299	80.006	19.994	103.198	20.121	8.417	0.496
926.500	542.534	80.005	19.994	103.192	20.124	8.255	0.468
927.000	542.827	80.005	19.993	103.191	20.126	8.076	0.505
927.500	543.048	80.007	19.994	103.197	20.123	8.306	0.521
928.000	543.306	80.006	19.994	103.194	20.126	8.041	0.496
928.500	543.523	80.006	19.994	103.196	20.120	8.531	0.477
929.000	543.823	80.007	19.993	103.200	20.121	8.446	0.496
929.500	544.052	80.006	19.994	103.204	20.123	8.324	0.523
930.000	544.291	80.004	19.994	103.204	20.123	8.295	0.498
930.500	544.543	80.007	19.993	103.208	20.120	8.505	0.480
931.000	544.806	80.007	19.994	103.210	20.126	8.074	0.503
931.500	545.049	80.005	19.994	103.211	20.121	8.407	0.510
932.000	545.323	80.006	19.994	103.212	20.121	8.414	0.512
932.500	545.543	80.006	19.995	103.212	20.127	8.017	0.505
933.000	545.827	80.006	19.994	103.212	20.124	8.192	0.499
933.500	546.054	80.006	19.992	103.212	20.122	8.393	0.508
934.000	546.317	80.005	19.995	103.212	20.124	8.202	0.501
934.500	546.566	80.006	19.994	103.211	20.123	8.297	0.501
935.000	546.802	80.006	19.993	103.211	20.122	8.340	0.498
935.500	547.084	80.007	19.994	103.209	20.126	8.087	0.502
936.000	547.311	80.007	19.994	103.208	20.123	8.264	0.514
936.500	547.569	80.006	19.994	103.209	20.124	8.205	0.498
937.000	547.841	80.006	19.994	103.209	20.121	8.414	0.507
937.500	548.059	80.006	19.993	103.207	20.123	8.317	0.509
938.000	548.356	80.005	19.993	103.210	20.118	8.646	0.502
938.500	548.576	80.006	19.994	103.210	20.121	8.416	0.516
939.000	548.834	80.006	19.994	103.210	20.123	8.291	0.498
939.500	549.087	80.006	19.993	103.208	20.121	8.411	0.494
940.000	549.340	80.006	19.994	103.208	20.124	8.245	0.508
940.500	549.603	80.005	19.995	103.207	20.123	8.330	0.511
941.000	549.843	80.007	19.994	103.207	20.123	8.281	0.510
941.500	550.094	80.004	19.993	103.207	20.125	8.155	0.497
942.000	550.325	80.006	19.994	103.208	20.121	8.427	0.487
942.500	550.577	80.005	19.994	103.210	20.127	8.002	0.483
943.000	550.873	80.005	19.993	103.211	20.124	8.218	0.516
943.500	551.117	80.006	19.995	103.211	20.124	8.250	0.544
944.000	551.363	80.004	19.994	103.211	20.122	8.348	0.515
944.500	551.611	80.003	19.994	103.211	20.119	8.557	0.492
945.000	551.849	80.004	19.994	103.210	20.122	8.346	0.490
945.500	552.100	80.003	19.994	103.205	20.120	8.482	0.487
946.000	552.361	80.004	19.994	103.201	20.122	8.379	0.501
946.500	552.599	80.004	19.994	103.200	20.123	8.324	0.505
947.000	552.881	80.005	19.994	103.198	20.121	8.442	0.510
947.500	553.105	80.004	19.994	103.193	20.124	8.247	0.513
948.000	553.383	80.005	19.994	103.193	20.128	7.923	0.503
948.500	553.611	80.004	19.994	103.194	20.126	8.043	0.504
949.000	553.873	80.005	19.994	103.191	20.130	7.805	0.498
949.500	554.141	80.005	19.995	103.193	20.128	7.951	0.510
950.000	554.380	80.005	19.994	103.199	20.125	8.105	0.519
950.500	554.649	80.004	19.994	103.205	20.126	8.069	0.507
951.000	554.844	80.005	19.994	103.208	20.125	8.124	0.486
951.500	555.118	80.005	19.994	103.212	20.129	7.815	0.467
952.000	555.399	80.004	19.994	103.212	20.125	8.106	0.512
952.500	555.615	80.004	19.994	103.209	20.127	8.011	0.526
953.000	555.909	80.006	19.993	103.202	20.125	8.120	0.504
953.500	556.107	80.005	19.993	103.200	20.128	7.939	0.501
954.000	556.387	80.006	19.994	103.200	20.121	8.423	0.485
954.500	556.608	80.006	19.994	103.200	20.127	7.998	0.490
955.000	556.885	80.008	19.994	103.200	20.125	8.154	0.499
955.500	557.151	80.006	19.994	103.205	20.126	8.071	0.520
956.000	557.363	80.007	19.994	103.206	20.125	8.138	0.511
956.500	557.647	80.006	19.994	103.206	20.126	8.072	0.487
957.000	557.914	80.008	19.994	103.206	20.131	7.727	0.524
957.500	558.147	80.007	19.993	103.208	20.128	7.883	0.526
958.000	558.394	80.008	19.993	103.207	20.130	7.741	0.490
958.500	558.637	80.007	19.993	103.207	20.125	8.155	0.485
959.000	558.885	80.008	19.994	103.207	20.130	7.788	0.490
959.500	559.132	80.007	19.993	103.205	20.127	7.995	0.493
960.000	559.435	80.006	19.993	103.202	20.130	7.770	0.523
960.500	559.650	80.009	19.993	103.201	20.128	7.932	0.534
961.000	559.955	80.008	19.993	103.196	20.128	7.944	0.519
961.500	560.186	80.008	19.992	103.194	20.130	7.800	0.528
962.000	560.449	80.008	19.993	103.195	20.129	7.875	0.515
962.500	560.706	80.009	19.994	103.197	20.131	7.685	0.507
963.000	560.945	80.008	19.993	103.199	20.131	7.703	0.508
963.500	561.204	80.008	19.993	103.204	20.128	7.884	0.497
964.000	561.484	80.007	19.994	103.205	20.129	7.841	0.519
964.500	561.699	80.007	19.995	103.204	20.126	8.040	0.517
965.000	562.007	80.008	19.994	103.201	20.129	7.857	0.509
965.500	562.237	80.008	19.994	103.198	20.130	7.745	0.531
966.000	562.480	80.009	19.993	103.196	20.134	7.479	0.506
966.500	562.713	80.008	19.993	103.192	20.132	7.611	0.475
967.000	562.933	80.006	19.994	103.190	20.129	7.831	0.464
967.500	563.224	80.008	19.994	103.188	20.129	7.825	0.482
968.000	563.470	80.005	19.993	103.186	20.132	7.611	0.524
968.500	563.704	80.007	19.993	103.183	20.129	7.845	0.508
969.000	563.930	80.009	19.994	103.185	20.132	7.629	0.470
969.500	564.232	80.007	19.994	103.185	20.131	7.698	0.494
970.000	564.472	80.006	19.992	103.188	20.129	7.822	0.535
970.500	564.729	80.007	19.994	103.191	20.128	7.939	0.520
971.000	564.979	80.007	19.994	103.191	20.128	7.907	0.502
971.500	565.241	80.006	19.994	103.186	20.128	7.928	0.510
972.000	565.493	80.007	19.995	103.189	20.130	7.733	0.513
972.500	565.729	80.008	19.994	103.189	20.130	7.791	0.501
973.000	566.005	80.007	19.994	103.192	20.130	7.783	0.500
973.500	566.262	80.005	19.993	103.194	20.130	7.791	0.522
974.000	566.485	80.008	19.994	103.194	20.128	7.906	0.507
974.500	566.738	80.007	19.994	103.194	20.132	7.622	0.478
975.000	566.994	80.007	19.995	103.193	20.127	7.998	0.493
975.500	567.227	80.007	19.994	103.191	20.129	7.850	0.499
976.000	567.478	80.006	19.994	103.188	20.131	7.663	0.486
976.500	567.794	80.007	19.996	103.187	20.129	7.845	0.526
977.000	567.992	80.007	19.994	103.186	20.130	7.778	0.540
977.500	568.263	80.007	19.994	103.190	20.134	7.441	0.491
978.000	568.501	80.007	19.994	103.191	20.136	7.313	0.489
978.500	568.765	80.007	19.993	103.191	20.132	7.634	0.506
979.000	569.003	80.006	19.995	103.195	20.133	7.512	0.502
979.500	569.263	80.007	19.995	103.194	20.132	7.579	0.500
980.000	569.495	80.007	19.995	103.186	20.130	7.746	0.495
980.500	569.766	80.006	19.995	103.181	20.130	7.740	0.498
981.000	570.018	80.006	19.993	103.179	20.131	7.679	0.513
981.500	570.288	80.007	19.995	103.177	20.129	7.868	0.522
982.000	570.517	80.008	19.995	103.180	20.129	7.826	0.510
982.500	570.797	80.009	19.994	103.185	20.132	7.647	0.505
983.000	571.028	80.008	19.995	103.183	20.130	7.799	0.510
983.500	571.253	80.008	19.994	103.183	20.126	8.051	0.483
984.000	571.493	80.008	19.994	103.180	20.127	7.978	0.460
984.500	571.764	80.008	19.995	103.176	20.129	7.834	0.488
985.000	572.019	80.008	19.994	103.172	20.132	7.596	0.519
985.500	572.299	80.008	19.994	103.173	20.131	7.686	0.530
986.000	572.540	80.008	19.995	103.173	20.130	7.785	0.528
986.500	572.799	80.009	19.995	103.174	20.132	7.626	0.511
987.000	573.078	80.008	19.994	103.173	20.130	7.783	0.519
987.500	573.285	80.008	19.995	103.172	20.128	7.926	0.512
988.000	573.579	80.008	19.994	103.171	20.130	7.783	0.494
988.500	573.845	80.008	19.995	103.171	20.125	8.106	0.531
989.000	574.083	80.007	19.993	103.170	20.128	7.907	0.532
989.500	574.365	80.008	19.994	103.170	20.129	7.818	0.512
990.000	574.616	80.007	19.994	103.171	20.129	7.836	0.527
990.500	574.849	80.009	19.994	103.171	20.128	7.887	0.508
991.000	575.159	80.007	19.994	103.172	20.132	7.614	0.514
991.500	575.418	80.008	19.993	103.173	20.128	7.931	0.556
992.000	575.657	80.006	19.996	103.173	20.129	7.834	0.533
992.500	575.958	80.007	19.995	103.176	20.130	7.773	0.519
993.000	576.162	80.007	19.993	103.177	20.132	7.619	0.523
993.500	576.403	80.007	19.993	103.176	20.129	7.853	0.475
994.000	576.658	80.006	19.995	103.177	20.133	7.522	0.470
994.500	576.939	80.006	19.996	103.179	20.131	7.729	0.516
995.000	577.167	80.007	19.995	103.178	20.132	7.619	0.523
995.500	577.398	80.005	19.995	103.178	20.130	7.759	0.484
996.000	577.665	80.005	19.994	103.178	20.133	7.533	0.478
996.500	577.930	80.006	19.993	103.179	20.133	7.551	0.515
997.000	578.157	80.005	19.994	103.180	20.131	7.669	0.512
997.500	578.406	80.006	19.995	103.178	20.131	7.659	0.484
998.000	578.652	80.006	19.995	103.179	20.131	7.686	0.485
998.500	578.929	80.006	19.995	103.183	20.133	7.521	0.509
999.000	579.156	80.004	19.994	103.181	20.131	7.685	0.514
999.500	579.431	80.005	19.994	103.179	20.133	7.517	0.503
1000.000	579.672	80.006	19.994	103.181	20.133	7.527	0.509
1000.500	579.918	80.006	19.995	103.182	20.133	7.578	0.501
1001.000	580.167	80.006	19.994	103.178	20.136	7.287	0.491
1001.500	580.407	80.006	19.994	103.178	20.131	7.655	0.492
1002.000	580.642	80.004	19.995	103.179	20.131	7.671	0.482
1002.500	580.900	80.004	19.994	103.178	20.130	7.736	0.484
1003.000	581.196	80.002	19.994	103.177	20.128	7.917	0.523
1003.500	581.426	80.006	19.994	103.181	20.130	7.761	0.540
1004.000	581.680	80.004	19.995	103.186	20.129	7.843	0.505
1004.500	581.933	80.005	19.994	103.188	20.131	7.666	0.496
1005.000	582.226	80.005	19.994	103.190	20.131	7.694	0.527
1005.500	582.438	80.003	19.994	103.190	20.130	7.753	0.525
1006.000	582.693	80.005	19.995	103.185	20.134	7.452	0.486
1006.500	582.931	80.006	19.995	103.179	20.130	7.769	0.480
1007.000	583.204	80.004	19.995	103.179	20.131	7.675	0.502
1007.500	583.434	80.004	19.995	103.179	20.137	7.246	0.507
1008.000	583.664	80.005	19.996	103.181	20.130	7.758	0.481
1008.500	583.958	80.005	19.994	103.181	20.129	7.823	0.492
1009.000	584.170	80.004	19.995	103.181	20.130	7.775	0.515
1009.500	584.430	80.005	19.995	103.178	20.137	7.271	0.489
1010.000	584.698	80.005	19.996	103.178	20.131	7.673	0.500
1010.500	584.925	80.006	19.995	103.179	20.130	7.730	0.511
1011.000	585.218	80.004	19.995	103.181	20.133	7.525	0.507
1011.500	585.468	80.004	19.996	103.182	20.132	7.598	0.532
1012.000	585.718	80.004	19.995	103.181	20.132	7.598	0.521
1012.500	585.958	80.003	19.994	103.180	20.134	7.462	0.495
1013.000	586.218	80.004	19.995	103.176	20.134	7.470	0.495
1013.500	586.456	80.004	19.995	103.178	20.132	7.636	0.499
1014.000	586.725	80.004	19.995	103.183	20.136	7.319	0.502
1014.500	586.961	80.004	19.995	103.188	20.135	7.374	0.507
1015.000	587.232	80.004	19.995	103.192	20.133	7.512	0.506
1015.500	587.483	80.005	19.994	103.193	20.131	7.703	0.514
1016.000	587.728	80.005	19.994	103.190	20.133	7.569	0.509
1016.500	587.961	80.003	19.995	103.183	20.134	7.482	0.487
1017.000	588.232	80.005	19.994	103.180	20.132	7.646	0.491
1017.500	588.445	80.003	19.994	103.177	20.134	7.502	0.495
1018.000	588.681	80.005	19.993	103.177	20.130	7.753	0.467
1018.500	588.928	80.005	19.995	103.177	20.138	7.200	0.466
1019.000	589.183	80.004	19.995	103.176	20.134	7.485	0.493
1019.500	589.466	80.005	19.994	103.175	20.134	7.469	0.520
1020.000	589.700	80.005	19.995	103.174	20.132	7.605	0.527
1020.500	589.968	80.005	19.994	103.174	20.132	7.598	0.509
1021.000	590.212	80.006	19.994	103.173	20.135	7.356	0.507
1021.500	590.439	80.006	19.994	103.173	20.133	7.537	0.492
1022.000	590.718	80.006	19.994	103.174	20.135	7.413	0.489
1022.500	590.968	80.006	19.994	103.175	20.132	7.579	0.517
1023.000	591.222	80.004	19.994	103.175	20.131	7.654	0.516
1023.500	591.458	80.004	19.995	103.175	20.131	7.673	0.497
1024.000	591.700	80.005	19.994	103.175	20.133	7.522	0.484
1024.499	591.987	80.005	19.993	103.174	20.132	7.626	0.503
1025.000	592.204	80.005	19.995	103.172	20.130	7.754	0.516
1025.500	592.456	80.006	19.994	103.173	20.132	7.614	0.487
1025.999	592.726	80.006	19.994	103.173	20.132	7.642	0.496
1026.499	592.955	80.004	19.994	103.172	20.134	7.447	0.511
1026.999	593.251	80.006	19.994	103.173	20.131	7.671	0.512
1027.499	593.496	80.005	19.993	103.173	20.135	7.421	0.533
1027.999	593.756	80.006	19.995	103.173	20.136	7.307	0.523
1028.499	594.027	80.006	19.993	103.175	20.135	7.409	0.518
1028.999	594.282	80.006	19.994	103.181	20.133	7.575	0.528
1029.499	594.497	80.007	19.994	103.186	20.130	7.734	0.498
1029.999	594.757	80.005	19.994	103.186	20.132	7.588	0.473
1030.499	595.033	80.005	19.995	103.187	20.134	7.451	0.506
1030.999	595.266	80.006	19.994	103.184	20.139	7.102	0.522
1031.499	595.527	80.006	19.994	103.177	20.135	7.384	0.501
1031.999	595.821	80.006	19.995	103.173	20.137	7.228	0.524
1032.499	596.033	80.005	19.994	103.171	20.133	7.527	0.531
1032.999	596.256	80.005	19.994	103.170	20.131	7.724	0.471
1033.499	596.538	80.005	19.994	103.171	20.132	7.620	0.470
1033.999	596.816	80.005	19.994	103.171	20.130	7.738	0.532
1034.499	597.032	80.005	19.994	103.171	20.129	7.844	0.527
1034.999	597.301	80.005	19.995	103.172	20.131	7.699	0.490
1035.499	597.543	80.005	19.995	103.172	20.132	7.642	0.497
1035.999	597.819	80.006	19.995	103.171	20.132	7.624	0.514
1036.499	598.073	80.006	19.995	103.171	20.136	7.352	0.525
1037.000	598.328	80.006	19.994	103.171	20.135	7.384	0.520
1037.500	598.570	80.006	19.994	103.170	20.134	7.476	0.502
1037.999	598.802	80.007	19.995	103.170	20.130	7.740	0.485
1038.499	599.119	80.006	19.993	103.170	20.132	7.616	0.512
1039.000	599.337	80.005	19.994	103.172	20.133	7.549	0.542
1039.500	599.571	80.005	19.993	103.173	20.132	7.624	0.493
1039.999	599.874	80.005	19.994	103.173	20.131	7.675	0.495
1040.499	600.101	80.006	19.995	103.173	20.137	7.275	0.534
1040.999	600.351	80.006	19.994	103.174	20.136	7.295	0.504
1041.499	600.661	80.007	19.994	103.171	20.137	7.265	0.518
1041.999	600.886	80.006	19.993	103.171	20.134	7.468	0.547
1042.499	601.093	80.007	19.994	103.170	20.135	7.393	0.483
1042.999	601.366	80.007	19.993	103.175	20.131	7.693	0.456
1043.500	601.627	80.006	19.993	103.178	20.138	7.151	0.507
1044.000	601.914	80.007	19.993	103.178	20.134	7.502	0.541
1044.499	602.184	80.007	19.994	103.178	20.134	7.455	0.553
1044.999	602.385	80.007	19.995	103.179	20.136	7.335	0.514
1045.499	602.694	80.008	19.995	103.175	20.132	7.626	0.491
1045.999	602.886	80.006	19.994	103.172	20.136	7.327	0.505
1046.500	603.187	80.008	19.994	103.172	20.133	7.531	0.497
1047.000	603.406	80.008	19.993	103.174	20.136	7.319	0.507
1047.499	603.691	80.008	19.994	103.174	20.135	7.390	0.512
1047.999	603.941	80.007	19.994	103.173	20.134	7.488	0.520
1048.499	604.203	80.006	19.993	103.173	20.133	7.510	0.524
1048.999	604.464	80.006	19.993	103.172	20.131	7.655	0.518
1049.499	604.738	80.007	19.993	103.171	20.134	7.439	0.529
1049.999	604.929	80.007	19.994	103.170	20.137	7.252	0.500
1050.500	605.206	80.009	19.994	103.170	20.133	7.561	0.466
1051.001	605.443	80.007	19.994	103.171	20.132	7.620	0.491
1051.501	605.717	80.006	19.993	103.173	20.133	7.525	0.513
1052.000	605.981	80.007	19.993	103.175	20.134	7.484	0.525
1052.500	606.226	80.006	19.993	103.178	20.134	7.462	0.523
1053.000	606.431	80.006	19.994	103.179	20.134	7.468	0.479
1053.499	606.676	80.005	19.992	103.178	20.135	7.360	0.450
1053.999	606.993	80.007	19.993	103.177	20.136	7.295	0.506
1054.499	607.243	80.006	19.995	103.175	20.135	7.396	0.565
1055.000	607.512	80.008	19.995	103.173	20.137	7.224	0.543
1055.501	607.694	80.006	19.993	103.172	20.139	7.084	0.484
1056.001	607.977	80.007	19.994	103.172	20.135	7.419	0.458
1056.500	608.247	80.006	19.993	103.173	20.135	7.421	0.509
1056.999	608.540	80.007	19.993	103.173	20.135	7.362	0.558
1057.499	608.811	80.006	19.995	103.173	20.134	7.494	0.563
1057.999	609.013	80.006	19.995	103.173	20.135	7.398	0.519
1058.499	609.250	80.005	19.993	103.174	20.138	7.201	0.456
1058.999	609.522	80.006	19.994	103.173	20.134	7.494	0.474
1059.499	609.769	80.006	19.993	103.173	20.135	7.398	0.514
1059.999	610.023	80.006	19.994	103.173	20.135	7.427	0.510
1060.499	610.239	80.007	19.994	103.175	20.132	7.610	0.485
1060.999	610.464	80.006	19.994	103.175	20.134	7.465	0.456
1061.499	610.735	80.007	19.994	103.176	20.136	7.305	0.468
1061.999	611.003	80.007	19.993	103.176	20.138	7.193	0.517
1062.499	611.268	80.008	19.993	103.176	20.137	7.249	0.536
1062.999	611.461	80.007	19.993	103.174	20.137	7.233	0.496
1063.499	611.732	80.006	19.993	103.174	20.134	7.472	0.461
1063.999	611.996	80.008	19.993	103.174	20.139	7.111	0.499
1064.499	612.231	80.008	19.994	103.173	20.134	7.442	0.517
1064.999	612.455	80.008	19.993	103.173	20.134	7.476	0.479
1065.499	612.724	80.007	19.993	103.172	20.136	7.297	0.476
1065.999	612.967	80.006	19.994	103.173	20.137	7.260	0.503
1066.499	613.248	80.007	19.992	103.173	20.139	7.090	0.518
1066.999	613.470	80.006	19.994	103.174	20.132	7.651	0.513
1067.499	613.714	80.008	19.996	103.173	20.131	7.728	0.484
1067.999	613.977	80.007	19.995	103.173	20.134	7.437	0.486
1068.499	614.250	80.009	19.995	103.173	20.135	7.358	0.522
1068.999	614.506	80.008	19.994	103.172	20.136	7.287	0.533
1069.499	614.727	80.007	19.995	103.172	20.138	7.147	0.503
1069.999	614.963	80.008	19.995	103.172	20.133	7.575	0.467
1070.499	615.253	80.008	19.994	103.170	20.135	7.413	0.491
1070.999	615.494	80.008	19.995	103.170	20.133	7.578	0.528
1071.499	615.750	80.007	19.994	103.170	20.135	7.374	0.515
1071.999	616.029	80.009	19.994	103.170	20.131	7.675	0.516
1072.499	616.261	80.008	19.994	103.171	20.133	7.557	0.522
1072.999	616.550	80.007	19.994	103.176	20.135	7.383	0.516
1073.499	616.736	80.006	19.993	103.181	20.132	7.617	0.498
1073.999	617.018	80.006	19.994	103.182	20.137	7.271	0.472
1074.499	617.267	80.006	19.993	103.183	20.131	7.698	0.499
1074.999	617.535	80.005	19.994	103.182	20.139	7.117	0.523
1075.499	617.776	80.007	19.995	103.180	20.137	7.222	0.513
1075.999	618.043	80.005	19.994	103.175	20.135	7.376	0.509
1076.499	618.288	80.005	19.994	103.174	20.135	7.425	0.510
1076.999	618.527	80.006	19.994	103.174	20.138	7.201	0.498
1077.500	618.829	80.005	19.994	103.174	20.137	7.278	0.513
1078.000	619.076	80.005	19.995	103.174	20.132	7.599	0.545
1078.499	619.317	80.005	19.995	103.174	20.138	7.152	0.518
1078.999	619.603	80.004	19.994	103.174	20.136	7.309	0.507
1079.499	619.827	80.004	19.995	103.174	20.138	7.195	0.519
1080.000	620.081	80.007	19.995	103.174	20.136	7.354	0.494
1080.500	620.346	80.005	19.993	103.175	20.134	7.459	0.498
1080.999	620.582	80.004	19.994	103.175	20.136	7.285	0.510
1081.499	620.859	80.006	19.993	103.176	20.139	7.098	0.507
1081.999	621.242	80.005	19.993	103.175	20.142	6.854	0.587
1082.499	621.456	80.006	19.994	103.176	20.138	7.159	0.628
1082.999	621.680	80.005	19.993	103.174	20.135	7.402	0.518
1083.499	621.940	80.006	19.994	103.177	20.142	6.880	0.461
1084.000	622.199	80.005	19.993	103.178	20.138	7.191	0.501
1084.500	622.482	80.005	19.994	103.182	20.137	7.232	0.530
1084.999	622.699	80.004	19.994	103.183	20.136	7.303	0.521
1085.499	622.983	80.005	19.994	103.183	20.137	7.218	0.501
1085.999	623.229	80.006	19.994	103.180	20.140	6.992	0.515
1086.499	623.510	80.006	19.994	103.178	20.137	7.209	0.528
1086.999	623.756	80.007	19.994	103.174	20.139	7.094	0.527
1087.499	624.003	80.006	19.994	103.172	20.139	7.057	0.510
1087.999	624.277	80.008	19.995	103.171	20.138	7.136	0.507
1088.499	624.532	80.006	19.993	103.171	20.141	6.921	0.525
1088.999	624.812	80.005	19.995	103.170	20.141	6.907	0.532
1089.499	625.065	80.005	19.994	103.170	20.141	6.943	0.534
1090.000	625.313	80.006	19.994	103.171	20.140	6.994	0.517
1090.500	625.566	80.005	19.994	103.171	20.141	6.953	0.501
1091.000	625.841	80.005	19.994	103.172	20.138	7.177	0.515
1091.501	626.073	80.006	19.995	103.173	20.139	7.063	0.518
1092.000	626.329	80.004	19.993	103.172	20.137	7.264	0.498
1092.499	626.574	80.005	19.995	103.172	20.140	7.006	0.494
1093.000	626.831	80.008	19.994	103.172	20.136	7.338	0.501
1093.501	627.106	80.005	19.994	103.172	20.143	6.793	0.517
1094.000	627.356	80.006	19.994	103.171	20.141	6.936	0.529
1094.499	627.618	80.005	19.995	103.172	20.136	7.305	0.518
1094.999	627.875	80.005	19.994	103.171	20.142	6.895	0.515
1095.499	628.149	80.006	19.995	103.171	20.138	7.177	0.525
1095.999	628.403	80.006	19.995	103.171	20.144	6.742	0.530
1096.499	628.667	80.006	19.995	103.171	20.138	7.175	0.523
1096.999	628.917	80.006	19.994	103.170	20.141	6.974	0.516
1097.500	629.149	80.007	19.995	103.170	20.142	6.888	0.498
1098.000	629.397	80.006	19.994	103.170	20.142	6.888	0.481
1098.499	629.647	80.007	19.994	103.170	20.147	6.480	0.489
1098.999	629.910	80.006	19.996	103.170	20.146	6.571	0.506
1099.499	630.182	80.005	19.994	103.170	20.144	6.728	0.524
1099.999	630.438	80.004	19.996	103.171	20.141	6.956	0.532
1100.499	630.683	80.005	19.994	103.171	20.143	6.765	0.514
1100.999	630.944	80.006	19.995	103.171	20.146	6.578	0.504
1101.499	631.162	80.005	19.994	103.170	20.144	6.746	0.493
1101.999	631.425	80.006	19.995	103.170	20.140	6.996	0.480
1102.499	631.728	80.004	19.994	103.170	20.143	6.783	0.523
1102.999	631.968	80.005	19.995	103.170	20.139	7.128	0.554
1103.499	632.226	80.005	19.995	103.172	20.142	6.858	0.521
1103.999	632.481	80.005	19.995	103.177	20.138	7.195	0.506
1104.499	632.693	80.005	19.995	103.178	20.142	6.850	0.490
1104.999	632.978	80.004	19.996	103.178	20.143	6.777	0.482
1105.499	633.230	80.006	19.996	103.176	20.144	6.746	0.517
1105.999	633.505	80.004	19.995	103.174	20.145	6.673	0.532
1106.500	633.751	80.005	19.994	103.169	20.145	6.643	0.524
1107.000	634.004	80.004	19.994	103.168	20.138	7.195	0.510
1107.500	634.242	80.005	19.995	103.168	20.144	6.705	0.495
1108.000	634.532	80.005	19.995	103.170	20.141	6.907	0.510
1108.499	634.739	80.004	19.995	103.170	20.141	6.955	0.512
1109.000	635.004	80.004	19.995	103.170	20.142	6.878	0.484
1109.500	635.291	80.004	19.995	103.171	20.142	6.899	0.512
1109.999	635.565	80.004	19.995	103.173	20.145	6.677	0.557
1110.500	635.793	80.004	19.995	103.173	20.144	6.718	0.532
1111.000	636.069	80.005	19.996	103.173	20.138	7.200	0.503
1111.499	636.307	80.005	19.996	103.173	20.143	6.820	0.509
1111.999	636.615	80.004	19.995	103.172	20.143	6.781	0.530
1112.499	636.816	80.005	19.995	103.171	20.143	6.805	0.528
1112.999	637.078	80.007	19.995	103.172	20.142	6.862	0.486
1113.500	637.310	80.007	19.995	103.172	20.143	6.771	0.479
1114.000	637.514	80.005	19.995	103.173	20.140	6.994	0.465
1114.499	637.786	80.005	19.995	103.173	20.144	6.700	0.456
1114.999	638.051	80.005	19.994	103.174	20.143	6.774	0.507
1115.499	638.343	80.005	19.995	103.173	20.142	6.852	0.547
1115.999	638.539	80.002	19.994	103.175	20.142	6.848	0.522
1116.499	638.782	80.006	19.994	103.174	20.142	6.858	0.464
1116.999	639.029	80.005	19.994	103.173	20.146	6.583	0.464
1117.499	639.306	80.005	19.994	103.173	20.145	6.655	0.507
1117.999	639.565	80.007	19.994	103.172	20.143	6.813	0.530
1118.499	639.815	80.006	19.994	103.170	20.148	6.429	0.523
1118.999	640.080	80.006	19.993	103.170	20.146	6.566	0.512
1119.499	640.326	80.008	19.994	103.171	20.146	6.533	0.513
1119.999	640.579	80.006	19.994	103.171	20.149	6.314	0.505
1120.499	640.788	80.006	19.993	103.174	20.145	6.612	0.481
1120.999	641.067	80.006	19.994	103.175	20.146	6.580	0.475
1121.499	641.319	80.007	19.993	103.176	20.144	6.732	0.509
1121.999	641.578	80.006	19.994	103.176	20.142	6.840	0.521
1122.499	641.802	80.008	19.994	103.175	20.141	6.929	0.497
1122.999	642.080	80.007	19.994	103.172	20.142	6.905	0.492
1123.499	642.291	80.006	19.994	103.173	20.146	6.557	0.495
1123.999	642.581	80.007	19.994	103.172	20.146	6.549	0.495
1124.499	642.782	80.008	19.993	103.172	20.145	6.649	0.496
1124.999	643.063	80.006	19.993	103.173	20.148	6.391	0.486
1125.500	643.336	80.007	19.994	103.174	20.144	6.728	0.518
1126.000	643.589	80.007	19.994	103.168	20.146	6.541	0.540
1126.499	643.834	80.008	19.994	103.167	20.144	6.752	0.512
1126.999	644.088	80.007	19.993	103.168	20.145	6.608	0.499
1127.499	644.355	80.006	19.994	103.167	20.144	6.700	0.510
1127.999	644.632	80.008	19.992	103.168	20.148	6.383	0.533
1128.499	644.847	80.010	19.995	103.173	20.144	6.716	0.518
1128.999	645.113	80.009	19.993	103.175	20.150	6.291	0.486
1129.499	645.351	80.005	19.993	103.175	20.146	6.572	0.493
1129.999	645.601	80.008	19.993	103.175	20.144	6.700	0.496
1130.500	645.859	80.004	19.994	103.175	20.147	6.480	0.498
1131.001	646.133	80.009	19.993	103.175	20.150	6.248	0.519
1131.501	646.390	80.007	19.993	103.174	20.145	6.636	0.531
1132.000	646.640	80.004	19.994	103.173	20.147	6.474	0.519
1132.499	646.901	80.006	19.994	103.174	20.145	6.667	0.509
1132.999	647.148	80.006	19.993	103.174	20.142	6.852	0.509
1133.499	647.387	80.006	19.994	103.174	20.145	6.663	0.497
1133.999	647.639	80.007	19.995	103.176	20.146	6.531	0.488
1134.499	647.935	80.005	19.993	103.176	20.143	6.759	0.520
1134.999	648.157	80.007	19.994	103.175	20.144	6.691	0.533
1135.499	648.414	80.004	19.994	103.174	20.144	6.702	0.498
1135.999	648.661	80.006	19.994	103.173	20.145	6.679	0.491
1136.499	648.899	80.005	19.993	103.171	20.146	6.588	0.494
1136.999	649.165	80.007	19.993	103.171	20.148	6.448	0.495
1137.500	649.432	80.005	19.994	103.172	20.148	6.397	0.519
1138.000	649.722	80.008	19.995	103.173	20.146	6.576	0.545
1138.499	649.974	80.006	19.994	103.176	20.146	6.558	0.549
1138.999	650.244	80.007	19.994	103.176	20.145	6.609	0.532
1139.500	650.489	80.005	19.993	103.176	20.144	6.681	0.519
1140.000	650.717	80.007	19.994	103.175	20.145	6.628	0.494
1140.499	650.954	80.006	19.994	103.175	20.148	6.384	0.469
1140.999	651.243	80.008	19.994	103.174	20.143	6.810	0.496
1141.500	651.493	80.007	19.994	103.173	20.147	6.512	0.533
1142.000	651.774	80.007	19.994	103.170	20.144	6.699	0.535
1142.499	652.012	80.008	19.993	103.170	20.146	6.581	0.525
1142.999	652.284	80.007	19.994	103.170	20.147	6.459	0.515
1143.499	652.506	80.006	19.994	103.170	20.146	6.553	0.502
1143.999	652.767	80.006	19.993	103.172	20.146	6.535	0.488
1144.500	653.013	80.007	19.993	103.174	20.145	6.624	0.495
1145.000	653.278	80.007	19.994	103.175	20.148	6.392	0.509
1145.500	653.544	80.008	19.994	103.175	20.142	6.870	0.521
1146.000	653.810	80.009	19.994	103.174	20.145	6.675	0.532
1146.499	654.050	80.007	19.993	103.174	20.144	6.681	0.518
1146.999	654.320	80.007	19.993	103.175	20.146	6.567	0.508
1147.499	654.584	80.008	19.993	103.175	20.147	6.498	0.522
1147.999	654.809	80.008	19.993	103.178	20.143	6.791	0.511
1148.499	655.101	80.009	19.993	103.182	20.144	6.740	0.503
1148.999	655.359	80.008	19.992	103.182	20.148	6.445	0.534
1149.499	655.657	80.010	19.994	103.181	20.145	6.673	0.553
1149.999	655.869	80.009	19.994	103.180	20.143	6.823	0.532
1150.499	656.157	80.009	19.993	103.175	20.146	6.593	0.505
1150.999	656.389	80.009	19.993	103.165	20.147	6.518	0.510
1151.499	656.643	80.010	19.994	103.162	20.144	6.685	0.503
1152.000	656.908	80.009	19.993	103.161	20.145	6.679	0.502
1152.500	657.137	80.007	19.993	103.161	20.143	6.813	0.507
1152.999	657.416	80.009	19.993	103.162	20.148	6.425	0.501
1153.499	657.680	80.009	19.993	103.166	20.147	6.458	0.526
1153.999	657.947	80.008	19.993	103.169	20.147	6.486	0.537
1154.499	658.208	80.009	19.993	103.168	20.148	6.431	0.529
1154.999	658.458	80.008	19.993	103.168	20.145	6.649	0.520
1155.499	658.713	80.009	19.993	103.168	20.144	6.697	0.508
1156.000	658.975	80.008	19.993	103.170	20.147	6.494	0.511
1156.500	659.253	80.007	19.994	103.170	20.146	6.588	0.529
1156.999	659.485	80.009	19.994	103.171	20.149	6.378	0.525
1157.499	659.743	80.009	19.994	103.172	20.147	6.460	0.500
1157.999	660.003	80.008	19.993	103.172	20.148	6.439	0.504
1158.499	660.251	80.009	19.994	103.173	20.149	6.348	0.512
1158.999	660.521	80.007	19.994	103.173	20.147	6.472	0.513
1159.499	660.771	80.006	19.993	103.172	20.147	6.500	0.519
1159.999	661.033	80.007	19.994	103.167	20.148	6.382	0.516
1160.500	661.290	80.007	19.995	103.168	20.147	6.517	0.516
1161.000	661.555	80.007	19.994	103.167	20.146	6.539	0.521
1161.499	661.826	80.006	19.993	103.167	20.147	6.527	0.529
1161.999	662.088	80.005	19.994	103.168	20.149	6.332	0.535
1162.499	662.368	80.006	19.994	103.172	20.148	6.385	0.538
1162.999	662.554	80.006	19.994	103.171	20.149	6.338	0.504
1163.499	662.817	80.007	19.994	103.171	20.148	6.429	0.457
1163.999	663.074	80.006	19.994	103.171	20.145	6.669	0.484
1164.500	663.357	80.007	19.995	103.171	20.149	6.327	0.530
1165.000	663.619	80.007	19.995	103.171	20.147	6.510	0.542
1165.500	663.884	80.006	19.994	103.171	20.145	6.616	0.536
1166.000	664.142	80.005	19.993	103.171	20.146	6.555	0.526
1166.499	664.368	80.005	19.994	103.171	20.146	6.565	0.504
1166.999	664.630	80.006	19.994	103.171	20.148	6.412	0.486
1167.499	664.887	80.005	19.995	103.171	20.147	6.461	0.503
1168.000	665.144	80.005	19.995	103.169	20.143	6.807	0.516
1168.500	665.406	80.007	19.994	103.169	20.144	6.725	0.516
1168.999	665.684	80.006	19.994	103.168	20.145	6.652	0.530
1169.499	665.927	80.005	19.994	103.170	20.141	6.906	0.531
1169.999	666.210	80.005	19.995	103.170	20.145	6.646	0.523
1170.499	666.462	80.007	19.996	103.171	20.147	6.474	0.530
1171.000	666.730	80.005	19.995	103.171	20.145	6.634	0.527
1171.500	666.960	80.007	19.994	103.173	20.146	6.587	0.509
1171.999	667.216	80.007	19.995	103.173	20.145	6.656	0.492
1172.499	667.455	80.006	19.994	103.174	20.143	6.761	0.490
1172.999	667.741	80.005	19.995	103.174	20.143	6.804	0.510
1173.499	668.010	80.005	19.993	103.174	20.141	6.930	0.540
1173.999	668.232	80.006	19.995	103.172	20.144	6.683	0.523
1174.499	668.468	80.006	19.995	103.171	20.148	6.407	0.475
1174.999	668.747	80.008	19.995	103.171	20.146	6.575	0.487
1175.499	669.021	80.007	19.995	103.170	20.144	6.750	0.534
1175.999	669.285	80.007	19.996	103.169	20.143	6.815	0.546
1176.499	669.516	80.009	19.995	103.167	20.146	6.573	0.517
1176.999	669.762	80.007	19.995	103.166	20.144	6.701	0.486
1177.500	670.033	80.006	19.995	103.165	20.142	6.835	0.497
1178.001	670.290	80.006	19.994	103.164	20.139	7.091	0.522
1178.501	670.548	80.008	19.994	103.165	20.142	6.843	0.521
1179.000	670.777	80.007	19.994	103.166	20.137	7.217	0.501
1179.499	671.053	80.007	19.995	103.165	20.144	6.703	0.496
1179.999	671.330	80.007	19.994	103.166	20.145	6.662	0.529
1180.499	671.540	80.006	19.995	103.168	20.142	6.875	0.520
1180.999	671.816	80.007	19.994	103.167	20.144	6.698	0.486
1181.499	672.041	80.006	19.995	103.167	20.144	6.733	0.493
1181.999	672.290	80.006	19.994	103.166	20.141	6.936	0.488
1182.499	672.551	80.007	19.994	103.163	20.140	7.025	0.492
1182.999	672.854	80.006	19.994	103.158	20.144	6.706	0.537
1183.499	673.071	80.006	19.994	103.155	20.145	6.644	0.542
1183.999	673.345	80.007	19.994	103.155	20.142	6.890	0.505
1184.499	673.590	80.006	19.994	103.158	20.141	6.947	0.504
1184.999	673.846	80.008	19.993	103.162	20.144	6.707	0.510
1185.499	674.134	80.007	19.993	103.167	20.146	6.594	0.523
1185.999	674.372	80.005	19.995	103.170	20.146	6.569	0.535
1186.499	674.640	80.006	19.994	103.171	20.142	6.869	0.516
1186.999	674.854	80.006	19.995	103.172	20.144	6.704	0.494
1187.499	675.160	80.005	19.995	103.171	20.145	6.625	0.501
1188.000	675.406	80.005	19.993	103.170	20.145	6.660	0.536
1188.500	675.665	80.006	19.995	103.168	20.144	6.746	0.528
1188.999	675.893	80.006	19.994	103.167	20.153	6.077	0.496
1189.499	676.166	80.005	19.995	103.165	20.142	6.886	0.494
1189.999	676.431	80.004	19.994	103.162	20.146	6.595	0.520
1190.499	676.644	80.007	19.994	103.161	20.142	6.843	0.508
1190.999	676.859	80.007	19.994	103.161	20.143	6.796	0.453
1191.499	677.141	80.004	19.995	103.157	20.143	6.770	0.462
1191.999	677.412	80.006	19.995	103.154	20.145	6.613	0.524
1192.499	677.653	80.005	19.995	103.150	20.144	6.697	0.532
1192.999	677.901	80.004	19.994	103.148	20.144	6.681	0.501
1193.499	678.168	80.005	19.995	103.150	20.148	6.439	0.502
1193.999	678.415	80.005	19.995	103.154	20.143	6.762	0.514
1194.499	678.670	80.004	19.995	103.158	20.145	6.650	0.508
1194.999	678.893	80.005	19.995	103.166	20.141	6.912	0.491
1195.499	679.153	80.005	19.996	103.168	20.147	6.475	0.480
1195.999	679.429	80.004	19.995	103.168	20.146	6.552	0.509
1196.499	679.680	80.002	19.994	103.168	20.144	6.751	0.531
1197.000	679.881	80.003	19.996	103.163	20.146	6.561	0.489
1197.500	680.155	80.005	19.996	103.159	20.145	6.627	0.464
1197.999	680.388	80.004	19.996	103.156	20.146	6.589	0.491
1198.499	680.643	80.004	19.996	103.158	20.145	6.652	0.498
1198.999	680.923	80.005	19.995	103.159	20.148	6.398	0.511
1199.499	681.165	80.004	19.995	103.163	20.150	6.264	0.528
1199.999	681.454	80.005	19.995	103.165	20.149	6.329	0.527
1200.499	681.680	80.006	19.995	103.167	20.149	6.356	0.523
1200.999	681.970	80.005	19.994	103.165	20.147	6.504	0.515
1201.500	682.196	80.006	19.995	103.161	20.145	6.679	0.516
1202.000	682.454	80.007	19.995	103.159	20.150	6.268	0.500
1202.499	682.701	80.005	19.994	103.161	20.152	6.149	0.495
1202.999	682.969	80.006	19.994	103.161	20.148	6.421	0.510
1203.499	683.214	80.006	19.994	103.162	20.149	6.380	0.514
1203.999	683.454	80.007	19.994	103.162	20.146	6.556	0.499
1204.499	683.672	80.007	19.994	103.163	20.149	6.319	0.472
1204.999	683.956	80.005	19.994	103.160	20.149	6.347	0.481
1205.499	684.138	80.007	19.994	103.158	20.148	6.387	0.484
1206.000	684.412	80.007	19.995	103.159	20.148	6.391	0.461
1206.500	684.709	80.008	19.993	103.161	20.144	6.739	0.513
1206.999	684.937	80.008	19.994	103.159	20.147	6.487	0.548
1207.499	685.189	80.007	19.993	103.159	20.150	6.278	0.502
1207.999	685.438	80.005	19.994	103.162	20.145	6.623	0.490
1208.499	685.673	80.007	19.995	103.157	20.150	6.233	0.492
1208.999	685.954	80.007	19.993	103.155	20.143	6.828	0.500
1209.499	686.188	80.007	19.994	103.159	20.150	6.290	0.516
1209.999	686.438	80.007	19.994	103.161	20.145	6.644	0.499
1210.499	686.734	80.006	19.993	103.162	20.150	6.280	0.515
1210.999	686.921	80.007	19.993	103.164	20.148	6.402	0.514
1211.499	687.172	80.007	19.994	103.167	20.146	6.595	0.460
1211.999	687.450	80.007	19.994	103.166	20.143	6.812	0.484
1212.499	687.701	80.008	19.994	103.166	20.145	6.625	0.529
1213.000	687.964	80.007	19.994	103.165	20.146	6.568	0.521
1213.500	688.208	80.007	19.994	103.169	20.147	6.503	0.510
1213.999	688.458	80.007	19.995	103.171	20.148	6.438	0.501
1214.499	688.697	80.008	19.993	103.166	20.143	6.761	0.492
1215.000	688.929	80.009	19.994	103.159	20.146	6.584	0.480
1215.500	689.199	80.008	19.993	103.158	20.145	6.664	0.487
1215.999	689.443	80.008	19.995	103.156	20.146	6.532	0.508
1216.499	689.678	80.008	19.995	103.151	20.150	6.263	0.496
1216.999	689.953	80.009	19.995	103.149	20.143	6.777	0.495
1217.499	690.194	80.008	19.993	103.150	20.151	6.174	0.513
1217.999	690.450	80.007	19.995	103.150	20.146	6.576	0.506
1218.499	690.666	80.006	19.994	103.151	20.146	6.531	0.484
1218.999	690.936	80.007	19.994	103.150	20.141	6.911	0.479
1219.499	691.164	80.008	19.995	103.153	20.148	6.424	0.492
1219.999	691.430	80.007	19.993	103.156	20.148	6.432	0.496
1220.499	691.661	80.006	19.993	103.158	20.144	6.727	0.496
1220.999	691.912	80.005	19.994	103.156	20.146	6.582	0.489
1221.499	692.169	80.007	19.994	103.160	20.150	6.264	0.494
1221.999	692.427	80.007	19.993	103.162	20.145	6.672	0.511
1222.499	692.689	80.006	19.995	103.164	20.149	6.316	0.518
1222.999	692.932	80.006	19.992	103.159	20.147	6.458	0.513
1223.499	693.201	80.008	19.994	103.154	20.147	6.499	0.509
1223.999	693.421	80.006	19.993	103.153	20.144	6.751	0.501
1224.499	693.653	80.009	19.995	103.148	20.141	6.964	0.470
1224.999	693.908	80.007	19.994	103.144	20.145	6.620	0.469
1225.499	694.145	80.009	19.993	103.149	20.149	6.377	0.489
1225.999	694.387	80.007	19.993	103.153	20.147	6.517	0.486
1226.499	694.666	80.008	19.993	103.151	20.144	6.688	0.500
1226.999	694.895	80.006	19.993	103.155	20.146	6.552	0.515
1227.499	695.139	80.008	19.994	103.152	20.145	6.619	0.491
1227.999	695.372	80.009	19.993	103.149	20.149	6.353	0.475
1228.499	695.630	80.006	19.993	103.144	20.148	6.451	0.485
1228.999	695.880	80.009	19.994	103.145	20.149	6.317	0.499
1229.499	696.162	80.011	19.994	103.145	20.147	6.510	0.519
1229.999	696.400	80.009	19.994	103.147	20.147	6.477	0.526
1230.500	696.666	80.005	19.994	103.151	20.143	6.796	0.512
1231.000	696.932	80.007	19.993	103.154	20.147	6.467	0.518
1231.500	697.187	80.009	19.994	103.152	20.148	6.448	0.526
1232.000	697.410	80.009	19.994	103.153	20.144	6.692	0.499
1232.500	697.608	80.009	19.994	103.154	20.144	6.733	0.450
1233.001	697.870	80.008	19.993	103.150	20.143	6.796	0.441
1233.500	698.112	80.008	19.993	103.150	20.145	6.648	0.482
1233.999	698.362	80.010	19.994	103.153	20.148	6.408	0.497
1234.499	698.625	80.008	19.994	103.152	20.147	6.506	0.502
1234.999	698.875	80.010	19.994	103.149	20.139	7.111	0.513
1235.499	699.115	80.008	19.994	103.149	20.143	6.776	0.501
1235.999	699.370	80.008	19.994	103.145	20.143	6.800	0.492
1236.499	699.645	80.009	19.994	103.144	20.150	6.239	0.513
1236.999	699.863	80.011	19.994	103.142	20.152	6.150	0.512
1237.499	700.134	80.010	19.994	103.145	20.149	6.313	0.491
1237.999	700.347	80.009	19.994	103.147	20.145	6.624	0.486
1238.499	700.620	80.010	19.994	103.155	20.147	6.508	0.485
1238.999	700.886	80.009	19.993	103.158	20.144	6.729	0.512
1239.499	701.116	80.009	19.995	103.158	20.143	6.760	0.517
1240.000	701.371	80.005	19.993	103.160	20.146	6.570	0.491
1240.500	701.619	80.009	19.994	103.159	20.147	6.485	0.494
1241.000	701.861	80.007	19.994	103.156	20.149	6.373	0.497
1241.500	702.139	80.006	19.993	103.156	20.147	6.523	0.505
1241.999	702.375	80.006	19.994	103.155	20.146	6.564	0.517
1242.499	702.612	80.007	19.993	103.152	20.146	6.601	0.494
1242.999	702.884	80.007	19.994	103.153	20.144	6.753	0.491
1243.499	703.125	80.007	19.995	103.156	20.143	6.783	0.511
1243.999	703.386	80.007	19.994	103.158	20.145	6.637	0.507
1244.499	703.629	80.007	19.993	103.160	20.149	6.365	0.503
1244.999	703.868	80.008	19.994	103.162	20.142	6.889	0.493
1245.499	704.133	80.008	19.993	103.165	20.150	6.242	0.493
1245.999	704.374	80.006	19.994	103.162	20.151	6.207	0.505
1246.500	704.604	80.005	19.994	103.157	20.147	6.478	0.488
1247.000	704.896	80.005	19.994	103.159	20.146	6.581	0.497
1247.499	705.130	80.006	19.993	103.160	20.144	6.697	0.524
1247.999	705.366	80.008	19.994	103.158	20.143	6.791	0.498
1248.499	705.626	80.007	19.993	103.160	20.148	6.437	0.483
1248.999	705.878	80.007	19.994	103.161	20.148	6.394	0.504
1249.499	706.117	80.004	19.993	103.161	20.150	6.280	0.501
1249.999	706.372	80.007	19.994	103.159	20.142	6.890	0.492
1250.499	706.649	80.006	19.994	103.159	20.141	6.932	0.513
1250.999	706.882	80.007	19.995	103.155	20.144	6.713	0.521
1251.499	707.112	80.007	19.994	103.155	20.145	6.679	0.486
1251.999	707.394	80.007	19.995	103.153	20.146	6.573	0.488
1252.499	707.603	80.006	19.994	103.153	20.143	6.783	0.502
1252.999	707.904	80.006	19.993	103.155	20.141	6.968	0.501
1253.499	708.121	80.007	19.992	103.157	20.141	6.921	0.514
1253.999	708.385	80.005	19.995	103.154	20.141	6.977	0.499
1254.499	708.639	80.006	19.994	103.152	20.149	6.332	0.500
1254.999	708.922	80.006	19.993	103.153	20.145	6.649	0.527
1255.499	709.199	80.005	19.993	103.153	20.143	6.824	0.548
1255.999	709.425	80.007	19.994	103.156	20.142	6.859	0.531
1256.499	709.681	80.004	19.994	103.163	20.146	6.587	0.492
1256.999	709.914	80.006	19.994	103.166	20.144	6.721	0.485
1257.499	710.148	80.005	19.994	103.169	20.149	6.321	0.478
1257.999	710.432	80.008	19.994	103.170	20.146	6.602	0.493
1258.499	710.628	80.007	19.994	103.170	20.141	6.953	0.499
1258.999	710.892	80.008	19.996	103.168	20.144	6.709	0.470
1259.499	711.194	80.008	19.996	103.164	20.143	6.810	0.513
1259.999	711.422	80.006	19.995	103.161	20.148	6.450	0.548
1260.499	711.635	80.005	19.994	103.161	20.148	6.410	0.485
1260.999	711.921	80.005	19.994	103.162	20.139	7.080	0.469
1261.500	712.139	80.006	19.994	103.162	20.144	6.689	0.502
1262.000	712.389	80.006	19.995	103.166	20.145	6.669	0.487
1262.499	712.682	80.006	19.995	103.170	20.147	6.498	0.505
1262.999	712.910	80.007	19.995	103.170	20.151	6.175	0.532
1263.499	713.159	80.006	19.995	103.169	20.142	6.900	0.499
1264.000	713.384	80.006	19.994	103.170	20.139	7.094	0.476
1264.500	713.656	80.005	19.995	103.166	20.143	6.806	0.486
1264.999	713.891	80.005	19.995	103.159	20.144	6.730	0.502
1265.499	714.102	80.005	19.995	103.152	20.146	6.529	0.476
1265.999	714.386	80.003	19.994	103.147	20.145	6.637	0.470
1266.499	714.622	80.006	19.995	103.147	20.150	6.300	0.508
1266.999	714.895	80.004	19.993	103.151	20.144	6.731	0.515
1267.499	715.162	80.004	19.994	103.156	20.142	6.861	0.524
1267.999	715.408	80.006	19.994	103.164	20.144	6.752	0.526
1268.500	715.712	80.005	19.995	103.169	20.147	6.520	0.531
1269.000	715.937	80.005	19.994	103.170	20.142	6.845	0.539
1269.499	716.202	80.005	19.995	103.164	20.146	6.589	0.510
1269.999	716.456	80.007	19.994	103.159	20.152	6.140	0.505
1270.499	716.700	80.006	19.994	103.152	20.145	6.646	0.509
1270.999	716.930	80.005	19.994	103.150	20.146	6.565	0.486
1271.499	717.221	80.004	19.995	103.150	20.149	6.349	0.497
1271.999	717.413	80.006	19.995	103.155	20.147	6.483	0.502
1272.499	717.687	80.004	19.992	103.161	20.149	6.340	0.474
1272.999	717.954	80.005	19.995	103.166	20.149	6.355	0.504
1273.499	718.174	80.002	19.994	103.166	20.142	6.864	0.514
1273.999	718.438	80.004	19.993	103.164	20.149	6.379	0.485
1274.499	718.688	80.004	19.995	103.159	20.143	6.806	0.499
1274.999	718.972	80.004	19.994	103.153	20.144	6.704	0.524
1275.499	719.209	80.006	19.994	103.148	20.147	6.495	0.528
1275.999	719.436	80.007	19.994	103.145	20.147	6.500	0.493
1276.499	719.702	80.004	19.993	103.143	20.144	6.707	0.479
1276.999	719.977	80.005	19.994	103.150	20.140	7.012	0.517
1277.499	720.205	80.007	19.993	103.155	20.150	6.268	0.522
1278.000	720.442	80.005	19.993	103.161	20.151	6.180	0.484
1278.500	720.716	80.004	19.994	103.164	20.150	6.284	0.488
1278.999	720.970	80.005	19.994	103.169	20.149	6.310	0.519
1279.499	721.248	80.004	19.995	103.166	20.146	6.544	0.530
1280.000	721.483	80.005	19.995	103.165	20.147	6.509	0.523
1280.500	721.725	80.005	19.995	103.164	20.147	6.497	0.495
1280.999	721.985	80.004	19.995	103.166	20.143	6.794	0.489
1281.499	722.241	80.006	19.993	103.163	20.148	6.397	0.509
1281.999	722.486	80.004	19.995	103.161	20.141	6.970	0.509
1282.499	722.746	80.005	19.995	103.159	20.144	6.693	0.503
1282.999	722.983	80.004	19.994	103.155	20.144	6.720	0.501
1283.499	723.258	80.005	19.993	103.150	20.153	6.076	0.504
1283.999	723.495	80.006	19.996	103.147	20.143	6.812	0.512
1284.499	723.759	80.008	19.994	103.148	20.144	6.707	0.506
1284.999	724.005	80.009	19.995	103.148	20.146	6.559	0.505
1285.499	724.247	80.004	19.995	103.150	20.140	7.036	0.499
1285.999	724.509	80.008	19.995	103.152	20.145	6.639	0.496
1286.500	724.759	80.004	19.995	103.157	20.143	6.812	0.508
1287.000	725.018	80.008	19.995	103.160	20.143	6.790	0.510
1287.499	725.243	80.007	19.994	103.162	20.144	6.712	0.497
1287.999	725.505	80.009	19.995	103.162	20.143	6.818	0.485
1288.499	725.767	80.008	19.994	103.160	20.140	7.027	0.505
1288.999	726.046	80.007	19.994	103.157	20.143	6.803	0.533
1289.499	726.282	80.006	19.994	103.154	20.141	6.913	0.528
1290.000	726.545	80.003	19.993	103.151	20.151	6.210	0.507
1290.501	726.780	80.008	19.996	103.152	20.145	6.609	0.499
1291.001	727.060	80.005	19.994	103.156	20.142	6.897	0.507
1291.500	727.290	80.006	19.995	103.155	20.143	6.763	0.512
1291.999	727.576	80.005	19.995	103.154	20.143	6.795	0.513
1292.500	727.795	80.006	19.996	103.151	20.148	6.454	0.511
1293.000	728.073	80.006	19.995	103.147	20.143	6.803	0.501
1293.499	728.309	80.005	19.994	103.142	20.143	6.781	0.505
1293.999	728.566	80.006	19.995	103.142	20.145	6.651	0.503
1294.499	728.822	80.008	19.996	103.145	20.151	6.216	0.503
1294.999	729.081	80.006	19.995	103.153	20.151	6.226	0.514
1295.499	729.302	80.008	19.997	103.158	20.145	6.655	0.498
1295.999	729.544	80.007	19.994	103.161	20.145	6.638	0.472
1296.499	729.806	80.006	19.995	103.162	20.147	6.470	0.484
1296.999	730.066	80.007	19.995	103.155	20.143	6.755	0.513
1297.499	730.317	80.007	19.996	103.155	20.143	6.757	0.516
1297.999	730.557	80.007	19.994	103.152	20.149	6.333	0.501
1298.500	730.836	80.005	19.994	103.150	20.147	6.528	0.505
1299.001	731.049	80.006	19.995	103.147	20.142	6.845	0.505
1299.501	731.306	80.006	19.995	103.151	20.150	6.304	0.481
1300.001	731.552	80.006	19.995	103.145	20.151	6.206	0.487
1300.501	731.826	80.006	19.994	103.143	20.142	6.838	0.511
1301.001	732.099	80.005	19.994	103.144	20.154	5.954	0.533
1301.500	732.356	80.007	19.994	103.148	20.146	6.534	0.539
1301.999	732.566	80.007	19.995	103.146	20.147	6.512	0.498
1302.499	732.829	80.005	19.994	103.147	20.143	6.764	0.470
1303.000	733.088	80.007	19.994	103.149	20.144	6.693	0.498
1303.501	733.363	80.007	19.994	103.149	20.144	6.725	0.528
1304.001	733.568	80.007	19.996	103.144	20.150	6.300	0.507
1304.501	733.853	80.006	19.994	103.148	20.141	6.930	0.485
1305.000	734.077	80.005	19.995	103.146	20.145	6.655	0.499
1305.499	734.340	80.008	19.994	103.143	20.147	6.526	0.498
1305.999	734.553	80.006	19.994	103.138	20.148	6.394	0.482
1306.499	734.862	80.006	19.993	103.139	20.147	6.500	0.499
1306.999	735.079	80.005	19.995	103.137	20.144	6.703	0.524
1307.499	735.359	80.007	19.993	103.143	20.146	6.557	0.512
1308.000	735.609	80.007	19.994	103.148	20.148	6.447	0.513
1308.500	735.869	80.008	19.995	103.155	20.147	6.526	0.520
1308.999	736.088	80.008	19.994	103.162	20.148	6.384	0.495
1309.499	736.369	80.008	19.994	103.165	20.147	6.481	0.490
1309.999	736.605	80.009	19.994	103.160	20.148	6.408	0.508
1310.499	736.877	80.008	19.994	103.153	20.143	6.788	0.512
1310.999	737.118	80.007	19.994	103.147	20.146	6.529	0.510
1311.499	737.367	80.009	19.994	103.147	20.145	6.669	0.502
1311.999	737.623	80.009	19.994	103.148	20.148	6.421	0.498
1312.499	737.863	80.006	19.993	103.156	20.144	6.679	0.501
1312.999	738.088	80.008	19.993	103.163	20.148	6.403	0.480
1313.499	738.402	80.008	19.994	103.169	20.144	6.726	0.502
1313.999	738.643	80.008	19.993	103.166	20.144	6.720	0.547
1314.499	738.895	80.009	19.993	103.160	20.149	6.361	0.524
1314.999	739.120	80.010	19.995	103.153	20.144	6.751	0.485
1315.499	739.375	80.009	19.993	103.149	20.144	6.688	0.479
1315.999	739.650	80.009	19.993	103.151	20.147	6.507	0.505
1316.499	739.885	80.009	19.994	103.152	20.152	6.113	0.520
1316.999	740.163	80.008	19.994	103.159	20.148	6.428	0.511
1317.499	740.404	80.008	19.994	103.167	20.144	6.702	0.516
1317.999	740.654	80.008	19.995	103.167	20.147	6.521	0.505
1318.499	740.926	80.007	19.992	103.162	20.145	6.617	0.507
1319.000	741.166	80.008	19.994	103.159	20.144	6.753	0.517
1319.500	741.454	80.008	19.992	103.159	20.146	6.597	0.520
1319.999	741.672	80.008	19.995	103.156	20.147	6.496	0.517
1320.499	741.919	80.010	19.994	103.155	20.150	6.256	0.485
1320.999	742.166	80.009	19.993	103.155	20.146	6.568	0.479
1321.499	742.420	80.009	19.994	103.152	20.143	6.818	0.498
1321.999	742.679	80.006	19.993	103.146	20.142	6.830	0.507
1322.499	742.955	80.006	19.993	103.147	20.145	6.619	0.523
1322.999	743.215	80.007	19.994	103.144	20.145	6.642	0.535
1323.499	743.441	80.005	19.993	103.142	20.145	6.656	0.511
1323.999	743.696	80.006	19.993	103.145	20.141	6.913	0.484
