Sample ID:	C:\MCC\MCC Cal\Test\CPVC_Pipe_MCC_30K_min_211119_R2.txt
Sample Weight (mg):	4.59
Heating Rate (C/s):	0.5
Combustor Temp (C):	900
N2 Flow Rate (cc/min):	80
O2 Flow Rate (cc/min):	20
Calibration File:	C:\MCC\MCC Cal\Coeff1 JN10440_30_210304.txt.txt
T Correction Coefficients:	0	1.024463	0
Time Shift (s):	14
*
Time (s)	Temperature (C)	N2 flow rate (cc/min)	O2 flow rate (cc/min)	Flow Rate (cc/min)	Oxygen (%)	HRR (W/g)	Heating rate (C/s)
0.000	107.968	80.005	19.995	103.013	20.300	-0.274	-0.004
0.500	107.923	80.004	19.992	103.017	20.300	-0.266	-0.006
1.000	107.946	80.019	19.997	103.019	20.299	-0.219	-0.021
1.500	107.934	80.015	19.998	103.022	20.302	-0.424	-0.006
2.000	107.945	80.006	19.996	103.025	20.300	-0.232	0.005
2.500	107.930	80.006	19.997	103.030	20.301	-0.314	-0.002
3.000	107.932	80.006	19.996	103.033	20.304	-0.548	-0.008
3.500	107.935	80.006	19.996	103.034	20.301	-0.299	-0.004
4.000	107.952	80.007	19.996	103.031	20.299	-0.203	0.013
4.500	107.962	80.007	19.996	103.030	20.301	-0.314	0.023
5.000	107.960	80.007	19.994	103.024	20.302	-0.390	0.017
5.500	107.977	80.008	19.995	103.022	20.302	-0.401	0.012
6.000	107.929	80.008	19.995	103.022	20.301	-0.340	-0.008
6.500	107.923	80.006	19.994	103.021	20.298	-0.137	-0.043
7.000	107.926	80.008	19.995	103.022	20.300	-0.283	-0.029
7.500	107.953	80.007	19.994	103.021	20.301	-0.301	0.013
8.000	107.935	80.008	19.994	103.021	20.300	-0.255	0.020
8.500	107.938	80.007	19.994	103.021	20.301	-0.342	-0.003
9.000	107.941	80.007	19.993	103.024	20.302	-0.384	-0.004
9.501	107.950	80.007	19.995	103.031	20.300	-0.242	0.009
10.001	107.922	80.008	19.994	103.039	20.300	-0.242	-0.004
10.501	107.899	80.009	19.993	103.047	20.294	0.148	-0.035
11.001	107.903	80.008	19.994	103.055	20.295	0.107	-0.035
11.500	107.925	80.007	19.994	103.059	20.299	-0.188	0.004
12.000	107.947	80.006	19.994	103.059	20.295	0.095	0.035
12.500	107.953	80.006	19.994	103.061	20.292	0.276	0.036
13.000	107.995	80.007	19.994	103.063	20.297	-0.021	0.038
13.500	107.996	80.008	19.994	103.064	20.299	-0.184	0.046
14.000	107.974	80.006	19.994	103.068	20.296	0.051	0.011
14.500	107.983	80.007	19.993	103.070	20.299	-0.183	-0.017
15.000	107.974	80.006	19.994	103.068	20.299	-0.167	-0.006
15.500	108.020	80.005	19.994	103.068	20.299	-0.190	0.019
16.000	108.009	80.006	19.993	103.067	20.293	0.196	0.036
16.500	108.005	80.006	19.995	103.065	20.298	-0.146	0.010
17.000	108.012	80.006	19.995	103.066	20.291	0.339	-0.006
17.500	108.010	80.005	19.993	103.072	20.294	0.127	0.004
18.000	108.023	80.005	19.994	103.077	20.295	0.122	0.008
18.500	108.018	80.005	19.995	103.081	20.297	-0.017	0.010
19.000	108.055	80.005	19.995	103.086	20.293	0.196	0.020
19.500	108.091	80.004	19.995	103.085	20.293	0.225	0.052
20.000	108.131	80.004	19.995	103.082	20.291	0.337	0.074
20.500	108.119	80.004	19.994	103.082	20.295	0.084	0.052
21.000	108.121	80.003	19.994	103.083	20.291	0.373	0.010
21.500	108.142	80.005	19.994	103.085	20.289	0.531	0.007
22.000	108.144	80.004	19.995	103.091	20.294	0.154	0.023
22.500	108.176	80.005	19.994	103.095	20.292	0.282	0.028
23.000	108.197	80.006	19.995	103.093	20.295	0.057	0.043
23.500	108.229	80.005	19.995	103.088	20.288	0.569	0.053
24.000	108.238	80.004	19.995	103.081	20.288	0.580	0.047
24.500	108.261	80.003	19.994	103.078	20.288	0.607	0.037
25.000	108.259	80.003	19.994	103.077	20.288	0.546	0.026
25.500	108.281	80.005	19.996	103.081	20.288	0.565	0.021
26.000	108.308	80.004	19.995	103.089	20.288	0.588	0.035
26.500	108.352	80.004	19.994	103.096	20.288	0.556	0.060
27.000	108.393	80.003	19.995	103.099	20.285	0.786	0.078
27.500	108.429	80.005	19.995	103.104	20.286	0.693	0.081
28.000	108.417	80.003	19.993	103.112	20.285	0.765	0.050
28.500	108.488	80.004	19.996	103.120	20.287	0.666	0.042
29.000	108.529	80.004	19.995	103.127	20.286	0.689	0.086
29.500	108.572	80.005	19.995	103.132	20.285	0.819	0.098
30.000	108.583	80.005	19.995	103.128	20.284	0.880	0.069
30.500	108.616	80.005	19.996	103.119	20.284	0.845	0.049
31.000	108.662	80.005	19.995	103.114	20.283	0.929	0.061
31.500	108.659	80.004	19.995	103.111	20.283	0.935	0.061
32.000	108.685	80.006	19.994	103.110	20.284	0.846	0.033
32.500	108.746	80.004	19.995	103.117	20.283	0.966	0.055
33.000	108.791	80.004	19.995	103.124	20.282	0.998	0.097
33.500	108.828	80.004	19.994	103.129	20.281	1.084	0.094
34.000	108.849	80.005	19.995	103.135	20.277	1.339	0.070
34.500	108.859	80.006	19.995	103.143	20.278	1.314	0.045
35.000	108.958	80.005	19.994	103.150	20.278	1.248	0.070
35.500	109.002	80.005	19.994	103.158	20.279	1.238	0.126
36.000	109.053	80.006	19.994	103.165	20.272	1.694	0.119
36.500	109.089	80.004	19.995	103.171	20.274	1.581	0.091
37.000	109.145	80.006	19.996	103.173	20.272	1.699	0.090
37.500	109.140	80.005	19.994	103.176	20.274	1.578	0.071
38.000	109.197	80.005	19.994	103.179	20.272	1.669	0.051
38.500	109.304	80.004	19.993	103.181	20.273	1.610	0.108
39.000	109.322	80.005	19.994	103.187	20.269	1.915	0.145
39.500	109.409	80.004	19.993	103.193	20.272	1.724	0.115
40.000	109.468	80.006	19.994	103.195	20.266	2.096	0.125
40.501	109.531	80.007	19.994	103.198	20.273	1.629	0.134
41.001	109.595	80.006	19.994	103.205	20.270	1.810	0.125
41.501	109.658	80.007	19.994	103.206	20.270	1.858	0.127
42.001	109.733	80.006	19.995	103.208	20.266	2.094	0.133
42.501	109.798	80.006	19.994	103.218	20.266	2.100	0.139
43.000	109.881	80.007	19.993	103.226	20.266	2.098	0.144
43.500	109.969	80.006	19.994	103.231	20.265	2.174	0.159
44.000	110.005	80.005	19.993	103.236	20.266	2.147	0.147
44.500	110.122	80.005	19.993	103.242	20.268	1.957	0.138
45.000	110.175	80.006	19.993	103.244	20.264	2.294	0.162
45.500	110.269	80.004	19.994	103.247	20.266	2.147	0.159
46.000	110.343	80.005	19.995	103.251	20.262	2.390	0.157
46.500	110.438	80.005	19.994	103.255	20.267	2.037	0.168
47.000	110.488	80.006	19.994	103.257	20.264	2.260	0.157
47.500	110.634	80.004	19.993	103.262	20.266	2.108	0.171
48.000	110.689	80.006	19.994	103.262	20.263	2.331	0.198
48.501	110.795	80.004	19.994	103.262	20.260	2.575	0.181
49.001	110.892	80.005	19.994	103.260	20.263	2.340	0.182
49.501	110.950	80.005	19.994	103.258	20.258	2.656	0.179
50.001	111.072	80.005	19.994	103.253	20.261	2.496	0.168
50.500	111.128	80.004	19.994	103.253	20.259	2.651	0.179
51.000	111.242	80.004	19.993	103.254	20.256	2.820	0.174
51.500	111.344	80.006	19.994	103.256	20.257	2.782	0.193
52.000	111.472	80.004	19.994	103.257	20.256	2.844	0.223
52.500	111.598	80.004	19.993	103.261	20.260	2.558	0.242
53.000	111.695	80.003	19.994	103.264	20.256	2.836	0.238
53.500	111.808	80.005	19.995	103.266	20.258	2.668	0.217
54.000	111.900	80.003	19.994	103.268	20.255	2.924	0.208
54.500	112.017	80.004	19.995	103.268	20.261	2.487	0.207
55.000	112.113	80.004	19.995	103.267	20.254	2.950	0.211
55.500	112.264	80.005	19.994	103.267	20.257	2.775	0.231
56.001	112.383	80.005	19.994	103.270	20.255	2.928	0.258
56.501	112.527	80.006	19.995	103.274	20.257	2.727	0.266
57.000	112.630	80.006	19.994	103.282	20.254	2.949	0.255
57.500	112.779	80.005	19.993	103.287	20.258	2.674	0.249
58.001	112.861	80.006	19.994	103.289	20.257	2.728	0.242
58.501	113.039	80.005	19.994	103.288	20.258	2.699	0.246
59.000	113.169	80.005	19.994	103.288	20.253	3.015	0.283
59.500	113.291	80.005	19.994	103.287	20.251	3.210	0.280
60.000	113.375	80.005	19.995	103.281	20.254	2.958	0.230
60.501	113.558	80.007	19.994	103.276	20.255	2.934	0.237
61.001	113.708	80.005	19.995	103.279	20.253	3.071	0.300
61.501	113.813	80.005	19.994	103.279	20.254	2.993	0.294
62.001	113.970	80.008	19.994	103.282	20.248	3.382	0.259
62.500	114.103	80.006	19.993	103.289	20.246	3.496	0.276
63.000	114.252	80.008	19.995	103.299	20.250	3.271	0.286
63.500	114.383	80.006	19.994	103.301	20.250	3.273	0.281
64.000	114.557	80.007	19.994	103.302	20.251	3.176	0.292
64.500	114.704	80.008	19.994	103.300	20.248	3.372	0.313
65.000	114.856	80.007	19.993	103.301	20.249	3.301	0.310
65.500	114.974	80.006	19.993	103.299	20.247	3.486	0.285
66.000	115.121	80.007	19.994	103.297	20.248	3.362	0.268
66.500	115.304	80.007	19.994	103.297	20.249	3.334	0.298
67.001	115.443	80.006	19.994	103.300	20.249	3.309	0.326
67.501	115.647	80.008	19.993	103.300	20.244	3.654	0.332
68.000	115.803	80.006	19.993	103.305	20.250	3.233	0.351
68.501	115.958	80.006	19.993	103.305	20.251	3.185	0.335
69.001	116.114	80.007	19.994	103.305	20.250	3.258	0.311
69.500	116.263	80.006	19.994	103.308	20.247	3.480	0.308
70.000	116.432	80.006	19.994	103.309	20.247	3.492	0.312
70.500	116.590	80.006	19.994	103.303	20.247	3.457	0.323
71.000	116.751	80.007	19.995	103.306	20.247	3.434	0.323
71.500	116.943	80.007	19.995	103.309	20.248	3.379	0.336
72.000	117.118	80.006	19.993	103.307	20.248	3.393	0.360
72.501	117.298	80.006	19.994	103.311	20.246	3.543	0.361
73.001	117.461	80.004	19.994	103.317	20.245	3.587	0.349
73.500	117.617	80.005	19.994	103.318	20.244	3.654	0.331
74.000	117.820	80.006	19.993	103.315	20.249	3.318	0.339
74.500	117.971	80.006	19.994	103.315	20.250	3.274	0.357
75.000	118.118	80.005	19.994	103.309	20.249	3.331	0.326
75.500	118.342	80.007	19.994	103.304	20.247	3.482	0.334
76.000	118.511	80.005	19.994	103.300	20.253	3.063	0.381
76.500	118.678	80.005	19.992	103.302	20.248	3.421	0.365
77.000	118.893	80.006	19.993	103.305	20.246	3.562	0.360
77.500	119.048	80.006	19.994	103.310	20.248	3.412	0.376
78.000	119.237	80.006	19.994	103.313	20.247	3.490	0.357
78.500	119.395	80.006	19.992	103.314	20.245	3.583	0.346
79.000	119.596	80.008	19.994	103.317	20.247	3.486	0.353
79.500	119.794	80.006	19.993	103.316	20.246	3.526	0.379
80.000	119.975	80.006	19.994	103.308	20.246	3.522	0.389
80.500	120.165	80.006	19.993	103.305	20.250	3.271	0.375
81.000	120.389	80.006	19.993	103.305	20.245	3.574	0.392
81.500	120.579	80.006	19.994	103.300	20.246	3.505	0.414
82.000	120.760	80.008	19.994	103.298	20.244	3.692	0.392
82.500	120.951	80.007	19.994	103.300	20.249	3.345	0.372
83.000	121.181	80.007	19.994	103.301	20.247	3.486	0.397
83.500	121.363	80.006	19.993	103.299	20.249	3.309	0.416
84.000	121.537	80.008	19.994	103.297	20.246	3.497	0.384
84.500	121.774	80.008	19.994	103.295	20.244	3.663	0.383
85.000	121.950	80.008	19.993	103.294	20.244	3.669	0.412
85.500	122.169	80.006	19.994	103.293	20.246	3.528	0.404
86.000	122.363	80.006	19.993	103.294	20.249	3.294	0.404
86.500	122.573	80.008	19.993	103.296	20.249	3.311	0.409
87.001	122.760	80.006	19.993	103.297	20.246	3.553	0.400
87.501	122.960	80.008	19.993	103.302	20.248	3.391	0.392
88.000	123.214	80.006	19.995	103.302	20.250	3.263	0.421
88.500	123.395	80.008	19.994	103.301	20.244	3.669	0.444
89.000	123.602	80.006	19.994	103.302	20.245	3.568	0.411
89.501	123.846	80.007	19.994	103.302	20.248	3.406	0.420
90.001	124.042	80.009	19.994	103.297	20.248	3.379	0.446
90.501	124.272	80.007	19.993	103.298	20.247	3.452	0.433
91.001	124.451	80.007	19.995	103.300	20.247	3.471	0.417
91.501	124.676	80.007	19.993	103.300	20.249	3.341	0.406
92.001	124.910	80.008	19.994	103.303	20.247	3.486	0.432
92.501	125.129	80.007	19.993	103.308	20.246	3.541	0.456
93.000	125.301	80.008	19.994	103.310	20.244	3.650	0.422
93.500	125.558	80.007	19.994	103.308	20.246	3.509	0.410
94.000	125.761	80.007	19.994	103.306	20.246	3.513	0.444
94.501	125.957	80.007	19.994	103.304	20.247	3.453	0.430
95.001	126.183	80.007	19.994	103.300	20.244	3.678	0.411
95.501	126.435	80.007	19.994	103.303	20.247	3.429	0.450
96.001	126.625	80.007	19.994	103.309	20.244	3.680	0.460
96.501	126.837	80.008	19.994	103.313	20.244	3.659	0.422
97.000	127.101	80.007	19.994	103.312	20.245	3.591	0.439
97.500	127.304	80.005	19.995	103.310	20.246	3.539	0.471
98.000	127.519	80.006	19.995	103.307	20.242	3.800	0.443
98.500	127.741	80.006	19.994	103.308	20.245	3.596	0.428
99.001	127.992	80.005	19.994	103.309	20.248	3.419	0.455
99.501	128.209	80.006	19.994	103.312	20.244	3.684	0.471
100.000	128.466	80.006	19.995	103.312	20.246	3.509	0.471
100.500	128.653	80.006	19.994	103.309	20.248	3.389	0.459
101.000	128.903	80.006	19.994	103.302	20.249	3.310	0.441
101.501	129.111	80.005	19.994	103.297	20.245	3.572	0.448
102.001	129.359	80.006	19.995	103.294	20.245	3.572	0.457
102.500	129.577	80.006	19.993	103.299	20.246	3.542	0.460
103.000	129.819	80.007	19.995	103.303	20.246	3.542	0.463
103.500	130.047	80.005	19.994	103.305	20.246	3.565	0.465
104.000	130.322	80.004	19.994	103.305	20.246	3.502	0.487
104.501	130.519	80.006	19.993	103.304	20.246	3.504	0.488
105.001	130.753	80.006	19.995	103.300	20.246	3.535	0.452
105.500	130.951	80.005	19.994	103.296	20.245	3.626	0.432
106.000	131.219	80.007	19.994	103.293	20.246	3.508	0.449
106.501	131.459	80.006	19.995	103.294	20.250	3.245	0.486
107.001	131.675	80.007	19.995	103.295	20.246	3.513	0.482
107.500	131.894	80.006	19.994	103.296	20.244	3.694	0.446
108.000	132.162	80.004	19.995	103.297	20.252	3.107	0.461
108.500	132.364	80.005	19.994	103.298	20.247	3.490	0.479
109.001	132.591	80.006	19.994	103.298	20.250	3.278	0.450
109.501	132.827	80.005	19.994	103.297	20.251	3.211	0.446
110.000	133.043	80.005	19.994	103.295	20.247	3.434	0.457
110.500	133.300	80.005	19.995	103.293	20.248	3.394	0.462
111.000	133.535	80.006	19.995	103.292	20.247	3.469	0.482
111.500	133.767	80.006	19.995	103.292	20.254	2.941	0.480
112.000	134.013	80.004	19.993	103.293	20.246	3.509	0.473
112.500	134.269	80.006	19.995	103.300	20.248	3.385	0.490
113.000	134.478	80.004	19.994	103.307	20.251	3.167	0.483
113.500	134.723	80.004	19.994	103.313	20.247	3.450	0.459
114.001	135.010	80.006	19.995	103.320	20.249	3.312	0.493
114.501	135.228	80.006	19.995	103.327	20.248	3.417	0.518
115.000	135.460	80.005	19.995	103.327	20.249	3.324	0.477
115.500	135.699	80.006	19.995	103.328	20.245	3.631	0.461
116.000	135.910	80.004	19.995	103.329	20.250	3.248	0.461
116.500	136.169	80.005	19.995	103.329	20.248	3.377	0.460
117.001	136.454	80.006	19.995	103.326	20.247	3.464	0.507
117.501	136.662	80.006	19.995	103.321	20.244	3.646	0.519
118.000	136.892	80.006	19.995	103.316	20.245	3.596	0.466
118.500	137.138	80.006	19.995	103.308	20.247	3.478	0.457
119.000	137.412	80.006	19.995	103.302	20.245	3.591	0.498
119.500	137.645	80.005	19.995	103.298	20.245	3.583	0.514
120.000	137.911	80.006	19.996	103.295	20.248	3.414	0.503
120.500	138.134	80.005	19.995	103.292	20.246	3.522	0.493
121.000	138.374	80.006	19.995	103.295	20.249	3.320	0.476
121.500	138.637	80.005	19.994	103.298	20.248	3.371	0.484
122.000	138.851	80.005	19.996	103.300	20.243	3.724	0.491
122.501	139.093	80.005	19.995	103.300	20.242	3.825	0.466
123.001	139.338	80.006	19.996	103.300	20.246	3.518	0.471
123.501	139.590	80.004	19.995	103.297	20.248	3.377	0.492
124.000	139.864	80.004	19.995	103.292	20.249	3.289	0.512
124.501	140.100	80.005	19.995	103.292	20.244	3.705	0.518
125.001	140.374	80.005	19.995	103.296	20.245	3.619	0.510
125.500	140.585	80.007	19.995	103.275	20.246	3.497	0.497
126.000	140.835	80.004	19.993	103.256	20.246	3.526	0.473
126.500	141.080	80.004	19.994	103.244	20.245	3.567	0.478
127.001	141.334	80.005	19.995	103.234	20.248	3.392	0.497
127.501	141.558	80.004	19.994	103.226	20.246	3.497	0.489
128.001	141.800	80.004	19.995	103.258	20.245	3.601	0.472
128.501	142.080	80.004	19.994	103.304	20.243	3.710	0.494
129.001	142.322	80.005	19.995	103.329	20.242	3.793	0.522
129.501	142.559	80.004	19.994	103.343	20.240	3.919	0.500
130.001	142.774	80.005	19.995	103.349	20.248	3.416	0.466
130.501	143.053	80.003	19.994	103.340	20.247	3.460	0.473
131.000	143.315	80.004	19.994	103.313	20.246	3.541	0.517
131.500	143.572	80.004	19.993	103.302	20.250	3.276	0.530
132.000	143.831	80.004	19.994	103.296	20.245	3.571	0.518
132.500	144.104	80.004	19.994	103.295	20.247	3.441	0.524
133.000	144.327	80.004	19.993	103.293	20.249	3.325	0.514
133.500	144.597	80.006	19.995	103.292	20.246	3.502	0.494
134.000	144.824	80.004	19.995	103.292	20.249	3.329	0.495
134.500	145.066	80.005	19.994	103.291	20.246	3.494	0.483
135.000	145.339	80.004	19.993	103.291	20.250	3.279	0.492
135.500	145.594	80.005	19.994	103.292	20.249	3.306	0.522
136.000	145.866	80.003	19.993	103.289	20.249	3.321	0.527
136.500	146.037	80.005	19.993	103.288	20.247	3.443	0.485
137.000	146.313	80.004	19.994	103.288	20.249	3.340	0.445
137.500	146.577	80.005	19.994	103.286	20.248	3.405	0.494
138.000	146.827	80.006	19.994	103.285	20.248	3.390	0.527
138.500	147.082	80.006	19.994	103.283	20.250	3.226	0.509
139.000	147.323	80.006	19.994	103.277	20.253	3.067	0.500
139.501	147.583	80.006	19.993	103.269	20.248	3.422	0.499
140.001	147.848	80.006	19.994	103.265	20.249	3.304	0.513
140.501	148.072	80.006	19.995	103.261	20.249	3.302	0.507
141.001	148.358	80.007	19.994	103.266	20.248	3.414	0.499
141.500	148.595	80.006	19.994	103.273	20.249	3.328	0.516
142.000	148.855	80.007	19.995	103.280	20.248	3.370	0.510
142.501	149.088	80.007	19.993	103.283	20.252	3.077	0.495
143.001	149.352	80.005	19.994	103.281	20.250	3.275	0.495
143.500	149.634	80.007	19.994	103.278	20.251	3.206	0.522
144.000	149.888	80.007	19.995	103.274	20.251	3.153	0.541
144.500	150.126	80.008	19.993	103.270	20.251	3.187	0.514
145.000	150.382	80.006	19.994	103.266	20.254	2.987	0.493
145.501	150.647	80.007	19.995	103.266	20.249	3.290	0.507
146.001	150.861	80.006	19.994	103.266	20.251	3.197	0.500
146.500	151.127	80.008	19.992	103.270	20.252	3.107	0.480
147.000	151.395	80.006	19.994	103.274	20.251	3.155	0.507
147.500	151.662	80.006	19.995	103.278	20.250	3.248	0.534
148.000	151.909	80.005	19.993	103.278	20.250	3.262	0.524
148.500	152.173	80.006	19.993	103.275	20.249	3.323	0.513
149.000	152.415	80.006	19.994	103.268	20.250	3.225	0.509
149.500	152.665	80.007	19.994	103.262	20.253	3.026	0.499
150.000	152.922	80.005	19.993	103.257	20.253	3.007	0.500
150.500	153.148	80.006	19.993	103.257	20.254	2.942	0.495
151.000	153.387	80.006	19.993	103.256	20.253	3.018	0.474
151.500	153.672	80.006	19.994	103.256	20.253	3.062	0.495
152.000	153.934	80.005	19.994	103.256	20.258	2.721	0.536
152.500	154.153	80.006	19.994	103.257	20.255	2.887	0.514
153.001	154.454	80.007	19.994	103.257	20.255	2.881	0.501
153.501	154.674	80.006	19.994	103.257	20.253	3.060	0.520
154.000	154.911	80.007	19.994	103.257	20.254	2.946	0.489
154.500	155.205	80.005	19.993	103.257	20.254	2.939	0.494
155.000	155.419	80.006	19.994	103.256	20.256	2.819	0.519
155.500	155.682	80.006	19.994	103.256	20.253	3.017	0.493
156.000	155.920	80.007	19.993	103.255	20.251	3.152	0.490
156.500	156.187	80.007	19.994	103.255	20.252	3.097	0.503
157.000	156.411	80.006	19.995	103.253	20.253	3.066	0.498
157.500	156.708	80.005	19.993	103.253	20.252	3.083	0.506
158.000	156.926	80.006	19.995	103.253	20.252	3.083	0.517
158.500	157.209	80.007	19.993	103.253	20.253	3.045	0.508
159.000	157.474	80.006	19.994	103.253	20.255	2.896	0.525
159.500	157.727	80.007	19.994	103.257	20.255	2.925	0.533
160.000	157.953	80.006	19.994	103.258	20.256	2.824	0.498
160.500	158.202	80.008	19.994	103.264	20.254	2.943	0.477
161.000	158.458	80.005	19.993	103.270	20.254	2.964	0.490
161.500	158.693	80.006	19.993	103.277	20.250	3.220	0.497
162.000	158.984	80.007	19.994	103.278	20.254	2.989	0.509
162.500	159.212	80.007	19.994	103.281	20.254	2.978	0.523
163.000	159.468	80.006	19.994	103.276	20.255	2.915	0.502
163.500	159.753	80.008	19.995	103.276	20.254	2.963	0.512
164.000	159.986	80.007	19.994	103.276	20.256	2.845	0.529
164.500	160.245	80.008	19.994	103.280	20.256	2.826	0.505
165.000	160.534	80.008	19.995	103.283	20.255	2.919	0.520
165.500	160.761	80.006	19.993	103.289	20.257	2.746	0.532
166.000	161.027	80.008	19.993	103.291	20.255	2.900	0.504
166.500	161.272	80.007	19.993	103.291	20.257	2.763	0.502
167.000	161.514	80.009	19.993	103.291	20.258	2.694	0.499
167.500	161.768	80.010	19.994	103.290	20.254	2.938	0.491
168.000	162.016	80.008	19.994	103.289	20.259	2.631	0.499
168.500	162.292	80.009	19.993	103.283	20.255	2.918	0.513
169.000	162.522	80.008	19.993	103.278	20.258	2.696	0.515
169.500	162.816	80.009	19.993	103.272	20.257	2.749	0.515
170.000	163.025	80.007	19.993	103.265	20.258	2.665	0.513
170.500	163.265	80.008	19.993	103.261	20.257	2.728	0.476
171.000	163.533	80.008	19.993	103.260	20.259	2.583	0.479
171.500	163.807	80.009	19.993	103.257	20.257	2.722	0.525
172.000	164.052	80.010	19.994	103.257	20.263	2.328	0.531
172.500	164.285	80.007	19.994	103.260	20.259	2.635	0.499
173.001	164.533	80.009	19.994	103.257	20.258	2.663	0.479
173.501	164.818	80.007	19.994	103.257	20.259	2.638	0.507
174.001	165.061	80.008	19.993	103.259	20.256	2.818	0.530
174.500	165.283	80.008	19.993	103.263	20.256	2.795	0.496
175.001	165.579	80.008	19.994	103.267	20.253	3.002	0.492
175.501	165.808	80.008	19.994	103.273	20.255	2.909	0.522
176.000	166.054	80.007	19.994	103.278	20.256	2.840	0.500
176.500	166.307	80.008	19.994	103.280	20.254	2.938	0.487
177.000	166.544	80.007	19.994	103.276	20.256	2.854	0.495
177.500	166.818	80.005	19.994	103.268	20.255	2.875	0.501
178.001	167.079	80.007	19.993	103.261	20.255	2.892	0.523
178.501	167.265	80.006	19.994	103.255	20.257	2.762	0.491
179.000	167.564	80.006	19.995	103.249	20.256	2.848	0.466
179.500	167.812	80.006	19.994	103.248	20.250	3.233	0.516
180.000	168.091	80.004	19.994	103.250	20.256	2.823	0.537
180.500	168.284	80.006	19.994	103.251	20.256	2.810	0.500
181.000	168.552	80.006	19.996	103.250	20.252	3.080	0.466
181.501	168.818	80.005	19.995	103.249	20.255	2.884	0.497
182.001	169.074	80.006	19.995	103.249	20.254	2.970	0.528
182.501	169.308	80.005	19.995	103.247	20.253	3.058	0.506
183.000	169.545	80.004	19.995	103.244	20.250	3.241	0.481
183.500	169.769	80.006	19.995	103.245	20.255	2.913	0.466
184.000	170.031	80.006	19.994	103.246	20.253	3.050	0.473
184.500	170.303	80.005	19.995	103.247	20.253	3.002	0.510
185.000	170.506	80.006	19.995	103.249	20.253	3.029	0.505
185.500	170.786	80.005	19.994	103.251	20.252	3.088	0.479
186.000	171.042	80.006	19.995	103.251	20.252	3.119	0.510
186.500	171.263	80.005	19.995	103.251	20.255	2.909	0.507
187.000	171.514	80.005	19.995	103.251	20.254	2.963	0.475
187.500	171.758	80.005	19.995	103.250	20.251	3.151	0.483
188.000	172.000	80.006	19.995	103.246	20.254	2.951	0.490
188.500	172.227	80.006	19.995	103.245	20.255	2.863	0.477
189.000	172.448	80.005	19.994	103.245	20.252	3.112	0.459
189.501	172.708	80.005	19.995	103.244	20.254	2.986	0.464
190.001	172.929	80.007	19.996	103.243	20.252	3.110	0.481
190.500	173.220	80.006	19.994	103.246	20.252	3.124	0.497
191.000	173.470	80.005	19.995	103.248	20.254	2.960	0.527
191.500	173.699	80.006	19.994	103.248	20.251	3.174	0.510
192.000	173.940	80.004	19.995	103.250	20.255	2.887	0.474
192.500	174.206	80.006	19.995	103.253	20.257	2.755	0.489
193.000	174.461	80.005	19.994	103.255	20.252	3.100	0.514
193.500	174.658	80.004	19.995	103.256	20.253	3.016	0.486
194.000	174.955	80.005	19.995	103.256	20.255	2.926	0.473
194.500	175.172	80.006	19.994	103.255	20.250	3.242	0.504
195.000	175.412	80.006	19.994	103.253	20.253	3.048	0.485
195.500	175.657	80.006	19.995	103.252	20.252	3.072	0.470
196.000	175.902	80.005	19.995	103.252	20.255	2.924	0.487
196.500	176.135	80.007	19.995	103.253	20.254	2.962	0.484
197.000	176.387	80.006	19.994	103.259	20.253	3.017	0.482
197.500	176.641	80.006	19.994	103.261	20.249	3.288	0.496
198.000	176.884	80.007	19.995	103.256	20.252	3.096	0.502
198.500	177.144	80.005	19.995	103.254	20.253	3.020	0.500
199.000	177.374	80.004	19.994	103.247	20.255	2.881	0.497
199.500	177.577	80.004	19.994	103.235	20.252	3.130	0.461
200.000	177.871	80.006	19.995	103.227	20.253	3.012	0.465
200.500	178.099	80.005	19.994	103.224	20.252	3.113	0.509
201.000	178.330	80.005	19.994	103.225	20.254	2.972	0.491
201.500	178.591	80.004	19.994	103.233	20.251	3.208	0.476
202.000	178.799	80.005	19.994	103.245	20.258	2.684	0.481
202.500	179.035	80.006	19.995	103.259	20.253	3.016	0.457
203.000	179.313	80.004	19.993	103.269	20.256	2.810	0.479
203.500	179.532	80.004	19.995	103.270	20.257	2.760	0.506
204.000	179.773	80.006	19.994	103.267	20.248	3.378	0.479
204.500	180.044	80.004	19.994	103.259	20.255	2.920	0.486
205.000	180.303	80.004	19.994	103.245	20.259	2.592	0.521
205.500	180.528	80.006	19.995	103.242	20.256	2.807	0.507
206.000	180.786	80.005	19.995	103.234	20.253	3.013	0.483
206.500	181.028	80.005	19.995	103.230	20.253	3.051	0.491
207.000	181.262	80.004	19.995	103.230	20.253	3.070	0.488
207.500	181.536	80.004	19.995	103.237	20.254	2.958	0.492
208.000	181.811	80.004	19.994	103.236	20.250	3.257	0.528
208.500	181.982	80.003	19.995	103.244	20.252	3.101	0.497
209.000	182.282	80.004	19.995	103.251	20.253	3.005	0.459
209.500	182.491	80.004	19.995	103.257	20.254	2.956	0.490
210.001	182.744	80.003	19.996	103.260	20.254	2.984	0.485
210.501	182.998	80.003	19.994	103.261	20.256	2.857	0.485
211.000	183.198	80.004	19.995	103.260	20.257	2.744	0.481
211.500	183.483	80.004	19.995	103.259	20.256	2.851	0.469
212.000	183.732	80.002	19.995	103.256	20.256	2.811	0.509
212.500	183.951	80.005	19.996	103.253	20.258	2.701	0.501
213.000	184.185	80.003	19.995	103.252	20.256	2.830	0.460
213.500	184.437	80.004	19.995	103.253	20.256	2.840	0.470
214.000	184.709	80.004	19.996	103.253	20.253	3.009	0.505
214.500	184.935	80.004	19.994	103.253	20.257	2.722	0.511
215.000	185.188	80.004	19.995	103.247	20.258	2.708	0.488
215.500	185.454	80.002	19.994	103.243	20.253	3.068	0.499
216.000	185.717	80.005	19.997	103.237	20.256	2.818	0.524
216.500	185.963	80.003	19.995	103.229	20.254	2.992	0.519
217.000	186.206	80.004	19.995	103.222	20.251	3.159	0.499
217.500	186.435	80.005	19.995	103.221	20.252	3.102	0.481
218.001	186.684	80.003	19.994	103.219	20.254	2.975	0.475
218.501	186.928	80.004	19.994	103.218	20.253	3.032	0.486
219.000	187.182	80.006	19.995	103.218	20.253	3.050	0.496
219.500	187.393	80.006	19.995	103.222	20.254	2.994	0.481
220.000	187.701	80.006	19.994	103.224	20.254	2.985	0.492
220.500	187.891	80.005	19.995	103.223	20.249	3.330	0.509
221.000	188.126	80.006	19.994	103.222	20.251	3.212	0.462
221.500	188.382	80.007	19.994	103.225	20.252	3.125	0.458
222.000	188.606	80.006	19.994	103.221	20.251	3.207	0.485
222.501	188.868	80.008	19.994	103.225	20.250	3.254	0.482
223.001	189.112	80.006	19.993	103.233	20.251	3.201	0.496
223.500	189.356	80.007	19.994	103.236	20.252	3.107	0.497
224.000	189.617	80.008	19.994	103.234	20.250	3.248	0.496
224.500	189.876	80.007	19.994	103.233	20.250	3.251	0.513
225.000	190.100	80.007	19.994	103.227	20.248	3.387	0.502
225.500	190.330	80.008	19.993	103.220	20.254	2.948	0.469
226.000	190.607	80.007	19.994	103.215	20.251	3.181	0.481
226.500	190.845	80.009	19.994	103.213	20.250	3.262	0.511
227.001	191.053	80.007	19.994	103.212	20.249	3.324	0.480
227.501	191.300	80.008	19.994	103.211	20.253	3.011	0.450
228.000	191.540	80.008	19.993	103.211	20.251	3.144	0.471
228.500	191.812	80.007	19.994	103.214	20.251	3.156	0.499
229.000	192.053	80.008	19.994	103.220	20.248	3.413	0.512
229.500	192.314	80.007	19.994	103.228	20.248	3.405	0.507
230.001	192.560	80.008	19.994	103.235	20.250	3.240	0.505
230.501	192.817	80.008	19.993	103.242	20.249	3.305	0.505
231.000	193.013	80.007	19.993	103.247	20.246	3.496	0.478
231.500	193.254	80.006	19.994	103.250	20.247	3.484	0.445
232.000	193.502	80.006	19.993	103.242	20.249	3.336	0.463
232.500	193.775	80.006	19.994	103.226	20.246	3.517	0.505
233.000	194.008	80.007	19.994	103.211	20.242	3.784	0.514
233.500	194.230	80.006	19.994	103.203	20.248	3.363	0.481
234.000	194.459	80.006	19.994	103.195	20.245	3.584	0.453
234.500	194.712	80.007	19.995	103.199	20.246	3.494	0.467
235.000	194.956	80.006	19.993	103.240	20.245	3.565	0.489
235.501	195.215	80.007	19.994	103.278	20.244	3.637	0.500
236.001	195.443	80.006	19.994	103.289	20.249	3.298	0.495
236.500	195.647	80.006	19.994	103.289	20.246	3.526	0.460
237.000	195.915	80.007	19.994	103.286	20.248	3.369	0.452
237.500	196.163	80.006	19.994	103.256	20.249	3.348	0.494
238.000	196.416	80.006	19.993	103.226	20.244	3.668	0.508
238.500	196.661	80.008	19.994	103.219	20.245	3.579	0.500
239.000	196.886	80.005	19.994	103.223	20.248	3.396	0.484
239.500	197.159	80.006	19.993	103.223	20.247	3.461	0.484
240.001	197.378	80.007	19.994	103.222	20.245	3.567	0.495
240.501	197.616	80.005	19.993	103.228	20.245	3.573	0.474
241.000	197.909	80.007	19.994	103.233	20.247	3.491	0.494
241.500	198.126	80.007	19.995	103.235	20.246	3.505	0.520
242.000	198.354	80.006	19.994	103.243	20.247	3.433	0.478
242.500	198.629	80.007	19.994	103.251	20.248	3.399	0.474
243.000	198.849	80.006	19.994	103.253	20.245	3.614	0.498
243.500	199.097	80.007	19.994	103.253	20.247	3.475	0.481
244.000	199.318	80.007	19.994	103.254	20.251	3.197	0.468
244.500	199.564	80.007	19.994	103.256	20.243	3.715	0.468
245.000	199.847	80.008	19.994	103.258	20.253	3.023	0.498
245.500	200.069	80.008	19.994	103.257	20.247	3.467	0.516
246.000	200.264	80.009	19.995	103.257	20.248	3.390	0.461
246.500	200.546	80.009	19.994	103.256	20.249	3.323	0.447
247.000	200.793	80.007	19.993	103.247	20.252	3.129	0.504
247.501	201.035	80.009	19.994	103.240	20.248	3.366	0.509
248.001	201.242	80.009	19.993	103.233	20.247	3.440	0.469
248.501	201.504	80.009	19.994	103.226	20.251	3.185	0.459
249.000	201.740	80.008	19.994	103.221	20.248	3.411	0.484
249.500	201.997	80.009	19.993	103.224	20.248	3.362	0.496
250.000	202.279	80.008	19.993	103.224	20.251	3.172	0.516
250.500	202.489	80.009	19.994	103.225	20.248	3.356	0.515
251.000	202.715	80.010	19.993	103.230	20.248	3.398	0.464
251.500	203.006	80.009	19.994	103.233	20.245	3.579	0.477
252.001	203.253	80.008	19.993	103.236	20.247	3.436	0.527
252.501	203.485	80.008	19.994	103.241	20.249	3.301	0.508
253.000	203.719	80.009	19.994	103.247	20.247	3.434	0.473
253.500	203.971	80.007	19.993	103.250	20.247	3.442	0.476
254.000	204.194	80.008	19.992	103.251	20.247	3.435	0.480
254.500	204.429	80.008	19.994	103.251	20.245	3.629	0.466
255.000	204.669	80.007	19.993	103.251	20.244	3.677	0.466
255.500	204.940	80.009	19.992	103.246	20.244	3.701	0.493
256.000	205.178	80.007	19.992	103.238	20.243	3.768	0.510
256.500	205.406	80.008	19.994	103.234	20.243	3.749	0.488
257.000	205.680	80.008	19.993	103.228	20.246	3.554	0.484
257.500	205.966	80.007	19.993	103.224	20.244	3.673	0.530
258.000	206.163	80.007	19.994	103.225	20.244	3.648	0.522
258.500	206.467	80.005	19.992	103.229	20.246	3.496	0.493
259.000	206.710	80.006	19.994	103.228	20.244	3.669	0.524
259.500	206.969	80.006	19.993	103.233	20.244	3.682	0.525
260.000	207.169	80.006	19.993	103.236	20.243	3.753	0.481
260.500	207.462	80.004	19.993	103.240	20.242	3.838	0.476
261.000	207.703	80.006	19.994	103.240	20.246	3.520	0.513
261.500	207.981	80.006	19.994	103.239	20.245	3.571	0.526
262.000	208.239	80.006	19.993	103.237	20.244	3.651	0.527
262.500	208.473	80.006	19.994	103.235	20.243	3.731	0.514
263.000	208.715	80.005	19.993	103.236	20.243	3.714	0.484
263.500	208.969	80.006	19.993	103.240	20.246	3.518	0.486
264.000	209.230	80.006	19.995	103.239	20.239	4.027	0.505
264.500	209.443	80.006	19.993	103.240	20.242	3.779	0.495
265.000	209.714	80.004	19.994	103.243	20.245	3.610	0.480
265.500	209.997	80.004	19.994	103.244	20.245	3.577	0.519
266.000	210.193	80.005	19.994	103.245	20.244	3.699	0.516
266.500	210.481	80.006	19.993	103.245	20.246	3.537	0.481
267.000	210.740	80.005	19.994	103.247	20.242	3.794	0.515
267.500	210.956	80.005	19.993	103.244	20.244	3.703	0.511
268.000	211.177	80.005	19.993	103.240	20.244	3.644	0.457
268.500	211.462	80.005	19.994	103.240	20.246	3.537	0.472
269.000	211.669	80.007	19.994	103.246	20.244	3.644	0.499
269.500	211.915	80.005	19.993	103.247	20.245	3.577	0.473
270.000	212.189	80.004	19.994	103.247	20.243	3.708	0.486
270.500	212.413	80.005	19.994	103.247	20.244	3.672	0.508
271.000	212.661	80.006	19.994	103.242	20.243	3.750	0.485
271.500	212.933	80.006	19.994	103.235	20.242	3.839	0.496
272.000	213.184	80.005	19.994	103.228	20.247	3.472	0.522
272.500	213.399	80.004	19.995	103.228	20.244	3.687	0.495
273.000	213.686	80.005	19.994	103.231	20.243	3.736	0.484
273.500	213.907	80.005	19.994	103.236	20.245	3.632	0.505
274.000	214.150	80.003	19.994	103.240	20.241	3.847	0.486
274.500	214.435	80.004	19.994	103.244	20.243	3.735	0.496
275.000	214.661	80.005	19.995	103.240	20.243	3.749	0.519
275.500	214.960	80.005	19.995	103.235	20.240	3.958	0.518
276.000	215.158	80.004	19.995	103.234	20.244	3.642	0.511
276.500	215.417	80.004	19.994	103.233	20.240	3.937	0.477
277.000	215.643	80.005	19.994	103.229	20.239	4.024	0.471
277.500	215.929	80.006	19.994	103.232	20.238	4.089	0.499
278.000	216.146	80.005	19.994	103.238	20.240	3.961	0.507
278.500	216.416	80.005	19.994	103.240	20.236	4.205	0.495
279.000	216.667	80.006	19.995	103.237	20.239	4.012	0.504
279.500	216.913	80.005	19.994	103.238	20.236	4.218	0.509
280.000	217.137	80.005	19.994	103.234	20.239	4.001	0.484
280.500	217.417	80.005	19.994	103.228	20.238	4.059	0.487
281.000	217.666	80.005	19.994	103.221	20.237	4.179	0.516
281.500	217.926	80.006	19.994	103.220	20.237	4.161	0.519
282.000	218.151	80.004	19.994	103.219	20.237	4.129	0.497
282.500	218.402	80.006	19.994	103.218	20.236	4.228	0.481
283.000	218.712	80.006	19.995	103.212	20.235	4.296	0.518
283.500	218.948	80.006	19.993	103.208	20.236	4.211	0.553
284.000	219.161	80.005	19.993	103.207	20.238	4.074	0.497
284.500	219.440	80.005	19.995	103.211	20.237	4.155	0.471
285.000	219.699	80.006	19.995	103.219	20.237	4.188	0.515
285.500	219.961	80.005	19.993	103.233	20.233	4.441	0.529
286.000	220.135	80.006	19.994	103.241	20.232	4.487	0.479
286.500	220.417	80.006	19.994	103.244	20.236	4.243	0.446
287.000	220.646	80.006	19.995	103.242	20.234	4.357	0.484
287.500	220.891	80.006	19.994	103.234	20.234	4.359	0.493
288.000	221.151	80.007	19.994	103.226	20.234	4.397	0.489
288.500	221.436	80.006	19.995	103.218	20.232	4.477	0.524
289.000	221.662	80.005	19.995	103.210	20.232	4.523	0.528
289.500	221.929	80.005	19.994	103.207	20.232	4.513	0.502
290.000	222.166	80.006	19.994	103.210	20.231	4.604	0.499
290.500	222.412	80.005	19.994	103.211	20.230	4.646	0.494
291.000	222.656	80.003	19.994	103.219	20.232	4.540	0.487
291.500	222.885	80.004	19.995	103.227	20.232	4.519	0.482
292.000	223.130	80.005	19.995	103.227	20.230	4.639	0.473
292.500	223.384	80.005	19.995	103.224	20.229	4.740	0.486
293.000	223.664	80.005	19.995	103.225	20.231	4.576	0.516
293.500	223.907	80.004	19.994	103.220	20.230	4.645	0.528
294.000	224.154	80.005	19.995	103.216	20.228	4.794	0.507
294.500	224.397	80.004	19.995	103.216	20.232	4.525	0.490
295.000	224.655	80.004	19.994	103.217	20.228	4.808	0.496
295.500	224.916	80.004	19.994	103.217	20.227	4.883	0.510
296.000	225.186	80.005	19.995	103.219	20.225	5.018	0.525
296.500	225.392	80.005	19.994	103.219	20.226	4.951	0.504
297.000	225.681	80.004	19.994	103.219	20.225	5.016	0.486
297.500	225.905	80.005	19.995	103.219	20.228	4.787	0.504
298.000	226.154	80.005	19.995	103.217	20.227	4.839	0.492
298.500	226.411	80.004	19.995	103.214	20.224	5.090	0.489
299.001	226.648	80.005	19.995	103.214	20.226	4.962	0.500
299.500	226.874	80.006	19.994	103.214	20.228	4.757	0.479
300.000	227.103	80.005	19.995	103.209	20.225	5.035	0.459
300.500	227.437	80.004	19.994	103.207	20.224	5.083	0.509
301.000	227.602	80.005	19.995	103.207	20.225	5.027	0.531
301.500	227.859	80.006	19.996	103.205	20.222	5.183	0.461
302.000	228.150	80.005	19.995	103.203	20.226	4.939	0.486
302.500	228.380	80.006	19.996	103.205	20.222	5.225	0.535
303.000	228.637	80.006	19.995	103.210	20.221	5.267	0.504
303.500	228.897	80.006	19.995	103.211	20.221	5.299	0.501
304.000	229.130	80.006	19.996	103.215	20.220	5.353	0.505
304.500	229.426	80.006	19.994	103.217	20.220	5.368	0.511
305.000	229.662	80.007	19.996	103.220	20.221	5.279	0.530
305.500	229.922	80.006	19.996	103.217	20.220	5.355	0.514
306.000	230.141	80.007	19.994	103.212	20.219	5.397	0.488
306.500	230.385	80.008	19.995	103.209	20.218	5.513	0.471
307.000	230.638	80.007	19.995	103.208	20.217	5.566	0.480
307.500	230.894	80.006	19.995	103.207	20.214	5.751	0.503
308.000	231.153	80.007	19.995	103.207	20.222	5.224	0.512
308.500	231.410	80.006	19.995	103.210	20.218	5.487	0.515
309.000	231.633	80.006	19.994	103.208	20.215	5.685	0.498
309.500	231.895	80.006	19.994	103.207	20.216	5.607	0.482
310.000	232.180	80.006	19.994	103.207	20.214	5.772	0.516
310.500	232.393	80.007	19.995	103.207	20.215	5.683	0.523
311.000	232.664	80.007	19.995	103.207	20.211	5.995	0.491
311.500	232.902	80.007	19.995	103.209	20.219	5.391	0.497
312.000	233.167	80.007	19.993	103.207	20.212	5.925	0.506
312.500	233.407	80.006	19.994	103.206	20.213	5.877	0.504
313.000	233.626	80.006	19.995	103.203	20.212	5.888	0.482
313.500	233.896	80.008	19.995	103.200	20.215	5.700	0.474
314.000	234.162	80.007	19.994	103.201	20.210	6.022	0.512
314.500	234.382	80.008	19.994	103.205	20.208	6.212	0.511
315.000	234.622	80.006	19.994	103.207	20.213	5.869	0.473
315.500	234.923	80.006	19.994	103.210	20.209	6.098	0.501
316.000	235.131	80.006	19.994	103.213	20.207	6.267	0.524
316.500	235.390	80.006	19.994	103.212	20.208	6.220	0.488
317.000	235.637	80.007	19.994	103.212	20.205	6.401	0.487
317.501	235.874	80.006	19.994	103.213	20.208	6.191	0.495
318.001	236.167	80.005	19.994	103.214	20.205	6.372	0.507
318.501	236.365	80.006	19.994	103.214	20.206	6.349	0.511
319.000	236.624	80.006	19.995	103.215	20.202	6.599	0.474
319.500	236.889	80.006	19.994	103.217	20.203	6.570	0.491
320.000	237.128	80.006	19.993	103.217	20.207	6.283	0.514
320.500	237.354	80.005	19.993	103.218	20.205	6.433	0.484
321.000	237.602	80.008	19.994	103.219	20.204	6.442	0.469
321.500	237.864	80.007	19.992	103.219	20.204	6.463	0.492
322.000	238.125	80.007	19.995	103.217	20.202	6.583	0.517
322.500	238.349	80.006	19.994	103.217	20.202	6.627	0.504
323.000	238.617	80.006	19.994	103.217	20.203	6.578	0.488
323.500	238.877	80.006	19.994	103.216	20.202	6.648	0.511
324.000	239.122	80.007	19.995	103.216	20.202	6.616	0.517
324.500	239.356	80.005	19.993	103.216	20.204	6.494	0.492
325.000	239.585	80.006	19.992	103.217	20.200	6.721	0.470
325.500	239.842	80.008	19.994	103.216	20.204	6.449	0.474
326.000	240.067	80.006	19.994	103.217	20.197	6.984	0.485
326.500	240.328	80.007	19.993	103.217	20.198	6.923	0.484
327.000	240.587	80.006	19.993	103.217	20.199	6.826	0.503
327.500	240.838	80.007	19.994	103.216	20.196	7.041	0.515
328.000	241.108	80.008	19.993	103.216	20.198	6.890	0.515
328.500	241.275	80.008	19.993	103.218	20.200	6.723	0.479
329.000	241.548	80.009	19.994	103.219	20.200	6.744	0.439
329.500	241.801	80.008	19.994	103.219	20.201	6.717	0.483
330.000	242.046	80.008	19.994	103.218	20.199	6.824	0.512
330.500	242.311	80.009	19.994	103.217	20.198	6.922	0.504
331.000	242.537	80.008	19.993	103.214	20.200	6.785	0.500
331.500	242.769	80.008	19.993	103.213	20.202	6.638	0.475
332.000	243.057	80.009	19.994	103.213	20.203	6.570	0.490
332.500	243.313	80.008	19.994	103.213	20.205	6.381	0.532
333.000	243.528	80.007	19.993	103.213	20.203	6.516	0.507
333.500	243.802	80.008	19.994	103.212	20.202	6.646	0.479
334.000	244.051	80.008	19.993	103.212	20.205	6.412	0.506
334.500	244.296	80.008	19.993	103.213	20.204	6.463	0.509
335.000	244.509	80.008	19.993	103.214	20.202	6.610	0.476
335.500	244.781	80.009	19.994	103.216	20.208	6.166	0.472
336.000	244.980	80.007	19.993	103.221	20.210	6.049	0.478
336.500	245.261	80.008	19.993	103.223	20.210	6.023	0.476
337.000	245.530	80.006	19.994	103.222	20.210	6.064	0.515
337.500	245.767	80.006	19.994	103.222	20.213	5.851	0.528
338.000	246.015	80.005	19.994	103.220	20.212	5.918	0.495
338.500	246.303	80.005	19.993	103.216	20.211	5.990	0.510
339.000	246.543	80.004	19.994	103.214	20.211	6.016	0.532
339.500	246.771	80.004	19.994	103.215	20.215	5.704	0.498
340.000	247.012	80.005	19.992	103.216	20.218	5.492	0.468
340.500	247.246	80.004	19.994	103.222	20.215	5.671	0.472
341.000	247.472	80.005	19.994	103.230	20.218	5.473	0.468
341.500	247.714	80.005	19.993	103.235	20.223	5.134	0.464
342.000	247.980	80.004	19.993	103.235	20.221	5.303	0.488
342.500	248.264	80.006	19.993	103.236	20.219	5.403	0.529
343.000	248.509	80.005	19.994	103.236	20.224	5.085	0.540
343.500	248.723	80.004	19.994	103.235	20.226	4.906	0.494
344.000	248.998	80.005	19.993	103.238	20.227	4.876	0.474
344.500	249.251	80.005	19.993	103.246	20.226	4.899	0.509
345.000	249.503	80.005	19.993	103.247	20.229	4.688	0.517
345.500	249.767	80.005	19.994	103.243	20.225	5.019	0.511
346.000	250.055	80.006	19.994	103.242	20.229	4.733	0.534
346.500	250.294	80.005	19.994	103.239	20.230	4.680	0.539
347.000	250.552	80.004	19.993	103.233	20.235	4.278	0.511
347.500	250.801	80.005	19.993	103.231	20.232	4.499	0.502
348.000	251.027	80.006	19.994	103.230	20.232	4.499	0.491
348.500	251.288	80.005	19.994	103.227	20.234	4.338	0.481
349.000	251.526	80.004	19.994	103.228	20.234	4.342	0.493
349.500	251.791	80.004	19.994	103.234	20.235	4.321	0.501
350.000	252.029	80.005	19.994	103.239	20.237	4.125	0.504
350.501	252.277	80.007	19.994	103.247	20.237	4.158	0.495
351.001	252.540	80.005	19.993	103.250	20.237	4.183	0.498
351.500	252.756	80.006	19.994	103.250	20.237	4.127	0.495
352.000	253.020	80.004	19.993	103.247	20.238	4.076	0.479
352.500	253.245	80.005	19.993	103.241	20.239	4.036	0.484
353.000	253.469	80.005	19.992	103.234	20.243	3.746	0.469
353.500	253.810	80.005	19.993	103.227	20.240	3.954	0.507
354.000	254.034	80.006	19.993	103.223	20.244	3.681	0.565
354.500	254.271	80.006	19.994	103.223	20.241	3.862	0.514
355.000	254.538	80.005	19.993	103.226	20.240	3.917	0.482
355.500	254.812	80.006	19.994	103.232	20.245	3.618	0.522
356.000	255.030	80.007	19.993	103.235	20.244	3.689	0.516
356.500	255.263	80.007	19.993	103.236	20.244	3.685	0.472
357.000	255.532	80.006	19.994	103.234	20.246	3.548	0.476
357.500	255.797	80.007	19.994	103.231	20.247	3.436	0.518
358.000	256.017	80.007	19.993	103.225	20.242	3.775	0.510
358.500	256.285	80.007	19.994	103.222	20.248	3.392	0.486
359.000	256.527	80.006	19.994	103.222	20.246	3.512	0.499
359.500	256.721	80.005	19.993	103.220	20.246	3.546	0.473
360.000	256.995	80.006	19.993	103.221	20.246	3.495	0.452
360.500	257.255	80.007	19.994	103.222	20.243	3.718	0.501
361.000	257.492	80.006	19.994	103.223	20.249	3.350	0.515
361.500	257.757	80.005	19.994	103.223	20.249	3.293	0.499
362.000	258.009	80.006	19.995	103.226	20.248	3.361	0.510
362.500	258.233	80.008	19.994	103.225	20.245	3.605	0.497
363.000	258.480	80.006	19.994	103.224	20.247	3.430	0.473
363.500	258.736	80.004	19.994	103.222	20.246	3.537	0.487
364.000	259.014	80.006	19.994	103.218	20.247	3.483	0.518
364.500	259.214	80.005	19.993	103.215	20.243	3.739	0.506
365.000	259.529	80.006	19.995	103.215	20.248	3.419	0.497
365.500	259.744	80.005	19.995	103.215	20.248	3.363	0.523
366.000	260.015	80.006	19.995	103.215	20.242	3.782	0.508
366.500	260.263	80.005	19.995	103.214	20.245	3.605	0.502
367.000	260.505	80.005	19.994	103.214	20.247	3.462	0.505
367.500	260.755	80.005	19.995	103.216	20.246	3.517	0.491
368.000	260.953	80.004	19.994	103.217	20.247	3.455	0.470
368.500	261.227	80.005	19.994	103.217	20.247	3.470	0.460
369.000	261.472	80.005	19.995	103.219	20.245	3.615	0.496
369.500	261.710	80.004	19.995	103.220	20.248	3.390	0.501
370.000	261.987	80.004	19.994	103.218	20.246	3.535	0.499
370.500	262.215	80.006	19.995	103.219	20.245	3.596	0.510
371.000	262.450	80.004	19.995	103.219	20.246	3.545	0.484
371.500	262.712	80.005	19.995	103.220	20.247	3.480	0.480
372.000	262.975	80.004	19.994	103.217	20.248	3.378	0.511
372.500	263.273	80.004	19.996	103.218	20.246	3.505	0.543
373.000	263.480	80.003	19.995	103.217	20.247	3.436	0.532
373.500	263.693	80.004	19.995	103.216	20.249	3.335	0.463
374.000	263.964	80.004	19.995	103.217	20.247	3.430	0.453
374.500	264.237	80.004	19.994	103.218	20.249	3.343	0.514
375.000	264.430	80.004	19.996	103.219	20.247	3.476	0.505
375.500	264.706	80.004	19.995	103.220	20.247	3.478	0.467
376.000	264.969	80.005	19.995	103.220	20.249	3.334	0.504
376.501	265.207	80.004	19.994	103.218	20.247	3.481	0.520
377.000	265.456	80.005	19.994	103.216	20.244	3.642	0.494
377.500	265.678	80.004	19.995	103.215	20.247	3.476	0.478
378.000	265.929	80.004	19.995	103.214	20.244	3.665	0.472
378.500	266.189	80.004	19.995	103.215	20.247	3.478	0.493
379.000	266.429	80.005	19.996	103.215	20.246	3.547	0.505
379.500	266.675	80.005	19.995	103.217	20.246	3.533	0.492
380.000	266.925	80.004	19.993	103.219	20.245	3.575	0.491
380.500	267.189	80.006	19.994	103.223	20.250	3.265	0.505
381.000	267.413	80.006	19.995	103.229	20.245	3.615	0.501
381.500	267.707	80.004	19.994	103.235	20.248	3.404	0.503
382.000	267.960	80.007	19.994	103.240	20.246	3.551	0.533
382.500	268.195	80.005	19.994	103.244	20.248	3.374	0.518
383.000	268.460	80.007	19.994	103.248	20.248	3.420	0.494
383.500	268.706	80.004	19.994	103.244	20.248	3.414	0.505
384.000	268.936	80.008	19.994	103.238	20.244	3.645	0.494
384.500	269.175	80.003	19.994	103.235	20.248	3.418	0.472
385.000	269.437	80.006	19.994	103.232	20.246	3.536	0.485
385.500	269.701	80.007	19.995	103.232	20.246	3.519	0.514
386.000	269.943	80.005	19.994	103.237	20.246	3.521	0.517
386.500	270.229	80.007	19.994	103.244	20.244	3.656	0.517
387.000	270.462	80.006	19.995	103.248	20.247	3.452	0.523
387.500	270.722	80.006	19.994	103.252	20.245	3.567	0.506
388.000	270.992	80.005	19.994	103.247	20.246	3.504	0.512
388.501	271.226	80.004	19.995	103.243	20.245	3.586	0.517
389.001	271.478	80.007	19.994	103.242	20.243	3.769	0.495
389.500	271.767	80.006	19.995	103.239	20.244	3.683	0.514
390.000	272.008	80.005	19.995	103.232	20.243	3.748	0.535
390.500	272.263	80.005	19.995	103.230	20.242	3.818	0.513
391.000	272.514	80.006	19.995	103.231	20.245	3.612	0.501
391.500	272.753	80.005	19.995	103.232	20.244	3.691	0.498
392.000	273.014	80.005	19.994	103.235	20.247	3.454	0.494
392.500	273.226	80.006	19.995	103.243	20.243	3.725	0.486
393.000	273.504	80.004	19.995	103.249	20.246	3.535	0.482
393.500	273.763	80.003	19.995	103.252	20.249	3.295	0.514
394.000	273.998	80.004	19.995	103.257	20.246	3.550	0.516
394.500	274.293	80.006	19.996	103.258	20.243	3.766	0.513
395.000	274.520	80.005	19.994	103.259	20.241	3.848	0.526
395.500	274.770	80.006	19.996	103.259	20.244	3.699	0.499
396.000	275.010	80.006	19.995	103.259	20.246	3.520	0.483
396.500	275.279	80.005	19.994	103.257	20.243	3.731	0.500
397.000	275.521	80.005	19.995	103.259	20.244	3.666	0.510
397.500	275.766	80.005	19.995	103.259	20.241	3.881	0.499
398.000	276.030	80.005	19.995	103.259	20.243	3.767	0.498
398.500	276.273	80.004	19.995	103.261	20.243	3.711	0.508
399.000	276.540	80.004	19.995	103.262	20.241	3.904	0.508
399.500	276.733	80.005	19.995	103.262	20.240	3.925	0.485
400.001	277.011	80.005	19.995	103.261	20.245	3.601	0.466
400.501	277.257	80.003	19.995	103.264	20.239	3.998	0.497
401.000	277.552	80.006	19.994	103.263	20.244	3.688	0.532
401.500	277.775	80.006	19.995	103.260	20.238	4.069	0.529
402.000	278.028	80.005	19.994	103.261	20.244	3.650	0.497
402.500	278.274	80.008	19.994	103.265	20.247	3.449	0.487
403.000	278.539	80.004	19.994	103.263	20.240	3.977	0.505
403.500	278.769	80.002	19.994	103.270	20.238	4.067	0.503
404.000	279.043	80.007	19.994	103.275	20.241	3.903	0.500
404.500	279.306	80.004	19.993	103.278	20.241	3.912	0.521
405.000	279.542	80.007	19.994	103.278	20.241	3.870	0.518
405.500	279.776	80.006	19.994	103.282	20.240	3.977	0.484
406.000	280.038	80.007	19.994	103.283	20.238	4.068	0.483
406.500	280.289	80.007	19.995	103.285	20.239	3.992	0.505
407.000	280.532	80.007	19.993	103.281	20.238	4.076	0.504
407.500	280.821	80.007	19.994	103.277	20.240	3.956	0.513
408.000	281.064	80.005	19.993	103.275	20.236	4.263	0.532
408.500	281.291	80.007	19.994	103.272	20.236	4.244	0.501
409.000	281.540	80.007	19.993	103.265	20.237	4.134	0.473
409.500	281.764	80.008	19.993	103.263	20.237	4.182	0.474
410.000	282.036	80.008	19.994	103.269	20.235	4.277	0.484
410.500	282.317	80.008	19.994	103.274	20.233	4.475	0.525
411.000	282.559	80.007	19.995	103.277	20.233	4.416	0.538
411.500	282.823	80.007	19.994	103.284	20.233	4.433	0.514
412.000	283.045	80.008	19.993	103.291	20.233	4.416	0.496
412.500	283.303	80.008	19.993	103.293	20.234	4.403	0.483
413.000	283.570	80.007	19.994	103.289	20.232	4.540	0.503
413.500	283.799	80.007	19.993	103.288	20.229	4.752	0.510
414.000	284.095	80.008	19.994	103.287	20.233	4.416	0.510
414.500	284.367	80.007	19.994	103.288	20.231	4.565	0.547
415.000	284.550	80.007	19.993	103.285	20.230	4.651	0.512
415.500	284.829	80.009	19.993	103.284	20.230	4.638	0.458
416.000	285.043	80.006	19.994	103.280	20.230	4.661	0.478
416.500	285.350	80.007	19.994	103.281	20.230	4.650	0.508
417.000	285.564	80.006	19.993	103.280	20.226	4.901	0.521
417.500	285.851	80.005	19.993	103.284	20.227	4.892	0.511
418.000	286.088	80.007	19.993	103.288	20.227	4.888	0.512
418.500	286.333	80.009	19.994	103.292	20.225	4.998	0.503
419.000	286.574	80.004	19.993	103.292	20.224	5.069	0.484
419.500	286.830	80.007	19.994	103.295	20.222	5.189	0.492
420.000	287.102	80.005	19.993	103.297	20.224	5.092	0.512
420.500	287.348	80.004	19.993	103.297	20.223	5.132	0.523
421.000	287.601	80.005	19.994	103.297	20.222	5.235	0.509
421.500	287.819	80.005	19.995	103.300	20.222	5.248	0.485
422.000	288.074	80.005	19.994	103.298	20.223	5.159	0.472
422.500	288.344	80.005	19.994	103.296	20.222	5.231	0.499
423.000	288.622	80.004	19.994	103.297	20.221	5.258	0.536
423.500	288.849	80.005	19.994	103.297	20.220	5.327	0.526
424.000	289.099	80.005	19.994	103.299	20.219	5.441	0.491
424.500	289.363	80.005	19.994	103.301	20.219	5.397	0.495
425.000	289.601	80.004	19.994	103.308	20.216	5.621	0.507
425.500	289.846	80.007	19.994	103.313	20.216	5.636	0.493
426.000	290.118	80.004	19.994	103.319	20.216	5.623	0.500
426.500	290.379	80.004	19.994	103.321	20.217	5.579	0.525
427.000	290.606	80.004	19.994	103.326	20.217	5.602	0.510
427.500	290.875	80.005	19.994	103.323	20.215	5.720	0.492
428.000	291.128	80.004	19.995	103.323	20.213	5.847	0.509
428.500	291.353	80.003	19.994	103.323	20.211	5.968	0.500
429.000	291.635	80.004	19.993	103.321	20.215	5.697	0.493
429.500	291.878	80.004	19.994	103.321	20.215	5.678	0.516
430.000	292.158	80.004	19.994	103.324	20.212	5.905	0.524
430.500	292.392	80.006	19.995	103.327	20.208	6.172	0.518
431.000	292.630	80.006	19.994	103.327	20.210	6.075	0.493
431.500	292.918	80.004	19.993	103.327	20.211	5.991	0.499
432.000	293.142	80.006	19.994	103.326	20.208	6.199	0.519
432.500	293.355	80.004	19.995	103.327	20.206	6.326	0.475
433.000	293.649	80.005	19.994	103.327	20.209	6.125	0.472
433.500	293.874	80.005	19.994	103.328	20.207	6.292	0.513
434.000	294.128	80.006	19.994	103.331	20.201	6.677	0.499
434.500	294.376	80.008	19.994	103.331	20.204	6.511	0.491
435.000	294.644	80.004	19.994	103.331	20.204	6.486	0.509
435.500	294.890	80.006	19.993	103.331	20.204	6.467	0.515
436.000	295.150	80.005	19.994	103.333	20.200	6.791	0.510
436.500	295.413	80.003	19.994	103.335	20.197	6.980	0.515
437.000	295.677	80.009	19.994	103.335	20.197	7.003	0.525
437.500	295.893	80.006	19.994	103.334	20.199	6.817	0.503
438.000	296.121	80.006	19.995	103.334	20.199	6.864	0.462
438.500	296.405	80.005	19.994	103.333	20.194	7.154	0.478
439.000	296.616	80.004	19.994	103.332	20.195	7.089	0.503
439.500	296.909	80.005	19.995	103.333	20.192	7.339	0.499
440.000	297.167	80.006	19.994	103.337	20.195	7.089	0.528
440.500	297.401	80.005	19.993	103.339	20.194	7.202	0.522
441.000	297.637	80.009	19.994	103.340	20.196	7.042	0.481
441.500	297.863	80.005	19.994	103.342	20.189	7.563	0.466
442.000	298.163	80.007	19.993	103.345	20.190	7.483	0.494
442.500	298.386	80.001	19.994	103.347	20.186	7.773	0.524
443.000	298.646	80.005	19.994	103.352	20.186	7.742	0.502
443.500	298.882	80.005	19.993	103.357	20.185	7.849	0.489
444.000	299.124	80.005	19.993	103.358	20.184	7.913	0.487
444.500	299.401	80.004	19.994	103.361	20.186	7.772	0.498
445.000	299.644	80.006	19.993	103.362	20.184	7.887	0.520
445.500	299.898	80.004	19.994	103.361	20.185	7.809	0.509
446.000	300.129	80.006	19.993	103.361	20.183	7.963	0.491
446.501	300.390	80.005	19.993	103.364	20.183	7.968	0.488
447.000	300.638	80.004	19.994	103.366	20.183	7.989	0.501
447.500	300.888	80.005	19.994	103.367	20.178	8.324	0.504
448.000	301.143	80.003	19.993	103.370	20.178	8.309	0.502
448.500	301.379	80.005	19.994	103.371	20.176	8.443	0.498
449.000	301.642	80.004	19.995	103.371	20.175	8.499	0.495
449.500	301.919	80.002	19.995	103.372	20.173	8.648	0.519
450.000	302.163	80.005	19.994	103.372	20.171	8.772	0.531
450.500	302.395	80.004	19.994	103.372	20.171	8.786	0.498
451.000	302.650	80.004	19.993	103.372	20.173	8.692	0.481
451.500	302.906	80.004	19.993	103.373	20.170	8.858	0.499
452.000	303.136	80.003	19.995	103.373	20.170	8.906	0.499
452.500	303.426	80.005	19.994	103.375	20.170	8.893	0.503
453.000	303.636	80.004	19.994	103.376	20.165	9.232	0.510
453.500	303.884	80.003	19.994	103.377	20.166	9.189	0.479
454.000	304.147	80.003	19.995	103.378	20.164	9.332	0.485
454.500	304.394	80.003	19.993	103.384	20.163	9.357	0.511
455.000	304.650	80.003	19.996	103.390	20.161	9.489	0.506
455.500	304.912	80.004	19.995	103.397	20.162	9.449	0.510
456.000	305.140	80.005	19.996	103.402	20.159	9.622	0.504
456.500	305.405	80.003	19.995	103.400	20.157	9.784	0.492
457.000	305.652	80.004	19.995	103.396	20.155	9.926	0.502
457.500	305.910	80.003	19.995	103.392	20.157	9.809	0.508
458.000	306.168	80.005	19.995	103.387	20.155	9.899	0.510
458.500	306.432	80.005	19.995	103.382	20.153	10.095	0.519
459.000	306.659	80.005	19.995	103.382	20.153	10.093	0.507
459.500	306.921	80.005	19.995	103.388	20.151	10.209	0.490
460.000	307.181	80.005	19.995	103.391	20.148	10.420	0.506
460.500	307.437	80.005	19.995	103.395	20.148	10.412	0.519
461.000	307.650	80.006	19.995	103.400	20.147	10.503	0.493
461.500	307.931	80.006	19.994	103.406	20.142	10.864	0.482
462.000	308.189	80.007	19.994	103.405	20.144	10.722	0.516
462.500	308.419	80.006	19.994	103.402	20.144	10.723	0.513
463.000	308.676	80.005	19.994	103.402	20.140	10.954	0.487
463.500	308.892	80.005	19.994	103.404	20.142	10.874	0.480
464.000	309.190	80.005	19.993	103.405	20.135	11.312	0.493
464.500	309.434	80.006	19.994	103.406	20.139	11.058	0.528
465.000	309.689	80.006	19.995	103.409	20.137	11.165	0.521
465.500	309.965	80.004	19.995	103.411	20.138	11.103	0.515
466.000	310.208	80.006	19.994	103.411	20.139	11.066	0.525
466.500	310.430	80.006	19.994	103.412	20.138	11.106	0.492
467.000	310.683	80.006	19.995	103.412	20.136	11.246	0.470
467.500	310.949	80.007	19.994	103.412	20.135	11.345	0.497
468.000	311.205	80.005	19.994	103.412	20.140	11.011	0.521
468.500	311.466	80.007	19.994	103.412	20.138	11.111	0.519
469.000	311.740	80.007	19.994	103.410	20.133	11.489	0.526
469.501	311.971	80.005	19.993	103.408	20.135	11.361	0.520
470.000	312.235	80.006	19.994	103.405	20.135	11.323	0.500
470.500	312.492	80.005	19.993	103.402	20.131	11.608	0.508
471.000	312.732	80.006	19.994	103.400	20.132	11.542	0.509
471.500	312.983	80.006	19.994	103.396	20.133	11.505	0.494
472.000	313.224	80.006	19.993	103.391	20.133	11.505	0.491
472.500	313.473	80.005	19.994	103.387	20.132	11.542	0.491
473.000	313.717	80.004	19.994	103.381	20.130	11.675	0.491
473.500	313.956	80.006	19.995	103.378	20.130	11.660	0.488
474.000	314.234	80.004	19.994	103.378	20.131	11.644	0.500
474.500	314.487	80.004	19.995	103.381	20.131	11.579	0.524
475.001	314.722	80.004	19.994	103.384	20.130	11.711	0.509
475.500	314.995	80.005	19.994	103.384	20.130	11.653	0.498
476.000	315.209	80.005	19.995	103.382	20.130	11.696	0.497
476.500	315.458	80.006	19.995	103.380	20.129	11.719	0.475
477.000	315.700	80.006	19.994	103.375	20.127	11.863	0.477
477.500	315.955	80.005	19.994	103.368	20.130	11.698	0.494
478.000	316.209	80.006	19.994	103.363	20.131	11.612	0.503
478.500	316.461	80.005	19.994	103.357	20.131	11.612	0.508
479.000	316.713	80.005	19.994	103.352	20.129	11.738	0.505
479.500	316.988	80.005	19.995	103.347	20.127	11.857	0.515
480.000	317.186	80.004	19.994	103.346	20.124	12.060	0.500
480.500	317.486	80.005	19.995	103.349	20.129	11.753	0.486
481.000	317.766	80.005	19.994	103.354	20.125	11.999	0.539
481.500	317.988	80.007	19.995	103.359	20.126	11.909	0.541
482.000	318.216	80.005	19.996	103.362	20.124	12.088	0.476
482.500	318.463	80.005	19.996	103.359	20.127	11.891	0.463
483.000	318.738	80.004	19.994	103.355	20.128	11.811	0.499
483.500	319.003	80.004	19.994	103.350	20.125	12.001	0.531
484.000	319.253	80.006	19.996	103.343	20.122	12.190	0.527
484.500	319.482	80.006	19.996	103.340	20.125	11.988	0.497
485.000	319.757	80.005	19.996	103.341	20.127	11.889	0.492
485.500	319.988	80.004	19.995	103.336	20.129	11.729	0.505
486.000	320.237	80.004	19.995	103.328	20.124	12.039	0.492
486.500	320.517	80.005	19.995	103.320	20.126	11.934	0.504
487.000	320.763	80.007	19.995	103.309	20.126	11.941	0.527
487.500	320.980	80.005	19.995	103.297	20.127	11.872	0.495
488.000	321.240	80.007	19.996	103.282	20.128	11.814	0.470
488.500	321.485	80.007	19.996	103.273	20.132	11.519	0.491
489.000	321.768	80.006	19.995	103.260	20.127	11.824	0.516
489.500	322.012	80.009	19.995	103.244	20.131	11.599	0.528
490.000	322.260	80.008	19.994	103.229	20.132	11.518	0.510
490.500	322.496	80.003	19.995	103.213	20.132	11.513	0.488
491.000	322.732	80.006	19.995	103.196	20.134	11.349	0.478
491.500	322.979	80.011	19.995	103.177	20.133	11.442	0.477
492.000	323.226	80.009	19.995	103.162	20.134	11.349	0.489
492.500	323.509	80.008	19.995	103.142	20.138	11.108	0.512
493.000	323.709	80.009	19.995	103.126	20.139	10.988	0.507
493.500	324.032	80.007	19.996	103.112	20.142	10.829	0.503
494.000	324.227	80.007	19.995	103.100	20.141	10.844	0.520
494.500	324.513	80.006	19.994	103.084	20.141	10.851	0.500
495.000	324.728	80.006	19.995	103.074	20.143	10.715	0.491
495.500	324.952	80.006	19.995	103.065	20.146	10.525	0.470
496.000	325.216	80.007	19.994	103.053	20.151	10.186	0.463
496.500	325.496	80.005	19.994	103.042	20.147	10.426	0.516
497.000	325.720	80.007	19.995	103.035	20.153	10.057	0.524
497.500	325.971	80.009	19.995	103.027	20.151	10.176	0.490
498.000	326.213	80.006	19.993	103.020	20.154	9.943	0.484
498.500	326.490	80.007	19.995	103.016	20.152	10.081	0.506
499.000	326.712	80.006	19.994	103.009	20.157	9.762	0.509
499.500	326.989	80.005	19.995	103.001	20.157	9.766	0.499
500.000	327.230	80.005	19.994	102.994	20.155	9.900	0.509
500.500	327.470	80.004	19.995	102.987	20.155	9.879	0.500
501.000	327.694	80.005	19.993	102.981	20.160	9.534	0.472
501.500	327.943	80.002	19.994	102.980	20.160	9.561	0.468
502.000	328.212	80.004	19.994	102.980	20.164	9.264	0.496
502.500	328.448	80.006	19.994	102.980	20.163	9.373	0.512
503.001	328.711	80.004	19.995	102.979	20.164	9.294	0.502
503.500	328.918	80.005	19.994	102.980	20.165	9.168	0.485
504.000	329.203	80.007	19.994	102.982	20.168	8.985	0.481
504.500	329.440	80.002	19.994	102.984	20.162	9.390	0.507
505.000	329.696	80.004	19.994	102.987	20.166	9.122	0.507
505.500	329.963	80.005	19.994	102.994	20.165	9.203	0.508
506.000	330.235	80.003	19.995	103.002	20.164	9.298	0.531
506.500	330.424	80.005	19.995	103.008	20.158	9.667	0.500
507.000	330.701	80.005	19.995	103.014	20.163	9.378	0.464
507.500	330.946	80.005	19.994	103.019	20.163	9.352	0.494
508.000	331.183	80.005	19.994	103.022	20.161	9.509	0.502
508.500	331.419	80.005	19.994	103.029	20.160	9.546	0.477
509.000	331.708	80.004	19.994	103.037	20.162	9.455	0.499
509.500	331.956	80.005	19.994	103.046	20.162	9.431	0.531
510.000	332.146	80.006	19.994	103.054	20.163	9.352	0.487
510.500	332.490	80.004	19.995	103.060	20.161	9.523	0.486
511.000	332.710	80.006	19.994	103.063	20.157	9.754	0.549
511.500	332.969	80.007	19.994	103.069	20.159	9.631	0.521
512.000	333.207	80.007	19.994	103.075	20.159	9.657	0.488
512.500	333.492	80.004	19.993	103.084	20.159	9.627	0.510
513.000	333.707	80.005	19.994	103.095	20.157	9.804	0.512
513.500	333.946	80.006	19.994	103.109	20.158	9.701	0.477
514.000	334.230	80.005	19.994	103.120	20.153	10.082	0.489
514.500	334.510	80.005	19.994	103.137	20.152	10.122	0.543
515.000	334.714	80.005	19.994	103.151	20.155	9.890	0.524
515.500	335.013	80.005	19.994	103.164	20.150	10.270	0.494
516.000	335.231	80.005	19.994	103.172	20.152	10.130	0.510
516.500	335.447	80.006	19.995	103.180	20.147	10.457	0.475
517.000	335.713	80.006	19.993	103.186	20.152	10.158	0.458
517.500	335.966	80.004	19.994	103.194	20.146	10.540	0.501
518.000	336.238	80.005	19.994	103.202	20.149	10.314	0.522
518.500	336.495	80.005	19.994	103.210	20.147	10.511	0.527
519.000	336.746	80.005	19.994	103.218	20.147	10.464	0.518
519.500	336.992	80.005	19.995	103.224	20.145	10.594	0.503
520.000	337.174	80.005	19.994	103.231	20.146	10.555	0.463
520.500	337.464	80.006	19.994	103.239	20.145	10.651	0.450
521.000	337.730	80.006	19.995	103.249	20.146	10.557	0.514
521.500	337.952	80.006	19.993	103.262	20.146	10.576	0.522
522.000	338.212	80.004	19.994	103.274	20.146	10.567	0.485
522.500	338.506	80.004	19.994	103.282	20.143	10.748	0.518
523.000	338.714	80.005	19.994	103.290	20.147	10.507	0.528
523.500	338.970	80.004	19.994	103.296	20.146	10.581	0.483
524.000	339.240	80.005	19.994	103.296	20.145	10.606	0.495
524.500	339.463	80.006	19.994	103.296	20.146	10.572	0.509
525.000	339.701	80.004	19.994	103.297	20.141	10.923	0.477
525.500	339.925	80.006	19.995	103.298	20.144	10.674	0.462
526.000	340.239	80.003	19.994	103.301	20.144	10.724	0.500
526.500	340.461	80.004	19.994	103.309	20.145	10.628	0.537
527.000	340.711	80.003	19.994	103.317	20.146	10.582	0.504
527.500	340.967	80.005	19.994	103.327	20.144	10.669	0.489
528.000	341.177	80.006	19.993	103.335	20.150	10.311	0.486
528.500	341.415	80.004	19.993	103.341	20.146	10.544	0.458
529.000	341.675	80.005	19.994	103.347	20.143	10.752	0.473
529.500	341.919	80.004	19.994	103.354	20.144	10.728	0.501
530.000	342.211	80.004	19.994	103.359	20.141	10.900	0.520
530.500	342.433	80.004	19.994	103.367	20.145	10.663	0.525
531.000	342.681	80.004	19.993	103.372	20.140	11.016	0.492
531.500	342.937	80.004	19.993	103.375	20.148	10.415	0.487
532.000	343.171	80.004	19.994	103.374	20.144	10.708	0.497
532.500	343.418	80.005	19.993	103.375	20.145	10.662	0.486
533.000	343.667	80.006	19.993	103.374	20.146	10.585	0.489
533.500	343.912	80.004	19.993	103.381	20.146	10.549	0.495
534.000	344.165	80.005	19.993	103.384	20.149	10.347	0.496
534.500	344.430	80.004	19.994	103.385	20.150	10.312	0.508
535.000	344.670	80.004	19.994	103.386	20.149	10.333	0.511
535.500	344.929	80.004	19.993	103.393	20.150	10.273	0.502
536.000	345.185	80.006	19.993	103.393	20.154	9.978	0.508
536.500	345.408	80.005	19.994	103.393	20.155	9.923	0.497
537.000	345.649	80.005	19.994	103.399	20.152	10.159	0.471
537.500	345.909	80.006	19.994	103.400	20.153	10.086	0.482
538.000	346.207	80.006	19.993	103.395	20.151	10.184	0.529
538.500	346.433	80.005	19.994	103.390	20.154	10.014	0.541
539.000	346.706	80.003	19.993	103.394	20.153	10.096	0.511
539.500	346.915	80.004	19.993	103.395	20.156	9.850	0.490
540.000	347.192	80.006	19.993	103.399	20.159	9.640	0.484
540.500	347.441	80.004	19.993	103.402	20.157	9.803	0.506
541.000	347.677	80.005	19.995	103.405	20.157	9.805	0.505
541.500	347.936	80.005	19.994	103.405	20.161	9.532	0.490
542.000	348.182	80.006	19.994	103.405	20.158	9.688	0.500
542.500	348.415	80.005	19.994	103.405	20.162	9.461	0.492
543.000	348.639	80.003	19.994	103.409	20.161	9.490	0.468
543.500	348.902	80.008	19.994	103.409	20.162	9.404	0.472
544.000	349.150	80.007	19.994	103.409	20.162	9.442	0.499
544.500	349.415	80.008	19.993	103.409	20.166	9.148	0.512
545.000	349.664	80.006	19.994	103.408	20.166	9.170	0.513
545.500	349.905	80.006	19.994	103.406	20.165	9.206	0.502
546.000	350.162	80.005	19.994	103.403	20.165	9.217	0.495
546.500	350.422	80.006	19.994	103.399	20.166	9.162	0.508
547.000	350.655	80.008	19.994	103.400	20.166	9.148	0.505
547.500	350.905	80.006	19.994	103.400	20.166	9.131	0.488
548.000	351.150	80.009	19.995	103.399	20.172	8.761	0.489
548.500	351.420	80.005	19.993	103.398	20.171	8.833	0.505
549.000	351.661	80.008	19.994	103.398	20.171	8.825	0.513
549.500	351.917	80.007	19.994	103.397	20.168	9.010	0.504
550.000	352.162	80.007	19.994	103.397	20.170	8.846	0.499
550.500	352.438	80.009	19.994	103.400	20.174	8.605	0.511
551.000	352.724	80.008	19.995	103.402	20.171	8.804	0.542
551.500	352.962	80.006	19.994	103.405	20.173	8.674	0.543
552.000	353.182	80.006	19.995	103.405	20.174	8.569	0.491
552.500	353.416	80.006	19.995	103.404	20.169	8.928	0.456
553.000	353.674	80.003	19.996	103.401	20.172	8.760	0.473
553.500	353.925	80.007	19.996	103.401	20.174	8.581	0.501
554.000	354.182	80.006	19.995	103.401	20.179	8.268	0.508
554.500	354.491	80.006	19.995	103.401	20.178	8.323	0.537
555.000	354.717	80.007	19.994	103.403	20.181	8.115	0.551
555.500	354.962	80.003	19.995	103.405	20.180	8.137	0.503
556.000	355.210	80.005	19.994	103.407	20.180	8.149	0.482
556.500	355.442	80.005	19.995	103.405	20.178	8.316	0.487
557.000	355.689	80.005	19.995	103.405	20.179	8.253	0.480
557.500	355.912	80.004	19.994	103.405	20.178	8.345	0.475
558.000	356.176	80.004	19.995	103.404	20.182	8.010	0.479
558.500	356.419	80.006	19.995	103.405	20.181	8.077	0.497
559.000	356.691	80.007	19.995	103.404	20.184	7.863	0.511
559.500	356.929	80.006	19.994	103.400	20.181	8.123	0.512
560.000	357.212	80.003	19.994	103.396	20.184	7.905	0.515
560.500	357.417	80.005	19.994	103.393	20.182	8.057	0.505
561.000	357.717	80.008	19.993	103.390	20.184	7.897	0.497
561.500	357.894	80.008	19.994	103.389	20.183	7.928	0.491
562.000	358.174	80.004	19.995	103.388	20.184	7.897	0.467
562.500	358.418	80.008	19.995	103.386	20.187	7.662	0.490
563.000	358.680	80.007	19.994	103.387	20.187	7.661	0.515
563.500	358.930	80.003	19.995	103.391	20.189	7.512	0.509
564.000	359.223	80.007	19.993	103.392	20.189	7.519	0.528
564.500	359.456	80.007	19.994	103.396	20.193	7.288	0.534
565.000	359.724	80.008	19.995	103.398	20.188	7.631	0.513
565.500	359.926	80.008	19.994	103.395	20.187	7.665	0.485
566.000	360.216	80.007	19.996	103.388	20.193	7.284	0.480
566.500	360.447	80.006	19.994	103.382	20.189	7.536	0.506
567.000	360.638	80.008	19.994	103.381	20.190	7.476	0.472
567.500	360.914	80.008	19.994	103.379	20.191	7.429	0.444
568.000	361.172	80.006	19.995	103.380	20.193	7.290	0.500
568.500	361.468	80.005	19.993	103.384	20.195	7.085	0.544
569.000	361.690	80.006	19.994	103.388	20.189	7.511	0.536
569.500	361.952	80.006	19.993	103.389	20.197	6.956	0.501
570.000	362.189	80.005	19.994	103.392	20.189	7.538	0.491
570.500	362.447	80.007	19.994	103.392	20.191	7.374	0.497
571.000	362.701	80.006	19.994	103.388	20.191	7.425	0.504
571.500	362.943	80.007	19.994	103.385	20.193	7.227	0.504
572.000	363.208	80.006	19.995	103.382	20.192	7.335	0.501
572.500	363.426	80.008	19.994	103.383	20.195	7.139	0.495
573.000	363.716	80.007	19.995	103.383	20.191	7.367	0.496
573.500	363.931	80.007	19.994	103.384	20.198	6.927	0.506
574.000	364.204	80.006	19.994	103.384	20.196	7.043	0.497
574.500	364.435	80.006	19.995	103.381	20.194	7.159	0.496
575.000	364.702	80.007	19.995	103.374	20.194	7.159	0.501
575.500	364.983	80.006	19.995	103.371	20.196	7.060	0.523
576.001	365.226	80.005	19.994	103.370	20.196	7.054	0.536
576.500	365.444	80.005	19.995	103.370	20.197	6.984	0.493
577.000	365.731	80.005	19.995	103.370	20.195	7.110	0.483
577.500	366.002	80.006	19.995	103.370	20.197	6.953	0.531
578.000	366.230	80.005	19.996	103.371	20.196	7.029	0.528
578.500	366.476	80.006	19.995	103.371	20.194	7.166	0.487
579.000	366.739	80.002	19.995	103.370	20.198	6.924	0.491
579.500	366.984	80.003	19.995	103.371	20.195	7.098	0.509
580.000	367.248	80.003	19.995	103.371	20.196	7.077	0.509
580.500	367.479	80.004	19.996	103.372	20.199	6.850	0.501
581.000	367.763	80.004	19.996	103.372	20.197	6.983	0.505
581.500	368.022	80.004	19.996	103.372	20.197	6.999	0.529
582.000	368.249	80.004	19.996	103.372	20.200	6.756	0.515
582.500	368.528	80.005	19.995	103.372	20.200	6.781	0.496
583.000	368.762	80.000	19.995	103.370	20.200	6.790	0.510
583.500	368.997	80.004	19.996	103.368	20.195	7.087	0.491
584.000	369.234	80.004	19.995	103.366	20.202	6.651	0.471
584.500	369.529	80.005	19.995	103.365	20.196	7.009	0.502
585.000	369.738	80.003	19.995	103.365	20.195	7.085	0.518
585.500	370.002	80.005	19.995	103.360	20.201	6.712	0.489
586.000	370.261	80.003	19.995	103.358	20.199	6.813	0.498
586.500	370.493	80.004	19.994	103.359	20.197	6.965	0.507
587.000	370.768	80.005	19.996	103.360	20.196	7.022	0.499
587.500	370.999	80.005	19.995	103.359	20.199	6.835	0.507
588.000	371.241	80.004	19.994	103.360	20.200	6.765	0.490
588.500	371.503	80.006	19.995	103.361	20.200	6.732	0.488
589.000	371.769	80.005	19.995	103.356	20.196	7.033	0.516
589.500	372.026	80.004	19.996	103.351	20.197	6.946	0.526
590.000	372.218	80.003	19.994	103.351	20.201	6.698	0.486
590.500	372.536	80.005	19.994	103.356	20.196	7.020	0.479
591.000	372.761	80.003	19.994	103.355	20.200	6.778	0.527
591.500	373.029	80.006	19.994	103.356	20.201	6.698	0.518
592.000	373.259	80.000	19.994	103.357	20.200	6.755	0.495
592.500	373.541	80.005	19.993	103.354	20.202	6.591	0.505
593.000	373.769	80.005	19.994	103.349	20.199	6.862	0.511
593.500	374.038	80.005	19.993	103.348	20.204	6.496	0.504
594.000	374.292	80.004	19.994	103.346	20.201	6.660	0.510
594.500	374.557	80.006	19.994	103.344	20.205	6.423	0.521
595.000	374.744	80.004	19.994	103.343	20.199	6.856	0.485
595.500	375.034	80.004	19.994	103.343	20.207	6.284	0.465
596.000	375.290	80.005	19.993	103.340	20.207	6.250	0.511
596.500	375.512	80.004	19.994	103.340	20.193	7.237	0.511
597.000	375.731	80.005	19.994	103.342	20.200	6.741	0.459
597.500	376.040	80.004	19.993	103.341	20.205	6.389	0.484
598.000	376.249	80.004	19.994	103.339	20.200	6.774	0.523
598.500	376.541	80.004	19.994	103.339	20.196	7.033	0.510
599.000	376.723	80.006	19.994	103.338	20.203	6.536	0.488
599.500	377.058	80.004	19.993	103.335	20.205	6.438	0.495
600.000	377.268	80.005	19.994	103.335	20.207	6.280	0.530
600.500	377.542	80.006	19.993	103.335	20.201	6.667	0.515
601.000	377.714	80.003	19.995	103.335	20.205	6.423	0.465
601.500	378.033	80.006	19.994	103.335	20.204	6.451	0.468
602.000	378.276	80.005	19.995	103.334	20.201	6.716	0.526
602.500	378.524	80.006	19.994	103.334	20.205	6.438	0.527
603.000	378.761	80.001	19.993	103.333	20.204	6.513	0.488
603.500	379.023	80.003	19.994	103.331	20.204	6.467	0.492
604.000	379.200	80.005	19.995	103.331	20.206	6.372	0.469
604.500	379.496	80.007	19.992	103.332	20.203	6.536	0.456
605.000	379.730	80.007	19.994	103.331	20.208	6.234	0.501
605.500	379.957	80.004	19.993	103.332	20.201	6.659	0.495
606.000	380.310	80.005	19.995	103.333	20.205	6.379	0.520
606.500	380.525	80.006	19.993	103.332	20.208	6.169	0.574
607.000	380.697	80.006	19.994	103.332	20.205	6.413	0.478
607.500	381.081	80.004	19.995	103.330	20.204	6.470	0.472
608.000	381.336	80.006	19.995	103.330	20.204	6.488	0.597
608.500	381.319	80.005	19.994	103.329	20.207	6.282	0.438
609.001	381.569	80.006	19.995	103.329	20.204	6.473	0.235
609.500	382.359	80.006	19.995	103.329	20.202	6.593	0.636
610.000	382.113	80.004	19.995	103.330	20.209	6.150	0.792
610.500	382.362	80.006	19.995	103.330	20.206	6.347	0.273
611.000	382.890	80.006	19.994	103.329	20.207	6.255	0.390
611.500	383.204	80.004	19.995	103.329	20.205	6.408	0.810
612.000	383.000	80.002	19.994	103.325	20.201	6.701	0.476
612.500	383.482	80.006	19.993	103.325	20.205	6.387	0.194
613.000	383.927	80.005	19.995	103.325	20.207	6.246	0.603
613.500	384.349	80.007	19.994	103.327	20.210	6.085	0.897
614.000	384.546	80.007	19.994	103.327	20.204	6.448	0.743
614.500	384.574	80.005	19.995	103.330	20.206	6.322	0.422
615.000	384.736	80.005	19.995	103.330	20.208	6.181	0.208
615.500	385.033	80.006	19.994	103.330	20.208	6.234	0.325
616.000	385.230	80.006	19.994	103.330	20.208	6.207	0.476
616.500	385.353	80.006	19.994	103.329	20.209	6.157	0.407
617.000	385.772	80.005	19.994	103.324	20.209	6.094	0.431
617.500	386.034	80.004	19.995	103.323	20.207	6.275	0.611
618.000	386.233	80.007	19.996	103.324	20.209	6.110	0.570
618.500	386.386	80.005	19.994	103.324	20.212	5.921	0.406
619.000	386.808	80.004	19.995	103.325	20.210	6.075	0.464
619.500	386.906	80.007	19.994	103.331	20.211	6.014	0.548
620.000	387.245	80.005	19.994	103.332	20.208	6.170	0.478
620.500	387.474	80.007	19.995	103.330	20.210	6.061	0.503
621.000	387.712	80.009	19.994	103.329	20.210	6.052	0.518
621.500	387.969	80.006	19.994	103.327	20.210	6.073	0.481
622.000	388.244	80.005	19.994	103.326	20.207	6.284	0.514
622.500	388.481	80.007	19.994	103.326	20.214	5.808	0.522
623.000	388.776	80.007	19.993	103.326	20.208	6.176	0.522
623.500	388.982	80.007	19.994	103.326	20.211	6.006	0.516
624.000	389.211	80.008	19.994	103.327	20.211	5.956	0.468
624.500	389.485	80.005	19.994	103.328	20.209	6.152	0.469
625.000	389.742	80.009	19.994	103.328	20.212	5.920	0.517
625.500	389.983	80.006	19.995	103.326	20.207	6.270	0.515
626.000	390.213	80.007	19.993	103.327	20.209	6.112	0.485
626.500	390.402	80.006	19.994	103.326	20.210	6.047	0.445
627.000	390.721	80.006	19.993	103.323	20.213	5.838	0.463
627.500	390.975	80.007	19.994	103.317	20.210	6.089	0.540
628.000	391.210	80.006	19.995	103.316	20.211	5.985	0.531
628.500	391.442	80.005	19.994	103.316	20.214	5.802	0.478
629.000	391.705	80.006	19.994	103.317	20.207	6.259	0.481
629.500	391.908	80.005	19.994	103.316	20.210	6.092	0.481
630.000	392.242	80.010	19.993	103.317	20.210	6.076	0.502
630.500	392.410	80.007	19.993	103.316	20.209	6.148	0.520
631.000	392.679	80.006	19.994	103.311	20.208	6.232	0.470
631.500	392.990	80.007	19.995	103.304	20.210	6.053	0.509
632.000	393.225	80.005	19.994	103.305	20.211	6.021	0.563
632.500	393.435	80.006	19.993	103.307	20.216	5.657	0.496
633.000	393.724	80.002	19.994	103.304	20.214	5.794	0.472
633.500	393.995	80.003	19.995	103.305	20.212	5.909	0.529
634.000	394.218	80.006	19.995	103.309	20.208	6.216	0.527
634.500	394.490	80.003	19.994	103.304	20.210	6.037	0.495
635.000	394.753	80.004	19.994	103.301	20.215	5.726	0.515
635.500	394.984	80.005	19.994	103.300	20.212	5.947	0.515
636.000	395.224	80.006	19.993	103.298	20.212	5.928	0.482
636.500	395.488	80.006	19.995	103.293	20.214	5.810	0.487
637.000	395.691	80.008	19.994	103.294	20.216	5.642	0.485
637.500	395.994	80.005	19.994	103.297	20.216	5.607	0.486
638.000	396.254	80.007	19.995	103.297	20.210	6.051	0.534
638.500	396.491	80.006	19.995	103.298	20.215	5.695	0.530
639.000	396.721	80.003	19.994	103.301	20.213	5.846	0.482
639.500	396.955	80.007	19.994	103.303	20.214	5.800	0.465
640.000	397.225	80.005	19.994	103.301	20.214	5.770	0.484
640.500	397.502	80.006	19.994	103.301	20.212	5.907	0.525
641.000	397.702	80.005	19.995	103.300	20.217	5.576	0.512
641.500	397.998	80.004	19.994	103.297	20.213	5.859	0.487
642.000	398.232	80.006	19.995	103.294	20.215	5.718	0.513
642.500	398.463	80.006	19.994	103.294	20.214	5.796	0.498
643.000	398.715	80.005	19.994	103.295	20.216	5.619	0.474
643.500	398.932	80.006	19.994	103.297	20.219	5.419	0.476
644.000	399.236	80.006	19.994	103.301	20.214	5.769	0.495
644.500	399.447	80.006	19.995	103.302	20.215	5.680	0.518
645.000	399.710	80.003	19.994	103.303	20.215	5.700	0.494
645.500	399.958	80.004	19.994	103.306	20.214	5.786	0.492
646.000	400.233	80.005	19.994	103.309	20.218	5.483	0.518
646.500	400.510	80.005	19.995	103.307	20.219	5.411	0.538
647.000	400.742	80.007	19.994	103.309	20.215	5.737	0.530
647.500	400.980	80.003	19.994	103.308	20.218	5.476	0.489
648.000	401.249	80.007	19.993	103.304	20.214	5.767	0.488
648.500	401.452	80.007	19.994	103.299	20.210	6.030	0.489
649.000	401.746	80.007	19.994	103.297	20.215	5.722	0.485
649.500	401.965	80.007	19.994	103.294	20.216	5.649	0.506
650.000	402.223	80.009	19.994	103.299	20.215	5.683	0.495
650.500	402.459	80.008	19.994	103.302	20.212	5.935	0.485
651.000	402.714	80.007	19.994	103.306	20.215	5.725	0.492
651.500	402.999	80.007	19.995	103.311	20.219	5.407	0.516
652.000	403.200	80.009	19.994	103.312	20.218	5.470	0.513
652.500	403.499	80.010	19.993	103.307	20.213	5.828	0.493
653.000	403.753	80.007	19.994	103.306	20.218	5.476	0.526
653.500	404.009	80.008	19.994	103.305	20.217	5.556	0.532
654.000	404.247	80.008	19.994	103.301	20.214	5.810	0.502
654.500	404.498	80.007	19.995	103.300	20.215	5.718	0.492
655.000	404.714	80.008	19.994	103.299	20.216	5.640	0.478
655.500	405.032	80.007	19.994	103.298	20.217	5.546	0.500
656.000	405.238	80.008	19.994	103.295	20.217	5.578	0.529
656.500	405.519	80.006	19.994	103.296	20.218	5.519	0.505
657.000	405.770	80.006	19.993	103.295	20.218	5.468	0.509
657.500	406.005	80.008	19.995	103.296	20.216	5.649	0.509
658.000	406.295	80.006	19.993	103.295	20.219	5.424	0.505
658.500	406.513	80.006	19.994	103.295	20.215	5.731	0.516
659.000	406.785	80.004	19.993	103.296	20.214	5.752	0.499
659.500	406.996	80.004	19.994	103.296	20.216	5.670	0.487
660.000	407.249	80.004	19.995	103.298	20.212	5.889	0.473
660.500	407.511	80.004	19.993	103.298	20.213	5.857	0.489
661.000	407.768	80.002	19.995	103.298	20.212	5.918	0.518
661.501	408.008	80.007	19.995	103.298	20.212	5.912	0.509
662.000	408.276	80.002	19.994	103.298	20.213	5.841	0.502
662.500	408.508	80.003	19.995	103.296	20.210	6.026	0.504
663.000	408.733	80.003	19.994	103.298	20.215	5.740	0.478
663.500	409.025	80.002	19.995	103.299	20.213	5.832	0.487
664.000	409.253	80.005	19.995	103.303	20.216	5.614	0.518
664.500	409.541	80.003	19.994	103.304	20.214	5.782	0.518
665.000	409.793	80.006	19.995	103.303	20.215	5.713	0.528
665.500	410.020	80.002	19.996	103.299	20.215	5.702	0.510
666.000	410.265	80.003	19.996	103.297	20.218	5.486	0.476
666.500	410.561	80.004	19.994	103.292	20.216	5.616	0.506
667.000	410.829	80.003	19.995	103.291	20.215	5.727	0.552
667.501	411.055	80.007	19.996	103.291	20.219	5.426	0.529
668.000	411.309	80.003	19.994	103.293	20.221	5.290	0.487
668.500	411.565	80.004	19.995	103.293	20.219	5.439	0.495
669.000	411.835	80.004	19.995	103.293	20.217	5.536	0.518
669.500	412.060	80.003	19.995	103.293	20.215	5.737	0.510
670.000	412.304	80.003	19.995	103.292	20.214	5.792	0.482
670.500	412.600	80.003	19.995	103.293	20.217	5.583	0.504
671.000	412.861	80.004	19.995	103.294	20.219	5.417	0.548
671.500	413.088	80.005	19.995	103.293	20.216	5.657	0.523
672.000	413.316	80.005	19.995	103.292	20.215	5.674	0.472
672.500	413.601	80.005	19.996	103.292	20.218	5.478	0.484
673.000	413.814	80.005	19.995	103.290	20.218	5.462	0.506
673.500	414.056	80.003	19.995	103.289	20.218	5.504	0.477
674.000	414.292	80.004	19.997	103.289	20.217	5.573	0.466
674.500	414.538	80.005	19.995	103.289	20.220	5.367	0.480
675.000	414.802	80.003	19.995	103.287	20.214	5.805	0.496
675.500	415.066	80.003	19.995	103.285	20.215	5.696	0.518
676.000	415.287	80.005	19.995	103.284	20.213	5.828	0.506
676.500	415.579	80.004	19.994	103.284	20.215	5.691	0.499
677.000	415.841	80.003	19.995	103.285	20.214	5.792	0.534
677.500	416.100	80.003	19.994	103.287	20.218	5.523	0.538
678.000	416.335	80.006	19.995	103.289	20.215	5.677	0.507
678.500	416.557	80.005	19.994	103.288	20.214	5.805	0.476
679.000	416.857	80.004	19.996	103.286	20.212	5.898	0.489
679.500	417.112	80.005	19.995	103.284	20.217	5.565	0.538
680.000	417.392	80.005	19.995	103.277	20.216	5.662	0.545
680.501	417.608	80.005	19.995	103.270	20.217	5.594	0.515
681.000	417.884	80.004	19.995	103.265	20.214	5.778	0.494
681.500	418.112	80.007	19.995	103.264	20.212	5.929	0.498
682.000	418.377	80.006	19.995	103.259	20.212	5.944	0.498
682.500	418.655	80.006	19.995	103.259	20.210	6.030	0.518
683.000	418.888	80.004	19.994	103.261	20.209	6.137	0.528
683.501	419.143	80.005	19.994	103.262	20.210	6.022	0.500
684.000	419.353	80.004	19.994	103.258	20.216	5.668	0.476
684.500	419.623	80.006	19.995	103.257	20.214	5.763	0.472
685.000	419.919	80.004	19.994	103.256	20.214	5.780	0.523
685.500	420.159	80.004	19.994	103.255	20.209	6.150	0.551
686.000	420.397	80.004	19.993	103.255	20.214	5.792	0.507
686.500	420.640	80.005	19.995	103.255	20.211	6.020	0.479
687.000	420.898	80.006	19.994	103.255	20.211	5.969	0.491
687.500	421.162	80.006	19.994	103.255	20.208	6.182	0.512
688.000	421.403	80.007	19.993	103.257	20.211	5.963	0.514
688.500	421.617	80.005	19.995	103.256	20.212	5.942	0.480
689.000	421.873	80.005	19.994	103.255	20.210	6.074	0.462
689.500	422.122	80.005	19.995	103.255	20.213	5.837	0.487
690.001	422.392	80.007	19.994	103.257	20.211	5.967	0.512
690.500	422.640	80.005	19.996	103.256	20.210	6.030	0.519
691.000	422.906	80.005	19.994	103.256	20.208	6.216	0.516
691.500	423.158	80.004	19.996	103.259	20.207	6.264	0.516
692.000	423.397	80.004	19.995	103.259	20.208	6.192	0.505
692.500	423.670	80.004	19.993	103.259	20.211	6.016	0.502
693.000	423.885	80.004	19.993	103.258	20.207	6.234	0.500
693.500	424.179	80.004	19.994	103.258	20.209	6.129	0.498
694.000	424.424	80.002	19.994	103.256	20.208	6.218	0.524
694.500	424.690	80.007	19.995	103.256	20.207	6.293	0.525
695.000	424.896	80.005	19.994	103.254	20.209	6.142	0.491
695.500	425.150	80.004	19.995	103.254	20.209	6.144	0.466
696.000	425.396	80.003	19.994	103.253	20.207	6.251	0.481
696.500	425.651	80.006	19.995	103.253	20.207	6.297	0.501
697.000	425.921	80.003	19.994	103.253	20.208	6.230	0.513
697.500	426.139	80.003	19.994	103.254	20.208	6.222	0.507
698.000	426.431	80.004	19.995	103.257	20.205	6.400	0.499
698.500	426.687	80.005	19.995	103.257	20.207	6.295	0.528
699.000	426.927	80.004	19.996	103.258	20.204	6.476	0.522
699.500	427.192	80.004	19.995	103.258	20.202	6.630	0.501
700.000	427.424	80.005	19.994	103.258	20.208	6.175	0.501
700.501	427.678	80.004	19.994	103.255	20.204	6.468	0.491
701.000	427.952	80.004	19.994	103.255	20.205	6.384	0.507
701.500	428.194	80.005	19.995	103.254	20.204	6.476	0.522
702.000	428.474	80.005	19.995	103.255	20.204	6.478	0.520
702.500	428.705	80.006	19.993	103.254	20.204	6.508	0.517
703.000	428.937	80.006	19.994	103.254	20.202	6.592	0.487
703.500	429.229	80.007	19.995	103.255	20.202	6.596	0.493
704.001	429.476	80.007	19.995	103.255	20.206	6.360	0.531
704.501	429.738	80.006	19.993	103.255	20.200	6.756	0.524
705.000	430.004	80.006	19.994	103.255	20.200	6.781	0.518
705.500	430.211	80.006	19.994	103.255	20.198	6.867	0.500
706.000	430.514	80.005	19.994	103.255	20.201	6.685	0.492
706.500	430.709	80.006	19.995	103.257	20.199	6.830	0.504
707.000	430.989	80.005	19.994	103.257	20.202	6.641	0.486
707.500	431.235	80.006	19.993	103.257	20.197	6.975	0.500
708.000	431.495	80.008	19.994	103.257	20.198	6.881	0.516
708.500	431.739	80.007	19.994	103.259	20.200	6.727	0.505
709.001	432.006	80.006	19.995	103.258	20.201	6.693	0.507
709.501	432.307	80.006	19.994	103.259	20.198	6.885	0.539
710.000	432.515	80.006	19.994	103.259	20.197	6.978	0.539
710.500	432.765	80.007	19.993	103.259	20.197	6.999	0.484
711.000	432.986	80.007	19.994	103.258	20.199	6.860	0.465
711.500	433.276	80.008	19.995	103.257	20.195	7.129	0.491
712.000	433.541	80.006	19.994	103.256	20.198	6.893	0.533
712.500	433.804	80.005	19.994	103.256	20.194	7.190	0.542
713.000	434.073	80.006	19.994	103.256	20.198	6.917	0.530
713.500	434.329	80.007	19.993	103.256	20.197	6.970	0.528
714.000	434.559	80.007	19.995	103.257	20.196	7.008	0.505
714.500	434.827	80.007	19.994	103.259	20.195	7.136	0.492
715.000	435.090	80.008	19.993	103.260	20.195	7.100	0.514
715.500	435.347	80.007	19.994	103.261	20.193	7.264	0.526
716.000	435.582	80.009	19.993	103.262	20.192	7.304	0.506
716.500	435.833	80.004	19.994	103.261	20.187	7.658	0.489
717.000	436.079	80.006	19.995	103.259	20.195	7.087	0.492
717.500	436.324	80.006	19.993	103.258	20.190	7.476	0.494
718.000	436.584	80.008	19.995	103.256	20.190	7.475	0.498
718.500	436.818	80.005	19.993	103.256	20.191	7.403	0.500
719.000	437.098	80.006	19.994	103.256	20.192	7.287	0.504
719.500	437.339	80.003	19.996	103.257	20.190	7.443	0.517
720.000	437.628	80.005	19.994	103.255	20.190	7.488	0.525
720.500	437.860	80.006	19.993	103.252	20.188	7.578	0.526
721.000	438.096	80.007	19.994	103.251	20.188	7.572	0.495
721.500	438.360	80.006	19.993	103.252	20.189	7.534	0.484
722.000	438.613	80.006	19.995	103.252	20.189	7.502	0.509
722.500	438.879	80.006	19.994	103.254	20.184	7.912	0.518
723.001	439.127	80.004	19.994	103.255	20.186	7.706	0.516
723.501	439.375	80.004	19.994	103.254	20.186	7.759	0.505
724.001	439.653	80.005	19.993	103.248	20.184	7.860	0.511
724.500	439.873	80.002	19.994	103.246	20.186	7.734	0.512
725.000	440.139	80.008	19.994	103.244	20.186	7.774	0.492
725.501	440.391	80.005	19.994	103.241	20.182	7.989	0.502
726.000	440.641	80.008	19.993	103.242	20.180	8.176	0.510
726.500	440.894	80.006	19.993	103.247	20.179	8.212	0.502
727.000	441.163	80.008	19.994	103.250	20.181	8.056	0.512
727.500	441.419	80.005	19.994	103.252	20.180	8.188	0.524
728.000	441.673	80.009	19.993	103.256	20.177	8.390	0.518
728.500	441.925	80.007	19.993	103.254	20.177	8.388	0.508
729.000	442.155	80.007	19.994	103.251	20.178	8.284	0.494
729.500	442.382	80.007	19.994	103.250	20.178	8.301	0.470
730.000	442.654	80.008	19.994	103.248	20.176	8.453	0.478
730.500	442.921	80.007	19.993	103.248	20.173	8.641	0.519
731.000	443.167	80.008	19.995	103.244	20.174	8.559	0.526
731.500	443.427	80.008	19.994	103.244	20.174	8.606	0.509
732.000	443.664	80.007	19.994	103.246	20.174	8.608	0.501
732.500	443.917	80.007	19.994	103.245	20.172	8.708	0.494
733.000	444.167	80.007	19.994	103.245	20.171	8.767	0.497
733.501	444.415	80.008	19.994	103.250	20.169	8.898	0.500
734.000	444.678	80.007	19.994	103.252	20.169	8.936	0.505
734.500	444.950	80.007	19.996	103.249	20.168	8.975	0.523
735.000	445.160	80.006	19.994	103.250	20.167	9.072	0.508
735.500	445.416	80.006	19.995	103.248	20.171	8.767	0.474
736.000	445.682	80.008	19.995	103.244	20.169	8.958	0.494
736.500	445.905	80.007	19.994	103.243	20.164	9.285	0.505
737.000	446.170	80.008	19.995	103.245	20.166	9.118	0.489
737.500	446.421	80.005	19.994	103.245	20.168	9.026	0.502
738.000	446.691	80.006	19.994	103.247	20.162	9.395	0.518
738.500	446.933	80.007	19.994	103.251	20.164	9.266	0.517
739.000	447.171	80.006	19.995	103.250	20.164	9.315	0.496
739.500	447.426	80.006	19.994	103.246	20.158	9.729	0.486
740.000	447.703	80.003	19.994	103.240	20.162	9.431	0.512
740.500	447.909	80.002	19.994	103.235	20.161	9.494	0.507
741.000	448.180	80.004	19.995	103.228	20.161	9.463	0.480
741.500	448.490	80.004	19.995	103.226	20.158	9.689	0.529
742.000	448.721	80.006	19.994	103.229	20.158	9.737	0.561
742.500	448.981	80.004	19.995	103.235	20.160	9.530	0.516
743.000	449.201	80.002	19.995	103.240	20.160	9.549	0.486
743.500	449.485	80.006	19.995	103.248	20.155	9.921	0.492
744.000	449.707	80.005	19.995	103.250	20.156	9.824	0.505
744.500	449.959	80.003	19.994	103.249	20.156	9.811	0.490
745.000	450.213	80.002	19.995	103.249	20.155	9.930	0.490
745.500	450.476	80.005	19.994	103.249	20.154	10.014	0.512
746.000	450.726	80.006	19.995	103.249	20.153	10.047	0.515
746.500	450.982	80.006	19.994	103.250	20.151	10.207	0.509
747.000	451.230	80.006	19.994	103.253	20.149	10.327	0.505
747.500	451.511	80.005	19.995	103.253	20.148	10.390	0.516
748.000	451.750	80.007	19.995	103.251	20.153	10.023	0.525
748.500	452.004	80.005	19.994	103.249	20.148	10.371	0.507
749.000	452.241	80.005	19.995	103.246	20.151	10.186	0.492
749.500	452.504	80.006	19.994	103.245	20.151	10.187	0.495
750.000	452.752	80.005	19.994	103.245	20.149	10.357	0.505
750.500	453.032	80.004	19.994	103.246	20.153	10.083	0.520
751.000	453.276	80.006	19.995	103.242	20.146	10.577	0.526
751.500	453.507	80.005	19.994	103.237	20.144	10.673	0.499
752.000	453.775	80.004	19.994	103.235	20.146	10.519	0.487
752.500	454.044	80.004	19.995	103.232	20.144	10.656	0.518
753.000	454.289	80.005	19.994	103.233	20.142	10.826	0.526
753.500	454.572	80.006	19.994	103.238	20.140	10.993	0.521
754.000	454.797	80.005	19.994	103.244	20.146	10.519	0.518
754.500	455.072	80.004	19.994	103.246	20.140	10.948	0.505
755.000	455.322	80.004	19.994	103.249	20.147	10.504	0.512
755.500	455.558	80.005	19.994	103.246	20.141	10.914	0.505
756.000	455.840	80.004	19.995	103.244	20.137	11.175	0.502
756.500	456.111	80.006	19.995	103.245	20.137	11.173	0.535
757.000	456.342	80.006	19.995	103.246	20.138	11.131	0.527
757.500	456.600	80.006	19.995	103.246	20.143	10.780	0.496
758.000	456.817	80.004	19.995	103.247	20.138	11.121	0.482
758.500	457.100	80.005	19.995	103.244	20.135	11.313	0.487
759.000	457.361	80.006	19.995	103.238	20.138	11.115	0.522
759.500	457.609	80.006	19.994	103.232	20.134	11.372	0.526
760.000	457.845	80.006	19.995	103.225	20.134	11.393	0.496
760.500	458.137	80.003	19.995	103.222	20.137	11.203	0.506
761.000	458.376	80.004	19.996	103.226	20.133	11.487	0.530
761.500	458.615	80.002	19.995	103.232	20.134	11.398	0.505
762.000	458.906	80.003	19.996	103.235	20.132	11.540	0.504
762.500	459.147	80.004	19.995	103.241	20.131	11.592	0.531
763.000	459.426	80.006	19.995	103.244	20.133	11.458	0.526
763.500	459.704	80.002	19.995	103.244	20.127	11.851	0.538
764.000	459.939	80.006	19.996	103.244	20.129	11.733	0.535
764.500	460.203	80.006	19.995	103.245	20.129	11.706	0.506
765.000	460.416	80.004	19.995	103.247	20.128	11.801	0.488
765.500	460.703	80.005	19.994	103.248	20.133	11.449	0.488
766.000	460.925	80.004	19.996	103.249	20.130	11.684	0.505
766.500	461.218	80.005	19.995	103.250	20.126	11.960	0.512
767.000	461.435	80.006	19.996	103.252	20.126	11.926	0.512
767.500	461.734	80.001	19.995	103.252	20.129	11.710	0.513
768.000	461.992	80.004	19.995	103.249	20.128	11.787	0.536
768.500	462.240	80.004	19.995	103.247	20.128	11.800	0.532
769.000	462.512	80.006	19.996	103.242	20.126	11.981	0.513
769.500	462.748	80.004	19.995	103.239	20.126	11.979	0.514
770.000	463.020	80.006	19.996	103.238	20.124	12.053	0.508
770.500	463.221	80.003	19.995	103.241	20.127	11.842	0.491
771.000	463.508	80.003	19.995	103.242	20.124	12.122	0.481
771.500	463.742	80.004	19.995	103.243	20.126	11.951	0.504
772.000	464.011	80.004	19.994	103.243	20.124	12.081	0.512
772.500	464.261	80.004	19.995	103.237	20.125	12.014	0.511
773.000	464.494	80.006	19.996	103.230	20.123	12.141	0.501
773.500	464.786	80.004	19.995	103.229	20.123	12.137	0.505
774.000	464.981	80.003	19.994	103.228	20.125	12.046	0.507
774.500	465.244	80.005	19.995	103.229	20.123	12.143	0.473
775.000	465.481	80.004	19.994	103.232	20.124	12.061	0.479
775.500	465.753	80.003	19.995	103.233	20.123	12.145	0.505
776.000	466.029	80.004	19.995	103.230	20.125	12.013	0.529
776.500	466.285	80.007	19.993	103.226	20.129	11.756	0.540
777.000	466.511	80.004	19.995	103.222	20.126	11.937	0.507
777.500	466.791	80.005	19.993	103.219	20.126	11.968	0.494
778.000	467.005	80.006	19.995	103.218	20.125	12.050	0.500
778.500	467.300	80.005	19.995	103.218	20.129	11.747	0.502
779.000	467.538	80.004	19.993	103.218	20.122	12.219	0.521
779.500	467.840	80.006	19.995	103.218	20.124	12.055	0.536
780.000	468.080	80.006	19.994	103.218	20.126	11.912	0.541
780.500	468.292	80.005	19.994	103.217	20.127	11.891	0.497
781.000	468.567	80.007	19.995	103.219	20.127	11.872	0.469
781.500	468.856	80.005	19.995	103.222	20.125	12.038	0.525
782.001	469.042	80.007	19.996	103.223	20.120	12.377	0.520
782.500	469.316	80.005	19.996	103.223	20.126	11.973	0.467
783.000	469.604	80.005	19.995	103.226	20.126	11.960	0.511
783.500	469.874	80.008	19.994	103.225	20.122	12.259	0.560
784.000	470.077	80.008	19.994	103.222	20.122	12.209	0.515
784.500	470.354	80.007	19.995	103.221	20.129	11.731	0.477
785.000	470.583	80.007	19.994	103.222	20.126	11.929	0.493
785.500	470.846	80.004	19.995	103.219	20.130	11.674	0.499
786.000	471.127	80.006	19.995	103.219	20.126	11.927	0.518
786.500	471.359	80.007	19.995	103.218	20.130	11.651	0.528
787.000	471.604	80.004	19.994	103.218	20.130	11.692	0.495
787.500	471.839	80.006	19.994	103.218	20.128	11.801	0.479
788.000	472.106	80.006	19.994	103.217	20.130	11.684	0.491
788.500	472.360	80.004	19.994	103.219	20.134	11.389	0.511
789.000	472.605	80.007	19.994	103.219	20.133	11.454	0.510
789.500	472.881	80.006	19.993	103.219	20.130	11.663	0.510
790.000	473.133	80.007	19.995	103.218	20.135	11.345	0.524
790.500	473.386	80.007	19.994	103.218	20.132	11.527	0.517
791.000	473.637	80.006	19.993	103.218	20.131	11.624	0.505
791.500	473.905	80.005	19.995	103.217	20.134	11.361	0.512
792.000	474.158	80.003	19.993	103.216	20.136	11.255	0.520
792.500	474.412	80.006	19.995	103.217	20.138	11.118	0.514
793.000	474.670	80.006	19.995	103.217	20.135	11.287	0.509
793.500	474.915	80.004	19.994	103.216	20.137	11.177	0.507
794.000	475.196	80.004	19.994	103.217	20.138	11.136	0.515
794.500	475.419	80.006	19.994	103.217	20.140	10.950	0.515
795.000	475.643	80.007	19.994	103.215	20.135	11.305	0.476
795.500	475.936	80.006	19.995	103.215	20.139	11.024	0.482
796.000	476.176	80.006	19.992	103.214	20.141	10.906	0.525
796.500	476.401	80.005	19.994	103.214	20.140	10.969	0.499
797.000	476.680	80.005	19.994	103.213	20.144	10.706	0.484
797.500	476.893	80.005	19.994	103.214	20.140	10.932	0.498
798.000	477.155	80.006	19.993	103.210	20.141	10.923	0.484
798.500	477.397	80.006	19.995	103.210	20.145	10.625	0.490
799.000	477.651	80.006	19.994	103.205	20.145	10.603	0.500
799.500	477.909	80.004	19.995	103.204	20.147	10.450	0.504
800.000	478.141	80.005	19.994	103.205	20.146	10.511	0.501
800.500	478.382	80.007	19.994	103.205	20.151	10.204	0.481
801.000	478.629	80.005	19.995	103.204	20.148	10.423	0.480
801.500	478.906	80.006	19.994	103.209	20.151	10.220	0.506
802.000	479.127	80.007	19.996	103.210	20.158	9.690	0.511
802.500	479.423	80.005	19.996	103.209	20.154	9.968	0.507
803.000	479.652	80.006	19.994	103.211	20.157	9.778	0.521
803.500	479.903	80.006	19.995	103.212	20.154	9.997	0.503
804.000	480.109	80.007	19.995	103.213	20.155	9.896	0.469
804.500	480.377	80.006	19.995	103.217	20.157	9.787	0.466
805.000	480.615	80.010	19.994	103.222	20.160	9.557	0.490
805.500	480.880	80.008	19.994	103.229	20.157	9.769	0.504
806.000	481.148	80.009	19.995	103.236	20.162	9.396	0.518
806.500	481.383	80.007	19.995	103.242	20.162	9.438	0.518
807.000	481.646	80.009	19.994	103.247	20.159	9.644	0.500
807.500	481.867	80.007	19.994	103.250	20.162	9.440	0.491
808.000	482.131	80.006	19.994	103.247	20.168	8.987	0.485
808.500	482.376	80.008	19.994	103.239	20.162	9.411	0.497
809.000	482.648	80.007	19.993	103.231	20.165	9.187	0.512
809.500	482.885	80.007	19.994	103.221	20.167	9.105	0.513
810.000	483.118	80.006	19.994	103.210	20.166	9.168	0.490
810.500	483.379	80.008	19.993	103.201	20.166	9.124	0.482
811.000	483.603	80.008	19.995	103.199	20.163	9.318	0.489
811.500	483.879	80.007	19.994	103.197	20.165	9.212	0.493
812.000	484.128	80.007	19.995	103.199	20.164	9.246	0.513
812.500	484.369	80.008	19.994	103.201	20.163	9.318	0.508
813.000	484.615	80.008	19.995	103.203	20.171	8.756	0.489
813.500	484.834	80.009	19.993	103.204	20.169	8.924	0.475
814.000	485.091	80.008	19.993	103.204	20.169	8.935	0.470
814.500	485.378	80.007	19.994	103.200	20.174	8.575	0.510
815.000	485.597	80.007	19.993	103.200	20.171	8.767	0.525
815.500	485.838	80.008	19.994	103.202	20.172	8.710	0.483
816.000	486.123	80.009	19.996	103.203	20.178	8.326	0.493
816.500	486.378	80.007	19.994	103.206	20.179	8.212	0.533
817.000	486.593	80.008	19.995	103.210	20.176	8.421	0.505
817.500	486.872	80.007	19.994	103.213	20.178	8.273	0.482
818.000	487.100	80.008	19.994	103.213	20.174	8.585	0.501
818.500	487.315	80.007	19.994	103.214	20.180	8.153	0.475
819.000	487.575	80.007	19.995	103.213	20.178	8.278	0.459
819.500	487.834	80.006	19.995	103.213	20.181	8.117	0.497
820.000	488.083	80.005	19.995	103.213	20.184	7.842	0.514
820.500	488.325	80.009	19.995	103.215	20.182	8.046	0.499
821.000	488.556	80.005	19.995	103.217	20.185	7.781	0.482
821.500	488.798	80.002	19.995	103.217	20.183	7.960	0.473
822.000	489.053	80.008	19.995	103.217	20.184	7.894	0.485
822.500	489.290	80.006	19.994	103.218	20.180	8.130	0.495
823.000	489.520	80.005	19.994	103.218	20.192	7.332	0.480
823.500	489.785	80.006	19.994	103.216	20.192	7.330	0.481
824.000	490.035	80.005	19.995	103.215	20.196	7.024	0.505
824.500	490.273	80.006	19.995	103.214	20.189	7.542	0.501
825.000	490.511	80.006	19.994	103.212	20.194	7.167	0.481
825.500	490.774	80.005	19.995	103.210	20.190	7.487	0.488
826.000	490.983	80.005	19.994	103.210	20.196	7.066	0.487
826.500	491.251	80.005	19.995	103.211	20.188	7.568	0.475
827.000	491.480	80.002	19.995	103.212	20.191	7.366	0.487
827.500	491.755	80.005	19.995	103.213	20.195	7.126	0.500
828.001	491.999	80.004	19.996	103.214	20.196	7.050	0.511
828.501	492.239	80.005	19.996	103.214	20.197	6.941	0.501
829.000	492.475	80.006	19.994	103.215	20.199	6.839	0.480
829.500	492.739	80.006	19.996	103.215	20.198	6.894	0.488
830.000	492.960	80.004	19.995	103.215	20.199	6.831	0.492
830.500	493.252	80.006	19.996	103.215	20.194	7.166	0.499
831.000	493.479	80.005	19.996	103.216	20.199	6.817	0.516
831.500	493.734	80.005	19.995	103.215	20.200	6.739	0.500
832.000	493.992	80.004	19.995	103.214	20.204	6.450	0.497
832.500	494.262	80.005	19.995	103.213	20.203	6.515	0.521
833.000	494.512	80.004	19.995	103.213	20.203	6.530	0.524
833.500	494.797	80.004	19.995	103.213	20.207	6.279	0.528
834.000	495.043	80.004	19.996	103.213	20.201	6.719	0.533
834.500	495.263	80.005	19.995	103.215	20.201	6.682	0.498
835.000	495.517	80.005	19.994	103.218	20.205	6.402	0.470
835.500	495.781	80.004	19.995	103.221	20.206	6.319	0.496
836.000	496.037	80.004	19.995	103.221	20.205	6.410	0.519
836.500	496.303	80.005	19.993	103.222	20.205	6.408	0.521
837.000	496.508	80.006	19.996	103.221	20.204	6.502	0.497
837.500	496.767	80.006	19.994	103.218	20.210	6.043	0.467
838.000	497.021	80.006	19.995	103.215	20.206	6.328	0.488
838.500	497.296	80.005	19.994	103.215	20.204	6.467	0.521
839.000	497.546	80.006	19.995	103.214	20.209	6.146	0.527
839.500	497.769	80.004	19.995	103.214	20.208	6.224	0.499
840.000	498.044	80.003	19.995	103.215	20.206	6.336	0.485
840.500	498.307	80.002	19.993	103.215	20.209	6.142	0.518
841.000	498.552	80.005	19.994	103.210	20.210	6.064	0.524
841.500	498.822	80.005	19.996	103.207	20.207	6.246	0.512
842.000	499.076	80.005	19.995	103.207	20.211	5.995	0.519
842.500	499.302	80.005	19.995	103.207	20.211	5.953	0.502
843.000	499.569	80.004	19.994	103.207	20.211	5.984	0.486
843.500	499.821	80.004	19.995	103.212	20.211	5.999	0.506
844.000	500.103	80.004	19.994	103.216	20.212	5.940	0.527
844.500	500.303	80.003	19.995	103.215	20.213	5.858	0.508
845.000	500.573	80.003	19.995	103.214	20.214	5.782	0.476
845.500	500.831	80.004	19.995	103.214	20.215	5.714	0.499
846.000	501.074	80.006	19.995	103.213	20.216	5.624	0.514
846.500	501.325	80.005	19.996	103.214	20.218	5.527	0.498
847.000	501.591	80.005	19.995	103.214	20.217	5.580	0.506
847.500	501.843	80.005	19.995	103.217	20.215	5.719	0.517
848.000	502.069	80.002	19.995	103.217	20.217	5.550	0.498
848.500	502.327	80.004	19.994	103.218	20.219	5.407	0.481
849.000	502.567	80.005	19.995	103.217	20.217	5.538	0.491
849.500	502.821	80.005	19.995	103.217	20.219	5.393	0.496
850.000	503.083	80.003	19.994	103.216	20.218	5.473	0.505
850.501	503.345	80.004	19.995	103.216	20.221	5.250	0.520
851.000	503.608	80.003	19.995	103.217	20.219	5.438	0.524
851.500	503.853	80.004	19.995	103.217	20.225	5.000	0.517
852.000	504.098	80.003	19.994	103.216	20.224	5.040	0.499
852.500	504.347	80.004	19.994	103.216	20.221	5.291	0.492
853.000	504.583	80.003	19.995	103.216	20.219	5.392	0.489
853.500	504.877	80.005	19.996	103.216	20.220	5.377	0.507
854.000	505.122	80.004	19.995	103.215	20.219	5.444	0.535
854.500	505.374	80.003	19.995	103.217	20.221	5.252	0.519
855.000	505.613	80.003	19.996	103.223	20.221	5.292	0.494
855.500	505.909	80.003	19.995	103.224	20.220	5.366	0.513
856.000	506.140	80.004	19.995	103.224	20.221	5.273	0.531
856.501	506.444	80.003	19.995	103.227	20.222	5.199	0.531
857.000	506.676	80.003	19.996	103.226	20.224	5.041	0.535
857.500	506.934	80.003	19.995	103.221	20.225	5.020	0.513
858.000	507.226	80.002	19.995	103.219	20.219	5.418	0.520
858.500	507.462	80.003	19.995	103.221	20.223	5.155	0.540
859.000	507.753	80.003	19.995	103.219	20.222	5.189	0.528
859.500	507.987	80.003	19.995	103.218	20.224	5.078	0.526
860.000	508.290	80.005	19.997	103.217	20.218	5.510	0.531
860.500	508.523	80.003	19.996	103.216	20.227	4.861	0.536
861.000	508.811	80.005	19.995	103.213	20.223	5.148	0.528
861.500	509.044	80.003	19.994	103.208	20.217	5.590	0.521
862.000	509.345	80.003	19.994	103.200	20.220	5.337	0.527
862.500	509.600	80.005	19.995	103.194	20.220	5.362	0.544
863.000	509.869	80.005	19.995	103.188	20.223	5.159	0.540
863.500	510.076	80.004	19.994	103.185	20.223	5.155	0.501
864.000	510.383	80.005	19.995	103.189	20.221	5.264	0.495
864.500	510.647	80.006	19.994	103.195	20.222	5.235	0.542
865.000	510.914	80.007	19.995	103.201	20.225	4.976	0.551
865.500	511.173	80.007	19.995	103.208	20.226	4.963	0.528
866.000	511.446	80.006	19.994	103.212	20.222	5.216	0.529
866.500	511.699	80.006	19.993	103.212	20.224	5.043	0.529
867.000	511.964	80.006	19.994	103.209	20.222	5.245	0.522
867.500	512.196	80.006	19.993	103.210	20.222	5.237	0.508
868.000	512.490	80.006	19.994	103.210	20.222	5.220	0.512
868.500	512.734	80.008	19.995	103.210	20.224	5.043	0.532
869.000	512.986	80.005	19.994	103.209	20.221	5.294	0.517
869.500	513.275	80.007	19.994	103.208	20.227	4.892	0.518
870.000	513.559	80.006	19.993	103.200	20.222	5.195	0.557
870.500	513.870	80.007	19.994	103.194	20.228	4.770	0.584
871.000	514.127	80.007	19.994	103.188	20.227	4.888	0.581
871.500	514.420	80.007	19.995	103.187	20.223	5.163	0.559
872.000	514.703	80.006	19.993	103.189	20.226	4.951	0.563
872.500	514.952	80.005	19.993	103.197	20.224	5.102	0.554
873.000	515.262	80.005	19.994	103.202	20.225	5.010	0.545
873.500	515.509	80.007	19.993	103.208	20.224	5.071	0.558
874.000	515.803	80.006	19.993	103.210	20.224	5.098	0.549
874.500	516.053	80.006	19.994	103.212	20.225	4.998	0.543
875.000	516.339	80.005	19.993	103.212	20.226	4.905	0.540
875.500	516.629	80.005	19.993	103.214	20.228	4.823	0.556
876.000	516.907	80.004	19.994	103.217	20.228	4.819	0.572
876.500	517.147	80.006	19.994	103.218	20.228	4.779	0.543
877.000	517.461	80.005	19.994	103.216	20.226	4.936	0.536
877.500	517.732	80.006	19.994	103.216	20.228	4.761	0.570
878.000	518.023	80.004	19.994	103.215	20.230	4.643	0.574
878.500	518.313	80.006	19.994	103.213	20.228	4.824	0.572
879.000	518.585	80.005	19.995	103.212	20.229	4.700	0.572
879.500	518.856	80.006	19.994	103.213	20.231	4.608	0.552
880.000	519.134	80.006	19.995	103.211	20.225	5.027	0.546
880.500	519.428	80.005	19.995	103.211	20.229	4.717	0.561
881.000	519.653	80.006	19.995	103.211	20.227	4.841	0.545
881.500	519.934	80.006	19.995	103.211	20.230	4.650	0.512
882.000	520.247	80.006	19.994	103.211	20.228	4.799	0.550
882.500	520.514	80.006	19.994	103.213	20.227	4.844	0.587
883.000	520.781	80.007	19.995	103.213	20.233	4.443	0.557
883.500	521.114	80.006	19.994	103.213	20.229	4.709	0.567
884.000	521.377	80.006	19.994	103.214	20.231	4.603	0.598
884.500	521.629	80.006	19.995	103.212	20.234	4.378	0.556
885.000	521.908	80.007	19.994	103.210	20.232	4.517	0.523
885.500	522.214	80.006	19.994	103.203	20.232	4.498	0.558
886.000	522.454	80.008	19.995	103.201	20.230	4.643	0.565
886.500	522.767	80.007	19.995	103.200	20.232	4.544	0.550
887.000	523.037	80.007	19.995	103.200	20.233	4.456	0.568
887.500	523.271	80.007	19.995	103.202	20.230	4.665	0.543
888.000	523.589	80.007	19.995	103.208	20.230	4.653	0.527
888.500	523.861	80.007	19.994	103.209	20.230	4.672	0.571
889.000	524.165	80.008	19.995	103.209	20.229	4.733	0.583
889.501	524.451	80.008	19.994	103.211	20.231	4.560	0.583
890.000	524.710	80.007	19.994	103.211	20.236	4.227	0.568
890.500	524.972	80.008	19.995	103.211	20.235	4.265	0.533
891.000	525.251	80.008	19.993	103.211	20.236	4.229	0.531
891.500	525.551	80.007	19.994	103.210	20.232	4.486	0.560
892.000	525.827	80.007	19.994	103.209	20.238	4.121	0.577
892.500	526.085	80.006	19.994	103.209	20.234	4.366	0.555
893.000	526.348	80.007	19.994	103.209	20.234	4.389	0.528
893.501	526.668	80.008	19.995	103.207	20.236	4.208	0.552
894.000	526.905	80.007	19.994	103.206	20.236	4.256	0.570
894.500	527.152	80.007	19.994	103.207	20.234	4.342	0.520
895.000	527.492	80.008	19.994	103.207	20.240	3.923	0.535
895.500	527.755	80.007	19.994	103.207	20.234	4.380	0.595
896.000	528.061	80.007	19.993	103.207	20.236	4.199	0.587
896.500	528.320	80.007	19.993	103.207	20.236	4.233	0.567
897.000	528.603	80.006	19.994	103.208	20.237	4.191	0.554
897.500	528.903	80.006	19.994	103.208	20.235	4.267	0.562
898.001	529.206	80.006	19.993	103.202	20.233	4.463	0.593
898.500	529.438	80.006	19.993	103.198	20.238	4.084	0.569
899.000	529.733	80.006	19.994	103.192	20.236	4.195	0.531
899.500	530.001	80.006	19.994	103.187	20.235	4.305	0.545
900.000	530.254	80.005	19.993	103.182	20.233	4.461	0.542
900.500	530.538	80.004	19.992	103.186	20.234	4.379	0.529
901.000	530.798	80.004	19.993	103.192	20.240	3.979	0.541
901.500	531.078	80.005	19.994	103.200	20.235	4.305	0.542
902.000	531.358	80.004	19.994	103.206	20.237	4.176	0.550
902.500	531.627	80.004	19.994	103.208	20.239	4.012	0.555
903.000	531.937	80.005	19.992	103.206	20.239	4.001	0.564
903.500	532.156	80.004	19.994	103.205	20.238	4.113	0.554
904.000	532.469	80.006	19.994	103.203	20.243	3.717	0.531
904.500	532.783	80.006	19.993	103.200	20.242	3.841	0.579
905.000	533.022	80.005	19.993	103.200	20.234	4.350	0.590
905.500	533.329	80.004	19.994	103.205	20.238	4.058	0.550
906.000	533.607	80.006	19.993	103.206	20.237	4.130	0.566
906.500	533.879	80.004	19.995	103.204	20.237	4.193	0.568
907.000	534.150	80.005	19.994	103.205	20.236	4.199	0.547
907.500	534.447	80.005	19.994	103.203	20.235	4.304	0.555
908.000	534.726	80.002	19.994	103.203	20.236	4.212	0.572
908.500	534.986	80.005	19.995	103.199	20.240	3.927	0.558
909.000	535.264	80.004	19.995	103.199	20.239	3.993	0.539
909.500	535.570	80.006	19.994	103.197	20.237	4.163	0.561
910.000	535.849	80.004	19.994	103.200	20.239	4.052	0.585
910.500	536.122	80.005	19.994	103.200	20.241	3.898	0.568
911.000	536.385	80.005	19.994	103.199	20.237	4.182	0.544
911.500	536.644	80.003	19.994	103.196	20.242	3.778	0.529
912.000	536.922	80.004	19.994	103.197	20.241	3.858	0.529
912.500	537.215	80.003	19.994	103.198	20.238	4.089	0.554
913.000	537.444	80.003	19.994	103.200	20.237	4.131	0.547
913.500	537.723	80.005	19.994	103.204	20.237	4.189	0.515
914.000	538.027	80.004	19.994	103.211	20.239	4.052	0.545
914.500	538.286	80.004	19.994	103.215	20.238	4.109	0.573
915.000	538.532	80.004	19.995	103.215	20.240	3.938	0.534
915.500	538.817	80.003	19.994	103.215	20.237	4.128	0.518
916.000	539.101	80.004	19.994	103.214	20.241	3.897	0.550
916.500	539.383	80.004	19.994	103.211	20.242	3.798	0.567
917.000	539.644	80.005	19.995	103.211	20.241	3.889	0.555
917.500	539.906	80.005	19.994	103.211	20.236	4.209	0.533
918.000	540.229	80.005	19.995	103.210	20.240	3.970	0.554
918.500	540.534	80.004	19.994	103.208	20.238	4.096	0.606
919.000	540.756	80.004	19.995	103.210	20.237	4.137	0.577
919.500	541.022	80.005	19.995	103.210	20.242	3.795	0.507
920.000	541.268	80.004	19.995	103.207	20.239	4.001	0.500
920.500	541.544	80.004	19.994	103.208	20.241	3.850	0.517
921.000	541.818	80.006	19.994	103.210	20.240	3.958	0.536
921.500	542.047	80.005	19.995	103.210	20.240	3.922	0.527
922.001	542.362	80.004	19.994	103.210	20.240	3.924	0.524
922.500	542.650	80.004	19.996	103.212	20.235	4.274	0.573
923.000	542.908	80.005	19.995	103.211	20.238	4.063	0.575
923.500	543.185	80.003	19.994	103.212	20.238	4.078	0.540
924.000	543.453	80.004	19.995	103.212	20.237	4.164	0.540
924.500	543.701	80.004	19.995	103.210	20.238	4.070	0.531
925.000	543.979	80.006	19.995	103.209	20.243	3.714	0.521
925.500	544.234	80.005	19.996	103.208	20.236	4.194	0.529
926.000	544.543	80.005	19.995	103.200	20.240	3.981	0.548
926.500	544.786	80.004	19.995	103.193	20.238	4.108	0.558
927.000	545.027	80.005	19.994	103.189	20.238	4.084	0.518
927.500	545.290	80.004	19.994	103.185	20.238	4.120	0.494
928.000	545.572	80.004	19.994	103.183	20.240	3.937	0.525
928.500	545.866	80.005	19.994	103.184	20.239	4.044	0.561
929.000	546.121	80.004	19.994	103.189	20.238	4.057	0.562
929.500	546.404	80.004	19.995	103.194	20.239	4.036	0.543
930.000	546.682	80.004	19.996	103.194	20.237	4.124	0.549
930.500	546.950	80.004	19.995	103.196	20.238	4.097	0.553
931.000	547.222	80.005	19.994	103.201	20.237	4.154	0.543
931.500	547.491	80.003	19.994	103.201	20.239	3.992	0.540
932.000	547.739	80.003	19.994	103.194	20.240	3.975	0.529
932.500	547.984	80.003	19.994	103.193	20.234	4.402	0.505
933.000	548.257	80.003	19.994	103.192	20.242	3.842	0.505
933.500	548.535	80.004	19.995	103.188	20.238	4.122	0.534
934.000	548.769	80.004	19.995	103.183	20.242	3.783	0.532
934.500	549.072	80.005	19.996	103.184	20.240	3.956	0.525
935.000	549.323	80.005	19.995	103.187	20.237	4.160	0.545
935.500	549.598	80.004	19.996	103.183	20.242	3.838	0.540
936.000	549.872	80.003	19.995	103.184	20.241	3.865	0.538
936.500	550.152	80.003	19.996	103.187	20.238	4.063	0.552
937.000	550.403	80.002	19.995	103.185	20.239	4.004	0.542
937.500	550.693	80.005	19.994	103.183	20.236	4.196	0.536
938.000	550.941	80.003	19.995	103.184	20.239	4.017	0.540
938.500	551.251	80.004	19.994	103.183	20.241	3.861	0.548
939.000	551.504	80.004	19.994	103.184	20.242	3.823	0.561
939.500	551.761	80.004	19.994	103.189	20.240	3.930	0.536
940.000	552.047	80.003	19.993	103.193	20.240	3.970	0.526
940.500	552.252	80.004	19.995	103.194	20.240	3.923	0.517
941.000	552.541	80.004	19.994	103.192	20.244	3.633	0.493
941.500	552.818	80.003	19.994	103.188	20.241	3.867	0.530
942.000	553.089	80.004	19.995	103.187	20.243	3.724	0.557
942.500	553.311	80.004	19.995	103.183	20.240	3.922	0.521
943.000	553.606	80.004	19.994	103.180	20.242	3.813	0.505
943.500	553.868	80.004	19.995	103.181	20.244	3.674	0.537
944.000	554.143	80.005	19.995	103.183	20.243	3.716	0.546
944.500	554.423	80.004	19.995	103.186	20.241	3.872	0.546
945.000	554.699	80.005	19.996	103.190	20.244	3.678	0.556
945.500	554.943	80.005	19.996	103.191	20.237	4.145	0.538
946.000	555.190	80.005	19.996	103.194	20.242	3.794	0.506
946.500	555.463	80.004	19.994	103.192	20.242	3.834	0.506
947.000	555.719	80.005	19.995	103.188	20.245	3.606	0.525
947.500	556.005	80.005	19.995	103.186	20.245	3.583	0.536
948.000	556.242	80.005	19.995	103.184	20.241	3.859	0.532
948.500	556.516	80.007	19.995	103.183	20.237	4.138	0.517
949.000	556.770	80.006	19.996	103.185	20.243	3.767	0.519
949.500	557.083	80.006	19.996	103.187	20.242	3.807	0.547
950.000	557.308	80.006	19.995	103.190	20.242	3.805	0.553
950.500	557.591	80.006	19.995	103.196	20.242	3.807	0.524
951.000	557.856	80.005	19.996	103.200	20.243	3.704	0.528
951.500	558.067	80.006	19.995	103.203	20.244	3.651	0.511
952.000	558.393	80.007	19.994	103.201	20.245	3.575	0.506
952.500	558.649	80.005	19.994	103.196	20.246	3.526	0.560
953.000	558.931	80.006	19.994	103.193	20.247	3.450	0.560
953.500	559.165	80.005	19.994	103.188	20.246	3.508	0.527
954.000	559.410	80.006	19.994	103.180	20.245	3.615	0.497
954.500	559.648	80.004	19.994	103.177	20.246	3.520	0.481
955.000	559.947	80.006	19.996	103.181	20.247	3.453	0.510
955.500	560.213	80.007	19.995	103.183	20.249	3.302	0.551
956.000	560.448	80.007	19.995	103.182	20.246	3.554	0.533
956.500	560.756	80.006	19.995	103.188	20.249	3.342	0.522
957.000	560.992	80.006	19.994	103.187	20.249	3.310	0.544
957.500	561.278	80.007	19.994	103.179	20.248	3.378	0.533
958.000	561.524	80.006	19.995	103.174	20.248	3.405	0.527
958.500	561.788	80.005	19.994	103.173	20.244	3.674	0.521
959.000	562.059	80.005	19.994	103.169	20.246	3.531	0.522
959.500	562.318	80.007	19.994	103.170	20.241	3.845	0.533
960.000	562.525	80.005	19.993	103.173	20.245	3.575	0.498
960.500	562.807	80.005	19.992	103.173	20.244	3.632	0.477
961.000	563.082	80.006	19.994	103.170	20.249	3.341	0.523
961.500	563.327	80.005	19.995	103.171	20.242	3.817	0.539
962.000	563.579	80.005	19.994	103.172	20.246	3.510	0.509
962.500	563.838	80.005	19.994	103.172	20.246	3.524	0.504
963.000	564.091	80.006	19.994	103.173	20.247	3.440	0.511
963.500	564.340	80.004	19.993	103.177	20.243	3.729	0.507
964.000	564.580	80.006	19.993	103.177	20.246	3.543	0.496
964.500	564.868	80.004	19.994	103.172	20.243	3.735	0.509
965.000	565.099	80.005	19.992	103.170	20.244	3.670	0.523
965.500	565.364	80.005	19.993	103.168	20.243	3.714	0.507
966.000	565.636	80.006	19.992	103.167	20.244	3.697	0.517
966.500	565.893	80.005	19.993	103.164	20.244	3.670	0.533
967.001	566.127	80.006	19.994	103.165	20.249	3.286	0.510
967.501	566.377	80.006	19.993	103.164	20.249	3.337	0.487
968.000	566.658	80.007	19.993	103.163	20.246	3.520	0.508
968.500	566.879	80.006	19.994	103.156	20.244	3.667	0.516
969.000	567.158	80.007	19.993	103.159	20.242	3.829	0.500
969.500	567.433	80.008	19.994	103.162	20.242	3.814	0.527
970.000	567.683	80.007	19.993	103.159	20.244	3.701	0.540
970.500	567.923	80.008	19.994	103.157	20.240	3.941	0.508
971.000	568.181	80.007	19.993	103.163	20.244	3.663	0.494
971.500	568.417	80.007	19.994	103.163	20.241	3.899	0.496
972.000	568.674	80.007	19.993	103.165	20.243	3.714	0.493
972.500	568.900	80.006	19.993	103.171	20.242	3.821	0.488
973.000	569.162	80.008	19.993	103.176	20.242	3.792	0.486
973.500	569.398	80.007	19.993	103.178	20.244	3.701	0.493
974.000	569.663	80.006	19.992	103.178	20.242	3.806	0.499
974.500	569.902	80.011	19.993	103.177	20.240	3.916	0.503
975.000	570.125	80.006	19.995	103.179	20.243	3.745	0.483
975.500	570.384	80.005	19.993	103.178	20.244	3.634	0.472
976.000	570.649	80.005	19.993	103.177	20.247	3.489	0.503
976.500	570.905	80.006	19.994	103.176	20.239	4.002	0.523
977.000	571.140	80.006	19.996	103.176	20.247	3.467	0.506
977.500	571.397	80.006	19.993	103.175	20.246	3.522	0.492
978.000	571.613	80.006	19.993	103.174	20.248	3.398	0.482
978.500	571.866	80.004	19.993	103.176	20.251	3.179	0.471
979.000	572.120	80.005	19.994	103.182	20.247	3.442	0.488
979.500	572.344	80.005	19.994	103.186	20.250	3.248	0.492
980.000	572.640	80.006	19.993	103.189	20.250	3.234	0.499
980.500	572.912	80.004	19.994	103.189	20.246	3.539	0.544
981.000	573.107	80.004	19.994	103.189	20.249	3.312	0.518
981.500	573.386	80.003	19.994	103.183	20.250	3.267	0.470
982.000	573.644	80.004	19.993	103.179	20.247	3.428	0.505
982.500	573.894	80.005	19.993	103.176	20.250	3.267	0.523
983.000	574.142	80.004	19.993	103.177	20.248	3.362	0.504
983.500	574.383	80.004	19.993	103.180	20.247	3.442	0.493
984.000	574.645	80.004	19.993	103.184	20.245	3.596	0.496
984.500	574.884	80.003	19.993	103.185	20.247	3.422	0.502
985.000	575.150	80.004	19.994	103.185	20.246	3.539	0.503
985.500	575.388	80.003	19.994	103.185	20.252	3.124	0.505
986.000	575.605	80.005	19.994	103.182	20.251	3.145	0.480
986.500	575.925	80.004	19.993	103.178	20.250	3.272	0.496
987.000	576.135	80.004	19.994	103.177	20.251	3.145	0.534
987.500	576.372	80.004	19.993	103.177	20.250	3.259	0.489
988.000	576.593	80.005	19.994	103.177	20.248	3.352	0.453
988.500	576.884	80.005	19.993	103.177	20.248	3.392	0.485
989.000	577.130	80.004	19.993	103.176	20.248	3.352	0.524
989.500	577.362	80.004	19.993	103.175	20.246	3.495	0.507
990.000	577.612	80.005	19.994	103.175	20.251	3.206	0.480
990.500	577.871	80.005	19.993	103.175	20.247	3.482	0.495
991.000	578.135	80.004	19.994	103.174	20.247	3.440	0.517
991.500	578.373	80.005	19.994	103.174	20.248	3.400	0.513
992.000	578.623	80.004	19.994	103.173	20.249	3.299	0.495
992.500	578.917	80.006	19.993	103.172	20.253	3.004	0.516
993.000	579.169	80.004	19.994	103.172	20.251	3.192	0.545
993.500	579.387	80.005	19.994	103.172	20.246	3.497	0.508
994.000	579.628	80.005	19.994	103.166	20.248	3.398	0.465
994.500	579.887	80.005	19.994	103.166	20.250	3.225	0.479
995.000	580.130	80.004	19.994	103.166	20.247	3.465	0.500
995.500	580.404	80.005	19.995	103.166	20.249	3.307	0.509
996.000	580.667	80.004	19.994	103.167	20.244	3.650	0.527
996.500	580.881	80.005	19.994	103.172	20.246	3.559	0.507
997.000	581.161	80.004	19.993	103.174	20.244	3.633	0.486
997.500	581.408	80.004	19.993	103.169	20.249	3.332	0.510
998.000	581.663	80.005	19.993	103.165	20.248	3.391	0.514
998.500	581.906	80.007	19.994	103.164	20.247	3.486	0.500
999.000	582.150	80.006	19.994	103.164	20.248	3.376	0.493
999.500	582.434	80.007	19.994	103.167	20.251	3.149	0.508
1000.000	582.657	80.006	19.995	103.178	20.252	3.138	0.517
1000.500	582.911	80.005	19.994	103.184	20.252	3.120	0.492
1001.000	583.173	80.006	19.994	103.184	20.253	3.059	0.496
1001.501	583.412	80.007	19.994	103.185	20.250	3.270	0.508
1002.000	583.648	80.005	19.994	103.180	20.250	3.254	0.488
1002.500	583.909	80.006	19.994	103.173	20.253	3.024	0.486
1003.000	584.160	80.006	19.994	103.171	20.251	3.146	0.505
1003.500	584.423	80.004	19.993	103.173	20.251	3.153	0.514
1004.000	584.684	80.005	19.995	103.172	20.249	3.287	0.519
1004.500	584.919	80.005	19.993	103.174	20.252	3.135	0.510
1005.000	585.208	80.004	19.994	103.177	20.252	3.093	0.509
1005.500	585.433	80.006	19.993	103.184	20.255	2.873	0.519
1006.000	585.697	80.005	19.995	103.188	20.254	2.981	0.502
1006.500	585.939	80.006	19.995	103.197	20.254	2.956	0.498
1007.000	586.176	80.005	19.994	103.205	20.257	2.764	0.493
1007.500	586.439	80.004	19.994	103.208	20.254	2.991	0.489
1008.000	586.697	80.005	19.994	103.205	20.250	3.227	0.510
1008.500	586.916	80.006	19.994	103.203	20.260	2.553	0.499
1009.000	587.192	80.004	19.993	103.200	20.256	2.818	0.486
1009.500	587.454	80.004	19.994	103.198	20.255	2.894	0.517
1010.000	587.693	80.003	19.994	103.198	20.253	3.024	0.520
1010.500	587.930	80.003	19.995	103.193	20.258	2.708	0.489
1011.000	588.151	80.003	19.995	103.191	20.255	2.897	0.466
1011.500	588.493	80.005	19.996	103.183	20.256	2.830	0.510
1012.000	588.680	80.004	19.994	103.171	20.252	3.079	0.546
1012.500	588.913	80.003	19.994	103.158	20.254	2.984	0.475
1013.000	589.176	80.003	19.995	103.148	20.255	2.862	0.458
1013.500	589.418	80.003	19.994	103.140	20.254	2.958	0.500
1014.000	589.685	80.004	19.995	103.135	20.254	2.960	0.507
1014.500	589.918	80.003	19.994	103.138	20.257	2.785	0.505
1015.000	590.196	80.005	19.995	103.147	20.254	2.952	0.505
1015.500	590.415	80.003	19.995	103.156	20.251	3.148	0.503
1016.000	590.659	80.005	19.995	103.164	20.254	2.964	0.480
1016.500	590.937	80.003	19.994	103.171	20.254	2.990	0.493
1017.000	591.151	80.006	19.996	103.175	20.255	2.895	0.507
1017.500	591.428	80.008	19.995	103.179	20.254	2.964	0.491
1018.000	591.628	80.005	19.995	103.183	20.256	2.802	0.484
1018.500	591.882	80.004	19.995	103.183	20.259	2.625	0.466
1019.000	592.134	80.004	19.995	103.184	20.257	2.788	0.480
1019.500	592.355	80.005	19.995	103.191	20.256	2.794	0.489
1020.000	592.649	80.003	19.994	103.195	20.259	2.640	0.494
1020.500	592.916	80.005	19.994	103.199	20.256	2.857	0.538
1021.000	593.167	80.004	19.995	103.208	20.258	2.714	0.540
1021.500	593.388	80.004	19.995	103.219	20.256	2.851	0.495
1022.000	593.664	80.005	19.994	103.220	20.258	2.682	0.484
1022.500	593.875	80.006	19.996	103.216	20.253	3.002	0.492
1023.000	594.152	80.006	19.996	103.209	20.255	2.872	0.487
1023.500	594.398	80.005	19.995	103.201	20.257	2.774	0.505
1024.000	594.651	80.005	19.994	103.188	20.254	2.987	0.511
1024.500	594.907	80.005	19.995	103.176	20.256	2.838	0.504
1025.001	595.153	80.006	19.994	103.171	20.256	2.856	0.505
1025.501	595.397	80.005	19.995	103.167	20.253	3.039	0.496
1026.000	595.655	80.005	19.995	103.164	20.252	3.088	0.496
1026.500	595.874	80.005	19.994	103.164	20.253	3.041	0.490
1027.000	596.146	80.007	19.994	103.168	20.252	3.136	0.485
1027.500	596.394	80.006	19.995	103.164	20.257	2.769	0.506
1028.000	596.624	80.007	19.995	103.163	20.257	2.740	0.498
1028.500	596.863	80.005	19.995	103.165	20.253	3.012	0.473
1029.000	597.124	80.007	19.994	103.159	20.252	3.077	0.484
1029.500	597.367	80.003	19.994	103.154	20.257	2.738	0.502
1030.001	597.614	80.004	19.995	103.158	20.255	2.892	0.497
1030.501	597.838	80.004	19.995	103.158	20.256	2.850	0.481
1031.001	598.110	80.006	19.995	103.154	20.255	2.903	0.484
1031.501	598.346	80.005	19.994	103.153	20.259	2.644	0.502
1032.000	598.584	80.005	19.995	103.157	20.253	3.008	0.491
1032.500	598.830	80.006	19.995	103.157	20.256	2.802	0.479
1033.000	599.114	80.005	19.995	103.161	20.260	2.560	0.507
1033.500	599.317	80.006	19.994	103.165	20.256	2.830	0.508
1034.000	599.556	80.005	19.995	103.170	20.255	2.872	0.464
1034.500	599.799	80.005	19.995	103.171	20.259	2.638	0.462
1035.000	600.038	80.005	19.995	103.171	20.259	2.619	0.482
1035.500	600.298	80.005	19.995	103.171	20.258	2.676	0.490
1036.000	600.553	80.004	19.995	103.176	20.258	2.672	0.507
1036.500	600.788	80.004	19.994	103.186	20.261	2.490	0.503
1037.000	601.046	80.004	19.995	103.195	20.257	2.781	0.491
1037.500	601.307	80.004	19.994	103.202	20.262	2.408	0.506
1038.000	601.510	80.005	19.994	103.209	20.255	2.873	0.492
1038.500	601.769	80.004	19.995	103.210	20.261	2.471	0.463
1039.000	602.038	80.004	19.995	103.202	20.261	2.481	0.495
1039.500	602.220	80.004	19.996	103.194	20.259	2.597	0.490
1040.000	602.507	80.003	19.995	103.187	20.258	2.696	0.460
1040.500	602.759	80.004	19.995	103.180	20.258	2.669	0.504
1041.000	602.983	80.005	19.994	103.176	20.261	2.465	0.508
1041.500	603.233	80.005	19.996	103.175	20.256	2.798	0.475
1042.000	603.491	80.005	19.996	103.176	20.258	2.709	0.491
1042.500	603.750	80.006	19.995	103.176	20.256	2.796	0.512
1043.000	604.024	80.005	19.996	103.176	20.264	2.246	0.525
1043.500	604.241	80.005	19.995	103.171	20.258	2.652	0.512
1044.000	604.481	80.004	19.995	103.170	20.255	2.897	0.474
1044.500	604.738	80.004	19.995	103.165	20.260	2.553	0.477
1045.000	604.977	80.005	19.995	103.163	20.257	2.739	0.497
1045.500	605.251	80.005	19.995	103.163	20.259	2.581	0.505
1046.000	605.493	80.005	19.994	103.168	20.254	2.933	0.514
1046.500	605.747	80.005	19.994	103.167	20.259	2.615	0.506
1047.000	605.997	80.008	19.995	103.166	20.257	2.735	0.500
1047.500	606.213	80.005	19.994	103.168	20.260	2.530	0.485
1048.000	606.513	80.006	19.994	103.168	20.261	2.482	0.491
1048.500	606.748	80.008	19.995	103.168	20.261	2.448	0.526
1049.000	606.940	80.008	19.994	103.172	20.262	2.416	0.481
1049.500	607.189	80.007	19.993	103.179	20.261	2.450	0.434
1050.000	607.423	80.008	19.995	103.183	20.256	2.842	0.462
1050.500	607.697	80.008	19.995	103.183	20.260	2.574	0.495
1051.000	607.938	80.006	19.994	103.183	20.259	2.600	0.511
1051.500	608.174	80.006	19.994	103.180	20.263	2.336	0.496
1052.000	608.425	80.006	19.993	103.179	20.264	2.288	0.482
1052.500	608.696	80.008	19.993	103.173	20.259	2.600	0.505
1053.000	608.892	80.007	19.993	103.171	20.263	2.342	0.495
1053.500	609.214	80.007	19.994	103.171	20.262	2.421	0.493
1054.000	609.449	80.007	19.992	103.169	20.264	2.254	0.537
1054.500	609.630	80.008	19.993	103.164	20.258	2.656	0.486
1055.000	609.869	80.007	19.996	103.164	20.262	2.429	0.418
1055.500	610.120	80.008	19.994	103.163	20.264	2.273	0.455
1056.000	610.369	80.008	19.994	103.161	20.261	2.486	0.495
1056.501	610.597	80.007	19.994	103.162	20.261	2.450	0.488
1057.001	610.888	80.008	19.994	103.166	20.263	2.343	0.498
1057.500	611.116	80.007	19.993	103.169	20.259	2.623	0.519
1058.000	611.363	80.006	19.993	103.173	20.263	2.340	0.497
1058.500	611.599	80.007	19.995	103.174	20.256	2.848	0.479
1059.000	611.847	80.006	19.993	103.175	20.265	2.159	0.483
1059.500	612.106	80.007	19.994	103.175	20.263	2.336	0.496
1060.000	612.346	80.007	19.994	103.174	20.261	2.475	0.503
1060.500	612.594	80.006	19.995	103.172	20.260	2.528	0.493
1061.000	612.840	80.005	19.994	103.172	20.260	2.528	0.491
1061.500	613.065	80.005	19.994	103.172	20.264	2.292	0.483
1062.001	613.332	80.005	19.994	103.172	20.262	2.398	0.482
1062.501	613.563	80.004	19.994	103.174	20.264	2.298	0.495
1063.000	613.832	80.004	19.994	103.174	20.258	2.711	0.499
1063.500	614.069	80.006	19.994	103.174	20.258	2.657	0.503
1064.000	614.319	80.005	19.993	103.175	20.261	2.452	0.496
1064.500	614.589	80.006	19.994	103.174	20.263	2.334	0.503
1065.000	614.842	80.004	19.994	103.172	20.259	2.606	0.522
1065.501	615.071	80.005	19.994	103.171	20.262	2.387	0.503
1066.001	615.323	80.005	19.995	103.171	20.265	2.161	0.482
1066.500	615.577	80.005	19.995	103.171	20.265	2.170	0.493
1067.000	615.833	80.005	19.995	103.173	20.262	2.404	0.508
1067.500	616.062	80.005	19.994	103.175	20.267	2.050	0.497
1068.000	616.316	80.006	19.994	103.174	20.264	2.260	0.484
1068.500	616.575	80.005	19.994	103.174	20.266	2.096	0.498
1069.000	616.785	80.004	19.994	103.174	20.267	2.056	0.491
1069.500	617.029	80.004	19.994	103.174	20.263	2.303	0.461
1070.001	617.309	80.005	19.994	103.174	20.269	1.919	0.489
1070.501	617.546	80.004	19.994	103.181	20.265	2.180	0.520
1071.000	617.774	80.004	19.994	103.182	20.260	2.543	0.491
1071.500	618.070	80.004	19.994	103.181	20.265	2.200	0.495
1072.000	618.278	80.005	19.994	103.179	20.264	2.250	0.514
1072.500	618.506	80.004	19.994	103.176	20.264	2.279	0.470
1073.000	618.752	80.006	19.994	103.170	20.267	2.044	0.455
1073.500	618.980	80.005	19.994	103.168	20.265	2.170	0.474
1074.000	619.261	80.005	19.994	103.170	20.264	2.244	0.492
1074.500	619.459	80.005	19.995	103.171	20.265	2.225	0.494
1075.000	619.739	80.004	19.994	103.174	20.263	2.334	0.479
1075.501	619.988	80.006	19.995	103.174	20.270	1.829	0.504
1076.001	620.243	80.005	19.994	103.174	20.266	2.088	0.516
1076.500	620.477	80.005	19.995	103.175	20.264	2.284	0.496
1077.000	620.697	80.003	19.993	103.175	20.265	2.185	0.472
1077.500	620.995	80.005	19.994	103.174	20.264	2.294	0.486
1078.000	621.212	80.005	19.993	103.174	20.267	2.079	0.516
1078.500	621.486	80.006	19.994	103.173	20.265	2.222	0.503
1079.000	621.729	80.005	19.994	103.173	20.264	2.292	0.504
1079.500	621.973	80.006	19.994	103.173	20.263	2.317	0.502
1080.000	622.217	80.005	19.995	103.172	20.270	1.860	0.487
1080.500	622.462	80.004	19.993	103.171	20.267	2.069	0.489
1081.000	622.721	80.005	19.994	103.169	20.263	2.343	0.497
1081.500	622.962	80.005	19.995	103.167	20.266	2.105	0.502
1082.000	623.182	80.004	19.993	103.168	20.263	2.353	0.481
1082.500	623.442	80.005	19.994	103.168	20.268	1.970	0.471
1083.000	623.688	80.006	19.995	103.168	20.267	2.022	0.493
1083.500	623.928	80.005	19.993	103.171	20.268	1.993	0.495
1084.000	624.215	80.006	19.994	103.173	20.264	2.271	0.507
1084.500	624.425	80.003	19.994	103.172	20.260	2.515	0.512
1085.000	624.687	80.005	19.993	103.174	20.264	2.246	0.484
1085.500	624.937	80.005	19.994	103.173	20.261	2.471	0.492
1086.000	625.151	80.005	19.994	103.173	20.263	2.307	0.488
1086.500	625.394	80.005	19.994	103.173	20.262	2.408	0.461
1087.000	625.658	80.005	19.995	103.171	20.264	2.235	0.482
1087.500	625.894	80.004	19.994	103.171	20.262	2.410	0.503
1088.000	626.154	80.004	19.993	103.172	20.261	2.443	0.498
1088.500	626.365	80.004	19.993	103.171	20.264	2.237	0.484
1089.000	626.648	80.005	19.994	103.170	20.265	2.224	0.482
1089.500	626.903	80.006	19.995	103.173	20.266	2.090	0.516
1090.000	627.144	80.005	19.995	103.174	20.265	2.166	0.517
1090.500	627.344	80.004	19.994	103.174	20.264	2.286	0.468
1091.000	627.613	80.004	19.993	103.175	20.263	2.364	0.455
1091.501	627.876	80.005	19.993	103.177	20.263	2.355	0.501
1092.001	628.106	80.004	19.994	103.177	20.262	2.404	0.513
1092.500	628.355	80.004	19.994	103.177	20.262	2.385	0.485
1093.000	628.642	80.004	19.994	103.177	20.256	2.791	0.507
1093.500	628.906	80.004	19.994	103.177	20.263	2.330	0.544
1094.000	629.120	80.005	19.994	103.178	20.259	2.631	0.514
1094.500	629.396	80.005	19.996	103.180	20.262	2.374	0.484
1095.000	629.651	80.004	19.994	103.181	20.260	2.577	0.511
1095.500	629.874	80.005	19.994	103.180	20.259	2.604	0.505
1096.000	630.142	80.004	19.994	103.178	20.266	2.099	0.485
1096.500	630.399	80.005	19.995	103.178	20.259	2.579	0.508
1097.000	630.616	80.005	19.995	103.177	20.260	2.553	0.500
1097.500	630.901	80.003	19.994	103.176	20.261	2.478	0.488
1098.000	631.155	80.004	19.995	103.178	20.261	2.499	0.520
1098.500	631.410	80.006	19.995	103.181	20.264	2.246	0.524
1099.000	631.661	80.006	19.996	103.181	20.259	2.589	0.508
1099.500	631.943	80.004	19.994	103.182	20.262	2.429	0.519
1100.000	632.182	80.004	19.995	103.182	20.264	2.275	0.527
1100.501	632.438	80.005	19.994	103.180	20.265	2.162	0.508
1101.001	632.705	80.005	19.994	103.178	20.267	2.060	0.509
1101.500	632.967	80.005	19.994	103.178	20.264	2.290	0.526
1102.000	633.209	80.005	19.994	103.178	20.265	2.210	0.517
1102.500	633.464	80.006	19.996	103.177	20.264	2.246	0.501
1103.000	633.763	80.005	19.995	103.177	20.261	2.497	0.525
1103.500	633.989	80.005	19.996	103.177	20.265	2.189	0.540
1104.000	634.256	80.005	19.995	103.177	20.264	2.263	0.509
1104.500	634.523	80.005	19.995	103.172	20.265	2.214	0.513
1105.000	634.782	80.005	19.996	103.165	20.265	2.172	0.530
1105.500	635.032	80.005	19.995	103.161	20.265	2.168	0.517
1106.000	635.285	80.006	19.995	103.160	20.261	2.501	0.506
1106.500	635.529	80.005	19.995	103.159	20.267	2.040	0.500
1107.000	635.843	80.005	19.994	103.162	20.263	2.350	0.527
1107.500	636.100	80.006	19.994	103.168	20.268	1.974	0.565
1108.000	636.361	80.006	19.995	103.172	20.267	2.082	0.545
1108.500	636.592	80.006	19.994	103.172	20.264	2.249	0.505
1109.000	636.848	80.006	19.994	103.171	20.269	1.922	0.490
1109.500	637.104	80.007	19.994	103.166	20.269	1.907	0.499
1110.001	637.399	80.005	19.994	103.163	20.266	2.120	0.531
1110.501	637.669	80.006	19.993	103.160	20.263	2.330	0.558
1111.000	637.915	80.005	19.993	103.161	20.271	1.797	0.541
1111.500	638.167	80.005	19.993	103.163	20.270	1.827	0.507
1112.000	638.446	80.007	19.995	103.165	20.264	2.252	0.514
1112.500	638.672	80.007	19.994	103.164	20.266	2.126	0.518
1113.000	638.960	80.006	19.993	103.167	20.267	2.033	0.510
1113.500	639.260	80.006	19.994	103.164	20.270	1.869	0.551
1114.000	639.510	80.006	19.994	103.161	20.268	1.987	0.569
1114.500	639.750	80.005	19.995	103.162	20.262	2.412	0.520
1115.000	640.037	80.005	19.994	103.164	20.262	2.414	0.509
1115.500	640.280	80.005	19.993	103.159	20.270	1.829	0.529
1116.000	640.540	80.006	19.994	103.154	20.269	1.907	0.517
1116.500	640.792	80.005	19.994	103.150	20.265	2.178	0.508
1117.000	641.021	80.005	19.994	103.149	20.268	2.002	0.496
1117.500	641.313	80.006	19.994	103.147	20.265	2.208	0.501
1118.000	641.602	80.006	19.994	103.145	20.266	2.149	0.551
1118.500	641.807	80.004	19.995	103.144	20.265	2.162	0.537
1119.000	642.118	80.004	19.994	103.144	20.266	2.128	0.505
1119.500	642.353	80.006	19.994	103.143	20.267	2.076	0.531
1120.000	642.637	80.005	19.993	103.145	20.266	2.105	0.532
1120.500	642.907	80.005	19.995	103.150	20.266	2.157	0.536
1121.001	643.120	80.006	19.994	103.157	20.264	2.282	0.519
1121.501	643.423	80.007	19.995	103.164	20.269	1.881	0.500
1122.000	643.672	80.005	19.994	103.170	20.267	2.066	0.534
1122.500	643.911	80.005	19.994	103.170	20.264	2.229	0.520
1123.000	644.166	80.006	19.995	103.167	20.269	1.938	0.491
1123.500	644.437	80.004	19.994	103.167	20.269	1.942	0.510
1124.000	644.692	80.006	19.994	103.167	20.268	1.997	0.526
1124.500	644.953	80.005	19.994	103.168	20.269	1.902	0.522
1125.000	645.200	80.004	19.995	103.170	20.269	1.889	0.512
1125.500	645.495	80.006	19.996	103.175	20.267	2.027	0.525
1126.000	645.727	80.005	19.994	103.175	20.268	1.983	0.534
1126.501	646.015	80.006	19.995	103.173	20.271	1.738	0.523
1127.001	646.230	80.006	19.995	103.171	20.266	2.114	0.511
1127.501	646.507	80.007	19.995	103.167	20.266	2.124	0.497
1128.001	646.780	80.005	19.995	103.164	20.271	1.753	0.521
1128.500	647.032	80.005	19.994	103.159	20.272	1.720	0.537
1129.000	647.306	80.005	19.995	103.153	20.272	1.702	0.525
1129.500	647.556	80.005	19.995	103.150	20.273	1.643	0.525
1130.000	647.819	80.005	19.994	103.150	20.272	1.704	0.518
1130.501	648.071	80.006	19.995	103.153	20.269	1.938	0.514
1131.001	648.317	80.006	19.995	103.157	20.269	1.883	0.507
1131.500	648.591	80.007	19.995	103.164	20.274	1.595	0.509
1132.000	648.816	80.005	19.995	103.169	20.269	1.890	0.509
1132.500	649.105	80.006	19.994	103.172	20.272	1.717	0.506
1133.000	649.362	80.007	19.995	103.177	20.271	1.761	0.530
1133.501	649.635	80.007	19.995	103.186	20.273	1.612	0.538
1134.001	649.904	80.006	19.995	103.191	20.274	1.574	0.536
1134.500	650.152	80.005	19.994	103.194	20.274	1.574	0.529
1135.000	650.438	80.006	19.994	103.198	20.272	1.679	0.525
1135.500	650.696	80.006	19.995	103.193	20.274	1.547	0.539
1136.000	650.963	80.005	19.996	103.181	20.271	1.787	0.535
1136.500	651.231	80.006	19.996	103.168	20.274	1.587	0.530
1137.000	651.507	80.007	19.995	103.158	20.270	1.869	0.540
1137.500	651.749	80.005	19.996	103.145	20.270	1.833	0.531
1138.000	651.992	80.008	19.996	103.138	20.271	1.791	0.502
1138.500	652.259	80.006	19.994	103.135	20.269	1.882	0.497
1139.000	652.550	80.006	19.996	103.138	20.269	1.898	0.534
1139.501	652.818	80.005	19.995	103.150	20.273	1.599	0.559
1140.001	653.027	80.004	19.995	103.161	20.269	1.907	0.518
1140.501	653.290	80.006	19.995	103.169	20.274	1.550	0.474
1141.001	653.570	80.003	19.995	103.177	20.270	1.877	0.507
1141.501	653.868	80.004	19.995	103.181	20.268	1.995	0.561
1142.001	654.127	80.005	19.996	103.178	20.274	1.557	0.568
1142.501	654.411	80.003	19.993	103.174	20.272	1.736	0.550
1143.001	654.675	80.005	19.995	103.174	20.272	1.723	0.545
1143.500	654.938	80.004	19.995	103.173	20.273	1.627	0.537
1144.000	655.191	80.004	19.994	103.168	20.273	1.603	0.521
1144.500	655.427	80.004	19.994	103.164	20.269	1.928	0.503
1145.001	655.680	80.004	19.994	103.162	20.275	1.526	0.489
1145.501	655.954	80.004	19.995	103.158	20.274	1.555	0.508
1146.000	656.168	80.004	19.994	103.153	20.275	1.471	0.507
1146.500	656.464	80.004	19.994	103.150	20.276	1.433	0.499
1147.001	656.705	80.005	19.995	103.147	20.272	1.673	0.524
1147.501	656.963	80.004	19.995	103.142	20.272	1.696	0.518
1148.000	657.221	80.006	19.995	103.142	20.271	1.772	0.507
1148.500	657.453	80.004	19.994	103.140	20.271	1.782	0.503
1149.000	657.743	80.003	19.994	103.140	20.274	1.565	0.506
1149.500	658.016	80.005	19.996	103.146	20.271	1.757	0.543
1150.001	658.298	80.005	19.995	103.155	20.275	1.512	0.558
1150.501	658.473	80.005	19.995	103.160	20.277	1.376	0.506
1151.000	658.753	80.004	19.994	103.169	20.272	1.694	0.457
1151.500	658.992	80.003	19.993	103.177	20.273	1.654	0.487
1152.001	659.301	80.005	19.993	103.179	20.270	1.854	0.534
1152.501	659.560	80.006	19.994	103.179	20.271	1.755	0.558
1153.000	659.797	80.003	19.994	103.178	20.272	1.694	0.532
1153.500	660.097	80.004	19.995	103.171	20.273	1.658	0.516
1154.000	660.353	80.005	19.993	103.163	20.269	1.911	0.546
1154.500	660.612	80.004	19.994	103.159	20.271	1.749	0.536
1155.000	660.881	80.004	19.994	103.155	20.273	1.631	0.521
1155.500	661.135	80.004	19.993	103.151	20.270	1.831	0.525
1156.000	661.370	80.004	19.994	103.150	20.275	1.464	0.506
1156.500	661.605	80.004	19.994	103.150	20.274	1.593	0.480
1157.000	661.889	80.005	19.994	103.147	20.271	1.806	0.495
1157.500	662.228	80.004	19.994	103.142	20.270	1.829	0.571
1158.000	662.459	80.004	19.993	103.140	20.275	1.502	0.596
1158.500	662.702	80.005	19.993	103.148	20.271	1.772	0.522
1159.000	662.933	80.006	19.994	103.156	20.276	1.429	0.474
1159.500	663.204	80.005	19.993	103.164	20.275	1.483	0.488
1160.000	663.439	80.005	19.994	103.172	20.276	1.448	0.504
1160.500	663.701	80.005	19.994	103.178	20.274	1.563	0.502
1161.001	663.951	80.005	19.994	103.179	20.273	1.601	0.504
1161.501	664.240	80.006	19.994	103.178	20.275	1.494	0.526
1162.000	664.445	80.005	19.993	103.175	20.270	1.828	0.516
1162.500	664.711	80.005	19.994	103.174	20.274	1.593	0.482
1163.000	664.967	80.005	19.995	103.170	20.274	1.580	0.497
1163.500	665.227	80.003	19.993	103.166	20.271	1.770	0.520
1164.000	665.482	80.004	19.995	103.161	20.272	1.732	0.516
1164.500	665.718	80.004	19.995	103.158	20.272	1.700	0.503
1165.000	665.940	80.004	19.994	103.155	20.273	1.609	0.474
1165.500	666.209	80.004	19.994	103.156	20.273	1.633	0.474
1166.001	666.486	80.004	19.994	103.156	20.275	1.500	0.519
1166.501	666.707	80.004	19.993	103.158	20.270	1.822	0.522
1167.000	666.967	80.006	19.994	103.162	20.272	1.719	0.489
1167.500	667.203	80.005	19.994	103.165	20.275	1.485	0.489
1168.000	667.476	80.004	19.994	103.161	20.272	1.685	0.503
1168.500	667.705	80.005	19.994	103.158	20.272	1.706	0.506
1169.000	667.992	80.006	19.995	103.153	20.275	1.494	0.509
1169.500	668.238	80.004	19.995	103.150	20.276	1.392	0.524
1170.000	668.500	80.005	19.995	103.148	20.271	1.780	0.520
1170.500	668.763	80.003	19.993	103.149	20.272	1.732	0.517
1171.000	669.010	80.004	19.995	103.155	20.274	1.548	0.518
1171.500	669.226	80.005	19.994	103.163	20.275	1.468	0.486
1172.000	669.483	80.004	19.995	103.169	20.277	1.376	0.467
1172.500	669.769	80.005	19.994	103.171	20.274	1.595	0.508
1173.000	670.048	80.003	19.995	103.178	20.274	1.534	0.554
1173.500	670.273	80.004	19.994	103.175	20.275	1.519	0.535
1174.001	670.540	80.004	19.994	103.174	20.276	1.401	0.498
1174.501	670.752	80.005	19.994	103.172	20.276	1.444	0.486
1175.000	671.030	80.004	19.995	103.171	20.273	1.646	0.485
1175.500	671.276	80.004	19.993	103.171	20.274	1.591	0.507
1176.000	671.541	80.003	19.994	103.175	20.278	1.288	0.517
1176.500	671.781	80.004	19.995	103.177	20.272	1.673	0.508
1177.000	672.035	80.004	19.994	103.178	20.275	1.517	0.500
1177.500	672.280	80.004	19.993	103.180	20.275	1.486	0.496
1178.000	672.517	80.003	19.993	103.175	20.277	1.368	0.490
1178.500	672.812	80.004	19.994	103.172	20.274	1.559	0.507
1179.000	673.070	80.004	19.994	103.170	20.276	1.412	0.543
1179.500	673.328	80.005	19.994	103.169	20.275	1.475	0.535
1180.000	673.559	80.005	19.993	103.168	20.276	1.448	0.502
1180.500	673.851	80.005	19.993	103.172	20.273	1.643	0.505
1181.000	674.081	80.005	19.994	103.173	20.276	1.399	0.522
1181.500	674.357	80.005	19.994	103.170	20.275	1.496	0.514
1182.000	674.590	80.005	19.994	103.168	20.277	1.340	0.508
1182.500	674.858	80.006	19.994	103.165	20.279	1.227	0.505
1183.000	675.155	80.005	19.995	103.158	20.273	1.602	0.533
1183.500	675.337	80.005	19.994	103.155	20.275	1.494	0.522
1184.000	675.609	80.006	19.994	103.152	20.273	1.614	0.467
1184.500	675.854	80.006	19.994	103.147	20.273	1.648	0.486
1185.000	676.162	80.005	19.994	103.142	20.277	1.357	0.535
1185.500	676.391	80.006	19.994	103.142	20.272	1.709	0.544
1186.000	676.643	80.006	19.994	103.139	20.270	1.823	0.509
1186.500	676.895	80.007	19.995	103.138	20.270	1.848	0.493
1187.000	677.141	80.006	19.993	103.137	20.271	1.797	0.501
1187.500	677.437	80.006	19.994	103.137	20.271	1.782	0.520
1188.000	677.668	80.007	19.994	103.141	20.269	1.880	0.535
1188.500	677.923	80.007	19.994	103.148	20.270	1.871	0.506
1189.000	678.178	80.006	19.994	103.155	20.266	2.099	0.498
1189.501	678.393	80.005	19.994	103.159	20.276	1.429	0.489
1190.001	678.681	80.006	19.994	103.161	20.273	1.602	0.486
1190.500	678.893	80.006	19.994	103.162	20.270	1.833	0.502
1191.000	679.170	80.005	19.995	103.159	20.270	1.842	0.495
1191.500	679.446	80.006	19.994	103.153	20.272	1.711	0.521
1192.000	679.694	80.007	19.995	103.149	20.273	1.647	0.539
1192.500	679.947	80.006	19.994	103.147	20.276	1.428	0.512
1193.000	680.209	80.006	19.995	103.141	20.271	1.738	0.508
1193.500	680.433	80.006	19.994	103.136	20.273	1.620	0.500
1194.001	680.684	80.006	19.995	103.136	20.273	1.633	0.480
1194.501	680.982	80.006	19.994	103.136	20.272	1.715	0.512
1195.000	681.197	80.006	19.995	103.136	20.274	1.570	0.531
1195.500	681.461	80.006	19.994	103.139	20.272	1.671	0.496
1196.000	681.700	80.007	19.994	103.147	20.270	1.863	0.491
1196.500	681.952	80.006	19.996	103.153	20.276	1.420	0.497
1197.000	682.214	80.006	19.995	103.160	20.268	1.989	0.503
1197.500	682.455	80.005	19.995	103.166	20.270	1.852	0.509
1198.000	682.695	80.005	19.995	103.164	20.272	1.724	0.492
1198.500	682.946	80.005	19.995	103.158	20.272	1.720	0.486
1199.000	683.174	80.006	19.995	103.153	20.270	1.808	0.485
1199.500	683.430	80.006	19.994	103.149	20.270	1.869	0.482
1200.000	683.694	80.006	19.995	103.147	20.273	1.637	0.502
1200.501	683.941	80.003	19.994	103.147	20.271	1.747	0.516
1201.001	684.189	80.005	19.995	103.147	20.270	1.867	0.503
1201.501	684.443	80.005	19.995	103.153	20.270	1.812	0.498
1202.000	684.665	80.006	19.995	103.158	20.272	1.680	0.489
1202.500	684.945	80.004	19.994	103.160	20.274	1.530	0.489
1203.000	685.215	80.006	19.995	103.166	20.273	1.627	0.526
1203.501	685.416	80.006	19.994	103.169	20.277	1.357	0.511
1204.001	685.689	80.006	19.993	103.166	20.271	1.791	0.472
1204.501	685.957	80.007	19.994	103.159	20.272	1.675	0.507
1205.000	686.197	80.006	19.994	103.151	20.272	1.678	0.525
1205.500	686.442	80.006	19.994	103.143	20.278	1.294	0.497
1206.001	686.705	80.006	19.995	103.140	20.274	1.543	0.496
1206.501	686.968	80.006	19.994	103.138	20.278	1.275	0.517
1207.000	687.244	80.006	19.994	103.143	20.274	1.528	0.532
1207.501	687.423	80.006	19.994	103.148	20.270	1.829	0.497
1208.001	687.730	80.006	19.994	103.149	20.274	1.583	0.470
1208.500	687.978	80.006	19.993	103.150	20.275	1.505	0.521
1209.000	688.215	80.007	19.994	103.147	20.273	1.654	0.520
1209.500	688.500	80.006	19.994	103.144	20.275	1.490	0.503
1210.001	688.735	80.006	19.994	103.143	20.276	1.391	0.521
1210.501	688.976	80.006	19.994	103.144	20.274	1.532	0.498
1211.000	689.190	80.007	19.994	103.142	20.277	1.345	0.465
1211.500	689.466	80.008	19.994	103.142	20.276	1.454	0.473
1212.000	689.724	80.007	19.994	103.140	20.273	1.648	0.512
1212.500	689.953	80.007	19.993	103.137	20.275	1.484	0.510
1213.000	690.237	80.007	19.993	103.141	20.276	1.389	0.500
1213.500	690.472	80.009	19.995	103.144	20.274	1.553	0.516
1214.000	690.727	80.008	19.995	103.148	20.278	1.298	0.505
1214.500	690.956	80.005	19.994	103.148	20.275	1.525	0.487
1215.000	691.236	80.007	19.993	103.145	20.273	1.658	0.497
1215.500	691.498	80.007	19.995	103.140	20.273	1.633	0.525
1216.000	691.714	80.007	19.995	103.138	20.273	1.633	0.510
1216.500	691.993	80.007	19.993	103.135	20.276	1.450	0.486
1217.000	692.233	80.006	19.994	103.135	20.274	1.574	0.507
1217.500	692.507	80.007	19.994	103.137	20.273	1.614	0.517
1218.000	692.725	80.005	19.994	103.137	20.274	1.574	0.503
1218.500	692.975	80.005	19.994	103.137	20.273	1.612	0.480
1219.000	693.237	80.004	19.994	103.133	20.272	1.732	0.490
1219.500	693.504	80.005	19.995	103.128	20.274	1.580	0.521
1220.000	693.794	80.006	19.995	103.128	20.274	1.532	0.543
1220.500	693.985	80.004	19.995	103.128	20.271	1.749	0.519
1221.000	694.286	80.004	19.995	103.128	20.269	1.911	0.487
1221.500	694.530	80.005	19.994	103.131	20.275	1.523	0.518
1222.000	694.809	80.004	19.995	103.141	20.271	1.740	0.534
1222.500	695.026	80.004	19.995	103.143	20.275	1.460	0.509
1223.000	695.292	80.003	19.996	103.144	20.273	1.626	0.489
1223.500	695.531	80.003	19.996	103.146	20.278	1.304	0.495
1224.000	695.799	80.003	19.995	103.152	20.272	1.709	0.506
1224.500	696.069	80.004	19.994	103.154	20.274	1.559	0.522
1225.000	696.309	80.003	19.996	103.157	20.276	1.456	0.524
1225.500	696.577	80.003	19.995	103.160	20.278	1.289	0.509
1226.000	696.833	80.004	19.995	103.163	20.277	1.325	0.516
1226.500	697.117	80.003	19.996	103.158	20.278	1.252	0.532
1227.000	697.350	80.003	19.996	103.153	20.274	1.557	0.529
1227.500	697.606	80.004	19.996	103.149	20.273	1.633	0.503
1228.000	697.839	80.005	19.995	103.145	20.272	1.677	0.489
1228.500	698.110	80.003	19.996	103.143	20.272	1.732	0.496
1229.000	698.363	80.004	19.995	103.146	20.276	1.433	0.514
1229.500	698.626	80.003	19.995	103.146	20.273	1.627	0.520
1230.000	698.897	80.003	19.996	103.145	20.274	1.542	0.525
1230.500	699.118	80.003	19.994	103.147	20.277	1.363	0.513
1231.000	699.391	80.004	19.995	103.145	20.275	1.464	0.493
1231.500	699.627	80.006	19.995	103.142	20.275	1.513	0.501
1232.001	699.912	80.006	19.995	103.144	20.275	1.521	0.515
1232.501	700.142	80.004	19.995	103.150	20.272	1.700	0.518
1233.000	700.396	80.004	19.994	103.155	20.272	1.679	0.500
1233.500	700.665	80.005	19.994	103.161	20.276	1.403	0.504
1234.000	700.916	80.005	19.995	103.168	20.274	1.561	0.521
1234.500	701.161	80.004	19.994	103.169	20.275	1.515	0.508
1235.001	701.434	80.005	19.994	103.167	20.274	1.538	0.507
1235.501	701.686	80.006	19.994	103.161	20.274	1.587	0.522
1236.000	701.950	80.005	19.995	103.160	20.275	1.521	0.520
1236.500	702.179	80.005	19.995	103.159	20.275	1.492	0.505
1237.000	702.477	80.004	19.993	103.161	20.271	1.757	0.510
1237.500	702.687	80.005	19.994	103.164	20.277	1.373	0.517
1238.001	702.966	80.003	19.993	103.170	20.273	1.631	0.498
1238.501	703.207	80.005	19.994	103.168	20.274	1.561	0.504
1239.000	703.462	80.005	19.993	103.168	20.276	1.445	0.508
1239.500	703.724	80.006	19.995	103.163	20.278	1.313	0.507
1240.000	703.966	80.005	19.994	103.158	20.277	1.372	0.511
1240.500	704.229	80.005	19.995	103.152	20.274	1.564	0.504
1241.000	704.477	80.004	19.994	103.148	20.274	1.580	0.508
1241.500	704.698	80.004	19.994	103.145	20.276	1.443	0.490
1242.000	704.953	80.005	19.993	103.151	20.275	1.481	0.473
1242.500	705.212	80.004	19.994	103.158	20.275	1.509	0.495
1243.000	705.495	80.004	19.993	103.166	20.268	1.970	0.527
1243.500	705.726	80.004	19.994	103.172	20.274	1.530	0.527
1244.000	705.967	80.004	19.994	103.168	20.274	1.544	0.493
1244.500	706.230	80.005	19.994	103.161	20.272	1.688	0.488
1245.000	706.478	80.004	19.993	103.153	20.274	1.574	0.508
1245.500	706.712	80.004	19.994	103.149	20.276	1.439	0.497
1246.000	706.969	80.006	19.994	103.149	20.276	1.429	0.486
1246.500	707.235	80.004	19.994	103.156	20.273	1.646	0.507
1247.000	707.460	80.006	19.994	103.164	20.276	1.387	0.507
1247.500	707.731	80.005	19.994	103.170	20.276	1.429	0.493
1248.000	707.984	80.004	19.994	103.173	20.275	1.467	0.510
1248.500	708.226	80.006	19.995	103.174	20.272	1.736	0.510
1249.000	708.507	80.004	19.996	103.171	20.273	1.660	0.509
1249.500	708.735	80.004	19.994	103.165	20.276	1.393	0.516
1250.000	708.987	80.004	19.994	103.159	20.273	1.610	0.494
1250.500	709.228	80.005	19.995	103.153	20.272	1.703	0.487
1251.000	709.494	80.004	19.994	103.150	20.273	1.643	0.500
1251.500	709.770	80.004	19.995	103.151	20.274	1.597	0.524
1252.000	709.999	80.005	19.994	103.153	20.274	1.557	0.523
1252.500	710.229	80.004	19.995	103.152	20.274	1.563	0.482
1253.000	710.506	80.004	19.995	103.153	20.275	1.477	0.483
1253.500	710.759	80.005	19.995	103.152	20.272	1.684	0.518
1254.000	710.990	80.004	19.994	103.149	20.273	1.640	0.507
1254.500	711.266	80.003	19.996	103.148	20.270	1.844	0.496
1255.000	711.512	80.004	19.994	103.151	20.276	1.414	0.515
1255.500	711.754	80.005	19.995	103.151	20.273	1.604	0.505
1256.000	712.018	80.004	19.995	103.150	20.274	1.570	0.497
1256.500	712.249	80.004	19.994	103.147	20.270	1.859	0.501
1257.000	712.498	80.005	19.995	103.148	20.274	1.547	0.487
1257.500	712.766	80.005	19.995	103.151	20.273	1.619	0.498
1258.000	713.029	80.004	19.994	103.150	20.271	1.751	0.524
1258.500	713.292	80.005	19.995	103.147	20.276	1.439	0.528
1259.000	713.538	80.005	19.994	103.150	20.272	1.682	0.518
1259.500	713.791	80.005	19.995	103.153	20.277	1.338	0.504
1260.000	714.021	80.004	19.995	103.150	20.266	2.154	0.491
1260.501	714.261	80.005	19.995	103.150	20.276	1.397	0.477
1261.001	714.503	80.004	19.995	103.153	20.274	1.562	0.476
1261.500	714.777	80.005	19.995	103.157	20.272	1.690	0.498
1262.001	715.021	80.004	19.994	103.154	20.271	1.791	0.517
1262.501	715.293	80.004	19.995	103.154	20.275	1.467	0.518
1263.000	715.547	80.005	19.995	103.153	20.273	1.608	0.521
1263.500	715.816	80.006	19.994	103.150	20.272	1.688	0.524
1264.000	716.041	80.004	19.994	103.143	20.275	1.459	0.508
1264.500	716.281	80.005	19.996	103.139	20.275	1.509	0.480
1265.000	716.521	80.006	19.995	103.139	20.273	1.652	0.472
1265.500	716.785	80.006	19.994	103.139	20.276	1.402	0.492
1266.000	717.062	80.005	19.995	103.145	20.273	1.619	0.523
1266.500	717.247	80.006	19.994	103.146	20.275	1.509	0.501
1267.000	717.513	80.007	19.995	103.146	20.269	1.908	0.457
1267.500	717.777	80.006	19.994	103.144	20.277	1.345	0.491
1268.000	717.989	80.007	19.995	103.142	20.276	1.452	0.503
1268.500	718.229	80.004	19.994	103.137	20.273	1.652	0.464
1269.000	718.496	80.007	19.994	103.136	20.275	1.482	0.480
1269.500	718.772	80.007	19.994	103.136	20.274	1.583	0.525
1270.000	718.996	80.008	19.995	103.136	20.274	1.535	0.521
1270.500	719.213	80.007	19.993	103.137	20.277	1.368	0.471
1271.000	719.500	80.007	19.994	103.138	20.273	1.600	0.473
1271.500	719.747	80.007	19.994	103.139	20.274	1.545	0.519
1272.000	720.001	80.007	19.994	103.140	20.273	1.612	0.517
1272.500	720.211	80.008	19.994	103.139	20.276	1.389	0.482
1273.000	720.462	80.005	19.994	103.138	20.272	1.694	0.462
1273.500	720.745	80.007	19.992	103.133	20.274	1.589	0.497
1274.001	720.981	80.006	19.993	103.129	20.276	1.397	0.527
1274.501	721.173	80.005	19.994	103.127	20.274	1.595	0.474
1275.001	721.402	80.007	19.994	103.128	20.272	1.702	0.425
1275.500	721.642	80.007	19.994	103.127	20.274	1.582	0.445
1276.000	721.900	80.007	19.994	103.125	20.271	1.784	0.484
1276.500	722.160	80.005	19.995	103.127	20.277	1.365	0.508
1277.000	722.403	80.006	19.994	103.128	20.271	1.742	0.511
1277.500	722.663	80.006	19.994	103.127	20.269	1.937	0.503
1278.000	722.901	80.006	19.994	103.126	20.272	1.711	0.501
1278.501	723.145	80.005	19.994	103.131	20.272	1.677	0.490
1279.001	723.403	80.004	19.993	103.132	20.276	1.414	0.492
1279.501	723.636	80.004	19.995	103.130	20.270	1.810	0.496
1280.000	723.863	80.006	19.994	103.127	20.270	1.835	0.476
1280.500	724.137	80.005	19.993	103.124	20.272	1.684	0.480
1281.000	724.375	80.006	19.993	103.120	20.271	1.745	0.506
1281.500	724.617	80.006	19.993	103.116	20.273	1.623	0.496
1282.000	724.882	80.007	19.994	103.116	20.272	1.696	0.494
1282.500	725.087	80.004	19.994	103.120	20.274	1.539	0.488
1283.000	725.326	80.007	19.995	103.127	20.271	1.804	0.457
1283.500	725.593	80.006	19.995	103.135	20.274	1.539	0.475
1284.000	725.845	80.005	19.994	103.148	20.276	1.395	0.512
1284.500	726.077	80.006	19.995	103.158	20.275	1.500	0.502
1285.000	726.335	80.005	19.994	103.167	20.274	1.547	0.487
1285.500	726.579	80.005	19.994	103.173	20.271	1.795	0.496
1286.000	726.839	80.006	19.995	103.174	20.277	1.384	0.503
1286.500	727.079	80.006	19.994	103.172	20.275	1.460	0.503
1287.000	727.284	80.006	19.995	103.167	20.274	1.542	0.473
1287.500	727.550	80.007	19.995	103.163	20.273	1.656	0.458
1288.000	727.823	80.005	19.995	103.155	20.276	1.439	0.505
1288.501	728.042	80.005	19.994	103.152	20.274	1.541	0.516
1289.001	728.302	80.006	19.994	103.148	20.270	1.821	0.485
1289.501	728.583	80.006	19.995	103.145	20.276	1.454	0.509
1290.000	728.783	80.006	19.994	103.141	20.278	1.260	0.511
1290.500	729.039	80.005	19.994	103.142	20.275	1.498	0.468
1291.000	729.289	80.008	19.994	103.141	20.271	1.783	0.481
1291.500	729.536	80.006	19.994	103.139	20.276	1.427	0.502
1292.000	729.797	80.007	19.994	103.140	20.276	1.387	0.503
1292.500	730.027	80.007	19.994	103.139	20.273	1.640	0.500
1293.000	730.290	80.007	19.994	103.139	20.276	1.450	0.492
1293.500	730.496	80.007	19.994	103.137	20.273	1.616	0.481
1294.000	730.786	80.006	19.994	103.137	20.273	1.618	0.483
1294.500	731.011	80.007	19.994	103.136	20.275	1.492	0.505
1295.000	731.251	80.007	19.994	103.136	20.277	1.330	0.490
1295.500	731.529	80.005	19.994	103.139	20.277	1.382	0.491
1296.000	731.757	80.006	19.994	103.143	20.272	1.686	0.512
1296.500	732.000	80.007	19.995	103.150	20.272	1.688	0.488
1297.000	732.281	80.006	19.993	103.152	20.276	1.442	0.497
1297.500	732.523	80.007	19.994	103.152	20.271	1.760	0.524
1298.000	732.774	80.006	19.995	103.149	20.273	1.652	0.508
1298.500	733.025	80.005	19.993	103.145	20.276	1.410	0.497
1299.001	733.236	80.006	19.995	103.138	20.277	1.368	0.482
1299.501	733.528	80.005	19.992	103.133	20.274	1.576	0.482
1300.000	733.776	80.005	19.995	103.132	20.276	1.389	0.521
1300.500	733.975	80.005	19.993	103.132	20.276	1.443	0.494
1301.000	734.259	80.005	19.994	103.133	20.274	1.582	0.466
1301.500	734.452	80.005	19.993	103.134	20.276	1.407	0.480
1302.000	734.728	80.004	19.993	103.136	20.274	1.548	0.473
1302.500	734.975	80.005	19.994	103.139	20.273	1.625	0.496
1303.000	735.256	80.005	19.995	103.139	20.275	1.462	0.526
1303.500	735.514	80.005	19.995	103.140	20.276	1.431	0.534
1304.001	735.755	80.005	19.995	103.140	20.281	1.102	0.519
1304.501	735.980	80.004	19.994	103.144	20.275	1.479	0.482
1305.000	736.218	80.005	19.993	103.152	20.277	1.328	0.465
1305.500	736.477	80.004	19.993	103.158	20.274	1.568	0.480
1306.000	736.742	80.004	19.994	103.159	20.277	1.326	0.510
1306.500	737.015	80.006	19.995	103.156	20.280	1.147	0.531
1307.000	737.274	80.005	19.993	103.152	20.278	1.284	0.535
1307.500	737.510	80.004	19.994	103.144	20.284	0.860	0.514
1308.000	737.752	80.003	19.994	103.137	20.281	1.071	0.487
1308.500	737.976	80.003	19.993	103.133	20.279	1.235	0.472
1309.000	738.227	80.004	19.995	103.134	20.277	1.355	0.471
1309.500	738.487	80.003	19.994	103.135	20.274	1.543	0.493
1310.000	738.754	80.005	19.994	103.136	20.276	1.435	0.519
1310.500	738.954	80.005	19.994	103.142	20.274	1.549	0.497
1311.000	739.203	80.005	19.994	103.152	20.275	1.481	0.459
1311.500	739.467	80.004	19.995	103.161	20.281	1.050	0.481
1312.000	739.730	80.004	19.994	103.168	20.272	1.677	0.519
1312.500	739.968	80.005	19.994	103.171	20.278	1.275	0.514
1313.000	740.223	80.004	19.995	103.165	20.278	1.292	0.497
1313.500	740.495	80.003	19.994	103.158	20.276	1.401	0.510
1314.000	740.764	80.004	19.995	103.149	20.271	1.783	0.534
1314.500	740.995	80.004	19.995	103.141	20.276	1.399	0.520
1315.000	741.221	80.004	19.994	103.136	20.275	1.492	0.479
1315.500	741.472	80.005	19.994	103.135	20.276	1.410	0.467
1316.000	741.725	80.003	19.995	103.133	20.278	1.250	0.491
1316.500	741.989	80.004	19.994	103.133	20.278	1.307	0.510
1317.000	742.237	80.004	19.995	103.133	20.277	1.324	0.514
1317.500	742.483	80.004	19.996	103.134	20.276	1.420	0.503
1318.000	742.743	80.004	19.995	103.135	20.279	1.203	0.500
1318.500	742.963	80.004	19.995	103.137	20.279	1.233	0.492
1319.000	743.244	80.005	19.995	103.136	20.278	1.309	0.491
1319.500	743.492	80.004	19.995	103.136	20.277	1.381	0.516
1320.001	743.719	80.003	19.995	103.135	20.277	1.368	0.502
