Sample ID:	C:\MCC\MCC Cal\Test\Pine_Siding\Pine_Siding_30_2.txt
Sample Weight (mg):	4.47
Heating Rate (C/s):	0.5
Combustor Temp (C):	900
N2 Flow Rate (cc/min):	80
O2 Flow Rate (cc/min):	20
Calibration File:	C:\MCC\MCC Cal\Coeff1 JN10440_30_210304.txt.txt
T Correction Coefficients:	0	1.024463	0
Time Shift (s):	14
*
Time (s)	Temperature (C)	N2 flow rate (cc/min)	O2 flow rate (cc/min)	Flow Rate (cc/min)	Oxygen (%)	HRR (W/g)	Heating rate (C/s)
0.000	112.783	79.983	19.992	99.913	19.963	-0.064	0.010
0.500	112.833	79.983	19.992	99.912	19.963	-0.064	0.010
1.000	112.794	79.982	19.991	99.912	19.964	-0.128	0.020
1.500	112.797	79.983	19.992	99.912	19.963	-0.068	-0.012
2.000	112.799	79.985	19.992	99.912	19.961	0.073	-0.015
2.500	112.822	79.984	19.991	99.912	19.963	-0.009	0.015
3.000	112.778	79.983	19.993	99.912	19.967	-0.293	0.002
3.500	112.787	79.983	19.992	99.911	19.967	-0.323	-0.028
4.000	112.779	79.982	19.993	99.911	19.964	-0.086	-0.017
4.500	112.774	79.982	19.992	99.910	19.964	-0.122	-0.006
5.000	112.810	79.982	19.993	99.910	19.965	-0.188	0.009
5.500	112.788	79.983	19.994	99.910	19.963	-0.068	0.023
6.000	112.794	79.982	19.993	99.911	19.964	-0.103	-0.001
6.500	112.802	79.982	19.993	99.911	19.965	-0.205	-0.001
7.000	112.797	79.982	19.994	99.916	19.966	-0.275	0.009
7.500	112.833	79.982	19.993	99.919	19.968	-0.367	0.017
8.000	112.812	79.983	19.993	99.922	19.966	-0.273	0.023
8.500	112.783	79.982	19.993	99.925	19.966	-0.235	-0.017
9.001	112.806	79.983	19.993	99.925	19.963	-0.062	-0.028
9.501	112.766	79.983	19.992	99.921	19.962	0.013	-0.012
10.000	112.784	79.981	19.992	99.920	19.961	0.070	-0.019
10.500	112.794	79.981	19.993	99.917	19.963	-0.075	0.003
11.000	112.788	79.981	19.992	99.921	19.961	0.090	0.016
11.501	112.786	79.981	19.992	99.928	19.961	0.105	-0.002
12.001	112.792	79.982	19.992	99.935	19.963	-0.043	-0.002
12.500	112.798	79.981	19.992	99.941	19.963	-0.077	0.008
13.000	112.789	79.981	19.994	99.949	19.962	0.000	0.004
13.500	112.784	79.980	19.992	99.951	19.960	0.196	-0.008
14.000	112.796	79.981	19.994	99.952	19.959	0.239	-0.004
14.500	112.733	79.980	19.993	99.952	19.957	0.384	-0.023
15.000	112.753	79.981	19.993	99.953	19.959	0.213	-0.047
15.500	112.804	79.981	19.992	99.954	19.957	0.371	0.014
16.000	112.806	79.981	19.993	99.961	19.954	0.580	0.062
16.500	112.789	79.983	19.993	99.970	19.951	0.802	0.019
17.000	112.781	79.983	19.993	99.982	19.948	1.000	-0.020
17.500	112.784	79.981	19.992	99.998	19.951	0.815	-0.015
18.000	112.818	79.983	19.992	100.012	19.949	0.936	0.016
18.500	112.814	79.981	19.991	100.022	19.950	0.870	0.033
19.000	112.811	79.982	19.994	100.028	19.947	1.045	0.011
19.500	112.829	79.982	19.994	100.038	19.944	1.258	0.003
20.000	112.873	79.982	19.994	100.045	19.950	0.894	0.039
20.500	112.908	79.982	19.993	100.048	19.942	1.399	0.071
21.000	112.927	79.983	19.993	100.048	19.944	1.298	0.066
21.500	112.955	79.984	19.992	100.049	19.942	1.437	0.050
22.000	112.982	79.984	19.992	100.045	19.943	1.324	0.051
22.500	112.980	79.982	19.992	100.044	19.940	1.586	0.041
23.000	113.026	79.984	19.993	100.043	19.942	1.405	0.035
23.500	113.020	79.984	19.992	100.043	19.940	1.571	0.042
24.000	113.066	79.981	19.993	100.049	19.937	1.770	0.040
24.500	113.081	79.981	19.995	100.053	19.939	1.657	0.050
25.000	113.143	79.983	19.995	100.056	19.938	1.669	0.068
25.500	113.158	79.983	19.996	100.063	19.939	1.648	0.077
26.000	113.209	79.983	19.995	100.077	19.936	1.859	0.072
26.500	113.258	79.983	19.994	100.087	19.934	2.008	0.083
27.000	113.299	79.984	19.993	100.096	19.936	1.812	0.095
27.500	113.326	79.982	19.993	100.102	19.931	2.196	0.079
28.000	113.349	79.983	19.993	100.107	19.931	2.211	0.059
28.500	113.392	79.983	19.993	100.108	19.933	2.051	0.058
29.000	113.473	79.982	19.993	100.108	19.932	2.126	0.095
29.500	113.496	79.982	19.994	100.110	19.930	2.243	0.114
30.000	113.568	79.983	19.993	100.115	19.931	2.202	0.100
30.500	113.627	79.983	19.992	100.116	19.931	2.189	0.113
31.000	113.694	79.983	19.992	100.123	19.930	2.281	0.128
31.500	113.771	79.982	19.993	100.131	19.926	2.545	0.135
32.000	113.786	79.982	19.993	100.136	19.929	2.345	0.118
32.500	113.864	79.981	19.994	100.140	19.926	2.515	0.093
33.000	113.970	79.980	19.992	100.142	19.929	2.334	0.138
33.500	114.000	79.982	19.992	100.139	19.925	2.628	0.160
34.000	114.107	79.981	19.992	100.137	19.926	2.509	0.136
34.500	114.188	79.980	19.993	100.137	19.924	2.710	0.163
35.000	114.238	79.981	19.994	100.136	19.926	2.565	0.160
35.501	114.338	79.981	19.993	100.140	19.923	2.735	0.140
36.001	114.413	79.982	19.993	100.141	19.923	2.782	0.163
36.501	114.490	79.983	19.993	100.137	19.923	2.739	0.164
37.001	114.584	79.982	19.993	100.133	19.925	2.597	0.161
37.500	114.646	79.983	19.993	100.133	19.924	2.708	0.163
38.000	114.751	79.981	19.993	100.128	19.923	2.725	0.162
38.500	114.868	79.981	19.993	100.129	19.924	2.714	0.195
39.000	114.926	79.982	19.992	100.132	19.922	2.810	0.198
39.500	115.032	79.981	19.992	100.134	19.922	2.808	0.169
40.000	115.129	79.982	19.991	100.136	19.926	2.575	0.183
40.500	115.214	79.981	19.992	100.138	19.923	2.720	0.192
41.000	115.327	79.998	19.997	100.139	19.927	2.483	0.190
41.501	115.437	80.002	19.996	100.144	19.925	2.637	0.211
42.001	115.537	80.003	19.997	100.147	19.924	2.684	0.216
42.501	115.622	80.000	19.997	100.148	19.922	2.795	0.198
43.001	115.777	79.990	19.997	100.151	19.925	2.620	0.213
43.500	115.849	79.983	19.996	100.149	19.924	2.707	0.233
44.000	115.941	79.985	19.996	100.148	19.920	2.933	0.195
44.501	116.062	79.984	19.994	100.147	19.921	2.874	0.188
45.001	116.172	79.984	19.993	100.147	19.918	3.112	0.222
45.500	116.320	79.984	19.993	100.146	19.920	2.970	0.245
46.001	116.421	79.983	19.992	100.145	19.920	2.959	0.254
46.501	116.560	79.985	19.991	100.144	19.920	2.948	0.245
47.001	116.651	79.984	19.991	100.143	19.924	2.673	0.235
47.501	116.796	79.985	19.992	100.142	19.920	2.959	0.233
48.000	116.920	79.983	19.992	100.142	19.921	2.884	0.252
48.501	117.041	79.984	19.991	100.143	19.923	2.774	0.256
49.001	117.142	79.984	19.992	100.144	19.919	3.033	0.233
49.500	117.240	79.984	19.992	100.148	19.918	3.095	0.211
50.000	117.429	79.984	19.991	100.148	19.919	3.044	0.243
50.500	117.515	79.984	19.992	100.149	19.918	3.099	0.281
51.000	117.671	79.986	19.993	100.149	19.918	3.122	0.259
51.500	117.829	79.985	19.991	100.148	19.916	3.237	0.278
52.000	117.910	79.984	19.992	100.145	19.918	3.129	0.276
52.501	118.040	79.985	19.992	100.144	19.917	3.203	0.225
53.001	118.222	79.985	19.992	100.144	19.918	3.079	0.261
53.500	118.337	79.984	19.992	100.144	19.916	3.231	0.305
54.000	118.501	79.985	19.992	100.143	19.917	3.198	0.289
54.500	118.617	79.985	19.992	100.144	19.915	3.335	0.280
55.000	118.756	79.986	19.991	100.145	19.919	3.064	0.267
55.500	118.916	79.984	19.992	100.144	19.918	3.100	0.277
56.000	119.063	79.985	19.991	100.145	19.915	3.297	0.303
56.500	119.195	79.984	19.992	100.146	19.916	3.216	0.293
57.000	119.336	79.984	19.991	100.145	19.916	3.239	0.276
57.501	119.469	79.983	19.991	100.145	19.915	3.278	0.273
58.001	119.605	79.984	19.991	100.145	19.918	3.086	0.271
58.501	119.710	79.984	19.992	100.146	19.919	3.063	0.255
59.001	119.874	79.983	19.992	100.145	19.917	3.182	0.256
59.500	120.047	79.983	19.993	100.145	19.916	3.214	0.303
60.001	120.199	79.982	19.992	100.145	19.916	3.227	0.330
60.501	120.383	79.982	19.992	100.146	19.917	3.160	0.331
61.000	120.547	79.982	19.993	100.150	19.917	3.200	0.342
61.500	120.696	79.983	19.992	100.156	19.914	3.375	0.330
62.000	120.837	79.983	19.992	100.162	19.912	3.534	0.301
62.500	121.034	79.984	19.992	100.167	19.916	3.230	0.314
63.001	121.155	79.984	19.992	100.172	19.913	3.465	0.328
63.501	121.286	79.981	19.992	100.174	19.913	3.443	0.284
64.000	121.472	79.981	19.992	100.177	19.914	3.378	0.284
64.500	121.665	79.983	19.992	100.179	19.914	3.381	0.348
65.000	121.821	79.983	19.991	100.183	19.911	3.618	0.365
65.500	121.963	79.982	19.992	100.185	19.911	3.589	0.324
66.000	122.163	79.982	19.993	100.184	19.911	3.562	0.320
66.500	122.346	79.982	19.992	100.183	19.912	3.536	0.362
67.000	122.526	79.982	19.992	100.177	19.911	3.592	0.373
67.500	122.687	79.983	19.992	100.170	19.910	3.654	0.352
68.000	122.880	79.984	19.992	100.168	19.910	3.696	0.348
68.500	123.033	79.982	19.991	100.167	19.910	3.686	0.350
69.000	123.211	79.982	19.992	100.164	19.913	3.448	0.338
69.500	123.409	79.982	19.993	100.165	19.915	3.290	0.353
70.000	123.592	79.983	19.992	100.170	19.911	3.599	0.379
70.500	123.778	79.982	19.991	100.172	19.908	3.769	0.375
71.000	123.929	79.984	19.992	100.174	19.911	3.582	0.353
71.500	124.088	79.983	19.992	100.176	19.911	3.561	0.324
72.000	124.290	79.983	19.991	100.186	19.913	3.462	0.336
72.500	124.480	79.983	19.992	100.177	19.911	3.610	0.376
73.000	124.653	79.983	19.992	100.145	19.914	3.415	0.378
73.500	124.825	79.983	19.992	100.123	19.910	3.654	0.354
74.000	125.002	79.984	19.992	100.111	19.910	3.688	0.347
74.500	125.226	79.984	19.992	100.099	19.910	3.631	0.375
75.001	125.395	79.983	19.991	100.103	19.912	3.552	0.397
75.501	125.602	79.984	19.992	100.134	19.912	3.509	0.385
76.000	125.796	79.983	19.991	100.178	19.912	3.541	0.389
76.500	125.951	79.982	19.991	100.224	19.911	3.571	0.374
77.000	126.191	79.983	19.991	100.244	19.911	3.601	0.372
77.500	126.356	79.984	19.992	100.255	19.912	3.494	0.401
78.000	126.575	79.983	19.991	100.257	19.912	3.512	0.395
78.500	126.760	79.982	19.992	100.236	19.912	3.511	0.394
79.000	126.906	79.984	19.991	100.204	19.912	3.533	0.367
79.500	127.155	79.984	19.990	100.192	19.910	3.669	0.363
80.000	127.325	79.984	19.992	100.188	19.914	3.388	0.406
80.500	127.525	79.982	19.991	100.188	19.911	3.597	0.394
81.000	127.715	79.983	19.991	100.188	19.908	3.829	0.380
81.500	127.945	79.983	19.991	100.188	19.910	3.643	0.405
82.000	128.187	79.983	19.991	100.188	19.910	3.627	0.446
82.500	128.342	79.982	19.991	100.189	19.910	3.644	0.434
83.000	128.536	79.981	19.991	100.189	19.911	3.607	0.373
83.500	128.769	79.983	19.992	100.189	19.912	3.501	0.388
84.000	128.991	79.982	19.991	100.189	19.912	3.533	0.441
84.500	129.177	79.982	19.991	100.190	19.911	3.563	0.432
85.000	129.400	79.982	19.991	100.190	19.913	3.484	0.408
85.500	129.614	79.982	19.991	100.190	19.915	3.290	0.423
86.000	129.838	79.981	19.991	100.189	19.917	3.203	0.437
86.500	130.044	79.982	19.991	100.188	19.917	3.198	0.434
87.000	130.265	79.982	19.991	100.188	19.915	3.343	0.429
87.500	130.486	79.982	19.991	100.188	19.913	3.447	0.435
88.000	130.687	79.982	19.992	100.189	19.912	3.507	0.432
88.500	130.909	79.982	19.992	100.189	19.911	3.578	0.422
89.000	131.109	79.981	19.991	100.189	19.908	3.778	0.423
89.500	131.300	79.981	19.992	100.189	19.914	3.367	0.407
90.000	131.555	79.982	19.992	100.189	19.910	3.643	0.419
90.500	131.792	79.982	19.992	100.189	19.910	3.624	0.469
91.000	131.976	79.983	19.992	100.189	19.911	3.597	0.456
91.500	132.193	79.982	19.992	100.189	19.910	3.674	0.411
92.000	132.402	79.980	19.992	100.190	19.909	3.722	0.414
92.500	132.618	79.980	19.992	100.190	19.913	3.432	0.426
93.000	132.851	79.982	19.992	100.190	19.912	3.534	0.437
93.500	133.066	79.980	19.992	100.190	19.911	3.596	0.448
94.000	133.326	79.981	19.993	100.190	19.910	3.677	0.461
94.500	133.525	79.981	19.991	100.190	19.909	3.712	0.467
95.000	133.766	79.981	19.991	100.191	19.911	3.570	0.450
95.500	133.991	79.982	19.992	100.191	19.913	3.440	0.453
96.000	134.245	79.981	19.992	100.191	19.909	3.700	0.472
96.500	134.427	79.981	19.991	100.189	19.909	3.765	0.458
97.001	134.671	79.981	19.992	100.189	19.909	3.722	0.431
97.501	134.896	79.982	19.992	100.188	19.909	3.697	0.447
98.000	135.143	79.981	19.991	100.188	19.909	3.699	0.471
98.500	135.379	79.982	19.992	100.190	19.912	3.516	0.478
99.000	135.610	79.983	19.992	100.200	19.906	3.919	0.475
99.501	135.854	79.982	19.991	100.165	19.906	3.964	0.471
100.001	136.090	79.983	19.992	100.136	19.911	3.582	0.477
100.500	136.302	79.982	19.992	100.118	19.910	3.665	0.464
101.000	136.579	79.984	19.992	100.107	19.910	3.689	0.469
101.500	136.791	79.983	19.992	100.099	19.910	3.636	0.489
102.000	137.044	79.983	19.991	100.169	19.910	3.672	0.477
102.500	137.282	79.984	19.991	100.221	19.905	3.991	0.478
103.000	137.498	79.982	19.992	100.247	19.911	3.586	0.473
103.501	137.729	79.984	19.993	100.257	19.909	3.736	0.451
104.001	137.968	79.983	19.991	100.255	19.909	3.750	0.459
104.500	138.204	79.984	19.992	100.220	19.907	3.876	0.473
105.000	138.421	79.983	19.991	100.191	19.908	3.821	0.464
105.500	138.694	79.982	19.991	100.180	19.909	3.734	0.471
106.000	138.882	79.985	19.992	100.177	19.911	3.606	0.475
106.500	139.141	79.982	19.992	100.177	19.909	3.734	0.454
107.000	139.378	79.986	19.992	100.177	19.909	3.751	0.472
107.500	139.622	79.984	19.992	100.182	19.910	3.694	0.488
108.000	139.841	79.984	19.991	100.185	19.910	3.657	0.471
108.501	140.111	79.984	19.991	100.186	19.909	3.700	0.476
109.001	140.376	79.984	19.992	100.187	19.908	3.811	0.512
109.501	140.612	79.984	19.992	100.185	19.911	3.619	0.518
110.001	140.836	79.984	19.992	100.183	19.912	3.512	0.480
110.500	141.099	79.983	19.992	100.178	19.911	3.559	0.473
111.000	141.308	79.983	19.991	100.176	19.910	3.638	0.479
111.500	141.564	79.984	19.991	100.174	19.913	3.472	0.469
112.000	141.789	79.983	19.991	100.175	19.908	3.800	0.473
112.500	142.070	79.983	19.992	100.176	19.908	3.807	0.494
113.000	142.292	79.983	19.991	100.180	19.913	3.427	0.505
113.500	142.567	79.983	19.991	100.181	19.912	3.498	0.500
114.000	142.823	79.982	19.993	100.183	19.913	3.476	0.513
114.500	143.071	79.982	19.993	100.182	19.915	3.335	0.517
115.000	143.306	79.983	19.993	100.181	19.911	3.621	0.494
115.500	143.591	79.983	19.992	100.179	19.910	3.683	0.502
116.000	143.825	79.981	19.993	100.174	19.911	3.623	0.520
116.501	144.045	79.983	19.992	100.168	19.912	3.491	0.486
117.001	144.325	79.983	19.993	100.167	19.910	3.649	0.477
117.500	144.563	79.983	19.992	100.170	19.913	3.438	0.509
118.001	144.787	79.982	19.993	100.166	19.912	3.500	0.490
118.501	145.026	79.982	19.993	100.167	19.912	3.548	0.463
119.000	145.322	79.981	19.992	100.171	19.914	3.385	0.499
119.500	145.544	79.983	19.993	100.170	19.910	3.668	0.526
120.001	145.776	79.982	19.992	100.166	19.913	3.474	0.486
120.501	146.014	79.981	19.993	100.166	19.908	3.767	0.462
121.000	146.295	79.983	19.993	100.166	19.911	3.573	0.495
121.501	146.536	79.981	19.993	100.169	19.914	3.381	0.521
122.001	146.827	79.982	19.994	100.169	19.910	3.668	0.527
122.501	147.065	79.982	19.993	100.170	19.912	3.551	0.531
123.000	147.309	79.982	19.993	100.167	19.910	3.627	0.506
123.500	147.598	79.983	19.993	100.166	19.911	3.625	0.507
124.001	147.853	79.981	19.992	100.161	19.911	3.570	0.538
124.501	148.093	79.983	19.993	100.158	19.912	3.487	0.520
125.001	148.346	79.982	19.993	100.159	19.913	3.450	0.495
125.500	148.590	79.983	19.993	100.164	19.912	3.542	0.495
126.000	148.868	79.983	19.993	100.164	19.912	3.541	0.509
126.500	149.123	79.983	19.992	100.162	19.910	3.631	0.528
127.000	149.374	79.984	19.992	100.163	19.912	3.547	0.519
127.500	149.621	79.985	19.993	100.161	19.911	3.564	0.502
128.000	149.889	79.984	19.992	100.161	19.909	3.750	0.507
128.500	150.123	79.984	19.992	100.165	19.908	3.818	0.509
129.000	150.391	79.984	19.992	100.166	19.910	3.650	0.502
129.500	150.640	79.984	19.991	100.168	19.911	3.624	0.509
130.000	150.868	79.985	19.993	100.165	19.912	3.524	0.497
130.500	151.121	79.984	19.991	100.160	19.912	3.505	0.479
131.000	151.388	79.985	19.992	100.154	19.906	3.926	0.500
131.500	151.699	79.987	19.992	100.152	19.913	3.462	0.549
132.000	151.928	79.985	19.992	100.146	19.912	3.543	0.559
132.500	152.195	79.985	19.991	100.150	19.911	3.590	0.518
133.001	152.407	79.986	19.991	100.152	19.910	3.639	0.487
133.500	152.668	79.985	19.991	100.154	19.913	3.455	0.476
134.000	152.933	79.985	19.992	100.164	19.911	3.571	0.500
134.500	153.146	79.985	19.990	100.173	19.913	3.468	0.502
135.000	153.441	79.987	19.991	100.175	19.911	3.575	0.492
135.500	153.660	79.984	19.992	100.173	19.911	3.556	0.511
136.000	153.914	79.985	19.991	100.171	19.910	3.664	0.494
136.500	154.177	79.984	19.990	100.162	19.910	3.694	0.495
137.000	154.444	79.985	19.992	100.148	19.912	3.528	0.524
137.501	154.685	79.985	19.992	100.141	19.911	3.568	0.519
138.000	154.951	79.985	19.991	100.141	19.912	3.553	0.507
138.500	155.193	79.984	19.991	100.142	19.911	3.624	0.507
139.000	155.442	79.984	19.991	100.142	19.911	3.579	0.499
139.500	155.691	79.983	19.991	100.147	19.913	3.455	0.495
140.000	155.951	79.983	19.992	100.147	19.911	3.613	0.504
140.500	156.191	79.982	19.992	100.148	19.913	3.479	0.505
141.000	156.418	79.982	19.991	100.147	19.912	3.509	0.484
141.500	156.694	79.982	19.992	100.147	19.910	3.637	0.485
142.000	156.954	79.982	19.991	100.151	19.909	3.731	0.519
142.500	157.193	79.982	19.992	100.152	19.911	3.590	0.517
143.000	157.485	79.981	19.990	100.152	19.913	3.423	0.515
143.500	157.758	79.980	19.992	100.152	19.907	3.901	0.548
144.000	157.958	79.983	19.991	100.153	19.908	3.835	0.519
144.500	158.249	79.982	19.991	100.150	19.911	3.558	0.482
145.000	158.480	79.982	19.992	100.149	19.909	3.724	0.507
145.500	158.751	79.983	19.992	100.149	19.911	3.568	0.512
146.000	159.000	79.982	19.991	100.150	19.912	3.543	0.511
146.500	159.219	79.983	19.992	100.149	19.911	3.598	0.494
147.000	159.501	79.982	19.990	100.150	19.914	3.396	0.484
147.500	159.758	79.980	19.991	100.150	19.911	3.588	0.520
148.000	160.011	79.983	19.992	100.150	19.915	3.343	0.524
148.500	160.275	79.982	19.992	100.149	19.911	3.622	0.513
149.000	160.503	79.983	19.992	100.150	19.912	3.494	0.505
149.500	160.777	79.982	19.992	100.149	19.913	3.430	0.497
150.000	161.013	79.982	19.991	100.149	19.916	3.249	0.506
150.500	161.276	79.982	19.991	100.149	19.915	3.283	0.505
151.000	161.521	79.982	19.992	100.149	19.910	3.635	0.503
151.500	161.738	79.984	19.991	100.149	19.914	3.356	0.484
152.000	162.038	79.982	19.992	100.149	19.910	3.680	0.489
152.500	162.237	79.981	19.991	100.149	19.908	3.782	0.508
153.000	162.513	79.981	19.993	100.149	19.913	3.481	0.487
153.500	162.805	79.983	19.993	100.149	19.913	3.449	0.522
154.000	163.039	79.982	19.991	100.149	19.913	3.418	0.547
154.500	163.327	79.983	19.992	100.149	19.913	3.484	0.524
155.000	163.549	79.982	19.992	100.149	19.909	3.709	0.516
155.500	163.813	79.983	19.992	100.149	19.914	3.368	0.498
156.000	164.067	79.982	19.992	100.150	19.913	3.464	0.503
156.500	164.355	79.982	19.991	100.150	19.909	3.709	0.530
157.000	164.605	79.983	19.992	100.150	19.912	3.547	0.540
157.500	164.864	79.983	19.992	100.150	19.910	3.673	0.524
158.000	165.107	79.983	19.991	100.149	19.910	3.639	0.505
158.500	165.344	79.982	19.992	100.147	19.912	3.535	0.491
159.000	165.603	79.984	19.993	100.146	19.912	3.550	0.488
159.500	165.874	79.983	19.992	100.145	19.916	3.251	0.513
160.000	166.132	79.982	19.991	100.143	19.913	3.460	0.530
160.500	166.425	79.983	19.992	100.143	19.911	3.558	0.540
161.000	166.660	79.982	19.992	100.142	19.913	3.431	0.539
161.500	166.926	79.982	19.991	100.142	19.912	3.522	0.514
162.000	167.146	79.983	19.992	100.143	19.913	3.431	0.494
162.500	167.408	79.983	19.991	100.143	19.910	3.653	0.484
163.000	167.690	79.984	19.992	100.142	19.913	3.433	0.512
163.500	167.941	79.983	19.992	100.144	19.913	3.415	0.538
164.000	168.157	79.984	19.992	100.144	19.912	3.519	0.500
164.500	168.416	79.984	19.993	100.143	19.912	3.515	0.471
165.000	168.675	79.984	19.992	100.140	19.913	3.453	0.496
165.500	168.942	79.984	19.992	100.141	19.913	3.448	0.522
166.000	169.179	79.983	19.991	100.141	19.908	3.787	0.516
166.500	169.432	79.982	19.991	100.140	19.914	3.375	0.497
167.000	169.734	79.983	19.991	100.141	19.908	3.780	0.522
167.500	169.933	79.983	19.992	100.145	19.908	3.824	0.528
168.000	170.213	79.982	19.993	100.146	19.910	3.673	0.490
168.500	170.473	79.983	19.992	100.145	19.912	3.498	0.509
169.000	170.764	79.983	19.992	100.141	19.910	3.646	0.546
169.500	171.027	79.981	19.992	100.138	19.911	3.621	0.552
170.000	171.215	79.982	19.992	100.135	19.912	3.486	0.502
170.500	171.476	79.982	19.992	100.135	19.915	3.312	0.450
171.000	171.702	79.982	19.992	100.134	19.912	3.504	0.468
171.500	171.938	79.983	19.992	100.135	19.908	3.783	0.475
172.000	172.228	79.983	19.992	100.133	19.911	3.591	0.494
172.500	172.462	79.982	19.992	100.131	19.911	3.557	0.525
173.001	172.715	79.982	19.993	100.124	19.912	3.522	0.506
173.500	173.008	79.982	19.993	100.119	19.916	3.213	0.517
174.000	173.255	79.982	19.991	100.115	19.910	3.648	0.543
174.500	173.516	79.982	19.992	100.107	19.913	3.418	0.523
175.000	173.730	79.982	19.993	100.105	19.912	3.522	0.491
175.500	174.003	79.980	19.991	100.108	19.911	3.597	0.481
176.000	174.250	79.981	19.993	100.114	19.916	3.210	0.503
176.500	174.493	79.982	19.991	100.122	19.911	3.602	0.505
177.000	174.760	79.983	19.992	100.134	19.913	3.433	0.500
177.500	174.998	79.982	19.992	100.142	19.913	3.461	0.508
178.000	175.228	79.983	19.992	100.145	19.908	3.796	0.486
178.500	175.486	79.982	19.992	100.144	19.909	3.702	0.478
179.000	175.742	79.982	19.992	100.144	19.913	3.481	0.501
179.500	176.013	79.982	19.992	100.141	19.915	3.299	0.520
180.000	176.242	79.981	19.993	100.133	19.907	3.835	0.513
180.500	176.480	79.983	19.992	100.126	19.909	3.704	0.483
181.000	176.728	79.983	19.992	100.120	19.913	3.472	0.476
181.500	177.003	79.983	19.993	100.113	19.910	3.638	0.504
182.000	177.248	79.982	19.992	100.114	19.912	3.545	0.522
182.500	177.458	79.983	19.993	100.118	19.912	3.530	0.488
183.000	177.679	79.983	19.992	100.120	19.912	3.525	0.442
183.500	177.991	79.983	19.992	100.121	19.913	3.464	0.482
184.000	178.233	79.984	19.992	100.127	19.909	3.715	0.544
184.500	178.490	79.984	19.993	100.127	19.909	3.758	0.526
185.000	178.731	79.982	19.993	100.128	19.910	3.630	0.498
185.500	178.973	79.984	19.994	100.125	19.912	3.530	0.491
186.000	179.209	79.984	19.992	100.126	19.911	3.574	0.481
186.500	179.474	79.985	19.993	100.120	19.911	3.621	0.489
187.000	179.716	79.985	19.992	100.114	19.910	3.660	0.504
187.500	179.973	79.985	19.993	100.110	19.912	3.496	0.503
188.000	180.203	79.984	19.993	100.111	19.909	3.728	0.493
188.500	180.451	79.984	19.994	100.111	19.909	3.698	0.482
189.000	180.706	79.984	19.993	100.111	19.910	3.632	0.491
189.500	180.945	79.984	19.992	100.111	19.911	3.613	0.499
190.000	181.232	79.984	19.992	100.111	19.912	3.523	0.510
190.500	181.428	79.984	19.992	100.111	19.911	3.561	0.504
191.000	181.686	79.983	19.992	100.109	19.909	3.700	0.468
191.500	181.941	79.983	19.993	100.108	19.908	3.807	0.483
192.000	182.190	79.983	19.992	100.109	19.907	3.896	0.508
192.501	182.416	79.984	19.992	100.109	19.909	3.758	0.489
193.001	182.679	79.983	19.993	100.108	19.915	3.297	0.482
193.500	182.920	79.984	19.993	100.108	19.910	3.630	0.497
194.000	183.182	79.982	19.993	100.108	19.914	3.372	0.503
194.500	183.399	79.984	19.992	100.109	19.910	3.679	0.490
195.000	183.657	79.984	19.992	100.110	19.910	3.677	0.477
195.500	183.937	79.984	19.992	100.109	19.911	3.611	0.507
196.000	184.149	79.983	19.992	100.110	19.908	3.786	0.516
196.500	184.430	79.982	19.992	100.110	19.909	3.736	0.493
197.000	184.666	79.983	19.992	100.109	19.908	3.794	0.505
197.500	184.924	79.983	19.992	100.108	19.909	3.696	0.505
198.000	185.165	79.982	19.993	100.109	19.907	3.837	0.496
198.500	185.435	79.983	19.992	100.107	19.906	3.954	0.505
199.000	185.671	79.984	19.992	100.107	19.908	3.792	0.508
199.500	185.935	79.983	19.993	100.108	19.910	3.679	0.503
200.000	186.183	79.982	19.992	100.109	19.910	3.641	0.506
200.500	186.451	79.984	19.993	100.110	19.913	3.453	0.514
201.000	186.670	79.983	19.992	100.112	19.909	3.707	0.501
201.500	186.926	79.982	19.992	100.112	19.912	3.494	0.481
202.000	187.185	79.982	19.992	100.113	19.912	3.553	0.495
202.500	187.410	79.984	19.993	100.112	19.913	3.447	0.499
203.000	187.660	79.982	19.993	100.111	19.910	3.685	0.480
203.500	187.896	79.981	19.993	100.110	19.910	3.658	0.481
204.000	188.160	79.984	19.993	100.110	19.912	3.543	0.493
204.500	188.383	79.982	19.992	100.110	19.911	3.575	0.494
205.000	188.645	79.982	19.993	100.111	19.911	3.613	0.486
205.500	188.891	79.983	19.993	100.112	19.911	3.611	0.496
206.001	189.106	79.983	19.992	100.111	19.912	3.484	0.485
206.500	189.425	79.982	19.992	100.111	19.910	3.682	0.497
207.000	189.603	79.983	19.993	100.110	19.910	3.690	0.515
207.500	189.894	79.984	19.992	100.108	19.909	3.705	0.483
208.000	190.120	79.983	19.992	100.106	19.912	3.485	0.493
208.500	190.374	79.983	19.992	100.106	19.911	3.568	0.499
209.000	190.647	79.983	19.993	100.105	19.909	3.730	0.504
209.500	190.843	79.984	19.993	100.106	19.911	3.568	0.498
210.000	191.120	79.985	19.992	100.106	19.913	3.482	0.470
210.500	191.355	79.984	19.993	100.107	19.907	3.858	0.492
211.000	191.601	79.984	19.993	100.107	19.909	3.741	0.497
211.500	191.852	79.984	19.992	100.107	19.909	3.741	0.489
212.000	192.087	79.984	19.992	100.106	19.908	3.786	0.491
212.500	192.321	79.983	19.992	100.105	19.908	3.807	0.478
213.000	192.571	79.984	19.993	100.104	19.908	3.794	0.477
213.500	192.840	79.982	19.993	100.104	19.907	3.884	0.502
214.000	193.090	79.984	19.992	100.102	19.909	3.736	0.519
214.500	193.325	79.984	19.993	100.102	19.912	3.536	0.502
215.000	193.557	79.985	19.993	100.102	19.906	3.965	0.476
215.500	193.825	79.985	19.993	100.104	19.906	3.961	0.484
216.000	194.065	79.983	19.993	100.105	19.906	3.922	0.504
216.500	194.308	79.985	19.994	100.097	19.904	4.090	0.495
217.000	194.513	79.983	19.994	100.088	19.908	3.792	0.465
217.500	194.790	79.982	19.993	100.086	19.910	3.649	0.465
218.000	195.046	79.983	19.992	100.086	19.908	3.822	0.508
218.500	195.270	79.983	19.992	100.087	19.910	3.689	0.506
219.000	195.530	79.983	19.992	100.097	19.906	3.956	0.481
219.500	195.801	79.982	19.992	100.111	19.904	4.067	0.507
220.000	196.007	79.981	19.992	100.117	19.906	3.911	0.504
220.500	196.271	79.983	19.992	100.117	19.907	3.892	0.474
221.000	196.492	79.981	19.991	100.116	19.907	3.849	0.478
221.500	196.779	79.982	19.992	100.116	19.906	3.965	0.496
222.000	197.005	79.981	19.993	100.113	19.907	3.873	0.510
222.500	197.264	79.980	19.992	100.110	19.908	3.784	0.499
223.000	197.513	79.983	19.992	100.109	19.908	3.801	0.497
223.500	197.756	79.982	19.992	100.110	19.907	3.903	0.500
224.000	197.993	79.983	19.992	100.110	19.907	3.893	0.486
224.500	198.222	79.983	19.991	100.110	19.910	3.647	0.473
225.000	198.478	79.982	19.991	100.108	19.906	3.931	0.475
225.500	198.727	79.982	19.991	100.108	19.904	4.080	0.494
226.000	198.975	79.981	19.991	100.107	19.906	3.912	0.501
226.500	199.234	79.982	19.992	100.107	19.907	3.897	0.502
227.000	199.448	79.983	19.990	100.108	19.905	4.008	0.490
227.500	199.695	79.982	19.991	100.110	19.903	4.140	0.467
228.000	199.949	79.982	19.991	100.110	19.906	3.912	0.481
228.500	200.194	79.982	19.992	100.111	19.905	4.014	0.500
229.000	200.425	79.982	19.991	100.111	19.902	4.234	0.487
229.500	200.667	79.982	19.992	100.110	19.905	4.016	0.474
230.000	200.878	79.984	19.992	100.109	19.904	4.089	0.463
230.500	201.166	79.982	19.992	100.109	19.904	4.099	0.476
231.000	201.408	79.982	19.992	100.108	19.902	4.185	0.515
231.500	201.674	79.981	19.992	100.107	19.905	3.990	0.519
232.000	201.897	79.982	19.992	100.107	19.904	4.095	0.499
232.500	202.172	79.982	19.993	100.107	19.906	3.973	0.494
233.000	202.399	79.982	19.992	100.104	19.903	4.157	0.500
233.500	202.589	79.982	19.992	100.103	19.902	4.229	0.460
234.000	202.857	79.983	19.992	100.102	19.900	4.370	0.437
234.500	203.097	79.984	19.992	100.099	19.903	4.167	0.482
235.000	203.396	79.983	19.993	100.096	19.902	4.210	0.524
235.500	203.608	79.983	19.991	100.096	19.902	4.225	0.525
236.000	203.882	79.982	19.992	100.097	19.902	4.219	0.498
236.500	204.106	79.982	19.993	100.097	19.901	4.257	0.492
237.000	204.371	79.982	19.992	100.100	19.900	4.376	0.494
237.500	204.608	79.982	19.992	100.102	19.900	4.342	0.495
238.000	204.844	79.984	19.992	100.102	19.901	4.283	0.487
238.500	205.110	79.984	19.992	100.102	19.901	4.312	0.488
239.001	205.354	79.983	19.992	100.099	19.901	4.287	0.506
239.500	205.581	79.982	19.991	100.099	19.902	4.216	0.491
240.000	205.817	79.983	19.992	100.100	19.901	4.314	0.467
240.501	206.111	79.983	19.993	100.102	19.898	4.481	0.497
241.000	206.312	79.983	19.991	100.103	19.899	4.449	0.512
241.500	206.552	79.983	19.992	100.106	19.900	4.377	0.468
242.000	206.817	79.983	19.993	100.106	19.901	4.298	0.473
242.500	207.072	79.984	19.992	100.105	19.897	4.545	0.512
243.000	207.288	79.983	19.993	100.105	19.898	4.483	0.495
243.500	207.561	79.983	19.992	100.104	19.896	4.632	0.480
244.000	207.806	79.983	19.993	100.104	19.897	4.536	0.504
244.500	208.017	79.981	19.993	100.104	19.898	4.521	0.487
245.000	208.266	79.983	19.994	100.104	19.900	4.377	0.458
245.500	208.538	79.983	19.992	100.105	19.898	4.485	0.491
246.000	208.795	79.983	19.992	100.106	19.900	4.383	0.525
246.500	209.046	79.983	19.992	100.106	19.896	4.628	0.518
247.000	209.269	79.983	19.993	100.103	19.895	4.731	0.491
247.500	209.499	79.984	19.993	100.104	19.894	4.773	0.464
248.000	209.754	79.982	19.991	100.104	19.897	4.537	0.469
248.500	209.993	79.983	19.992	100.103	19.900	4.362	0.489
249.000	210.226	79.984	19.993	100.104	19.896	4.639	0.483
249.500	210.500	79.984	19.993	100.106	19.896	4.609	0.489
250.000	210.734	79.983	19.993	100.106	19.897	4.575	0.508
250.501	210.994	79.983	19.992	100.106	19.900	4.389	0.502
251.000	211.251	79.983	19.992	100.107	19.899	4.396	0.506
251.500	211.466	79.983	19.993	100.104	19.900	4.323	0.494
252.000	211.734	79.983	19.992	100.103	19.898	4.528	0.477
252.500	211.926	79.982	19.992	100.104	19.895	4.707	0.472
253.000	212.208	79.983	19.991	100.103	19.894	4.754	0.467
253.500	212.423	79.983	19.992	100.104	19.895	4.688	0.485
254.000	212.698	79.982	19.992	100.106	19.895	4.679	0.493
254.500	212.920	79.983	19.992	100.107	19.898	4.507	0.494
255.000	213.222	79.983	19.992	100.107	19.893	4.816	0.511
255.500	213.438	79.984	19.992	100.106	19.895	4.703	0.521
256.000	213.685	79.983	19.992	100.105	19.892	4.914	0.490
256.500	213.941	79.982	19.992	100.100	19.895	4.675	0.483
257.000	214.228	79.983	19.992	100.098	19.895	4.683	0.523
257.500	214.445	79.982	19.992	100.097	19.895	4.711	0.524
258.000	214.667	79.981	19.992	100.097	19.898	4.530	0.472
258.500	214.871	79.984	19.993	100.099	19.893	4.827	0.432
259.000	215.140	79.985	19.993	100.104	19.893	4.848	0.449
259.500	215.428	79.983	19.992	100.106	19.892	4.889	0.515
260.000	215.679	79.983	19.993	100.107	19.891	4.980	0.548
260.500	215.909	79.983	19.991	100.107	19.892	4.899	0.510
261.000	216.131	79.982	19.992	100.106	19.895	4.737	0.466
261.500	216.421	79.983	19.992	100.107	19.894	4.782	0.482
262.000	216.676	79.983	19.992	100.107	19.893	4.852	0.529
262.500	216.824	79.983	19.992	100.108	19.894	4.771	0.474
263.000	217.136	79.984	19.991	100.106	19.893	4.824	0.432
263.500	217.401	79.984	19.993	100.106	19.892	4.937	0.519
264.000	217.662	79.984	19.991	100.105	19.891	4.984	0.551
264.500	217.928	79.984	19.991	100.104	19.892	4.901	0.526
265.000	218.168	79.983	19.992	100.104	19.891	4.954	0.517
265.500	218.391	79.984	19.992	100.104	19.891	4.965	0.485
266.000	218.627	79.983	19.992	100.104	19.890	5.036	0.461
266.500	218.886	79.984	19.992	100.105	19.891	4.967	0.477
267.000	219.132	79.983	19.992	100.106	19.893	4.865	0.500
267.500	219.379	79.984	19.991	100.107	19.888	5.163	0.499
268.000	219.613	79.983	19.993	100.109	19.888	5.226	0.487
268.500	219.859	79.984	19.992	100.102	19.890	5.023	0.481
269.000	220.138	79.985	19.991	100.102	19.889	5.102	0.503
269.500	220.365	79.983	19.992	100.102	19.891	4.987	0.515
270.000	220.637	79.984	19.992	100.102	19.891	4.985	0.503
270.500	220.855	79.984	19.992	100.102	19.890	5.051	0.495
271.000	221.083	79.984	19.993	100.108	19.890	5.064	0.468
271.500	221.337	79.985	19.992	100.108	19.894	4.805	0.464
272.000	221.606	79.982	19.993	100.107	19.892	4.906	0.502
272.500	221.844	79.984	19.993	100.107	19.893	4.874	0.515
273.000	222.094	79.984	19.993	100.108	19.892	4.888	0.497
273.500	222.340	79.983	19.993	100.108	19.892	4.901	0.492
274.000	222.582	79.983	19.992	100.108	19.891	4.993	0.492
274.500	222.830	79.983	19.993	100.107	19.891	5.019	0.489
275.000	223.107	79.982	19.993	100.103	19.890	5.089	0.507
275.500	223.319	79.982	19.991	100.104	19.890	5.069	0.507
276.000	223.556	79.982	19.992	100.104	19.890	5.053	0.469
276.500	223.842	79.983	19.993	100.105	19.892	4.922	0.487
277.000	224.074	79.983	19.993	100.105	19.892	4.905	0.521
277.500	224.315	79.984	19.993	100.106	19.890	5.023	0.495
278.001	224.556	79.984	19.993	100.103	19.892	4.922	0.477
278.500	224.839	79.982	19.992	100.103	19.888	5.166	0.503
279.000	225.056	79.983	19.993	100.102	19.887	5.276	0.512
279.500	225.292	79.983	19.992	100.103	19.893	4.871	0.476
280.000	225.547	79.983	19.992	100.105	19.891	5.001	0.472
280.500	225.816	79.983	19.993	100.104	19.887	5.259	0.507
281.000	226.060	79.983	19.993	100.101	19.890	5.083	0.519
281.500	226.302	79.984	19.991	100.099	19.888	5.200	0.499
282.000	226.557	79.983	19.992	100.099	19.889	5.160	0.492
282.500	226.791	79.983	19.992	100.099	19.890	5.079	0.493
283.000	227.043	79.984	19.991	100.103	19.888	5.202	0.487
283.500	227.292	79.982	19.992	100.102	19.893	4.868	0.494
284.000	227.527	79.983	19.993	100.103	19.889	5.111	0.493
284.500	227.795	79.984	19.992	100.101	19.887	5.240	0.494
285.000	228.059	79.983	19.992	100.102	19.889	5.099	0.517
285.500	228.308	79.983	19.992	100.102	19.888	5.206	0.523
286.000	228.612	79.982	19.992	100.105	19.889	5.111	0.533
286.500	228.841	79.985	19.992	100.108	19.887	5.273	0.543
287.000	229.080	79.984	19.992	100.106	19.887	5.234	0.501
287.500	229.354	79.984	19.992	100.104	19.886	5.309	0.491
288.000	229.596	79.985	19.993	100.104	19.887	5.266	0.515
288.500	229.866	79.985	19.992	100.104	19.885	5.420	0.514
289.000	230.081	79.984	19.992	100.104	19.885	5.407	0.498
289.500	230.326	79.985	19.993	100.106	19.884	5.443	0.472
290.000	230.551	79.985	19.992	100.107	19.884	5.479	0.465
290.500	230.823	79.987	19.993	100.106	19.886	5.343	0.483
291.000	231.047	79.985	19.992	100.106	19.880	5.727	0.496
291.500	231.331	79.987	19.992	100.104	19.881	5.657	0.502
292.000	231.598	79.985	19.992	100.103	19.883	5.552	0.530
292.500	231.834	79.986	19.991	100.098	19.883	5.579	0.527
293.000	232.050	79.987	19.993	100.094	19.879	5.799	0.477
293.500	232.329	79.985	19.992	100.092	19.883	5.524	0.473
294.000	232.548	79.985	19.993	100.092	19.883	5.541	0.497
294.500	232.798	79.985	19.994	100.094	19.885	5.439	0.483
295.000	233.059	79.985	19.996	100.099	19.884	5.501	0.490
295.500	233.278	79.984	19.995	100.102	19.878	5.874	0.495
296.000	233.542	79.984	19.995	100.104	19.881	5.682	0.482
296.500	233.798	79.985	19.994	100.103	19.879	5.842	0.502
297.000	234.066	79.984	19.993	100.097	19.880	5.737	0.522
297.500	234.332	79.984	19.994	100.097	19.880	5.786	0.529
298.000	234.565	79.983	19.994	100.097	19.879	5.859	0.516
298.500	234.786	79.983	19.994	100.097	19.881	5.682	0.476
299.000	235.036	79.983	19.993	100.098	19.882	5.614	0.463
299.501	235.274	79.984	19.994	100.104	19.880	5.786	0.480
300.000	235.548	79.982	19.994	100.102	19.880	5.727	0.500
300.500	235.766	79.983	19.992	100.101	19.877	5.974	0.501
301.000	236.011	79.980	19.995	100.100	19.879	5.855	0.478
301.500	236.301	79.982	19.994	100.100	19.883	5.554	0.499
302.000	236.494	79.982	19.995	100.099	19.877	5.962	0.509
302.500	236.779	79.982	19.994	100.099	19.878	5.867	0.480
303.000	237.016	79.983	19.993	100.101	19.878	5.910	0.500
303.500	237.305	79.983	19.993	100.101	19.877	5.942	0.524
304.000	237.504	79.983	19.993	100.099	19.872	6.294	0.507
304.500	237.714	79.983	19.994	100.099	19.875	6.082	0.449
305.000	238.025	79.982	19.994	100.097	19.874	6.185	0.465
305.500	238.240	79.983	19.993	100.092	19.873	6.225	0.523
306.000	238.477	79.982	19.993	100.091	19.873	6.230	0.489
306.500	238.718	79.982	19.993	100.092	19.875	6.117	0.465
307.000	238.939	79.983	19.993	100.093	19.871	6.362	0.470
307.500	239.196	79.983	19.993	100.094	19.872	6.285	0.470
308.000	239.445	79.983	19.993	100.099	19.874	6.185	0.492
308.500	239.714	79.984	19.992	100.101	19.870	6.439	0.512
309.000	239.978	79.983	19.993	100.102	19.873	6.258	0.526
309.500	240.219	79.983	19.992	100.103	19.873	6.258	0.519
310.000	240.448	79.982	19.992	100.105	19.874	6.189	0.487
310.500	240.702	79.983	19.992	100.104	19.870	6.449	0.476
311.000	240.900	79.985	19.993	100.100	19.869	6.492	0.468
311.500	241.182	79.983	19.992	100.098	19.871	6.366	0.466
312.000	241.462	79.983	19.992	100.097	19.869	6.494	0.521
312.500	241.758	79.985	19.992	100.096	19.873	6.238	0.569
313.000	241.973	79.983	19.994	100.098	19.871	6.411	0.544
313.500	242.206	79.984	19.992	100.102	19.867	6.656	0.479
314.000	242.431	79.984	19.992	100.104	19.866	6.752	0.453
314.500	242.735	79.984	19.991	100.105	19.868	6.592	0.493
315.000	242.942	79.983	19.992	100.106	19.868	6.569	0.520
315.500	243.219	79.984	19.993	100.106	19.867	6.677	0.498
316.000	243.480	79.985	19.992	100.107	19.864	6.855	0.511
316.500	243.711	79.982	19.992	100.107	19.865	6.803	0.515
317.000	243.927	79.984	19.992	100.107	19.864	6.880	0.470
317.500	244.188	79.983	19.992	100.107	19.865	6.790	0.462
318.000	244.434	79.984	19.992	100.107	19.864	6.893	0.492
318.500	244.701	79.984	19.992	100.103	19.864	6.882	0.509
319.000	244.943	79.984	19.993	100.103	19.863	6.921	0.511
319.500	245.182	79.984	19.991	100.102	19.864	6.839	0.495
320.000	245.385	79.984	19.992	100.102	19.864	6.874	0.462
320.500	245.685	79.983	19.992	100.102	19.863	6.944	0.473
321.000	245.921	79.983	19.992	100.105	19.861	7.076	0.519
321.500	246.196	79.984	19.993	100.106	19.863	6.952	0.523
322.000	246.455	79.983	19.993	100.103	19.865	6.824	0.523
322.500	246.666	79.983	19.992	100.102	19.862	7.042	0.502
323.000	246.942	79.985	19.992	100.102	19.861	7.097	0.478
323.500	247.196	79.983	19.992	100.102	19.858	7.308	0.508
324.000	247.425	79.984	19.992	100.102	19.856	7.419	0.507
324.500	247.683	79.983	19.991	100.107	19.859	7.212	0.485
325.000	247.944	79.983	19.992	100.108	19.856	7.413	0.503
325.500	248.177	79.983	19.992	100.108	19.858	7.311	0.506
326.000	248.433	79.984	19.992	100.108	19.854	7.605	0.491
326.500	248.677	79.983	19.992	100.107	19.857	7.377	0.495
327.000	248.948	79.984	19.993	100.107	19.857	7.358	0.508
327.500	249.250	79.982	19.992	100.108	19.858	7.326	0.544
328.000	249.462	79.983	19.992	100.108	19.857	7.360	0.543
328.500	249.731	79.983	19.992	100.109	19.857	7.386	0.497
329.000	249.968	79.983	19.992	100.110	19.855	7.490	0.494
329.500	250.257	79.984	19.992	100.110	19.856	7.443	0.516
330.000	250.455	79.983	19.993	100.110	19.853	7.650	0.507
330.500	250.738	79.983	19.992	100.110	19.855	7.494	0.484
331.000	251.027	79.981	19.993	100.110	19.851	7.801	0.526
331.500	251.225	79.983	19.993	100.110	19.850	7.839	0.529
332.000	251.490	79.983	19.992	100.110	19.853	7.643	0.475
332.500	251.746	79.984	19.992	100.111	19.850	7.857	0.492
333.000	252.000	79.983	19.993	100.111	19.846	8.146	0.515
333.500	252.221	79.983	19.993	100.111	19.849	7.923	0.492
334.000	252.505	79.982	19.993	100.111	19.849	7.946	0.490
334.500	252.761	79.983	19.993	100.111	19.847	8.093	0.523
335.001	253.017	79.984	19.993	100.111	19.847	8.033	0.526
335.501	253.263	79.982	19.992	100.111	19.850	7.867	0.506
336.001	253.510	79.983	19.992	100.111	19.843	8.358	0.497
336.500	253.776	79.983	19.991	100.110	19.847	8.085	0.503
337.000	254.018	79.983	19.992	100.110	19.846	8.155	0.511
337.500	254.260	79.982	19.991	100.110	19.846	8.160	0.496
338.000	254.513	79.982	19.993	100.109	19.842	8.398	0.490
338.500	254.755	79.984	19.993	100.107	19.844	8.247	0.495
339.000	255.015	79.983	19.992	100.108	19.840	8.539	0.498
339.500	255.289	79.983	19.992	100.108	19.845	8.204	0.518
340.000	255.515	79.984	19.991	100.108	19.843	8.313	0.517
340.500	255.765	79.983	19.992	100.109	19.844	8.240	0.488
341.000	256.007	79.983	19.992	100.110	19.838	8.720	0.484
341.500	256.273	79.984	19.992	100.111	19.842	8.409	0.501
342.000	256.533	79.985	19.992	100.111	19.841	8.499	0.517
342.500	256.773	79.983	19.992	100.111	19.840	8.582	0.513
343.000	257.028	79.984	19.992	100.112	19.840	8.526	0.498
343.500	257.258	79.984	19.992	100.112	19.838	8.658	0.490
344.000	257.509	79.984	19.993	100.111	19.837	8.767	0.483
344.500	257.739	79.985	19.991	100.111	19.840	8.531	0.481
345.000	258.038	79.984	19.992	100.111	19.837	8.729	0.505
345.500	258.278	79.984	19.991	100.111	19.840	8.545	0.534
346.000	258.553	79.987	19.993	100.111	19.838	8.673	0.527
346.500	258.788	79.985	19.992	100.111	19.840	8.516	0.513
347.000	259.049	79.985	19.990	100.109	19.835	8.912	0.503
347.500	259.307	79.985	19.992	100.108	19.835	8.880	0.507
348.000	259.527	79.984	19.992	100.109	19.837	8.726	0.499
348.500	259.800	79.985	19.992	100.109	19.837	8.733	0.485
349.000	259.998	79.984	19.991	100.109	19.835	8.878	0.482
349.500	260.258	79.986	19.992	100.111	19.834	8.949	0.464
350.000	260.495	79.984	19.992	100.112	19.834	8.994	0.478
350.500	260.774	79.984	19.992	100.112	19.836	8.838	0.507
351.001	261.033	79.983	19.991	100.113	19.833	9.072	0.527
351.500	261.294	79.985	19.992	100.112	19.833	9.066	0.528
352.000	261.536	79.984	19.991	100.111	19.828	9.399	0.512
352.500	261.763	79.984	19.992	100.111	19.830	9.282	0.486
353.000	262.022	79.982	19.991	100.111	19.826	9.550	0.478
353.500	262.286	79.984	19.992	100.110	19.828	9.371	0.505
354.000	262.500	79.984	19.992	100.111	19.828	9.422	0.501
354.500	262.790	79.985	19.994	100.111	19.829	9.320	0.491
355.000	263.021	79.983	19.992	100.111	19.827	9.475	0.513
355.500	263.290	79.983	19.993	100.110	19.828	9.380	0.510
356.000	263.527	79.984	19.992	100.111	19.823	9.721	0.503
356.500	263.839	79.983	19.992	100.110	19.822	9.828	0.528
357.000	264.038	79.983	19.993	100.110	19.826	9.501	0.531
357.500	264.292	79.982	19.992	100.110	19.824	9.657	0.482
358.000	264.530	79.983	19.993	100.113	19.819	10.025	0.472
358.500	264.799	79.984	19.993	100.114	19.820	9.947	0.499
359.000	265.060	79.983	19.992	100.113	19.819	10.036	0.518
359.500	265.316	79.984	19.992	100.114	19.816	10.218	0.524
360.001	265.578	79.985	19.993	100.113	19.814	10.335	0.518
360.500	265.806	79.984	19.992	100.111	19.814	10.384	0.504
361.000	266.096	79.983	19.992	100.109	19.812	10.511	0.504
361.500	266.343	79.984	19.992	100.108	19.816	10.225	0.527
362.000	266.591	79.983	19.994	100.108	19.816	10.223	0.516
362.500	266.820	79.985	19.993	100.107	19.814	10.373	0.486
363.000	267.068	79.984	19.992	100.106	19.815	10.300	0.477
363.500	267.349	79.983	19.992	100.106	19.813	10.450	0.503
364.000	267.555	79.985	19.993	100.107	19.814	10.375	0.508
364.500	267.838	79.985	19.993	100.108	19.815	10.313	0.488
365.000	268.074	79.985	19.992	100.108	19.813	10.407	0.504
365.500	268.302	79.984	19.993	100.108	19.807	10.870	0.491
366.000	268.572	79.984	19.992	100.109	19.810	10.653	0.481
366.500	268.803	79.983	19.993	100.108	19.808	10.817	0.500
367.000	269.088	79.984	19.991	100.108	19.808	10.821	0.508
367.500	269.291	79.984	19.992	100.108	19.806	10.904	0.502
368.000	269.585	79.985	19.992	100.110	19.807	10.887	0.493
368.500	269.832	79.984	19.992	100.110	19.805	10.989	0.520
369.000	270.097	79.984	19.992	100.110	19.804	11.093	0.527
369.500	270.353	79.987	19.992	100.111	19.799	11.395	0.516
370.000	270.591	79.985	19.991	100.110	19.803	11.113	0.507
370.500	270.830	79.985	19.992	100.108	19.796	11.618	0.485
371.000	271.078	79.986	19.993	100.109	19.802	11.194	0.482
371.500	271.365	79.985	19.993	100.111	19.798	11.503	0.511
372.000	271.617	79.985	19.992	100.116	19.797	11.569	0.538
372.500	271.865	79.985	19.991	100.116	19.795	11.673	0.520
373.000	272.133	79.987	19.992	100.116	19.796	11.658	0.508
373.500	272.297	79.985	19.992	100.113	19.796	11.643	0.474
374.000	272.603	79.985	19.991	100.111	19.793	11.861	0.451
374.500	272.845	79.984	19.991	100.110	19.792	11.887	0.509
375.000	273.078	79.984	19.991	100.111	19.792	11.892	0.511
375.500	273.324	79.985	19.991	100.112	19.791	11.947	0.477
376.000	273.528	79.985	19.992	100.112	19.791	11.949	0.464
376.500	273.831	79.983	19.992	100.111	19.786	12.324	0.478
377.000	274.099	79.985	19.992	100.108	19.789	12.084	0.539
377.500	274.338	79.984	19.992	100.111	19.786	12.344	0.539
378.000	274.597	79.983	19.993	100.113	19.785	12.364	0.503
378.500	274.825	79.984	19.991	100.115	19.784	12.475	0.493
379.000	275.085	79.984	19.992	100.115	19.781	12.693	0.487
379.500	275.339	79.983	19.992	100.115	19.779	12.810	0.500
380.000	275.573	79.981	19.992	100.114	19.783	12.524	0.501
380.500	275.858	79.983	19.991	100.112	19.779	12.793	0.504
381.000	276.074	79.982	19.992	100.112	19.783	12.565	0.510
381.500	276.345	79.982	19.992	100.112	19.776	13.007	0.494
382.000	276.575	79.982	19.993	100.112	19.777	12.955	0.494
382.500	276.853	79.982	19.993	100.110	19.777	12.990	0.505
383.000	277.077	79.983	19.993	100.112	19.775	13.073	0.505
383.500	277.341	79.982	19.992	100.117	19.775	13.062	0.495
384.000	277.587	79.982	19.992	100.117	19.776	13.052	0.499
384.500	277.838	79.982	19.993	100.117	19.771	13.409	0.503
385.000	278.055	79.982	19.994	100.116	19.769	13.516	0.482
385.500	278.309	79.982	19.993	100.114	19.769	13.479	0.470
386.000	278.566	79.982	19.994	100.108	19.766	13.692	0.491
386.500	278.819	79.982	19.993	100.108	19.769	13.493	0.510
387.000	279.095	79.981	19.993	100.108	19.764	13.839	0.519
387.500	279.356	79.983	19.993	100.111	19.764	13.870	0.533
388.000	279.562	79.981	19.993	100.110	19.765	13.764	0.502
388.500	279.837	79.982	19.993	100.110	19.759	14.235	0.474
389.000	280.065	79.981	19.993	100.116	19.763	13.922	0.492
389.500	280.301	79.983	19.994	100.116	19.759	14.236	0.483
390.000	280.588	79.982	19.994	100.115	19.765	13.792	0.494
390.500	280.792	79.982	19.993	100.116	19.753	14.655	0.507
391.000	281.084	79.982	19.994	100.117	19.752	14.712	0.493
391.500	281.295	79.982	19.993	100.113	19.753	14.669	0.499
392.000	281.541	79.982	19.994	100.117	19.755	14.518	0.480
392.500	281.807	79.983	19.994	100.123	19.751	14.773	0.485
393.000	282.066	79.982	19.993	100.131	19.753	14.637	0.519
393.500	282.334	79.982	19.992	100.137	19.750	14.822	0.526
394.000	282.550	79.983	19.992	100.142	19.750	14.870	0.505
394.500	282.821	79.984	19.993	100.141	19.750	14.875	0.486
395.000	283.040	79.983	19.993	100.137	19.742	15.395	0.489
395.500	283.316	79.981	19.991	100.133	19.741	15.503	0.492
396.000	283.565	79.983	19.992	100.127	19.741	15.504	0.510
396.500	283.829	79.983	19.993	100.123	19.742	15.423	0.519
397.000	284.079	79.982	19.992	100.122	19.739	15.642	0.514
397.500	284.319	79.982	19.992	100.127	19.736	15.796	0.502
398.000	284.583	79.982	19.992	100.132	19.733	16.049	0.497
398.500	284.842	79.983	19.991	100.139	19.731	16.169	0.514
399.000	285.112	79.981	19.992	100.139	19.735	15.922	0.526
399.500	285.363	79.983	19.992	100.139	19.734	15.978	0.525
400.000	285.604	79.981	19.992	100.135	19.730	16.252	0.506
400.500	285.839	79.982	19.993	100.134	19.730	16.237	0.484
401.000	286.074	79.982	19.991	100.133	19.728	16.363	0.473
401.500	286.341	79.983	19.992	100.137	19.727	16.435	0.486
402.000	286.589	79.983	19.992	100.141	19.719	17.008	0.509
402.500	286.830	79.981	19.990	100.144	19.722	16.793	0.502
403.000	287.074	79.983	19.991	100.143	19.717	17.166	0.487
403.500	287.345	79.983	19.991	100.137	19.718	17.068	0.500
404.000	287.617	79.983	19.991	100.134	19.711	17.594	0.529
404.500	287.819	79.984	19.991	100.133	19.716	17.223	0.508
405.000	288.063	79.982	19.992	100.131	19.713	17.443	0.460
405.501	288.343	79.980	19.991	100.134	19.712	17.512	0.485
406.000	288.577	79.980	19.991	100.140	19.707	17.874	0.519
406.500	288.838	79.981	19.992	100.144	19.707	17.881	0.504
407.000	289.088	79.982	19.992	100.145	19.703	18.143	0.503
407.500	289.366	79.982	19.992	100.148	19.704	18.039	0.520
408.000	289.571	79.982	19.992	100.149	19.705	17.957	0.506
408.500	289.823	79.982	19.992	100.149	19.699	18.413	0.470
409.000	290.083	79.980	19.991	100.149	19.693	18.797	0.484
409.500	290.345	79.981	19.992	100.149	19.697	18.545	0.517
410.000	290.578	79.982	19.991	100.147	19.695	18.707	0.509
410.500	290.843	79.982	19.991	100.147	19.695	18.656	0.496
411.000	291.093	79.982	19.991	100.147	19.693	18.848	0.506
411.500	291.354	79.981	19.993	100.147	19.687	19.244	0.513
412.000	291.580	79.982	19.991	100.148	19.689	19.128	0.499
412.500	291.853	79.981	19.991	100.150	19.683	19.552	0.493
413.000	292.101	79.979	19.992	100.150	19.686	19.330	0.510
413.500	292.365	79.982	19.993	100.152	19.681	19.639	0.517
414.000	292.634	79.981	19.992	100.152	19.681	19.637	0.522
414.500	292.845	79.982	19.991	100.152	19.678	19.859	0.507
415.000	293.128	79.981	19.992	100.153	19.679	19.791	0.487
415.500	293.362	79.983	19.992	100.153	19.675	20.088	0.505
416.000	293.608	79.982	19.991	100.152	19.671	20.363	0.499
416.500	293.863	79.982	19.992	100.151	19.673	20.203	0.491
417.000	294.083	79.982	19.992	100.151	19.671	20.377	0.488
417.500	294.352	79.982	19.992	100.149	19.671	20.389	0.481
418.000	294.616	79.982	19.993	100.149	19.669	20.482	0.511
418.500	294.858	79.981	19.992	100.149	19.667	20.639	0.520
419.000	295.082	79.982	19.992	100.149	19.661	21.088	0.486
419.500	295.335	79.983	19.993	100.152	19.663	20.955	0.472
420.000	295.584	79.983	19.991	100.153	19.659	21.201	0.490
420.500	295.843	79.983	19.991	100.153	19.653	21.608	0.505
421.000	296.101	79.983	19.992	100.152	19.655	21.502	0.512
421.500	296.350	79.984	19.992	100.153	19.656	21.433	0.512
422.000	296.610	79.984	19.991	100.151	19.649	21.921	0.508
422.500	296.881	79.983	19.991	100.156	19.648	21.959	0.520
423.000	297.122	79.983	19.991	100.156	19.647	22.045	0.521
423.500	297.378	79.983	19.992	100.158	19.642	22.373	0.504
424.000	297.587	79.984	19.992	100.159	19.641	22.480	0.481
424.500	297.851	79.984	19.993	100.162	19.642	22.416	0.469
425.000	298.128	79.986	19.991	100.160	19.636	22.806	0.507
425.500	298.386	79.983	19.992	100.159	19.633	23.061	0.538
426.000	298.601	79.984	19.993	100.157	19.636	22.797	0.504
426.500	298.893	79.984	19.991	100.156	19.630	23.234	0.490
427.000	299.150	79.984	19.992	100.155	19.629	23.291	0.528
427.500	299.356	79.985	19.992	100.155	19.630	23.265	0.506
428.000	299.603	79.985	19.991	100.157	19.625	23.616	0.458
428.500	299.915	79.985	19.991	100.160	19.629	23.296	0.506
429.000	300.140	79.985	19.992	100.163	19.623	23.697	0.548
429.500	300.374	79.983	19.992	100.167	19.622	23.782	0.498
430.000	300.633	79.984	19.992	100.172	19.618	24.050	0.476
430.500	300.847	79.986	19.992	100.175	19.619	23.989	0.483
431.000	301.126	79.986	19.993	100.179	19.613	24.445	0.483
431.500	301.426	79.985	19.994	100.178	19.610	24.636	0.536
432.001	301.639	79.985	19.992	100.179	19.613	24.415	0.546
432.500	301.886	79.983	19.992	100.180	19.608	24.777	0.487
433.000	302.087	79.983	19.992	100.182	19.605	25.001	0.454
433.500	302.352	79.984	19.991	100.182	19.602	25.216	0.456
434.000	302.620	79.983	19.991	100.181	19.605	24.994	0.499
434.500	302.878	79.982	19.991	100.180	19.599	25.380	0.530
435.000	303.097	79.985	19.991	100.179	19.598	25.465	0.501
435.500	303.357	79.984	19.991	100.178	19.593	25.851	0.478
436.000	303.601	79.984	19.991	100.179	19.592	25.864	0.492
436.500	303.845	79.984	19.991	100.180	19.589	26.083	0.496
437.000	304.108	79.984	19.991	100.180	19.582	26.612	0.497
437.500	304.357	79.985	19.992	100.180	19.585	26.410	0.510
438.000	304.625	79.983	19.992	100.182	19.578	26.880	0.515
438.500	304.862	79.983	19.992	100.182	19.582	26.629	0.511
439.000	305.110	79.983	19.991	100.185	19.576	27.034	0.495
439.500	305.351	79.983	19.991	100.185	19.576	27.017	0.487
440.000	305.631	79.984	19.993	100.185	19.568	27.604	0.505
440.500	305.884	79.983	19.992	100.186	19.563	27.915	0.527
441.000	306.131	79.984	19.992	100.186	19.563	27.895	0.517
441.500	306.375	79.983	19.991	100.186	19.566	27.724	0.495
442.000	306.621	79.982	19.992	100.186	19.561	28.035	0.490
442.500	306.853	79.985	19.993	100.186	19.558	28.300	0.484
443.000	307.161	79.981	19.992	100.186	19.559	28.207	0.509
443.500	307.377	79.984	19.992	100.186	19.555	28.483	0.532
444.000	307.653	79.984	19.992	100.187	19.553	28.641	0.508
444.500	307.861	79.982	19.992	100.187	19.548	28.977	0.488
445.000	308.128	79.983	19.992	100.186	19.542	29.428	0.480
445.500	308.385	79.983	19.992	100.186	19.542	29.386	0.500
446.000	308.627	79.984	19.991	100.185	19.540	29.560	0.511
446.500	308.862	79.984	19.993	100.185	19.539	29.614	0.488
447.000	309.141	79.983	19.992	100.185	19.534	29.958	0.495
447.500	309.378	79.984	19.993	100.186	19.535	29.923	0.515
448.000	309.672	79.986	19.992	100.193	19.531	30.175	0.524
448.500	309.917	79.984	19.992	100.199	19.529	30.307	0.535
449.000	310.167	79.985	19.993	100.200	19.529	30.301	0.516
449.500	310.430	79.984	19.992	100.201	19.522	30.786	0.504
450.000	310.635	79.984	19.992	100.200	19.522	30.812	0.491
450.500	310.884	79.984	19.992	100.193	19.514	31.347	0.461
451.000	311.114	79.983	19.992	100.189	19.518	31.067	0.467
451.500	311.419	79.984	19.992	100.189	19.514	31.384	0.506
452.000	311.660	79.984	19.991	100.191	19.507	31.855	0.540
452.500	311.949	79.984	19.992	100.191	19.504	32.053	0.538
453.000	312.164	79.985	19.992	100.191	19.506	31.940	0.517
453.500	312.450	79.984	19.992	100.197	19.500	32.321	0.503
454.000	312.683	79.985	19.992	100.201	19.501	32.310	0.510
454.500	312.920	79.984	19.992	100.205	19.494	32.761	0.495
455.000	313.172	79.984	19.991	100.209	19.490	33.043	0.480
455.500	313.409	79.985	19.991	100.212	19.493	32.843	0.489
456.000	313.702	79.985	19.991	100.212	19.485	33.399	0.509
456.500	313.967	79.982	19.991	100.213	19.485	33.401	0.544
457.000	314.187	79.985	19.993	100.214	19.481	33.656	0.522
457.500	314.450	79.983	19.992	100.219	19.475	34.099	0.484
458.001	314.706	79.983	19.992	100.221	19.476	34.011	0.501
458.500	314.942	79.983	19.992	100.217	19.471	34.394	0.506
459.000	315.228	79.982	19.991	100.216	19.467	34.655	0.507
459.500	315.470	79.983	19.992	100.216	19.468	34.579	0.525
460.000	315.702	79.982	19.992	100.215	19.465	34.809	0.501
460.500	315.977	79.982	19.992	100.218	19.461	35.049	0.491
461.000	316.211	79.982	19.992	100.222	19.456	35.427	0.508
461.500	316.482	79.983	19.992	100.225	19.454	35.561	0.507
462.000	316.711	79.983	19.991	100.224	19.452	35.677	0.503
462.500	316.982	79.981	19.991	100.223	19.452	35.695	0.500
463.000	317.255	79.982	19.993	100.222	19.449	35.899	0.522
463.500	317.486	79.982	19.992	100.223	19.443	36.337	0.524
464.000	317.703	79.982	19.991	100.224	19.440	36.522	0.476
464.500	317.963	79.981	19.990	100.225	19.439	36.650	0.462
465.000	318.218	79.983	19.993	100.226	19.436	36.851	0.496
465.500	318.488	79.983	19.993	100.227	19.434	36.973	0.520
466.000	318.748	79.982	19.991	100.226	19.433	37.027	0.528
466.500	318.976	79.983	19.992	100.223	19.431	37.165	0.509
467.000	319.253	79.982	19.992	100.223	19.426	37.535	0.497
467.500	319.485	79.982	19.992	100.224	19.423	37.756	0.507
468.000	319.741	79.981	19.992	100.224	19.421	37.903	0.498
468.500	319.955	79.982	19.992	100.226	19.418	38.073	0.479
469.000	320.231	79.981	19.992	100.229	19.417	38.178	0.480
469.500	320.475	79.981	19.991	100.229	19.411	38.549	0.505
470.000	320.724	79.982	19.992	100.230	19.413	38.445	0.506
470.500	320.964	79.980	19.992	100.230	19.405	38.972	0.491
471.000	321.209	79.981	19.992	100.230	19.407	38.852	0.487
471.500	321.483	79.982	19.992	100.230	19.401	39.279	0.502
472.000	321.724	79.982	19.993	100.229	19.397	39.558	0.516
472.500	321.991	79.981	19.993	100.229	19.399	39.413	0.511
473.000	322.207	79.981	19.992	100.232	19.392	39.903	0.496
473.500	322.436	79.982	19.993	100.239	19.387	40.233	0.464
474.000	322.722	79.980	19.993	100.241	19.387	40.281	0.480
474.500	322.981	79.981	19.994	100.242	19.383	40.571	0.530
475.000	323.223	79.981	19.993	100.247	19.383	40.574	0.523
475.500	323.473	79.981	19.991	100.248	19.377	40.935	0.497
476.000	323.713	79.983	19.992	100.245	19.378	40.885	0.491
476.501	323.985	79.983	19.993	100.243	19.372	41.288	0.501
477.001	324.236	79.982	19.993	100.243	19.371	41.399	0.517
477.500	324.518	79.979	19.993	100.239	19.367	41.634	0.528
478.000	324.740	79.981	19.993	100.235	19.367	41.627	0.519
478.500	325.014	79.981	19.993	100.231	19.362	42.027	0.499
479.000	325.243	79.982	19.992	100.230	19.361	42.070	0.499
479.500	325.496	79.980	19.993	100.231	19.359	42.204	0.493
480.000	325.747	79.981	19.992	100.229	19.354	42.555	0.493
480.500	325.992	79.982	19.994	100.228	19.355	42.484	0.500
481.000	326.285	79.982	19.993	100.229	19.346	43.127	0.517
481.500	326.534	79.982	19.992	100.236	19.345	43.213	0.540
482.000	326.783	79.981	19.992	100.242	19.342	43.401	0.520
482.500	327.005	79.983	19.992	100.245	19.340	43.560	0.485
483.000	327.246	79.982	19.991	100.245	19.338	43.679	0.468
483.500	327.514	79.983	19.993	100.246	19.335	43.883	0.486
484.000	327.774	79.982	19.993	100.239	19.333	44.052	0.518
484.500	328.021	79.982	19.992	100.240	19.331	44.210	0.517
485.000	328.244	79.984	19.993	100.243	19.331	44.199	0.488
485.500	328.513	79.981	19.991	100.251	19.326	44.555	0.481
486.000	328.742	79.982	19.991	100.254	19.324	44.662	0.495
486.500	329.017	79.982	19.992	100.259	19.325	44.623	0.501
487.000	329.268	79.983	19.991	100.259	19.320	44.988	0.515
487.500	329.480	79.984	19.992	100.256	19.314	45.345	0.494
488.000	329.792	79.982	19.992	100.252	19.317	45.176	0.494
488.500	330.026	79.982	19.992	100.254	19.307	45.864	0.536
489.000	330.296	79.983	19.992	100.256	19.308	45.799	0.525
489.500	330.507	79.982	19.992	100.256	19.308	45.795	0.492
490.000	330.785	79.983	19.993	100.254	19.301	46.263	0.485
490.500	331.008	79.982	19.992	100.255	19.303	46.155	0.495
491.000	331.263	79.983	19.991	100.250	19.296	46.655	0.490
491.500	331.520	79.983	19.992	100.249	19.295	46.691	0.495
492.000	331.779	79.982	19.992	100.248	19.298	46.496	0.514
492.500	332.024	79.983	19.993	100.252	19.290	47.043	0.510
493.000	332.294	79.984	19.992	100.255	19.288	47.197	0.510
493.500	332.555	79.982	19.992	100.260	19.283	47.576	0.524
494.000	332.825	79.982	19.992	100.261	19.285	47.425	0.532
494.500	333.074	79.982	19.993	100.262	19.285	47.376	0.525
495.000	333.320	79.982	19.992	100.263	19.278	47.906	0.507
495.500	333.577	79.981	19.992	100.264	19.277	47.953	0.499
496.000	333.818	79.981	19.991	100.263	19.272	48.298	0.500
496.500	334.046	79.982	19.992	100.263	19.271	48.413	0.484
497.000	334.321	79.981	19.992	100.262	19.270	48.423	0.487
497.500	334.558	79.982	19.992	100.262	19.266	48.720	0.508
498.000	334.834	79.981	19.992	100.262	19.260	49.159	0.512
498.500	335.125	79.981	19.992	100.263	19.265	48.802	0.539
499.000	335.324	79.982	19.992	100.264	19.263	48.936	0.528
499.500	335.593	79.983	19.993	100.264	19.259	49.251	0.480
500.000	335.840	79.982	19.992	100.265	19.259	49.230	0.492
500.500	336.106	79.983	19.992	100.265	19.261	49.111	0.514
501.000	336.364	79.982	19.992	100.266	19.258	49.309	0.518
501.500	336.627	79.982	19.992	100.266	19.254	49.582	0.523
502.000	336.855	79.982	19.991	100.266	19.251	49.784	0.506
502.500	337.115	79.983	19.991	100.265	19.249	49.909	0.489
503.000	337.357	79.983	19.993	100.264	19.246	50.130	0.494
503.501	337.616	79.982	19.992	100.264	19.244	50.255	0.501
504.000	337.878	79.981	19.991	100.263	19.246	50.133	0.511
504.500	338.105	79.983	19.992	100.263	19.238	50.753	0.505
505.000	338.373	79.983	19.993	100.264	19.239	50.657	0.492
505.500	338.598	79.983	19.991	100.263	19.234	51.010	0.494
506.000	338.865	79.983	19.992	100.262	19.235	50.947	0.492
506.500	339.103	79.984	19.992	100.262	19.230	51.300	0.498
507.000	339.360	79.986	19.992	100.262	19.225	51.586	0.500
507.500	339.618	79.984	19.991	100.262	19.226	51.510	0.505
508.000	339.852	79.984	19.992	100.263	19.222	51.819	0.504
508.500	340.110	79.985	19.993	100.264	19.217	52.149	0.492
509.000	340.345	79.984	19.992	100.265	19.219	52.024	0.493
509.500	340.598	79.983	19.992	100.267	19.215	52.313	0.491
510.000	340.859	79.984	19.991	100.268	19.215	52.294	0.501
510.500	341.076	79.984	19.992	100.268	19.211	52.627	0.496
511.000	341.341	79.983	19.991	100.268	19.207	52.879	0.480
511.500	341.570	79.982	19.991	100.274	19.202	53.237	0.488
512.000	341.845	79.982	19.991	100.260	19.205	52.997	0.499
512.500	342.113	79.983	19.992	100.234	19.204	53.118	0.523
513.000	342.364	79.982	19.991	100.217	19.201	53.268	0.531
513.500	342.640	79.985	19.992	100.210	19.202	53.260	0.523
514.000	342.855	79.985	19.992	100.200	19.198	53.482	0.510
514.500	343.133	79.984	19.992	100.231	19.195	53.726	0.492
515.000	343.362	79.984	19.992	100.290	19.195	53.684	0.500
515.500	343.599	79.984	19.992	100.324	19.194	53.776	0.487
516.000	343.868	79.983	19.992	100.340	19.187	54.289	0.486
516.500	344.118	79.984	19.992	100.344	19.188	54.226	0.512
517.000	344.350	79.984	19.991	100.325	19.186	54.350	0.500
517.500	344.613	79.984	19.991	100.292	19.184	54.524	0.489
518.000	344.892	79.983	19.991	100.275	19.179	54.872	0.519
518.500	345.114	79.983	19.991	100.268	19.182	54.640	0.521
519.000	345.328	79.984	19.993	100.271	19.177	54.980	0.468
519.500	345.598	79.983	19.992	100.273	19.178	54.895	0.460
520.000	345.870	79.983	19.990	100.276	19.174	55.191	0.513
520.500	346.130	79.982	19.992	100.280	19.173	55.230	0.537
521.001	346.359	79.982	19.990	100.284	19.169	55.521	0.510
521.500	346.607	79.984	19.990	100.287	19.166	55.753	0.484
522.000	346.812	79.984	19.991	100.291	19.167	55.692	0.465
522.500	347.091	79.982	19.991	100.294	19.159	56.224	0.469
523.000	347.322	79.983	19.991	100.295	19.161	56.106	0.497
523.500	347.586	79.983	19.992	100.298	19.158	56.307	0.502
524.000	347.859	79.984	19.992	100.296	19.157	56.370	0.516
524.500	348.094	79.983	19.990	100.292	19.155	56.501	0.523
525.000	348.361	79.982	19.991	100.294	19.152	56.714	0.505
525.500	348.601	79.982	19.990	100.296	19.148	56.986	0.504
526.000	348.838	79.984	19.991	100.295	19.149	56.940	0.492
526.500	349.127	79.983	19.991	100.298	19.145	57.248	0.501
527.000	349.340	79.984	19.990	100.301	19.146	57.192	0.514
527.500	349.608	79.985	19.991	100.298	19.141	57.495	0.492
528.000	349.868	79.985	19.991	100.299	19.142	57.413	0.505
528.500	350.122	79.984	19.992	100.300	19.137	57.774	0.521
529.000	350.414	79.985	19.991	100.300	19.134	58.020	0.530
529.500	350.615	79.985	19.992	100.301	19.130	58.293	0.520
530.000	350.877	79.983	19.992	100.304	19.133	58.067	0.478
530.500	351.118	79.983	19.992	100.302	19.125	58.622	0.483
531.000	351.354	79.985	19.992	100.301	19.124	58.733	0.490
531.500	351.616	79.984	19.991	100.300	19.122	58.816	0.487
532.000	351.847	79.986	19.991	100.302	19.118	59.099	0.496
532.500	352.121	79.984	19.991	100.301	19.116	59.251	0.499
533.000	352.388	79.983	19.991	100.303	19.113	59.496	0.523
533.500	352.642	79.984	19.992	100.303	19.112	59.530	0.531
534.000	352.888	79.984	19.992	100.304	19.110	59.706	0.510
534.500	353.147	79.985	19.992	100.304	19.109	59.764	0.502
535.000	353.408	79.983	19.992	100.304	19.103	60.169	0.512
535.500	353.616	79.984	19.992	100.305	19.101	60.362	0.495
536.000	353.930	79.984	19.992	100.309	19.101	60.324	0.496
536.500	354.165	79.984	19.991	100.310	19.095	60.732	0.536
537.000	354.399	79.984	19.991	100.311	19.092	60.952	0.509
537.500	354.665	79.982	19.992	100.313	19.088	61.170	0.485
538.000	354.924	79.983	19.992	100.313	19.084	61.456	0.513
538.500	355.184	79.984	19.992	100.309	19.083	61.555	0.522
539.000	355.427	79.982	19.991	100.311	19.079	61.834	0.511
539.500	355.653	79.983	19.992	100.311	19.073	62.249	0.486
540.000	355.897	79.983	19.992	100.312	19.075	62.191	0.470
540.500	356.157	79.982	19.993	100.311	19.071	62.505	0.487
541.000	356.444	79.983	19.991	100.313	19.066	62.810	0.525
541.500	356.652	79.981	19.992	100.317	19.062	63.095	0.521
542.000	356.922	79.981	19.993	100.322	19.060	63.275	0.487
542.500	357.185	79.981	19.992	100.326	19.057	63.419	0.505
543.000	357.471	79.982	19.993	100.332	19.052	63.804	0.541
543.500	357.686	79.981	19.991	100.337	19.050	63.939	0.525
544.000	357.950	79.980	19.993	100.337	19.046	64.166	0.490
544.500	358.214	79.982	19.992	100.339	19.044	64.336	0.503
545.000	358.433	79.983	19.993	100.337	19.037	64.796	0.505
545.501	358.687	79.982	19.991	100.336	19.035	64.928	0.478
546.000	358.955	79.983	19.992	100.335	19.029	65.351	0.498
546.500	359.189	79.982	19.991	100.344	19.025	65.657	0.512
547.000	359.435	79.982	19.993	100.325	19.024	65.704	0.491
547.500	359.699	79.982	19.991	100.299	19.018	66.137	0.495
548.000	359.954	79.982	19.990	100.282	19.019	66.109	0.515
548.500	360.214	79.984	19.992	100.272	19.011	66.676	0.517
549.000	360.470	79.981	19.992	100.258	19.011	66.676	0.515
549.500	360.704	79.982	19.992	100.275	19.006	67.007	0.503
550.000	360.978	79.984	19.992	100.305	19.006	67.006	0.500
550.500	361.222	79.982	19.993	100.329	19.004	67.175	0.513
551.000	361.478	79.983	19.992	100.379	19.000	67.450	0.509
551.500	361.698	79.980	19.992	100.411	18.994	67.875	0.488
552.000	361.970	79.982	19.992	100.420	18.987	68.335	0.484
552.500	362.230	79.982	19.992	100.426	18.987	68.339	0.512
553.000	362.459	79.981	19.992	100.428	18.984	68.531	0.511
553.500	362.709	79.980	19.991	100.392	18.976	69.070	0.484
554.000	362.982	79.981	19.992	100.371	18.973	69.285	0.501
554.500	363.186	79.981	19.993	100.364	18.968	69.635	0.500
555.000	363.464	79.983	19.993	100.359	18.963	70.014	0.480
555.500	363.757	79.982	19.991	100.355	18.960	70.228	0.527
556.000	363.952	79.982	19.993	100.352	18.955	70.599	0.530
556.500	364.227	79.983	19.994	100.349	18.951	70.879	0.479
557.000	364.481	79.981	19.993	100.350	18.950	70.897	0.499
557.500	364.745	79.981	19.992	100.350	18.947	71.171	0.523
558.000	365.023	79.982	19.992	100.353	18.945	71.267	0.530
558.500	365.227	79.983	19.994	100.359	18.938	71.796	0.512
559.000	365.473	79.982	19.993	100.359	18.934	72.027	0.466
559.500	365.722	79.982	19.993	100.363	18.929	72.418	0.473
560.000	365.997	79.982	19.992	100.369	18.927	72.542	0.510
560.500	366.252	79.981	19.993	100.370	18.921	72.932	0.527
561.000	366.463	79.983	19.993	100.371	18.914	73.423	0.498
561.500	366.766	79.981	19.993	100.375	18.911	73.678	0.490
562.000	367.029	79.981	19.993	100.372	18.909	73.830	0.540
562.500	367.228	79.983	19.992	100.370	18.903	74.227	0.514
563.000	367.494	79.982	19.993	100.368	18.900	74.408	0.463
563.500	367.735	79.980	19.992	100.369	18.900	74.429	0.486
564.000	367.973	79.981	19.993	100.368	18.892	75.018	0.493
564.500	368.262	79.981	19.992	100.372	18.892	75.021	0.503
565.000	368.508	79.982	19.993	100.374	18.887	75.327	0.531
565.500	368.748	79.981	19.993	100.378	18.881	75.767	0.510
566.000	369.013	79.982	19.992	100.378	18.878	75.978	0.496
566.500	369.232	79.981	19.992	100.379	18.877	76.047	0.495
567.000	369.521	79.983	19.993	100.380	18.874	76.279	0.496
567.500	369.757	79.983	19.993	100.381	18.867	76.759	0.516
568.000	369.998	79.983	19.993	100.381	18.864	76.921	0.501
568.500	370.285	79.982	19.993	100.381	18.867	76.738	0.502
569.000	370.533	79.982	19.992	100.383	18.859	77.277	0.531
569.500	370.782	79.983	19.992	100.381	18.854	77.672	0.516
570.000	371.040	79.982	19.991	100.379	18.848	78.063	0.502
570.500	371.318	79.982	19.993	100.379	18.848	78.046	0.522
571.000	371.530	79.982	19.993	100.378	18.843	78.415	0.513
571.500	371.792	79.983	19.994	100.377	18.839	78.685	0.482
572.000	372.027	79.983	19.993	100.377	18.835	78.999	0.486
572.500	372.349	79.983	19.994	100.378	18.833	79.127	0.527
573.000	372.578	79.982	19.993	100.379	18.831	79.252	0.553
573.500	372.835	79.981	19.993	100.379	18.830	79.303	0.519
574.000	373.052	79.982	19.992	100.381	18.827	79.535	0.480
574.500	373.297	79.983	19.992	100.382	18.825	79.693	0.468
575.000	373.582	79.982	19.991	100.384	18.825	79.645	0.496
575.500	373.807	79.981	19.993	100.384	18.822	79.852	0.520
576.000	374.082	79.982	19.993	100.384	18.817	80.214	0.505
576.500	374.319	79.982	19.994	100.383	18.819	80.063	0.506
577.000	374.567	79.982	19.992	100.383	18.814	80.413	0.498
577.500	374.843	79.982	19.991	100.381	18.816	80.263	0.505
578.000	375.085	79.983	19.992	100.382	18.816	80.284	0.521
578.500	375.345	79.984	19.992	100.383	18.813	80.520	0.510
579.000	375.565	79.983	19.992	100.380	18.812	80.581	0.491
579.500	375.819	79.981	19.991	100.379	18.811	80.614	0.477
580.000	376.082	79.982	19.992	100.379	18.810	80.669	0.496
580.500	376.332	79.984	19.993	100.379	18.810	80.676	0.515
581.000	376.599	79.982	19.992	100.379	18.811	80.622	0.515
581.500	376.854	79.984	19.992	100.383	18.809	80.746	0.520
582.000	377.131	79.982	19.991	100.382	18.813	80.463	0.527
582.500	377.338	79.984	19.992	100.382	18.809	80.715	0.508
583.000	377.623	79.983	19.991	100.376	18.812	80.533	0.488
583.500	377.860	79.983	19.991	100.368	18.812	80.519	0.507
584.000	378.107	79.984	19.992	100.364	18.812	80.508	0.503
584.500	378.376	79.984	19.992	100.364	18.814	80.373	0.500
585.000	378.591	79.985	19.992	100.359	18.815	80.315	0.500
585.500	378.865	79.985	19.991	100.358	18.820	79.961	0.486
586.000	379.073	79.984	19.992	100.358	18.824	79.667	0.486
586.500	379.375	79.983	19.992	100.354	18.825	79.576	0.496
587.000	379.620	79.985	19.991	100.349	18.826	79.504	0.528
587.500	379.898	79.984	19.992	100.346	18.831	79.173	0.535
588.000	380.097	79.984	19.992	100.341	18.838	78.679	0.500
588.500	380.379	79.985	19.991	100.340	18.838	78.642	0.479
589.000	380.614	79.986	19.992	100.340	18.839	78.625	0.500
589.500	380.891	79.985	19.991	100.337	18.844	78.233	0.515
590.000	381.148	79.984	19.991	100.332	18.850	77.803	0.523
590.500	381.381	79.984	19.992	100.328	18.853	77.579	0.512
591.000	381.629	79.984	19.992	100.321	18.862	76.936	0.485
591.500	381.885	79.985	19.991	100.313	18.866	76.693	0.493
592.000	382.140	79.984	19.992	100.308	18.871	76.318	0.508
592.500	382.390	79.984	19.991	100.306	18.876	76.009	0.508
593.000	382.649	79.984	19.992	100.304	18.883	75.474	0.506
593.500	382.917	79.983	19.992	100.301	18.892	74.878	0.517
594.000	383.164	79.982	19.992	100.295	18.895	74.647	0.521
594.500	383.436	79.984	19.993	100.291	18.905	73.943	0.517
595.000	383.671	79.984	19.992	100.290	18.910	73.602	0.513
595.500	383.956	79.982	19.991	100.287	18.917	73.059	0.514
596.000	384.173	79.983	19.993	100.283	18.927	72.415	0.511
596.500	384.437	79.984	19.992	100.280	18.931	72.111	0.491
597.000	384.683	79.983	19.991	100.276	18.940	71.500	0.495
597.500	384.918	79.983	19.992	100.268	18.952	70.655	0.495
598.000	385.184	79.984	19.992	100.265	18.958	70.211	0.491
598.500	385.443	79.982	19.992	100.257	18.968	69.488	0.513
599.000	385.700	79.981	19.991	100.250	18.976	68.961	0.521
599.500	385.923	79.984	19.991	100.241	18.986	68.226	0.498
600.000	386.189	79.982	19.991	100.234	18.998	67.400	0.485
600.500	386.473	79.983	19.992	100.227	19.008	66.664	0.519
601.000	386.720	79.982	19.991	100.224	19.017	66.061	0.540
601.500	386.977	79.984	19.992	100.217	19.029	65.228	0.517
602.000	387.234	79.982	19.992	100.214	19.040	64.471	0.509
602.500	387.479	79.983	19.990	100.207	19.047	63.930	0.508
603.000	387.729	79.984	19.992	100.199	19.063	62.845	0.499
603.500	387.975	79.981	19.992	100.194	19.076	61.935	0.495
604.000	388.246	79.983	19.992	100.193	19.087	61.145	0.506
604.500	388.534	79.983	19.991	100.190	19.099	60.283	0.538
605.000	388.816	79.985	19.992	100.188	19.111	59.450	0.565
605.500	389.015	79.984	19.992	100.182	19.124	58.588	0.526
606.000	389.233	79.983	19.992	100.176	19.139	57.534	0.449
606.500	389.517	79.985	19.991	100.168	19.152	56.629	0.459
607.000	389.776	79.986	19.992	100.160	19.164	55.752	0.523
607.500	390.013	79.986	19.992	100.151	19.176	54.959	0.520
608.000	390.272	79.985	19.991	100.148	19.189	54.034	0.496
608.500	390.538	79.987	19.991	100.144	19.205	52.896	0.510
609.000	390.787	79.986	19.991	100.140	19.217	52.071	0.520
609.500	391.044	79.985	19.991	100.134	19.230	51.132	0.510
610.000	391.286	79.985	19.991	100.132	19.240	50.462	0.502
610.500	391.570	79.986	19.991	100.128	19.254	49.442	0.512
611.000	391.777	79.985	19.991	100.122	19.267	48.542	0.509
611.500	392.030	79.987	19.992	100.119	19.281	47.569	0.476
612.000	392.321	79.986	19.991	100.115	19.294	46.705	0.502
612.500	392.583	79.987	19.990	100.112	19.308	45.737	0.548
613.000	392.818	79.984	19.991	100.109	19.324	44.593	0.524
613.500	393.088	79.985	19.991	100.105	19.337	43.695	0.501
614.000	393.378	79.985	19.993	100.101	19.346	43.016	0.533
614.500	393.633	79.986	19.991	100.100	19.360	42.059	0.552
615.000	393.878	79.985	19.990	100.094	19.372	41.229	0.523
615.500	394.133	79.986	19.992	100.091	19.385	40.326	0.500
616.000	394.360	79.985	19.991	100.087	19.402	39.165	0.491
616.500	394.662	79.985	19.991	100.082	19.414	38.324	0.505
617.000	394.903	79.983	19.991	100.075	19.424	37.575	0.535
617.500	395.153	79.983	19.991	100.073	19.435	36.855	0.517
618.000	395.393	79.985	19.992	100.068	19.449	35.854	0.491
618.500	395.654	79.985	19.992	100.067	19.460	35.045	0.495
619.000	395.919	79.984	19.991	100.065	19.475	34.005	0.513
619.500	396.199	79.982	19.992	100.063	19.484	33.426	0.535
620.000	396.448	79.984	19.992	100.062	19.500	32.301	0.537
620.500	396.679	79.983	19.992	100.058	19.511	31.525	0.505
621.000	396.977	79.984	19.993	100.058	19.521	30.823	0.505
621.500	397.199	79.981	19.993	100.060	19.536	29.794	0.525
622.000	397.452	79.982	19.991	100.061	19.545	29.134	0.498
622.501	397.690	79.982	19.993	100.062	19.554	28.494	0.483
623.001	397.978	79.982	19.992	100.065	19.563	27.915	0.509
623.500	398.245	79.983	19.994	100.064	19.574	27.140	0.540
624.000	398.513	79.982	19.993	100.061	19.584	26.415	0.544
624.500	398.745	79.982	19.992	100.060	19.597	25.530	0.517
625.000	399.024	79.981	19.993	100.056	19.607	24.813	0.506
625.500	399.273	79.983	19.993	100.055	19.615	24.248	0.520
626.000	399.486	79.982	19.992	100.054	19.630	23.197	0.495
626.500	399.759	79.982	19.994	100.053	19.636	22.771	0.474
627.000	400.055	79.982	19.992	100.050	19.638	22.643	0.528
627.500	400.290	79.983	19.992	100.046	19.647	21.998	0.550
628.000	400.487	79.982	19.992	100.045	19.656	21.370	0.481
628.500	400.746	79.982	19.993	100.040	19.667	20.603	0.443
629.000	401.019	79.982	19.992	100.040	19.675	20.047	0.494
629.500	401.312	79.984	19.993	100.041	19.679	19.793	0.549
630.000	401.538	79.983	19.994	100.043	19.686	19.274	0.543
630.500	401.820	79.982	19.993	100.044	19.695	18.694	0.514
631.000	402.051	79.982	19.993	100.047	19.701	18.239	0.510
631.500	402.308	79.982	19.992	100.044	19.706	17.927	0.500
632.000	402.577	79.982	19.993	100.044	19.714	17.330	0.507
632.500	402.816	79.982	19.991	100.044	19.720	16.929	0.517
633.000	403.087	79.983	19.992	100.040	19.725	16.566	0.509
633.500	403.330	79.982	19.992	100.038	19.733	16.001	0.512
634.000	403.627	79.982	19.992	100.039	19.734	15.964	0.527
634.500	403.848	79.982	19.991	100.039	19.738	15.654	0.529
635.000	404.117	79.984	19.991	100.038	19.742	15.377	0.504
635.500	404.358	79.983	19.991	100.038	19.748	14.956	0.500
636.000	404.591	79.984	19.993	100.037	19.753	14.599	0.492
636.500	404.876	79.984	19.991	100.034	19.753	14.590	0.496
637.000	405.115	79.981	19.992	100.034	19.761	14.096	0.521
637.500	405.419	79.983	19.992	100.039	19.765	13.797	0.533
638.000	405.622	79.983	19.991	100.041	19.770	13.430	0.525
638.500	405.877	79.982	19.992	100.044	19.770	13.402	0.483
639.000	406.138	79.983	19.993	100.043	19.772	13.313	0.487
639.500	406.425	79.983	19.992	100.040	19.781	12.663	0.532
640.000	406.677	79.984	19.994	100.035	19.784	12.440	0.543
640.500	406.908	79.985	19.993	100.036	19.781	12.654	0.511
641.000	407.160	79.982	19.992	100.038	19.788	12.194	0.483
641.500	407.386	79.984	19.993	100.040	19.790	12.019	0.481
642.000	407.650	79.983	19.992	100.043	19.789	12.098	0.484
642.500	407.886	79.982	19.993	100.048	19.794	11.771	0.495
643.000	408.188	79.983	19.993	100.053	19.794	11.778	0.519
643.500	408.433	79.983	19.991	100.055	19.795	11.682	0.543
644.000	408.692	79.982	19.993	100.054	19.793	11.804	0.525
644.500	408.878	79.983	19.992	100.052	19.807	10.842	0.474
645.000	409.202	79.981	19.992	100.046	19.804	11.065	0.478
645.500	409.466	79.981	19.992	100.039	19.800	11.349	0.549
646.000	409.699	79.983	19.993	100.034	19.810	10.638	0.542
646.500	409.938	79.982	19.993	100.036	19.809	10.708	0.484
647.001	410.168	79.981	19.993	100.040	19.802	11.182	0.471
647.500	410.513	79.982	19.993	100.041	19.814	10.366	0.523
648.000	410.705	79.981	19.992	100.046	19.815	10.259	0.556
648.500	410.939	79.981	19.993	100.050	19.809	10.735	0.481
649.001	411.174	79.981	19.993	100.052	19.812	10.505	0.448
649.500	411.477	79.980	19.994	100.054	19.818	10.084	0.503
650.000	411.698	79.981	19.993	100.058	19.819	9.998	0.531
650.500	411.919	79.983	19.993	100.054	19.821	9.887	0.483
651.000	412.253	79.981	19.992	100.048	19.819	10.036	0.499
651.500	412.432	79.980	19.994	100.045	19.823	9.742	0.534
652.000	412.716	79.982	19.994	100.039	19.818	10.096	0.487
652.500	413.010	79.981	19.993	100.033	19.820	9.908	0.520
653.000	413.261	79.980	19.993	100.037	19.829	9.333	0.562
653.500	413.403	79.981	19.993	100.041	19.824	9.649	0.470
654.000	413.746	79.981	19.992	100.046	19.828	9.404	0.439
654.500	413.939	79.980	19.993	100.049	19.821	9.885	0.510
655.000	414.169	79.980	19.994	100.047	19.825	9.590	0.479
655.500	414.416	79.982	19.994	100.043	19.827	9.438	0.450
656.000	414.662	79.981	19.993	100.039	19.829	9.287	0.485
656.500	415.098	79.982	19.993	100.034	19.828	9.412	0.588
657.000	415.190	79.983	19.995	100.036	19.825	9.586	0.605
657.500	415.425	79.982	19.993	100.040	19.827	9.436	0.427
658.000	415.548	79.981	19.993	100.042	19.831	9.154	0.343
658.500	416.179	79.982	19.993	100.048	19.831	9.197	0.556
659.000	416.047	79.982	19.992	100.049	19.832	9.112	0.626
659.500	416.608	79.981	19.991	100.045	19.832	9.074	0.463
660.000	416.939	79.982	19.992	100.042	19.834	8.995	0.660
660.500	417.221	79.984	19.991	100.041	19.834	8.982	0.753
661.000	416.973	79.983	19.992	100.035	19.831	9.183	0.324
661.500	417.592	79.983	19.991	100.032	19.832	9.134	0.202
662.000	417.757	79.983	19.991	100.032	19.829	9.294	0.578
662.500	417.887	79.983	19.992	100.036	19.829	9.309	0.540
663.000	418.266	79.983	19.992	100.038	19.831	9.164	0.402
663.500	418.639	79.983	19.991	100.038	19.832	9.082	0.631
664.000	418.723	79.983	19.991	100.039	19.832	9.119	0.605
664.500	418.989	79.984	19.991	100.039	19.834	8.942	0.404
665.000	419.148	79.982	19.991	100.036	19.836	8.844	0.388
665.500	419.497	79.984	19.992	100.037	19.835	8.925	0.466
666.000	419.766	79.985	19.992	100.038	19.835	8.867	0.563
666.500	419.913	79.983	19.991	100.037	19.833	9.057	0.517
667.000	420.349	79.982	19.992	100.039	19.834	8.987	0.499
667.500	420.470	79.984	19.992	100.039	19.836	8.805	0.570
668.000	420.830	79.984	19.992	100.036	19.837	8.748	0.519
668.500	420.992	79.984	19.991	100.037	19.839	8.632	0.502
669.000	421.263	79.983	19.991	100.036	19.840	8.511	0.477
669.500	421.514	79.984	19.993	100.034	19.838	8.665	0.477
670.000	421.795	79.984	19.993	100.034	19.841	8.476	0.527
670.500	422.009	79.986	19.992	100.034	19.838	8.681	0.513
671.000	422.298	79.985	19.992	100.032	19.837	8.743	0.499
671.500	422.516	79.984	19.991	100.032	19.839	8.602	0.505
672.000	422.803	79.984	19.991	100.031	19.841	8.457	0.506
672.500	423.034	79.983	19.991	100.030	19.839	8.590	0.512
673.000	423.273	79.983	19.991	100.030	19.843	8.365	0.494
673.500	423.542	79.983	19.992	100.030	19.841	8.462	0.489
674.000	423.804	79.984	19.993	100.031	19.842	8.417	0.519
674.500	424.060	79.984	19.992	100.031	19.839	8.620	0.524
675.000	424.317	79.984	19.993	100.030	19.839	8.590	0.516
675.500	424.496	79.984	19.993	100.030	19.838	8.675	0.475
676.000	424.807	79.984	19.992	100.029	19.843	8.353	0.463
676.500	425.000	79.984	19.992	100.029	19.843	8.331	0.497
677.000	425.328	79.983	19.991	100.029	19.841	8.506	0.513
677.500	425.561	79.983	19.992	100.030	19.846	8.137	0.541
678.000	425.776	79.983	19.992	100.030	19.849	7.911	0.504
678.500	426.060	79.984	19.992	100.029	19.843	8.321	0.473
679.000	426.295	79.983	19.992	100.028	19.848	7.988	0.509
679.500	426.541	79.984	19.992	100.028	19.845	8.216	0.500
680.000	426.837	79.983	19.991	100.028	19.844	8.272	0.512
680.500	427.040	79.981	19.993	100.028	19.846	8.137	0.520
681.000	427.269	79.983	19.993	100.028	19.845	8.204	0.465
681.500	427.580	79.984	19.992	100.028	19.850	7.834	0.486
682.000	427.850	79.984	19.992	100.028	19.850	7.851	0.560
682.500	428.041	79.983	19.992	100.029	19.851	7.770	0.521
683.000	428.332	79.984	19.992	100.029	19.851	7.768	0.472
683.500	428.582	79.985	19.993	100.029	19.848	7.970	0.512
684.000	428.860	79.983	19.993	100.029	19.849	7.917	0.535
684.500	429.135	79.984	19.992	100.029	19.851	7.763	0.540
685.000	429.335	79.985	19.992	100.029	19.852	7.687	0.514
685.501	429.599	79.983	19.991	100.029	19.849	7.883	0.470
686.000	429.815	79.984	19.992	100.029	19.849	7.890	0.472
686.500	430.112	79.985	19.992	100.028	19.852	7.693	0.496
687.000	430.327	79.985	19.993	100.028	19.850	7.857	0.512
687.501	430.640	79.984	19.992	100.028	19.851	7.793	0.520
688.000	430.818	79.984	19.992	100.028	19.849	7.911	0.510
688.500	431.124	79.985	19.992	100.027	19.853	7.646	0.488
689.000	431.351	79.985	19.991	100.028	19.851	7.742	0.508
689.500	431.601	79.987	19.992	100.028	19.850	7.836	0.505
690.000	431.850	79.986	19.992	100.028	19.854	7.600	0.488
690.500	432.133	79.986	19.991	100.028	19.857	7.378	0.516
691.000	432.394	79.985	19.991	100.029	19.857	7.380	0.538
691.500	432.683	79.987	19.992	100.028	19.853	7.666	0.547
692.000	432.939	79.985	19.992	100.027	19.854	7.593	0.547
692.500	433.139	79.985	19.991	100.028	19.855	7.488	0.501
693.000	433.454	79.986	19.989	100.028	19.859	7.211	0.486
693.500	433.683	79.985	19.991	100.028	19.855	7.495	0.529
694.000	433.954	79.985	19.991	100.030	19.854	7.555	0.522
694.500	434.225	79.986	19.991	100.030	19.857	7.335	0.521
695.000	434.488	79.985	19.991	100.029	19.854	7.578	0.538
695.500	434.712	79.985	19.991	100.029	19.856	7.422	0.511
696.000	434.997	79.985	19.991	100.028	19.855	7.495	0.498
696.500	435.255	79.985	19.990	100.026	19.858	7.288	0.526
697.000	435.479	79.986	19.991	100.027	19.856	7.414	0.513
697.500	435.740	79.985	19.992	100.027	19.857	7.356	0.483
698.000	435.998	79.986	19.993	100.028	19.861	7.048	0.502
698.500	436.238	79.984	19.991	100.029	19.857	7.390	0.508
699.000	436.512	79.985	19.992	100.029	19.860	7.129	0.506
699.500	436.749	79.984	19.992	100.029	19.859	7.204	0.513
700.000	436.965	79.985	19.992	100.029	19.859	7.208	0.482
700.500	437.249	79.984	19.992	100.028	19.858	7.313	0.477
701.000	437.494	79.982	19.990	100.025	19.861	7.085	0.514
701.500	437.778	79.985	19.993	100.020	19.858	7.319	0.529
702.000	438.034	79.984	19.992	100.020	19.853	7.610	0.534
702.500	438.264	79.984	19.992	100.020	19.857	7.375	0.513
703.000	438.564	79.983	19.992	100.022	19.860	7.168	0.508
703.500	438.784	79.983	19.992	100.025	19.858	7.294	0.525
704.000	439.025	79.983	19.992	100.029	19.859	7.210	0.491
704.500	439.305	79.983	19.992	100.028	19.855	7.518	0.491
705.000	439.574	79.983	19.992	100.027	19.857	7.343	0.535
705.500	439.801	79.983	19.992	100.027	19.862	6.997	0.523
706.000	440.042	79.983	19.992	100.026	19.866	6.745	0.482
706.500	440.312	79.983	19.992	100.025	19.864	6.837	0.489
707.000	440.564	79.983	19.992	100.027	19.865	6.816	0.516
707.500	440.847	79.983	19.992	100.028	19.864	6.856	0.528
708.000	441.055	79.983	19.992	100.028	19.864	6.856	0.513
708.500	441.319	79.981	19.992	100.028	19.861	7.095	0.482
709.000	441.566	79.983	19.991	100.030	19.862	6.974	0.491
709.500	441.829	79.983	19.992	100.030	19.863	6.933	0.510
710.000	442.082	79.983	19.992	100.030	19.859	7.215	0.513
710.500	442.301	79.984	19.992	100.030	19.864	6.859	0.494
711.000	442.589	79.983	19.993	100.031	19.862	7.014	0.489
711.500	442.817	79.983	19.992	100.030	19.865	6.820	0.511
712.000	443.098	79.984	19.993	100.030	19.867	6.651	0.513
712.500	443.356	79.984	19.993	100.030	19.865	6.786	0.524
713.000	443.615	79.982	19.992	100.030	19.863	6.927	0.527
713.500	443.836	79.983	19.992	100.030	19.863	6.959	0.498
714.000	444.094	79.982	19.993	100.031	19.867	6.654	0.480
714.500	444.321	79.983	19.993	100.031	19.868	6.609	0.483
715.000	444.553	79.981	19.993	100.031	19.859	7.185	0.472
715.500	444.837	79.982	19.992	100.034	19.865	6.829	0.487
716.000	445.105	79.983	19.992	100.033	19.870	6.455	0.534
716.500	445.349	79.982	19.992	100.033	19.864	6.836	0.532
717.000	445.549	79.983	19.992	100.034	19.865	6.808	0.478
717.500	445.819	79.983	19.992	100.033	19.869	6.550	0.457
718.000	446.070	79.983	19.992	100.031	19.868	6.577	0.496
718.500	446.344	79.982	19.993	100.031	19.870	6.419	0.523
719.000	446.601	79.983	19.992	100.031	19.870	6.481	0.528
719.500	446.831	79.984	19.993	100.028	19.868	6.575	0.509
720.000	447.112	79.984	19.993	100.027	19.871	6.408	0.499
720.500	447.339	79.983	19.992	100.027	19.872	6.300	0.510
721.000	447.578	79.983	19.992	100.027	19.874	6.184	0.487
721.500	447.891	79.982	19.992	100.028	19.872	6.312	0.509
722.000	448.096	79.983	19.992	100.029	19.872	6.321	0.535
722.500	448.370	79.983	19.992	100.031	19.870	6.453	0.498
723.000	448.606	79.982	19.992	100.031	19.872	6.344	0.494
723.500	448.851	79.983	19.991	100.031	19.871	6.374	0.496
724.000	449.094	79.983	19.991	100.031	19.870	6.453	0.485
724.500	449.390	79.982	19.991	100.031	19.872	6.284	0.513
725.000	449.620	79.983	19.992	100.030	19.876	6.061	0.532
725.500	449.891	79.984	19.994	100.030	19.874	6.167	0.514
726.000	450.198	79.983	19.991	100.029	19.870	6.477	0.539
726.500	450.389	79.981	19.992	100.027	19.872	6.344	0.538
727.000	450.651	79.983	19.992	100.022	19.877	5.988	0.476
727.500	450.956	79.983	19.993	100.019	19.875	6.090	0.510
728.000	451.154	79.982	19.992	100.019	19.874	6.176	0.535
728.500	451.411	79.982	19.991	100.020	19.874	6.163	0.479
729.000	451.609	79.983	19.992	100.023	19.875	6.070	0.456
729.500	451.901	79.982	19.993	100.026	19.878	5.912	0.473
730.000	452.104	79.981	19.992	100.030	19.875	6.083	0.492
730.500	452.435	79.981	19.992	100.028	19.876	6.012	0.515
731.000	452.687	79.982	19.992	100.025	19.876	6.053	0.558
731.500	452.887	79.981	19.992	100.024	19.878	5.890	0.517
732.000	453.158	79.982	19.992	100.025	19.876	5.995	0.462
732.500	453.427	79.982	19.993	100.025	19.877	5.977	0.505
733.000	453.708	79.982	19.992	100.027	19.880	5.775	0.544
733.500	453.958	79.982	19.992	100.030	19.878	5.885	0.541
734.000	454.203	79.982	19.992	100.030	19.878	5.877	0.514
734.500	454.470	79.983	19.993	100.027	19.879	5.804	0.503
735.000	454.717	79.983	19.993	100.026	19.877	5.965	0.513
735.500	454.982	79.980	19.993	100.025	19.880	5.745	0.513
736.000	455.211	79.982	19.992	100.023	19.883	5.525	0.503
736.500	455.482	79.982	19.991	100.024	19.886	5.359	0.497
737.000	455.727	79.982	19.993	100.026	19.882	5.576	0.508
737.500	456.019	79.982	19.993	100.026	19.881	5.674	0.526
738.000	456.221	79.982	19.994	100.026	19.881	5.687	0.516
738.501	456.516	79.981	19.994	100.026	19.883	5.548	0.496
739.000	456.757	79.981	19.994	100.026	19.883	5.555	0.517
739.500	457.039	79.983	19.993	100.022	19.880	5.761	0.529
740.000	457.290	79.983	19.992	100.018	19.888	5.187	0.528
740.500	457.604	79.981	19.993	100.015	19.884	5.503	0.549
741.000	457.766	79.983	19.993	100.010	19.887	5.232	0.520
741.501	458.020	79.983	19.992	100.009	19.887	5.280	0.445
742.000	458.291	79.983	19.992	100.008	19.882	5.587	0.471
742.500	458.566	79.983	19.993	100.013	19.887	5.277	0.536
743.000	458.811	79.984	19.994	100.016	19.885	5.403	0.533
743.500	459.092	79.983	19.993	100.021	19.888	5.224	0.523
744.000	459.322	79.984	19.994	100.022	19.888	5.185	0.519
744.500	459.592	79.984	19.992	100.025	19.889	5.130	0.506
745.000	459.848	79.983	19.993	100.024	19.890	5.019	0.513
745.500	460.101	79.984	19.994	100.022	19.888	5.202	0.517
746.000	460.340	79.984	19.993	100.017	19.889	5.100	0.501
746.500	460.619	79.986	19.993	100.015	19.889	5.117	0.505
747.000	460.856	79.984	19.993	100.015	19.891	4.955	0.517
747.500	461.114	79.984	19.994	100.014	19.889	5.115	0.506
748.000	461.365	79.985	19.992	100.016	19.890	5.061	0.502
748.500	461.642	79.985	19.993	100.021	19.890	5.068	0.519
749.000	461.904	79.985	19.993	100.022	19.892	4.899	0.533
749.500	462.142	79.984	19.991	100.023	19.892	4.895	0.519
750.000	462.439	79.986	19.993	100.026	19.890	5.085	0.518
750.500	462.658	79.986	19.992	100.025	19.895	4.720	0.525
751.000	462.911	79.986	19.992	100.026	19.891	4.965	0.494
751.500	463.208	79.987	19.991	100.022	19.894	4.776	0.511
752.000	463.405	79.985	19.990	100.023	19.895	4.698	0.522
752.500	463.681	79.986	19.992	100.019	19.893	4.812	0.483
753.000	463.928	79.985	19.992	100.017	19.892	4.886	0.498
753.500	464.168	79.985	19.992	100.016	19.897	4.551	0.505
754.000	464.455	79.986	19.993	100.017	19.892	4.897	0.507
754.500	464.700	79.985	19.992	100.017	19.897	4.530	0.530
755.000	464.934	79.984	19.992	100.021	19.896	4.617	0.506
755.500	465.233	79.986	19.991	100.023	19.895	4.705	0.506
756.000	465.435	79.985	19.991	100.025	19.896	4.632	0.517
756.500	465.701	79.984	19.992	100.026	19.895	4.695	0.485
757.000	465.997	79.984	19.991	100.026	19.895	4.695	0.515
757.500	466.263	79.986	19.992	100.026	19.895	4.675	0.562
758.000	466.530	79.984	19.991	100.023	19.896	4.609	0.548
758.500	466.737	79.985	19.991	100.023	19.900	4.319	0.504
759.000	467.043	79.985	19.993	100.024	19.898	4.464	0.493
759.500	467.251	79.984	19.992	100.024	19.896	4.639	0.513
760.000	467.493	79.985	19.991	100.021	19.897	4.536	0.482
760.500	467.780	79.984	19.990	100.020	19.902	4.242	0.489
761.000	467.979	79.984	19.992	100.020	19.898	4.485	0.508
761.500	468.225	79.985	19.991	100.020	19.897	4.530	0.466
762.000	468.520	79.985	19.991	100.020	19.900	4.368	0.493
762.500	468.794	79.984	19.993	100.023	19.897	4.538	0.555
763.000	469.043	79.986	19.992	100.025	19.900	4.323	0.546
763.500	469.322	79.985	19.992	100.026	19.900	4.321	0.526
764.000	469.558	79.985	19.993	100.024	19.897	4.571	0.521
764.500	469.840	79.985	19.992	100.023	19.900	4.365	0.516
765.000	470.047	79.985	19.991	100.023	19.901	4.274	0.504
765.500	470.328	79.985	19.992	100.024	19.900	4.321	0.489
766.000	470.559	79.984	19.991	100.022	19.903	4.169	0.500
766.500	470.837	79.986	19.991	100.022	19.902	4.184	0.510
767.000	471.089	79.985	19.992	100.021	19.907	3.873	0.519
767.500	471.317	79.985	19.993	100.020	19.902	4.223	0.505
768.000	471.574	79.986	19.991	100.016	19.901	4.257	0.483
768.501	471.842	79.986	19.991	100.016	19.905	3.990	0.505
769.000	472.113	79.985	19.992	100.017	19.902	4.208	0.532
769.500	472.344	79.987	19.993	100.018	19.904	4.080	0.520
770.000	472.620	79.985	19.990	100.018	19.901	4.270	0.504
770.500	472.848	79.987	19.991	100.023	19.903	4.124	0.505
771.000	473.131	79.986	19.992	100.021	19.900	4.319	0.507
771.500	473.382	79.985	19.991	100.023	19.901	4.299	0.523
772.000	473.641	79.986	19.991	100.022	19.903	4.116	0.522
772.500	473.908	79.986	19.992	100.023	19.903	4.139	0.519
773.000	474.162	79.986	19.991	100.020	19.905	3.988	0.524
773.500	474.429	79.987	19.991	100.022	19.902	4.235	0.521
774.000	474.657	79.987	19.991	100.021	19.906	3.926	0.508
774.500	474.943	79.986	19.992	100.023	19.902	4.235	0.505
775.000	475.159	79.986	19.993	100.023	19.904	4.054	0.508
775.500	475.424	79.987	19.991	100.024	19.902	4.204	0.492
776.000	475.663	79.986	19.992	100.022	19.909	3.751	0.492
776.500	475.906	79.984	19.991	100.021	19.909	3.725	0.493
777.000	476.154	79.986	19.992	100.018	19.907	3.856	0.486
777.500	476.447	79.984	19.991	100.016	19.909	3.760	0.516
778.000	476.677	79.984	19.990	100.017	19.912	3.505	0.532
778.500	476.957	79.984	19.992	100.021	19.906	3.922	0.516
779.000	477.186	79.983	19.992	100.022	19.909	3.706	0.510
779.500	477.435	79.985	19.991	100.024	19.911	3.605	0.493
780.000	477.693	79.985	19.992	100.025	19.907	3.900	0.492
780.500	477.973	79.984	19.992	100.021	19.909	3.723	0.523
781.001	478.202	79.984	19.991	100.021	19.908	3.827	0.524
781.501	478.485	79.985	19.992	100.022	19.912	3.544	0.511
782.000	478.711	79.983	19.992	100.022	19.909	3.704	0.510
782.500	478.982	79.986	19.992	100.023	19.909	3.738	0.503
783.000	479.266	79.983	19.991	100.026	19.910	3.655	0.526
783.500	479.513	79.984	19.993	100.027	19.908	3.787	0.543
784.000	479.744	79.985	19.992	100.028	19.909	3.708	0.505
784.500	480.004	79.983	19.992	100.029	19.907	3.890	0.485
785.000	480.251	79.982	19.991	100.030	19.911	3.582	0.499
785.500	480.514	79.983	19.993	100.029	19.909	3.731	0.509
786.000	480.797	79.983	19.992	100.025	19.909	3.734	0.528
786.500	481.020	79.983	19.992	100.020	19.910	3.689	0.526
787.000	481.278	79.983	19.991	100.016	19.912	3.535	0.494
787.500	481.550	79.983	19.992	100.013	19.911	3.578	0.505
788.000	481.811	79.984	19.991	100.015	19.912	3.544	0.532
788.500	482.067	79.983	19.991	100.019	19.915	3.313	0.525
789.000	482.344	79.983	19.990	100.022	19.916	3.232	0.525
789.500	482.558	79.983	19.990	100.025	19.912	3.535	0.512
790.000	482.854	79.983	19.991	100.027	19.908	3.821	0.500
790.500	483.084	79.983	19.991	100.027	19.909	3.710	0.518
791.000	483.350	79.982	19.990	100.025	19.910	3.627	0.511
791.500	483.584	79.983	19.991	100.024	19.912	3.527	0.498
792.000	483.839	79.983	19.991	100.024	19.913	3.424	0.495
792.500	484.129	79.983	19.992	100.022	19.910	3.629	0.517
793.000	484.345	79.983	19.992	100.023	19.909	3.710	0.526
793.500	484.642	79.983	19.992	100.025	19.912	3.550	0.510
794.000	484.871	79.984	19.992	100.024	19.910	3.634	0.519
794.500	485.151	79.983	19.991	100.024	19.912	3.499	0.518
795.000	485.402	79.984	19.991	100.024	19.914	3.392	0.520
795.500	485.674	79.984	19.992	100.024	19.911	3.608	0.527
796.000	485.942	79.983	19.992	100.021	19.911	3.569	0.531
796.500	486.195	79.983	19.993	100.023	19.913	3.478	0.530
797.000	486.472	79.984	19.992	100.025	19.915	3.294	0.525
797.500	486.710	79.984	19.991	100.024	19.911	3.569	0.523
798.000	486.945	79.983	19.992	100.024	19.911	3.557	0.494
798.500	487.185	79.984	19.992	100.026	19.913	3.431	0.474
799.000	487.434	79.983	19.992	100.026	19.913	3.478	0.482
799.500	487.724	79.984	19.992	100.025	19.913	3.446	0.515
800.000	487.968	79.983	19.992	100.027	19.915	3.320	0.537
800.500	488.215	79.984	19.993	100.025	19.911	3.574	0.512
801.000	488.477	79.984	19.991	100.025	19.913	3.461	0.500
801.500	488.712	79.985	19.993	100.024	19.912	3.514	0.503
802.000	489.007	79.982	19.991	100.025	19.913	3.444	0.513
802.500	489.251	79.983	19.992	100.025	19.915	3.319	0.535
803.000	489.485	79.983	19.993	100.028	19.917	3.144	0.509
803.500	489.768	79.983	19.994	100.021	19.914	3.409	0.498
804.000	489.977	79.983	19.993	100.021	19.914	3.381	0.505
804.501	490.243	79.983	19.992	100.020	19.913	3.471	0.483
805.001	490.494	79.984	19.993	100.020	19.915	3.287	0.496
805.500	490.752	79.983	19.993	100.019	19.914	3.368	0.513
806.000	491.006	79.985	19.994	100.023	19.914	3.403	0.510
806.500	491.234	79.983	19.992	100.020	19.917	3.149	0.497
807.000	491.543	79.982	19.991	100.020	19.912	3.548	0.510
807.500	491.761	79.984	19.992	100.020	19.913	3.443	0.532
808.000	491.981	79.982	19.992	100.021	19.919	3.003	0.483
808.500	492.281	79.983	19.992	100.020	19.917	3.185	0.479
809.000	492.539	79.983	19.991	100.018	19.920	2.982	0.539
809.500	492.803	79.983	19.992	100.015	19.920	2.978	0.540
810.000	493.084	79.983	19.992	100.012	19.917	3.164	0.533
810.500	493.344	79.982	19.992	100.005	19.921	2.892	0.543
811.000	493.569	79.984	19.992	100.003	19.919	3.001	0.513
811.500	493.818	79.982	19.992	100.008	19.920	2.963	0.479
812.000	494.108	79.983	19.994	100.009	19.919	3.033	0.506
812.500	494.378	79.983	19.993	100.013	19.916	3.228	0.549
813.000	494.646	79.982	19.993	100.020	19.921	2.869	0.549
813.500	494.866	79.981	19.993	100.026	19.922	2.835	0.513
814.000	495.143	79.982	19.991	100.026	19.917	3.155	0.492
814.500	495.406	79.984	19.992	100.028	19.914	3.358	0.518
815.000	495.615	79.982	19.994	100.027	19.912	3.482	0.507
815.500	495.847	79.983	19.992	100.026	19.916	3.260	0.457
816.000	496.147	79.983	19.992	100.024	19.917	3.166	0.486
816.500	496.409	79.983	19.993	100.025	19.923	2.777	0.547
817.000	496.670	79.983	19.993	100.022	19.917	3.140	0.543
817.500	496.917	79.984	19.992	100.023	19.918	3.130	0.516
818.000	497.187	79.983	19.992	100.024	19.920	2.963	0.512
818.500	497.431	79.984	19.993	100.025	19.922	2.792	0.515
819.000	497.728	79.983	19.993	100.025	19.921	2.904	0.528
819.500	497.960	79.984	19.993	100.028	19.918	3.119	0.535
820.000	498.219	79.983	19.993	100.026	19.921	2.908	0.510
820.500	498.467	79.984	19.993	100.024	19.919	2.995	0.499
821.000	498.722	79.984	19.993	100.024	19.919	3.025	0.505
821.500	498.977	79.984	19.992	100.024	19.920	2.977	0.507
822.000	499.268	79.984	19.993	100.020	19.924	2.694	0.528
822.500	499.478	79.984	19.993	100.020	19.916	3.254	0.523
823.000	499.750	79.984	19.992	100.022	19.919	3.025	0.492
823.500	500.020	79.984	19.993	100.022	19.916	3.258	0.512
824.000	500.285	79.985	19.992	100.020	19.916	3.215	0.539
824.500	500.553	79.985	19.993	100.021	19.919	3.045	0.534
825.000	500.825	79.984	19.992	100.022	19.923	2.741	0.536
825.500	501.032	79.984	19.992	100.021	19.920	2.935	0.509
826.000	501.292	79.986	19.993	100.021	19.918	3.074	0.473
826.500	501.539	79.985	19.992	100.022	19.920	2.946	0.487
827.000	501.816	79.985	19.993	100.021	19.920	2.949	0.515
827.500	502.069	79.985	19.993	100.020	19.916	3.262	0.527
828.000	502.287	79.985	19.993	100.019	19.923	2.761	0.501
828.500	502.565	79.984	19.993	100.014	19.920	2.955	0.484
829.000	502.826	79.985	19.992	100.010	19.925	2.604	0.517
829.500	503.039	79.985	19.993	100.013	19.921	2.867	0.506
830.000	503.334	79.984	19.993	100.014	19.921	2.856	0.491
830.500	503.580	79.984	19.992	100.014	19.920	2.944	0.525
831.000	503.806	79.985	19.993	100.020	19.919	3.023	0.507
831.500	504.089	79.983	19.991	100.022	19.922	2.827	0.490
832.000	504.345	79.986	19.992	100.020	19.925	2.622	0.524
832.500	504.615	79.984	19.993	99.987	19.926	2.511	0.533
833.000	504.833	79.985	19.992	99.964	19.921	2.855	0.507
833.500	505.101	79.984	19.993	99.954	19.921	2.901	0.487
834.000	505.328	79.983	19.993	99.952	19.921	2.921	0.490
834.500	505.638	79.984	19.992	99.957	19.922	2.799	0.516
835.000	505.880	79.984	19.992	100.023	19.923	2.739	0.544
835.500	506.180	79.984	19.992	100.065	19.922	2.810	0.547
836.000	506.410	79.986	19.993	100.077	19.923	2.777	0.537
836.500	506.629	79.984	19.993	100.079	19.927	2.485	0.490
837.000	506.909	79.983	19.992	100.072	19.925	2.622	0.474
837.500	507.138	79.983	19.992	100.035	19.924	2.705	0.504
838.000	507.435	79.984	19.992	100.011	19.923	2.722	0.518
838.500	507.696	79.983	19.992	100.006	19.924	2.713	0.542
839.000	507.903	79.985	19.992	100.007	19.920	2.937	0.512
839.500	508.181	79.983	19.991	100.014	19.924	2.677	0.476
840.000	508.459	79.984	19.993	100.019	19.923	2.777	0.521
840.500	508.705	79.984	19.992	100.025	19.928	2.400	0.540
841.000	508.980	79.984	19.992	100.026	19.926	2.553	0.522
841.500	509.206	79.983	19.991	100.023	19.925	2.632	0.511
842.000	509.453	79.982	19.992	100.018	19.921	2.865	0.487
842.500	509.731	79.984	19.991	100.016	19.926	2.522	0.499
843.000	509.977	79.984	19.992	100.014	19.925	2.605	0.524
843.500	510.221	79.983	19.992	100.013	19.921	2.859	0.507
844.000	510.486	79.984	19.990	100.014	19.925	2.628	0.500
844.500	510.725	79.984	19.992	100.015	19.922	2.852	0.507
845.000	510.992	79.983	19.991	100.018	19.921	2.910	0.505
845.500	511.218	79.985	19.991	100.017	19.923	2.731	0.499
846.000	511.497	79.985	19.992	100.016	19.923	2.726	0.499
846.500	511.759	79.985	19.992	100.018	19.925	2.611	0.523
847.000	511.993	79.985	19.992	100.019	19.926	2.566	0.518
847.500	512.265	79.985	19.991	100.017	19.925	2.602	0.501
848.000	512.489	79.984	19.992	100.018	19.925	2.626	0.501
848.500	512.755	79.983	19.990	100.022	19.922	2.825	0.493
849.000	512.992	79.984	19.991	100.023	19.925	2.592	0.496
849.500	513.233	79.985	19.992	100.024	19.925	2.624	0.490
850.000	513.543	79.983	19.992	100.024	19.929	2.361	0.515
850.500	513.781	79.985	19.991	100.027	19.925	2.630	0.550
851.000	514.065	79.985	19.992	100.027	19.928	2.368	0.535
851.500	514.282	79.984	19.991	100.021	19.926	2.551	0.511
852.000	514.562	79.984	19.991	100.017	19.925	2.607	0.499
852.500	514.863	79.983	19.991	100.017	19.923	2.773	0.539
853.000	515.076	79.984	19.990	100.011	19.921	2.914	0.547
853.500	515.329	79.984	19.992	100.010	19.923	2.739	0.490
854.000	515.623	79.987	19.991	100.012	19.923	2.759	0.507
854.500	515.845	79.985	19.990	100.014	19.924	2.650	0.532
855.000	516.112	79.984	19.991	100.016	19.928	2.378	0.502
855.500	516.353	79.985	19.991	100.019	19.922	2.792	0.499
856.000	516.625	79.984	19.991	100.015	19.927	2.474	0.511
856.500	516.874	79.984	19.992	100.015	19.926	2.564	0.517
857.000	517.140	79.983	19.991	100.017	19.926	2.528	0.518
857.500	517.406	79.985	19.991	100.016	19.923	2.722	0.523
858.000	517.665	79.984	19.991	100.016	19.926	2.526	0.529
858.500	517.908	79.984	19.992	100.015	19.921	2.906	0.513
859.000	518.126	79.983	19.991	100.016	19.924	2.677	0.481
859.500	518.396	79.983	19.992	100.016	19.928	2.427	0.474
860.000	518.669	79.982	19.991	100.017	19.925	2.583	0.516
860.500	518.899	79.983	19.992	100.016	19.928	2.372	0.524
861.000	519.186	79.982	19.992	100.020	19.925	2.592	0.510
861.500	519.384	79.983	19.991	100.015	19.927	2.493	0.501
862.000	519.684	79.982	19.991	100.011	19.930	2.291	0.491
862.500	519.951	79.982	19.991	100.010	19.930	2.252	0.533
863.000	520.198	79.983	19.992	100.012	19.928	2.370	0.541
863.500	520.439	79.982	19.991	100.009	19.929	2.318	0.501
864.000	520.726	79.983	19.993	100.009	19.934	1.953	0.507
864.500	520.981	79.982	19.992	100.010	19.929	2.338	0.535
865.000	521.242	79.984	19.992	100.008	19.928	2.366	0.529
865.500	521.494	79.981	19.991	100.006	19.928	2.413	0.515
866.000	521.750	79.982	19.992	100.009	19.927	2.481	0.510
866.500	521.966	79.982	19.991	100.015	19.931	2.208	0.490
867.000	522.256	79.984	19.993	100.016	19.927	2.485	0.490
867.500	522.496	79.982	19.991	100.019	19.927	2.451	0.518
868.000	522.778	79.982	19.991	100.021	19.925	2.611	0.526
868.501	523.057	79.985	19.991	100.018	19.927	2.477	0.541
869.000	523.299	79.982	19.992	100.017	19.928	2.410	0.541
869.500	523.549	79.982	19.992	100.018	19.934	1.966	0.507
870.000	523.784	79.983	19.992	100.016	19.928	2.376	0.489
870.500	524.052	79.982	19.992	100.014	19.929	2.319	0.494
871.000	524.291	79.982	19.992	100.015	19.919	2.993	0.504
871.500	524.578	79.983	19.992	100.015	19.924	2.647	0.516
872.000	524.805	79.984	19.992	100.015	19.927	2.500	0.520
872.500	525.048	79.985	19.992	100.018	19.927	2.444	0.492
873.000	525.296	79.982	19.991	100.019	19.928	2.387	0.480
873.500	525.580	79.985	19.992	100.020	19.925	2.605	0.511
874.001	525.825	79.984	19.992	100.019	19.930	2.272	0.531
874.500	526.042	79.982	19.991	100.018	19.934	2.007	0.496
875.000	526.322	79.984	19.992	100.017	19.929	2.310	0.480
875.500	526.583	79.984	19.991	100.013	19.928	2.410	0.519
876.000	526.856	79.984	19.991	100.007	19.930	2.235	0.537
876.500	527.123	79.984	19.991	100.007	19.929	2.308	0.537
877.000	527.401	79.984	19.991	100.004	19.930	2.287	0.542
877.500	527.650	79.982	19.992	100.003	19.926	2.522	0.536
878.000	527.910	79.982	19.991	100.005	19.936	1.826	0.518
878.500	528.130	79.984	19.992	100.010	19.930	2.287	0.495
879.000	528.393	79.983	19.991	100.012	19.934	1.985	0.482
879.500	528.653	79.983	19.991	100.011	19.928	2.380	0.503
880.000	528.893	79.982	19.991	100.010	19.925	2.603	0.511
880.500	529.189	79.983	19.991	100.007	19.933	2.069	0.518
881.000	529.396	79.982	19.992	100.003	19.928	2.410	0.520
881.500	529.669	79.984	19.992	100.002	19.931	2.167	0.491
882.000	529.935	79.982	19.991	100.008	19.929	2.323	0.509
882.500	530.158	79.983	19.992	100.012	19.930	2.286	0.514
883.000	530.430	79.982	19.992	100.014	19.926	2.545	0.493
883.500	530.650	79.984	19.992	100.016	19.934	1.949	0.494
884.000	530.943	79.983	19.991	100.017	19.925	2.596	0.502
884.500	531.173	79.983	19.992	100.018	19.930	2.238	0.518
885.000	531.464	79.982	19.991	100.020	19.928	2.426	0.522
885.500	531.675	79.983	19.992	100.023	19.927	2.479	0.511
886.000	531.923	79.983	19.992	100.026	19.932	2.139	0.480
886.500	532.217	79.983	19.993	100.023	19.934	1.986	0.500
887.000	532.456	79.984	19.993	100.018	19.928	2.395	0.538
887.500	532.709	79.985	19.992	100.010	19.931	2.175	0.513
888.000	532.957	79.983	19.993	100.005	19.933	2.030	0.497
888.500	533.232	79.985	19.993	100.006	19.936	1.810	0.512
889.000	533.502	79.983	19.993	100.009	19.934	1.994	0.534
889.500	533.766	79.983	19.992	100.014	19.927	2.498	0.540
890.000	534.050	79.983	19.993	100.017	19.934	1.998	0.541
890.500	534.277	79.981	19.993	100.019	19.933	2.075	0.529
891.000	534.557	79.983	19.993	100.017	19.934	2.009	0.509
891.500	534.818	79.982	19.993	100.014	19.937	1.785	0.524
892.000	535.077	79.982	19.991	100.014	19.933	2.052	0.531
892.500	535.320	79.982	19.993	100.016	19.929	2.332	0.511
893.000	535.592	79.983	19.992	100.013	19.935	1.900	0.508
893.500	535.840	79.981	19.992	100.015	19.935	1.921	0.517
894.000	536.093	79.982	19.991	100.017	19.932	2.120	0.511
894.500	536.324	79.983	19.994	100.016	19.935	1.913	0.492
895.000	536.606	79.981	19.991	100.012	19.928	2.402	0.499
895.500	536.868	79.982	19.993	100.012	19.930	2.228	0.529
896.000	537.101	79.980	19.991	100.010	19.939	1.652	0.519
896.500	537.345	79.983	19.992	100.008	19.928	2.365	0.486
897.000	537.589	79.983	19.992	100.010	19.930	2.229	0.483
897.500	537.859	79.983	19.993	100.014	19.927	2.466	0.501
898.000	538.133	79.983	19.992	100.021	19.931	2.165	0.529
898.500	538.441	79.982	19.992	100.023	19.934	1.994	0.563
899.000	538.637	79.983	19.992	100.025	19.931	2.208	0.543
899.500	538.908	79.984	19.993	100.025	19.930	2.239	0.485
900.000	539.146	79.983	19.993	100.027	19.928	2.421	0.488
900.500	539.442	79.983	19.991	100.026	19.929	2.333	0.522
901.000	539.660	79.983	19.992	100.023	19.929	2.337	0.524
901.500	539.934	79.984	19.992	100.017	19.932	2.124	0.503
902.000	540.196	79.982	19.991	100.012	19.925	2.577	0.514
902.500	540.487	79.983	19.991	100.008	19.929	2.353	0.545
903.000	540.702	79.984	19.992	100.007	19.929	2.323	0.529
903.500	540.962	79.985	19.992	100.011	19.930	2.289	0.490
904.000	541.215	79.984	19.992	100.015	19.930	2.293	0.494
904.500	541.479	79.984	19.992	100.020	19.930	2.250	0.515
905.000	541.727	79.984	19.992	100.025	19.932	2.088	0.515
905.500	541.988	79.985	19.993	100.026	19.928	2.402	0.511
906.000	542.269	79.984	19.991	100.026	19.927	2.491	0.525
906.500	542.523	79.983	19.992	100.029	19.931	2.162	0.539
907.000	542.750	79.985	19.993	100.029	19.929	2.323	0.508
907.500	542.992	79.985	19.994	100.028	19.929	2.295	0.475
908.000	543.268	79.985	19.992	100.027	19.931	2.160	0.493
908.500	543.496	79.984	19.993	100.023	19.923	2.779	0.511
909.000	543.767	79.984	19.993	100.020	19.926	2.568	0.501
909.500	543.979	79.986	19.993	100.019	19.924	2.677	0.491
910.000	544.298	79.985	19.992	100.017	19.927	2.442	0.507
910.500	544.511	79.984	19.992	100.020	19.925	2.600	0.532
911.000	544.778	79.985	19.993	100.022	19.923	2.720	0.506
911.500	545.050	79.983	19.992	100.025	19.930	2.276	0.510
912.000	545.278	79.985	19.992	100.024	19.932	2.103	0.519
912.500	545.569	79.984	19.993	100.025	19.924	2.673	0.510
913.000	545.821	79.984	19.992	100.024	19.927	2.498	0.531
913.500	546.041	79.983	19.993	100.023	19.927	2.498	0.508
914.000	546.287	79.983	19.993	100.020	19.927	2.481	0.469
914.500	546.613	79.982	19.991	100.018	19.925	2.624	0.519
915.000	546.813	79.982	19.993	100.018	19.926	2.545	0.549
915.500	547.088	79.984	19.993	100.017	19.928	2.367	0.501
916.000	547.333	79.982	19.993	100.018	19.930	2.261	0.498
916.500	547.560	79.982	19.993	100.021	19.935	1.926	0.496
917.000	547.824	79.984	19.993	100.022	19.927	2.447	0.482
917.500	548.074	79.983	19.993	100.022	19.929	2.321	0.502
918.000	548.369	79.982	19.993	100.022	19.932	2.117	0.529
918.500	548.593	79.981	19.992	100.022	19.926	2.517	0.532
919.000	548.863	79.982	19.993	100.023	19.925	2.592	0.507
919.500	549.121	79.982	19.993	100.022	19.927	2.493	0.511
920.000	549.362	79.982	19.992	100.023	19.926	2.542	0.514
920.500	549.616	79.982	19.993	100.025	19.926	2.552	0.497
921.000	549.858	79.982	19.992	100.025	19.926	2.535	0.495
921.500	550.147	79.982	19.992	100.024	19.930	2.282	0.514
922.000	550.396	79.984	19.993	100.026	19.926	2.575	0.534
922.500	550.669	79.982	19.991	100.025	19.927	2.485	0.530
923.000	550.901	79.981	19.991	100.024	19.930	2.238	0.513
923.500	551.165	79.984	19.992	100.024	19.922	2.786	0.500
924.000	551.404	79.984	19.992	100.025	19.925	2.586	0.500
924.500	551.659	79.983	19.992	100.025	19.928	2.368	0.499
925.000	551.938	79.984	19.992	100.027	19.927	2.496	0.514
925.500	552.147	79.986	19.993	100.025	19.928	2.421	0.511
926.000	552.412	79.986	19.993	100.022	19.922	2.819	0.480
926.500	552.659	79.985	19.992	100.019	19.924	2.673	0.493
927.000	552.938	79.984	19.992	100.019	19.922	2.848	0.519
927.500	553.171	79.985	19.992	100.017	19.923	2.718	0.518
928.000	553.455	79.987	19.991	100.018	19.926	2.556	0.514
928.500	553.715	79.986	19.992	99.995	19.923	2.740	0.531
929.000	553.973	79.987	19.992	99.967	19.927	2.470	0.531
929.500	554.209	79.986	19.992	99.949	19.920	2.931	0.506
930.000	554.487	79.985	19.992	99.941	19.925	2.619	0.504
930.500	554.761	79.985	19.991	99.942	19.926	2.566	0.533
931.000	555.042	79.985	19.991	99.968	19.929	2.320	0.554
931.500	555.260	79.987	19.993	100.007	19.930	2.274	0.527
932.000	555.541	79.985	19.991	100.066	19.928	2.400	0.499
932.500	555.779	79.985	19.991	100.086	19.929	2.295	0.509
933.000	556.051	79.985	19.991	100.086	19.922	2.842	0.515
933.500	556.297	79.987	19.991	100.086	19.927	2.462	0.514
934.000	556.561	79.986	19.991	100.072	19.926	2.517	0.514
934.500	556.807	79.986	19.991	100.029	19.928	2.396	0.510
935.000	557.056	79.985	19.991	100.014	19.930	2.267	0.502
935.500	557.340	79.984	19.991	100.012	19.933	2.077	0.514
936.000	557.564	79.986	19.992	100.005	19.928	2.406	0.520
936.500	557.854	79.985	19.990	100.004	19.927	2.479	0.511
937.000	558.093	79.985	19.992	100.002	19.923	2.778	0.522
937.500	558.356	79.985	19.992	100.001	19.927	2.494	0.516
938.000	558.597	79.984	19.991	99.998	19.925	2.586	0.503
938.500	558.860	79.984	19.991	100.000	19.929	2.302	0.504
939.000	559.131	79.985	19.992	100.002	19.928	2.389	0.519
939.500	559.380	79.984	19.990	100.004	19.927	2.472	0.527
940.000	559.624	79.985	19.992	100.007	19.927	2.440	0.507
940.500	559.814	79.984	19.992	100.011	19.925	2.643	0.464
941.000	560.091	79.984	19.991	100.016	19.931	2.158	0.450
941.500	560.357	79.982	19.992	100.020	19.926	2.524	0.505
942.000	560.590	79.983	19.992	100.023	19.927	2.434	0.521
942.500	560.903	79.984	19.992	100.018	19.927	2.453	0.523
943.000	561.158	79.982	19.992	100.012	19.924	2.656	0.558
943.500	561.401	79.985	19.992	100.009	19.922	2.784	0.533
944.000	561.674	79.984	19.993	100.004	19.929	2.327	0.507
944.500	561.919	79.983	19.992	100.004	19.927	2.483	0.517
945.000	562.219	79.983	19.991	100.009	19.923	2.773	0.532
945.500	562.444	79.984	19.993	100.010	19.926	2.555	0.535
946.001	562.731	79.984	19.991	100.009	19.929	2.316	0.518
946.500	563.003	79.986	19.993	100.013	19.934	1.998	0.535
947.000	563.219	79.983	19.991	100.011	19.934	1.960	0.524
947.500	563.472	79.985	19.991	100.006	19.928	2.380	0.479
948.000	563.747	79.983	19.993	100.005	19.933	2.030	0.499
948.500	563.986	79.983	19.993	100.006	19.929	2.323	0.521
949.000	564.247	79.983	19.992	100.008	19.928	2.410	0.507
949.500	564.480	79.984	19.992	100.010	19.932	2.122	0.498
950.000	564.762	79.982	19.991	100.015	19.929	2.310	0.505
950.500	565.021	79.983	19.992	100.022	19.929	2.314	0.527
951.000	565.277	79.983	19.991	100.025	19.935	1.913	0.528
951.500	565.544	79.983	19.991	100.022	19.930	2.278	0.519
952.000	565.776	79.984	19.990	100.017	19.932	2.092	0.512
952.500	566.092	79.983	19.993	100.016	19.933	2.041	0.523
953.000	566.288	79.983	19.993	100.016	19.931	2.190	0.529
953.500	566.552	79.985	19.992	100.017	19.934	1.985	0.486
954.000	566.821	79.984	19.992	100.019	19.928	2.416	0.497
954.500	567.046	79.983	19.993	100.021	19.931	2.192	0.513
955.000	567.317	79.983	19.993	100.018	19.929	2.306	0.495
955.500	567.579	79.985	19.991	100.016	19.927	2.496	0.515
956.000	567.855	79.985	19.992	100.015	19.932	2.116	0.535
956.500	568.107	79.986	19.993	100.015	19.930	2.252	0.533
957.000	568.354	79.984	19.992	100.016	19.930	2.240	0.514
957.500	568.623	79.983	19.991	100.020	19.929	2.329	0.508
958.000	568.881	79.984	19.992	100.023	19.930	2.225	0.521
958.500	569.165	79.983	19.992	100.023	19.930	2.231	0.534
959.000	569.404	79.985	19.991	100.025	19.936	1.843	0.532
959.500	569.652	79.984	19.992	100.026	19.928	2.396	0.505
960.000	569.969	79.985	19.992	100.024	19.934	1.979	0.526
960.500	570.191	79.985	19.992	100.021	19.927	2.500	0.552
961.000	570.502	79.984	19.992	100.021	19.924	2.664	0.536
961.500	570.745	79.981	19.992	100.021	19.926	2.519	0.544
962.000	570.999	79.982	19.991	100.017	19.934	1.967	0.526
962.501	571.275	79.984	19.991	100.016	19.929	2.336	0.514
963.000	571.521	79.984	19.990	100.019	19.928	2.404	0.526
963.500	571.745	79.983	19.991	100.018	19.927	2.488	0.496
964.000	572.007	79.985	19.991	100.017	19.935	1.909	0.478
964.500	572.252	79.983	19.991	100.020	19.926	2.511	0.496
965.000	572.543	79.984	19.992	100.023	19.930	2.251	0.521
965.500	572.789	79.985	19.992	100.021	19.924	2.682	0.536
966.000	573.082	79.985	19.993	100.020	19.928	2.415	0.538
966.500	573.347	79.985	19.993	100.018	19.932	2.152	0.549
967.000	573.613	79.984	19.992	100.017	19.927	2.462	0.544
967.500	573.855	79.985	19.992	100.012	19.929	2.296	0.519
968.000	574.154	79.983	19.990	100.011	19.928	2.364	0.524
968.500	574.390	79.982	19.992	100.009	19.931	2.180	0.538
969.000	574.658	79.984	19.993	100.007	19.927	2.436	0.519
969.500	574.933	79.983	19.991	100.006	19.925	2.607	0.524
970.000	575.176	79.983	19.992	100.008	19.931	2.178	0.531
970.500	575.429	79.982	19.992	100.009	19.933	2.039	0.507
971.000	575.675	79.982	19.992	100.012	19.932	2.101	0.498
971.500	575.903	79.983	19.992	100.014	19.936	1.838	0.487
972.000	576.217	79.983	19.992	100.015	19.929	2.295	0.508
972.500	576.445	79.981	19.992	100.011	19.932	2.092	0.541
973.000	576.695	79.983	19.992	100.008	19.932	2.116	0.510
973.500	576.967	79.983	19.991	100.008	19.933	2.048	0.501
974.000	577.204	79.982	19.992	100.006	19.931	2.195	0.516
974.500	577.476	79.982	19.992	100.005	19.928	2.404	0.509
975.000	577.706	79.981	19.992	100.006	19.929	2.323	0.505
975.500	577.985	79.982	19.992	100.005	19.930	2.240	0.505
976.000	578.277	79.983	19.993	99.999	19.934	1.985	0.540
976.500	578.499	79.984	19.993	99.997	19.930	2.280	0.543
977.000	578.754	79.982	19.992	99.997	19.931	2.167	0.496
977.500	579.004	79.981	19.992	99.998	19.930	2.269	0.491
978.000	579.244	79.984	19.993	99.998	19.931	2.224	0.497
978.500	579.471	79.984	19.993	100.001	19.931	2.173	0.478
979.000	579.722	79.982	19.991	100.001	19.931	2.188	0.473
979.500	580.019	79.982	19.990	100.001	19.929	2.355	0.513
980.000	580.269	79.984	19.992	100.003	19.933	2.031	0.548
980.500	580.525	79.983	19.992	100.007	19.931	2.165	0.527
981.000	580.785	79.984	19.992	100.009	19.928	2.428	0.511
981.500	581.061	79.985	19.991	100.012	19.933	2.060	0.526
982.000	581.302	79.982	19.993	100.015	19.931	2.158	0.527
982.500	581.588	79.983	19.992	100.015	19.929	2.363	0.522
983.000	581.826	79.984	19.991	100.012	19.933	2.050	0.525
983.500	582.091	79.983	19.991	100.007	19.934	1.951	0.514
984.000	582.319	79.986	19.993	100.005	19.929	2.306	0.498
984.500	582.608	79.984	19.991	100.000	19.931	2.167	0.504
985.000	582.876	79.983	19.992	100.000	19.924	2.654	0.537
985.500	583.109	79.986	19.992	100.000	19.930	2.270	0.529
986.000	583.400	79.985	19.992	100.007	19.928	2.376	0.513
986.500	583.673	79.985	19.991	100.013	19.932	2.131	0.545
987.000	583.913	79.985	19.991	100.019	19.930	2.244	0.539
987.500	584.167	79.985	19.991	100.022	19.926	2.564	0.503
988.000	584.451	79.985	19.991	100.028	19.930	2.254	0.516
988.500	584.667	79.986	19.992	100.028	19.933	2.064	0.519
989.000	584.904	79.985	19.992	100.026	19.930	2.278	0.476
989.500	585.158	79.985	19.992	100.021	19.931	2.173	0.472
990.000	585.417	79.984	19.992	100.013	19.925	2.611	0.502
990.500	585.671	79.984	19.992	100.006	19.932	2.086	0.513
991.000	585.959	79.986	19.992	99.998	19.930	2.280	0.527
991.500	586.198	79.984	19.992	99.996	19.923	2.731	0.534
992.000	586.436	79.985	19.992	100.002	19.934	1.958	0.502
992.500	586.678	79.986	19.992	100.009	19.934	1.999	0.479
993.000	586.938	79.985	19.993	100.012	19.929	2.310	0.491
993.500	587.206	79.985	19.992	100.017	19.929	2.306	0.515
994.000	587.457	79.984	19.992	100.016	19.933	2.075	0.523
994.500	587.707	79.984	19.992	100.016	19.926	2.513	0.510
995.000	587.972	79.983	19.992	100.016	19.930	2.229	0.508
995.500	588.193	79.984	19.992	100.019	19.930	2.263	0.501
996.000	588.492	79.985	19.992	100.015	19.932	2.135	0.503
996.500	588.771	79.984	19.993	100.013	19.928	2.378	0.549
997.000	589.019	79.983	19.993	100.008	19.933	2.016	0.552
997.500	589.282	79.984	19.992	100.003	19.929	2.327	0.519
998.000	589.516	79.986	19.993	100.004	19.922	2.804	0.504
998.500	589.813	79.985	19.993	100.009	19.929	2.362	0.514
999.000	590.019	79.983	19.992	100.014	19.929	2.297	0.517
999.500	590.283	79.984	19.992	100.018	19.917	3.177	0.486
1000.000	590.556	79.983	19.992	100.023	19.929	2.319	0.504
1000.500	590.789	79.982	19.992	100.021	19.928	2.415	0.522
1001.000	591.072	79.982	19.993	100.020	19.927	2.468	0.511
1001.500	591.317	79.983	19.992	100.020	19.930	2.255	0.522
1002.000	591.593	79.984	19.994	100.017	19.927	2.496	0.524
1002.500	591.842	79.984	19.994	100.016	19.926	2.540	0.523
1003.000	592.118	79.984	19.993	100.014	19.932	2.146	0.525
1003.500	592.347	79.981	19.993	100.008	19.928	2.395	0.515
1004.000	592.582	79.984	19.994	100.004	19.930	2.252	0.484
1004.500	592.864	79.982	19.993	100.003	19.933	2.067	0.491
1005.000	593.125	79.984	19.994	100.002	19.929	2.304	0.530
1005.500	593.407	79.985	19.993	100.003	19.935	1.877	0.542
1006.000	593.648	79.985	19.993	100.006	19.928	2.412	0.533
1006.500	593.876	79.983	19.993	100.010	19.929	2.312	0.496
1007.000	594.130	79.985	19.993	100.010	19.932	2.120	0.475
1007.500	594.434	79.985	19.993	100.006	19.929	2.355	0.520
1008.000	594.658	79.985	19.992	100.004	19.934	2.013	0.543
1008.500	594.970	79.984	19.992	100.003	19.931	2.163	0.533
1009.000	595.192	79.984	19.992	99.997	19.927	2.440	0.535
1009.500	595.449	79.986	19.992	100.000	19.932	2.142	0.506
1010.000	595.691	79.985	19.993	100.004	19.933	2.043	0.489
1010.500	595.987	79.984	19.992	100.004	19.929	2.321	0.518
1011.000	596.226	79.985	19.992	100.005	19.933	2.020	0.536
1011.500	596.494	79.986	19.993	100.011	19.934	1.973	0.521
1012.000	596.731	79.985	19.992	100.012	19.933	2.071	0.506
1012.501	596.965	79.986	19.993	100.012	19.934	1.986	0.488
1013.000	597.256	79.985	19.993	100.014	19.929	2.325	0.498
1013.500	597.514	79.985	19.992	100.018	19.929	2.338	0.537
1014.000	597.749	79.984	19.992	100.017	19.932	2.092	0.521
1014.500	598.010	79.986	19.991	100.015	19.936	1.828	0.495
1015.000	598.271	79.984	19.991	100.017	19.934	1.994	0.509
1015.500	598.504	79.986	19.992	100.019	19.935	1.919	0.508
1016.000	598.777	79.983	19.991	100.019	19.933	2.016	0.500
1016.500	599.058	79.988	19.991	100.017	19.932	2.133	0.530
1017.000	599.312	79.987	19.992	100.012	19.931	2.197	0.545
1017.500	599.512	79.984	19.991	100.010	19.933	2.026	0.494
1018.000	599.815	79.986	19.992	100.007	19.935	1.917	0.478
1018.500	600.041	79.986	19.993	100.004	19.932	2.100	0.516
1019.000	600.324	79.984	19.991	100.008	19.930	2.244	0.519
1019.500	600.595	79.984	19.992	100.008	19.931	2.197	0.531
1020.000	600.849	79.983	19.991	100.008	19.930	2.256	0.539
1020.500	601.106	79.983	19.991	100.009	19.935	1.909	0.518
1021.000	601.349	79.984	19.992	100.013	19.927	2.496	0.506
1021.500	601.611	79.981	19.990	100.014	19.933	2.033	0.502
1022.000	601.887	79.983	19.992	100.019	19.930	2.233	0.522
1022.500	602.114	79.983	19.992	100.016	19.933	2.084	0.521
1023.000	602.389	79.984	19.992	100.016	19.932	2.099	0.502
1023.500	602.622	79.983	19.993	100.013	19.936	1.849	0.505
1024.000	602.892	79.982	19.991	100.013	19.936	1.819	0.505
1024.500	603.143	79.982	19.991	100.014	19.932	2.147	0.512
1025.000	603.380	79.983	19.992	100.016	19.933	2.064	0.505
1025.500	603.610	79.982	19.991	100.013	19.933	2.030	0.478
1026.000	603.887	79.983	19.991	100.010	19.930	2.248	0.487
1026.501	604.210	79.984	19.992	100.008	19.934	1.968	0.553
1027.001	604.441	79.983	19.992	100.005	19.930	2.282	0.577
1027.500	604.729	79.983	19.993	100.009	19.934	1.970	0.537
1028.000	604.947	79.984	19.992	100.015	19.933	2.049	0.513
1028.500	605.195	79.985	19.991	100.019	19.930	2.229	0.486
1029.000	605.462	79.983	19.992	100.022	19.928	2.427	0.490
1029.500	605.727	79.982	19.992	100.024	19.933	2.041	0.523
1030.000	606.009	79.984	19.992	100.020	19.933	2.080	0.539
1030.500	606.196	79.982	19.992	100.018	19.929	2.327	0.508
1031.000	606.488	79.984	19.992	100.018	19.930	2.276	0.475
1031.500	606.747	79.983	19.991	100.013	19.928	2.427	0.515
1032.000	606.987	79.983	19.991	100.010	19.935	1.889	0.524
1032.501	607.247	79.984	19.991	100.016	19.937	1.785	0.499
1033.001	607.488	79.985	19.992	100.016	19.936	1.806	0.500
1033.500	607.767	79.984	19.992	100.014	19.929	2.308	0.511
1034.000	608.002	79.982	19.992	100.018	19.934	2.013	0.518
1034.500	608.283	79.983	19.992	100.022	19.930	2.239	0.515
1035.000	608.549	79.984	19.992	100.022	19.931	2.188	0.531
1035.500	608.779	79.984	19.992	100.024	19.932	2.148	0.521
1036.000	609.015	79.984	19.993	100.026	19.929	2.357	0.481
1036.500	609.305	79.985	19.992	100.026	19.931	2.161	0.496
1037.000	609.562	79.984	19.991	100.027	19.935	1.898	0.536
1037.500	609.803	79.983	19.992	100.025	19.932	2.112	0.523
1038.000	610.089	79.985	19.993	100.026	19.933	2.022	0.512
1038.501	610.334	79.985	19.993	100.023	19.934	2.000	0.529
1039.001	610.588	79.983	19.992	100.016	19.934	1.953	0.515
1039.500	610.833	79.982	19.991	100.015	19.935	1.938	0.499
1040.000	611.108	79.985	19.993	100.015	19.932	2.145	0.509
1040.500	611.357	79.982	19.991	100.015	19.934	1.951	0.522
1041.000	611.618	79.984	19.992	100.015	19.932	2.099	0.517
1041.500	611.860	79.983	19.992	100.019	19.931	2.175	0.506
1042.000	612.135	79.982	19.991	100.020	19.932	2.150	0.510
1042.500	612.366	79.982	19.991	100.020	19.931	2.182	0.511
1043.000	612.641	79.983	19.990	100.020	19.930	2.248	0.506
1043.500	612.892	79.983	19.991	100.020	19.932	2.112	0.516
1044.000	613.116	79.983	19.992	100.019	19.927	2.466	0.501
1044.500	613.398	79.983	19.992	100.020	19.932	2.150	0.491
1045.000	613.612	79.985	19.992	100.020	19.928	2.406	0.501
1045.500	613.922	79.984	19.991	100.015	19.928	2.427	0.510
1046.000	614.163	79.984	19.992	100.015	19.930	2.265	0.538
1046.500	614.476	79.984	19.992	100.017	19.927	2.479	0.553
1047.000	614.706	79.982	19.990	100.016	19.927	2.440	0.548
1047.500	615.004	79.983	19.991	100.013	19.925	2.634	0.535
1048.000	615.215	79.983	19.991	100.017	19.928	2.385	0.518
1048.500	615.490	79.984	19.990	100.016	19.931	2.220	0.498
1049.000	615.761	79.983	19.992	100.018	19.928	2.380	0.516
1049.500	616.004	79.983	19.991	100.016	19.930	2.284	0.530
1050.000	616.257	79.983	19.991	100.017	19.929	2.327	0.505
1050.501	616.529	79.983	19.991	100.019	19.931	2.159	0.510
1051.001	616.785	79.983	19.991	100.023	19.927	2.488	0.527
1051.500	617.049	79.984	19.990	100.023	19.924	2.693	0.524
1052.000	617.319	79.982	19.991	100.023	19.928	2.430	0.527
1052.500	617.528	79.984	19.993	100.019	19.930	2.293	0.506
1053.000	617.809	79.984	19.992	100.014	19.930	2.244	0.485
1053.500	618.070	79.983	19.992	100.012	19.928	2.364	0.516
1054.000	618.319	79.984	19.992	100.010	19.925	2.601	0.526
1054.500	618.581	79.982	19.990	100.012	19.930	2.236	0.511
1055.000	618.822	79.983	19.993	100.019	19.929	2.304	0.507
1055.501	619.056	79.984	19.992	100.023	19.929	2.302	0.489
1056.001	619.346	79.983	19.993	100.018	19.924	2.652	0.500
1056.500	619.605	79.983	19.991	100.014	19.936	1.855	0.537
1057.000	619.872	79.982	19.992	100.009	19.931	2.159	0.537
1057.500	620.120	79.984	19.992	100.008	19.926	2.519	0.520
1058.000	620.354	79.984	19.992	100.010	19.930	2.276	0.498
1058.500	620.618	79.983	19.992	100.016	19.925	2.609	0.490
1059.000	620.838	79.983	19.993	100.019	19.927	2.464	0.491
1059.500	621.115	79.984	19.994	100.025	19.924	2.692	0.491
1060.000	621.361	79.983	19.991	100.024	19.925	2.641	0.510
1060.501	621.619	79.983	19.991	100.018	19.931	2.221	0.513
1061.001	621.860	79.984	19.992	100.013	19.924	2.660	0.501
1061.500	622.139	79.982	19.992	100.009	19.929	2.319	0.509
1062.001	622.382	79.983	19.992	100.004	19.926	2.521	0.521
1062.501	622.652	79.983	19.990	100.003	19.927	2.472	0.518
1063.000	622.884	79.984	19.993	100.004	19.929	2.315	0.507
1063.500	623.180	79.983	19.993	100.004	19.929	2.302	0.515
1064.000	623.413	79.985	19.992	100.005	19.927	2.451	0.529
1064.500	623.691	79.984	19.992	100.001	19.924	2.686	0.520
1065.000	623.917	79.983	19.992	99.998	19.930	2.265	0.507
1065.500	624.143	79.985	19.992	100.004	19.932	2.144	0.478
1066.001	624.440	79.984	19.993	100.006	19.929	2.327	0.487
1066.501	624.685	79.984	19.992	100.005	19.925	2.633	0.532
1067.000	624.950	79.984	19.993	100.012	19.929	2.353	0.526
1067.501	625.163	79.984	19.992	100.015	19.925	2.624	0.494
1068.001	625.426	79.984	19.992	100.010	19.930	2.287	0.477
1068.500	625.702	79.983	19.992	100.007	19.929	2.351	0.508
1069.000	625.918	79.984	19.993	100.006	19.928	2.426	0.516
1069.500	626.196	79.986	19.992	100.005	19.925	2.639	0.493
1070.000	626.429	79.985	19.992	100.004	19.927	2.494	0.503
1070.500	626.714	79.984	19.992	100.003	19.931	2.176	0.515
1071.000	626.964	79.984	19.992	100.006	19.925	2.605	0.526
1071.500	627.219	79.983	19.992	100.009	19.927	2.449	0.520
1072.000	627.421	79.986	19.992	100.004	19.931	2.184	0.481
1072.500	627.713	79.986	19.991	100.006	19.928	2.378	0.475
1073.000	627.973	79.983	19.992	100.010	19.927	2.475	0.523
1073.500	628.231	79.985	19.992	100.011	19.930	2.289	0.535
1074.000	628.481	79.984	19.992	100.009	19.928	2.394	0.513
1074.500	628.721	79.985	19.993	100.013	19.927	2.498	0.499
1075.000	628.955	79.983	19.993	100.010	19.930	2.235	0.482
1075.500	629.194	79.983	19.992	100.007	19.928	2.378	0.474
1076.000	629.491	79.986	19.993	100.002	19.934	1.996	0.504
1076.500	629.719	79.984	19.992	100.001	19.934	1.960	0.531
1077.000	630.022	79.985	19.993	99.998	19.927	2.457	0.528
1077.500	630.252	79.985	19.992	99.999	19.934	1.981	0.532
1078.001	630.486	79.984	19.992	99.998	19.929	2.310	0.498
1078.501	630.775	79.983	19.992	100.000	19.927	2.455	0.493
1079.000	631.028	79.983	19.993	100.002	19.928	2.385	0.533
1079.500	631.259	79.984	19.992	100.003	19.932	2.120	0.513
1080.000	631.536	79.984	19.992	99.999	19.934	2.002	0.496
1080.500	631.781	79.984	19.992	99.999	19.928	2.385	0.515
1081.000	632.074	79.982	19.992	100.000	19.928	2.398	0.530
1081.500	632.273	79.983	19.992	100.001	19.933	2.037	0.516
1082.000	632.553	79.985	19.993	100.003	19.931	2.165	0.486
1082.500	632.784	79.984	19.993	100.008	19.929	2.317	0.495
1083.000	633.052	79.984	19.993	100.014	19.931	2.214	0.505
1083.500	633.273	79.985	19.992	100.014	19.932	2.107	0.494
1084.001	633.535	79.983	19.992	100.011	19.934	2.007	0.486
1084.501	633.802	79.986	19.993	100.010	19.930	2.246	0.506
1085.000	634.056	79.982	19.992	100.007	19.930	2.293	0.525
1085.500	634.335	79.983	19.992	100.005	19.934	1.956	0.527
1086.000	634.565	79.984	19.993	100.004	19.933	2.065	0.521
1086.500	634.848	79.985	19.993	100.006	19.934	1.971	0.511
1087.000	635.100	79.983	19.992	100.011	19.930	2.229	0.524
1087.500	635.387	79.983	19.992	100.012	19.927	2.466	0.537
1088.000	635.650	79.984	19.991	100.014	19.930	2.284	0.544
1088.500	635.875	79.984	19.992	100.017	19.927	2.479	0.519
1089.000	636.145	79.984	19.993	100.020	19.935	1.921	0.492
1089.500	636.387	79.983	19.992	100.019	19.934	1.979	0.504
1090.000	636.646	79.985	19.993	100.022	19.932	2.105	0.506
1090.501	636.893	79.985	19.992	100.023	19.930	2.261	0.504
1091.001	637.148	79.984	19.992	100.021	19.931	2.173	0.504
1091.501	637.423	79.983	19.993	100.014	19.932	2.098	0.516
1092.000	637.663	79.984	19.992	100.012	19.931	2.156	0.522
1092.501	637.910	79.985	19.992	100.013	19.933	2.034	0.501
1093.001	638.152	79.984	19.993	100.009	19.934	2.009	0.488
1093.501	638.397	79.983	19.992	100.004	19.928	2.378	0.488
1094.001	638.650	79.982	19.993	100.007	19.931	2.160	0.493
1094.500	638.942	79.984	19.992	100.009	19.932	2.115	0.522
1095.000	639.170	79.984	19.992	100.008	19.927	2.474	0.532
1095.500	639.435	79.984	19.993	100.010	19.935	1.893	0.507
1096.000	639.647	79.984	19.993	100.015	19.930	2.286	0.485
1096.500	639.874	79.984	19.992	100.016	19.931	2.190	0.458
1097.000	640.182	79.985	19.993	100.016	19.932	2.135	0.487
1097.500	640.411	79.985	19.993	100.014	19.933	2.063	0.536
1098.000	640.698	79.984	19.993	100.015	19.926	2.509	0.526
1098.500	640.898	79.983	19.992	100.015	19.929	2.310	0.501
1099.000	641.172	79.984	19.993	100.016	19.932	2.118	0.481
1099.500	641.440	79.983	19.992	100.013	19.930	2.286	0.508
1100.000	641.698	79.985	19.992	100.015	19.931	2.223	0.534
1100.500	641.967	79.983	19.993	100.017	19.929	2.333	0.526
1101.001	642.220	79.982	19.993	100.019	19.928	2.383	0.524
1101.501	642.483	79.982	19.993	100.020	19.927	2.487	0.519
1102.001	642.722	79.982	19.992	100.024	19.933	2.073	0.509
1102.501	642.973	79.981	19.992	100.025	19.928	2.417	0.496
1103.001	643.228	79.983	19.993	100.026	19.931	2.167	0.498
1103.501	643.486	79.982	19.991	100.026	19.928	2.385	0.509
1104.001	643.713	79.983	19.993	100.027	19.929	2.312	0.499
1104.500	643.993	79.982	19.992	100.026	19.926	2.525	0.496
1105.000	644.243	79.983	19.992	100.025	19.930	2.273	0.519
1105.500	644.458	79.983	19.992	100.024	19.927	2.494	0.497
1106.000	644.747	79.981	19.991	100.025	19.929	2.338	0.485
1106.500	645.006	79.981	19.992	100.022	19.931	2.173	0.526
1107.000	645.249	79.983	19.991	100.017	19.929	2.316	0.525
1107.500	645.484	79.982	19.991	100.016	19.928	2.417	0.489
1108.000	645.694	79.983	19.991	100.012	19.931	2.169	0.461
1108.500	645.976	79.983	19.992	100.010	19.930	2.257	0.469
1109.000	646.200	79.983	19.992	100.011	19.928	2.408	0.499
1109.500	646.470	79.982	19.992	100.012	19.932	2.144	0.500
1110.000	646.758	79.982	19.992	100.012	19.931	2.174	0.526
1110.501	646.984	79.982	19.991	100.014	19.931	2.171	0.536
1111.001	647.254	79.982	19.991	100.014	19.930	2.246	0.505
1111.501	647.493	79.983	19.992	100.015	19.928	2.406	0.502
1112.000	647.759	79.983	19.991	100.019	19.928	2.393	0.507
1112.500	647.964	79.982	19.991	100.018	19.931	2.221	0.488
1113.000	648.219	79.982	19.992	100.022	19.932	2.105	0.465
1113.500	648.532	79.984	19.992	100.024	19.932	2.137	0.514
1114.000	648.748	79.983	19.991	100.025	19.929	2.338	0.548
1114.500	649.006	79.984	19.993	100.025	19.930	2.281	0.501
1115.000	649.283	79.982	19.990	100.027	19.929	2.296	0.505
1115.500	649.519	79.982	19.992	100.025	19.933	2.067	0.524
1116.000	649.779	79.984	19.993	100.023	19.931	2.193	0.504
1116.500	650.035	79.983	19.992	100.021	19.930	2.274	0.506
1117.000	650.279	79.983	19.991	100.017	19.930	2.255	0.508
1117.500	650.544	79.984	19.991	100.013	19.928	2.376	0.505
1118.000	650.766	79.982	19.992	100.010	19.929	2.357	0.498
1118.500	651.050	79.982	19.992	100.006	19.928	2.417	0.497
1119.000	651.274	79.983	19.993	100.004	19.927	2.445	0.507
1119.500	651.562	79.983	19.991	100.005	19.927	2.441	0.510
1120.000	651.848	79.983	19.992	100.005	19.927	2.488	0.542
1120.501	652.085	79.982	19.993	100.007	19.926	2.554	0.548
1121.001	652.350	79.983	19.993	100.012	19.926	2.547	0.513
1121.501	652.594	79.982	19.992	100.016	19.928	2.408	0.505
1122.000	652.861	79.983	19.991	100.018	19.923	2.754	0.510
1122.500	653.134	79.981	19.991	100.017	19.926	2.534	0.526
1123.000	653.386	79.983	19.991	100.013	19.927	2.494	0.533
1123.500	653.657	79.984	19.992	100.006	19.925	2.581	0.524
1124.000	653.927	79.984	19.992	100.000	19.927	2.453	0.532
1124.500	654.136	79.983	19.991	99.996	19.924	2.654	0.510
1125.000	654.423	79.982	19.992	99.994	19.927	2.477	0.487
1125.500	654.664	79.984	19.993	99.996	19.924	2.665	0.512
1126.000	654.924	79.984	19.992	100.000	19.927	2.440	0.515
1126.500	655.243	79.985	19.992	100.002	19.927	2.504	0.540
1127.000	655.442	79.983	19.991	100.003	19.928	2.413	0.549
1127.500	655.708	79.983	19.991	100.006	19.926	2.506	0.492
1128.000	655.949	79.983	19.992	100.008	19.927	2.474	0.486
1128.500	656.214	79.984	19.993	100.010	19.923	2.726	0.506
1129.000	656.450	79.983	19.992	100.009	19.924	2.652	0.503
1129.500	656.700	79.985	19.991	100.008	19.925	2.629	0.493
1130.000	656.958	79.981	19.991	100.005	19.929	2.342	0.497
1130.501	657.215	79.982	19.992	100.000	19.930	2.285	0.512
1131.001	657.470	79.983	19.992	99.999	19.924	2.691	0.513
1131.501	657.727	79.980	19.991	100.000	19.930	2.291	0.512
1132.001	657.993	79.982	19.992	100.000	19.931	2.202	0.518
1132.501	658.209	79.984	19.993	100.004	19.929	2.329	0.502
1133.000	658.486	79.982	19.992	100.008	19.933	2.046	0.487
1133.500	658.736	79.983	19.993	100.010	19.925	2.592	0.510
1134.000	659.004	79.981	19.991	100.010	19.922	2.840	0.522
1134.500	659.242	79.981	19.992	100.014	19.926	2.513	0.512
1135.000	659.498	79.982	19.991	100.016	19.926	2.509	0.500
1135.500	659.745	79.983	19.992	100.014	19.927	2.481	0.498
1136.000	660.000	79.982	19.991	100.013	19.929	2.349	0.503
1136.501	660.249	79.983	19.992	100.013	19.926	2.524	0.503
1137.001	660.526	79.984	19.992	100.013	19.925	2.590	0.515
1137.500	660.750	79.982	19.991	100.012	19.925	2.626	0.513
1138.000	661.020	79.983	19.991	100.014	19.930	2.282	0.497
1138.500	661.281	79.984	19.992	100.015	19.926	2.573	0.513
1139.000	661.521	79.983	19.992	100.016	19.927	2.503	0.516
1139.500	661.737	79.983	19.992	100.013	19.931	2.206	0.478
1140.001	661.978	79.983	19.992	100.007	19.929	2.334	0.456
1140.501	662.276	79.985	19.992	100.004	19.926	2.511	0.498
1141.000	662.508	79.983	19.991	99.999	19.927	2.485	0.535
1141.500	662.817	79.985	19.992	99.998	19.926	2.511	0.536
1142.000	663.106	79.985	19.992	99.999	19.928	2.415	0.569
1142.500	663.249	79.984	19.992	100.000	19.927	2.488	0.515
1143.000	663.422	79.984	19.991	100.002	19.931	2.159	0.374
1143.500	663.680	79.985	19.991	100.002	19.930	2.255	0.374
1144.000	664.102	79.985	19.992	100.007	19.931	2.197	0.556
1144.500	664.364	79.983	19.992	100.011	19.925	2.575	0.682
1145.000	664.527	79.983	19.992	100.013	19.928	2.400	0.555
1145.500	664.809	79.985	19.992	100.012	19.930	2.250	0.435
1146.000	665.052	79.984	19.993	100.010	19.929	2.304	0.485
1146.500	665.298	79.986	19.992	100.010	19.927	2.486	0.508
1147.000	665.613	79.985	19.991	100.008	19.926	2.533	0.525
1147.500	665.792	79.985	19.992	100.010	19.927	2.441	0.527
1148.000	666.065	79.984	19.991	100.012	19.924	2.691	0.473
1148.500	666.307	79.984	19.992	100.017	19.929	2.323	0.483
1149.000	666.592	79.984	19.992	100.012	19.924	2.667	0.521
1149.500	666.827	79.985	19.992	100.007	19.927	2.485	0.523
1150.000	667.066	79.984	19.993	100.003	19.924	2.699	0.497
1150.500	667.348	79.987	19.993	100.000	19.927	2.500	0.498
1151.000	667.573	79.985	19.993	99.999	19.926	2.567	0.514
1151.500	667.878	79.984	19.992	100.005	19.927	2.488	0.518
1152.000	668.112	79.983	19.992	100.011	19.925	2.630	0.534
1152.500	668.335	79.984	19.992	100.010	19.927	2.468	0.498
1153.000	668.609	79.983	19.993	100.007	19.931	2.206	0.477
1153.501	668.851	79.982	19.992	100.004	19.927	2.479	0.506
1154.001	669.118	79.984	19.993	100.000	19.926	2.560	0.513
1154.500	669.361	79.985	19.992	100.000	19.932	2.148	0.510
1155.000	669.630	79.984	19.992	99.999	19.926	2.543	0.511
1155.500	669.862	79.981	19.991	100.000	19.931	2.210	0.506
1156.000	670.136	79.981	19.993	100.004	19.927	2.441	0.503
1156.501	670.412	79.984	19.992	100.003	19.927	2.500	0.528
1157.001	670.643	79.981	19.992	99.998	19.928	2.404	0.529
1157.500	670.899	79.984	19.993	100.000	19.930	2.272	0.497
1158.000	671.158	79.982	19.992	100.001	19.930	2.255	0.501
1158.500	671.428	79.982	19.992	100.000	19.924	2.654	0.522
1159.000	671.661	79.984	19.992	100.000	19.929	2.332	0.516
1159.501	671.892	79.983	19.992	100.004	19.924	2.703	0.483
1160.001	672.146	79.984	19.992	100.002	19.927	2.492	0.474
1160.500	672.414	79.986	19.992	100.001	19.931	2.191	0.504
1161.001	672.658	79.983	19.994	100.003	19.927	2.477	0.517
1161.501	672.907	79.984	19.993	100.003	19.928	2.366	0.502
1162.000	673.167	79.984	19.991	100.005	19.929	2.342	0.501
1162.500	673.445	79.983	19.992	100.006	19.926	2.530	0.523
1163.000	673.652	79.984	19.993	100.007	19.928	2.372	0.512
1163.500	673.902	79.984	19.993	100.006	19.930	2.259	0.471
1164.000	674.148	79.985	19.992	100.009	19.925	2.622	0.477
1164.500	674.445	79.983	19.992	100.009	19.929	2.336	0.519
1165.000	674.677	79.984	19.992	100.012	19.928	2.384	0.536
1165.500	674.966	79.984	19.991	100.013	19.932	2.118	0.525
1166.000	675.219	79.984	19.992	100.009	19.923	2.760	0.531
1166.501	675.475	79.983	19.992	100.003	19.924	2.652	0.525
1167.001	675.723	79.983	19.991	100.004	19.926	2.549	0.507
1167.500	675.962	79.984	19.992	100.002	19.925	2.599	0.496
1168.000	676.223	79.983	19.991	100.001	19.930	2.283	0.493
1168.500	676.506	79.983	19.991	100.001	19.925	2.637	0.522
1169.000	676.737	79.984	19.992	100.000	19.930	2.291	0.530
1169.500	677.037	79.984	19.992	99.994	19.930	2.259	0.523
1170.000	677.231	79.983	19.992	99.996	19.930	2.280	0.512
1170.500	677.520	79.984	19.992	100.003	19.927	2.457	0.488
1171.000	677.779	79.984	19.991	100.008	19.934	1.960	0.516
1171.500	678.037	79.984	19.991	100.009	19.931	2.191	0.533
1172.000	678.259	79.984	19.992	100.012	19.931	2.191	0.499
1172.500	678.520	79.984	19.992	100.012	19.929	2.338	0.481
1173.000	678.794	79.987	19.992	100.007	19.934	2.014	0.508
1173.500	679.007	79.986	19.992	100.007	19.931	2.216	0.511
1174.000	679.277	79.984	19.992	100.011	19.929	2.345	0.485
1174.500	679.544	79.985	19.993	100.015	19.927	2.464	0.510
1175.000	679.804	79.986	19.992	100.016	19.930	2.293	0.532
1175.500	680.069	79.985	19.991	100.022	19.926	2.563	0.526
1176.000	680.281	79.984	19.992	100.021	19.932	2.120	0.501
1176.500	680.537	79.985	19.992	100.020	19.938	1.734	0.473
1177.000	680.796	79.986	19.993	100.013	19.928	2.370	0.492
1177.500	681.030	79.984	19.992	100.012	19.927	2.477	0.504
1178.000	681.293	79.983	19.992	100.006	19.926	2.539	0.494
1178.500	681.542	79.983	19.992	100.005	19.928	2.389	0.504
1179.000	681.814	79.984	19.992	100.007	19.928	2.389	0.517
1179.500	682.080	79.983	19.992	100.008	19.931	2.184	0.530
1180.000	682.311	79.985	19.992	100.006	19.930	2.246	0.517
1180.500	682.572	79.983	19.992	100.010	19.926	2.526	0.494
1181.000	682.815	79.984	19.994	100.013	19.928	2.381	0.498
1181.500	683.087	79.983	19.992	100.013	19.931	2.170	0.510
1182.000	683.326	79.983	19.993	100.015	19.929	2.338	0.513
1182.500	683.587	79.982	19.992	100.014	19.929	2.323	0.506
1183.000	683.881	79.980	19.992	100.011	19.928	2.413	0.528
1183.500	684.119	79.982	19.994	100.009	19.933	2.030	0.544
1184.000	684.391	79.981	19.993	100.005	19.934	2.009	0.521
1184.500	684.623	79.984	19.994	100.003	19.935	1.922	0.507
1185.000	684.911	79.982	19.993	100.003	19.934	1.958	0.512
1185.501	685.174	79.982	19.993	100.001	19.936	1.855	0.536
1186.001	685.425	79.983	19.994	99.998	19.932	2.133	0.533
1186.501	685.664	79.983	19.994	99.997	19.934	2.009	0.502
1187.000	685.923	79.981	19.992	99.995	19.929	2.346	0.494
1187.500	686.174	79.982	19.993	99.995	19.929	2.350	0.504
1188.000	686.442	79.983	19.993	100.000	19.930	2.239	0.515
1188.500	686.685	79.983	19.992	100.005	19.930	2.225	0.515
1189.000	686.908	79.982	19.992	100.010	19.931	2.216	0.489
1189.500	687.208	79.982	19.993	100.013	19.931	2.161	0.495
1190.000	687.446	79.982	19.992	100.012	19.932	2.133	0.530
1190.500	687.681	79.981	19.992	100.005	19.930	2.289	0.505
1191.000	687.941	79.982	19.993	99.999	19.928	2.376	0.484
1191.500	688.177	79.982	19.992	99.993	19.928	2.406	0.496
1192.001	688.425	79.982	19.991	99.989	19.926	2.521	0.490
1192.501	688.673	79.983	19.992	99.991	19.932	2.097	0.490
1193.000	688.941	79.982	19.992	99.994	19.926	2.526	0.506
1193.500	689.215	79.981	19.992	99.996	19.925	2.609	0.529
1194.000	689.471	79.982	19.992	100.000	19.927	2.440	0.536
1194.501	689.727	79.983	19.991	100.006	19.929	2.362	0.521
1195.001	689.998	79.982	19.991	100.010	19.927	2.451	0.520
1195.500	690.217	79.982	19.991	100.010	19.924	2.703	0.509
1196.000	690.503	79.983	19.993	100.009	19.928	2.406	0.497
1196.500	690.749	79.981	19.991	100.008	19.925	2.614	0.518
1197.000	691.030	79.983	19.992	100.008	19.929	2.301	0.529
1197.500	691.254	79.985	19.992	100.009	19.927	2.445	0.516
1198.000	691.553	79.985	19.992	100.012	19.927	2.504	0.514
1198.500	691.784	79.984	19.991	100.018	19.930	2.227	0.526
1199.000	692.031	79.984	19.991	100.022	19.928	2.432	0.504
1199.500	692.281	79.984	19.992	100.021	19.927	2.449	0.488
1200.000	692.539	79.982	19.992	100.019	19.927	2.487	0.502
1200.500	692.766	79.984	19.991	100.017	19.928	2.427	0.496
1201.000	693.029	79.983	19.991	100.013	19.926	2.521	0.488
1201.500	693.258	79.984	19.992	100.008	19.928	2.427	0.491
1202.000	693.525	79.983	19.991	100.009	19.927	2.464	0.494
1202.501	693.759	79.983	19.992	100.007	19.927	2.458	0.499
1203.001	694.035	79.981	19.990	100.011	19.928	2.364	0.506
1203.501	694.291	79.983	19.992	100.012	19.929	2.351	0.521
1204.001	694.557	79.982	19.992	100.009	19.929	2.355	0.527
1204.500	694.805	79.983	19.992	100.007	19.929	2.334	0.518
1205.000	695.075	79.985	19.992	100.005	19.927	2.447	0.516
1205.500	695.293	79.983	19.993	99.997	19.928	2.368	0.503
1206.001	695.554	79.983	19.991	99.991	19.927	2.479	0.484
1206.501	695.860	79.984	19.993	99.996	19.924	2.673	0.523
1207.000	696.092	79.984	19.992	99.998	19.926	2.537	0.553
1207.501	696.328	79.983	19.992	100.006	19.927	2.443	0.503
1208.001	696.596	79.983	19.993	100.011	19.928	2.393	0.486
1208.501	696.847	79.984	19.992	100.013	19.933	2.077	0.511
1209.001	697.123	79.984	19.992	100.012	19.924	2.690	0.523
1209.501	697.367	79.983	19.992	100.010	19.929	2.304	0.523
1210.000	697.616	79.980	19.992	100.009	19.933	2.073	0.506
1210.500	697.872	79.981	19.993	100.011	19.929	2.355	0.499
1211.000	698.134	79.984	19.992	100.014	19.927	2.453	0.512
1211.500	698.377	79.982	19.992	100.016	19.930	2.234	0.511
1212.000	698.613	79.984	19.993	100.019	19.929	2.306	0.491
1212.500	698.873	79.986	19.992	100.015	19.926	2.558	0.487
1213.001	699.134	79.982	19.991	100.010	19.930	2.270	0.508
1213.501	699.387	79.982	19.992	100.006	19.930	2.240	0.517
1214.000	699.659	79.982	19.992	100.006	19.934	1.995	0.520
1214.500	699.895	79.983	19.993	100.004	19.929	2.334	0.517
1215.000	700.140	79.982	19.992	100.003	19.927	2.481	0.495
1215.500	700.442	79.984	19.993	100.001	19.927	2.504	0.514
1216.000	700.663	79.984	19.993	100.004	19.927	2.438	0.535
1216.500	700.915	79.982	19.991	100.006	19.928	2.370	0.498
1217.000	701.181	79.982	19.992	100.005	19.929	2.351	0.495
1217.500	701.437	79.983	19.992	100.004	19.928	2.428	0.520
1218.000	701.681	79.981	19.991	100.006	19.924	2.652	0.511
1218.500	701.943	79.981	19.991	100.007	19.925	2.583	0.503
1219.000	702.194	79.983	19.993	100.004	19.926	2.564	0.509
1219.500	702.438	79.980	19.991	100.008	19.927	2.457	0.504
1220.001	702.724	79.985	19.993	100.010	19.932	2.111	0.512
1220.501	702.937	79.984	19.991	100.008	19.926	2.524	0.515
1221.001	703.196	79.983	19.990	100.004	19.924	2.680	0.486
1221.501	703.443	79.984	19.991	100.000	19.925	2.633	0.489
1222.001	703.733	79.985	19.991	99.998	19.924	2.680	0.521
1222.501	703.970	79.985	19.991	100.000	19.925	2.630	0.532
1223.000	704.232	79.984	19.992	100.000	19.924	2.698	0.513
1223.501	704.472	79.986	19.992	100.001	19.924	2.709	0.501
1224.001	704.732	79.985	19.991	100.000	19.921	2.872	0.501
1224.500	704.973	79.983	19.991	99.997	19.925	2.624	0.500
1225.000	705.247	79.983	19.991	99.993	19.927	2.487	0.508
1225.500	705.525	79.983	19.992	99.996	19.925	2.618	0.534
1226.001	705.748	79.984	19.992	100.001	19.923	2.752	0.527
1226.501	705.980	79.984	19.991	100.005	19.924	2.682	0.478
1227.000	706.265	79.983	19.991	100.009	19.922	2.838	0.485
1227.500	706.501	79.985	19.991	100.009	19.923	2.718	0.518
1228.001	706.754	79.985	19.991	100.006	19.929	2.313	0.505
1228.501	706.998	79.983	19.992	100.001	19.923	2.731	0.494
1229.001	707.257	79.987	19.992	100.003	19.925	2.601	0.500
1229.500	707.499	79.985	19.991	100.007	19.924	2.686	0.502
1230.000	707.752	79.984	19.992	100.013	19.930	2.238	0.498
1230.500	708.031	79.985	19.992	100.017	19.921	2.915	0.513
1231.000	708.256	79.984	19.990	100.018	19.921	2.900	0.518
1231.500	708.532	79.984	19.991	100.013	19.924	2.675	0.503
1232.000	708.751	79.983	19.991	100.009	19.925	2.607	0.498
1232.500	709.003	79.986	19.990	100.010	19.926	2.537	0.483
1233.001	709.243	79.983	19.990	100.010	19.928	2.391	0.481
1233.501	709.500	79.981	19.990	100.011	19.926	2.541	0.494
1234.000	709.769	79.984	19.991	100.016	19.926	2.556	0.511
1234.501	709.997	79.982	19.991	100.018	19.924	2.656	0.512
1235.001	710.228	79.985	19.992	100.012	19.923	2.720	0.478
1235.500	710.507	79.984	19.991	100.009	19.920	2.944	0.484
1236.000	710.737	79.984	19.991	100.010	19.922	2.816	0.509
1236.501	710.990	79.983	19.991	100.006	19.928	2.424	0.496
1237.001	711.239	79.985	19.992	100.002	19.928	2.394	0.492
1237.500	711.468	79.982	19.991	100.002	19.926	2.533	0.490
1238.000	711.750	79.982	19.991	100.000	19.928	2.428	0.495
1238.500	712.001	79.983	19.992	99.998	19.926	2.522	0.522
1239.001	712.272	79.984	19.992	100.002	19.925	2.614	0.527
1239.501	712.527	79.982	19.992	100.004	19.928	2.398	0.525
1240.001	712.761	79.984	19.991	100.005	19.919	3.039	0.508
1240.501	712.985	79.984	19.992	100.004	19.924	2.712	0.473
1241.001	713.261	79.983	19.992	100.002	19.924	2.675	0.479
1241.501	713.533	79.984	19.992	99.997	19.926	2.571	0.524
1242.000	713.772	79.983	19.992	99.994	19.926	2.513	0.529
1242.501	714.023	79.983	19.992	100.001	19.929	2.319	0.501
1243.001	714.266	79.985	19.993	100.006	19.924	2.699	0.492
1243.501	714.552	79.983	19.992	100.010	19.926	2.509	0.512
1244.000	714.842	79.983	19.992	100.010	19.928	2.428	0.552
1244.500	715.082	79.984	19.991	100.010	19.922	2.797	0.553
1245.000	715.277	79.983	19.993	100.006	19.926	2.571	0.483
1245.500	715.580	79.983	19.993	100.007	19.929	2.357	0.467
1246.000	715.838	79.985	19.992	100.005	19.925	2.618	0.530
1246.500	716.097	79.984	19.992	100.005	19.926	2.507	0.539
1247.000	716.383	79.985	19.992	100.002	19.928	2.391	0.531
1247.500	716.631	79.985	19.993	100.003	19.924	2.675	0.540
1248.000	716.888	79.986	19.993	99.998	19.918	3.077	0.520
1248.500	717.123	79.984	19.992	99.998	19.921	2.872	0.498
1249.001	717.348	79.985	19.993	100.002	19.924	2.669	0.475
1249.501	717.609	79.986	19.992	100.005	19.925	2.642	0.473
1250.000	717.869	79.986	19.993	100.001	19.924	2.684	0.504
1250.500	718.177	79.985	19.991	100.000	19.928	2.404	0.544
1251.000	718.435	79.985	19.991	99.997	19.927	2.434	0.567
1251.500	718.678	79.986	19.992	100.000	19.925	2.579	0.534
1252.000	718.930	79.986	19.992	100.001	19.928	2.423	0.498
1252.500	719.192	79.985	19.992	100.002	19.922	2.816	0.504
1253.000	719.391	79.984	19.992	100.004	19.923	2.746	0.487
1253.500	719.679	79.986	19.992	100.003	19.924	2.682	0.474
1254.000	719.924	79.988	19.991	100.004	19.923	2.718	0.510
1254.501	720.192	79.987	19.993	100.006	19.922	2.803	0.523
1255.001	720.441	79.986	19.991	100.003	19.923	2.765	0.515
1255.500	720.693	79.985	19.991	100.002	19.922	2.836	0.509
1256.000	720.981	79.986	19.992	100.005	19.922	2.822	0.520
1256.501	721.206	79.984	19.993	100.003	19.926	2.521	0.526
1257.001	721.453	79.988	19.991	100.004	19.923	2.744	0.493
1257.500	721.732	79.984	19.992	100.010	19.927	2.490	0.499
1258.000	721.975	79.985	19.991	100.010	19.927	2.471	0.524
1258.500	722.219	79.986	19.991	100.007	19.922	2.821	0.504
1259.000	722.505	79.986	19.992	100.001	19.928	2.383	0.509
1259.500	722.749	79.984	19.992	99.997	19.930	2.272	0.530
1260.000	722.975	79.984	19.992	99.992	19.922	2.793	0.500
1260.500	723.226	79.985	19.992	99.994	19.926	2.552	0.474
1261.000	723.491	79.984	19.991	99.998	19.923	2.759	0.497
1261.500	723.751	79.983	19.991	100.002	19.925	2.628	0.520
1262.000	723.951	79.982	19.992	100.006	19.927	2.477	0.492
1262.500	724.228	79.983	19.994	100.013	19.923	2.761	0.469
1263.000	724.463	79.984	19.992	100.018	19.925	2.583	0.495
1263.500	724.710	79.983	19.994	100.020	19.927	2.481	0.496
1264.000	725.005	79.983	19.993	100.017	19.926	2.505	0.512
1264.500	725.246	79.983	19.993	100.012	19.930	2.278	0.540
1265.000	725.481	79.982	19.993	100.006	19.925	2.641	0.507
1265.500	725.744	79.983	19.992	100.003	19.929	2.306	0.487
1266.000	726.009	79.982	19.993	100.001	19.925	2.620	0.513
1266.500	726.242	79.982	19.993	100.008	19.926	2.530	0.513
1267.000	726.501	79.982	19.994	100.012	19.922	2.816	0.495
1267.500	726.756	79.982	19.992	100.014	19.926	2.549	0.503
1268.000	726.995	79.983	19.994	100.010	19.921	2.854	0.504
1268.500	727.269	79.982	19.993	100.004	19.927	2.472	0.504
1269.001	727.544	79.983	19.994	100.000	19.922	2.833	0.531
1269.501	727.768	79.983	19.992	100.001	19.928	2.404	0.524
1270.001	728.017	79.982	19.993	99.999	19.923	2.718	0.486
1270.501	728.306	79.983	19.992	100.001	19.926	2.510	0.505
1271.000	728.555	79.982	19.994	100.007	19.925	2.575	0.538
1271.500	728.818	79.982	19.993	100.003	19.927	2.491	0.525
1272.000	729.039	79.983	19.994	100.003	19.923	2.735	0.498
1272.500	729.232	79.980	19.993	100.009	19.925	2.622	0.449
1273.000	729.614	79.986	19.992	100.009	19.928	2.387	0.494
1273.501	729.811	79.981	19.992	100.007	19.929	2.306	0.577
1274.001	730.096	79.984	19.992	100.008	19.927	2.468	0.530
1274.500	730.290	79.981	19.993	100.006	19.928	2.425	0.480
1275.000	730.604	79.982	19.993	100.005	19.928	2.378	0.494
1275.501	730.856	79.983	19.994	100.005	19.926	2.534	0.537
1276.001	731.091	79.984	19.992	100.009	19.931	2.214	0.526
1276.500	731.325	79.979	19.994	100.013	19.925	2.633	0.478
1277.000	731.569	79.984	19.993	100.010	19.923	2.767	0.473
1277.500	731.847	79.981	19.992	100.009	19.930	2.273	0.500
1278.000	732.096	79.982	19.993	100.011	19.924	2.656	0.524
1278.500	732.369	79.983	19.992	100.012	19.925	2.621	0.525
1279.000	732.620	79.985	19.993	100.013	19.928	2.414	0.523
1279.501	732.871	79.982	19.991	100.019	19.930	2.260	0.513
1280.001	733.060	79.983	19.993	100.022	19.926	2.550	0.471
1280.500	733.332	79.984	19.992	100.024	19.928	2.401	0.451
1281.001	733.610	79.983	19.992	100.025	19.930	2.287	0.506
1281.501	733.832	79.983	19.992	100.023	19.926	2.564	0.525
1282.001	734.072	79.985	19.992	100.020	19.924	2.649	0.481
1282.501	734.358	79.984	19.992	100.018	19.928	2.415	0.494
1283.000	734.621	79.982	19.991	100.016	19.928	2.376	0.537
1283.500	734.826	79.983	19.992	100.016	19.926	2.509	0.509
1284.000	735.080	79.984	19.993	100.018	19.925	2.599	0.464
1284.501	735.397	79.983	19.990	100.017	19.928	2.426	0.515
1285.001	735.628	79.983	19.990	100.018	19.927	2.488	0.559
1285.501	735.872	79.983	19.991	100.018	19.925	2.586	0.511
1286.000	736.072	79.982	19.992	100.015	19.927	2.462	0.459
1286.500	736.327	79.983	19.991	100.014	19.929	2.349	0.450
1287.000	736.591	79.982	19.991	100.008	19.926	2.535	0.487
1287.500	736.843	79.984	19.991	99.977	19.928	2.432	0.517
1288.001	737.077	79.983	19.992	99.957	19.925	2.611	0.501
1288.501	737.373	79.984	19.991	99.949	19.925	2.583	0.509
1289.000	737.610	79.982	19.992	99.946	19.928	2.430	0.532
1289.500	737.839	79.982	19.991	99.958	19.929	2.333	0.499
1290.000	738.124	79.983	19.991	100.023	19.925	2.589	0.489
1290.500	738.350	79.982	19.991	100.051	19.924	2.645	0.512
1291.000	738.613	79.985	19.991	100.062	19.927	2.455	0.501
1291.500	738.885	79.984	19.991	100.064	19.930	2.257	0.512
1292.000	739.087	79.983	19.991	100.058	19.929	2.359	0.504
1292.500	739.347	79.984	19.993	100.026	19.926	2.551	0.468
1293.000	739.582	79.982	19.992	100.020	19.929	2.346	0.478
1293.500	739.865	79.983	19.991	100.017	19.926	2.525	0.506
1294.000	740.128	79.982	19.992	100.015	19.925	2.600	0.532
1294.500	740.347	79.983	19.992	100.013	19.927	2.479	0.514
1295.000	740.618	79.983	19.992	100.005	19.925	2.617	0.486
1295.500	740.873	79.982	19.992	100.001	19.929	2.357	0.508
1296.000	741.135	79.983	19.991	100.000	19.928	2.409	0.522
1296.500	741.354	79.982	19.992	100.002	19.928	2.404	0.499
1297.000	741.655	79.982	19.991	100.005	19.928	2.396	0.500
1297.500	741.873	79.983	19.991	100.006	19.925	2.601	0.519
1298.000	742.103	79.982	19.992	100.005	19.923	2.761	0.483
1298.500	742.383	79.981	19.993	100.009	19.925	2.586	0.479
1299.000	742.621	79.981	19.991	100.014	19.928	2.407	0.514
1299.500	742.914	79.981	19.992	100.012	19.924	2.712	0.524
1300.000	743.139	79.983	19.991	100.015	19.925	2.607	0.525
1300.500	743.411	79.982	19.992	100.021	19.926	2.505	0.508
1301.000	743.640	79.982	19.993	100.020	19.923	2.719	0.499
