Sample ID:	C:\MCC\MCC Cal\Test\Pine_Siding\Pine_Siding_30_3.txt
Sample Weight (mg):	4.46
Heating Rate (C/s):	0.5
Combustor Temp (C):	900
N2 Flow Rate (cc/min):	80
O2 Flow Rate (cc/min):	20
Calibration File:	C:\MCC\MCC Cal\Coeff1 JN10440_30_210304.txt.txt
T Correction Coefficients:	0	1.024463	0
Time Shift (s):	14
*
Time (s)	Temperature (C)	N2 flow rate (cc/min)	O2 flow rate (cc/min)	Flow Rate (cc/min)	Oxygen (%)	HRR (W/g)	Heating rate (C/s)
0.000	112.473	79.986	19.991	99.952	19.961	-0.168	-0.026
0.500	112.487	79.983	19.991	99.952	19.964	-0.405	0.003
1.000	112.478	79.982	19.991	99.952	19.964	-0.398	0.016
1.500	112.481	79.984	19.992	99.952	19.960	-0.153	-0.000
2.000	112.484	79.982	19.990	99.952	19.958	-0.013	0.000
2.500	112.449	79.983	19.991	99.952	19.957	0.092	-0.013
3.000	112.430	79.983	19.991	99.952	19.962	-0.251	-0.043
3.500	112.496	79.982	19.990	99.951	19.964	-0.445	-0.003
4.000	112.449	79.983	19.991	99.951	19.963	-0.305	0.033
4.500	112.447	79.982	19.992	99.951	19.962	-0.251	-0.016
5.000	112.407	79.985	19.992	99.952	19.963	-0.352	-0.046
5.500	112.453	79.983	19.991	99.953	19.959	-0.051	-0.018
6.000	112.436	79.982	19.992	99.953	19.960	-0.151	0.018
6.500	112.444	79.983	19.992	99.952	19.959	-0.089	0.010
7.000	112.436	79.984	19.992	99.952	19.958	-0.008	-0.005
7.500	112.422	79.983	19.991	99.950	19.960	-0.158	-0.011
8.000	112.427	79.984	19.991	99.950	19.961	-0.185	-0.015
8.500	112.468	79.981	19.991	99.951	19.958	0.009	0.018
9.000	112.461	79.984	19.992	99.951	19.954	0.307	0.040
9.500	112.429	79.983	19.994	99.952	19.955	0.239	-0.002
10.000	112.457	79.984	19.992	99.953	19.960	-0.130	-0.022
10.501	112.423	79.984	19.992	99.953	19.960	-0.109	-0.006
11.001	112.467	79.985	19.992	99.953	19.960	-0.134	0.002
11.500	112.442	79.984	19.992	99.954	19.957	0.100	0.014
12.001	112.430	79.984	19.993	99.954	19.960	-0.104	-0.009
12.501	112.439	79.984	19.993	99.955	19.956	0.170	-0.019
13.001	112.430	79.984	19.991	99.955	19.960	-0.143	-0.001
13.501	112.393	79.985	19.993	99.956	19.957	0.047	-0.023
14.001	112.401	79.984	19.993	99.954	19.952	0.430	-0.038
14.501	112.442	79.984	19.992	99.955	19.955	0.190	0.010
15.001	112.427	79.985	19.992	99.957	19.953	0.392	0.037
15.500	112.392	79.984	19.994	99.963	19.949	0.637	-0.011
16.000	112.394	79.985	19.992	99.968	19.952	0.441	-0.041
16.500	112.418	79.985	19.992	99.976	19.953	0.379	-0.004
17.000	112.375	79.986	19.992	99.982	19.954	0.294	0.003
17.500	112.400	79.986	19.993	99.986	19.951	0.520	-0.018
18.000	112.408	79.984	19.992	99.987	19.954	0.315	0.008
18.500	112.425	79.985	19.992	99.989	19.957	0.100	0.029
19.000	112.415	79.986	19.991	99.988	19.956	0.130	0.015
19.500	112.366	79.986	19.992	99.988	19.950	0.585	-0.026
20.000	112.419	79.985	19.992	99.988	19.955	0.185	-0.027
20.500	112.434	79.986	19.992	99.987	19.949	0.632	0.036
21.000	112.399	79.986	19.993	99.987	19.952	0.422	0.024
21.500	112.401	79.987	19.992	99.988	19.948	0.684	-0.027
22.000	112.438	79.984	19.991	99.992	19.951	0.466	0.002
22.500	112.410	79.987	19.993	99.997	19.951	0.517	0.024
23.000	112.428	79.984	19.992	100.001	19.948	0.709	0.000
23.500	112.460	79.987	19.992	100.007	19.949	0.630	0.020
24.000	112.482	79.985	19.992	100.013	19.953	0.332	0.051
24.500	112.478	79.986	19.993	100.016	19.949	0.634	0.036
25.000	112.459	79.984	19.991	100.018	19.949	0.605	-0.002
25.500	112.476	79.983	19.991	100.022	19.946	0.834	-0.012
26.000	112.472	79.984	19.993	100.022	19.947	0.753	0.005
26.500	112.490	79.984	19.990	100.022	19.948	0.685	0.013
27.000	112.512	79.983	19.992	100.022	19.945	0.930	0.027
27.500	112.546	79.983	19.992	100.024	19.944	0.985	0.048
28.000	112.538	79.984	19.993	100.025	19.949	0.664	0.041
28.500	112.586	79.984	19.994	100.027	19.950	0.560	0.033
29.000	112.610	79.982	19.993	100.031	19.944	0.990	0.056
29.500	112.603	79.982	19.991	100.032	19.947	0.783	0.045
30.000	112.615	79.983	19.993	100.031	19.941	1.168	0.011
30.500	112.618	79.982	19.991	100.029	19.948	0.683	0.010
31.000	112.661	79.982	19.992	100.028	19.944	1.008	0.031
31.500	112.663	79.983	19.992	100.026	19.947	0.804	0.046
32.001	112.706	79.983	19.992	100.026	19.940	1.289	0.045
32.500	112.738	79.982	19.993	100.027	19.947	0.810	0.060
33.000	112.760	79.982	19.993	100.036	19.943	1.038	0.064
33.500	112.787	79.982	19.993	100.043	19.945	0.915	0.051
34.000	112.811	79.981	19.993	100.049	19.947	0.747	0.050
34.500	112.847	79.982	19.993	100.056	19.940	1.244	0.055
35.000	112.881	79.983	19.993	100.061	19.938	1.408	0.065
35.501	112.933	79.980	19.992	100.059	19.942	1.134	0.078
36.001	112.934	79.983	19.994	100.055	19.937	1.476	0.070
36.501	112.979	79.982	19.993	100.056	19.942	1.132	0.049
37.001	112.999	79.981	19.994	100.058	19.936	1.521	0.056
37.501	113.069	79.983	19.994	100.060	19.941	1.193	0.078
38.001	113.083	79.983	19.994	100.062	19.931	1.929	0.087
38.501	113.135	79.982	19.993	100.065	19.937	1.446	0.075
39.001	113.165	79.982	19.993	100.067	19.945	0.910	0.074
39.501	113.235	79.982	19.992	100.074	19.938	1.410	0.092
40.001	113.255	79.983	19.993	100.082	19.935	1.652	0.095
40.500	113.357	79.982	19.993	100.089	19.933	1.784	0.106
41.001	113.387	79.982	19.994	100.096	19.934	1.678	0.127
41.501	113.473	79.983	19.993	100.103	19.936	1.552	0.124
42.000	113.458	79.983	19.994	100.103	19.934	1.671	0.094
42.501	113.523	79.984	19.994	100.106	19.931	1.886	0.060
43.001	113.547	79.984	19.993	100.112	19.932	1.814	0.069
43.501	113.659	79.982	19.994	100.113	19.930	1.953	0.112
44.001	113.711	79.981	19.992	100.113	19.931	1.899	0.150
44.500	113.748	79.983	19.993	100.114	19.932	1.835	0.127
45.000	113.810	79.983	19.994	100.118	19.931	1.899	0.094
45.500	113.909	79.986	19.994	100.117	19.929	2.061	0.130
46.000	113.970	79.985	19.993	100.119	19.931	1.867	0.160
46.501	114.019	79.984	19.993	100.123	19.929	2.052	0.135
47.001	114.077	79.982	19.992	100.128	19.930	1.990	0.109
47.501	114.144	79.986	19.993	100.127	19.922	2.535	0.116
48.001	114.201	79.985	19.994	100.126	19.931	1.905	0.124
48.500	114.304	79.984	19.992	100.126	19.927	2.165	0.142
49.000	114.363	79.984	19.993	100.130	19.925	2.352	0.161
49.500	114.425	79.984	19.993	100.132	19.926	2.222	0.142
50.000	114.535	79.983	19.991	100.133	19.926	2.260	0.147
50.500	114.593	79.984	19.992	100.137	19.923	2.488	0.170
51.000	114.665	79.983	19.991	100.142	19.925	2.335	0.149
51.500	114.738	79.983	19.993	100.143	19.926	2.224	0.138
52.001	114.814	79.983	19.991	100.144	19.921	2.571	0.147
52.501	114.926	79.983	19.992	100.141	19.922	2.533	0.169
53.000	115.005	79.982	19.991	100.136	19.924	2.364	0.190
53.500	115.111	79.983	19.991	100.129	19.926	2.252	0.188
54.000	115.178	79.981	19.990	100.124	19.924	2.386	0.179
54.500	115.238	79.983	19.992	100.120	19.925	2.356	0.150
55.001	115.355	79.982	19.991	100.122	19.920	2.669	0.153
55.501	115.400	79.983	19.992	100.124	19.924	2.367	0.170
56.001	115.555	79.983	19.992	100.132	19.924	2.418	0.181
56.501	115.622	79.983	19.993	100.136	19.923	2.437	0.211
57.000	115.716	79.984	19.992	100.140	19.923	2.454	0.191
57.500	115.809	79.983	19.990	100.143	19.923	2.492	0.174
58.000	115.892	79.982	19.992	100.146	19.919	2.756	0.182
58.501	116.031	79.983	19.992	100.147	19.924	2.388	0.199
59.001	116.114	79.982	19.992	100.148	19.921	2.628	0.222
59.501	116.229	79.982	19.991	100.146	19.922	2.499	0.210
60.001	116.312	79.983	19.992	100.143	19.924	2.401	0.198
60.501	116.422	79.982	19.992	100.144	19.923	2.452	0.196
61.000	116.544	79.981	19.991	100.143	19.922	2.528	0.213
61.500	116.656	79.982	19.990	100.142	19.925	2.328	0.233
62.000	116.746	79.982	19.991	100.144	19.922	2.528	0.218
62.500	116.838	79.982	19.993	100.148	19.920	2.696	0.192
63.000	116.950	79.980	19.991	100.147	19.921	2.615	0.193
63.501	117.046	79.981	19.991	100.147	19.921	2.605	0.206
64.001	117.180	79.982	19.992	100.147	19.915	2.996	0.219
64.500	117.277	79.981	19.992	100.147	19.918	2.820	0.230
65.000	117.394	79.984	19.992	100.147	19.923	2.449	0.223
65.500	117.569	79.981	19.992	100.147	19.918	2.841	0.253
66.001	117.626	79.983	19.993	100.148	19.920	2.675	0.262
66.501	117.740	79.981	19.992	100.148	19.924	2.364	0.201
67.000	117.864	79.982	19.992	100.149	19.919	2.709	0.204
67.501	118.006	79.983	19.993	100.149	19.919	2.717	0.252
68.001	118.134	79.981	19.990	100.149	19.922	2.566	0.268
68.500	118.267	79.982	19.991	100.149	19.919	2.775	0.265
69.000	118.368	79.982	19.991	100.147	19.922	2.533	0.248
69.500	118.530	79.983	19.991	100.147	19.919	2.722	0.249
70.001	118.645	79.984	19.991	100.146	19.919	2.730	0.270
70.501	118.698	79.982	19.991	100.144	19.924	2.403	0.223
71.000	118.863	79.983	19.992	100.140	19.919	2.763	0.193
71.500	118.994	79.984	19.992	100.140	19.925	2.341	0.257
72.000	119.118	79.982	19.991	100.140	19.921	2.603	0.275
72.500	119.220	79.982	19.989	100.141	19.919	2.733	0.241
73.000	119.361	79.984	19.993	100.141	19.919	2.724	0.235
73.500	119.475	79.984	19.991	100.146	19.917	2.862	0.249
74.000	119.639	79.983	19.992	100.148	19.924	2.407	0.267
74.500	119.785	79.983	19.992	100.148	19.923	2.492	0.294
75.001	119.878	79.984	19.993	100.149	19.917	2.875	0.274
75.501	120.010	79.983	19.991	100.150	19.918	2.843	0.232
76.000	120.169	79.984	19.992	100.149	19.919	2.749	0.259
76.500	120.276	79.986	19.991	100.149	19.919	2.728	0.279
77.000	120.417	79.985	19.991	100.149	19.921	2.633	0.256
77.500	120.537	79.983	19.991	100.148	19.921	2.567	0.254
78.000	120.687	79.984	19.992	100.147	19.924	2.397	0.265
78.500	120.825	79.985	19.991	100.147	19.918	2.799	0.279
79.000	120.985	79.984	19.991	100.146	19.919	2.711	0.293
79.500	121.135	79.984	19.991	100.146	19.919	2.764	0.305
80.000	121.291	79.984	19.992	100.146	19.918	2.837	0.308
80.500	121.398	79.984	19.991	100.146	19.921	2.630	0.284
81.000	121.526	79.983	19.991	100.144	19.919	2.735	0.249
81.500	121.701	79.984	19.992	100.141	19.918	2.790	0.269
82.001	121.809	79.985	19.992	100.137	19.917	2.888	0.293
82.501	121.983	79.983	19.991	100.134	19.922	2.520	0.283
83.000	122.123	79.985	19.993	100.132	19.916	2.930	0.298
83.500	122.261	79.984	19.991	100.133	19.922	2.520	0.296
84.001	122.419	79.985	19.992	100.134	19.921	2.587	0.288
84.501	122.550	79.984	19.991	100.139	19.916	2.949	0.293
85.000	122.705	79.984	19.991	100.142	19.926	2.256	0.287
85.500	122.889	79.984	19.991	100.143	19.918	2.830	0.313
86.000	122.978	79.985	19.991	100.143	19.918	2.800	0.306
86.500	123.096	79.985	19.992	100.142	19.923	2.458	0.240
87.000	123.273	79.984	19.992	100.142	19.926	2.273	0.251
87.500	123.414	79.984	19.991	100.143	19.919	2.757	0.307
88.000	123.568	79.984	19.992	100.142	19.928	2.124	0.306
88.500	123.723	79.984	19.990	100.142	19.925	2.334	0.302
89.000	123.891	79.984	19.990	100.143	19.922	2.566	0.316
89.500	124.019	79.985	19.992	100.143	19.920	2.702	0.310
90.000	124.144	79.985	19.992	100.142	19.915	3.016	0.275
90.500	124.312	79.985	19.992	100.143	19.919	2.748	0.273
91.000	124.479	79.984	19.991	100.143	19.914	3.076	0.314
91.500	124.625	79.984	19.991	100.142	19.916	2.978	0.323
92.000	124.764	79.986	19.992	100.143	19.919	2.715	0.299
92.500	124.938	79.984	19.990	100.144	19.920	2.702	0.299
93.000	125.090	79.985	19.992	100.147	19.917	2.865	0.319
93.500	125.239	79.985	19.991	100.148	19.920	2.689	0.313
94.000	125.406	79.982	19.990	100.149	19.920	2.642	0.308
94.500	125.572	79.984	19.991	100.151	19.919	2.761	0.325
95.000	125.714	79.985	19.990	100.157	19.921	2.632	0.321
95.500	125.865	79.985	19.992	100.158	19.916	2.952	0.301
96.000	126.024	79.985	19.991	100.158	19.914	3.067	0.302
96.500	126.166	79.986	19.992	100.160	19.914	3.125	0.305
97.000	126.347	79.987	19.991	100.161	19.918	2.814	0.312
97.500	126.481	79.986	19.992	100.158	19.917	2.899	0.319
98.000	126.642	79.986	19.991	100.158	19.917	2.867	0.305
98.501	126.807	79.986	19.991	100.163	19.915	2.995	0.311
99.001	126.987	79.988	19.996	100.163	19.915	3.031	0.335
99.500	127.130	79.986	19.993	100.164	19.922	2.561	0.334
100.000	127.324	79.986	19.993	100.168	19.913	3.141	0.330
100.501	127.474	79.986	19.993	100.170	19.913	3.182	0.341
101.001	127.706	79.987	19.993	100.170	19.918	2.848	0.363
101.500	127.838	79.985	19.992	100.175	19.917	2.855	0.373
102.000	128.039	79.985	19.992	100.172	19.917	2.887	0.348
102.500	128.226	79.985	19.994	100.171	19.912	3.221	0.360
103.001	128.386	79.985	19.993	100.172	19.917	2.878	0.367
103.501	128.573	79.984	19.992	100.173	19.915	3.016	0.347
104.000	128.700	79.986	19.993	100.175	19.911	3.305	0.330
104.500	128.871	79.986	19.993	100.179	19.907	3.594	0.306
105.000	129.066	79.984	19.992	100.181	19.911	3.305	0.332
105.500	129.224	79.984	19.993	100.178	19.910	3.356	0.359
106.000	129.433	79.984	19.994	100.178	19.910	3.375	0.360
106.500	129.587	79.983	19.992	100.178	19.904	3.788	0.365
107.000	129.729	79.984	19.992	100.178	19.914	3.127	0.329
107.500	129.916	79.985	19.994	100.178	19.908	3.515	0.312
108.000	130.101	79.984	19.993	100.181	19.907	3.581	0.351
108.500	130.326	79.983	19.992	100.181	19.908	3.486	0.391
109.000	130.482	79.983	19.993	100.182	19.912	3.222	0.395
109.500	130.677	79.983	19.993	100.183	19.913	3.197	0.366
110.000	130.838	79.982	19.993	100.183	19.909	3.469	0.353
110.500	131.032	79.983	19.992	100.183	19.915	3.029	0.356
111.000	131.220	79.983	19.993	100.182	19.909	3.456	0.369
111.500	131.409	79.984	19.993	100.183	19.911	3.282	0.380
112.000	131.550	79.983	19.994	100.183	19.910	3.339	0.354
112.500	131.757	79.982	19.994	100.182	19.914	3.112	0.339
113.000	131.963	79.984	19.993	100.177	19.915	3.022	0.380
113.500	132.135	79.983	19.994	100.175	19.911	3.324	0.395
114.000	132.329	79.984	19.992	100.175	19.906	3.633	0.372
114.500	132.520	79.981	19.992	100.175	19.914	3.127	0.376
115.001	132.678	79.985	19.993	100.177	19.916	2.978	0.368
115.501	132.902	79.984	19.993	100.182	19.912	3.244	0.365
116.000	133.058	79.984	19.993	100.185	19.911	3.318	0.381
116.500	133.275	79.981	19.992	100.186	19.907	3.609	0.377
117.000	133.467	79.983	19.994	100.186	19.909	3.458	0.391
117.500	133.658	79.982	19.994	100.184	19.910	3.354	0.396
118.000	133.831	79.983	19.993	100.185	19.904	3.785	0.374
118.500	134.019	79.983	19.992	100.184	19.908	3.517	0.363
119.000	134.240	79.982	19.992	100.183	19.915	3.037	0.385
119.500	134.413	79.982	19.993	100.183	19.911	3.297	0.402
120.001	134.609	79.982	19.993	100.185	19.912	3.205	0.382
120.501	134.830	79.982	19.992	100.185	19.906	3.656	0.394
121.000	134.999	79.981	19.992	100.185	19.907	3.586	0.403
121.500	135.214	79.982	19.991	100.186	19.909	3.473	0.387
122.000	135.413	79.985	19.992	100.187	19.908	3.480	0.399
122.500	135.603	79.982	19.993	100.187	19.907	3.579	0.402
123.001	135.790	79.982	19.993	100.187	19.911	3.314	0.383
123.501	136.013	79.982	19.992	100.187	19.908	3.503	0.393
124.000	136.197	79.982	19.993	100.186	19.907	3.609	0.408
124.500	136.393	79.984	19.995	100.185	19.910	3.377	0.394
125.000	136.610	79.981	19.992	100.182	19.915	2.997	0.397
125.500	136.845	79.983	19.993	100.182	19.909	3.420	0.433
126.000	137.021	79.982	19.993	100.182	19.907	3.586	0.431
126.501	137.269	79.984	19.993	100.182	19.908	3.543	0.417
127.001	137.441	79.983	19.993	100.183	19.907	3.581	0.422
127.500	137.616	79.984	19.994	100.186	19.911	3.331	0.384
128.000	137.842	79.983	19.994	100.187	19.910	3.363	0.374
128.500	138.081	79.983	19.993	100.187	19.911	3.324	0.433
129.000	138.296	79.982	19.994	100.187	19.906	3.656	0.460
129.500	138.440	79.983	19.993	100.187	19.911	3.301	0.406
130.000	138.684	79.982	19.994	100.187	19.907	3.558	0.373
130.500	138.852	79.982	19.993	100.185	19.906	3.677	0.400
131.000	139.068	79.982	19.992	100.183	19.908	3.539	0.398
131.500	139.279	79.983	19.994	100.182	19.905	3.749	0.406
132.000	139.477	79.981	19.995	100.182	19.904	3.783	0.419
132.500	139.712	79.982	19.994	100.182	19.912	3.245	0.421
133.000	139.950	79.983	19.993	100.182	19.905	3.717	0.453
133.500	140.143	79.983	19.994	100.184	19.904	3.781	0.452
134.000	140.360	79.982	19.994	100.187	19.906	3.628	0.420
134.500	140.563	79.983	19.992	100.187	19.907	3.617	0.415
135.000	140.803	79.982	19.993	100.187	19.906	3.624	0.432
135.500	140.988	79.982	19.992	100.188	19.905	3.754	0.434
136.000	141.208	79.983	19.993	100.188	19.911	3.311	0.415
136.500	141.378	79.981	19.992	100.188	19.901	4.022	0.398
137.000	141.589	79.982	19.991	100.187	19.908	3.526	0.386
137.500	141.826	79.982	19.992	100.187	19.913	3.180	0.415
138.000	142.062	79.981	19.992	100.187	19.912	3.239	0.461
138.500	142.259	79.982	19.992	100.186	19.910	3.399	0.453
139.000	142.479	79.982	19.993	100.186	19.898	4.206	0.425
139.500	142.716	79.982	19.993	100.187	19.901	4.000	0.437
140.000	142.945	79.980	19.992	100.187	19.904	3.798	0.462
140.500	143.192	79.982	19.991	100.186	19.909	3.479	0.471
141.000	143.384	79.982	19.991	100.186	19.900	4.074	0.457
141.500	143.577	79.983	19.992	100.186	19.909	3.416	0.412
142.000	143.832	79.983	19.993	100.186	19.904	3.819	0.416
142.500	144.034	79.983	19.992	100.186	19.910	3.352	0.452
143.000	144.288	79.983	19.991	100.187	19.904	3.766	0.457
143.500	144.459	79.983	19.991	100.187	19.908	3.528	0.441
144.000	144.679	79.985	19.993	100.188	19.909	3.462	0.408
144.500	144.903	79.982	19.991	100.189	19.909	3.446	0.418
145.000	145.148	79.984	19.993	100.189	19.906	3.675	0.457
145.500	145.355	79.983	19.991	100.189	19.903	3.875	0.461
146.000	145.554	79.984	19.991	100.188	19.907	3.567	0.429
146.500	145.781	79.984	19.993	100.188	19.905	3.709	0.416
147.000	146.027	79.984	19.992	100.186	19.907	3.579	0.449
147.500	146.246	79.983	19.992	100.180	19.903	3.890	0.469
148.000	146.497	79.982	19.993	100.178	19.906	3.671	0.467
148.500	146.732	79.986	19.993	100.178	19.904	3.798	0.478
149.001	146.921	79.983	19.992	100.178	19.899	4.155	0.455
149.501	147.149	79.982	19.993	100.177	19.900	4.075	0.421
150.001	147.372	79.985	19.993	100.183	19.906	3.635	0.434
150.501	147.548	79.983	19.992	100.184	19.907	3.601	0.425
151.001	147.832	79.984	19.992	100.185	19.905	3.696	0.430
151.500	148.066	79.984	19.993	100.185	19.906	3.635	0.489
152.000	148.272	79.985	19.992	100.186	19.901	4.003	0.479
152.500	148.526	79.984	19.992	100.187	19.903	3.869	0.450
153.000	148.742	79.984	19.991	100.186	19.908	3.497	0.465
153.500	149.026	79.984	19.991	100.186	19.904	3.771	0.485
154.000	149.258	79.983	19.992	100.185	19.903	3.862	0.508
154.500	149.456	79.984	19.991	100.184	19.909	3.471	0.473
155.000	149.700	79.984	19.992	100.183	19.903	3.851	0.436
155.500	149.906	79.984	19.992	100.183	19.903	3.887	0.446
156.000	150.128	79.985	19.992	100.183	19.900	4.043	0.439
156.500	150.376	79.985	19.992	100.183	19.900	4.055	0.449
157.000	150.597	79.984	19.992	100.183	19.904	3.768	0.469
157.500	150.838	79.983	19.992	100.183	19.908	3.514	0.465
158.000	151.049	79.985	19.993	100.181	19.911	3.320	0.457
158.500	151.315	79.986	19.992	100.181	19.901	4.015	0.465
159.000	151.522	79.985	19.991	100.182	19.905	3.711	0.475
159.500	151.751	79.985	19.992	100.181	19.903	3.888	0.454
160.000	151.966	79.984	19.992	100.179	19.897	4.276	0.440
160.500	152.241	79.983	19.991	100.181	19.907	3.584	0.467
161.000	152.427	79.985	19.992	100.179	19.904	3.769	0.476
161.500	152.639	79.985	19.993	100.178	19.907	3.607	0.429
162.000	152.913	79.985	19.993	100.178	19.908	3.503	0.442
162.500	153.134	79.985	19.992	100.180	19.905	3.743	0.491
163.000	153.364	79.985	19.991	100.181	19.908	3.490	0.473
163.500	153.581	79.984	19.991	100.181	19.908	3.545	0.449
164.000	153.880	79.986	19.993	100.181	19.905	3.690	0.482
164.500	154.067	79.985	19.992	100.182	19.906	3.624	0.501
165.000	154.289	79.983	19.992	100.182	19.904	3.800	0.448
165.500	154.559	79.984	19.992	100.182	19.906	3.633	0.450
166.000	154.810	79.983	19.991	100.183	19.906	3.686	0.506
166.500	154.997	79.984	19.991	100.184	19.902	3.968	0.479
167.000	155.277	79.983	19.992	100.184	19.899	4.138	0.452
167.500	155.509	79.985	19.992	100.183	19.903	3.843	0.490
168.000	155.723	79.985	19.993	100.184	19.903	3.885	0.479
168.500	155.988	79.984	19.994	100.183	19.901	3.998	0.462
169.000	156.191	79.984	19.991	100.183	19.902	3.930	0.473
169.500	156.420	79.984	19.991	100.184	19.907	3.609	0.450
170.000	156.684	79.985	19.993	100.184	19.904	3.826	0.462
170.500	156.912	79.984	19.992	100.184	19.903	3.892	0.493
171.000	157.188	79.984	19.991	100.184	19.906	3.629	0.498
171.500	157.427	79.984	19.991	100.184	19.902	3.960	0.509
172.000	157.657	79.986	19.992	100.184	19.904	3.760	0.492
172.500	157.886	79.985	19.992	100.184	19.902	3.941	0.464
173.000	158.119	79.985	19.992	100.183	19.903	3.858	0.461
173.500	158.357	79.985	19.992	100.183	19.901	3.998	0.467
174.000	158.580	79.984	19.991	100.183	19.905	3.749	0.466
174.501	158.847	79.985	19.992	100.183	19.902	3.966	0.476
175.000	159.091	79.986	19.993	100.183	19.905	3.752	0.500
175.500	159.304	79.985	19.992	100.184	19.910	3.405	0.484
176.000	159.546	79.985	19.991	100.183	19.906	3.626	0.456
176.500	159.819	79.985	19.992	100.183	19.899	4.128	0.485
177.000	160.047	79.987	19.992	100.183	19.906	3.648	0.508
177.500	160.300	79.984	19.991	100.182	19.904	3.790	0.492
178.000	160.541	79.986	19.991	100.181	19.907	3.550	0.487
178.500	160.786	79.986	19.992	100.182	19.906	3.654	0.490
179.000	161.031	79.985	19.991	100.183	19.904	3.762	0.488
179.500	161.266	79.985	19.991	100.183	19.904	3.826	0.485
180.000	161.514	79.984	19.991	100.181	19.903	3.832	0.481
180.500	161.741	79.985	19.991	100.181	19.906	3.688	0.479
181.000	161.958	79.984	19.992	100.179	19.905	3.705	0.459
181.500	162.200	79.986	19.991	100.176	19.901	3.988	0.451
182.000	162.456	79.985	19.992	100.175	19.901	4.030	0.478
182.500	162.743	79.984	19.991	100.176	19.904	3.764	0.521
183.000	162.948	79.983	19.991	100.174	19.906	3.650	0.518
183.500	163.182	79.986	19.992	100.176	19.902	3.930	0.466
184.000	163.455	79.984	19.992	100.178	19.900	4.081	0.473
184.500	163.721	79.985	19.992	100.180	19.903	3.882	0.522
185.001	163.945	79.985	19.992	100.180	19.901	3.975	0.514
185.500	164.211	79.985	19.991	100.179	19.902	3.913	0.491
186.000	164.440	79.985	19.992	100.177	19.908	3.533	0.493
186.500	164.697	79.984	19.991	100.176	19.904	3.809	0.490
187.000	164.932	79.983	19.991	100.175	19.898	4.241	0.489
187.500	165.211	79.986	19.992	100.176	19.904	3.807	0.503
188.000	165.415	79.984	19.992	100.179	19.906	3.666	0.499
188.500	165.681	79.984	19.992	100.180	19.897	4.294	0.476
189.000	165.943	79.985	19.992	100.180	19.908	3.509	0.499
189.500	166.173	79.984	19.993	100.180	19.899	4.139	0.510
190.000	166.399	79.983	19.993	100.182	19.905	3.733	0.474
190.500	166.679	79.983	19.993	100.181	19.898	4.203	0.481
191.000	166.912	79.982	19.993	100.180	19.898	4.243	0.510
191.500	167.189	79.983	19.993	100.179	19.904	3.805	0.512
192.000	167.411	79.983	19.993	100.178	19.903	3.848	0.504
192.500	167.643	79.983	19.993	100.176	19.907	3.563	0.476
193.000	167.904	79.983	19.992	100.177	19.902	3.920	0.474
193.500	168.143	79.985	19.993	100.180	19.899	4.155	0.497
194.000	168.372	79.983	19.992	100.182	19.902	3.912	0.484
194.500	168.644	79.982	19.992	100.183	19.904	3.778	0.484
195.000	168.901	79.983	19.993	100.180	19.901	3.991	0.515
195.500	169.118	79.983	19.993	100.176	19.904	3.795	0.502
196.000	169.353	79.984	19.993	100.174	19.902	3.914	0.463
196.500	169.632	79.983	19.992	100.173	19.898	4.196	0.483
197.000	169.874	79.983	19.993	100.172	19.897	4.256	0.517
197.500	170.099	79.982	19.993	100.177	19.902	3.924	0.494
198.000	170.364	79.982	19.991	100.180	19.901	3.969	0.478
198.500	170.643	79.983	19.992	100.180	19.898	4.204	0.517
199.000	170.860	79.984	19.993	100.182	19.907	3.613	0.520
199.500	171.114	79.983	19.993	100.184	19.903	3.874	0.484
200.000	171.409	79.984	19.992	100.180	19.901	3.981	0.510
200.500	171.592	79.981	19.992	100.177	19.903	3.878	0.514
201.000	171.869	79.983	19.992	100.175	19.901	3.972	0.469
201.500	172.140	79.983	19.992	100.171	19.903	3.829	0.504
202.000	172.392	79.985	19.992	100.167	19.904	3.783	0.535
202.500	172.631	79.983	19.992	100.165	19.896	4.385	0.507
203.000	172.889	79.985	19.992	100.163	19.898	4.193	0.494
203.500	173.116	79.984	19.992	100.163	19.899	4.133	0.491
204.000	173.390	79.984	19.993	100.158	19.900	4.050	0.493
204.500	173.622	79.983	19.991	100.156	19.900	4.084	0.503
205.000	173.880	79.983	19.991	100.161	19.904	3.793	0.498
205.500	174.124	79.984	19.993	100.164	19.901	4.001	0.496
206.000	174.371	79.983	19.992	100.163	19.900	4.048	0.496
206.500	174.656	79.984	19.994	100.167	19.899	4.118	0.512
207.000	174.866	79.983	19.991	100.172	19.900	4.051	0.514
207.500	175.129	79.984	19.993	100.169	19.902	3.940	0.484
208.000	175.387	79.983	19.992	100.167	19.898	4.229	0.497
208.500	175.670	79.983	19.992	100.164	19.899	4.127	0.531
209.000	175.889	79.984	19.993	100.160	19.903	3.895	0.522
209.500	176.119	79.984	19.993	100.154	19.901	3.981	0.476
210.000	176.402	79.984	19.991	100.150	19.896	4.349	0.481
210.500	176.649	79.984	19.993	100.148	19.899	4.159	0.521
211.000	176.862	79.985	19.992	100.147	19.903	3.840	0.495
211.500	177.124	79.983	19.993	100.148	19.903	3.840	0.467
212.000	177.394	79.984	19.993	100.148	19.899	4.127	0.503
212.500	177.669	79.983	19.994	100.148	19.897	4.297	0.539
213.000	177.865	79.984	19.993	100.148	19.902	3.904	0.508
213.501	178.132	79.982	19.993	100.148	19.900	4.097	0.467
214.000	178.408	79.983	19.992	100.150	19.899	4.149	0.503
214.500	178.690	79.984	19.994	100.154	19.898	4.223	0.550
215.000	178.905	79.984	19.994	100.155	19.899	4.131	0.527
215.500	179.171	79.983	19.993	100.157	19.899	4.170	0.489
216.000	179.404	79.983	19.993	100.158	19.896	4.340	0.491
216.500	179.709	79.982	19.993	100.158	19.899	4.151	0.519
217.000	179.953	79.981	19.993	100.155	19.892	4.599	0.543
217.500	180.197	79.983	19.993	100.154	19.900	4.108	0.519
218.000	180.452	79.984	19.993	100.152	19.897	4.280	0.494
218.500	180.728	79.981	19.992	100.153	19.902	3.955	0.515
219.000	180.914	79.983	19.994	100.150	19.897	4.270	0.496
219.500	181.169	79.982	19.994	100.149	19.896	4.380	0.451
220.000	181.433	79.983	19.994	100.149	19.892	4.601	0.480
220.500	181.714	79.982	19.993	100.148	19.895	4.404	0.532
221.000	181.959	79.982	19.993	100.145	19.893	4.542	0.536
221.500	182.212	79.981	19.992	100.145	19.895	4.395	0.512
222.000	182.477	79.982	19.992	100.145	19.895	4.408	0.508
222.500	182.742	79.982	19.994	100.144	19.898	4.215	0.524
223.000	182.988	79.982	19.993	100.144	19.894	4.476	0.520
223.500	183.213	79.983	19.992	100.145	19.890	4.785	0.491
224.000	183.483	79.982	19.994	100.145	19.895	4.414	0.483
224.500	183.723	79.982	19.993	100.146	19.891	4.725	0.502
225.000	183.913	79.982	19.994	100.147	19.894	4.521	0.470
225.500	184.188	79.984	19.993	100.147	19.891	4.710	0.448
226.000	184.474	79.982	19.995	100.147	19.893	4.595	0.513
226.500	184.727	79.983	19.993	100.147	19.893	4.587	0.550
227.000	184.972	79.982	19.994	100.146	19.895	4.414	0.518
227.500	185.215	79.984	19.994	100.146	19.889	4.827	0.493
228.000	185.501	79.983	19.993	100.148	19.892	4.629	0.509
228.500	185.773	79.983	19.993	100.148	19.896	4.372	0.544
229.000	185.990	79.983	19.992	100.148	19.891	4.731	0.523
229.500	186.272	79.983	19.992	100.149	19.886	5.033	0.494
230.000	186.511	79.984	19.993	100.148	19.891	4.725	0.510
230.500	186.756	79.984	19.991	100.147	19.893	4.597	0.502
231.000	186.988	79.984	19.992	100.146	19.895	4.449	0.481
231.500	187.285	79.983	19.992	100.146	19.893	4.536	0.503
232.000	187.560	79.983	19.992	100.146	19.892	4.663	0.550
232.500	187.772	79.984	19.993	100.146	19.894	4.489	0.529
233.000	188.019	79.985	19.992	100.145	19.896	4.372	0.473
233.500	188.295	79.985	19.992	100.145	19.896	4.334	0.491
234.000	188.500	79.985	19.992	100.145	19.898	4.219	0.502
234.500	188.751	79.984	19.992	100.145	19.892	4.646	0.468
235.000	188.973	79.985	19.991	100.145	19.888	4.886	0.464
235.500	189.234	79.984	19.992	100.144	19.895	4.438	0.478
236.000	189.492	79.984	19.991	100.144	19.895	4.421	0.501
236.500	189.738	79.985	19.992	100.144	19.892	4.616	0.512
237.000	189.994	79.985	19.992	100.144	19.896	4.355	0.503
237.500	190.225	79.987	19.992	100.144	19.894	4.523	0.495
238.000	190.518	79.985	19.993	100.145	19.894	4.523	0.506
238.500	190.755	79.985	19.991	100.145	19.893	4.580	0.527
239.000	191.007	79.985	19.991	100.146	19.894	4.516	0.509
239.500	191.249	79.985	19.991	100.145	19.893	4.540	0.491
240.000	191.508	79.985	19.990	100.144	19.892	4.663	0.497
240.500	191.749	79.985	19.990	100.143	19.891	4.733	0.500
241.000	191.966	79.985	19.991	100.143	19.890	4.746	0.479
241.500	192.270	79.985	19.990	100.143	19.888	4.908	0.490
242.000	192.487	79.983	19.992	100.143	19.891	4.708	0.521
242.500	192.718	79.985	19.992	100.144	19.894	4.482	0.484
243.000	192.953	79.985	19.991	100.144	19.890	4.803	0.456
243.500	193.277	79.982	19.991	100.145	19.894	4.476	0.512
244.000	193.500	79.984	19.992	100.144	19.892	4.610	0.553
244.500	193.789	79.984	19.992	100.145	19.887	4.993	0.530
245.000	194.039	79.983	19.992	100.146	19.892	4.610	0.525
245.500	194.285	79.983	19.992	100.146	19.891	4.670	0.517
246.000	194.539	79.984	19.992	100.146	19.888	4.940	0.498
246.500	194.746	79.983	19.991	100.147	19.890	4.750	0.481
247.000	195.016	79.985	19.993	100.146	19.889	4.857	0.469
247.500	195.271	79.984	19.992	100.147	19.890	4.761	0.501
248.000	195.498	79.982	19.992	100.147	19.890	4.753	0.503
248.500	195.750	79.983	19.992	100.147	19.891	4.714	0.481
249.000	195.971	79.983	19.992	100.146	19.890	4.782	0.476
249.501	196.253	79.982	19.992	100.146	19.885	5.140	0.488
250.000	196.503	79.983	19.992	100.145	19.887	5.016	0.517
250.500	196.746	79.983	19.992	100.144	19.891	4.738	0.512
251.000	197.026	79.983	19.993	100.143	19.893	4.561	0.508
251.500	197.263	79.983	19.993	100.145	19.890	4.755	0.520
252.000	197.477	79.984	19.991	100.145	19.889	4.829	0.484
252.500	197.728	79.984	19.992	100.145	19.887	4.978	0.458
253.000	198.002	79.984	19.992	100.146	19.889	4.846	0.495
253.500	198.294	79.983	19.991	100.147	19.888	4.940	0.545
254.000	198.527	79.985	19.992	100.146	19.887	4.974	0.545
254.500	198.730	79.984	19.992	100.146	19.888	4.938	0.480
255.000	198.988	79.984	19.991	100.143	19.887	4.997	0.449
255.500	199.247	79.985	19.992	100.140	19.888	4.942	0.489
256.000	199.520	79.984	19.991	100.139	19.894	4.464	0.525
256.500	199.742	79.984	19.992	100.138	19.888	4.946	0.513
257.000	199.994	79.985	19.993	100.138	19.888	4.899	0.485
257.500	200.244	79.986	19.993	100.143	19.887	4.965	0.488
258.000	200.481	79.985	19.991	100.145	19.887	4.995	0.494
258.500	200.758	79.985	19.991	100.145	19.888	4.927	0.500
259.000	201.012	79.985	19.991	100.145	19.887	4.965	0.522
259.500	201.248	79.986	19.992	100.145	19.892	4.642	0.511
260.000	201.489	79.985	19.990	100.145	19.885	5.137	0.484
260.500	201.732	79.986	19.991	100.146	19.886	5.050	0.481
261.000	202.014	79.986	19.991	100.146	19.887	4.978	0.505
261.500	202.261	79.986	19.991	100.147	19.888	4.904	0.527
262.000	202.498	79.986	19.992	100.147	19.884	5.199	0.506
262.500	202.766	79.986	19.991	100.147	19.885	5.133	0.494
263.000	203.036	79.986	19.990	100.147	19.889	4.870	0.521
263.500	203.269	79.987	19.991	100.147	19.890	4.806	0.521
264.000	203.514	79.986	19.992	100.146	19.886	5.078	0.491
264.500	203.765	79.987	19.992	100.145	19.886	5.082	0.487
265.000	204.022	79.986	19.992	100.145	19.882	5.308	0.502
265.500	204.275	79.985	19.992	100.140	19.884	5.161	0.509
266.000	204.549	79.983	19.990	100.138	19.887	4.997	0.518
266.500	204.787	79.986	19.991	100.139	19.887	4.997	0.520
267.000	205.059	79.984	19.991	100.139	19.884	5.187	0.511
267.500	205.295	79.984	19.990	100.139	19.881	5.383	0.509
268.000	205.544	79.986	19.991	100.145	19.883	5.291	0.497
268.500	205.769	79.984	19.992	100.146	19.889	4.810	0.480
269.000	206.024	79.985	19.991	100.146	19.882	5.308	0.477
269.500	206.291	79.984	19.990	100.147	19.889	4.819	0.501
270.000	206.537	79.983	19.992	100.147	19.887	4.980	0.517
270.500	206.789	79.984	19.991	100.146	19.885	5.089	0.506
271.000	207.085	79.982	19.991	100.145	19.882	5.331	0.523
271.500	207.272	79.983	19.991	100.145	19.885	5.130	0.515
272.000	207.541	79.983	19.992	100.145	19.883	5.240	0.469
272.500	207.821	79.983	19.991	100.145	19.886	5.083	0.502
273.000	208.041	79.982	19.992	100.144	19.888	4.902	0.524
273.500	208.274	79.984	19.992	100.142	19.881	5.377	0.477
274.000	208.544	79.982	19.992	100.142	19.884	5.194	0.478
274.500	208.740	79.981	19.992	100.141	19.885	5.111	0.484
275.000	209.001	79.983	19.991	100.141	19.888	4.945	0.461
275.500	209.279	79.983	19.991	100.142	19.884	5.223	0.498
276.000	209.521	79.982	19.992	100.145	19.885	5.132	0.529
276.500	209.750	79.983	19.993	100.146	19.884	5.189	0.496
277.000	210.023	79.982	19.993	100.144	19.883	5.229	0.487
277.500	210.274	79.982	19.993	100.141	19.883	5.257	0.513
278.000	210.527	79.983	19.993	100.140	19.882	5.302	0.514
278.500	210.769	79.984	19.993	100.134	19.885	5.153	0.499
279.000	211.006	79.985	19.992	100.133	19.883	5.259	0.486
279.500	211.259	79.983	19.992	100.134	19.883	5.242	0.485
280.000	211.515	79.981	19.993	100.135	19.885	5.094	0.500
280.500	211.788	79.984	19.993	100.136	19.886	5.070	0.519
281.000	212.023	79.982	19.992	100.139	19.880	5.492	0.519
281.500	212.258	79.983	19.992	100.139	19.883	5.235	0.489
282.000	212.496	79.984	19.992	100.137	19.883	5.286	0.472
282.500	212.735	79.982	19.992	100.133	19.885	5.133	0.475
283.000	212.984	79.982	19.993	100.129	19.880	5.488	0.482
283.500	213.247	79.983	19.993	100.127	19.884	5.196	0.500
284.000	213.486	79.984	19.993	100.128	19.885	5.111	0.507
284.500	213.726	79.983	19.993	100.126	19.885	5.130	0.490
285.000	214.014	79.985	19.993	100.127	19.882	5.359	0.503
285.500	214.239	79.983	19.993	100.130	19.883	5.283	0.521
286.000	214.465	79.984	19.992	100.131	19.880	5.451	0.482
286.500	214.744	79.985	19.992	100.129	19.881	5.406	0.478
287.000	214.989	79.984	19.992	100.130	19.883	5.236	0.514
287.500	215.234	79.985	19.994	100.133	19.881	5.434	0.507
288.000	215.512	79.984	19.992	100.133	19.884	5.207	0.507
288.500	215.749	79.982	19.992	100.135	19.886	5.079	0.519
289.000	215.974	79.983	19.993	100.136	19.882	5.298	0.488
289.500	216.234	79.984	19.994	100.133	19.883	5.258	0.474
290.000	216.453	79.983	19.993	100.132	19.887	5.016	0.482
290.500	216.736	79.984	19.993	100.134	19.883	5.288	0.490
291.000	216.988	79.984	19.991	100.133	19.883	5.262	0.518
291.500	217.200	79.982	19.991	100.127	19.881	5.426	0.500
292.000	217.447	79.984	19.991	100.125	19.884	5.175	0.462
292.500	217.735	79.984	19.991	100.121	19.880	5.490	0.497
293.000	217.993	79.983	19.992	100.118	19.881	5.377	0.540
293.500	218.213	79.983	19.992	100.116	19.879	5.545	0.512
294.000	218.479	79.984	19.992	100.120	19.882	5.338	0.482
294.500	218.694	79.983	19.991	100.123	19.884	5.179	0.484
295.000	218.908	79.986	19.992	100.128	19.881	5.378	0.455
295.500	219.207	79.986	19.991	100.129	19.877	5.687	0.471
296.000	219.455	79.984	19.992	100.132	19.876	5.743	0.530
296.500	219.724	79.984	19.993	100.131	19.878	5.604	0.532
297.000	219.924	79.985	19.992	100.133	19.871	6.075	0.493
297.500	220.169	79.983	19.992	100.132	19.877	5.696	0.457
298.000	220.452	79.982	19.992	100.127	19.877	5.715	0.487
298.500	220.692	79.981	19.991	100.125	19.877	5.690	0.526
299.000	220.900	79.982	19.992	100.126	19.881	5.422	0.485
299.500	221.178	79.983	19.992	100.124	19.875	5.794	0.467
300.000	221.410	79.982	19.992	100.121	19.876	5.724	0.498
300.500	221.698	79.982	19.993	100.121	19.877	5.694	0.515
301.000	221.894	79.983	19.993	100.121	19.878	5.615	0.502
301.500	222.171	79.982	19.993	100.119	19.876	5.719	0.479
302.000	222.395	79.982	19.993	100.120	19.873	5.944	0.487
302.500	222.660	79.982	19.993	100.121	19.879	5.547	0.495
303.000	222.926	79.983	19.992	100.122	19.875	5.801	0.510
303.500	223.135	79.983	19.993	100.123	19.877	5.718	0.503
304.000	223.411	79.981	19.992	100.124	19.876	5.738	0.480
304.500	223.658	79.982	19.992	100.125	19.875	5.808	0.504
305.000	223.897	79.983	19.993	100.126	19.880	5.507	0.504
305.500	224.124	79.982	19.994	100.131	19.877	5.717	0.476
306.001	224.369	79.982	19.994	100.133	19.872	6.024	0.469
306.500	224.604	79.983	19.992	100.129	19.874	5.860	0.476
307.000	224.879	79.981	19.993	100.124	19.875	5.829	0.495
307.500	225.111	79.981	19.992	100.124	19.873	5.993	0.509
308.000	225.388	79.980	19.993	100.119	19.872	6.021	0.508
308.500	225.608	79.981	19.993	100.117	19.873	5.959	0.503
309.000	225.873	79.982	19.993	100.118	19.874	5.897	0.491
309.500	226.086	79.980	19.993	100.120	19.870	6.172	0.482
310.000	226.326	79.981	19.993	100.119	19.869	6.268	0.465
310.500	226.590	79.983	19.993	100.121	19.871	6.080	0.478
311.000	226.835	79.983	19.993	100.120	19.871	6.130	0.506
311.500	227.079	79.982	19.993	100.119	19.872	6.066	0.499
312.000	227.291	79.984	19.994	100.122	19.868	6.298	0.473
312.500	227.562	79.984	19.993	100.126	19.868	6.298	0.469
313.000	227.828	79.983	19.993	100.129	19.870	6.175	0.510
313.500	228.096	79.983	19.994	100.132	19.872	6.064	0.536
314.000	228.350	79.983	19.992	100.138	19.866	6.448	0.528
314.500	228.588	79.984	19.992	100.137	19.866	6.444	0.507
315.000	228.811	79.983	19.993	100.131	19.871	6.097	0.477
315.500	229.051	79.986	19.992	100.125	19.870	6.189	0.462
316.000	229.299	79.985	19.992	100.122	19.869	6.244	0.475
316.500	229.561	79.985	19.993	100.119	19.865	6.536	0.499
317.000	229.828	79.984	19.992	100.120	19.868	6.292	0.520
317.500	230.085	79.987	19.993	100.124	19.870	6.190	0.526
318.000	230.330	79.983	19.992	100.129	19.868	6.289	0.512
318.500	230.580	79.986	19.992	100.132	19.865	6.540	0.499
319.000	230.822	79.984	19.991	100.136	19.864	6.576	0.494
319.500	231.046	79.984	19.992	100.138	19.864	6.597	0.479
320.000	231.282	79.985	19.991	100.136	19.869	6.222	0.463
320.500	231.545	79.984	19.991	100.135	19.865	6.516	0.480
321.000	231.762	79.986	19.991	100.131	19.860	6.863	0.489
321.500	232.031	79.981	19.991	100.130	19.863	6.657	0.483
322.000	232.267	79.985	19.991	100.127	19.863	6.692	0.496
322.500	232.549	79.986	19.991	100.123	19.862	6.737	0.511
323.000	232.753	79.983	19.992	100.119	19.863	6.656	0.502
323.500	233.009	79.985	19.992	100.120	19.864	6.567	0.473
324.000	233.269	79.986	19.992	100.119	19.862	6.758	0.488
324.500	233.491	79.983	19.992	100.123	19.861	6.773	0.499
325.000	233.744	79.982	19.991	100.131	19.867	6.418	0.479
325.500	234.009	79.983	19.992	100.133	19.865	6.490	0.497
326.000	234.247	79.985	19.992	100.136	19.862	6.724	0.511
326.500	234.483	79.984	19.992	100.133	19.862	6.756	0.488
327.000	234.716	79.985	19.991	100.126	19.862	6.760	0.471
327.500	234.990	79.984	19.992	100.122	19.861	6.790	0.488
328.001	235.246	79.985	19.991	100.122	19.860	6.876	0.519
328.500	235.459	79.984	19.991	100.122	19.857	7.065	0.499
329.000	235.727	79.982	19.991	100.129	19.862	6.747	0.475
329.500	235.960	79.984	19.991	100.134	19.859	6.945	0.491
330.000	236.222	79.985	19.990	100.136	19.859	6.951	0.499
330.500	236.466	79.985	19.992	100.138	19.858	7.040	0.501
331.000	236.710	79.982	19.991	100.140	19.858	7.013	0.497
331.500	237.005	79.984	19.993	100.137	19.861	6.832	0.513
332.000	237.206	79.985	19.992	100.134	19.861	6.827	0.517
332.500	237.491	79.984	19.991	100.134	19.860	6.901	0.491
333.000	237.745	79.983	19.991	100.137	19.860	6.852	0.512
333.500	237.990	79.985	19.992	100.137	19.855	7.212	0.519
334.000	238.215	79.984	19.992	100.139	19.859	6.978	0.485
334.500	238.469	79.986	19.992	100.143	19.859	6.910	0.474
335.000	238.693	79.985	19.992	100.144	19.855	7.215	0.479
335.500	238.949	79.985	19.993	100.143	19.861	6.796	0.479
336.000	239.200	79.986	19.992	100.143	19.855	7.229	0.493
336.500	239.424	79.984	19.992	100.144	19.858	7.031	0.491
337.000	239.674	79.987	19.992	100.144	19.854	7.329	0.475
337.500	239.921	79.985	19.993	100.143	19.850	7.556	0.486
338.000	240.208	79.985	19.991	100.144	19.859	6.919	0.515
338.501	240.424	79.987	19.993	100.140	19.856	7.125	0.519
339.000	240.640	79.986	19.992	100.133	19.855	7.215	0.468
339.500	240.900	79.985	19.992	100.126	19.857	7.051	0.454
340.000	241.155	79.988	19.992	100.125	19.852	7.407	0.495
340.500	241.438	79.986	19.991	100.120	19.852	7.433	0.526
341.000	241.663	79.986	19.991	100.120	19.855	7.233	0.523
341.500	241.909	79.987	19.992	100.121	19.853	7.373	0.490
342.000	242.108	79.987	19.992	100.123	19.853	7.377	0.458
342.500	242.416	79.986	19.992	100.126	19.855	7.241	0.476
343.000	242.626	79.988	19.992	100.131	19.852	7.469	0.513
343.500	242.910	79.988	19.992	100.133	19.851	7.513	0.506
344.000	243.134	79.987	19.991	100.136	19.849	7.647	0.501
344.500	243.389	79.987	19.991	100.133	19.852	7.443	0.493
345.000	243.625	79.988	19.991	100.129	19.852	7.421	0.485
345.500	243.903	79.988	19.991	100.127	19.845	7.907	0.503
346.000	244.185	79.986	19.991	100.123	19.848	7.699	0.537
346.500	244.357	79.987	19.992	100.123	19.850	7.592	0.507
347.000	244.640	79.988	19.992	100.130	19.846	7.875	0.455
347.500	244.846	79.984	19.992	100.134	19.846	7.833	0.472
348.000	245.162	79.986	19.992	100.131	19.845	7.894	0.505
348.500	245.368	79.986	19.992	100.129	19.848	7.724	0.521
349.000	245.632	79.986	19.992	100.127	19.841	8.224	0.496
349.500	245.863	79.987	19.991	100.127	19.844	7.991	0.483
350.000	246.111	79.985	19.992	100.122	19.844	8.012	0.486
350.500	246.361	79.984	19.992	100.126	19.843	8.073	0.488
351.000	246.634	79.986	19.991	100.133	19.843	8.056	0.511
351.500	246.844	79.985	19.991	100.136	19.844	8.016	0.503
352.000	247.105	79.985	19.993	100.134	19.847	7.816	0.477
352.500	247.368	79.984	19.991	100.137	19.847	7.755	0.497
353.000	247.624	79.985	19.992	100.134	19.838	8.438	0.522
353.500	247.875	79.983	19.992	100.134	19.840	8.280	0.514
354.000	248.134	79.985	19.992	100.135	19.848	7.725	0.508
354.500	248.381	79.987	19.992	100.138	19.839	8.337	0.508
355.000	248.631	79.983	19.993	100.141	19.837	8.456	0.502
355.500	248.923	79.984	19.991	100.144	19.836	8.558	0.520
356.000	249.129	79.985	19.991	100.145	19.845	7.901	0.520
356.500	249.393	79.982	19.992	100.137	19.833	8.734	0.484
357.000	249.682	79.982	19.991	100.134	19.835	8.626	0.511
357.500	249.947	79.987	19.993	100.133	19.837	8.473	0.554
358.000	250.168	79.985	19.993	100.130	19.833	8.788	0.520
358.500	250.402	79.986	19.992	100.128	19.833	8.797	0.471
359.000	250.652	79.983	19.991	100.132	19.835	8.655	0.469
359.500	250.919	79.985	19.991	100.130	19.836	8.567	0.500
360.000	251.157	79.985	19.992	100.128	19.834	8.705	0.511
360.500	251.418	79.983	19.993	100.127	19.829	9.079	0.502
361.000	251.660	79.983	19.992	100.128	19.826	9.242	0.501
361.500	251.875	79.985	19.993	100.130	19.831	8.910	0.480
362.000	252.153	79.983	19.991	100.129	19.833	8.743	0.475
362.500	252.419	79.984	19.993	100.126	19.825	9.313	0.518
363.000	252.628	79.982	19.993	100.125	19.830	8.968	0.509
363.500	252.887	79.983	19.992	100.122	19.832	8.855	0.472
364.000	253.168	79.984	19.992	100.120	19.829	9.032	0.504
364.500	253.381	79.982	19.992	100.122	19.830	8.984	0.517
365.000	253.675	79.984	19.993	100.127	19.825	9.301	0.500
365.500	253.920	79.985	19.992	100.131	19.825	9.333	0.523
366.000	254.220	79.984	19.993	100.134	19.827	9.218	0.542
366.500	254.411	79.988	19.993	100.133	19.830	8.989	0.518
367.000	254.642	79.985	19.992	100.134	19.825	9.314	0.457
367.500	254.991	79.983	19.992	100.136	19.827	9.185	0.501
368.000	255.191	79.983	19.991	100.133	19.824	9.425	0.564
368.500	255.434	79.982	19.993	100.130	19.829	9.042	0.496
369.000	255.688	79.984	19.993	100.129	19.829	9.034	0.470
369.500	255.796	79.982	19.992	100.124	19.824	9.431	0.430
370.000	256.122	79.984	19.993	100.122	19.824	9.416	0.398
370.500	256.412	79.984	19.992	100.127	19.821	9.612	0.525
371.000	256.664	79.986	19.993	100.131	19.830	8.961	0.579
371.500	256.950	79.983	19.993	100.135	19.818	9.833	0.540
372.000	257.178	79.983	19.993	100.141	19.816	9.973	0.526
372.500	257.418	79.983	19.992	100.140	19.814	10.111	0.491
373.000	257.682	79.982	19.992	100.137	19.819	9.769	0.486
373.500	257.888	79.984	19.993	100.135	19.822	9.558	0.487
374.000	258.164	79.984	19.992	100.134	19.815	10.024	0.476
374.500	258.342	79.985	19.991	100.135	19.817	9.905	0.468
375.000	258.614	79.982	19.993	100.139	19.814	10.104	0.452
375.500	258.974	79.983	19.992	100.143	19.816	9.955	0.541
376.000	259.113	79.983	19.992	100.145	19.815	10.023	0.566
376.500	259.313	79.981	19.992	100.143	19.812	10.255	0.419
377.000	259.578	79.984	19.993	100.144	19.814	10.092	0.402
377.500	259.864	79.983	19.992	100.142	19.817	9.904	0.507
378.000	260.113	79.984	19.992	100.138	19.816	9.987	0.543
378.500	260.340	79.984	19.992	100.135	19.816	9.928	0.506
379.000	260.593	79.982	19.992	100.137	19.818	9.821	0.478
379.500	260.792	79.984	19.992	100.136	19.812	10.247	0.466
380.000	261.087	79.983	19.993	100.138	19.812	10.222	0.473
380.500	261.365	79.982	19.993	100.139	19.811	10.286	0.533
381.000	261.589	79.983	19.992	100.142	19.817	9.899	0.537
381.500	261.849	79.982	19.993	100.144	19.815	10.056	0.493
382.000	262.086	79.985	19.993	100.145	19.812	10.258	0.491
382.500	262.374	79.983	19.992	100.145	19.813	10.160	0.511
383.000	262.619	79.983	19.992	100.147	19.813	10.141	0.529
383.500	262.843	79.982	19.991	100.145	19.815	9.996	0.501
384.000	263.151	79.980	19.993	100.145	19.815	10.021	0.500
384.500	263.315	79.982	19.992	100.145	19.809	10.464	0.502
385.000	263.589	79.982	19.992	100.145	19.805	10.744	0.455
385.500	263.858	79.981	19.993	100.145	19.820	9.711	0.490
386.000	264.099	79.982	19.992	100.148	19.807	10.557	0.526
386.500	264.318	79.984	19.992	100.149	19.816	9.955	0.485
387.000	264.571	79.981	19.992	100.149	19.815	10.060	0.466
387.500	264.898	79.982	19.992	100.148	19.812	10.232	0.526
388.000	265.191	79.983	19.991	100.148	19.807	10.623	0.600
388.500	265.453	79.982	19.992	100.149	19.802	10.936	0.588
389.000	265.681	79.983	19.992	100.149	19.805	10.696	0.523
389.500	265.914	79.983	19.992	100.150	19.805	10.730	0.475
390.000	266.133	79.984	19.991	100.149	19.802	10.917	0.456
390.500	266.371	79.983	19.991	100.148	19.800	11.083	0.455
391.000	266.651	79.980	19.992	100.146	19.801	10.996	0.488
391.500	266.912	79.982	19.992	100.145	19.799	11.151	0.530
392.000	267.180	79.982	19.993	100.145	19.798	11.238	0.535
392.500	267.435	79.982	19.992	100.146	19.800	11.076	0.526
393.000	267.673	79.982	19.992	100.146	19.800	11.089	0.508
393.500	267.890	79.984	19.994	100.149	19.803	10.868	0.474
394.000	268.136	79.982	19.992	100.148	19.797	11.265	0.459
394.500	268.394	79.981	19.991	100.148	19.799	11.183	0.484
395.000	268.675	79.982	19.992	100.148	19.802	10.929	0.522
395.500	268.942	79.983	19.992	100.147	19.792	11.665	0.544
396.000	269.184	79.986	19.993	100.147	19.793	11.540	0.529
396.500	269.457	79.985	19.993	100.147	19.794	11.522	0.512
397.000	269.723	79.984	19.993	100.147	19.791	11.737	0.526
397.500	269.971	79.982	19.992	100.148	19.792	11.620	0.526
398.000	270.210	79.983	19.993	100.149	19.790	11.750	0.501
398.500	270.480	79.985	19.992	100.149	19.789	11.861	0.498
399.000	270.815	79.984	19.993	100.149	19.786	12.074	0.557
399.500	271.083	79.983	19.993	100.148	19.784	12.210	0.604
400.000	271.431	79.985	19.993	100.147	19.785	12.148	0.609
400.500	271.631	79.984	19.993	100.146	19.787	12.003	0.582
401.000	271.818	79.985	19.993	100.146	19.785	12.097	0.467
401.500	272.101	79.985	19.992	100.145	19.782	12.350	0.428
402.000	272.384	79.985	19.994	100.145	19.784	12.211	0.518
402.500	272.643	79.989	19.993	100.145	19.778	12.598	0.554
403.000	272.888	79.985	19.994	100.147	19.781	12.401	0.523
403.500	273.073	79.985	19.993	100.148	19.777	12.720	0.467
404.000	273.376	79.986	19.994	100.147	19.778	12.626	0.459
404.500	273.614	79.983	19.993	100.147	19.775	12.811	0.514
405.000	273.846	79.985	19.992	100.147	19.771	13.109	0.505
405.500	274.088	79.985	19.992	100.145	19.772	13.048	0.472
406.000	274.340	79.984	19.992	100.148	19.768	13.286	0.484
406.500	274.632	79.984	19.993	100.148	19.769	13.255	0.519
407.000	274.889	79.985	19.992	100.150	19.767	13.396	0.547
407.500	275.145	79.984	19.993	100.150	19.766	13.449	0.531
408.000	275.386	79.985	19.993	100.150	19.767	13.363	0.504
408.500	275.628	79.985	19.992	100.147	19.767	13.367	0.490
409.000	275.882	79.984	19.993	100.148	19.769	13.281	0.490
409.501	276.143	79.984	19.993	100.147	19.764	13.627	0.505
410.001	276.413	79.984	19.991	100.147	19.762	13.715	0.523
410.500	276.663	79.982	19.991	100.147	19.762	13.766	0.526
411.000	276.918	79.983	19.993	100.147	19.761	13.825	0.512
411.500	277.154	79.984	19.992	100.147	19.759	13.919	0.498
412.000	277.422	79.984	19.992	100.148	19.756	14.171	0.498
412.500	277.639	79.985	19.992	100.148	19.755	14.260	0.495
413.000	277.907	79.981	19.991	100.149	19.755	14.217	0.485
413.500	278.159	79.980	19.991	100.149	19.754	14.279	0.502
414.000	278.437	79.986	19.992	100.149	19.752	14.419	0.525
414.500	278.698	79.985	19.991	100.147	19.752	14.477	0.535
415.000	278.911	79.984	19.993	100.147	19.749	14.674	0.507
415.500	279.171	79.984	19.992	100.147	19.748	14.725	0.473
416.000	279.450	79.985	19.992	100.146	19.744	15.034	0.506
416.501	279.681	79.983	19.992	100.146	19.744	14.977	0.525
417.001	279.911	79.982	19.992	100.147	19.743	15.080	0.485
417.500	280.186	79.983	19.992	100.151	19.741	15.248	0.483
418.000	280.443	79.984	19.991	100.151	19.746	14.888	0.519
418.500	280.669	79.985	19.992	100.152	19.739	15.339	0.508
419.000	280.937	79.987	19.991	100.152	19.737	15.500	0.488
419.500	281.179	79.986	19.991	100.153	19.735	15.628	0.502
420.000	281.449	79.988	19.992	100.152	19.739	15.383	0.511
420.500	281.665	79.987	19.991	100.152	19.735	15.629	0.499
421.000	281.951	79.986	19.992	100.158	19.729	16.033	0.495
421.500	282.209	79.986	19.992	100.161	19.729	16.057	0.523
422.000	282.467	79.986	19.991	100.165	19.727	16.168	0.530
422.501	282.717	79.987	19.992	100.165	19.727	16.172	0.512
423.000	283.011	79.987	19.991	100.168	19.726	16.301	0.526
423.500	283.275	79.988	19.990	100.169	19.723	16.457	0.551
424.000	283.525	79.987	19.992	100.171	19.723	16.499	0.536
424.500	283.766	79.985	19.992	100.173	19.722	16.520	0.503
425.000	284.000	79.987	19.992	100.171	19.719	16.767	0.483
425.500	284.255	79.987	19.991	100.168	19.723	16.491	0.482
426.000	284.495	79.987	19.992	100.161	19.719	16.724	0.492
426.500	284.781	79.986	19.991	100.158	19.718	16.833	0.511
427.000	285.071	79.987	19.993	100.154	19.714	17.100	0.551
427.500	285.294	79.987	19.991	100.154	19.710	17.362	0.545
428.000	285.545	79.986	19.993	100.158	19.715	17.043	0.493
428.500	285.797	79.985	19.992	100.161	19.709	17.425	0.488
429.000	286.044	79.986	19.992	100.163	19.706	17.650	0.501
429.501	286.312	79.986	19.992	100.162	19.707	17.616	0.508
430.000	286.545	79.984	19.992	100.163	19.705	17.748	0.508
430.500	286.809	79.985	19.992	100.163	19.704	17.829	0.499
431.000	287.088	79.984	19.992	100.165	19.706	17.661	0.520
431.500	287.333	79.984	19.992	100.167	19.707	17.609	0.534
432.000	287.589	79.984	19.992	100.172	19.699	18.192	0.513
432.500	287.820	79.982	19.992	100.175	19.702	17.958	0.494
433.000	288.118	79.982	19.992	100.176	19.700	18.112	0.508
433.500	288.293	79.983	19.991	100.178	19.697	18.320	0.501
434.000	288.637	79.983	19.991	100.178	19.695	18.426	0.496
434.500	288.837	79.981	19.991	100.178	19.693	18.587	0.531
435.000	289.089	79.983	19.991	100.179	19.696	18.388	0.498
435.500	289.321	79.984	19.991	100.182	19.687	19.030	0.468
436.000	289.589	79.983	19.992	100.180	19.687	19.002	0.492
436.500	289.840	79.985	19.993	100.176	19.683	19.313	0.510
437.000	290.122	79.984	19.993	100.171	19.682	19.358	0.526
437.500	290.387	79.982	19.992	100.167	19.681	19.458	0.540
438.000	290.611	79.983	19.991	100.168	19.673	20.013	0.518
438.500	290.883	79.983	19.992	100.168	19.674	19.932	0.493
439.000	291.175	79.985	19.992	100.168	19.670	20.187	0.530
439.500	291.447	79.985	19.991	100.170	19.672	20.083	0.564
440.000	291.700	79.982	19.991	100.173	19.668	20.355	0.544
440.500	291.932	79.982	19.991	100.173	19.663	20.656	0.505
441.000	292.192	79.982	19.992	100.175	19.665	20.566	0.489
441.500	292.467	79.983	19.991	100.180	19.668	20.362	0.514
442.000	292.725	79.982	19.991	100.184	19.664	20.635	0.534
442.500	292.959	79.983	19.991	100.185	19.661	20.833	0.512
443.000	293.184	79.985	19.992	100.184	19.663	20.720	0.475
443.500	293.470	79.984	19.992	100.182	19.657	21.071	0.484
444.000	293.733	79.985	19.991	100.183	19.655	21.238	0.530
444.500	293.960	79.981	19.992	100.183	19.656	21.158	0.520
445.000	294.253	79.983	19.992	100.184	19.654	21.316	0.506
445.500	294.471	79.980	19.991	100.188	19.649	21.634	0.516
446.000	294.745	79.983	19.992	100.190	19.649	21.671	0.501
446.500	294.976	79.981	19.991	100.190	19.648	21.712	0.498
447.000	295.252	79.983	19.991	100.190	19.643	22.068	0.506
447.500	295.498	79.983	19.991	100.188	19.643	22.117	0.515
448.000	295.748	79.982	19.991	100.187	19.640	22.302	0.509
448.500	296.022	79.986	19.991	100.186	19.642	22.174	0.510
449.000	296.274	79.982	19.990	100.186	19.638	22.405	0.525
449.500	296.537	79.983	19.992	100.186	19.634	22.702	0.520
450.000	296.778	79.984	19.992	100.187	19.634	22.754	0.509
450.500	297.026	79.986	19.992	100.188	19.632	22.852	0.496
451.000	297.290	79.982	19.992	100.189	19.624	23.431	0.500
451.500	297.532	79.981	19.992	100.192	19.625	23.377	0.509
452.000	297.767	79.982	19.991	100.192	19.620	23.678	0.492
452.500	298.021	79.981	19.992	100.192	19.619	23.754	0.483
453.000	298.248	79.983	19.991	100.191	19.617	23.896	0.485
453.500	298.531	79.982	19.992	100.190	19.612	24.269	0.496
454.000	298.819	79.985	19.993	100.190	19.613	24.214	0.540
454.500	299.028	79.985	19.992	100.191	19.610	24.395	0.534
455.000	299.269	79.985	19.993	100.191	19.608	24.547	0.474
455.500	299.556	79.983	19.992	100.191	19.605	24.778	0.489
456.000	299.828	79.984	19.993	100.193	19.606	24.703	0.543
456.500	300.069	79.983	19.991	100.192	19.605	24.788	0.536
457.000	300.335	79.985	19.993	100.192	19.600	25.088	0.510
457.500	300.571	79.983	19.991	100.194	19.597	25.286	0.504
458.000	300.864	79.982	19.992	100.195	19.596	25.368	0.516
458.500	301.060	79.984	19.992	100.195	19.592	25.670	0.510
459.000	301.327	79.983	19.992	100.197	19.593	25.606	0.476
459.500	301.590	79.983	19.992	100.199	19.588	25.945	0.496
460.000	301.827	79.985	19.993	100.201	19.588	25.974	0.515
460.500	302.125	79.981	19.993	100.203	19.579	26.545	0.518
461.000	302.326	79.982	19.992	100.204	19.582	26.401	0.517
461.500	302.577	79.982	19.991	100.205	19.577	26.740	0.475
462.000	302.832	79.984	19.992	100.203	19.574	26.947	0.479
462.500	303.105	79.982	19.992	100.204	19.577	26.713	0.517
463.000	303.356	79.985	19.992	100.206	19.569	27.298	0.526
463.500	303.599	79.981	19.993	100.208	19.568	27.366	0.509
464.000	303.849	79.981	19.994	100.211	19.570	27.196	0.493
464.500	304.078	79.983	19.993	100.215	19.567	27.453	0.486
465.000	304.346	79.981	19.993	100.214	19.561	27.837	0.488
465.500	304.572	79.984	19.992	100.211	19.559	27.967	0.496
466.000	304.835	79.983	19.993	100.210	19.558	28.086	0.492
466.500	305.060	79.983	19.992	100.210	19.560	27.899	0.488
467.000	305.321	79.983	19.991	100.210	19.554	28.345	0.487
467.500	305.559	79.982	19.992	100.213	19.551	28.558	0.493
468.000	305.847	79.985	19.992	100.218	19.552	28.484	0.512
468.500	306.128	79.985	19.992	100.218	19.545	28.949	0.547
469.000	306.349	79.983	19.993	100.214	19.549	28.669	0.535
469.500	306.574	79.981	19.992	100.211	19.542	29.204	0.474
470.000	306.857	79.984	19.994	100.207	19.542	29.147	0.477
470.500	307.107	79.983	19.992	100.202	19.541	29.238	0.521
471.000	307.330	79.984	19.992	100.204	19.538	29.438	0.503
471.501	307.583	79.984	19.992	100.207	19.537	29.540	0.474
472.000	307.822	79.984	19.993	100.211	19.531	29.956	0.484
472.500	308.059	79.982	19.993	100.215	19.533	29.833	0.484
473.000	308.392	79.985	19.992	100.219	19.526	30.275	0.523
473.500	308.584	79.985	19.993	100.221	19.525	30.351	0.548
474.000	308.893	79.983	19.993	100.223	19.522	30.600	0.513
474.500	309.108	79.986	19.992	100.224	19.519	30.765	0.513
475.000	309.333	79.984	19.992	100.226	19.516	31.029	0.482
475.500	309.607	79.984	19.993	100.226	19.509	31.513	0.469
476.000	309.856	79.985	19.994	100.226	19.507	31.655	0.511
476.500	310.118	79.984	19.992	100.226	19.506	31.730	0.517
477.000	310.363	79.984	19.993	100.225	19.503	31.902	0.509
477.500	310.626	79.986	19.994	100.223	19.500	32.101	0.507
478.000	310.868	79.984	19.993	100.224	19.504	31.838	0.506
478.500	311.169	79.984	19.992	100.223	19.499	32.187	0.524
479.000	311.404	79.984	19.992	100.222	19.495	32.507	0.540
479.500	311.648	79.984	19.993	100.222	19.498	32.258	0.507
480.000	311.948	79.983	19.992	100.222	19.489	32.900	0.511
480.500	312.184	79.985	19.993	100.222	19.487	33.032	0.540
481.000	312.452	79.982	19.991	100.223	19.485	33.183	0.520
481.500	312.715	79.985	19.993	100.223	19.486	33.133	0.517
482.000	312.964	79.984	19.992	100.223	19.484	33.271	0.521
482.500	313.226	79.982	19.993	100.223	19.474	33.922	0.512
483.000	313.449	79.983	19.993	100.223	19.473	33.996	0.498
483.500	313.730	79.986	19.993	100.224	19.469	34.282	0.495
484.000	313.996	79.984	19.992	100.224	19.469	34.316	0.526
484.500	314.222	79.982	19.992	100.224	19.464	34.655	0.520
485.000	314.495	79.982	19.993	100.224	19.463	34.723	0.495
485.500	314.703	79.980	19.993	100.224	19.459	34.986	0.490
486.000	315.000	79.981	19.992	100.224	19.463	34.693	0.493
486.501	315.222	79.985	19.993	100.224	19.458	35.061	0.512
487.000	315.490	79.985	19.994	100.226	19.457	35.109	0.505
487.500	315.757	79.984	19.994	100.230	19.450	35.655	0.512
488.000	315.952	79.984	19.992	100.235	19.451	35.563	0.499
488.500	316.224	79.983	19.993	100.236	19.446	35.942	0.464
489.000	316.462	79.982	19.995	100.236	19.446	35.898	0.488
489.500	316.748	79.983	19.993	100.233	19.445	36.003	0.517
490.000	316.944	79.985	19.993	100.230	19.439	36.437	0.503
490.500	317.228	79.986	19.993	100.226	19.436	36.652	0.481
491.000	317.459	79.983	19.993	100.225	19.430	37.020	0.498
491.500	317.711	79.984	19.992	100.225	19.431	36.946	0.499
492.000	318.002	79.985	19.993	100.228	19.430	37.035	0.513
492.500	318.230	79.985	19.992	100.228	19.429	37.148	0.531
493.000	318.470	79.984	19.993	100.227	19.424	37.490	0.494
493.500	318.748	79.984	19.993	100.231	19.422	37.637	0.493
494.000	318.964	79.983	19.993	100.237	19.418	37.869	0.506
494.500	319.253	79.984	19.994	100.239	19.416	38.044	0.499
495.001	319.479	79.984	19.993	100.244	19.412	38.271	0.511
495.500	319.748	79.982	19.992	100.248	19.412	38.281	0.505
496.000	320.002	79.985	19.992	100.246	19.407	38.644	0.509
496.500	320.212	79.985	19.992	100.242	19.403	38.943	0.493
497.000	320.433	79.985	19.992	100.241	19.404	38.889	0.447
497.500	320.766	79.986	19.992	100.239	19.401	39.092	0.493
498.000	320.987	79.985	19.992	100.244	19.399	39.220	0.554
498.500	321.231	79.984	19.992	100.249	19.395	39.483	0.509
499.000	321.463	79.984	19.992	100.254	19.393	39.630	0.471
499.500	321.732	79.985	19.991	100.258	19.390	39.870	0.489
500.000	322.025	79.985	19.991	100.261	19.391	39.808	0.531
500.500	322.240	79.986	19.991	100.258	19.390	39.883	0.535
501.000	322.527	79.985	19.991	100.257	19.380	40.532	0.506
501.500	322.728	79.986	19.991	100.257	19.380	40.583	0.495
502.000	322.994	79.986	19.991	100.259	19.380	40.530	0.477
502.500	323.264	79.986	19.991	100.260	19.377	40.745	0.501
503.000	323.487	79.986	19.991	100.263	19.375	40.874	0.515
503.500	323.760	79.987	19.992	100.264	19.373	41.019	0.495
504.000	323.992	79.986	19.991	100.264	19.374	40.974	0.500
504.500	324.247	79.986	19.991	100.263	19.369	41.314	0.496
505.000	324.531	79.987	19.991	100.262	19.356	42.254	0.513
505.500	324.738	79.987	19.991	100.260	19.358	42.082	0.515
506.000	324.986	79.986	19.991	100.260	19.352	42.534	0.474
506.500	325.302	79.987	19.991	100.261	19.352	42.522	0.510
507.000	325.547	79.987	19.992	100.262	19.346	42.965	0.562
507.500	325.777	79.986	19.991	100.263	19.347	42.848	0.518
508.000	326.000	79.986	19.992	100.265	19.347	42.869	0.464
508.500	326.309	79.985	19.990	100.265	19.341	43.311	0.492
509.000	326.536	79.986	19.991	100.265	19.346	42.952	0.534
509.500	326.760	79.986	19.991	100.264	19.339	43.440	0.494
510.000	327.073	79.986	19.991	100.265	19.334	43.805	0.494
510.500	327.240	79.985	19.992	100.265	19.342	43.183	0.508
511.000	327.557	79.983	19.991	100.265	19.337	43.548	0.482
511.500	327.759	79.985	19.991	100.265	19.336	43.622	0.502
512.000	328.005	79.983	19.991	100.265	19.334	43.802	0.483
512.500	328.268	79.985	19.992	100.264	19.331	44.019	0.478
513.000	328.574	79.982	19.991	100.264	19.325	44.417	0.539
513.500	328.818	79.982	19.990	100.265	19.323	44.552	0.560
514.001	329.067	79.982	19.991	100.265	19.322	44.599	0.521
514.500	329.217	79.983	19.992	100.265	19.317	44.998	0.446
515.000	329.522	79.983	19.992	100.266	19.320	44.752	0.428
515.500	329.771	79.982	19.992	100.265	19.318	44.880	0.504
516.000	330.091	79.982	19.993	100.266	19.317	44.978	0.561
516.500	330.369	79.983	19.992	100.266	19.311	45.408	0.584
517.000	330.582	79.983	19.993	100.266	19.312	45.310	0.544
517.500	330.750	79.983	19.992	100.266	19.309	45.538	0.436
518.000	331.150	79.981	19.991	100.267	19.303	45.948	0.475
518.500	331.030	79.981	19.991	100.267	19.307	45.689	0.424
519.000	331.255	79.982	19.992	100.267	19.299	46.202	0.192
519.500	331.572	79.982	19.992	100.268	19.298	46.290	0.324
520.000	331.875	79.984	19.993	100.268	19.294	46.559	0.581
520.500	332.277	79.986	19.992	100.267	19.296	46.437	0.662
521.000	332.555	79.983	19.990	100.269	19.294	46.592	0.692
521.500	332.775	79.983	19.992	100.269	19.289	46.921	0.589
522.000	333.160	79.983	19.991	100.269	19.291	46.806	0.552
522.500	333.399	79.982	19.990	100.269	19.288	47.023	0.615
523.000	333.702	79.982	19.990	100.270	19.289	46.939	0.583
523.500	333.702	79.983	19.993	100.268	19.284	47.253	0.423
524.000	333.834	79.981	19.991	100.269	19.281	47.528	0.218
524.500	334.142	79.981	19.991	100.269	19.281	47.518	0.286
525.000	334.721	79.985	19.992	100.269	19.285	47.191	0.663
525.500	334.811	79.982	19.992	100.269	19.280	47.591	0.779
526.000	335.094	79.983	19.991	100.269	19.273	48.095	0.521
526.500	335.407	79.984	19.992	100.268	19.273	48.089	0.484
527.000	335.560	79.983	19.991	100.268	19.270	48.244	0.531
527.500	335.827	79.984	19.992	100.269	19.270	48.251	0.443
528.000	336.163	79.985	19.992	100.269	19.266	48.544	0.511
528.500	336.351	79.983	19.992	100.268	19.262	48.827	0.564
529.000	336.566	79.982	19.991	100.268	19.263	48.791	0.463
529.500	336.868	79.984	19.992	100.268	19.261	48.916	0.460
530.000	337.164	79.987	19.992	100.269	19.260	48.953	0.557
530.500	337.346	79.983	19.991	100.268	19.262	48.814	0.538
531.000	337.613	79.986	19.991	100.268	19.257	49.160	0.464
531.500	337.818	79.985	19.992	100.267	19.253	49.476	0.460
532.000	338.136	79.985	19.991	100.266	19.252	49.550	0.497
532.500	338.399	79.984	19.991	100.262	19.255	49.350	0.552
533.000	338.599	79.983	19.993	100.263	19.250	49.707	0.522
533.500	338.848	79.985	19.992	100.263	19.250	49.671	0.456
534.000	339.115	79.984	19.991	100.265	19.246	49.929	0.483
534.500	339.387	79.984	19.991	100.266	19.242	50.210	0.528
535.000	339.598	79.985	19.991	100.267	19.242	50.251	0.511
535.500	339.858	79.984	19.991	100.273	19.237	50.612	0.477
536.000	340.166	79.984	19.992	100.279	19.236	50.698	0.519
536.500	340.393	79.985	19.991	100.281	19.238	50.512	0.552
537.000	340.636	79.984	19.992	100.284	19.234	50.844	0.502
537.500	340.877	79.985	19.992	100.287	19.232	50.938	0.477
538.000	341.174	79.986	19.991	100.283	19.233	50.898	0.511
538.500	341.371	79.982	19.991	100.282	19.230	51.099	0.516
539.000	341.639	79.984	19.991	100.285	19.232	50.966	0.479
539.500	341.882	79.983	19.991	100.288	19.230	51.077	0.488
540.000	342.055	79.985	19.992	100.287	19.227	51.290	0.464
540.500	342.370	79.984	19.991	100.284	19.226	51.386	0.452
541.000	342.626	79.985	19.992	100.280	19.220	51.766	0.530
541.500	342.850	79.983	19.991	100.272	19.220	51.813	0.525
542.000	343.129	79.984	19.991	100.272	19.220	51.758	0.491
542.500	343.345	79.982	19.992	100.273	19.217	52.015	0.499
543.000	343.610	79.984	19.992	100.273	19.218	51.953	0.488
543.500	343.873	79.984	19.991	100.274	19.218	51.932	0.504
544.000	344.140	79.983	19.992	100.275	19.210	52.497	0.529
544.500	344.348	79.984	19.992	100.271	19.204	52.905	0.503
545.000	344.614	79.982	19.994	100.272	19.208	52.656	0.475
545.500	344.880	79.984	19.991	100.279	19.205	52.818	0.503
546.000	345.131	79.983	19.991	100.286	19.205	52.871	0.525
546.500	345.352	79.983	19.992	100.293	19.203	52.987	0.494
547.001	345.560	79.985	19.992	100.299	19.202	53.054	0.450
547.500	345.836	79.982	19.992	100.301	19.200	53.218	0.457
548.000	346.053	79.983	19.991	100.302	19.198	53.361	0.489
548.500	346.321	79.984	19.992	100.301	19.199	53.279	0.489
549.000	346.568	79.983	19.993	100.301	19.195	53.557	0.500
549.500	346.817	79.983	19.993	100.301	19.194	53.648	0.506
550.000	347.066	79.983	19.991	100.301	19.191	53.842	0.497
550.500	347.321	79.984	19.993	100.300	19.189	53.969	0.501
551.000	347.527	79.982	19.994	100.301	19.188	54.027	0.483
551.500	347.815	79.984	19.993	100.301	19.183	54.383	0.478
552.000	348.056	79.983	19.992	100.301	19.187	54.104	0.511
552.500	348.302	79.983	19.992	100.301	19.184	54.346	0.508
553.000	348.547	79.983	19.994	100.300	19.182	54.440	0.489
553.500	348.806	79.984	19.994	100.297	19.174	55.012	0.497
554.000	349.067	79.985	19.992	100.297	19.175	54.940	0.512
554.500	349.293	79.983	19.993	100.297	19.174	55.005	0.503
555.000	349.536	79.987	19.992	100.297	19.175	54.946	0.478
555.500	349.808	79.983	19.993	100.298	19.168	55.412	0.492
556.000	350.008	79.983	19.994	100.301	19.166	55.578	0.493
556.500	350.299	79.981	19.992	100.303	19.165	55.664	0.482
557.000	350.530	79.985	19.994	100.304	19.164	55.735	0.507
557.500	350.784	79.982	19.992	100.304	19.164	55.753	0.503
558.000	351.005	79.984	19.991	100.305	19.159	56.110	0.480
558.500	351.233	79.985	19.992	100.305	19.155	56.393	0.462
559.000	351.502	79.984	19.992	100.303	19.152	56.551	0.474
559.500	351.755	79.986	19.992	100.302	19.148	56.840	0.510
560.000	352.019	79.985	19.993	100.302	19.145	57.081	0.519
560.500	352.284	79.985	19.990	100.302	19.145	57.038	0.523
561.000	352.547	79.986	19.993	100.302	19.145	57.094	0.528
561.500	352.801	79.985	19.992	100.301	19.142	57.306	0.522
562.000	353.016	79.984	19.991	100.301	19.138	57.591	0.493
562.500	353.314	79.983	19.992	100.302	19.135	57.746	0.491
563.000	353.536	79.986	19.992	100.303	19.132	57.968	0.517
563.500	353.790	79.985	19.991	100.306	19.126	58.409	0.498
564.000	354.032	79.984	19.991	100.310	19.128	58.264	0.486
564.500	354.296	79.985	19.992	100.311	19.121	58.762	0.501
565.000	354.542	79.986	19.992	100.314	19.122	58.681	0.508
565.500	354.795	79.983	19.991	100.315	19.120	58.834	0.504
566.000	355.040	79.983	19.992	100.312	19.116	59.134	0.498
566.500	355.269	79.988	19.992	100.310	19.107	59.735	0.486
567.000	355.530	79.985	19.992	100.309	19.106	59.797	0.482
567.501	355.783	79.985	19.993	100.311	19.107	59.732	0.502
568.000	356.035	79.983	19.992	100.316	19.103	60.056	0.510
568.500	356.252	79.985	19.992	100.321	19.106	59.842	0.487
569.000	356.534	79.984	19.991	100.323	19.096	60.492	0.484
569.500	356.759	79.982	19.992	100.325	19.093	60.734	0.503
570.000	357.021	79.985	19.992	100.324	19.090	60.963	0.497
570.500	357.261	79.987	19.992	100.323	19.085	61.272	0.494
571.000	357.552	79.982	19.992	100.325	19.083	61.456	0.517
571.500	357.789	79.983	19.991	100.329	19.079	61.743	0.530
572.000	358.028	79.982	19.992	100.334	19.078	61.768	0.502
572.500	358.282	79.983	19.993	100.338	19.073	62.116	0.484
573.000	358.544	79.985	19.992	100.339	19.068	62.531	0.504
573.500	358.765	79.983	19.993	100.341	19.066	62.669	0.499
574.000	359.012	79.984	19.993	100.342	19.058	63.215	0.476
574.500	359.270	79.983	19.992	100.342	19.058	63.202	0.487
575.000	359.495	79.983	19.992	100.342	19.053	63.551	0.494
575.500	359.730	79.984	19.993	100.341	19.057	63.282	0.472
576.000	359.977	79.984	19.993	100.341	19.046	64.072	0.471
576.500	360.237	79.983	19.993	100.340	19.040	64.456	0.494
577.000	360.477	79.984	19.992	100.340	19.039	64.559	0.503
577.500	360.804	79.985	19.993	100.342	19.034	64.882	0.533
578.000	361.011	79.982	19.993	100.345	19.034	64.900	0.551
578.500	361.234	79.985	19.993	100.350	19.030	65.180	0.482
579.000	361.503	79.983	19.994	100.353	19.026	65.467	0.461
579.500	361.734	79.984	19.993	100.354	19.021	65.825	0.495
580.000	362.005	79.984	19.993	100.352	19.012	66.438	0.501
580.500	362.228	79.986	19.993	100.352	19.010	66.607	0.498
581.000	362.485	79.985	19.991	100.349	19.008	66.703	0.487
581.500	362.762	79.984	19.992	100.347	19.004	66.966	0.507
582.000	362.998	79.984	19.992	100.351	18.998	67.402	0.524
582.500	363.288	79.984	19.993	100.356	18.996	67.590	0.520
583.000	363.482	79.983	19.992	100.362	18.987	68.167	0.505
583.500	363.766	79.984	19.991	100.365	18.993	67.797	0.480
584.000	364.023	79.984	19.992	100.373	18.981	68.618	0.509
584.500	364.239	79.987	19.991	100.375	18.983	68.487	0.508
585.000	364.504	79.986	19.991	100.377	18.978	68.812	0.477
585.500	364.761	79.987	19.991	100.377	18.974	69.092	0.501
586.000	365.037	79.986	19.990	100.379	18.971	69.284	0.527
586.500	365.264	79.985	19.992	100.379	18.967	69.591	0.518
587.000	365.524	79.986	19.992	100.380	18.964	69.843	0.495
587.500	365.767	79.987	19.992	100.380	18.962	69.981	0.496
588.000	365.970	79.985	19.992	100.381	18.954	70.505	0.475
588.500	366.267	79.986	19.990	100.381	18.951	70.749	0.472
589.000	366.516	79.986	19.990	100.382	18.947	71.024	0.523
589.500	366.773	79.984	19.991	100.381	18.944	71.194	0.526
590.000	367.015	79.986	19.992	100.381	18.940	71.471	0.502
590.500	367.266	79.987	19.992	100.381	18.934	71.883	0.496
591.000	367.533	79.982	19.992	100.381	18.931	72.099	0.506
591.500	367.759	79.988	19.991	100.381	18.927	72.400	0.505
592.000	368.051	79.985	19.993	100.382	18.926	72.509	0.506
592.500	368.286	79.986	19.991	100.382	18.919	72.987	0.523
593.000	368.535	79.983	19.991	100.382	18.919	72.985	0.505
593.500	368.756	79.985	19.992	100.383	18.910	73.578	0.477
594.000	368.999	79.985	19.992	100.383	18.909	73.669	0.467
594.500	369.291	79.983	19.991	100.382	18.908	73.713	0.500
595.000	369.551	79.984	19.992	100.381	18.903	74.052	0.544
595.500	369.799	79.985	19.992	100.381	18.904	73.990	0.531
596.000	370.023	79.982	19.992	100.380	18.900	74.272	0.490
596.500	370.289	79.985	19.991	100.380	18.894	74.718	0.481
597.000	370.517	79.984	19.993	100.379	18.892	74.819	0.492
597.500	370.787	79.983	19.991	100.379	18.892	74.841	0.496
598.000	371.011	79.984	19.991	100.379	18.890	75.005	0.495
598.500	371.322	79.982	19.991	100.379	18.887	75.198	0.514
599.000	371.555	79.983	19.992	100.380	18.883	75.472	0.540
599.500	371.842	79.984	19.991	100.379	18.882	75.545	0.533
600.000	372.071	79.984	19.991	100.380	18.877	75.861	0.518
600.500	372.359	79.983	19.992	100.380	18.874	76.071	0.516
601.000	372.586	79.983	19.992	100.380	18.878	75.845	0.516
601.500	372.836	79.982	19.990	100.380	18.868	76.522	0.496
602.000	373.111	79.986	19.992	100.381	18.869	76.471	0.501
602.500	373.373	79.982	19.991	100.380	18.866	76.627	0.531
603.000	373.622	79.984	19.992	100.382	18.867	76.618	0.524
603.500	373.889	79.985	19.991	100.384	18.864	76.771	0.514
604.000	374.148	79.984	19.993	100.383	18.863	76.838	0.521
604.500	374.400	79.984	19.992	100.380	18.866	76.678	0.519
605.000	374.647	79.983	19.992	100.375	18.861	76.967	0.505
605.500	374.912	79.982	19.992	100.370	18.863	76.864	0.505
606.000	375.162	79.983	19.992	100.365	18.860	77.050	0.513
606.500	375.386	79.983	19.992	100.361	18.863	76.849	0.495
607.000	375.648	79.983	19.992	100.361	18.859	77.130	0.480
607.500	375.943	79.982	19.992	100.363	18.864	76.778	0.521
608.000	376.197	79.983	19.992	100.364	18.859	77.104	0.553
608.500	376.404	79.983	19.991	100.365	18.858	77.154	0.505
609.000	376.713	79.983	19.991	100.363	18.863	76.833	0.489
609.500	376.937	79.984	19.992	100.359	18.862	76.905	0.525
610.000	377.208	79.981	19.992	100.354	18.866	76.603	0.514
610.500	377.451	79.983	19.992	100.348	18.867	76.537	0.504
611.000	377.691	79.983	19.992	100.344	18.869	76.397	0.499
611.500	377.971	79.985	19.991	100.344	18.872	76.195	0.502
612.000	378.226	79.983	19.992	100.342	18.873	76.112	0.528
612.500	378.486	79.983	19.992	100.342	18.876	75.913	0.525
613.000	378.748	79.982	19.993	100.342	18.881	75.520	0.519
613.500	378.970	79.984	19.992	100.338	18.887	75.102	0.503
614.000	379.232	79.984	19.992	100.337	18.890	74.926	0.484
614.500	379.512	79.983	19.991	100.334	18.889	74.983	0.513
615.000	379.784	79.984	19.991	100.330	18.891	74.808	0.547
615.500	380.010	79.984	19.991	100.323	18.896	74.482	0.525
616.000	380.278	79.985	19.992	100.321	18.904	73.907	0.496
616.500	380.512	79.984	19.992	100.315	18.912	73.330	0.498
617.000	380.784	79.985	19.992	100.311	18.914	73.182	0.504
617.500	380.986	79.984	19.993	100.307	18.916	73.045	0.490
618.000	381.294	79.984	19.991	100.306	18.921	72.670	0.492
618.500	381.509	79.985	19.991	100.301	18.930	72.067	0.516
619.000	381.778	79.984	19.991	100.299	18.935	71.719	0.503
619.500	382.042	79.984	19.992	100.296	18.944	71.051	0.509
620.000	382.308	79.985	19.992	100.291	18.948	70.792	0.532
620.500	382.589	79.985	19.992	100.284	18.953	70.477	0.538
621.000	382.842	79.984	19.991	100.279	18.963	69.759	0.540
621.500	383.069	79.985	19.992	100.273	18.974	68.965	0.507
622.000	383.351	79.984	19.992	100.267	18.978	68.702	0.494
622.500	383.564	79.984	19.991	100.265	18.987	68.061	0.502
623.000	383.852	79.985	19.992	100.259	18.994	67.582	0.498
623.500	384.114	79.984	19.992	100.253	19.001	67.038	0.526
624.000	384.367	79.986	19.992	100.250	19.013	66.188	0.532
624.500	384.588	79.984	19.991	100.245	19.024	65.468	0.494
625.000	384.868	79.985	19.992	100.237	19.031	64.944	0.488
625.501	385.158	79.982	19.992	100.234	19.043	64.120	0.536
626.000	385.396	79.984	19.992	100.230	19.052	63.459	0.548
626.500	385.649	79.985	19.992	100.221	19.063	62.663	0.509
627.000	385.869	79.983	19.991	100.215	19.074	61.897	0.482
627.500	386.134	79.983	19.991	100.213	19.081	61.400	0.479
628.000	386.415	79.980	19.992	100.208	19.091	60.703	0.515
628.500	386.666	79.983	19.992	100.202	19.106	59.663	0.539
629.000	386.932	79.984	19.992	100.198	19.116	58.984	0.525
629.500	387.206	79.982	19.992	100.194	19.127	58.231	0.528
630.000	387.448	79.984	19.993	100.188	19.139	57.340	0.528
630.500	387.710	79.983	19.992	100.186	19.150	56.569	0.510
631.000	387.948	79.983	19.992	100.186	19.163	55.690	0.502
631.500	388.206	79.983	19.992	100.184	19.177	54.706	0.498
632.000	388.440	79.984	19.992	100.180	19.186	54.071	0.494
632.500	388.701	79.982	19.992	100.177	19.195	53.441	0.493
633.000	388.997	79.982	19.992	100.170	19.209	52.482	0.526
633.500	389.253	79.981	19.991	100.163	19.223	51.456	0.555
634.000	389.502	79.983	19.992	100.158	19.233	50.795	0.528
634.500	389.769	79.983	19.993	100.153	19.243	50.031	0.511
635.000	390.050	79.982	19.992	100.146	19.255	49.239	0.533
635.500	390.254	79.984	19.992	100.140	19.268	48.317	0.516
636.000	390.532	79.983	19.992	100.132	19.281	47.439	0.483
636.500	390.843	79.983	19.993	100.125	19.292	46.635	0.535
637.000	391.081	79.984	19.993	100.118	19.306	45.675	0.569
637.500	391.350	79.985	19.994	100.115	19.317	44.867	0.528
638.000	391.578	79.985	19.992	100.112	19.333	43.794	0.502
638.500	391.831	79.984	19.992	100.111	19.344	43.006	0.489
639.000	392.111	79.984	19.992	100.110	19.358	42.001	0.507
639.500	392.334	79.984	19.992	100.109	19.366	41.437	0.518
640.000	392.599	79.984	19.992	100.108	19.386	40.038	0.496
640.500	392.879	79.984	19.992	100.108	19.395	39.404	0.517
641.000	393.146	79.986	19.993	100.108	19.408	38.523	0.546
641.500	393.410	79.983	19.992	100.107	19.420	37.652	0.539
642.000	393.671	79.986	19.993	100.106	19.430	36.945	0.528
642.500	393.932	79.986	19.992	100.101	19.443	36.028	0.524
643.000	394.226	79.984	19.992	100.098	19.451	35.494	0.539
643.500	394.484	79.985	19.993	100.095	19.464	34.598	0.554
644.000	394.716	79.984	19.993	100.087	19.478	33.644	0.521
644.500	394.972	79.984	19.991	100.081	19.495	32.447	0.488
645.000	395.239	79.984	19.993	100.079	19.499	32.149	0.505
645.500	395.520	79.985	19.992	100.076	19.509	31.463	0.536
646.000	395.746	79.984	19.993	100.073	19.520	30.676	0.528
646.500	396.007	79.984	19.993	100.074	19.531	29.885	0.497
647.000	396.275	79.984	19.992	100.075	19.541	29.176	0.508
647.500	396.511	79.985	19.993	100.075	19.547	28.776	0.516
648.000	396.785	79.985	19.992	100.072	19.558	28.015	0.507
648.500	397.011	79.985	19.992	100.070	19.575	26.853	0.506
649.000	397.280	79.983	19.992	100.070	19.581	26.399	0.498
649.500	397.555	79.983	19.991	100.068	19.590	25.786	0.519
650.000	397.791	79.984	19.992	100.069	19.597	25.247	0.528
650.500	398.075	79.987	19.991	100.069	19.604	24.766	0.516
651.000	398.347	79.984	19.992	100.069	19.615	24.004	0.537
651.500	398.604	79.983	19.993	100.070	19.623	23.436	0.542
652.000	398.844	79.983	19.992	100.070	19.630	22.997	0.513
652.500	399.103	79.985	19.992	100.070	19.637	22.514	0.498
653.000	399.355	79.987	19.992	100.066	19.646	21.835	0.505
653.500	399.615	79.983	19.992	100.066	19.653	21.381	0.512
654.000	399.867	79.982	19.993	100.065	19.658	21.013	0.513
654.500	400.145	79.982	19.991	100.066	19.667	20.353	0.521
655.000	400.396	79.982	19.993	100.065	19.672	20.053	0.530
655.500	400.643	79.984	19.992	100.070	19.678	19.615	0.514
656.000	400.903	79.982	19.992	100.070	19.685	19.110	0.502
656.500	401.171	79.985	19.992	100.070	19.693	18.593	0.517
657.000	401.443	79.984	19.992	100.069	19.700	18.074	0.534
657.500	401.688	79.983	19.992	100.070	19.702	17.963	0.528
658.000	401.938	79.984	19.992	100.068	19.706	17.680	0.506
658.500	402.226	79.985	19.992	100.067	19.717	16.908	0.517
659.000	402.414	79.984	19.994	100.067	19.722	16.527	0.507
659.500	402.701	79.984	19.993	100.065	19.723	16.487	0.475
660.000	402.972	79.985	19.993	100.062	19.730	15.997	0.517
660.500	403.216	79.984	19.992	100.062	19.730	15.936	0.537
661.000	403.485	79.984	19.992	100.062	19.737	15.454	0.514
661.500	403.704	79.984	19.992	100.061	19.740	15.275	0.500
662.000	403.985	79.983	19.993	100.061	19.745	14.914	0.494
662.500	404.274	79.983	19.993	100.063	19.750	14.567	0.535
663.000	404.516	79.986	19.993	100.064	19.756	14.171	0.551
663.500	404.747	79.985	19.992	100.063	19.756	14.145	0.502
664.001	404.996	79.985	19.993	100.064	19.757	14.078	0.477
664.500	405.226	79.985	19.992	100.065	19.762	13.729	0.479
665.000	405.508	79.984	19.992	100.066	19.766	13.418	0.495
665.500	405.733	79.985	19.993	100.065	19.767	13.390	0.509
666.001	406.012	79.985	19.994	100.065	19.774	12.917	0.506
666.500	406.261	79.984	19.991	100.066	19.777	12.645	0.516
667.000	406.506	79.985	19.993	100.066	19.774	12.857	0.511
667.500	406.770	79.985	19.993	100.065	19.780	12.491	0.502
668.000	407.010	79.986	19.993	100.065	19.781	12.425	0.507
668.500	407.289	79.985	19.992	100.065	19.781	12.423	0.512
669.000	407.572	79.986	19.993	100.063	19.782	12.351	0.541
669.500	407.778	79.987	19.993	100.062	19.784	12.154	0.525
670.000	408.042	79.985	19.992	100.060	19.780	12.437	0.479
670.500	408.297	79.986	19.993	100.060	19.786	12.020	0.494
671.000	408.548	79.985	19.992	100.060	19.791	11.683	0.513
671.500	408.762	79.984	19.994	100.060	19.792	11.600	0.485
672.000	409.037	79.984	19.991	100.062	19.795	11.438	0.477
672.500	409.332	79.986	19.995	100.063	19.791	11.732	0.530
673.000	409.560	79.985	19.993	100.063	19.795	11.391	0.547
673.500	409.809	79.984	19.993	100.064	19.795	11.397	0.500
674.000	410.051	79.984	19.993	100.063	19.795	11.430	0.484
674.500	410.318	79.984	19.992	100.061	19.797	11.276	0.500
675.000	410.585	79.984	19.992	100.059	19.798	11.200	0.522
675.500	410.810	79.985	19.994	100.057	19.795	11.408	0.513
676.000	411.089	79.982	19.992	100.057	19.798	11.187	0.498
676.500	411.307	79.985	19.991	100.058	19.802	10.953	0.500
677.000	411.595	79.985	19.992	100.060	19.803	10.832	0.501
677.500	411.837	79.984	19.992	100.063	19.800	11.068	0.518
678.000	412.081	79.983	19.993	100.065	19.802	10.949	0.508
678.500	412.318	79.984	19.992	100.065	19.803	10.867	0.484
679.000	412.601	79.984	19.993	100.066	19.805	10.720	0.501
679.500	412.859	79.986	19.992	100.065	19.809	10.423	0.531
680.000	413.111	79.984	19.993	100.059	19.804	10.791	0.526
680.500	413.343	79.984	19.992	100.059	19.805	10.691	0.497
681.000	413.551	79.983	19.993	100.058	19.809	10.448	0.462
681.500	413.794	79.984	19.991	100.057	19.811	10.284	0.446
682.000	414.045	79.984	19.992	100.058	19.812	10.214	0.473
682.500	414.283	79.984	19.992	100.063	19.813	10.155	0.491
683.000	414.530	79.983	19.992	100.064	19.810	10.376	0.487
683.500	414.796	79.983	19.991	100.064	19.814	10.068	0.500
684.000	415.038	79.984	19.991	100.065	19.812	10.200	0.511
684.500	415.288	79.983	19.992	100.065	19.815	10.050	0.500
685.000	415.544	79.984	19.992	100.062	19.815	10.035	0.499
685.500	415.803	79.983	19.992	100.062	19.811	10.280	0.510
686.000	416.052	79.983	19.992	100.062	19.813	10.176	0.512
686.500	416.291	79.983	19.992	100.061	19.815	10.054	0.499
687.000	416.549	79.984	19.991	100.057	19.814	10.097	0.492
687.500	416.775	79.983	19.992	100.058	19.814	10.075	0.490
688.000	417.016	79.982	19.992	100.058	19.817	9.896	0.476
688.500	417.294	79.984	19.992	100.058	19.812	10.256	0.493
689.000	417.559	79.982	19.992	100.059	19.816	9.916	0.530
689.500	417.786	79.984	19.993	100.063	19.817	9.907	0.517
690.000	418.039	79.984	19.992	100.065	19.817	9.864	0.486
690.500	418.253	79.982	19.992	100.065	19.819	9.709	0.474
691.000	418.534	79.982	19.992	100.065	19.817	9.850	0.481
691.500	418.801	79.983	19.992	100.066	19.821	9.633	0.521
692.000	419.050	79.983	19.992	100.065	19.820	9.682	0.532
692.500	419.284	79.985	19.992	100.065	19.822	9.532	0.500
693.000	419.536	79.983	19.992	100.062	19.816	9.940	0.484
693.500	419.813	79.984	19.992	100.059	19.820	9.685	0.507
694.000	420.054	79.984	19.992	100.058	19.820	9.640	0.524
694.500	420.272	79.983	19.991	100.059	19.821	9.617	0.488
695.000	420.550	79.983	19.992	100.057	19.822	9.557	0.477
695.500	420.834	79.983	19.991	100.060	19.821	9.578	0.529
696.000	421.055	79.984	19.992	100.064	19.822	9.514	0.534
696.500	421.343	79.985	19.992	100.065	19.827	9.178	0.507
697.000	421.564	79.984	19.992	100.065	19.827	9.195	0.509
697.500	421.824	79.983	19.992	100.068	19.823	9.490	0.495
698.000	422.101	79.983	19.992	100.068	19.824	9.420	0.509
698.500	422.323	79.983	19.992	100.067	19.824	9.363	0.518
699.000	422.557	79.983	19.992	100.067	19.819	9.748	0.477
699.500	422.787	79.983	19.993	100.067	19.822	9.507	0.460
700.000	423.059	79.984	19.991	100.068	19.823	9.467	0.483
700.500	423.269	79.984	19.991	100.068	19.823	9.488	0.492
701.000	423.527	79.982	19.993	100.069	19.824	9.375	0.475
701.500	423.816	79.984	19.993	100.069	19.824	9.394	0.507
702.000	424.032	79.983	19.992	100.069	19.826	9.231	0.526
702.500	424.296	79.984	19.992	100.068	19.824	9.372	0.493
703.000	424.538	79.984	19.993	100.064	19.826	9.263	0.493
703.500	424.792	79.984	19.992	100.057	19.828	9.116	0.500
704.000	425.071	79.982	19.991	100.056	19.823	9.468	0.514
704.500	425.303	79.983	19.990	100.055	19.827	9.191	0.522
705.000	425.545	79.983	19.992	100.053	19.828	9.094	0.493
705.500	425.815	79.983	19.991	100.054	19.827	9.196	0.493
706.000	426.052	79.984	19.993	100.057	19.828	9.096	0.509
706.500	426.320	79.983	19.992	100.058	19.828	9.138	0.506
707.000	426.540	79.983	19.992	100.058	19.830	8.990	0.497
707.500	426.784	79.982	19.992	100.058	19.829	9.013	0.477
708.000	427.061	79.982	19.991	100.063	19.829	9.015	0.493
708.500	427.319	79.983	19.991	100.064	19.833	8.785	0.527
709.000	427.532	79.982	19.992	100.062	19.830	8.962	0.503
709.500	427.816	79.983	19.991	100.061	19.828	9.134	0.484
710.000	428.057	79.982	19.991	100.063	19.828	9.103	0.511
710.500	428.329	79.983	19.991	100.063	19.830	8.937	0.519
711.000	428.591	79.982	19.991	100.064	19.831	8.865	0.523
711.500	428.856	79.983	19.991	100.066	19.831	8.865	0.531
712.000	429.069	79.983	19.991	100.067	19.830	8.937	0.502
712.500	429.318	79.982	19.991	100.066	19.834	8.665	0.470
713.000	429.548	79.982	19.991	100.064	19.835	8.635	0.471
713.500	429.826	79.982	19.991	100.060	19.836	8.576	0.494
714.000	430.040	79.983	19.992	100.058	19.831	8.901	0.500
714.500	430.304	79.983	19.992	100.058	19.834	8.691	0.485
715.000	430.579	79.982	19.992	100.059	19.835	8.620	0.508
715.500	430.800	79.982	19.992	100.061	19.834	8.685	0.518
716.000	431.034	79.982	19.991	100.065	19.834	8.700	0.475
716.500	431.342	79.982	19.990	100.068	19.834	8.699	0.498
717.000	431.573	79.984	19.991	100.070	19.832	8.820	0.541
717.500	431.839	79.982	19.990	100.071	19.828	9.110	0.519
718.000	432.073	79.984	19.991	100.070	19.833	8.737	0.499
718.500	432.304	79.983	19.991	100.070	19.835	8.592	0.482
719.000	432.590	79.983	19.992	100.069	19.837	8.505	0.491
719.500	432.836	79.984	19.992	100.068	19.828	9.074	0.525
720.000	433.103	79.984	19.991	100.068	19.834	8.673	0.522
720.500	433.331	79.983	19.992	100.068	19.835	8.641	0.504
721.000	433.592	79.983	19.991	100.065	19.833	8.739	0.493
721.500	433.829	79.983	19.992	100.065	19.832	8.795	0.494
722.000	434.096	79.984	19.992	100.065	19.835	8.633	0.500
722.500	434.352	79.984	19.992	100.062	19.837	8.511	0.513
723.000	434.614	79.986	19.992	100.061	19.832	8.814	0.521
723.500	434.844	79.985	19.993	100.062	19.835	8.635	0.505
724.000	435.073	79.984	19.992	100.062	19.834	8.678	0.475
724.500	435.359	79.986	19.992	100.060	19.835	8.644	0.487
725.000	435.601	79.984	19.991	100.061	19.834	8.661	0.522
725.500	435.880	79.984	19.992	100.059	19.836	8.571	0.525
726.000	436.135	79.986	19.992	100.058	19.833	8.746	0.528
726.500	436.390	79.984	19.992	100.054	19.834	8.716	0.522
727.000	436.637	79.983	19.992	100.055	19.835	8.626	0.506
727.500	436.892	79.984	19.992	100.057	19.838	8.435	0.502
728.000	437.173	79.985	19.992	100.059	19.836	8.563	0.519
728.500	437.399	79.985	19.992	100.059	19.838	8.439	0.521
729.000	437.631	79.983	19.992	100.062	19.839	8.342	0.482
729.500	437.912	79.983	19.992	100.061	19.839	8.348	0.486
730.000	438.158	79.984	19.992	100.061	19.840	8.252	0.520
730.500	438.367	79.984	19.993	100.061	19.839	8.350	0.491
731.000	438.627	79.983	19.993	100.062	19.839	8.371	0.462
731.501	438.886	79.984	19.992	100.062	19.838	8.388	0.494
732.001	439.149	79.984	19.992	100.063	19.838	8.393	0.521
732.500	439.372	79.985	19.993	100.063	19.837	8.508	0.504
733.000	439.629	79.985	19.992	100.062	19.837	8.463	0.483
733.500	439.870	79.984	19.992	100.062	19.841	8.195	0.488
734.000	440.124	79.985	19.991	100.062	19.837	8.489	0.496
734.500	440.409	79.984	19.992	100.060	19.840	8.273	0.517
735.000	440.652	79.983	19.992	100.061	19.841	8.207	0.534
735.500	440.910	79.983	19.992	100.060	19.843	8.046	0.515
736.000	441.114	79.983	19.992	100.060	19.844	8.009	0.481
736.500	441.386	79.983	19.991	100.060	19.843	8.082	0.469
737.000	441.629	79.984	19.992	100.063	19.841	8.222	0.496
737.500	441.884	79.985	19.993	100.062	19.842	8.152	0.506
738.000	442.141	79.984	19.993	100.063	19.840	8.280	0.505
738.500	442.385	79.985	19.992	100.063	19.844	7.982	0.507
739.000	442.639	79.984	19.992	100.061	19.845	7.933	0.499
739.500	442.871	79.983	19.992	100.060	19.844	7.982	0.491
740.000	443.127	79.984	19.992	100.059	19.845	7.954	0.487
740.500	443.383	79.986	19.993	100.060	19.846	7.863	0.500
741.000	443.631	79.985	19.991	100.060	19.844	7.993	0.508
741.500	443.874	79.984	19.992	100.062	19.844	7.961	0.498
742.000	444.129	79.984	19.992	100.058	19.845	7.927	0.495
742.500	444.399	79.984	19.992	100.058	19.842	8.099	0.512
743.000	444.642	79.984	19.992	100.056	19.845	7.923	0.519
743.500	444.910	79.984	19.992	100.055	19.845	7.905	0.512
744.000	445.126	79.986	19.992	100.054	19.847	7.785	0.498
744.500	445.389	79.985	19.992	100.056	19.847	7.764	0.482
745.000	445.650	79.985	19.992	100.058	19.847	7.799	0.501
745.500	445.894	79.984	19.992	100.059	19.849	7.611	0.514
746.000	446.159	79.985	19.992	100.058	19.848	7.673	0.507
746.500	446.375	79.986	19.992	100.056	19.848	7.714	0.495
747.000	446.655	79.985	19.992	100.059	19.849	7.645	0.489
747.500	446.890	79.985	19.992	100.058	19.852	7.410	0.505
748.000	447.164	79.986	19.993	100.057	19.850	7.574	0.512
748.500	447.452	79.985	19.992	100.057	19.853	7.360	0.536
749.000	447.675	79.986	19.993	100.060	19.852	7.428	0.537
749.500	447.930	79.985	19.992	100.058	19.852	7.437	0.494
750.000	448.189	79.984	19.991	100.055	19.851	7.465	0.495
750.500	448.435	79.983	19.993	100.056	19.851	7.495	0.509
751.000	448.673	79.985	19.993	100.055	19.852	7.401	0.495
751.500	448.907	79.985	19.993	100.052	19.851	7.497	0.478
752.000	449.197	79.985	19.992	100.049	19.854	7.322	0.498
752.500	449.445	79.985	19.992	100.050	19.852	7.411	0.531
753.000	449.686	79.984	19.993	100.050	19.854	7.257	0.514
753.500	449.963	79.985	19.993	100.052	19.856	7.179	0.503
754.000	450.195	79.983	19.993	100.054	19.852	7.438	0.514
754.500	450.435	79.985	19.992	100.056	19.853	7.332	0.490
755.000	450.727	79.983	19.992	100.052	19.856	7.134	0.501
755.500	450.961	79.984	19.993	100.044	19.855	7.203	0.529
756.000	451.250	79.983	19.992	100.037	19.853	7.349	0.525
756.500	451.437	79.982	19.994	100.035	19.854	7.268	0.500
757.000	451.703	79.982	19.993	100.034	19.857	7.078	0.464
757.500	451.955	79.983	19.993	100.035	19.855	7.197	0.485
758.000	452.204	79.983	19.993	100.043	19.853	7.327	0.510
758.500	452.469	79.984	19.993	100.046	19.855	7.222	0.508
759.000	452.749	79.984	19.992	100.046	19.857	7.062	0.529
759.500	452.993	79.983	19.993	100.042	19.855	7.203	0.535
760.000	453.241	79.983	19.993	100.041	19.855	7.231	0.509
760.500	453.474	79.983	19.993	100.035	19.856	7.135	0.487
761.000	453.732	79.982	19.993	100.033	19.856	7.153	0.486
761.500	454.033	79.982	19.993	100.031	19.855	7.245	0.525
762.000	454.243	79.984	19.993	100.031	19.857	7.087	0.535
762.500	454.492	79.983	19.993	100.030	19.859	6.959	0.485
763.000	454.776	79.984	19.992	100.034	19.859	6.936	0.496
763.500	455.010	79.983	19.993	100.038	19.859	6.942	0.525
764.001	455.287	79.983	19.992	100.042	19.857	7.074	0.515
764.501	455.537	79.984	19.992	100.042	19.862	6.749	0.519
765.000	455.783	79.983	19.993	100.047	19.859	6.904	0.511
765.500	456.054	79.985	19.992	100.043	19.857	7.051	0.506
766.000	456.318	79.983	19.992	100.037	19.861	6.810	0.526
766.500	456.529	79.984	19.992	100.036	19.862	6.755	0.505
767.000	456.768	79.983	19.993	100.039	19.864	6.593	0.463
767.500	457.064	79.983	19.992	100.039	19.864	6.569	0.492
768.000	457.307	79.983	19.992	100.047	19.860	6.897	0.537
768.501	457.544	79.983	19.991	100.051	19.862	6.724	0.509
769.000	457.799	79.983	19.992	100.056	19.861	6.820	0.486
769.500	458.052	79.983	19.992	100.059	19.865	6.496	0.500
770.000	458.331	79.983	19.992	100.058	19.861	6.777	0.520
770.500	458.575	79.982	19.993	100.052	19.864	6.558	0.528
771.000	458.825	79.982	19.992	100.048	19.865	6.484	0.509
771.500	459.052	79.981	19.991	100.048	19.865	6.546	0.486
772.000	459.327	79.984	19.991	100.044	19.864	6.588	0.490
772.500	459.578	79.983	19.991	100.040	19.865	6.543	0.513
773.000	459.842	79.984	19.991	100.044	19.861	6.775	0.520
773.500	460.091	79.984	19.992	100.045	19.866	6.482	0.514
774.001	460.332	79.984	19.992	100.041	19.867	6.346	0.502
774.500	460.584	79.984	19.991	100.040	19.864	6.617	0.491
775.000	460.820	79.984	19.992	100.040	19.866	6.467	0.491
775.500	461.090	79.985	19.992	100.041	19.865	6.502	0.497
776.000	461.323	79.983	19.991	100.042	19.867	6.350	0.505
776.500	461.572	79.983	19.992	100.041	19.866	6.437	0.492
777.000	461.836	79.984	19.992	100.043	19.865	6.485	0.497
777.500	462.087	79.983	19.991	100.047	19.867	6.360	0.514
778.000	462.334	79.984	19.991	100.043	19.869	6.241	0.506
778.500	462.568	79.983	19.991	100.046	19.867	6.370	0.490
779.000	462.843	79.982	19.992	100.050	19.867	6.356	0.495
779.500	463.095	79.984	19.992	100.055	19.870	6.165	0.518
780.000	463.292	79.983	19.991	100.057	19.869	6.212	0.488
780.500	463.598	79.984	19.991	100.056	19.869	6.242	0.476
781.000	463.857	79.982	19.991	100.053	19.875	5.805	0.534
781.500	464.078	79.982	19.993	100.054	19.871	6.067	0.522
782.000	464.363	79.984	19.992	100.053	19.872	6.031	0.493
782.500	464.592	79.983	19.992	100.052	19.872	6.050	0.510
783.000	464.818	79.982	19.992	100.055	19.871	6.104	0.484
783.500	465.101	79.983	19.992	100.055	19.873	5.976	0.482
784.000	465.335	79.983	19.992	100.052	19.871	6.068	0.513
784.500	465.615	79.982	19.992	100.045	19.872	6.001	0.516
785.000	465.862	79.983	19.992	100.040	19.874	5.873	0.521
785.500	466.111	79.983	19.992	100.039	19.878	5.598	0.512
786.000	466.371	79.983	19.993	100.043	19.875	5.828	0.503
786.500	466.587	79.982	19.992	100.044	19.878	5.600	0.492
787.000	466.862	79.983	19.993	100.048	19.874	5.907	0.483
787.500	467.086	79.983	19.992	100.056	19.878	5.594	0.495
788.000	467.362	79.982	19.993	100.059	19.877	5.703	0.499
788.500	467.596	79.984	19.992	100.058	19.876	5.757	0.505
789.000	467.860	79.983	19.992	100.058	19.874	5.884	0.504
789.500	468.097	79.984	19.992	100.059	19.875	5.801	0.499
790.000	468.379	79.982	19.992	100.055	19.879	5.556	0.510
790.500	468.626	79.984	19.992	100.050	19.878	5.635	0.524
791.000	468.871	79.983	19.991	100.048	19.879	5.554	0.511
791.500	469.136	79.982	19.992	100.047	19.878	5.626	0.501
792.000	469.402	79.982	19.992	100.043	19.879	5.510	0.520
792.500	469.683	79.984	19.991	100.042	19.880	5.485	0.539
793.000	469.901	79.984	19.991	100.039	19.878	5.583	0.523
793.500	470.179	79.983	19.993	100.039	19.882	5.325	0.498
794.000	470.447	79.983	19.993	100.036	19.881	5.418	0.521
794.500	470.693	79.983	19.992	100.034	19.882	5.335	0.530
795.000	470.935	79.983	19.992	100.037	19.884	5.183	0.501
795.500	471.204	79.982	19.992	100.043	19.882	5.308	0.500
796.000	471.478	79.984	19.991	100.048	19.883	5.283	0.527
796.500	471.714	79.983	19.993	100.056	19.885	5.122	0.526
797.000	471.946	79.983	19.992	100.064	19.881	5.401	0.488
797.500	472.233	79.983	19.992	100.064	19.880	5.493	0.493
798.000	472.477	79.984	19.991	100.056	19.884	5.172	0.525
798.500	472.747	79.984	19.993	100.049	19.879	5.528	0.523
799.000	473.011	79.984	19.991	100.042	19.883	5.270	0.525
799.500	473.249	79.984	19.992	100.037	19.885	5.119	0.518
800.000	473.548	79.985	19.991	100.038	19.883	5.233	0.519
800.500	473.824	79.985	19.992	100.045	19.886	5.054	0.556
801.000	474.077	79.984	19.991	100.048	19.884	5.218	0.552
801.500	474.348	79.984	19.992	100.051	19.887	4.950	0.527
802.000	474.598	79.985	19.991	100.049	19.885	5.105	0.523
802.500	474.849	79.984	19.991	100.044	19.883	5.284	0.511
803.000	475.128	79.984	19.991	100.036	19.884	5.161	0.515
803.500	475.392	79.986	19.991	100.032	19.882	5.314	0.537
804.000	475.644	79.986	19.992	100.030	19.885	5.152	0.530
804.500	475.928	79.986	19.991	100.032	19.884	5.163	0.526
805.000	476.176	79.986	19.991	100.038	19.886	5.065	0.534
805.500	476.420	79.985	19.990	100.044	19.885	5.110	0.512
806.000	476.678	79.986	19.991	100.050	19.886	5.044	0.497
806.500	476.940	79.985	19.991	100.057	19.886	5.046	0.510
807.000	477.191	79.986	19.991	100.055	19.886	5.029	0.517
807.500	477.444	79.984	19.991	100.051	19.890	4.801	0.509
808.000	477.682	79.985	19.992	100.045	19.890	4.758	0.498
808.500	477.960	79.985	19.991	100.038	19.890	4.799	0.503
809.000	478.228	79.986	19.993	100.030	19.890	4.792	0.531
809.500	478.460	79.986	19.991	100.027	19.888	4.893	0.524
810.000	478.717	79.985	19.991	100.027	19.888	4.927	0.495
810.500	478.975	79.984	19.992	100.029	19.890	4.758	0.502
811.000	479.247	79.985	19.992	100.034	19.889	4.823	0.522
811.500	479.508	79.986	19.992	100.035	19.892	4.661	0.531
812.000	479.759	79.985	19.992	100.036	19.890	4.765	0.522
812.500	480.018	79.986	19.993	100.038	19.890	4.775	0.511
813.000	480.266	79.986	19.992	100.039	19.893	4.566	0.509
813.500	480.529	79.985	19.994	100.038	19.891	4.666	0.509
814.000	480.782	79.985	19.993	100.040	19.891	4.696	0.513
814.500	481.079	79.984	19.992	100.041	19.892	4.627	0.533
815.000	481.287	79.985	19.993	100.043	19.891	4.719	0.528
815.500	481.558	79.985	19.992	100.042	19.892	4.600	0.492
816.000	481.805	79.984	19.993	100.038	19.892	4.621	0.498
816.500	482.062	79.984	19.992	100.037	19.887	4.973	0.511
817.000	482.312	79.987	19.993	100.034	19.894	4.468	0.506
817.500	482.606	79.985	19.992	100.031	19.890	4.739	0.525
818.000	482.832	79.984	19.992	100.032	19.894	4.488	0.532
818.500	483.092	79.984	19.993	100.036	19.893	4.532	0.503
819.000	483.323	79.986	19.992	100.035	19.893	4.568	0.488
819.500	483.621	79.985	19.992	100.037	19.891	4.679	0.510
820.000	483.874	79.985	19.992	100.038	19.890	4.766	0.540
820.500	484.161	79.985	19.991	100.037	19.895	4.451	0.546
821.000	484.418	79.984	19.993	100.035	19.894	4.513	0.542
821.500	484.670	79.983	19.992	100.033	19.893	4.570	0.527
822.000	484.931	79.984	19.993	100.032	19.893	4.536	0.511
822.500	485.196	79.986	19.993	100.033	19.890	4.739	0.519
823.000	485.457	79.985	19.993	100.035	19.891	4.669	0.526
823.500	485.689	79.984	19.992	100.040	19.894	4.481	0.509
824.000	485.977	79.987	19.993	100.048	19.895	4.399	0.506
824.500	486.231	79.986	19.993	100.053	19.893	4.563	0.531
825.000	486.462	79.986	19.992	100.056	19.892	4.631	0.514
825.500	486.738	79.985	19.992	100.059	19.893	4.529	0.496
826.000	487.012	79.987	19.992	100.057	19.896	4.333	0.528
826.500	487.259	79.986	19.992	100.053	19.892	4.639	0.536
827.000	487.540	79.986	19.993	100.048	19.895	4.437	0.525
827.500	487.782	79.985	19.992	100.043	19.894	4.482	0.526
828.000	488.054	79.987	19.991	100.043	19.891	4.701	0.518
828.500	488.303	79.986	19.992	100.042	19.894	4.458	0.517
829.000	488.577	79.987	19.992	100.043	19.895	4.447	0.522
829.500	488.811	79.987	19.992	100.047	19.894	4.494	0.516
830.000	489.118	79.986	19.990	100.051	19.890	4.746	0.524
830.500	489.368	79.986	19.991	100.050	19.895	4.443	0.548
831.000	489.622	79.988	19.991	100.045	19.892	4.612	0.530
831.500	489.878	79.987	19.992	100.046	19.893	4.567	0.508
832.000	490.138	79.985	19.992	100.046	19.894	4.503	0.513
832.500	490.423	79.988	19.992	100.046	19.892	4.633	0.530
833.000	490.651	79.986	19.992	100.046	19.891	4.712	0.529
833.500	490.915	79.985	19.991	100.047	19.898	4.233	0.502
834.000	491.172	79.985	19.991	100.043	19.895	4.435	0.507
834.500	491.412	79.986	19.991	100.040	19.899	4.150	0.509
835.000	491.670	79.985	19.991	100.036	19.896	4.367	0.497
835.500	491.926	79.985	19.992	100.032	19.895	4.418	0.506
836.000	492.176	79.987	19.992	100.029	19.895	4.386	0.510
836.500	492.425	79.984	19.991	100.029	19.894	4.514	0.502
837.000	492.711	79.984	19.992	100.031	19.897	4.250	0.517
837.500	492.947	79.985	19.992	100.033	19.896	4.361	0.528
838.000	493.261	79.984	19.992	100.035	19.896	4.316	0.536
838.500	493.509	79.984	19.992	100.037	19.897	4.292	0.556
839.000	493.754	79.984	19.993	100.037	19.896	4.322	0.527
839.500	494.069	79.983	19.992	100.038	19.894	4.502	0.526
840.001	494.308	79.984	19.992	100.036	19.894	4.473	0.557
840.500	494.546	79.982	19.992	100.037	19.894	4.485	0.516
841.000	494.800	79.982	19.992	100.037	19.897	4.308	0.485
841.500	495.077	79.982	19.993	100.037	19.895	4.428	0.511
842.000	495.323	79.982	19.992	100.035	19.892	4.607	0.527
842.500	495.573	79.983	19.992	100.036	19.894	4.490	0.510
843.000	495.829	79.982	19.993	100.033	19.893	4.569	0.502
843.500	496.064	79.982	19.993	100.033	19.892	4.613	0.498
844.000	496.361	79.982	19.993	100.033	19.896	4.334	0.511
844.500	496.592	79.983	19.992	100.033	19.893	4.535	0.530
845.000	496.893	79.982	19.993	100.032	19.894	4.484	0.530
845.500	497.102	79.983	19.993	100.032	19.896	4.349	0.521
846.000	497.422	79.983	19.994	100.031	19.894	4.475	0.519
846.500	497.638	79.983	19.993	100.030	19.898	4.182	0.533
847.000	497.914	79.981	19.993	100.031	19.894	4.507	0.515
847.500	498.207	79.982	19.993	100.032	19.895	4.405	0.530
848.000	498.413	79.984	19.993	100.032	19.894	4.473	0.534
848.500	498.686	79.984	19.993	100.031	19.896	4.317	0.489
849.000	498.966	79.982	19.994	100.031	19.895	4.419	0.516
849.500	499.221	79.982	19.994	100.034	19.897	4.300	0.544
850.000	499.479	79.984	19.994	100.039	19.895	4.388	0.524
850.500	499.750	79.982	19.993	100.044	19.896	4.380	0.521
851.000	499.960	79.983	19.992	100.046	19.898	4.224	0.505
851.500	500.242	79.983	19.993	100.048	19.895	4.405	0.486
852.000	500.507	79.984	19.993	100.048	19.895	4.411	0.520
852.500	500.789	79.983	19.993	100.043	19.894	4.462	0.547
853.000	501.039	79.984	19.992	100.039	19.896	4.358	0.539
853.500	501.273	79.984	19.992	100.043	19.895	4.429	0.508
854.000	501.544	79.984	19.992	100.042	19.895	4.393	0.494
854.500	501.763	79.986	19.992	100.042	19.898	4.220	0.498
855.000	502.021	79.983	19.993	100.043	19.896	4.350	0.484
855.500	502.307	79.985	19.992	100.044	19.897	4.299	0.511
856.000	502.540	79.983	19.992	100.039	19.899	4.137	0.531
856.500	502.753	79.984	19.993	100.038	19.899	4.158	0.482
857.000	503.032	79.985	19.992	100.035	19.897	4.258	0.469
857.500	503.317	79.984	19.991	100.035	19.896	4.354	0.528
858.000	503.567	79.984	19.991	100.035	19.898	4.181	0.550
858.500	503.836	79.983	19.992	100.041	19.899	4.133	0.527
859.000	504.103	79.984	19.992	100.042	19.896	4.335	0.527
859.500	504.357	79.984	19.992	100.044	19.896	4.363	0.529
860.000	504.599	79.985	19.992	100.042	19.898	4.195	0.508
860.500	504.871	79.985	19.992	100.040	19.900	4.069	0.505
861.000	505.162	79.985	19.992	100.036	19.901	4.030	0.539
861.500	505.328	79.984	19.991	100.033	19.899	4.116	0.511
862.001	505.626	79.985	19.991	100.033	19.899	4.169	0.461
862.501	505.865	79.986	19.992	100.037	19.903	3.860	0.500
863.000	506.123	79.984	19.992	100.035	19.899	4.173	0.517
863.500	506.395	79.984	19.991	100.035	19.900	4.039	0.514
864.000	506.653	79.985	19.992	100.035	19.902	3.907	0.530
864.500	506.926	79.984	19.992	100.033	19.900	4.043	0.530
865.000	507.172	79.984	19.991	100.030	19.899	4.148	0.525
865.500	507.417	79.985	19.991	100.031	19.901	3.997	0.505
866.000	507.687	79.984	19.992	100.031	19.901	4.009	0.503
866.500	507.891	79.983	19.991	100.033	19.901	3.982	0.495
867.000	508.196	79.983	19.991	100.035	19.898	4.227	0.491
867.500	508.425	79.984	19.992	100.035	19.898	4.197	0.521
868.000	508.699	79.985	19.992	100.035	19.899	4.124	0.519
868.500	508.959	79.984	19.992	100.035	19.898	4.182	0.519
869.000	509.223	79.983	19.991	100.033	19.900	4.045	0.529
869.500	509.487	79.983	19.992	100.031	19.899	4.162	0.526
870.000	509.745	79.984	19.992	100.029	19.900	4.082	0.525
870.500	510.014	79.983	19.993	100.029	19.899	4.139	0.524
871.000	510.279	79.983	19.991	100.028	19.899	4.124	0.531
871.500	510.531	79.984	19.992	100.029	19.901	4.030	0.526
872.000	510.758	79.984	19.992	100.030	19.903	3.871	0.498
872.500	511.034	79.983	19.993	100.031	19.899	4.107	0.491
873.000	511.292	79.983	19.992	100.034	19.902	3.896	0.519
873.500	511.516	79.983	19.993	100.040	19.898	4.177	0.508
874.000	511.777	79.983	19.992	100.038	19.899	4.149	0.483
874.500	512.021	79.983	19.992	100.037	19.899	4.143	0.495
875.000	512.311	79.984	19.993	100.036	19.898	4.217	0.520
875.500	512.555	79.985	19.993	100.032	19.898	4.243	0.534
876.000	512.835	79.983	19.992	100.028	19.900	4.053	0.529
876.500	513.129	79.984	19.993	100.029	19.898	4.192	0.549
877.000	513.388	79.984	19.993	100.029	19.900	4.064	0.563
877.500	513.619	79.984	19.993	100.029	19.898	4.194	0.521
878.000	513.872	79.984	19.992	100.029	19.901	3.983	0.487
878.500	514.137	79.984	19.993	100.030	19.897	4.254	0.502
879.000	514.425	79.984	19.993	100.029	19.897	4.252	0.536
879.500	514.661	79.984	19.993	100.029	19.899	4.164	0.538
880.000	514.913	79.984	19.992	100.030	19.898	4.187	0.506
880.500	515.174	79.984	19.994	100.031	19.899	4.137	0.501
881.000	515.395	79.983	19.993	100.031	19.902	3.949	0.498
881.500	515.673	79.985	19.992	100.031	19.901	3.983	0.491
882.000	515.933	79.985	19.992	100.031	19.900	4.101	0.518
882.500	516.212	79.986	19.993	100.030	19.901	4.020	0.538
883.000	516.444	79.985	19.991	100.030	19.903	3.881	0.525
883.500	516.725	79.985	19.992	100.029	19.901	4.014	0.512
884.000	517.012	79.985	19.992	100.035	19.901	3.979	0.540
884.500	517.249	79.986	19.992	100.041	19.902	3.954	0.546
885.000	517.521	79.985	19.992	100.045	19.902	3.930	0.517
885.500	517.776	79.987	19.992	100.048	19.900	4.089	0.519
886.000	518.053	79.985	19.991	100.049	19.905	3.751	0.530
886.500	518.272	79.985	19.992	100.044	19.903	3.861	0.513
887.000	518.525	79.986	19.991	100.040	19.905	3.748	0.484
887.500	518.797	79.986	19.992	100.041	19.902	3.949	0.499
888.000	519.059	79.985	19.992	100.042	19.901	4.028	0.530
888.500	519.328	79.986	19.992	100.041	19.903	3.892	0.532
889.000	519.531	79.985	19.991	100.041	19.908	3.530	0.501
889.500	519.807	79.985	19.991	100.040	19.903	3.849	0.475
890.000	520.073	79.986	19.993	100.037	19.904	3.779	0.511
890.500	520.311	79.985	19.991	100.039	19.902	3.947	0.523
891.000	520.571	79.986	19.992	100.042	19.904	3.819	0.501
891.500	520.874	79.984	19.992	100.042	19.902	3.947	0.530
892.000	521.093	79.985	19.991	100.041	19.906	3.622	0.542
892.500	521.362	79.984	19.991	100.039	19.904	3.775	0.505
893.000	521.608	79.986	19.992	100.034	19.905	3.728	0.501
893.500	521.869	79.986	19.992	100.031	19.906	3.683	0.511
894.000	522.107	79.986	19.991	100.030	19.904	3.805	0.503
894.500	522.391	79.985	19.991	100.030	19.904	3.764	0.510
895.000	522.645	79.986	19.991	100.033	19.906	3.617	0.530
895.500	522.899	79.985	19.992	100.037	19.906	3.653	0.523
896.000	523.135	79.984	19.992	100.042	19.910	3.381	0.499
896.500	523.421	79.984	19.991	100.049	19.905	3.692	0.506
897.000	523.658	79.984	19.991	100.053	19.908	3.494	0.522
897.500	523.929	79.985	19.992	100.054	19.905	3.730	0.516
898.000	524.184	79.984	19.992	100.053	19.909	3.462	0.518
898.500	524.442	79.984	19.992	100.048	19.904	3.764	0.520
899.000	524.703	79.985	19.992	100.042	19.903	3.835	0.516
899.500	524.941	79.985	19.993	100.042	19.904	3.816	0.509
900.000	525.205	79.985	19.991	100.039	19.905	3.718	0.501
900.500	525.483	79.984	19.991	100.037	19.904	3.777	0.522
901.000	525.726	79.984	19.991	100.037	19.904	3.788	0.531
901.500	525.991	79.985	19.991	100.038	19.906	3.641	0.514
902.000	526.229	79.985	19.991	100.038	19.905	3.700	0.505
902.500	526.492	79.984	19.993	100.035	19.908	3.543	0.502
903.000	526.744	79.984	19.993	100.035	19.905	3.749	0.508
903.500	526.961	79.983	19.993	100.035	19.906	3.634	0.492
904.000	527.231	79.984	19.993	100.035	19.906	3.641	0.478
904.500	527.500	79.985	19.992	100.036	19.905	3.741	0.513
905.000	527.744	79.985	19.991	100.038	19.905	3.694	0.526
905.500	528.007	79.985	19.992	100.039	19.906	3.673	0.510
906.000	528.281	79.985	19.992	100.038	19.906	3.669	0.522
906.500	528.555	79.985	19.992	100.037	19.906	3.637	0.542
907.000	528.800	79.985	19.992	100.032	19.906	3.667	0.534
907.500	529.046	79.987	19.992	100.030	19.903	3.873	0.505
908.000	529.308	79.985	19.992	100.031	19.906	3.662	0.499
908.500	529.531	79.985	19.992	100.034	19.904	3.788	0.497
909.000	529.822	79.983	19.992	100.033	19.905	3.705	0.499
909.500	530.082	79.985	19.992	100.033	19.905	3.718	0.533
910.000	530.344	79.985	19.992	100.032	19.903	3.852	0.537
910.500	530.602	79.987	19.992	100.030	19.903	3.862	0.521
911.000	530.843	79.986	19.992	100.029	19.905	3.737	0.509
911.500	531.098	79.985	19.992	100.030	19.904	3.790	0.498
912.000	531.356	79.985	19.992	100.032	19.903	3.877	0.505
912.500	531.572	79.986	19.993	100.033	19.904	3.762	0.493
913.000	531.826	79.985	19.992	100.033	19.903	3.841	0.472
913.500	532.093	79.987	19.994	100.033	19.904	3.756	0.496
914.000	532.352	79.988	19.993	100.035	19.902	3.946	0.524
914.500	532.585	79.986	19.992	100.035	19.899	4.120	0.509
915.000	532.829	79.987	19.993	100.034	19.901	4.020	0.484
915.500	533.108	79.986	19.992	100.034	19.902	3.937	0.500
916.001	533.345	79.986	19.993	100.033	19.904	3.754	0.520
916.501	533.620	79.986	19.992	100.029	19.904	3.818	0.514
917.000	533.878	79.986	19.992	100.027	19.904	3.805	0.523
917.500	534.114	79.985	19.991	100.026	19.903	3.869	0.514
918.000	534.401	79.985	19.992	100.025	19.904	3.781	0.508
918.500	534.629	79.987	19.992	100.025	19.903	3.890	0.519
919.000	534.889	79.986	19.993	100.027	19.903	3.835	0.502
919.500	535.163	79.986	19.992	100.028	19.903	3.856	0.512
920.000	535.406	79.984	19.992	100.028	19.901	3.995	0.526
920.500	535.671	79.984	19.992	100.027	19.903	3.882	0.512
921.000	535.917	79.983	19.994	100.027	19.904	3.812	0.509
921.500	536.173	79.983	19.993	100.027	19.904	3.820	0.507
922.000	536.429	79.982	19.991	100.025	19.906	3.664	0.507
922.500	536.651	79.983	19.993	100.025	19.903	3.852	0.495
923.000	536.917	79.984	19.991	100.026	19.900	4.046	0.483
923.500	537.158	79.984	19.992	100.026	19.905	3.745	0.498
924.000	537.423	79.983	19.993	100.026	19.904	3.801	0.507
924.500	537.667	79.983	19.992	100.026	19.902	3.907	0.508
925.000	537.892	79.985	19.993	100.026	19.904	3.805	0.489
925.500	538.184	79.983	19.992	100.027	19.901	3.977	0.493
926.000	538.431	79.984	19.992	100.027	19.902	3.929	0.528
926.500	538.677	79.984	19.993	100.027	19.903	3.875	0.516
927.000	538.937	79.984	19.993	100.028	19.902	3.918	0.499
927.500	539.205	79.984	19.992	100.028	19.902	3.903	0.516
928.000	539.444	79.984	19.993	100.028	19.902	3.954	0.517
928.500	539.683	79.982	19.992	100.028	19.901	4.007	0.493
929.000	539.942	79.983	19.992	100.029	19.901	3.969	0.489
929.500	540.177	79.984	19.992	100.029	19.902	3.928	0.496
930.000	540.438	79.983	19.993	100.029	19.903	3.865	0.495
930.500	540.726	79.984	19.992	100.026	19.903	3.858	0.522
931.000	540.982	79.984	19.993	100.026	19.900	4.035	0.546
931.500	541.222	79.983	19.993	100.024	19.901	3.982	0.520
932.000	541.505	79.983	19.992	100.025	19.901	3.967	0.510
932.500	541.724	79.985	19.993	100.027	19.903	3.864	0.512
933.000	542.005	79.984	19.993	100.027	19.902	3.894	0.501
933.500	542.277	79.984	19.993	100.027	19.902	3.915	0.526
934.000	542.527	79.983	19.993	100.027	19.904	3.798	0.537
934.500	542.792	79.983	19.993	100.027	19.905	3.717	0.518
935.000	543.048	79.983	19.994	100.025	19.904	3.756	0.518
935.501	543.283	79.983	19.994	100.025	19.906	3.671	0.506
936.000	543.549	79.982	19.993	100.025	19.905	3.728	0.496
936.500	543.805	79.983	19.993	100.026	19.904	3.780	0.511
937.000	544.012	79.982	19.992	100.027	19.901	3.973	0.493
937.500	544.320	79.983	19.994	100.027	19.906	3.645	0.489
938.000	544.531	79.984	19.993	100.031	19.903	3.877	0.517
938.500	544.787	79.984	19.993	100.033	19.905	3.722	0.493
939.000	545.056	79.984	19.993	100.034	19.902	3.924	0.496
939.500	545.306	79.983	19.993	100.034	19.904	3.822	0.522
940.000	545.562	79.984	19.994	100.034	19.904	3.813	0.513
940.500	545.810	79.982	19.993	100.030	19.907	3.594	0.505
941.000	546.090	79.984	19.993	100.028	19.905	3.739	0.515
941.500	546.339	79.985	19.994	100.026	19.906	3.632	0.528
942.000	546.604	79.983	19.993	100.026	19.906	3.628	0.522
942.500	546.864	79.982	19.993	100.025	19.907	3.562	0.520
943.000	547.113	79.984	19.994	100.029	19.905	3.707	0.517
943.500	547.381	79.984	19.993	100.031	19.907	3.588	0.513
944.000	547.621	79.983	19.993	100.031	19.905	3.685	0.513
944.500	547.878	79.985	19.993	100.031	19.907	3.575	0.502
945.000	548.168	79.984	19.993	100.032	19.904	3.815	0.522
945.501	548.409	79.984	19.992	100.029	19.905	3.726	0.538
946.000	548.679	79.984	19.993	100.027	19.905	3.720	0.521
946.500	548.910	79.984	19.992	100.026	19.905	3.685	0.506
947.001	549.175	79.983	19.992	100.026	19.904	3.764	0.498
947.500	549.442	79.984	19.992	100.025	19.907	3.590	0.514
948.000	549.680	79.983	19.993	100.025	19.907	3.547	0.519
948.500	549.972	79.984	19.992	100.026	19.905	3.698	0.518
949.000	550.216	79.986	19.993	100.026	19.906	3.671	0.533
949.500	550.451	79.985	19.992	100.026	19.909	3.411	0.508
950.000	550.708	79.982	19.993	100.027	19.908	3.532	0.485
950.500	550.991	79.984	19.991	100.028	19.909	3.432	0.516
951.000	551.210	79.983	19.992	100.029	19.908	3.519	0.521
951.500	551.485	79.984	19.993	100.030	19.906	3.658	0.498
952.000	551.741	79.985	19.991	100.031	19.907	3.553	0.512
952.500	552.013	79.984	19.992	100.031	19.909	3.405	0.530
953.001	552.274	79.984	19.992	100.032	19.907	3.545	0.531
953.500	552.527	79.984	19.993	100.031	19.909	3.430	0.523
954.000	552.794	79.984	19.992	100.031	19.908	3.485	0.517
954.500	553.030	79.982	19.992	100.032	19.907	3.551	0.511
955.000	553.302	79.984	19.992	100.032	19.907	3.600	0.506
955.500	553.558	79.983	19.992	100.033	19.907	3.564	0.518
956.000	553.827	79.983	19.992	100.034	19.904	3.777	0.526
956.500	554.094	79.983	19.993	100.034	19.906	3.643	0.531
957.000	554.336	79.983	19.991	100.032	19.903	3.837	0.522
957.500	554.568	79.982	19.992	100.033	19.906	3.668	0.491
958.000	554.846	79.983	19.992	100.031	19.905	3.752	0.492
958.500	555.134	79.983	19.992	100.030	19.905	3.724	0.538
959.000	555.356	79.983	19.992	100.030	19.907	3.566	0.538
959.500	555.630	79.984	19.992	100.030	19.904	3.762	0.503
960.000	555.855	79.984	19.992	100.030	19.907	3.579	0.498
960.500	556.138	79.984	19.992	100.030	19.903	3.830	0.504
961.000	556.394	79.985	19.991	100.030	19.907	3.611	0.524
961.500	556.671	79.984	19.992	100.029	19.907	3.573	0.536
962.000	556.901	79.984	19.991	100.029	19.907	3.598	0.520
962.500	557.174	79.984	19.992	100.029	19.906	3.681	0.505
963.000	557.395	79.985	19.992	100.031	19.909	3.466	0.499
963.501	557.698	79.986	19.992	100.032	19.908	3.502	0.509
964.000	557.985	79.985	19.992	100.033	19.909	3.468	0.557
964.500	558.208	79.985	19.991	100.035	19.910	3.392	0.550
965.000	558.463	79.984	19.992	100.035	19.905	3.694	0.494
965.500	558.737	79.985	19.991	100.034	19.905	3.720	0.504
966.000	558.982	79.985	19.992	100.033	19.907	3.611	0.524
966.500	559.209	79.985	19.991	100.033	19.905	3.713	0.495
967.000	559.450	79.985	19.991	100.030	19.909	3.466	0.470
967.500	559.719	79.984	19.993	100.030	19.905	3.722	0.489
968.000	560.001	79.985	19.992	100.029	19.907	3.579	0.530
968.500	560.255	79.983	19.993	100.033	19.907	3.581	0.543
969.000	560.516	79.984	19.991	100.033	19.907	3.549	0.525
969.500	560.739	79.985	19.992	100.034	19.910	3.360	0.500
970.000	561.032	79.985	19.991	100.035	19.908	3.475	0.501
970.500	561.294	79.986	19.991	100.035	19.909	3.454	0.536
971.000	561.528	79.984	19.991	100.030	19.909	3.469	0.525
971.500	561.774	79.986	19.991	100.030	19.908	3.528	0.488
972.000	562.048	79.986	19.991	100.029	19.907	3.607	0.500
972.500	562.290	79.985	19.991	100.028	19.911	3.326	0.518
973.000	562.562	79.985	19.992	100.028	19.907	3.566	0.515
973.500	562.847	79.986	19.992	100.028	19.906	3.624	0.535
974.000	563.055	79.984	19.991	100.028	19.907	3.577	0.525
974.500	563.320	79.985	19.991	100.029	19.908	3.503	0.483
975.000	563.588	79.985	19.991	100.029	19.908	3.498	0.503
975.500	563.851	79.984	19.991	100.028	19.905	3.713	0.532
976.000	564.101	79.985	19.992	100.030	19.911	3.315	0.522
976.500	564.353	79.986	19.992	100.031	19.907	3.598	0.508
977.000	564.576	79.986	19.992	100.032	19.910	3.385	0.489
977.500	564.852	79.986	19.991	100.035	19.907	3.577	0.487
978.001	565.096	79.983	19.992	100.036	19.906	3.649	0.509
978.500	565.356	79.984	19.992	100.034	19.908	3.524	0.512
979.000	565.596	79.984	19.991	100.034	19.908	3.535	0.502
979.500	565.840	79.985	19.992	100.032	19.906	3.660	0.492
980.000	566.130	79.985	19.991	100.029	19.902	3.903	0.509
980.500	566.347	79.985	19.991	100.029	19.909	3.447	0.521
981.000	566.633	79.986	19.992	100.028	19.911	3.324	0.505
981.500	566.859	79.985	19.992	100.028	19.904	3.762	0.507
982.000	567.144	79.986	19.992	100.027	19.908	3.534	0.511
982.500	567.387	79.984	19.992	100.026	19.906	3.652	0.520
983.000	567.662	79.986	19.991	100.026	19.908	3.507	0.524
983.500	567.891	79.985	19.991	100.026	19.906	3.628	0.511
984.000	568.173	79.987	19.991	100.026	19.907	3.584	0.507
984.500	568.403	79.986	19.992	100.026	19.908	3.511	0.512
985.000	568.674	79.986	19.992	100.026	19.907	3.598	0.507
985.500	568.964	79.986	19.991	100.026	19.910	3.398	0.531
986.000	569.204	79.985	19.992	100.026	19.906	3.624	0.546
986.500	569.428	79.986	19.992	100.026	19.906	3.622	0.497
987.000	569.700	79.986	19.992	100.026	19.906	3.630	0.480
987.501	569.986	79.986	19.991	100.027	19.907	3.547	0.527
988.001	570.205	79.986	19.991	100.027	19.906	3.660	0.531
988.500	570.480	79.986	19.991	100.027	19.908	3.501	0.499
989.000	570.725	79.986	19.991	100.027	19.906	3.656	0.507
989.500	570.968	79.986	19.992	100.027	19.908	3.494	0.504
990.000	571.233	79.987	19.993	100.026	19.907	3.554	0.498
990.500	571.518	79.988	19.992	100.026	19.905	3.694	0.529
991.000	571.742	79.986	19.992	100.026	19.906	3.662	0.529
991.500	572.010	79.988	19.991	100.027	19.910	3.349	0.501
992.000	572.258	79.987	19.992	100.028	19.910	3.398	0.504
992.500	572.493	79.987	19.991	100.030	19.906	3.648	0.499
993.000	572.786	79.987	19.992	100.029	19.908	3.535	0.505
993.500	573.002	79.987	19.992	100.030	19.907	3.550	0.519
994.000	573.296	79.985	19.992	100.029	19.907	3.547	0.510
994.500	573.534	79.987	19.992	100.028	19.910	3.354	0.521
995.000	573.804	79.986	19.992	100.028	19.907	3.560	0.520
995.500	574.083	79.985	19.992	100.028	19.912	3.209	0.528
996.000	574.355	79.985	19.992	100.028	19.906	3.648	0.550
996.500	574.614	79.985	19.992	100.027	19.904	3.769	0.541
997.000	574.876	79.986	19.993	100.028	19.907	3.588	0.526
997.500	575.112	79.986	19.993	100.026	19.905	3.686	0.509
998.000	575.379	79.986	19.991	100.026	19.909	3.411	0.500
998.500	575.637	79.985	19.992	100.026	19.908	3.481	0.514
999.000	575.872	79.985	19.992	100.025	19.910	3.339	0.510
999.500	576.126	79.984	19.992	100.024	19.904	3.765	0.491
1000.000	576.368	79.985	19.992	100.024	19.909	3.473	0.492
1000.500	576.673	79.985	19.992	100.029	19.910	3.392	0.521
1001.000	576.901	79.985	19.991	100.029	19.912	3.243	0.540
1001.500	577.167	79.984	19.993	100.030	19.907	3.566	0.514
1002.001	577.373	79.984	19.993	100.029	19.908	3.486	0.483
1002.500	577.649	79.984	19.992	100.029	19.911	3.300	0.477
1003.000	577.882	79.983	19.991	100.024	19.909	3.445	0.495
1003.500	578.148	79.986	19.992	100.024	19.912	3.249	0.503
1004.000	578.427	79.984	19.992	100.024	19.907	3.545	0.522
1004.500	578.663	79.984	19.993	100.025	19.909	3.405	0.530
1005.000	578.928	79.984	19.992	100.024	19.908	3.526	0.508
1005.500	579.174	79.985	19.992	100.025	19.908	3.541	0.506
1006.000	579.449	79.982	19.992	100.025	19.909	3.413	0.516
1006.500	579.693	79.985	19.993	100.025	19.912	3.245	0.520
1007.000	579.898	79.985	19.992	100.026	19.908	3.537	0.484
1007.500	580.171	79.986	19.993	100.027	19.910	3.364	0.464
1008.000	580.455	79.984	19.992	100.026	19.911	3.313	0.518
1008.500	580.697	79.984	19.992	100.027	19.911	3.273	0.541
1009.000	580.983	79.984	19.992	100.029	19.911	3.287	0.527
1009.500	581.220	79.984	19.992	100.028	19.911	3.319	0.526
1010.000	581.446	79.985	19.993	100.027	19.910	3.337	0.493
1010.500	581.681	79.983	19.992	100.027	19.908	3.526	0.462
1011.000	581.976	79.984	19.992	100.028	19.906	3.681	0.496
1011.500	582.216	79.985	19.992	100.027	19.906	3.650	0.532
1012.000	582.454	79.985	19.992	100.027	19.908	3.539	0.506
1012.500	582.740	79.984	19.992	100.027	19.907	3.588	0.501
1013.000	583.006	79.983	19.992	100.027	19.907	3.568	0.538
1013.500	583.249	79.983	19.992	100.028	19.908	3.486	0.530
1014.000	583.489	79.985	19.992	100.028	19.907	3.560	0.496
1014.500	583.754	79.983	19.991	100.029	19.908	3.494	0.494
1015.000	584.001	79.983	19.992	100.031	19.904	3.788	0.508
1015.500	584.291	79.984	19.992	100.032	19.907	3.607	0.525
1016.000	584.491	79.983	19.993	100.032	19.910	3.345	0.513
1016.500	584.769	79.984	19.992	100.031	19.905	3.745	0.484
1017.000	585.050	79.985	19.992	100.030	19.908	3.503	0.519
1017.500	585.278	79.984	19.992	100.029	19.907	3.584	0.534
1018.000	585.556	79.984	19.992	100.029	19.908	3.492	0.507
1018.500	585.841	79.983	19.992	100.030	19.906	3.620	0.534
1019.000	586.083	79.984	19.993	100.030	19.909	3.420	0.545
1019.500	586.341	79.982	19.992	100.030	19.908	3.533	0.514
1020.000	586.569	79.983	19.992	100.030	19.908	3.541	0.493
1020.500	586.864	79.986	19.992	100.030	19.905	3.724	0.505
1021.000	587.079	79.984	19.992	100.029	19.908	3.502	0.517
1021.500	587.359	79.984	19.994	100.029	19.909	3.468	0.503
1022.000	587.620	79.984	19.994	100.027	19.908	3.477	0.518
1022.500	587.861	79.983	19.992	100.027	19.909	3.413	0.521
1023.000	588.103	79.985	19.994	100.027	19.908	3.541	0.493
1023.500	588.361	79.985	19.993	100.028	19.905	3.711	0.491
1024.000	588.609	79.983	19.993	100.028	19.909	3.409	0.503
1024.500	588.876	79.983	19.993	100.028	19.906	3.666	0.511
1025.000	589.096	79.984	19.992	100.028	19.905	3.717	0.502
1025.500	589.362	79.983	19.993	100.028	19.903	3.841	0.487
1026.000	589.601	79.984	19.993	100.027	19.907	3.603	0.495
1026.501	589.870	79.983	19.993	100.026	19.906	3.637	0.506
1027.001	590.104	79.982	19.993	100.027	19.906	3.620	0.505
1027.500	590.376	79.983	19.993	100.027	19.905	3.717	0.505
1028.000	590.603	79.984	19.993	100.027	19.904	3.771	0.503
1028.501	590.846	79.983	19.993	100.027	19.905	3.713	0.485
1029.001	591.106	79.984	19.993	100.026	19.905	3.717	0.486
1029.501	591.366	79.983	19.992	100.025	19.906	3.654	0.511
1030.001	591.632	79.983	19.993	100.025	19.905	3.703	0.523
1030.501	591.871	79.982	19.993	100.026	19.904	3.794	0.515
1031.001	592.146	79.983	19.993	100.026	19.901	3.990	0.509
1031.500	592.422	79.983	19.992	100.030	19.907	3.583	0.533
1032.001	592.673	79.983	19.993	100.033	19.906	3.660	0.539
1032.501	592.946	79.982	19.992	100.034	19.905	3.717	0.525
1033.000	593.199	79.982	19.992	100.033	19.903	3.828	0.525
1033.500	593.448	79.984	19.993	100.033	19.903	3.839	0.514
1034.000	593.690	79.981	19.992	100.030	19.903	3.837	0.496
1034.501	593.937	79.981	19.992	100.029	19.906	3.615	0.490
1035.001	594.245	79.981	19.992	100.030	19.903	3.862	0.522
1035.501	594.476	79.982	19.992	100.030	19.903	3.875	0.547
1036.001	594.750	79.981	19.992	100.030	19.908	3.541	0.522
1036.500	595.007	79.981	19.992	100.031	19.907	3.594	0.518
1037.000	595.246	79.983	19.992	100.030	19.904	3.796	0.514
1037.500	595.514	79.983	19.993	100.030	19.903	3.833	0.502
1038.000	595.753	79.983	19.991	100.030	19.906	3.631	0.506
1038.500	595.986	79.984	19.992	100.030	19.901	4.016	0.489
1039.000	596.247	79.983	19.991	100.030	19.905	3.699	0.483
1039.501	596.490	79.983	19.992	100.031	19.902	3.914	0.499
1040.001	596.753	79.983	19.991	100.031	19.907	3.594	0.505
1040.500	596.987	79.983	19.991	100.033	19.905	3.707	0.502
1041.000	597.265	79.984	19.991	100.034	19.907	3.592	0.505
1041.500	597.525	79.984	19.992	100.034	19.905	3.684	0.525
1042.000	597.766	79.984	19.991	100.033	19.905	3.750	0.520
1042.500	597.976	79.985	19.992	100.034	19.907	3.567	0.476
1043.000	598.293	79.984	19.992	100.030	19.906	3.622	0.489
1043.500	598.503	79.983	19.992	100.029	19.906	3.664	0.527
1044.000	598.785	79.985	19.992	100.031	19.904	3.803	0.509
1044.500	599.010	79.985	19.992	100.030	19.906	3.671	0.499
1045.000	599.275	79.986	19.992	100.030	19.906	3.620	0.498
1045.500	599.522	79.985	19.991	100.030	19.907	3.592	0.501
1046.000	599.793	79.986	19.991	100.029	19.906	3.658	0.515
1046.500	600.014	79.985	19.991	100.027	19.904	3.799	0.505
1047.000	600.314	79.986	19.991	100.026	19.906	3.616	0.507
1047.500	600.538	79.985	19.992	100.026	19.905	3.705	0.523
1048.000	600.780	79.986	19.991	100.025	19.904	3.760	0.496
1048.500	601.053	79.986	19.991	100.025	19.906	3.662	0.490
1049.000	601.318	79.986	19.992	100.025	19.903	3.879	0.526
1049.500	601.553	79.985	19.992	100.025	19.905	3.735	0.519
1050.000	601.833	79.986	19.992	100.025	19.904	3.762	0.508
1050.500	602.091	79.985	19.992	100.025	19.906	3.679	0.527
1051.000	602.348	79.986	19.991	100.025	19.907	3.596	0.526
1051.500	602.602	79.985	19.991	100.025	19.907	3.545	0.513
1052.000	602.844	79.986	19.992	100.025	19.907	3.573	0.504
1052.501	603.090	79.988	19.992	100.025	19.906	3.652	0.492
1053.001	603.362	79.985	19.992	100.025	19.906	3.633	0.503
1053.501	603.603	79.984	19.991	100.025	19.906	3.632	0.516
1054.001	603.883	79.986	19.991	100.025	19.908	3.530	0.517
1054.501	604.135	79.985	19.991	100.025	19.907	3.575	0.526
1055.001	604.404	79.986	19.992	100.025	19.907	3.551	0.526
1055.500	604.653	79.986	19.992	100.025	19.909	3.409	0.520
1056.000	604.890	79.984	19.991	100.025	19.906	3.671	0.502
1056.500	605.151	79.984	19.992	100.025	19.907	3.600	0.492
1057.001	605.438	79.985	19.991	100.025	19.909	3.462	0.523
1057.501	605.669	79.984	19.992	100.025	19.906	3.660	0.533
1058.001	605.934	79.984	19.991	100.025	19.908	3.486	0.507
1058.501	606.208	79.985	19.993	100.026	19.906	3.679	0.518
1059.001	606.473	79.985	19.992	100.025	19.906	3.654	0.539
1059.501	606.696	79.986	19.993	100.028	19.908	3.539	0.513
1060.000	606.948	79.986	19.992	100.028	19.905	3.694	0.481
1060.501	607.232	79.985	19.992	100.027	19.908	3.503	0.506
1061.001	607.451	79.984	19.992	100.025	19.909	3.422	0.520
1061.500	607.718	79.985	19.992	100.024	19.907	3.564	0.494
1062.000	607.963	79.985	19.992	100.021	19.907	3.599	0.499
1062.500	608.211	79.984	19.992	100.021	19.910	3.379	0.503
1063.000	608.498	79.984	19.992	100.023	19.909	3.465	0.514
1063.500	608.756	79.986	19.991	100.024	19.906	3.630	0.540
1064.000	608.997	79.986	19.992	100.026	19.910	3.335	0.522
1064.500	609.293	79.986	19.992	100.026	19.908	3.486	0.517
1065.000	609.506	79.988	19.992	100.027	19.907	3.611	0.523
1065.501	609.787	79.985	19.991	100.028	19.910	3.366	0.502
1066.001	610.017	79.986	19.990	100.028	19.914	3.092	0.503
1066.501	610.275	79.986	19.992	100.028	19.911	3.296	0.500
1067.000	610.498	79.987	19.991	100.028	19.908	3.483	0.485
1067.500	610.792	79.986	19.992	100.028	19.909	3.473	0.498
1068.000	611.036	79.987	19.993	100.026	19.907	3.560	0.527
1068.500	611.302	79.986	19.992	100.027	19.905	3.692	0.525
1069.000	611.574	79.986	19.992	100.027	19.907	3.594	0.524
1069.501	611.845	79.987	19.991	100.027	19.910	3.392	0.541
1070.001	612.054	79.988	19.991	100.026	19.906	3.652	0.511
1070.500	612.317	79.987	19.991	100.026	19.905	3.727	0.475
1071.000	612.577	79.987	19.992	100.026	19.909	3.463	0.497
1071.500	612.834	79.988	19.991	100.025	19.907	3.567	0.520
1072.000	613.061	79.988	19.992	100.025	19.904	3.756	0.501
1072.501	613.319	79.988	19.991	100.025	19.907	3.571	0.484
1073.001	613.598	79.987	19.992	100.025	19.907	3.581	0.511
1073.500	613.860	79.986	19.991	100.024	19.905	3.743	0.539
1074.000	614.107	79.987	19.991	100.023	19.906	3.667	0.525
1074.500	614.372	79.988	19.991	100.023	19.905	3.703	0.511
1075.000	614.628	79.989	19.992	100.024	19.907	3.611	0.516
1075.500	614.878	79.987	19.991	100.024	19.904	3.765	0.513
1076.000	615.169	79.989	19.992	100.024	19.906	3.615	0.523
1076.500	615.394	79.988	19.991	100.025	19.906	3.628	0.529
1077.000	615.664	79.987	19.990	100.025	19.905	3.730	0.506
1077.501	615.941	79.988	19.990	100.024	19.904	3.822	0.521
1078.001	616.172	79.988	19.990	100.025	19.904	3.756	0.527
1078.500	616.423	79.986	19.991	100.025	19.906	3.632	0.495
1079.001	616.686	79.985	19.991	100.026	19.905	3.724	0.498
1079.501	616.962	79.988	19.991	100.025	19.908	3.534	0.527
1080.000	617.188	79.986	19.991	100.022	19.906	3.632	0.520
1080.500	617.462	79.986	19.991	100.022	19.905	3.730	0.501
1081.000	617.704	79.986	19.992	100.021	19.903	3.877	0.507
1081.500	617.951	79.985	19.992	100.019	19.905	3.752	0.502
1082.000	618.189	79.985	19.993	100.019	19.909	3.471	0.487
1082.500	618.441	79.986	19.993	100.021	19.904	3.799	0.487
1083.000	618.687	79.984	19.992	100.022	19.906	3.622	0.494
1083.500	618.986	79.984	19.992	100.024	19.906	3.628	0.521
1084.000	619.226	79.984	19.993	100.026	19.908	3.515	0.542
1084.501	619.459	79.985	19.993	100.027	19.905	3.705	0.506
1085.001	619.695	79.983	19.993	100.028	19.906	3.618	0.472
1085.501	619.972	79.984	19.993	100.029	19.908	3.513	0.491
1086.000	620.240	79.984	19.992	100.029	19.908	3.477	0.529
1086.500	620.477	79.984	19.992	100.029	19.907	3.584	0.525
1087.000	620.711	79.984	19.993	100.028	19.904	3.764	0.488
1087.501	620.977	79.983	19.993	100.028	19.907	3.583	0.486
1088.001	621.246	79.984	19.992	100.027	19.905	3.717	0.517
1088.500	621.480	79.985	19.992	100.028	19.905	3.690	0.519
1089.000	621.760	79.984	19.993	100.027	19.902	3.909	0.509
1089.500	621.978	79.983	19.992	100.028	19.902	3.907	0.506
1090.000	622.236	79.982	19.992	100.028	19.907	3.547	0.487
1090.500	622.501	79.983	19.993	100.028	19.908	3.490	0.499
1091.000	622.770	79.983	19.993	100.028	19.908	3.498	0.529
1091.501	623.045	79.983	19.992	100.028	19.908	3.541	0.539
1092.001	623.263	79.982	19.992	100.027	19.904	3.760	0.518
1092.500	623.535	79.984	19.992	100.024	19.910	3.401	0.491
1093.000	623.777	79.984	19.993	100.024	19.906	3.624	0.502
1093.500	624.063	79.984	19.992	100.023	19.907	3.565	0.521
1094.000	624.320	79.983	19.992	100.021	19.909	3.410	0.535
1094.500	624.539	79.983	19.993	100.022	19.909	3.456	0.510
1095.000	624.792	79.984	19.992	100.026	19.910	3.361	0.474
1095.501	625.051	79.984	19.992	100.026	19.909	3.418	0.492
1096.001	625.343	79.984	19.992	100.026	19.909	3.458	0.531
1096.500	625.569	79.984	19.992	100.028	19.910	3.390	0.534
1097.000	625.800	79.984	19.991	100.028	19.908	3.524	0.487
1097.500	626.094	79.983	19.992	100.028	19.908	3.499	0.491
1098.000	626.363	79.984	19.992	100.028	19.909	3.411	0.544
1098.500	626.565	79.984	19.992	100.028	19.906	3.646	0.518
1099.001	626.842	79.985	19.992	100.029	19.907	3.592	0.475
1099.501	627.125	79.984	19.991	100.028	19.910	3.347	0.519
1100.001	627.372	79.985	19.991	100.027	19.910	3.377	0.544
1100.500	627.623	79.984	19.991	100.026	19.905	3.710	0.514
1101.000	627.873	79.985	19.992	100.026	19.908	3.488	0.500
1101.501	628.140	79.985	19.991	100.024	19.909	3.456	0.509
1102.001	628.384	79.984	19.992	100.025	19.908	3.535	0.514
1102.501	628.636	79.984	19.992	100.024	19.907	3.567	0.504
1103.000	628.896	79.983	19.991	100.020	19.908	3.488	0.504
1103.500	629.137	79.984	19.991	100.019	19.909	3.441	0.506
1104.000	629.402	79.985	19.991	100.020	19.910	3.375	0.504
1104.501	629.671	79.986	19.992	100.014	19.910	3.363	0.520
1105.001	629.893	79.985	19.992	100.012	19.908	3.494	0.513
1105.500	630.173	79.984	19.992	100.016	19.907	3.573	0.496
1106.000	630.430	79.984	19.991	100.013	19.907	3.559	0.519
1106.501	630.708	79.985	19.992	100.007	19.911	3.314	0.536
1107.001	630.950	79.983	19.992	100.012	19.912	3.224	0.528
1107.501	631.249	79.983	19.992	100.014	19.909	3.414	0.531
1108.001	631.505	79.984	19.992	100.015	19.909	3.445	0.548
1108.500	631.736	79.983	19.993	100.017	19.909	3.411	0.521
1109.000	631.956	79.984	19.993	100.020	19.907	3.563	0.469
1109.500	632.246	79.983	19.993	100.018	19.908	3.539	0.481
1110.000	632.497	79.985	19.992	100.019	19.910	3.339	0.526
1110.500	632.749	79.984	19.993	100.017	19.908	3.531	0.522
1111.000	633.008	79.984	19.993	100.018	19.908	3.507	0.507
1111.500	633.259	79.983	19.993	100.020	19.907	3.554	0.511
1112.000	633.508	79.984	19.993	100.023	19.911	3.292	0.505
1112.500	633.768	79.984	19.992	100.023	19.909	3.415	0.504
1113.000	634.058	79.984	19.993	100.023	19.908	3.543	0.529
1113.500	634.308	79.983	19.994	100.022	19.909	3.464	0.545
1114.000	634.564	79.984	19.993	100.021	19.909	3.473	0.523
1114.500	634.827	79.982	19.993	100.019	19.909	3.465	0.512
1115.000	635.074	79.981	19.993	100.018	19.910	3.365	0.515
1115.500	635.319	79.984	19.993	100.015	19.908	3.512	0.501
1116.001	635.592	79.982	19.994	100.015	19.908	3.484	0.505
1116.501	635.879	79.983	19.993	100.015	19.909	3.418	0.539
1117.000	636.102	79.982	19.993	100.014	19.905	3.695	0.535
1117.501	636.391	79.983	19.993	100.016	19.911	3.286	0.511
1118.001	636.634	79.983	19.993	100.019	19.910	3.377	0.522
1118.500	636.895	79.984	19.993	100.019	19.910	3.358	0.518
1119.001	637.156	79.984	19.993	100.020	19.911	3.318	0.512
1119.501	637.387	79.983	19.994	100.023	19.910	3.371	0.507
1120.001	637.702	79.982	19.993	100.021	19.911	3.269	0.519
1120.501	637.942	79.983	19.994	100.016	19.909	3.433	0.550
1121.000	638.162	79.984	19.993	100.011	19.911	3.329	0.507
1121.500	638.465	79.984	19.993	100.010	19.909	3.448	0.492
1122.000	638.685	79.983	19.993	100.010	19.910	3.401	0.524
1122.500	638.962	79.982	19.993	100.012	19.906	3.622	0.510
1123.000	639.185	79.983	19.993	100.018	19.911	3.330	0.498
1123.500	639.470	79.983	19.994	100.023	19.910	3.384	0.504
1124.000	639.693	79.983	19.993	100.023	19.908	3.505	0.508
1124.500	639.945	79.984	19.992	100.022	19.910	3.339	0.491
1125.000	640.213	79.985	19.993	100.018	19.909	3.430	0.497
1125.500	640.480	79.985	19.992	100.018	19.912	3.220	0.528
1126.000	640.733	79.986	19.992	100.016	19.909	3.413	0.528
1126.500	641.014	79.985	19.992	100.016	19.912	3.194	0.527
1127.000	641.267	79.985	19.993	100.017	19.911	3.273	0.534
1127.500	641.527	79.986	19.991	100.021	19.911	3.286	0.523
1128.000	641.773	79.987	19.991	100.021	19.908	3.484	0.509
1128.500	642.011	79.985	19.993	100.022	19.910	3.350	0.495
1129.000	642.298	79.986	19.991	100.019	19.910	3.363	0.504
1129.500	642.528	79.985	19.991	100.015	19.910	3.386	0.521
1130.000	642.827	79.986	19.991	100.008	19.910	3.341	0.523
1130.500	643.058	79.985	19.992	100.005	19.910	3.363	0.529
1131.000	643.339	79.987	19.992	100.007	19.912	3.227	0.521
1131.500	643.592	79.986	19.991	100.008	19.909	3.410	0.523
1132.000	643.854	79.986	19.993	100.013	19.913	3.144	0.525
1132.500	644.136	79.987	19.992	100.018	19.911	3.282	0.530
1133.000	644.379	79.986	19.992	100.018	19.915	3.044	0.535
1133.500	644.603	79.985	19.992	100.018	19.916	2.980	0.496
1134.000	644.871	79.985	19.992	100.020	19.914	3.122	0.479
1134.500	645.105	79.985	19.992	100.020	19.915	3.033	0.497
1135.000	645.386	79.984	19.993	100.020	19.914	3.107	0.508
1135.501	645.666	79.986	19.992	100.022	19.912	3.216	0.538
1136.001	645.864	79.985	19.992	100.021	19.915	3.045	0.520
1136.500	646.164	79.986	19.992	100.021	19.915	2.986	0.488
1137.001	646.450	79.985	19.991	100.019	19.914	3.066	0.542
1137.501	646.698	79.987	19.991	100.020	19.913	3.162	0.560
1138.001	646.949	79.985	19.991	100.020	19.916	2.945	0.517
1138.500	647.223	79.985	19.992	100.017	19.914	3.066	0.512
1139.000	647.479	79.985	19.992	100.015	19.910	3.362	0.528
1139.500	647.731	79.985	19.993	100.011	19.911	3.292	0.519
1140.000	648.003	79.985	19.992	100.006	19.912	3.233	0.516
1140.500	648.231	79.984	19.991	100.004	19.915	3.043	0.512
1141.000	648.503	79.985	19.992	100.008	19.914	3.118	0.500
1141.500	648.814	79.984	19.991	100.007	19.912	3.209	0.541
1142.000	649.045	79.985	19.992	100.005	19.912	3.194	0.563
1142.501	649.334	79.984	19.992	100.005	19.914	3.105	0.531
1143.001	649.542	79.985	19.993	100.004	19.912	3.261	0.508
1143.500	649.816	79.985	19.991	100.000	19.911	3.265	0.490
1144.000	650.093	79.984	19.992	99.996	19.912	3.241	0.516
1144.500	650.360	79.985	19.991	100.000	19.914	3.105	0.547
1145.000	650.634	79.984	19.991	100.002	19.912	3.254	0.543
1145.500	650.888	79.986	19.992	100.003	19.911	3.292	0.534
1146.000	651.113	79.985	19.992	100.007	19.913	3.153	0.504
1146.500	651.393	79.985	19.992	100.014	19.911	3.268	0.492
1147.000	651.662	79.984	19.993	100.015	19.911	3.296	0.527
1147.500	651.915	79.985	19.993	100.017	19.911	3.326	0.535
1148.001	652.156	79.985	19.991	100.019	19.910	3.397	0.508
1148.501	652.431	79.987	19.992	100.019	19.913	3.143	0.505
1149.001	652.707	79.985	19.993	100.018	19.913	3.180	0.534
1149.500	652.936	79.986	19.992	100.021	19.911	3.280	0.528
1150.000	653.228	79.986	19.993	100.019	19.911	3.265	0.513
1150.500	653.480	79.986	19.991	100.016	19.914	3.092	0.532
1151.000	653.713	79.986	19.992	100.013	19.913	3.188	0.515
1151.500	653.988	79.988	19.992	100.012	19.910	3.348	0.496
1152.000	654.253	79.985	19.992	100.012	19.914	3.115	0.524
1152.500	654.494	79.986	19.992	100.014	19.914	3.111	0.523
1153.001	654.768	79.988	19.991	100.015	19.911	3.271	0.511
1153.501	655.013	79.986	19.992	100.012	19.910	3.367	0.517
1154.001	655.286	79.988	19.992	100.009	19.912	3.245	0.518
1154.500	655.518	79.987	19.991	100.005	19.909	3.461	0.511
1155.000	655.782	79.986	19.991	100.006	19.908	3.501	0.500
1155.500	656.032	79.986	19.992	100.008	19.910	3.365	0.505
1156.000	656.286	79.986	19.991	100.014	19.912	3.220	0.510
1156.500	656.550	79.987	19.992	100.021	19.910	3.337	0.511
1157.000	656.794	79.986	19.992	100.024	19.913	3.184	0.513
1157.500	657.040	79.988	19.992	100.023	19.910	3.380	0.498
1158.000	657.296	79.987	19.991	100.023	19.913	3.186	0.496
1158.500	657.532	79.988	19.992	100.020	19.914	3.088	0.498
1159.000	657.762	79.985	19.991	100.019	19.913	3.152	0.479
1159.500	658.051	79.987	19.992	100.015	19.915	3.018	0.492
1160.000	658.296	79.987	19.991	100.012	19.913	3.175	0.526
1160.500	658.585	79.986	19.991	100.012	19.913	3.148	0.534
1161.000	658.821	79.986	19.992	100.013	19.918	2.809	0.530
1161.500	659.057	79.985	19.991	100.014	19.910	3.340	0.499
1162.001	659.291	79.985	19.991	100.015	19.914	3.091	0.471
1162.501	659.552	79.984	19.991	100.018	19.914	3.106	0.482
1163.001	659.843	79.984	19.991	100.017	19.915	3.008	0.523
1163.501	660.074	79.984	19.991	100.015	19.916	2.978	0.537
1164.000	660.307	79.983	19.991	100.011	19.913	3.169	0.493
1164.500	660.581	79.983	19.992	100.013	19.915	2.993	0.485
1165.000	660.812	79.985	19.992	100.013	19.914	3.108	0.506
1165.500	661.048	79.984	19.992	100.012	19.911	3.282	0.486
1166.000	661.323	79.985	19.991	100.013	19.914	3.058	0.489
1166.501	661.589	79.984	19.991	100.015	19.913	3.144	0.526
1167.001	661.845	79.984	19.992	100.015	19.914	3.058	0.531
1167.500	662.068	79.985	19.991	100.017	19.915	2.984	0.500
1168.000	662.352	79.987	19.991	100.018	19.917	2.905	0.493
1168.500	662.555	79.984	19.991	100.018	19.917	2.899	0.497
1169.000	662.817	79.984	19.992	100.018	19.917	2.913	0.476
1169.500	663.088	79.983	19.992	100.015	19.916	2.935	0.499
1170.000	663.296	79.985	19.992	100.013	19.917	2.854	0.506
1170.500	663.605	79.985	19.992	100.013	19.914	3.120	0.498
1171.001	663.827	79.985	19.991	100.013	19.916	2.980	0.524
1171.501	664.103	79.985	19.992	100.008	19.915	3.020	0.515
1172.000	664.374	79.985	19.993	100.005	19.914	3.084	0.522
1172.501	664.614	79.983	19.993	99.999	19.916	2.947	0.529
1173.001	664.851	79.986	19.992	99.995	19.918	2.794	0.494
1173.501	665.104	79.985	19.992	99.995	19.918	2.815	0.484
1174.000	665.364	79.985	19.993	99.995	19.917	2.860	0.502
1174.500	665.603	79.984	19.992	99.996	19.916	2.937	0.506
1175.000	665.863	79.985	19.992	99.997	19.916	2.958	0.499
1175.500	666.085	79.984	19.993	99.999	19.917	2.896	0.490
1176.000	666.342	79.984	19.992	99.998	19.920	2.702	0.480
1176.500	666.627	79.985	19.993	100.002	19.915	3.001	0.511
1177.000	666.854	79.983	19.993	100.004	19.917	2.877	0.527
1177.500	667.106	79.984	19.992	100.006	19.917	2.890	0.495
1178.000	667.341	79.983	19.992	100.006	19.914	3.099	0.483
1178.500	667.574	79.984	19.993	100.004	19.917	2.898	0.478
1179.001	667.855	79.984	19.993	100.003	19.918	2.841	0.491
1179.501	668.065	79.984	19.994	100.002	19.916	2.924	0.502
1180.001	668.356	79.985	19.993	100.004	19.916	2.952	0.495
1180.500	668.599	79.984	19.993	100.003	19.915	3.014	0.517
1181.000	668.868	79.986	19.993	100.002	19.915	2.995	0.523
1181.500	669.118	79.986	19.994	100.002	19.917	2.852	0.516
1182.000	669.333	79.983	19.994	100.005	19.915	2.990	0.492
1182.500	669.639	79.985	19.993	100.004	19.918	2.800	0.493
1183.000	669.880	79.986	19.993	100.007	19.916	2.918	0.534
1183.500	670.124	79.984	19.993	100.009	19.918	2.809	0.516
1184.000	670.375	79.985	19.993	100.010	19.916	2.980	0.491
1184.500	670.612	79.983	19.992	100.010	19.918	2.831	0.492
1185.001	670.879	79.984	19.994	100.014	19.913	3.133	0.496
1185.501	671.099	79.986	19.993	100.015	19.918	2.809	0.496
1186.000	671.386	79.985	19.992	100.017	19.918	2.816	0.497
1186.500	671.626	79.985	19.993	100.018	19.916	2.939	0.517
1187.000	671.883	79.985	19.992	100.015	19.916	2.945	0.512
1187.501	672.110	79.984	19.993	100.012	19.917	2.847	0.491
1188.001	672.347	79.985	19.991	100.010	19.915	3.022	0.474
1188.501	672.617	79.985	19.992	100.012	19.915	3.011	0.486
1189.001	672.847	79.985	19.992	100.013	19.914	3.088	0.503
1189.501	673.075	79.985	19.992	100.015	19.913	3.133	0.479
1190.000	673.342	79.985	19.992	100.012	19.914	3.103	0.477
1190.500	673.568	79.985	19.992	100.009	19.915	2.997	0.494
1191.001	673.843	79.984	19.991	100.003	19.918	2.778	0.497
1191.501	674.091	79.984	19.993	100.002	19.914	3.078	0.511
1192.001	674.375	79.983	19.992	100.001	19.913	3.142	0.528
1192.501	674.618	79.986	19.992	100.005	19.912	3.250	0.530
1193.000	674.881	79.984	19.992	100.010	19.913	3.127	0.517
1193.500	675.106	79.985	19.992	100.013	19.915	3.014	0.497
1194.000	675.372	79.984	19.992	100.011	19.917	2.905	0.490
1194.500	675.632	79.984	19.992	100.008	19.913	3.144	0.509
1195.000	675.897	79.985	19.993	100.004	19.913	3.133	0.526
1195.500	676.107	79.986	19.991	100.001	19.913	3.157	0.500
1196.000	676.368	79.984	19.993	99.998	19.917	2.858	0.472
1196.500	676.594	79.984	19.992	99.998	19.914	3.058	0.479
1197.000	676.868	79.985	19.993	100.001	19.917	2.886	0.494
1197.501	677.105	79.984	19.993	100.004	19.918	2.824	0.505
1198.001	677.398	79.983	19.993	100.007	19.914	3.054	0.520
1198.501	677.605	79.984	19.993	100.010	19.915	3.039	0.515
1199.001	677.854	79.983	19.993	100.016	19.916	2.927	0.478
1199.500	678.136	79.983	19.993	100.014	19.919	2.769	0.494
1200.000	678.355	79.984	19.993	100.011	19.912	3.229	0.516
1200.500	678.644	79.984	19.993	100.009	19.914	3.080	0.505
1201.000	678.869	79.984	19.994	100.005	19.916	2.954	0.511
1201.500	679.134	79.986	19.993	99.998	19.917	2.865	0.501
1202.000	679.315	79.985	19.994	99.995	19.914	3.063	0.468
1202.501	679.651	79.983	19.992	99.996	19.915	3.012	0.482
1203.001	679.840	79.985	19.993	99.993	19.914	3.099	0.521
1203.500	680.116	79.984	19.994	99.993	19.915	3.006	0.495
1204.000	680.359	79.984	19.993	99.994	19.914	3.099	0.492
1204.500	680.625	79.983	19.993	99.995	19.919	2.762	0.514
1205.000	680.857	79.983	19.993	99.992	19.915	3.011	0.503
1205.501	681.101	79.981	19.993	99.992	19.915	3.028	0.487
1206.001	681.343	79.986	19.993	99.991	19.916	2.952	0.481
1206.500	681.582	79.983	19.993	99.991	19.915	3.026	0.483
1207.000	681.858	79.983	19.993	99.998	19.916	2.982	0.498
1207.500	682.119	79.984	19.994	100.003	19.914	3.072	0.526
1208.000	682.360	79.982	19.993	100.003	19.916	2.972	0.520
1208.500	682.609	79.985	19.994	100.005	19.916	2.939	0.496
1209.000	682.871	79.984	19.993	100.005	19.915	3.021	0.501
1209.500	683.161	79.985	19.993	99.999	19.916	2.948	0.531
1210.000	683.396	79.987	19.993	99.996	19.910	3.342	0.539
1210.500	683.630	79.985	19.992	100.000	19.914	3.053	0.497
1211.000	683.893	79.987	19.993	100.003	19.914	3.106	0.483
1211.500	684.143	79.984	19.993	100.004	19.915	3.048	0.504
1212.000	684.370	79.983	19.992	100.004	19.913	3.129	0.495
1212.500	684.590	79.985	19.992	100.000	19.916	2.954	0.462
1213.000	684.887	79.987	19.992	99.998	19.918	2.777	0.482
1213.500	685.170	79.984	19.992	99.994	19.916	2.948	0.548
1214.000	685.364	79.984	19.992	99.991	19.915	3.033	0.529
1214.500	685.648	79.985	19.992	99.993	19.916	2.965	0.478
1215.000	685.906	79.985	19.992	99.996	19.916	2.969	0.510
1215.500	686.159	79.982	19.992	100.000	19.916	2.977	0.527
1216.000	686.382	79.985	19.992	100.008	19.913	3.129	0.493
1216.500	686.624	79.986	19.992	100.011	19.915	2.984	0.471
1217.000	686.886	79.986	19.992	100.010	19.915	3.031	0.485
1217.500	687.143	79.984	19.992	100.008	19.913	3.167	0.512
1218.000	687.394	79.982	19.993	100.001	19.914	3.060	0.513
1218.500	687.667	79.986	19.991	99.996	19.914	3.103	0.516
1219.000	687.931	79.984	19.992	99.993	19.911	3.286	0.531
1219.500	688.119	79.984	19.992	99.992	19.910	3.350	0.494
1220.000	688.375	79.985	19.991	99.992	19.915	3.040	0.448
1220.501	688.636	79.984	19.992	99.991	19.916	2.944	0.481
1221.001	688.887	79.986	19.992	99.989	19.914	3.112	0.515
1221.500	689.121	79.983	19.992	99.989	19.912	3.220	0.499
1222.000	689.384	79.986	19.991	99.989	19.915	3.012	0.491
1222.500	689.621	79.985	19.992	99.989	19.915	2.997	0.498
1223.000	689.917	79.986	19.992	99.993	19.912	3.253	0.516
1223.500	690.146	79.983	19.993	99.993	19.914	3.089	0.529
1224.000	690.396	79.982	19.992	99.996	19.911	3.278	0.502
1224.500	690.638	79.982	19.992	100.001	19.916	2.950	0.485
1225.000	690.873	79.984	19.993	100.008	19.917	2.901	0.484
1225.500	691.127	79.987	19.992	100.008	19.912	3.208	0.483
1226.000	691.418	79.986	19.992	100.009	19.913	3.174	0.517
1226.500	691.629	79.983	19.992	100.006	19.912	3.193	0.523
1227.000	691.919	79.986	19.992	100.001	19.915	3.038	0.501
1227.500	692.203	79.986	19.993	99.998	19.914	3.103	0.538
1228.000	692.419	79.982	19.993	99.999	19.913	3.167	0.537
1228.501	692.673	79.986	19.992	100.004	19.918	2.828	0.484
1229.001	692.908	79.985	19.992	100.005	19.914	3.073	0.479
1229.501	693.221	79.984	19.992	100.005	19.915	3.033	0.519
1230.001	693.415	79.985	19.992	100.001	19.917	2.909	0.527
1230.500	693.701	79.984	19.993	99.998	19.912	3.229	0.493
1231.000	693.931	79.985	19.993	99.994	19.914	3.105	0.498
1231.500	694.183	79.986	19.991	99.995	19.915	3.020	0.499
1232.000	694.428	79.986	19.992	99.997	19.914	3.118	0.490
1232.501	694.683	79.986	19.991	99.999	19.913	3.136	0.498
1233.001	694.946	79.985	19.992	99.999	19.913	3.191	0.509
1233.501	695.183	79.988	19.992	99.997	19.916	2.957	0.509
1234.001	695.450	79.987	19.992	99.997	19.915	3.018	0.502
1234.501	695.719	79.987	19.992	99.995	19.916	2.974	0.520
1235.000	695.946	79.986	19.991	99.993	19.913	3.171	0.516
1235.500	696.188	79.987	19.992	99.992	19.913	3.138	0.483
1236.000	696.450	79.985	19.992	99.992	19.915	2.988	0.487
1236.500	696.711	79.988	19.992	99.991	19.911	3.317	0.514
1237.000	696.964	79.986	19.991	99.991	19.912	3.234	0.518
1237.500	697.218	79.987	19.992	99.990	19.913	3.168	0.510
1238.000	697.458	79.987	19.993	99.991	19.913	3.138	0.501
1238.501	697.715	79.985	19.992	99.992	19.912	3.201	0.496
1239.001	697.964	79.987	19.992	99.996	19.909	3.463	0.502
1239.500	698.193	79.988	19.993	100.000	19.915	3.044	0.492
1240.001	698.439	79.989	19.991	100.006	19.912	3.225	0.477
1240.501	698.675	79.984	19.992	100.011	19.913	3.168	0.478
1241.001	698.947	79.985	19.992	100.014	19.914	3.065	0.495
1241.501	699.207	79.985	19.992	100.009	19.914	3.088	0.520
1242.000	699.441	79.986	19.992	100.003	19.914	3.061	0.513
1242.500	699.718	79.985	19.991	100.001	19.914	3.071	0.502
1243.000	699.985	79.986	19.993	99.994	19.918	2.816	0.528
1243.500	700.224	79.985	19.992	99.992	19.919	2.760	0.525
1244.000	700.443	79.984	19.991	99.993	19.912	3.227	0.482
1244.500	700.697	79.985	19.992	99.992	19.913	3.144	0.466
1245.000	700.979	79.988	19.992	99.995	19.911	3.293	0.504
1245.500	701.207	79.984	19.991	99.996	19.913	3.135	0.523
1246.000	701.435	79.984	19.992	99.996	19.913	3.152	0.483
1246.500	701.737	79.986	19.991	99.996	19.913	3.123	0.493
1247.000	701.971	79.983	19.992	99.995	19.916	2.916	0.533
1247.500	702.203	79.984	19.991	99.990	19.914	3.119	0.501
1248.000	702.459	79.985	19.991	99.988	19.916	2.978	0.477
1248.500	702.690	79.986	19.993	99.989	19.917	2.861	0.488
1249.000	702.944	79.983	19.991	99.993	19.915	3.029	0.486
1249.500	703.180	79.985	19.992	99.994	19.913	3.191	0.488
1250.000	703.451	79.983	19.992	99.996	19.914	3.091	0.499
1250.500	703.687	79.985	19.991	99.997	19.913	3.189	0.507
1251.001	703.933	79.983	19.993	99.994	19.918	2.797	0.494
1251.501	704.192	79.983	19.992	99.991	19.915	3.040	0.494
1252.001	704.440	79.984	19.992	99.992	19.914	3.099	0.506
1252.501	704.663	79.983	19.992	99.996	19.914	3.087	0.488
1253.000	704.892	79.985	19.992	99.999	19.912	3.234	0.461
1253.500	705.164	79.983	19.992	99.999	19.914	3.093	0.477
1254.000	705.422	79.984	19.991	100.001	19.910	3.355	0.516
1254.501	705.650	79.986	19.991	100.004	19.911	3.272	0.508
1255.001	705.925	79.983	19.992	100.005	19.914	3.099	0.494
1255.500	706.184	79.985	19.992	100.008	19.912	3.214	0.519
1256.000	706.434	79.985	19.992	100.009	19.912	3.248	0.522
1256.500	706.640	79.986	19.992	100.006	19.914	3.088	0.483
1257.000	706.984	79.988	19.992	100.000	19.914	3.099	0.503
1257.500	707.238	79.984	19.992	99.996	19.912	3.218	0.574
1258.000	707.413	79.984	19.991	99.990	19.912	3.221	0.514
1258.500	707.668	79.983	19.992	99.990	19.913	3.169	0.429
1259.000	707.887	79.984	19.992	99.990	19.915	2.991	0.452
1259.500	708.157	79.983	19.991	99.990	19.916	2.944	0.482
1260.001	708.424	79.984	19.992	99.990	19.911	3.283	0.513
1260.501	708.657	79.984	19.992	99.991	19.912	3.231	0.518
1261.000	708.941	79.985	19.992	99.990	19.911	3.304	0.509
1261.500	709.166	79.985	19.993	99.992	19.911	3.306	0.513
1262.000	709.431	79.983	19.993	99.992	19.910	3.372	0.500
1262.500	709.674	79.983	19.992	99.992	19.912	3.203	0.499
1263.000	709.885	79.983	19.992	99.992	19.915	3.008	0.482
1263.500	710.166	79.985	19.993	99.991	19.913	3.129	0.473
1264.000	710.440	79.986	19.992	99.989	19.912	3.221	0.523
1264.500	710.653	79.986	19.993	99.988	19.910	3.365	0.520
1265.000	710.918	79.985	19.993	99.988	19.913	3.127	0.482
1265.500	711.177	79.986	19.992	99.987	19.912	3.252	0.502
1266.000	711.397	79.983	19.992	99.987	19.916	2.975	0.502
1266.500	711.667	79.984	19.993	99.988	19.914	3.071	0.484
1267.000	711.899	79.984	19.993	99.992	19.914	3.094	0.495
1267.500	712.151	79.984	19.993	99.994	19.913	3.131	0.493
1268.000	712.412	79.983	19.993	99.997	19.913	3.127	0.499
1268.500	712.611	79.985	19.992	99.997	19.913	3.191	0.487
1269.000	712.947	79.984	19.992	99.996	19.915	3.040	0.498
1269.500	713.158	79.984	19.992	99.992	19.913	3.176	0.541
1270.000	713.391	79.982	19.993	99.990	19.914	3.067	0.495
1270.500	713.650	79.982	19.994	99.988	19.916	2.931	0.468
1271.000	713.898	79.986	19.993	99.989	19.914	3.106	0.500
1271.500	714.166	79.981	19.994	99.989	19.914	3.078	0.512
1272.000	714.413	79.986	19.992	99.992	19.914	3.065	0.516
1272.501	714.692	79.983	19.993	99.998	19.914	3.093	0.520
1273.001	714.912	79.983	19.992	99.998	19.910	3.372	0.513
1273.500	715.176	79.982	19.992	99.998	19.914	3.067	0.492
1274.001	715.422	79.983	19.992	99.998	19.913	3.167	0.497
1274.501	715.680	79.983	19.992	99.995	19.910	3.355	0.507
1275.001	715.922	79.984	19.993	99.993	19.912	3.259	0.502
1275.500	716.175	79.984	19.992	99.997	19.915	3.048	0.498
1276.000	716.456	79.983	19.992	100.001	19.914	3.059	0.515
1276.500	716.653	79.985	19.991	100.002	19.913	3.176	0.506
1277.001	716.900	79.985	19.992	100.008	19.911	3.284	0.461
1277.501	717.196	79.985	19.992	100.008	19.912	3.244	0.494
1278.000	717.406	79.984	19.993	100.006	19.912	3.223	0.524
1278.500	717.680	79.983	19.993	100.004	19.911	3.276	0.494
1279.000	717.936	79.984	19.992	100.002	19.911	3.282	0.507
1279.501	718.157	79.983	19.993	99.997	19.909	3.427	0.503
1280.001	718.422	79.983	19.992	99.995	19.909	3.408	0.481
1280.500	718.670	79.982	19.992	99.991	19.910	3.342	0.499
1281.000	718.900	79.983	19.992	99.990	19.908	3.542	0.496
1281.500	719.170	79.983	19.992	99.995	19.909	3.430	0.490
1282.000	719.437	79.984	19.993	99.996	19.910	3.400	0.519
1282.500	719.692	79.984	19.992	99.996	19.910	3.400	0.529
1283.000	719.919	79.984	19.992	99.998	19.912	3.219	0.502
1283.500	720.154	79.984	19.994	99.999	19.910	3.340	0.472
1284.000	720.382	79.982	19.993	99.996	19.911	3.270	0.463
1284.500	720.671	79.983	19.993	99.994	19.909	3.446	0.490
1285.000	720.880	79.984	19.992	99.994	19.912	3.227	0.507
1285.500	721.127	79.983	19.992	99.992	19.912	3.252	0.476
1286.000	721.379	79.984	19.993	99.991	19.912	3.216	0.477
1286.500	721.637	79.983	19.993	99.990	19.910	3.365	0.505
1287.000	721.868	79.986	19.993	99.991	19.913	3.154	0.500
1287.500	722.103	79.986	19.993	99.998	19.909	3.444	0.478
1288.001	722.376	79.986	19.993	99.999	19.911	3.317	0.487
1288.501	722.620	79.986	19.993	100.000	19.913	3.129	0.512
1289.000	722.896	79.985	19.992	99.999	19.910	3.346	0.519
1289.500	723.157	79.985	19.993	99.998	19.912	3.240	0.529
1290.000	723.386	79.985	19.992	99.991	19.909	3.410	0.513
1290.500	723.589	79.985	19.992	99.989	19.910	3.353	0.460
1291.000	723.838	79.983	19.993	99.989	19.908	3.495	0.442
1291.501	724.078	79.985	19.993	99.989	19.910	3.336	0.471
1292.002	724.359	79.984	19.993	99.990	19.909	3.436	0.505
1292.501	724.589	79.984	19.993	99.992	19.911	3.266	0.516
1293.000	724.824	79.987	19.992	99.993	19.910	3.366	0.488
1293.500	725.076	79.986	19.992	99.993	19.909	3.432	0.476
1294.000	725.321	79.981	19.992	99.993	19.914	3.080	0.492
1294.500	725.573	79.986	19.992	99.993	19.914	3.094	0.497
1295.000	725.837	79.983	19.992	99.993	19.909	3.461	0.506
1295.500	726.045	79.986	19.993	99.993	19.910	3.339	0.494
1296.000	726.303	79.983	19.993	99.996	19.912	3.203	0.469
1296.500	726.561	79.986	19.993	99.999	19.911	3.282	0.491
1297.000	726.780	79.984	19.994	99.999	19.911	3.318	0.497
1297.500	727.050	79.985	19.993	99.997	19.909	3.463	0.484
1298.000	727.295	79.985	19.993	99.996	19.906	3.681	0.502
1298.500	727.572	79.983	19.993	99.993	19.910	3.346	0.518
1299.000	727.805	79.985	19.993	99.990	19.910	3.334	0.516
1299.500	728.073	79.986	19.993	99.988	19.909	3.445	0.506
1300.000	728.330	79.987	19.993	99.990	19.910	3.400	0.513
1300.501	728.586	79.987	19.994	99.995	19.911	3.313	0.519
1301.001	728.839	79.986	19.994	99.998	19.909	3.457	0.511
1301.500	729.082	79.985	19.993	99.999	19.909	3.415	0.503
1302.000	729.337	79.982	19.992	99.999	19.909	3.425	0.497
1302.500	729.590	79.985	19.993	99.998	19.910	3.334	0.503
1303.000	729.862	79.988	19.992	99.992	19.909	3.415	0.516
1303.500	730.098	79.987	19.992	99.988	19.909	3.449	0.516
1304.000	730.350	79.987	19.992	99.987	19.911	3.278	0.498
1304.500	730.611	79.986	19.992	99.993	19.909	3.472	0.501
1305.001	730.884	79.986	19.992	100.001	19.914	3.087	0.524
1305.501	731.123	79.986	19.992	100.007	19.910	3.362	0.523
1306.001	731.380	79.984	19.992	100.012	19.908	3.538	0.504
1306.500	731.624	79.983	19.992	100.014	19.911	3.302	0.498
1307.001	731.902	79.985	19.991	100.013	19.909	3.462	0.511
1307.501	732.124	79.987	19.992	100.006	19.912	3.238	0.511
1308.001	732.348	79.986	19.992	99.999	19.913	3.164	0.473
1308.500	732.652	79.983	19.991	99.994	19.910	3.343	0.487
1309.000	732.890	79.988	19.992	99.995	19.912	3.247	0.535
1309.500	733.152	79.984	19.992	99.989	19.909	3.457	0.521
1310.000	733.378	79.983	19.993	99.989	19.912	3.251	0.494
1310.500	733.657	79.986	19.993	99.989	19.909	3.421	0.496
1311.000	733.915	79.985	19.993	99.990	19.910	3.376	0.521
1311.500	734.155	79.987	19.991	99.987	19.908	3.530	0.518
1312.000	734.395	79.989	19.992	99.987	19.912	3.215	0.489
1312.500	734.633	79.986	19.992	99.987	19.911	3.302	0.479
1313.000	734.937	79.986	19.993	99.987	19.911	3.266	0.510
1313.500	735.162	79.989	19.992	99.986	19.910	3.381	0.535
1314.000	735.418	79.985	19.992	99.985	19.910	3.362	0.505
1314.500	735.667	79.986	19.992	99.984	19.909	3.470	0.493
1315.001	735.908	79.988	19.992	99.984	19.912	3.247	0.498
1315.501	736.159	79.985	19.992	99.984	19.910	3.393	0.491
1316.000	736.426	79.987	19.993	99.984	19.907	3.570	0.505
1316.500	736.689	79.986	19.992	99.984	19.910	3.381	0.523
1317.000	736.919	79.986	19.992	99.984	19.910	3.372	0.511
1317.500	737.175	79.988	19.991	99.984	19.909	3.455	0.490
1318.001	737.436	79.987	19.992	99.983	19.909	3.432	0.502
1318.501	737.714	79.985	19.992	99.983	19.910	3.400	0.528
1319.000	737.968	79.987	19.991	99.983	19.909	3.453	0.535
1319.500	738.210	79.986	19.992	99.983	19.911	3.270	0.514
1320.000	738.451	79.987	19.992	99.984	19.910	3.338	0.489
1320.500	738.711	79.986	19.992	99.984	19.910	3.359	0.492
1321.000	738.968	79.985	19.991	99.985	19.913	3.189	0.509
1321.500	739.254	79.988	19.991	99.984	19.912	3.225	0.531
1322.000	739.501	79.986	19.992	99.984	19.911	3.304	0.538
1322.501	739.726	79.987	19.992	99.984	19.910	3.346	0.502
1323.001	739.981	79.986	19.993	99.983	19.911	3.312	0.476
1323.500	740.260	79.985	19.992	99.984	19.912	3.261	0.507
1324.000	740.501	79.986	19.992	99.985	19.913	3.178	0.527
1324.501	740.782	79.985	19.992	99.986	19.912	3.223	0.521
1325.001	741.011	79.984	19.992	99.986	19.908	3.506	0.516
1325.501	741.255	79.984	19.993	99.986	19.909	3.447	0.491
1326.000	741.509	79.986	19.992	99.986	19.908	3.510	0.485
1326.500	741.797	79.983	19.993	99.985	19.909	3.406	0.520
1327.000	742.075	79.983	19.991	99.985	19.908	3.519	0.554
1327.500	742.298	79.983	19.993	99.985	19.909	3.447	0.534
1328.000	742.525	79.984	19.993	99.986	19.908	3.513	0.476
1328.500	742.796	79.986	19.993	99.987	19.910	3.336	0.474
1329.000	743.059	79.985	19.993	99.987	19.911	3.310	0.516
1329.500	743.301	79.983	19.993	99.987	19.911	3.316	0.519
1330.001	743.571	79.983	19.992	99.988	19.913	3.157	0.509
