Sample ID:	C:\MCC\MCC Cal\Test\Pine_Siding\Pine_Siding_30_1.txt
Sample Weight (mg):	3.88
Heating Rate (C/s):	0.5
Combustor Temp (C):	900
N2 Flow Rate (cc/min):	80
O2 Flow Rate (cc/min):	20
Calibration File:	C:\MCC\MCC Cal\Coeff1 JN10440_30_210304.txt.txt
T Correction Coefficients:	0	1.024463	0
Time Shift (s):	14
*
Time (s)	Temperature (C)	N2 flow rate (cc/min)	O2 flow rate (cc/min)	Flow Rate (cc/min)	Oxygen (%)	HRR (W/g)	Heating rate (C/s)
0.000	108.507	79.981	19.993	99.917	19.957	0.448	-0.018
0.500	108.534	79.981	19.993	99.917	19.959	0.355	-0.014
1.000	108.541	79.982	19.992	99.917	19.960	0.256	0.013
1.500	108.533	79.982	19.993	99.916	19.959	0.303	0.016
2.000	108.496	79.981	19.992	99.917	19.959	0.308	-0.023
2.500	108.515	79.981	19.992	99.918	19.959	0.290	-0.031
3.000	108.519	79.980	19.993	99.918	19.960	0.223	0.003
3.500	108.502	79.981	19.993	99.917	19.965	-0.128	0.005
4.000	108.512	79.981	19.993	99.915	19.959	0.288	-0.011
4.500	108.526	79.980	19.994	99.913	19.962	0.058	0.008
5.000	108.489	79.982	19.993	99.912	19.961	0.147	0.001
5.500	108.523	79.979	19.994	99.913	19.962	0.061	-0.013
6.000	108.527	79.981	19.996	99.912	19.958	0.377	0.017
6.500	108.513	79.979	19.995	99.913	19.961	0.188	0.014
7.000	108.530	79.981	19.993	99.914	19.960	0.258	-0.003
7.500	108.486	79.980	19.995	99.914	19.963	-0.011	-0.013
8.000	108.473	79.981	19.994	99.913	19.962	0.043	-0.042
8.500	108.485	79.981	19.993	99.913	19.960	0.262	-0.029
9.000	108.470	79.981	19.994	99.913	19.961	0.143	-0.002
9.500	108.473	79.980	19.992	99.915	19.961	0.188	-0.007
10.000	108.483	79.981	19.993	99.921	19.960	0.212	0.001
10.500	108.489	79.980	19.992	99.929	19.961	0.141	0.015
11.000	108.481	79.980	19.992	99.936	19.962	0.065	0.007
11.500	108.463	79.980	19.992	99.941	19.959	0.308	-0.014
12.000	108.466	79.980	19.992	99.947	19.958	0.407	-0.021
12.500	108.481	79.979	19.994	99.943	19.960	0.269	0.002
13.000	108.470	79.982	19.993	99.942	19.959	0.280	0.011
13.500	108.471	79.981	19.992	99.937	19.959	0.355	-0.003
14.001	108.470	79.980	19.993	99.938	19.956	0.559	-0.005
14.501	108.479	79.981	19.992	99.939	19.953	0.841	0.004
15.001	108.515	79.979	19.993	99.949	19.958	0.384	0.027
15.501	108.490	79.981	19.992	99.954	19.953	0.802	0.028
16.001	108.498	79.980	19.992	99.960	19.952	0.906	-0.003
16.500	108.510	79.980	19.991	99.967	19.952	0.897	0.001
17.000	108.524	79.981	19.990	99.975	19.953	0.830	0.023
17.500	108.528	79.980	19.992	99.979	19.949	1.155	0.022
18.000	108.553	79.980	19.992	99.985	19.947	1.305	0.023
18.500	108.520	79.981	19.992	99.993	19.946	1.346	0.010
19.000	108.530	79.982	19.993	99.994	19.948	1.186	-0.015
19.500	108.539	79.981	19.991	99.990	19.946	1.398	-0.002
20.001	108.565	79.981	19.992	99.990	19.945	1.450	0.027
20.501	108.566	79.979	19.991	99.992	19.946	1.364	0.031
21.000	108.585	79.980	19.992	99.997	19.940	1.817	0.024
21.501	108.615	79.980	19.993	100.005	19.945	1.468	0.035
22.001	108.590	79.980	19.993	100.016	19.942	1.674	0.027
22.500	108.617	79.980	19.993	100.025	19.944	1.509	0.003
23.000	108.648	79.981	19.992	100.030	19.938	2.032	0.030
23.500	108.679	79.979	19.992	100.030	19.940	1.867	0.060
24.000	108.710	79.980	19.992	100.028	19.939	1.962	0.062
24.500	108.775	79.981	19.993	100.028	19.938	2.034	0.079
25.000	108.752	79.981	19.992	100.028	19.935	2.255	0.069
25.500	108.775	79.980	19.993	100.030	19.937	2.054	0.021
26.000	108.809	79.980	19.991	100.032	19.935	2.258	0.028
26.500	108.849	79.980	19.990	100.036	19.935	2.234	0.065
27.000	108.922	79.981	19.992	100.037	19.936	2.175	0.094
27.500	108.912	79.983	19.990	100.037	19.934	2.338	0.088
28.000	108.925	79.981	19.991	100.037	19.937	2.106	0.033
28.500	108.963	79.981	19.992	100.041	19.936	2.147	0.027
29.000	108.993	79.982	19.993	100.048	19.932	2.522	0.059
29.500	109.040	79.982	19.991	100.047	19.938	2.032	0.072
30.000	109.057	79.982	19.990	100.047	19.938	1.991	0.071
30.500	109.084	79.981	19.992	100.046	19.933	2.394	0.054
31.000	109.136	79.981	19.991	100.049	19.937	2.112	0.061
31.501	109.183	79.981	19.991	100.049	19.935	2.249	0.089
32.001	109.188	79.983	19.992	100.056	19.934	2.351	0.076
32.500	109.255	79.981	19.991	100.058	19.933	2.442	0.062
33.001	109.284	79.982	19.991	100.064	19.934	2.355	0.084
33.501	109.330	79.982	19.991	100.065	19.933	2.405	0.085
34.000	109.427	79.982	19.992	100.066	19.935	2.244	0.109
34.500	109.433	79.982	19.992	100.067	19.932	2.468	0.123
35.001	109.476	79.982	19.991	100.073	19.932	2.518	0.076
35.501	109.554	79.981	19.992	100.082	19.930	2.646	0.085
36.001	109.609	79.981	19.992	100.085	19.932	2.507	0.127
36.500	109.663	79.983	19.991	100.084	19.930	2.659	0.121
37.000	109.683	79.983	19.993	100.084	19.930	2.625	0.091
37.500	109.738	79.983	19.992	100.084	19.930	2.677	0.075
38.000	109.822	79.981	19.991	100.077	19.930	2.633	0.107
38.500	109.847	79.982	19.992	100.073	19.929	2.757	0.124
39.000	109.949	79.983	19.991	100.073	19.929	2.744	0.118
39.500	110.011	79.983	19.993	100.072	19.928	2.831	0.145
40.000	110.109	79.983	19.990	100.072	19.926	2.954	0.161
40.500	110.162	79.983	19.992	100.074	19.928	2.787	0.155
41.001	110.248	79.982	19.992	100.075	19.927	2.896	0.146
41.501	110.315	79.983	19.992	100.075	19.926	3.009	0.147
42.000	110.345	79.984	19.992	100.076	19.926	2.985	0.125
42.500	110.458	79.983	19.991	100.076	19.927	2.881	0.120
43.000	110.518	79.983	19.991	100.073	19.927	2.873	0.158
43.501	110.598	79.982	19.993	100.071	19.926	2.968	0.157
44.001	110.709	79.984	19.993	100.070	19.927	2.912	0.166
44.501	110.738	79.982	19.992	100.075	19.925	3.077	0.166
45.001	110.828	79.982	19.993	100.081	19.925	3.023	0.130
45.501	110.910	79.984	19.992	100.087	19.925	3.019	0.145
46.000	110.984	79.984	19.993	100.094	19.924	3.155	0.164
46.500	111.079	79.985	19.990	100.100	19.921	3.368	0.163
47.000	111.160	79.984	19.991	100.102	19.922	3.283	0.173
47.500	111.264	79.983	19.992	100.104	19.923	3.190	0.180
48.000	111.325	79.983	19.991	100.107	19.920	3.450	0.175
48.500	111.428	79.983	19.992	100.109	19.921	3.392	0.165
49.000	111.507	79.981	19.992	100.110	19.921	3.366	0.173
49.500	111.597	79.983	19.991	100.110	19.919	3.522	0.176
50.000	111.665	79.982	19.991	100.110	19.921	3.411	0.164
50.500	111.789	79.983	19.992	100.109	19.920	3.470	0.175
51.000	111.848	79.983	19.991	100.109	19.922	3.298	0.187
51.500	111.926	79.982	19.993	100.111	19.919	3.515	0.159
52.001	112.018	79.984	19.991	100.114	19.921	3.398	0.153
52.501	112.139	79.983	19.991	100.119	19.918	3.604	0.192
53.000	112.253	79.983	19.992	100.126	19.918	3.637	0.224
53.500	112.351	79.984	19.991	100.130	19.917	3.682	0.223
54.000	112.432	79.984	19.992	100.135	19.916	3.784	0.195
54.501	112.577	79.984	19.991	100.139	19.915	3.878	0.202
55.001	112.656	79.983	19.991	100.142	19.916	3.754	0.225
55.500	112.760	79.986	19.992	100.142	19.914	3.934	0.204
56.000	112.886	79.984	19.991	100.147	19.914	3.936	0.207
56.501	112.981	79.983	19.991	100.148	19.913	4.006	0.225
57.001	113.098	79.984	19.993	100.147	19.910	4.225	0.216
57.500	113.181	79.985	19.992	100.147	19.912	4.091	0.206
58.000	113.313	79.984	19.991	100.147	19.911	4.147	0.208
58.500	113.467	79.983	19.994	100.147	19.912	4.072	0.251
59.000	113.593	79.986	19.988	100.147	19.911	4.154	0.283
59.501	113.674	79.983	19.992	100.147	19.912	4.113	0.243
60.001	113.786	79.985	19.992	100.147	19.909	4.369	0.200
60.500	113.894	79.984	19.991	100.148	19.909	4.328	0.207
61.000	114.058	79.984	19.991	100.148	19.909	4.363	0.246
61.500	114.170	79.985	19.991	100.148	19.911	4.204	0.274
62.000	114.283	79.984	19.992	100.147	19.909	4.378	0.250
62.500	114.440	79.984	19.992	100.148	19.908	4.428	0.247
63.001	114.561	79.985	19.991	100.146	19.907	4.493	0.274
63.501	114.702	79.983	19.992	100.147	19.909	4.352	0.270
64.001	114.785	79.983	19.992	100.147	19.909	4.365	0.243
64.501	114.967	79.983	19.990	100.146	19.912	4.139	0.244
65.001	115.064	79.986	19.992	100.146	19.906	4.554	0.272
65.501	115.225	79.984	19.991	100.147	19.909	4.350	0.269
66.000	115.348	79.987	19.994	100.146	19.912	4.133	0.271
66.500	115.499	79.983	19.993	100.146	19.910	4.289	0.279
67.001	115.632	79.982	19.994	100.148	19.911	4.182	0.279
67.501	115.786	79.984	19.991	100.151	19.909	4.317	0.286
68.000	115.907	79.985	19.991	100.155	19.910	4.298	0.281
68.500	116.075	79.981	19.993	100.154	19.911	4.220	0.282
69.000	116.182	79.983	19.995	100.158	19.910	4.296	0.282
69.500	116.358	79.981	19.994	100.163	19.909	4.372	0.279
70.000	116.519	79.981	19.992	100.162	19.910	4.239	0.310
70.500	116.662	79.982	19.992	100.165	19.911	4.202	0.320
71.000	116.831	79.981	19.993	100.168	19.909	4.309	0.307
71.500	116.945	79.980	19.992	100.166	19.908	4.447	0.297
72.000	117.105	79.980	19.994	100.167	19.910	4.280	0.279
72.500	117.258	79.983	19.991	100.170	19.912	4.111	0.294
73.000	117.423	79.982	19.992	100.168	19.909	4.382	0.315
73.501	117.589	79.980	19.993	100.167	19.909	4.349	0.324
74.001	117.726	79.980	19.991	100.170	19.909	4.323	0.317
74.500	117.866	79.981	19.993	100.172	19.910	4.248	0.290
75.000	118.037	79.980	19.992	100.173	19.910	4.241	0.294
75.500	118.243	79.984	19.992	100.173	19.907	4.543	0.344
76.000	118.379	79.983	19.993	100.174	19.911	4.209	0.360
76.500	118.543	79.982	19.993	100.173	19.908	4.435	0.322
77.000	118.709	79.984	19.991	100.169	19.910	4.302	0.315
77.500	118.854	79.981	19.992	100.168	19.908	4.458	0.320
78.000	119.050	79.982	19.993	100.168	19.907	4.528	0.326
78.500	119.216	79.982	19.992	100.172	19.910	4.289	0.352
79.000	119.376	79.981	19.994	100.175	19.908	4.440	0.344
79.500	119.551	79.981	19.992	100.180	19.912	4.069	0.331
80.000	119.724	79.981	19.994	100.181	19.910	4.230	0.342
80.500	119.909	79.981	19.992	100.185	19.905	4.693	0.353
81.000	120.094	79.982	19.995	100.180	19.906	4.571	0.364
81.500	120.274	79.980	19.994	100.174	19.908	4.402	0.368
82.000	120.430	79.983	19.993	100.172	19.907	4.522	0.351
82.500	120.674	79.980	19.993	100.169	19.909	4.355	0.368
83.001	120.842	79.981	19.991	100.164	19.906	4.606	0.406
83.501	120.996	79.981	19.994	100.163	19.904	4.715	0.367
84.000	121.196	79.982	19.992	100.165	19.905	4.689	0.338
84.500	121.384	79.982	19.993	100.162	19.903	4.864	0.371
85.000	121.535	79.982	19.992	100.164	19.903	4.841	0.364
85.500	121.741	79.982	19.992	100.170	19.901	4.969	0.348
86.001	121.928	79.981	19.993	100.170	19.902	4.880	0.374
86.501	122.134	79.982	19.992	100.173	19.906	4.591	0.393
87.000	122.328	79.981	19.992	100.178	19.906	4.595	0.397
87.500	122.525	79.983	19.992	100.179	19.904	4.741	0.396
88.000	122.722	79.981	19.993	100.174	19.903	4.795	0.393
88.500	122.880	79.984	19.992	100.174	19.903	4.797	0.375
89.000	123.090	79.982	19.992	100.169	19.902	4.873	0.361
89.500	123.295	79.982	19.993	100.162	19.905	4.687	0.391
90.000	123.509	79.980	19.993	100.157	19.904	4.737	0.417
90.500	123.649	79.981	19.992	100.159	19.905	4.663	0.387
91.001	123.866	79.982	19.993	100.163	19.905	4.685	0.355
91.501	124.069	79.982	19.992	100.170	19.905	4.695	0.388
92.001	124.248	79.979	19.993	100.177	19.902	4.915	0.401
92.501	124.448	79.981	19.993	100.181	19.906	4.623	0.381
93.001	124.646	79.980	19.992	100.182	19.905	4.675	0.388
93.501	124.863	79.980	19.994	100.185	19.903	4.807	0.406
94.001	125.075	79.982	19.994	100.184	19.901	5.003	0.422
94.500	125.239	79.979	19.994	100.181	19.902	4.909	0.403
95.000	125.459	79.980	19.994	100.178	19.906	4.556	0.380
95.500	125.649	79.982	19.993	100.177	19.907	4.517	0.397
96.001	125.889	79.980	19.993	100.178	19.907	4.510	0.420
96.501	126.079	79.981	19.992	100.179	19.905	4.675	0.430
97.000	126.268	79.979	19.993	100.178	19.905	4.690	0.404
97.500	126.480	79.981	19.994	100.180	19.906	4.623	0.390
98.000	126.691	79.979	19.993	100.180	19.904	4.712	0.412
98.500	126.859	79.977	19.990	100.178	19.906	4.576	0.401
99.000	127.100	79.980	19.989	100.175	19.902	4.877	0.394
99.500	127.321	79.980	19.992	100.180	19.907	4.511	0.435
100.000	127.499	79.980	19.992	100.183	19.905	4.656	0.430
100.500	127.733	79.981	19.992	100.182	19.906	4.580	0.406
101.000	127.948	79.982	19.994	100.183	19.903	4.795	0.431
101.500	128.198	79.978	19.990	100.183	19.899	5.145	0.457
102.001	128.361	79.979	19.991	100.183	19.900	5.101	0.439
102.501	128.629	79.981	19.993	100.183	19.899	5.170	0.422
103.000	128.831	79.981	19.993	100.180	19.905	4.671	0.450
103.500	129.036	79.984	19.990	100.175	19.899	5.144	0.439
104.000	129.254	79.981	19.992	100.171	19.903	4.868	0.416
104.500	129.476	79.980	19.993	100.165	19.902	4.908	0.432
105.000	129.655	79.981	19.992	100.161	19.901	4.995	0.420
105.500	129.917	79.982	19.993	100.165	19.903	4.813	0.421
106.000	130.131	79.980	19.992	100.166	19.903	4.826	0.458
106.500	130.329	79.982	19.993	100.167	19.904	4.719	0.444
107.000	130.578	79.982	19.992	100.169	19.903	4.856	0.429
107.500	130.761	79.981	19.993	100.169	19.901	5.023	0.439
108.000	130.981	79.982	19.992	100.165	19.900	5.105	0.417
108.501	131.206	79.983	19.991	100.167	19.901	4.973	0.424
109.001	131.454	79.979	19.994	100.171	19.900	5.064	0.459
109.500	131.640	79.982	19.992	100.172	19.903	4.814	0.454
110.000	131.885	79.983	19.991	100.176	19.904	4.753	0.432
110.500	132.094	79.984	19.991	100.181	19.905	4.636	0.443
111.000	132.300	79.982	19.993	100.182	19.902	4.940	0.435
111.500	132.570	79.984	19.994	100.181	19.903	4.857	0.445
112.000	132.770	79.986	19.989	100.180	19.900	5.048	0.473
112.500	133.002	79.974	20.004	100.178	19.899	5.131	0.451
113.001	133.187	79.984	19.995	100.169	19.902	4.871	0.425
113.501	133.449	79.985	19.996	100.166	19.899	5.114	0.432
114.001	133.710	79.982	19.997	100.165	19.902	4.895	0.485
114.500	133.897	79.985	19.991	100.162	19.901	4.992	0.486
115.000	134.118	79.984	19.989	100.164	19.898	5.205	0.428
115.500	134.371	79.980	19.989	100.174	19.901	5.022	0.441
116.000	134.573	79.982	19.992	100.180	19.897	5.309	0.464
116.500	134.794	79.984	19.989	100.180	19.898	5.198	0.439
117.000	135.045	79.986	19.990	100.182	19.898	5.211	0.448
117.500	135.305	79.984	19.993	100.180	19.901	5.027	0.491
118.001	135.488	79.985	19.989	100.178	19.900	5.064	0.477
118.501	135.772	79.983	19.993	100.174	19.899	5.168	0.455
119.001	136.007	79.984	19.992	100.175	19.898	5.253	0.493
119.501	136.201	79.985	19.992	100.171	19.898	5.194	0.474
120.000	136.470	79.983	19.992	100.172	19.899	5.157	0.446
120.500	136.661	79.984	19.995	100.169	19.897	5.300	0.461
121.000	136.929	79.987	19.988	100.168	19.898	5.245	0.459
121.500	137.147	79.983	19.992	100.166	19.900	5.111	0.472
122.000	137.422	79.984	19.992	100.167	19.899	5.172	0.489
122.500	137.598	79.982	19.994	100.162	19.897	5.344	0.472
123.000	137.870	79.983	19.992	100.164	19.899	5.116	0.450
123.500	138.071	79.984	19.992	100.166	19.895	5.456	0.461
124.000	138.319	79.986	19.990	100.168	19.897	5.337	0.461
124.500	138.548	79.985	19.992	100.174	19.901	4.979	0.463
125.000	138.818	79.981	19.989	100.179	19.900	5.076	0.488
125.500	139.045	79.981	19.993	100.175	19.900	5.108	0.498
126.000	139.314	79.984	19.994	100.171	19.897	5.326	0.496
126.500	139.508	79.983	19.990	100.166	19.900	5.111	0.480
127.000	139.765	79.982	19.993	100.164	19.900	5.063	0.457
127.500	139.971	79.985	19.989	100.158	19.900	5.085	0.457
128.000	140.234	79.982	19.996	100.163	19.900	5.087	0.466
128.500	140.469	79.978	19.996	100.168	19.900	5.106	0.483
129.000	140.731	79.981	19.995	100.172	19.902	4.924	0.497
129.500	140.966	79.982	19.992	100.175	19.903	4.839	0.497
130.000	141.152	79.983	19.991	100.175	19.906	4.559	0.459
130.500	141.444	79.982	19.992	100.169	19.903	4.831	0.450
131.000	141.679	79.983	19.990	100.163	19.904	4.744	0.502
131.500	141.931	79.982	19.995	100.157	19.902	4.941	0.507
132.000	142.175	79.982	19.991	100.156	19.903	4.835	0.492
132.500	142.454	79.987	19.990	100.161	19.903	4.852	0.509
133.000	142.669	79.983	19.989	100.164	19.905	4.659	0.508
133.500	142.955	79.985	19.986	100.170	19.905	4.635	0.498
134.000	143.139	79.980	19.996	100.171	19.900	5.030	0.486
134.500	143.430	79.980	19.995	100.166	19.903	4.813	0.472
135.000	143.679	79.984	19.987	100.160	19.901	4.998	0.507
135.500	143.910	79.982	19.990	100.157	19.905	4.696	0.510
136.000	144.130	79.989	19.990	100.150	19.904	4.735	0.465
136.500	144.403	79.980	19.990	100.150	19.904	4.768	0.472
137.000	144.671	79.986	19.987	100.154	19.906	4.599	0.517
137.500	144.930	79.978	19.992	100.161	19.905	4.642	0.534
138.000	145.173	79.982	19.996	100.161	19.905	4.662	0.515
138.501	145.405	79.988	19.995	100.160	19.905	4.698	0.489
139.000	145.649	79.986	19.986	100.159	19.905	4.700	0.475
139.500	145.930	79.985	19.993	100.156	19.906	4.618	0.501
140.000	146.165	79.981	19.990	100.150	19.905	4.648	0.520
140.500	146.433	79.983	19.994	100.151	19.905	4.657	0.509
141.000	146.685	79.983	19.990	100.153	19.903	4.822	0.511
141.500	146.950	79.984	19.990	100.154	19.903	4.828	0.518
142.000	147.160	79.986	19.992	100.153	19.902	4.944	0.496
142.500	147.418	79.982	19.991	100.151	19.902	4.900	0.472
143.000	147.686	79.986	19.990	100.150	19.901	5.002	0.497
143.500	147.948	79.986	19.988	100.149	19.902	4.870	0.528
144.000	148.211	79.986	19.993	100.152	19.906	4.603	0.527
144.500	148.432	79.988	19.991	100.153	19.905	4.642	0.505
145.000	148.718	79.983	19.993	100.154	19.908	4.444	0.496
145.500	148.946	79.985	19.988	100.155	19.902	4.941	0.510
146.000	149.225	79.982	19.991	100.155	19.902	4.913	0.510
146.501	149.488	79.986	19.992	100.153	19.904	4.763	0.524
147.000	149.738	79.994	19.990	100.152	19.902	4.880	0.528
147.500	150.016	79.986	19.991	100.153	19.903	4.828	0.520
148.000	150.232	79.982	19.993	100.156	19.899	5.126	0.511
148.500	150.459	79.983	19.993	100.155	19.903	4.837	0.469
149.000	150.705	79.985	19.989	100.155	19.901	4.954	0.458
149.500	150.978	79.982	19.997	100.155	19.902	4.909	0.496
150.000	151.246	79.984	19.991	100.152	19.901	4.963	0.530
150.500	151.497	79.982	19.994	100.149	19.902	4.885	0.530
151.000	151.773	79.983	19.993	100.149	19.903	4.811	0.523
151.500	152.002	79.986	19.994	100.149	19.902	4.911	0.516
152.000	152.297	79.982	19.991	100.149	19.905	4.672	0.515
152.500	152.526	79.986	19.988	100.151	19.906	4.594	0.524
153.000	152.741	79.982	19.995	100.152	19.905	4.633	0.484
153.500	153.017	79.984	19.991	100.151	19.904	4.748	0.468
154.000	153.275	79.984	19.988	100.152	19.905	4.630	0.512
154.500	153.508	79.982	19.995	100.153	19.907	4.513	0.512
155.000	153.768	79.982	19.991	100.152	19.903	4.860	0.493
155.500	154.010	79.985	19.989	100.152	19.904	4.786	0.498
156.000	154.227	79.977	19.993	100.154	19.904	4.759	0.481
156.500	154.498	79.978	19.992	100.153	19.903	4.798	0.473
157.000	154.735	79.978	19.994	100.151	19.903	4.811	0.497
157.500	155.044	79.980	19.990	100.152	19.903	4.857	0.527
158.000	155.263	79.979	19.995	100.150	19.905	4.648	0.537
158.500	155.524	79.978	19.995	100.148	19.903	4.791	0.505
159.000	155.776	79.982	19.996	100.148	19.907	4.496	0.496
159.500	156.021	79.976	19.996	100.148	19.907	4.472	0.505
160.000	156.265	79.981	19.992	100.148	19.903	4.811	0.493
160.500	156.517	79.981	19.991	100.149	19.905	4.692	0.493
161.000	156.771	79.980	19.992	100.151	19.904	4.726	0.501
161.500	157.022	79.980	19.992	100.152	19.907	4.540	0.506
162.000	157.266	79.979	19.990	100.152	19.904	4.780	0.500
162.500	157.541	79.980	19.992	100.152	19.901	4.954	0.506
163.000	157.802	79.976	19.994	100.152	19.903	4.797	0.527
163.500	158.055	79.982	19.988	100.152	19.904	4.780	0.525
164.000	158.287	79.979	19.991	100.150	19.904	4.730	0.500
164.500	158.549	79.982	19.992	100.137	19.906	4.626	0.489
165.000	158.818	79.979	19.991	100.131	19.907	4.483	0.513
165.500	159.068	79.982	19.994	100.129	19.907	4.544	0.526
166.000	159.342	79.981	19.988	100.129	19.907	4.478	0.521
166.500	159.582	79.977	19.999	100.131	19.909	4.324	0.518
167.000	159.864	79.981	19.994	100.142	19.907	4.488	0.518
167.500	160.117	79.985	19.990	100.147	19.905	4.642	0.529
168.000	160.368	79.983	19.994	100.150	19.905	4.670	0.519
168.500	160.630	79.983	19.991	100.150	19.904	4.775	0.508
169.000	160.851	79.983	19.988	100.147	19.906	4.604	0.498
169.500	161.104	79.981	19.994	100.149	19.904	4.734	0.479
170.000	161.351	79.985	19.991	100.148	19.907	4.515	0.487
170.500	161.631	79.982	19.990	100.147	19.908	4.437	0.514
171.000	161.899	79.983	19.992	100.146	19.905	4.702	0.538
171.500	162.148	79.981	19.987	100.146	19.905	4.704	0.532
172.000	162.368	79.983	19.991	100.146	19.905	4.697	0.492
172.500	162.645	79.981	19.993	100.144	19.903	4.814	0.483
173.000	162.890	79.982	19.993	100.144	19.903	4.810	0.510
173.500	163.171	79.982	19.991	100.142	19.904	4.751	0.524
174.000	163.363	79.980	19.993	100.136	19.905	4.673	0.499
174.500	163.660	79.979	19.994	100.134	19.907	4.512	0.481
175.000	163.902	79.983	19.992	100.135	19.904	4.723	0.514
175.500	164.185	79.981	19.994	100.134	19.902	4.898	0.532
176.000	164.410	79.987	19.991	100.135	19.902	4.868	0.516
176.500	164.634	79.980	19.991	100.136	19.906	4.618	0.478
177.000	164.977	79.980	19.993	100.131	19.904	4.772	0.508
177.500	165.180	79.981	19.993	100.125	19.902	4.894	0.557
178.000	165.471	79.981	19.993	100.119	19.904	4.762	0.520
178.500	165.723	79.982	19.993	100.114	19.905	4.679	0.519
179.000	165.991	79.981	19.993	100.114	19.904	4.723	0.532
179.500	166.238	79.982	19.994	100.119	19.905	4.655	0.518
180.000	166.508	79.982	19.993	100.122	19.908	4.441	0.516
180.500	166.748	79.982	19.994	100.125	19.903	4.853	0.513
181.000	166.989	79.981	19.994	100.129	19.906	4.584	0.496
181.501	167.260	79.981	19.993	100.132	19.904	4.761	0.496
182.000	167.445	79.979	19.995	100.134	19.904	4.711	0.484
182.500	167.730	79.982	19.993	100.132	19.902	4.911	0.463
183.000	168.007	79.981	19.994	100.133	19.906	4.565	0.516
183.500	168.212	79.979	19.994	100.130	19.906	4.621	0.522
184.000	168.516	79.982	19.993	100.124	19.904	4.777	0.496
184.500	168.796	79.978	19.997	100.119	19.904	4.733	0.546
185.000	169.014	79.979	19.992	100.120	19.906	4.603	0.541
185.500	169.255	79.982	19.995	100.118	19.904	4.781	0.478
186.000	169.509	79.982	19.996	100.116	19.905	4.656	0.477
186.500	169.721	79.982	19.993	100.116	19.907	4.497	0.481
187.000	170.005	79.979	19.996	100.113	19.907	4.537	0.481
187.500	170.250	79.977	19.997	100.111	19.903	4.851	0.512
188.000	170.533	79.987	19.987	100.109	19.899	5.131	0.528
188.500	170.733	79.981	19.993	100.112	19.903	4.814	0.505
189.000	170.990	79.980	19.996	100.112	19.905	4.636	0.470
189.500	171.264	79.980	19.994	100.113	19.904	4.768	0.494
190.000	171.481	79.982	19.996	100.114	19.900	5.059	0.510
190.500	171.763	79.979	19.997	100.114	19.901	5.002	0.495
191.000	172.048	79.982	19.990	100.116	19.904	4.720	0.533
191.500	172.283	79.983	19.993	100.123	19.905	4.681	0.544
192.000	172.554	79.984	19.989	100.130	19.906	4.621	0.513
192.500	172.802	79.981	19.998	100.140	19.902	4.900	0.512
193.000	173.056	79.982	19.991	100.147	19.904	4.718	0.510
193.500	173.293	79.984	19.989	100.144	19.905	4.640	0.497
194.000	173.560	79.981	19.995	100.139	19.905	4.645	0.498
194.500	173.799	79.987	19.991	100.131	19.903	4.805	0.505
195.000	174.045	79.983	19.998	100.122	19.904	4.738	0.496
195.500	174.299	79.982	19.990	100.113	19.905	4.695	0.493
196.000	174.530	79.981	19.992	100.114	19.903	4.831	0.492
196.500	174.808	79.982	19.989	100.117	19.905	4.642	0.497
197.000	175.048	79.988	19.994	100.123	19.900	5.028	0.514
197.500	175.330	79.986	19.992	100.124	19.904	4.781	0.520
198.000	175.539	79.988	19.993	100.125	19.905	4.647	0.506
198.500	175.784	79.986	19.993	100.121	19.907	4.523	0.473
199.000	176.070	79.984	19.995	100.118	19.904	4.762	0.492
199.500	176.272	79.988	19.994	100.111	19.906	4.601	0.509
200.000	176.554	79.988	19.993	100.110	19.907	4.506	0.486
200.500	176.772	79.983	19.992	100.110	19.903	4.807	0.492
201.000	177.060	79.983	19.991	100.111	19.910	4.302	0.503
201.500	177.307	79.983	19.992	100.111	19.908	4.425	0.521
202.000	177.573	79.979	19.989	100.112	19.906	4.566	0.524
202.500	177.834	79.978	19.993	100.114	19.910	4.278	0.520
203.000	178.002	79.987	19.990	100.114	19.905	4.681	0.479
203.500	178.308	79.982	19.994	100.115	19.905	4.659	0.452
204.000	178.554	79.985	19.986	100.114	19.906	4.570	0.513
204.500	178.828	79.985	19.988	100.116	19.904	4.712	0.536
205.000	179.044	79.985	19.991	100.115	19.907	4.512	0.505
205.500	179.330	79.983	19.986	100.115	19.903	4.796	0.497
206.000	179.568	79.982	19.989	100.117	19.903	4.805	0.513
206.500	179.797	79.981	19.992	100.118	19.905	4.694	0.495
207.000	180.054	79.982	19.991	100.117	19.905	4.635	0.476
207.500	180.314	79.981	19.994	100.116	19.907	4.512	0.501
208.000	180.532	79.982	19.993	100.115	19.904	4.720	0.498
208.500	180.792	79.982	19.992	100.114	19.903	4.850	0.478
209.000	181.069	79.983	19.992	100.113	19.904	4.707	0.507
209.500	181.284	79.981	19.991	100.113	19.903	4.833	0.514
210.000	181.533	79.982	19.994	100.113	19.904	4.709	0.478
210.500	181.798	79.985	19.991	100.113	19.903	4.790	0.489
211.000	182.041	79.980	19.989	100.113	19.902	4.879	0.511
211.500	182.306	79.978	19.996	100.112	19.904	4.774	0.508
212.000	182.532	79.985	19.986	100.111	19.904	4.718	0.500
212.500	182.801	79.985	19.989	100.112	19.903	4.863	0.493
213.000	183.056	79.980	19.993	100.110	19.903	4.794	0.509
213.501	183.273	79.981	19.994	100.109	19.901	4.948	0.498
214.001	183.545	79.979	19.993	100.108	19.905	4.653	0.480
214.500	183.763	79.980	19.993	100.109	19.900	5.046	0.489
215.000	184.051	79.987	19.993	100.108	19.902	4.922	0.498
215.500	184.329	79.979	19.995	100.111	19.903	4.811	0.536
216.000	184.537	79.983	19.989	100.111	19.903	4.853	0.526
216.501	184.779	79.985	19.995	100.112	19.899	5.165	0.468
217.000	185.053	79.979	19.993	100.106	19.900	5.085	0.483
217.500	185.289	79.982	19.992	100.106	19.903	4.824	0.513
218.000	185.555	79.982	19.990	100.105	19.902	4.898	0.506
218.500	185.848	79.987	19.987	100.106	19.902	4.939	0.531
219.000	186.038	79.980	19.995	100.107	19.900	5.031	0.522
219.500	186.321	79.985	19.993	100.111	19.903	4.796	0.478
220.000	186.556	79.978	19.997	100.113	19.901	4.959	0.495
220.500	186.834	79.980	19.989	100.112	19.904	4.729	0.515
221.000	187.071	79.981	19.990	100.111	19.903	4.846	0.514
221.500	187.304	79.980	19.999	100.110	19.903	4.818	0.493
222.000	187.533	79.983	19.992	100.109	19.900	5.034	0.465
222.500	187.792	79.985	19.987	100.109	19.902	4.883	0.475
223.000	188.023	79.982	19.994	100.109	19.905	4.655	0.489
223.501	188.290	79.980	19.995	100.110	19.901	4.995	0.494
224.000	188.535	79.983	19.992	100.109	19.905	4.642	0.505
224.500	188.803	79.983	19.988	100.110	19.902	4.906	0.512
225.000	189.041	79.982	19.992	100.111	19.903	4.841	0.509
225.500	189.312	79.983	19.992	100.111	19.905	4.679	0.508
226.000	189.526	79.983	19.992	100.111	19.904	4.744	0.497
226.500	189.773	79.985	19.990	100.113	19.904	4.707	0.473
227.000	189.987	79.984	19.989	100.112	19.902	4.926	0.461
227.500	190.257	79.987	19.990	100.112	19.905	4.683	0.472
228.000	190.505	79.984	19.991	100.112	19.903	4.811	0.501
228.500	190.757	79.982	19.991	100.113	19.905	4.640	0.509
229.000	191.002	79.981	19.989	100.113	19.901	4.985	0.499
229.500	191.237	79.980	19.995	100.114	19.901	4.965	0.488
230.000	191.496	79.983	19.992	100.113	19.902	4.924	0.487
230.500	191.714	79.976	19.995	100.111	19.905	4.666	0.485
231.000	191.968	79.979	19.993	100.109	19.902	4.876	0.475
231.500	192.221	79.985	19.990	100.106	19.904	4.753	0.490
232.000	192.478	79.977	19.991	100.105	19.904	4.783	0.509
232.500	192.739	79.978	19.994	100.105	19.899	5.124	0.514
233.000	192.992	79.980	19.992	100.105	19.901	4.972	0.515
233.500	193.207	79.983	19.992	100.106	19.904	4.783	0.491
234.000	193.484	79.981	19.993	100.105	19.905	4.666	0.480
234.500	193.743	79.981	19.991	100.103	19.905	4.705	0.514
235.000	193.960	79.983	19.994	100.101	19.902	4.891	0.506
235.500	194.218	79.984	19.987	100.101	19.901	5.023	0.475
236.000	194.452	79.982	19.990	100.102	19.902	4.921	0.483
236.500	194.668	79.985	19.989	100.105	19.903	4.791	0.471
237.000	194.986	79.984	19.991	100.108	19.903	4.857	0.492
237.500	195.194	79.981	19.989	100.111	19.903	4.802	0.530
238.000	195.473	79.979	19.994	100.112	19.902	4.902	0.507
238.500	195.700	79.980	19.993	100.111	19.897	5.301	0.496
239.000	195.920	79.980	19.991	100.110	19.901	5.019	0.476
239.500	196.170	79.988	19.991	100.109	19.900	5.050	0.459
240.000	196.417	79.980	19.994	100.109	19.898	5.238	0.484
240.500	196.668	79.986	19.990	100.109	19.901	4.956	0.497
241.000	196.936	79.981	19.992	100.109	19.901	4.959	0.508
241.500	197.189	79.982	19.994	100.110	19.901	4.969	0.520
242.000	197.422	79.981	19.992	100.110	19.901	4.950	0.504
242.500	197.624	79.983	19.993	100.110	19.903	4.850	0.461
243.000	197.904	79.981	19.992	100.110	19.901	4.954	0.459
243.500	198.186	79.981	19.992	100.110	19.902	4.902	0.522
244.000	198.425	79.980	19.992	100.109	19.900	5.102	0.541
244.500	198.672	79.982	19.992	100.110	19.896	5.392	0.504
245.000	198.916	79.978	19.998	100.108	19.900	5.049	0.489
245.500	199.141	79.981	19.991	100.103	19.900	5.106	0.480
246.000	199.394	79.979	19.995	100.103	19.900	5.054	0.473
246.500	199.635	79.982	19.994	100.100	19.901	5.022	0.486
247.000	199.887	79.981	19.992	100.099	19.897	5.293	0.494
247.500	200.151	79.980	19.991	100.099	19.899	5.128	0.505
248.000	200.406	79.983	19.990	100.103	19.896	5.379	0.518
248.500	200.577	79.981	19.993	100.103	19.897	5.336	0.472
249.000	200.875	79.976	19.993	100.103	19.895	5.438	0.447
249.500	201.167	79.986	19.985	100.104	19.896	5.366	0.529
250.001	201.379	79.983	19.998	100.106	19.894	5.516	0.547
250.500	201.612	79.986	19.992	100.103	19.899	5.126	0.474
251.000	201.845	79.983	19.992	100.100	19.895	5.440	0.456
251.500	202.092	79.982	19.990	100.103	19.896	5.371	0.473
252.000	202.360	79.984	19.991	100.104	19.898	5.258	0.497
252.500	202.557	79.977	19.991	100.103	19.897	5.332	0.490
253.000	202.840	79.982	19.987	100.106	19.897	5.338	0.472
253.500	203.084	79.980	19.995	100.107	19.895	5.455	0.504
254.000	203.329	79.985	19.988	100.105	19.893	5.592	0.508
254.500	203.534	79.986	19.991	100.101	19.896	5.401	0.470
255.000	203.799	79.980	19.999	100.101	19.895	5.442	0.461
255.500	204.073	79.984	19.991	100.099	19.896	5.351	0.505
256.000	204.292	79.982	19.992	100.101	19.896	5.361	0.516
256.500	204.572	79.983	19.993	100.103	19.890	5.837	0.495
257.000	204.793	79.983	19.993	100.106	19.892	5.687	0.500
257.500	205.052	79.982	19.993	100.106	19.890	5.872	0.490
258.000	205.272	79.981	19.994	100.108	19.894	5.585	0.479
258.500	205.533	79.980	19.993	100.104	19.894	5.583	0.480
259.000	205.808	79.982	19.992	100.102	19.896	5.366	0.509
259.500	206.043	79.981	19.992	100.102	19.896	5.384	0.523
260.000	206.269	79.981	19.993	100.102	19.893	5.644	0.485
260.500	206.549	79.983	19.991	100.103	19.891	5.806	0.484
261.000	206.769	79.982	19.992	100.106	19.893	5.629	0.503
261.500	207.016	79.981	19.993	100.107	19.894	5.559	0.483
262.000	207.260	79.979	19.994	100.107	19.891	5.767	0.479
262.500	207.504	79.981	19.993	100.107	19.892	5.726	0.490
263.000	207.731	79.980	19.995	100.107	19.895	5.461	0.480
263.500	207.991	79.982	19.994	100.104	19.893	5.602	0.479
264.000	208.248	79.980	19.996	100.104	19.889	5.965	0.502
264.500	208.506	79.983	19.994	100.100	19.894	5.559	0.516
265.000	208.729	79.981	19.992	100.100	19.892	5.713	0.498
265.500	208.957	79.980	19.994	100.098	19.893	5.643	0.466
266.000	209.253	79.977	19.996	100.098	19.892	5.741	0.488
266.500	209.481	79.979	19.997	100.094	19.894	5.580	0.524
267.000	209.737	79.980	19.992	100.095	19.892	5.747	0.504
267.500	209.956	79.981	19.993	100.097	19.891	5.791	0.480
268.000	210.234	79.979	19.992	100.100	19.890	5.834	0.486
268.500	210.495	79.979	19.993	100.102	19.891	5.787	0.517
269.000	210.738	79.979	19.993	100.105	19.891	5.761	0.522
269.500	210.965	79.981	19.994	100.107	19.890	5.865	0.488
270.000	211.199	79.982	19.994	100.104	19.891	5.774	0.466
270.500	211.475	79.981	19.993	100.103	19.891	5.759	0.485
271.000	211.673	79.980	19.993	100.102	19.893	5.657	0.492
271.500	211.906	79.980	19.990	100.100	19.894	5.553	0.453
272.000	212.175	79.976	19.996	100.100	19.891	5.780	0.466
272.500	212.456	79.984	19.987	100.098	19.890	5.869	0.526
273.000	212.707	79.985	19.990	100.098	19.896	5.415	0.541
273.500	212.934	79.980	19.998	100.100	19.892	5.684	0.505
274.000	213.186	79.984	19.989	100.098	19.890	5.882	0.478
274.500	213.436	79.984	19.990	100.097	19.890	5.866	0.491
275.000	213.635	79.983	19.994	100.098	19.891	5.804	0.476
275.500	213.937	79.981	19.995	100.093	19.888	6.014	0.475
276.000	214.178	79.980	19.994	100.089	19.890	5.892	0.522
276.500	214.399	79.981	19.994	100.093	19.890	5.905	0.503
277.000	214.648	79.982	19.994	100.090	19.890	5.888	0.466
277.500	214.883	79.982	19.994	100.091	19.890	5.890	0.477
278.000	215.144	79.985	19.993	100.094	19.887	6.101	0.490
278.500	215.392	79.984	19.993	100.095	19.888	6.032	0.502
279.000	215.680	79.984	19.993	100.095	19.891	5.815	0.523
279.500	215.898	79.983	19.993	100.100	19.889	5.926	0.521
280.000	216.155	79.982	19.993	100.102	19.891	5.828	0.490
280.500	216.433	79.983	19.992	100.104	19.886	6.184	0.505
281.000	216.684	79.983	19.991	100.106	19.890	5.899	0.532
281.500	216.908	79.982	19.994	100.106	19.889	5.982	0.502
282.000	217.143	79.981	19.995	100.103	19.891	5.823	0.467
282.500	217.342	79.981	19.996	100.099	19.889	5.960	0.446
283.000	217.598	79.986	19.991	100.092	19.887	6.134	0.444
283.500	217.834	79.984	19.994	100.088	19.887	6.079	0.474
284.000	218.102	79.984	19.994	100.090	19.891	5.814	0.498
284.500	218.398	79.986	19.990	100.089	19.888	6.016	0.534
285.000	218.650	79.984	19.992	100.088	19.884	6.315	0.556
285.500	218.889	79.983	19.992	100.088	19.884	6.319	0.520
286.000	219.124	79.983	19.988	100.089	19.888	6.044	0.483
286.500	219.392	79.982	19.993	100.085	19.885	6.272	0.489
287.000	219.626	79.985	19.994	100.083	19.885	6.298	0.502
287.500	219.893	79.980	19.993	100.084	19.887	6.146	0.502
288.000	220.114	79.982	19.992	100.088	19.886	6.203	0.495
288.500	220.345	79.981	19.992	100.089	19.885	6.248	0.470
289.000	220.613	79.981	19.992	100.090	19.884	6.387	0.475
289.500	220.875	79.981	19.993	100.096	19.883	6.421	0.515
290.000	221.108	79.979	19.992	100.101	19.882	6.541	0.513
290.500	221.374	79.980	19.995	100.102	19.884	6.372	0.497
291.000	221.583	79.982	19.993	100.098	19.884	6.381	0.487
291.500	221.832	79.982	19.993	100.095	19.885	6.275	0.466
292.000	222.087	79.982	19.990	100.095	19.882	6.503	0.481
292.501	222.326	79.983	19.991	100.095	19.882	6.531	0.500
293.000	222.621	79.982	19.992	100.093	19.886	6.195	0.514
293.500	222.841	79.982	19.994	100.096	19.886	6.233	0.524
294.000	223.112	79.983	19.991	100.098	19.884	6.341	0.502
294.500	223.351	79.983	19.991	100.093	19.887	6.116	0.500
295.000	223.591	79.982	19.991	100.086	19.884	6.387	0.495
295.500	223.806	79.982	19.993	100.082	19.882	6.517	0.468
296.000	224.053	79.982	19.992	100.079	19.885	6.296	0.458
296.500	224.315	79.984	19.992	100.079	19.885	6.275	0.485
297.000	224.577	79.986	19.992	100.080	19.880	6.694	0.516
297.500	224.809	79.984	19.994	100.083	19.881	6.592	0.509
298.000	225.058	79.982	19.993	100.087	19.881	6.633	0.488
298.500	225.329	79.982	19.994	100.089	19.880	6.686	0.500
299.000	225.606	79.984	19.992	100.087	19.882	6.547	0.534
299.500	225.783	79.984	19.993	100.084	19.883	6.458	0.502
300.000	226.055	79.983	19.992	100.084	19.882	6.555	0.451
300.501	226.336	79.984	19.991	100.086	19.881	6.570	0.501
301.000	226.553	79.983	19.992	100.086	19.880	6.703	0.525
301.500	226.798	79.984	19.991	100.091	19.879	6.718	0.480
302.000	227.030	79.983	19.993	100.096	19.880	6.658	0.470
302.500	227.322	79.985	19.991	100.098	19.881	6.597	0.500
303.000	227.554	79.984	19.993	100.099	19.878	6.873	0.524
303.500	227.792	79.984	19.993	100.102	19.879	6.749	0.497
304.000	228.044	79.984	19.992	100.100	19.876	6.977	0.480
304.500	228.301	79.984	19.992	100.093	19.878	6.823	0.499
305.001	228.540	79.986	19.989	100.088	19.877	6.940	0.502
305.500	228.781	79.986	19.993	100.088	19.875	7.044	0.488
306.000	229.072	79.982	19.993	100.087	19.876	6.960	0.506
306.500	229.337	79.984	19.989	100.088	19.879	6.741	0.545
307.000	229.589	79.984	19.991	100.096	19.876	7.019	0.537
307.500	229.836	79.988	19.991	100.103	19.878	6.876	0.507
308.000	230.085	79.985	19.993	100.102	19.876	6.960	0.497
308.500	230.329	79.983	19.991	100.100	19.878	6.869	0.495
309.000	230.571	79.985	19.990	100.098	19.878	6.850	0.490
309.500	230.832	79.982	19.993	100.092	19.877	6.888	0.494
310.000	231.072	79.984	19.994	100.085	19.876	6.998	0.502
310.500	231.306	79.983	19.996	100.080	19.873	7.280	0.488
311.000	231.559	79.982	19.987	100.076	19.875	7.046	0.481
311.500	231.783	79.985	19.990	100.075	19.876	7.020	0.482
312.000	232.060	79.982	19.990	100.080	19.876	6.981	0.489
312.500	232.320	79.980	19.994	100.084	19.875	7.108	0.519
313.000	232.533	79.981	19.994	100.085	19.873	7.279	0.505
313.500	232.804	79.979	19.996	100.090	19.874	7.127	0.478
314.000	233.073	79.984	19.992	100.091	19.872	7.309	0.512
314.500	233.292	79.980	19.993	100.089	19.875	7.111	0.514
315.000	233.573	79.979	19.993	100.090	19.873	7.235	0.494
315.500	233.810	79.983	19.991	100.090	19.873	7.220	0.509
316.000	234.058	79.981	19.992	100.090	19.875	7.086	0.502
316.500	234.302	79.981	19.992	100.090	19.874	7.162	0.489
317.000	234.522	79.981	19.993	100.092	19.871	7.423	0.478
317.500	234.792	79.982	19.992	100.091	19.871	7.427	0.477
318.000	235.043	79.981	19.993	100.097	19.873	7.247	0.505
318.500	235.274	79.981	19.992	100.099	19.872	7.355	0.502
319.000	235.523	79.980	19.993	100.099	19.870	7.461	0.481
319.500	235.785	79.982	19.991	100.098	19.872	7.315	0.495
320.000	236.020	79.982	19.992	100.099	19.870	7.445	0.503
320.500	236.306	79.983	19.992	100.093	19.872	7.337	0.509
321.000	236.511	79.980	19.993	100.085	19.867	7.749	0.506
321.500	236.777	79.985	19.992	100.085	19.870	7.506	0.481
322.000	237.046	79.982	19.993	100.086	19.863	8.031	0.503
322.500	237.270	79.982	19.993	100.088	19.865	7.845	0.514
323.000	237.515	79.981	19.992	100.093	19.867	7.715	0.481
323.500	237.793	79.982	19.990	100.097	19.868	7.650	0.496
324.001	238.058	79.983	19.992	100.097	19.867	7.726	0.533
324.500	238.302	79.981	19.993	100.092	19.869	7.568	0.526
325.000	238.561	79.981	19.992	100.089	19.865	7.918	0.506
325.500	238.798	79.982	19.993	100.088	19.868	7.670	0.499
326.000	239.048	79.983	19.992	100.087	19.867	7.685	0.491
326.500	239.283	79.983	19.991	100.092	19.867	7.752	0.486
327.000	239.522	79.982	19.991	100.099	19.864	7.948	0.480
327.500	239.776	79.981	19.993	100.102	19.861	8.174	0.484
328.000	240.028	79.982	19.992	100.103	19.864	7.933	0.500
328.500	240.271	79.983	19.992	100.103	19.862	8.118	0.500
329.000	240.541	79.985	19.991	100.101	19.858	8.433	0.504
329.500	240.775	79.985	19.989	100.097	19.865	7.873	0.508
330.000	241.051	79.984	19.990	100.092	19.861	8.175	0.507
330.500	241.272	79.983	19.993	100.087	19.864	7.960	0.503
331.000	241.514	79.979	19.997	100.086	19.862	8.110	0.480
331.500	241.789	79.982	19.993	100.084	19.862	8.159	0.491
332.000	242.049	79.985	19.990	100.085	19.860	8.250	0.526
332.500	242.308	79.982	19.992	100.086	19.862	8.107	0.527
333.000	242.532	79.982	19.993	100.088	19.859	8.342	0.501
333.500	242.811	79.979	19.993	100.094	19.860	8.268	0.493
334.000	243.049	79.982	19.993	100.098	19.861	8.227	0.510
334.500	243.284	79.981	19.993	100.102	19.861	8.200	0.495
335.000	243.547	79.983	19.994	100.107	19.863	8.025	0.485
335.500	243.778	79.987	19.991	100.111	19.861	8.170	0.496
336.000	244.056	79.978	19.993	100.110	19.861	8.228	0.502
336.500	244.292	79.980	19.995	100.104	19.860	8.307	0.512
337.000	244.529	79.983	19.991	100.097	19.859	8.381	0.494
337.500	244.781	79.982	19.992	100.094	19.858	8.446	0.481
338.000	245.036	79.986	19.993	100.088	19.858	8.435	0.498
338.500	245.318	79.981	19.997	100.088	19.857	8.557	0.522
339.000	245.531	79.981	19.993	100.091	19.858	8.463	0.516
339.500	245.792	79.984	19.992	100.097	19.856	8.647	0.485
340.001	246.063	79.980	19.991	100.096	19.857	8.513	0.503
340.501	246.314	79.983	19.993	100.099	19.856	8.604	0.527
341.001	246.547	79.981	19.994	100.098	19.857	8.545	0.502
341.501	246.814	79.980	19.993	100.099	19.855	8.682	0.492
342.000	247.059	79.983	19.992	100.096	19.855	8.688	0.506
342.500	247.284	79.982	19.992	100.094	19.853	8.827	0.491
343.000	247.590	79.981	19.991	100.093	19.852	8.925	0.501
343.500	247.815	79.981	19.993	100.095	19.853	8.819	0.531
344.000	248.064	79.982	19.991	100.096	19.856	8.572	0.502
344.500	248.316	79.980	19.995	100.095	19.855	8.719	0.488
345.000	248.615	79.982	19.995	100.095	19.854	8.773	0.526
345.500	248.860	79.981	19.991	100.094	19.853	8.812	0.547
346.000	249.118	79.979	19.993	100.091	19.851	9.026	0.523
346.500	249.390	79.980	19.994	100.087	19.851	8.991	0.516
347.000	249.658	79.980	19.993	100.091	19.852	8.944	0.535
347.500	249.907	79.982	19.992	100.096	19.851	9.026	0.529
348.000	250.162	79.981	19.993	100.099	19.851	9.014	0.511
348.500	250.405	79.981	19.993	100.098	19.850	9.052	0.501
349.000	250.642	79.981	19.992	100.099	19.848	9.256	0.489
349.500	250.871	79.980	19.992	100.098	19.848	9.291	0.472
350.000	251.168	79.981	19.994	100.095	19.847	9.328	0.496
350.500	251.443	79.976	19.993	100.095	19.848	9.278	0.549
351.000	251.663	79.979	19.993	100.097	19.850	9.126	0.533
351.500	251.937	79.981	19.992	100.095	19.845	9.503	0.495
352.000	252.171	79.980	19.991	100.091	19.850	9.113	0.502
352.500	252.428	79.982	19.992	100.089	19.845	9.503	0.500
353.000	252.657	79.982	19.992	100.090	19.842	9.701	0.488
353.500	252.916	79.981	19.991	100.090	19.845	9.524	0.487
354.000	253.183	79.981	19.993	100.093	19.845	9.472	0.507
354.500	253.443	79.981	19.993	100.097	19.840	9.930	0.527
355.000	253.679	79.981	19.992	100.098	19.847	9.335	0.511
355.500	253.926	79.982	19.992	100.096	19.842	9.776	0.489
356.000	254.212	79.983	19.992	100.091	19.845	9.495	0.508
356.500	254.414	79.981	19.991	100.088	19.843	9.624	0.511
357.000	254.699	79.981	19.993	100.084	19.846	9.410	0.488
357.500	254.982	79.983	19.992	100.085	19.842	9.716	0.528
358.000	255.222	79.982	19.993	100.086	19.841	9.786	0.545
358.500	255.463	79.983	19.993	100.090	19.842	9.700	0.502
359.000	255.710	79.982	19.993	100.092	19.842	9.712	0.484
359.500	255.965	79.981	19.996	100.090	19.839	9.988	0.495
360.000	256.195	79.984	19.993	100.088	19.841	9.818	0.493
360.500	256.454	79.983	19.994	100.088	19.836	10.216	0.487
361.000	256.711	79.983	19.994	100.088	19.839	9.964	0.503
361.500	256.981	79.982	19.994	100.085	19.842	9.702	0.522
362.000	257.195	79.982	19.993	100.085	19.839	9.979	0.505
362.500	257.442	79.983	19.995	100.085	19.838	10.079	0.472
363.000	257.703	79.979	19.996	100.084	19.839	10.014	0.485
363.500	257.979	79.986	19.992	100.082	19.836	10.188	0.523
364.000	258.223	79.983	19.991	100.088	19.834	10.382	0.528
364.500	258.448	79.983	19.994	100.095	19.836	10.181	0.494
365.000	258.750	79.980	20.002	100.099	19.833	10.437	0.498
365.500	258.974	79.981	19.995	100.100	19.835	10.285	0.527
366.000	259.214	79.981	19.993	100.099	19.834	10.415	0.495
366.500	259.498	79.985	19.994	100.109	19.833	10.476	0.494
367.000	259.714	79.981	19.993	100.090	19.831	10.632	0.512
367.500	259.974	79.982	19.992	100.057	19.832	10.580	0.488
368.000	260.207	79.982	19.993	100.037	19.831	10.589	0.484
368.500	260.457	79.977	19.994	100.025	19.829	10.745	0.488
369.000	260.675	79.980	19.995	100.007	19.828	10.895	0.476
369.500	260.976	79.980	19.994	100.017	19.831	10.644	0.494
370.000	261.239	79.982	19.992	100.067	19.832	10.581	0.542
370.500	261.465	79.982	19.993	100.122	19.830	10.674	0.527
371.000	261.732	79.982	19.993	100.152	19.829	10.760	0.491
371.500	261.985	79.981	19.992	100.163	19.830	10.689	0.507
372.000	262.226	79.981	19.994	100.167	19.828	10.845	0.507
372.500	262.478	79.981	19.993	100.149	19.829	10.795	0.493
373.000	262.715	79.983	19.993	100.116	19.827	10.962	0.491
373.500	262.995	79.982	19.994	100.097	19.823	11.240	0.503
374.000	263.211	79.985	19.991	100.094	19.826	11.053	0.506
374.500	263.473	79.977	19.994	100.098	19.824	11.171	0.487
375.000	263.748	79.983	19.994	100.094	19.822	11.362	0.508
375.500	264.009	79.984	19.992	100.093	19.825	11.128	0.536
376.000	264.246	79.980	19.996	100.094	19.820	11.470	0.516
376.500	264.527	79.984	19.992	100.094	19.822	11.381	0.508
377.000	264.766	79.984	19.993	100.094	19.823	11.247	0.519
377.500	264.981	79.983	19.991	100.100	19.821	11.449	0.487
378.000	265.252	79.983	19.992	100.098	19.819	11.576	0.470
378.500	265.484	79.981	19.991	100.100	19.818	11.663	0.494
379.000	265.730	79.981	19.993	100.100	19.820	11.513	0.490
379.500	265.977	79.984	19.993	100.101	19.817	11.725	0.486
380.000	266.233	79.984	19.993	100.103	19.818	11.671	0.498
380.500	266.490	79.984	19.991	100.103	19.815	11.873	0.508
381.000	266.741	79.985	19.992	100.104	19.813	12.043	0.511
381.500	267.021	79.984	19.992	100.101	19.815	11.902	0.520
382.000	267.256	79.982	19.991	100.099	19.814	11.993	0.523
382.501	267.525	79.982	19.994	100.098	19.814	11.958	0.510
383.000	267.737	79.985	19.989	100.097	19.815	11.894	0.493
383.500	268.010	79.984	19.992	100.096	19.813	12.063	0.483
384.000	268.266	79.986	19.990	100.100	19.811	12.250	0.507
384.500	268.501	79.983	19.994	100.102	19.814	11.989	0.509
385.000	268.747	79.984	19.994	100.103	19.814	12.013	0.486
385.500	269.007	79.984	19.993	100.107	19.811	12.256	0.494
386.000	269.275	79.980	19.996	100.108	19.807	12.536	0.517
386.500	269.513	79.984	19.996	100.107	19.809	12.430	0.517
387.000	269.757	79.987	19.991	100.105	19.809	12.427	0.494
387.500	269.983	79.985	19.993	100.106	19.804	12.768	0.476
388.000	270.248	79.984	19.994	100.106	19.806	12.640	0.481
388.500	270.539	79.982	19.997	100.106	19.805	12.732	0.523
389.000	270.763	79.980	19.997	100.104	19.804	12.781	0.535
389.500	271.037	79.984	19.992	100.100	19.804	12.781	0.506
390.000	271.303	79.984	19.991	100.098	19.802	12.924	0.519
390.500	271.536	79.983	19.995	100.098	19.800	13.143	0.519
391.000	271.774	79.983	19.992	100.097	19.800	13.150	0.485
391.500	272.038	79.983	19.992	100.099	19.799	13.163	0.486
392.000	272.294	79.983	19.992	100.104	19.800	13.128	0.511
392.500	272.537	79.982	19.992	100.105	19.798	13.282	0.510
393.000	272.782	79.983	19.993	100.105	19.797	13.363	0.494
393.500	273.042	79.982	19.992	100.107	19.798	13.267	0.497
394.000	273.295	79.982	19.992	100.108	19.795	13.538	0.509
394.500	273.549	79.981	19.993	100.110	19.793	13.719	0.510
395.000	273.804	79.984	19.993	100.110	19.796	13.467	0.507
395.500	274.039	79.980	19.993	100.112	19.794	13.593	0.499
396.000	274.265	79.980	19.994	100.112	19.792	13.766	0.476
396.500	274.566	79.980	19.994	100.111	19.790	13.894	0.494
397.000	274.827	79.981	19.993	100.110	19.794	13.623	0.545
397.500	275.007	79.982	19.993	100.111	19.794	13.636	0.501
398.000	275.280	79.981	19.992	100.111	19.790	13.892	0.447
398.500	275.542	79.982	19.992	100.112	19.791	13.868	0.494
399.000	275.804	79.985	19.993	100.113	19.789	14.035	0.530
399.500	276.026	79.981	19.994	100.113	19.788	14.072	0.504
400.000	276.299	79.984	19.992	100.112	19.786	14.235	0.490
400.500	276.495	79.981	19.994	100.112	19.785	14.291	0.482
401.000	276.790	79.984	19.992	100.112	19.783	14.458	0.480
401.500	277.009	79.976	19.997	100.111	19.781	14.647	0.503
402.000	277.262	79.983	19.992	100.110	19.782	14.559	0.493
402.500	277.519	79.980	19.993	100.111	19.783	14.513	0.491
403.000	277.793	79.980	19.990	100.111	19.780	14.734	0.520
403.500	278.031	79.986	19.993	100.112	19.781	14.688	0.521
404.000	278.288	79.983	19.991	100.111	19.781	14.684	0.503
404.500	278.534	79.983	19.992	100.113	19.780	14.753	0.499
405.000	278.787	79.985	19.990	100.113	19.775	15.133	0.501
405.500	279.027	79.977	19.991	100.115	19.776	15.021	0.496
406.000	279.303	79.982	19.992	100.114	19.775	15.136	0.505
406.500	279.550	79.983	19.992	100.114	19.774	15.186	0.519
407.000	279.801	79.983	19.991	100.113	19.774	15.233	0.510
407.500	280.052	79.984	19.992	100.114	19.770	15.554	0.500
408.000	280.292	79.983	19.991	100.114	19.770	15.573	0.497
408.500	280.525	79.981	19.990	100.114	19.770	15.528	0.482
409.000	280.803	79.983	19.992	100.115	19.769	15.627	0.493
409.500	281.045	79.982	19.991	100.115	19.765	15.960	0.516
410.000	281.278	79.982	19.993	100.114	19.765	15.970	0.497
410.500	281.520	79.981	19.993	100.114	19.766	15.872	0.475
411.000	281.807	79.984	19.988	100.114	19.762	16.200	0.502
411.500	282.060	79.981	19.993	100.114	19.764	16.022	0.535
412.000	282.277	79.980	19.994	100.115	19.763	16.124	0.505
412.500	282.536	79.986	19.986	100.115	19.758	16.493	0.473
413.000	282.794	79.980	19.992	100.117	19.756	16.649	0.496
413.500	283.034	79.980	19.994	100.116	19.760	16.376	0.507
414.000	283.314	79.981	19.995	100.115	19.758	16.524	0.509
414.500	283.535	79.981	19.993	100.114	19.754	16.858	0.511
415.000	283.779	79.984	19.991	100.114	19.756	16.637	0.483
415.500	284.037	79.980	19.992	100.113	19.753	16.897	0.483
416.000	284.291	79.978	19.992	100.116	19.753	16.942	0.507
416.500	284.542	79.988	19.987	100.116	19.751	17.097	0.509
417.000	284.790	79.982	19.994	100.118	19.749	17.236	0.502
417.500	285.031	79.981	19.991	100.118	19.749	17.249	0.493
418.000	285.249	79.981	19.992	100.117	19.745	17.571	0.474
418.500	285.510	79.982	19.993	100.114	19.745	17.582	0.469
419.000	285.781	79.980	19.990	100.114	19.744	17.632	0.505
419.500	286.008	79.981	19.991	100.113	19.742	17.810	0.515
420.000	286.289	79.984	19.988	100.113	19.745	17.548	0.503
420.500	286.519	79.975	20.002	100.115	19.740	17.917	0.509
421.000	286.782	79.981	20.000	100.115	19.740	17.922	0.502
421.500	287.028	79.984	19.991	100.112	19.737	18.173	0.501
422.000	287.309	79.982	19.992	100.112	19.735	18.383	0.518
422.500	287.514	79.982	19.990	100.112	19.735	18.368	0.506
423.000	287.737	79.979	19.993	100.111	19.733	18.523	0.457
423.500	288.030	79.984	19.993	100.112	19.732	18.620	0.472
424.000	288.259	79.982	19.993	100.113	19.730	18.760	0.519
424.501	288.473	79.983	19.992	100.117	19.730	18.734	0.482
425.000	288.719	79.982	19.992	100.118	19.728	18.911	0.452
425.500	288.982	79.982	19.993	100.118	19.722	19.402	0.485
426.000	289.221	79.982	19.992	100.117	19.723	19.294	0.505
426.500	289.489	79.981	19.993	100.117	19.721	19.478	0.504
427.000	289.738	79.981	19.993	100.114	19.719	19.611	0.512
427.500	290.013	79.981	19.992	100.117	19.718	19.697	0.520
428.000	290.274	79.979	19.992	100.119	19.715	19.968	0.530
428.500	290.511	79.982	19.992	100.119	19.719	19.680	0.517
429.000	290.764	79.981	19.993	100.122	19.711	20.273	0.494
429.500	290.982	79.983	19.993	100.125	19.712	20.180	0.481
430.000	291.242	79.983	19.989	100.124	19.709	20.467	0.475
430.500	291.514	79.983	19.993	100.126	19.706	20.706	0.505
431.000	291.779	79.979	19.995	100.129	19.707	20.578	0.535
431.500	292.013	79.981	19.993	100.131	19.707	20.619	0.518
432.000	292.261	79.980	19.993	100.134	19.703	20.966	0.490
432.500	292.481	79.981	19.995	100.132	19.701	21.057	0.475
433.000	292.718	79.984	19.992	100.130	19.697	21.386	0.463
433.500	293.008	79.982	19.993	100.128	19.700	21.169	0.493
434.000	293.213	79.980	19.993	100.124	19.697	21.388	0.511
434.500	293.499	79.982	19.993	100.117	19.695	21.551	0.493
435.000	293.744	79.984	19.994	100.114	19.697	21.447	0.511
435.500	293.991	79.983	19.992	100.116	19.695	21.593	0.511
436.000	294.247	79.982	19.993	100.123	19.690	21.992	0.497
436.500	294.478	79.983	19.991	100.126	19.692	21.810	0.495
437.000	294.749	79.982	19.992	100.129	19.688	22.121	0.495
437.500	294.970	79.986	19.990	100.134	19.686	22.304	0.497
438.000	295.226	79.983	19.994	100.137	19.684	22.469	0.484
438.500	295.474	79.983	19.994	100.133	19.682	22.629	0.490
439.000	295.741	79.984	19.991	100.132	19.680	22.800	0.509
439.500	295.982	79.984	19.992	100.137	19.682	22.662	0.512
440.000	296.229	79.984	19.992	100.140	19.680	22.814	0.498
440.500	296.425	79.983	19.993	100.141	19.676	23.093	0.466
441.001	296.722	79.983	19.994	100.145	19.674	23.252	0.468
441.500	296.977	79.983	19.988	100.147	19.668	23.734	0.522
442.000	297.183	79.983	19.993	100.148	19.669	23.653	0.506
442.500	297.452	79.983	19.993	100.145	19.670	23.597	0.468
443.000	297.719	79.985	19.991	100.143	19.666	23.888	0.506
443.500	297.932	79.985	19.993	100.143	19.664	24.092	0.508
444.000	298.181	79.984	19.993	100.142	19.664	24.068	0.471
444.500	298.425	79.983	19.992	100.141	19.660	24.411	0.478
445.000	298.681	79.983	19.992	100.141	19.662	24.253	0.497
445.500	298.937	79.987	19.994	100.142	19.656	24.743	0.506
446.000	299.197	79.983	19.991	100.140	19.654	24.870	0.514
446.500	299.433	79.982	19.994	100.141	19.654	24.912	0.506
447.000	299.729	79.982	19.990	100.141	19.653	24.997	0.514
447.500	299.936	79.983	19.993	100.144	19.652	25.043	0.517
448.000	300.213	79.980	19.996	100.145	19.649	25.260	0.494
448.500	300.438	79.985	19.992	100.148	19.650	25.234	0.493
449.000	300.741	79.982	19.993	100.148	19.649	25.270	0.515
449.500	300.954	79.982	19.993	100.148	19.643	25.739	0.522
450.000	301.206	79.982	19.992	100.147	19.644	25.717	0.490
450.500	301.437	79.982	19.992	100.147	19.636	26.304	0.474
451.000	301.699	79.983	19.995	100.148	19.636	26.357	0.488
451.500	301.931	79.983	19.993	100.148	19.636	26.336	0.494
452.000	302.190	79.983	19.994	100.148	19.635	26.393	0.493
452.500	302.456	79.983	19.994	100.149	19.634	26.495	0.508
453.000	302.666	79.983	19.993	100.148	19.630	26.853	0.500
453.500	302.971	79.983	19.993	100.148	19.630	26.834	0.496
454.000	303.190	79.983	19.995	100.150	19.628	26.979	0.520
454.500	303.443	79.984	19.993	100.149	19.622	27.435	0.498
455.000	303.677	79.983	19.994	100.149	19.625	27.259	0.479
455.500	303.927	79.980	19.994	100.149	19.623	27.407	0.486
456.000	304.202	79.981	19.994	100.149	19.620	27.662	0.505
456.500	304.431	79.983	19.994	100.151	19.620	27.645	0.514
457.000	304.669	79.983	19.993	100.152	19.617	27.906	0.485
457.500	304.956	79.981	19.994	100.155	19.617	27.906	0.496
458.000	305.183	79.982	19.992	100.159	19.612	28.252	0.520
458.500	305.442	79.984	19.993	100.162	19.610	28.423	0.500
459.000	305.702	79.981	19.994	100.160	19.607	28.663	0.502
459.500	305.936	79.982	19.995	100.159	19.605	28.844	0.506
460.000	306.207	79.983	19.991	100.158	19.605	28.810	0.499
460.501	306.462	79.981	19.994	100.156	19.603	28.994	0.516
461.000	306.692	79.984	19.994	100.156	19.601	29.198	0.506
461.500	306.934	79.983	19.992	100.161	19.596	29.560	0.478
462.000	307.209	79.983	19.993	100.164	19.595	29.619	0.495
462.500	307.467	79.983	19.994	100.168	19.594	29.710	0.525
463.000	307.751	79.985	19.991	100.170	19.590	30.039	0.538
463.500	307.962	79.984	19.993	100.169	19.590	30.083	0.518
464.000	308.208	79.984	19.992	100.169	19.585	30.409	0.476
464.500	308.435	79.983	19.993	100.171	19.586	30.361	0.465
465.000	308.721	79.986	19.992	100.170	19.585	30.473	0.493
465.500	308.991	79.985	19.991	100.169	19.580	30.888	0.534
466.000	309.230	79.986	19.990	100.170	19.580	30.890	0.532
466.500	309.489	79.985	19.990	100.169	19.570	31.690	0.504
467.000	309.733	79.984	19.992	100.166	19.573	31.415	0.501
467.500	309.987	79.984	19.992	100.165	19.572	31.458	0.501
468.000	310.238	79.985	19.992	100.168	19.566	31.959	0.501
468.500	310.492	79.986	19.992	100.170	19.568	31.827	0.505
469.000	310.770	79.985	19.992	100.174	19.563	32.188	0.519
469.500	311.018	79.984	19.992	100.179	19.562	32.297	0.529
470.000	311.292	79.983	19.992	100.184	19.560	32.442	0.523
470.500	311.544	79.984	19.991	100.186	19.557	32.676	0.524
471.000	311.822	79.984	19.993	100.187	19.553	33.046	0.528
471.500	312.051	79.986	19.991	100.188	19.551	33.191	0.519
472.000	312.316	79.983	19.991	100.186	19.550	33.262	0.501
472.500	312.569	79.984	19.991	100.185	19.547	33.529	0.506
473.000	312.787	79.982	19.991	100.178	19.545	33.697	0.494
473.500	313.077	79.981	19.992	100.176	19.544	33.786	0.490
474.000	313.319	79.982	19.992	100.175	19.540	34.084	0.520
474.500	313.548	79.984	19.991	100.177	19.540	34.102	0.501
475.000	313.778	79.982	19.991	100.178	19.536	34.391	0.465
475.500	314.084	79.981	19.992	100.184	19.537	34.323	0.497
476.000	314.287	79.981	19.993	100.187	19.534	34.596	0.522
476.500	314.573	79.982	19.991	100.189	19.531	34.772	0.499
477.000	314.803	79.982	19.992	100.189	19.528	35.043	0.503
477.500	315.068	79.981	19.992	100.186	19.529	34.939	0.506
478.000	315.316	79.983	19.991	100.187	19.527	35.135	0.504
478.500	315.560	79.980	19.993	100.187	19.523	35.413	0.503
479.000	315.822	79.982	19.993	100.186	19.521	35.568	0.499
479.500	316.091	79.982	19.991	100.185	19.520	35.657	0.518
480.000	316.326	79.981	19.992	100.188	19.516	36.030	0.517
480.500	316.552	79.981	19.991	100.188	19.511	36.446	0.482
481.000	316.794	79.981	19.993	100.188	19.509	36.605	0.465
481.500	317.039	79.981	19.992	100.188	19.507	36.720	0.477
482.000	317.349	79.980	19.993	100.190	19.505	36.896	0.521
482.500	317.552	79.980	19.992	100.189	19.507	36.739	0.534
483.000	317.818	79.981	19.992	100.188	19.500	37.263	0.491
483.500	318.072	79.981	19.992	100.187	19.500	37.289	0.494
484.000	318.296	79.980	19.992	100.188	19.497	37.535	0.499
484.501	318.563	79.984	19.990	100.189	19.493	37.827	0.484
485.000	318.809	79.983	19.992	100.190	19.494	37.801	0.502
485.500	319.069	79.981	19.992	100.192	19.491	38.027	0.510
486.000	319.316	79.983	19.993	100.193	19.489	38.178	0.507
486.500	319.550	79.982	19.992	100.192	19.485	38.546	0.494
487.000	319.805	79.983	19.993	100.191	19.482	38.720	0.485
487.500	320.034	79.981	19.992	100.189	19.479	38.965	0.486
488.000	320.309	79.982	19.992	100.188	19.477	39.130	0.494
488.500	320.558	79.981	19.992	100.189	19.476	39.239	0.514
489.000	320.814	79.981	19.992	100.190	19.475	39.337	0.515
489.500	321.101	79.982	19.992	100.191	19.474	39.437	0.524
490.000	321.320	79.982	19.992	100.194	19.471	39.665	0.525
490.500	321.589	79.983	19.992	100.194	19.470	39.711	0.497
491.000	321.858	79.983	19.992	100.193	19.464	40.215	0.512
491.500	322.143	79.982	19.992	100.191	19.463	40.316	0.546
492.000	322.378	79.982	19.992	100.192	19.461	40.477	0.537
492.500	322.628	79.983	19.992	100.191	19.457	40.787	0.502
493.000	322.834	79.982	19.992	100.192	19.458	40.701	0.471
493.500	323.094	79.983	19.992	100.191	19.457	40.803	0.461
494.000	323.338	79.982	19.992	100.192	19.455	40.895	0.485
494.500	323.589	79.983	19.992	100.193	19.451	41.280	0.500
495.000	323.840	79.982	19.991	100.193	19.451	41.213	0.498
495.500	324.115	79.983	19.991	100.198	19.447	41.599	0.514
496.000	324.358	79.982	19.992	100.198	19.446	41.622	0.522
496.500	324.568	79.983	19.992	100.197	19.444	41.812	0.485
497.000	324.857	79.983	19.992	100.194	19.443	41.934	0.476
497.500	325.122	79.983	19.992	100.192	19.440	42.138	0.526
498.000	325.376	79.983	19.992	100.187	19.437	42.415	0.536
498.500	325.607	79.982	19.992	100.187	19.434	42.585	0.502
499.000	325.866	79.983	19.992	100.188	19.434	42.620	0.488
499.500	326.135	79.981	19.992	100.194	19.432	42.818	0.509
500.000	326.413	79.982	19.992	100.200	19.432	42.814	0.537
500.500	326.625	79.981	19.991	100.207	19.430	42.929	0.518
501.000	326.873	79.982	19.992	100.216	19.427	43.161	0.475
501.500	327.153	79.983	19.991	100.224	19.425	43.374	0.494
502.000	327.376	79.983	19.993	100.223	19.421	43.651	0.516
502.500	327.623	79.982	19.993	100.220	19.420	43.792	0.487
503.000	327.869	79.982	19.992	100.216	19.419	43.819	0.482
503.500	328.136	79.981	19.991	100.211	19.413	44.311	0.502
504.000	328.407	79.982	19.992	100.205	19.415	44.140	0.525
504.500	328.652	79.982	19.993	100.201	19.415	44.192	0.527
505.000	328.906	79.982	19.992	100.198	19.410	44.584	0.507
505.500	329.156	79.981	19.993	100.195	19.410	44.577	0.501
506.000	329.415	79.981	19.991	100.194	19.408	44.729	0.507
506.500	329.674	79.982	19.992	100.193	19.404	45.066	0.513
507.000	329.933	79.982	19.992	100.198	19.405	44.988	0.518
507.500	330.186	79.980	19.993	100.199	19.402	45.221	0.515
508.000	330.408	79.981	19.992	100.201	19.400	45.383	0.493
508.500	330.679	79.982	19.993	100.205	19.400	45.370	0.484
509.000	330.908	79.981	19.993	100.210	19.397	45.568	0.497
509.500	331.208	79.982	19.992	100.210	19.393	45.929	0.514
510.000	331.445	79.983	19.993	100.212	19.390	46.154	0.533
510.500	331.690	79.982	19.993	100.213	19.388	46.369	0.510
511.000	331.949	79.982	19.993	100.211	19.389	46.284	0.493
511.500	332.217	79.980	19.993	100.212	19.386	46.459	0.515
512.000	332.464	79.983	19.992	100.212	19.384	46.623	0.521
512.500	332.727	79.980	19.993	100.211	19.380	46.989	0.513
513.001	332.953	79.982	19.995	100.210	19.378	47.106	0.500
513.500	333.241	79.982	19.991	100.209	19.379	47.036	0.501
514.000	333.520	79.982	19.993	100.206	19.380	47.008	0.541
514.500	333.766	79.981	19.993	100.200	19.381	46.923	0.546
515.000	334.028	79.983	19.994	100.201	19.377	47.235	0.517
515.500	334.250	79.982	19.992	100.206	19.373	47.526	0.496
516.000	334.487	79.982	19.993	100.208	19.372	47.592	0.471
516.500	334.751	79.982	19.993	100.211	19.370	47.782	0.480
517.000	334.995	79.983	19.992	100.218	19.366	48.070	0.505
517.500	335.273	79.981	19.992	100.221	19.366	48.087	0.515
518.000	335.530	79.983	19.993	100.222	19.365	48.203	0.528
518.500	335.779	79.983	19.993	100.219	19.366	48.146	0.521
519.000	336.015	79.982	19.993	100.219	19.362	48.402	0.496
519.500	336.261	79.983	19.993	100.217	19.359	48.669	0.483
520.000	336.504	79.983	19.993	100.213	19.359	48.711	0.485
520.500	336.788	79.984	19.994	100.211	19.357	48.811	0.508
521.000	337.022	79.983	19.992	100.213	19.356	48.889	0.523
521.500	337.321	79.982	19.993	100.214	19.351	49.289	0.526
522.000	337.552	79.984	19.993	100.213	19.354	49.052	0.531
522.500	337.762	79.981	19.992	100.215	19.351	49.360	0.485
523.000	338.059	79.983	19.992	100.217	19.346	49.703	0.474
523.500	338.294	79.981	19.993	100.219	19.346	49.732	0.520
524.000	338.542	79.983	19.992	100.220	19.346	49.752	0.508
524.500	338.761	79.981	19.993	100.224	19.345	49.825	0.475
525.000	339.025	79.984	19.992	100.223	19.340	50.245	0.475
525.500	339.280	79.984	19.991	100.218	19.341	50.138	0.501
526.000	339.528	79.982	19.993	100.217	19.340	50.245	0.511
526.500	339.786	79.985	19.993	100.216	19.337	50.465	0.505
527.000	340.020	79.982	19.993	100.214	19.336	50.506	0.499
527.501	340.283	79.984	19.992	100.217	19.335	50.597	0.495
528.000	340.559	79.984	19.993	100.223	19.333	50.791	0.518
528.500	340.820	79.984	19.992	100.224	19.331	50.959	0.538
529.000	341.073	79.984	19.993	100.225	19.331	50.967	0.526
529.500	341.310	79.983	19.993	100.227	19.332	50.881	0.502
530.001	341.559	79.984	19.993	100.227	19.324	51.489	0.488
530.500	341.812	79.982	19.992	100.228	19.323	51.576	0.494
531.000	342.071	79.983	19.992	100.228	19.320	51.854	0.507
531.500	342.295	79.982	19.992	100.228	19.321	51.711	0.498
532.000	342.542	79.983	19.993	100.229	19.320	51.852	0.477
532.500	342.768	79.983	19.992	100.229	19.319	51.939	0.472
533.000	343.086	79.983	19.991	100.228	19.319	51.931	0.508
533.500	343.315	79.983	19.992	100.228	19.314	52.320	0.545
534.000	343.568	79.983	19.993	100.228	19.314	52.300	0.515
534.500	343.789	79.982	19.993	100.226	19.309	52.679	0.478
535.000	344.047	79.983	19.992	100.225	19.310	52.641	0.476
535.500	344.316	79.981	19.993	100.225	19.308	52.757	0.503
536.000	344.574	79.982	19.992	100.226	19.305	53.002	0.527
536.500	344.791	79.982	19.994	100.224	19.303	53.226	0.501
537.000	345.060	79.982	19.993	100.226	19.302	53.313	0.481
537.500	345.327	79.981	19.992	100.227	19.302	53.263	0.511
538.000	345.528	79.982	19.993	100.227	19.303	53.233	0.502
538.500	345.825	79.982	19.993	100.227	19.300	53.462	0.483
539.000	346.065	79.981	19.993	100.229	19.297	53.677	0.518
539.500	346.334	79.982	19.993	100.229	19.296	53.737	0.523
540.000	346.578	79.982	19.993	100.229	19.294	53.951	0.511
540.500	346.844	79.981	19.993	100.230	19.292	54.050	0.511
541.000	347.085	79.982	19.994	100.229	19.290	54.241	0.508
541.501	347.329	79.981	19.993	100.229	19.289	54.365	0.496
542.000	347.594	79.982	19.993	100.229	19.288	54.434	0.497
542.500	347.816	79.982	19.993	100.230	19.283	54.853	0.498
543.000	348.100	79.981	19.993	100.230	19.285	54.629	0.497
543.500	348.321	79.982	19.993	100.230	19.279	55.128	0.505
544.000	348.604	79.981	19.992	100.232	19.281	54.950	0.504
544.500	348.885	79.981	19.993	100.232	19.277	55.261	0.534
545.000	349.082	79.983	19.993	100.232	19.278	55.185	0.521
545.500	349.346	79.983	19.993	100.233	19.273	55.636	0.470
546.000	349.625	79.982	19.993	100.236	19.272	55.677	0.502
546.501	349.878	79.982	19.993	100.237	19.273	55.612	0.537
547.000	350.125	79.984	19.993	100.240	19.270	55.855	0.516
547.500	350.398	79.983	19.993	100.241	19.264	56.365	0.510
548.000	350.611	79.982	19.992	100.241	19.262	56.486	0.503
548.500	350.881	79.985	19.991	100.237	19.263	56.399	0.484
549.000	351.112	79.983	19.992	100.238	19.259	56.784	0.492
549.500	351.351	79.984	19.992	100.239	19.257	56.909	0.486
550.000	351.629	79.983	19.992	100.239	19.256	56.975	0.494
550.500	351.881	79.983	19.993	100.242	19.255	57.108	0.523
551.000	352.172	79.983	19.992	100.244	19.249	57.550	0.536
551.500	352.402	79.984	19.993	100.243	19.251	57.427	0.532
552.000	352.626	79.983	19.992	100.242	19.249	57.599	0.488
552.500	352.921	79.983	19.992	100.247	19.246	57.814	0.487
553.000	353.176	79.982	19.993	100.249	19.246	57.829	0.535
553.500	353.444	79.983	19.992	100.249	19.242	58.134	0.536
554.000	353.722	79.982	19.991	100.252	19.239	58.352	0.534
554.500	353.933	79.982	19.992	100.256	19.235	58.712	0.518
555.000	354.182	79.984	19.992	100.256	19.232	58.934	0.475
555.500	354.445	79.981	19.991	100.256	19.231	59.005	0.486
556.000	354.684	79.982	19.991	100.257	19.231	59.039	0.507
556.500	354.937	79.982	19.992	100.259	19.226	59.397	0.497
557.000	355.160	79.981	19.992	100.258	19.224	59.575	0.484
557.500	355.456	79.981	19.991	100.258	19.220	59.896	0.497
558.000	355.715	79.982	19.991	100.255	19.217	60.116	0.537
558.500	355.950	79.981	19.992	100.256	19.217	60.111	0.525
559.000	356.243	79.980	19.991	100.257	19.214	60.418	0.511
559.500	356.460	79.982	19.992	100.259	19.212	60.536	0.519
560.000	356.717	79.982	19.991	100.260	19.207	60.952	0.492
560.500	356.991	79.982	19.992	100.263	19.205	61.131	0.503
561.000	357.237	79.983	19.993	100.261	19.202	61.336	0.526
561.500	357.445	79.982	19.992	100.261	19.201	61.431	0.487
562.000	357.753	79.980	19.992	100.260	19.199	61.598	0.485
562.500	357.978	79.983	19.992	100.260	19.196	61.817	0.524
563.000	358.246	79.982	19.992	100.261	19.193	62.103	0.513
563.500	358.478	79.982	19.992	100.264	19.192	62.184	0.497
564.000	358.725	79.981	19.992	100.265	19.189	62.442	0.489
564.500	358.995	79.981	19.991	100.266	19.184	62.795	0.498
565.000	359.261	79.983	19.991	100.271	19.183	62.897	0.526
565.500	359.520	79.982	19.993	100.278	19.180	63.117	0.531
566.000	359.757	79.982	19.992	100.281	19.176	63.439	0.510
566.500	360.025	79.981	19.992	100.283	19.174	63.667	0.501
567.000	360.292	79.983	19.992	100.283	19.171	63.845	0.520
567.500	360.546	79.983	19.993	100.278	19.168	64.110	0.528
568.000	360.781	79.982	19.992	100.271	19.168	64.124	0.505
568.500	361.045	79.982	19.993	100.269	19.164	64.433	0.494
569.000	361.271	79.982	19.992	100.267	19.161	64.664	0.495
569.500	361.523	79.982	19.992	100.273	19.158	64.951	0.484
570.000	361.781	79.982	19.991	100.275	19.158	64.932	0.494
570.500	362.028	79.984	19.991	100.276	19.151	65.522	0.507
571.000	362.283	79.981	19.992	100.276	19.150	65.570	0.503
571.500	362.525	79.982	19.992	100.279	19.146	65.904	0.499
572.000	362.745	79.982	19.992	100.277	19.144	66.068	0.480
572.500	363.010	79.983	19.992	100.282	19.138	66.517	0.474
573.000	363.268	79.982	19.992	100.289	19.138	66.520	0.504
573.500	363.546	79.982	19.992	100.291	19.134	66.801	0.529
574.000	363.742	79.982	19.992	100.294	19.132	66.988	0.505
574.500	364.036	79.983	19.992	100.297	19.128	67.310	0.482
575.000	364.296	79.982	19.993	100.297	19.127	67.400	0.522
575.500	364.567	79.981	19.994	100.298	19.121	67.887	0.543
576.000	364.849	79.981	19.994	100.301	19.117	68.268	0.542
576.500	365.086	79.982	19.992	100.303	19.113	68.587	0.536
577.000	365.303	79.982	19.992	100.303	19.112	68.679	0.486
577.500	365.555	79.981	19.994	100.303	19.108	68.983	0.461
578.000	365.825	79.983	19.992	100.302	19.102	69.483	0.495
578.500	366.070	79.982	19.992	100.302	19.101	69.515	0.519
579.000	366.313	79.982	19.992	100.301	19.099	69.649	0.502
579.500	366.586	79.983	19.991	100.301	19.093	70.144	0.502
580.000	366.827	79.983	19.992	100.301	19.092	70.220	0.514
580.500	367.089	79.981	19.992	100.302	19.089	70.533	0.508
581.000	367.330	79.983	19.992	100.303	19.087	70.681	0.503
581.500	367.613	79.981	19.992	100.304	19.083	70.955	0.513
582.000	367.875	79.982	19.991	100.304	19.080	71.248	0.534
582.501	368.102	79.983	19.992	100.303	19.078	71.367	0.517
583.000	368.383	79.982	19.993	100.302	19.070	72.010	0.499
583.500	368.668	79.982	19.991	100.303	19.070	71.995	0.537
584.000	368.891	79.982	19.992	100.298	19.065	72.452	0.536
584.500	369.161	79.982	19.991	100.267	19.058	72.975	0.500
585.000	369.439	79.983	19.992	100.247	19.057	73.044	0.521
585.500	369.670	79.983	19.992	100.238	19.054	73.295	0.529
586.000	369.906	79.981	19.992	100.237	19.056	73.174	0.488
586.500	370.173	79.982	19.992	100.250	19.050	73.637	0.485
587.000	370.422	79.982	19.992	100.321	19.046	73.987	0.509
587.500	370.658	79.982	19.993	100.359	19.047	73.909	0.501
588.000	370.950	79.981	19.991	100.370	19.043	74.175	0.507
588.500	371.182	79.979	19.992	100.372	19.040	74.441	0.526
589.000	371.443	79.982	19.991	100.366	19.039	74.527	0.508
589.500	371.689	79.982	19.993	100.327	19.036	74.764	0.500
590.000	371.911	79.981	19.992	100.311	19.034	74.884	0.488
590.500	372.253	79.980	19.992	100.310	19.034	74.937	0.516
591.000	372.444	79.981	19.992	100.309	19.032	75.088	0.549
591.500	372.720	79.980	19.992	100.310	19.029	75.305	0.500
592.000	372.958	79.981	19.992	100.309	19.028	75.432	0.490
592.500	373.252	79.982	19.992	100.309	19.023	75.778	0.523
593.000	373.502	79.981	19.992	100.309	19.024	75.717	0.538
593.500	373.773	79.981	19.991	100.309	19.024	75.723	0.532
594.000	374.005	79.982	19.991	100.308	19.022	75.860	0.512
594.500	374.264	79.982	19.992	100.309	19.021	75.961	0.497
595.001	374.547	79.983	19.992	100.308	19.021	75.981	0.517
595.500	374.794	79.982	19.992	100.305	19.018	76.163	0.536
596.000	375.026	79.982	19.992	100.305	19.018	76.220	0.504
596.501	375.317	79.983	19.992	100.303	19.016	76.339	0.501
597.000	375.509	79.980	19.991	100.303	19.017	76.288	0.503
597.500	375.775	79.982	19.993	100.303	19.017	76.235	0.471
598.000	376.074	79.983	19.992	100.306	19.017	76.259	0.511
598.500	376.282	79.983	19.992	100.303	19.015	76.378	0.536
599.000	376.516	79.982	19.992	100.302	19.017	76.279	0.475
599.500	376.803	79.981	19.992	100.301	19.019	76.119	0.482
600.000	376.983	79.983	19.993	100.299	19.017	76.209	0.494
600.500	377.271	79.983	19.992	100.296	19.020	76.015	0.468
601.000	377.531	79.983	19.992	100.297	19.017	76.210	0.508
601.500	377.799	79.982	19.993	100.298	19.017	76.220	0.538
602.000	378.049	79.983	19.992	100.291	19.022	75.845	0.523
602.500	378.292	79.984	19.993	100.285	19.022	75.801	0.506
603.000	378.529	79.981	19.993	100.280	19.027	75.456	0.486
603.500	378.804	79.983	19.993	100.275	19.025	75.570	0.496
604.000	379.057	79.983	19.992	100.270	19.028	75.371	0.520
604.500	379.299	79.982	19.992	100.269	19.031	75.067	0.511
605.000	379.544	79.983	19.992	100.268	19.032	75.033	0.491
605.500	379.834	79.981	19.991	100.268	19.037	74.633	0.512
606.000	380.095	79.983	19.992	100.267	19.036	74.654	0.543
606.500	380.322	79.981	19.992	100.267	19.040	74.384	0.519
607.000	380.580	79.984	19.991	100.265	19.043	74.089	0.487
607.500	380.831	79.983	19.992	100.259	19.048	73.725	0.497
608.000	381.085	79.983	19.992	100.254	19.055	73.128	0.507
608.500	381.315	79.982	19.992	100.253	19.058	72.883	0.495
609.000	381.603	79.984	19.992	100.251	19.060	72.759	0.501
609.500	381.849	79.982	19.993	100.246	19.067	72.133	0.526
610.000	382.084	79.983	19.992	100.245	19.071	71.833	0.508
610.500	382.330	79.983	19.992	100.243	19.078	71.265	0.481
611.000	382.583	79.982	19.992	100.236	19.082	70.948	0.490
611.501	382.865	79.982	19.991	100.229	19.086	70.643	0.517
612.000	383.103	79.984	19.992	100.226	19.093	70.037	0.527
612.500	383.337	79.983	19.991	100.222	19.100	69.524	0.496
613.000	383.625	79.982	19.993	100.221	19.104	69.152	0.497
613.500	383.897	79.983	19.992	100.219	19.108	68.800	0.541
614.000	384.154	79.982	19.992	100.214	19.120	67.898	0.545
614.500	384.385	79.982	19.992	100.209	19.127	67.329	0.508
615.000	384.615	79.983	19.992	100.204	19.135	66.634	0.474
615.500	384.870	79.982	19.992	100.199	19.142	66.080	0.473
616.000	385.131	79.981	19.993	100.191	19.150	65.420	0.500
616.500	385.385	79.981	19.992	100.191	19.156	64.932	0.516
617.000	385.620	79.982	19.992	100.187	19.166	64.113	0.502
617.500	385.873	79.983	19.993	100.185	19.173	63.605	0.488
618.000	386.105	79.982	19.992	100.183	19.179	63.132	0.486
618.500	386.408	79.983	19.993	100.180	19.190	62.206	0.510
619.000	386.628	79.982	19.991	100.178	19.200	61.429	0.529
619.500	386.881	79.982	19.992	100.175	19.207	60.870	0.498
620.000	387.140	79.983	19.992	100.168	19.214	60.253	0.492
620.500	387.400	79.984	19.992	100.161	19.224	59.436	0.515
621.000	387.654	79.982	19.993	100.155	19.232	58.827	0.517
621.500	387.931	79.983	19.993	100.149	19.248	57.494	0.523
622.000	388.194	79.983	19.993	100.146	19.255	56.975	0.535
622.500	388.444	79.983	19.993	100.145	19.265	56.195	0.527
623.000	388.649	79.984	19.992	100.144	19.270	55.792	0.484
623.500	388.940	79.982	19.993	100.139	19.285	54.577	0.475
624.000	389.188	79.982	19.993	100.134	19.293	53.933	0.517
624.500	389.423	79.984	19.992	100.128	19.304	53.058	0.510
625.000	389.673	79.984	19.992	100.122	19.313	52.277	0.484
625.500	389.971	79.983	19.993	100.115	19.325	51.365	0.517
626.000	390.217	79.984	19.992	100.111	19.333	50.667	0.546
626.500	390.432	79.985	19.992	100.105	19.345	49.681	0.503
627.000	390.678	79.982	19.993	100.102	19.355	48.942	0.462
627.500	390.955	79.983	19.993	100.098	19.367	47.918	0.492
628.000	391.187	79.983	19.992	100.093	19.377	47.145	0.516
628.500	391.469	79.985	19.993	100.092	19.389	46.154	0.511
629.000	391.687	79.984	19.992	100.089	19.399	45.367	0.507
629.500	391.982	79.984	19.992	100.085	19.408	44.658	0.507
630.000	392.261	79.982	19.994	100.084	19.421	43.615	0.543
630.500	392.498	79.984	19.994	100.081	19.432	42.706	0.544
631.000	392.739	79.984	19.993	100.076	19.441	41.983	0.497
631.500	393.024	79.983	19.993	100.074	19.452	41.087	0.502
632.000	393.267	79.984	19.993	100.070	19.464	40.155	0.527
632.500	393.534	79.983	19.994	100.067	19.473	39.403	0.519
633.000	393.781	79.983	19.994	100.062	19.485	38.469	0.513
633.500	394.029	79.983	19.993	100.063	19.494	37.697	0.504
634.000	394.294	79.983	19.993	100.062	19.503	36.986	0.503
634.500	394.545	79.981	19.993	100.062	19.514	36.123	0.514
635.000	394.809	79.981	19.992	100.062	19.523	35.365	0.515
635.500	395.078	79.981	19.991	100.063	19.534	34.517	0.524
636.000	395.371	79.982	19.992	100.059	19.544	33.661	0.548
636.500	395.594	79.982	19.993	100.056	19.554	32.885	0.539
637.000	395.814	79.979	19.992	100.055	19.564	32.072	0.479
637.500	396.106	79.981	19.993	100.049	19.573	31.349	0.477
638.000	396.320	79.981	19.993	100.049	19.584	30.462	0.509
638.500	396.596	79.981	19.992	100.052	19.587	30.258	0.499
639.000	396.867	79.981	19.993	100.049	19.597	29.461	0.518
639.500	397.096	79.982	19.992	100.043	19.607	28.631	0.523
640.000	397.353	79.980	19.992	100.043	19.611	28.344	0.493
640.500	397.598	79.980	19.992	100.038	19.620	27.620	0.494
641.000	397.846	79.982	19.993	100.032	19.630	26.779	0.498
641.500	398.133	79.983	19.992	100.031	19.639	26.064	0.514
642.000	398.373	79.981	19.993	100.032	19.647	25.441	0.531
642.500	398.632	79.980	19.992	100.032	19.655	24.732	0.513
643.000	398.884	79.981	19.992	100.032	19.660	24.376	0.505
643.500	399.145	79.980	19.993	100.031	19.669	23.682	0.512
644.000	399.430	79.981	19.991	100.031	19.673	23.359	0.529
644.500	399.660	79.981	19.992	100.030	19.681	22.694	0.530
645.000	399.905	79.981	19.993	100.031	19.687	22.193	0.495
645.500	400.174	79.982	19.992	100.031	19.693	21.686	0.494
646.000	400.381	79.981	19.993	100.031	19.699	21.196	0.495
646.500	400.645	79.981	19.993	100.030	19.705	20.737	0.474
647.000	400.905	79.980	19.992	100.031	19.712	20.169	0.498
647.500	401.173	79.982	19.993	100.031	19.719	19.649	0.526
648.000	401.453	79.983	19.992	100.031	19.725	19.131	0.538
648.500	401.682	79.981	19.992	100.031	19.730	18.768	0.528
649.000	401.913	79.981	19.992	100.032	19.735	18.300	0.484
649.500	402.175	79.982	19.992	100.032	19.739	18.036	0.477
650.000	402.429	79.983	19.992	100.032	19.743	17.715	0.505
650.500	402.681	79.981	19.992	100.033	19.748	17.251	0.511
651.000	402.922	79.984	19.992	100.037	19.755	16.740	0.499
651.500	403.182	79.981	19.992	100.038	19.759	16.391	0.497
652.000	403.444	79.981	19.993	100.038	19.761	16.270	0.511
652.500	403.692	79.982	19.991	100.038	19.764	16.021	0.516
653.000	403.939	79.981	19.992	100.036	19.770	15.548	0.502
653.500	404.153	79.982	19.992	100.033	19.771	15.405	0.478
654.000	404.394	79.982	19.993	100.032	19.775	15.102	0.459
654.500	404.675	79.982	19.992	100.031	19.779	14.824	0.489
655.000	404.902	79.981	19.992	100.032	19.787	14.119	0.515
655.500	405.199	79.982	19.993	100.032	19.786	14.258	0.516
656.000	405.453	79.982	19.992	100.032	19.787	14.178	0.537
656.500	405.681	79.981	19.992	100.032	19.791	13.866	0.516
657.000	405.892	79.981	19.991	100.033	19.795	13.545	0.461
657.500	406.191	79.982	19.992	100.033	19.793	13.697	0.474
658.000	406.437	79.981	19.992	100.033	19.798	13.246	0.527
658.500	406.681	79.981	19.992	100.033	19.799	13.196	0.518
659.000	406.971	79.981	19.992	100.032	19.802	12.979	0.512
659.500	407.199	79.983	19.992	100.032	19.802	12.910	0.526
660.000	407.424	79.981	19.992	100.032	19.803	12.836	0.486
660.500	407.718	79.982	19.991	100.032	19.809	12.368	0.486
661.000	407.946	79.981	19.991	100.032	19.809	12.381	0.520
661.500	408.188	79.982	19.992	100.032	19.812	12.145	0.496
662.000	408.452	79.981	19.992	100.033	19.811	12.210	0.488
662.500	408.697	79.979	19.991	100.033	19.813	12.052	0.507
663.000	408.970	79.981	19.992	100.033	19.812	12.125	0.514
663.500	409.201	79.981	19.992	100.034	19.812	12.169	0.511
664.000	409.499	79.981	19.992	100.035	19.816	11.794	0.517
664.500	409.715	79.980	19.993	100.034	19.815	11.880	0.522
665.000	409.965	79.981	19.993	100.035	19.816	11.787	0.490
665.500	410.204	79.981	19.992	100.035	19.820	11.518	0.477
666.000	410.497	79.981	19.992	100.034	19.821	11.436	0.510
666.500	410.728	79.982	19.992	100.035	19.820	11.484	0.528
667.000	410.998	79.981	19.992	100.035	19.823	11.258	0.512
667.500	411.257	79.980	19.991	100.034	19.823	11.295	0.515
668.000	411.518	79.981	19.992	100.034	19.825	11.059	0.525
668.500	411.715	79.982	19.992	100.035	19.823	11.247	0.489
669.000	411.975	79.981	19.992	100.034	19.824	11.165	0.458
669.500	412.250	79.980	19.994	100.034	19.825	11.134	0.497
670.000	412.501	79.983	19.992	100.034	19.826	10.989	0.530
670.500	412.736	79.982	19.992	100.035	19.828	10.824	0.505
671.000	412.990	79.980	19.994	100.035	19.830	10.697	0.487
671.500	413.232	79.981	19.993	100.034	19.829	10.783	0.493
672.000	413.484	79.981	19.992	100.034	19.829	10.805	0.495
672.500	413.717	79.982	19.992	100.033	19.831	10.638	0.490
673.000	413.987	79.980	19.992	100.033	19.833	10.471	0.494
673.500	414.225	79.982	19.992	100.033	19.830	10.686	0.505
674.000	414.456	79.979	19.992	100.035	19.829	10.774	0.488
674.500	414.735	79.981	19.992	100.034	19.829	10.807	0.490
675.000	415.002	79.983	19.991	100.034	19.833	10.434	0.528
675.500	415.241	79.981	19.993	100.034	19.834	10.362	0.525
676.000	415.488	79.982	19.992	100.033	19.832	10.503	0.496
676.500	415.729	79.983	19.992	100.033	19.833	10.460	0.487
677.000	415.962	79.983	19.992	100.034	19.834	10.345	0.481
677.500	416.222	79.982	19.992	100.035	19.837	10.107	0.483
678.000	416.491	79.983	19.992	100.036	19.837	10.165	0.511
678.500	416.711	79.983	19.992	100.035	19.839	10.007	0.509
679.000	416.969	79.983	19.993	100.034	19.838	10.079	0.484
679.500	417.274	79.982	19.992	100.031	19.838	10.046	0.521
680.000	417.505	79.984	19.992	100.030	19.838	10.079	0.549
680.500	417.764	79.983	19.991	100.030	19.838	10.014	0.513
681.000	418.016	79.983	19.992	100.029	19.838	10.018	0.500
681.500	418.257	79.983	19.993	100.029	19.839	9.947	0.502
682.000	418.451	79.984	19.992	100.031	19.840	9.908	0.464
682.500	418.730	79.983	19.992	100.031	19.839	9.931	0.454
683.000	418.988	79.984	19.992	100.030	19.839	9.996	0.505
683.500	419.212	79.983	19.993	100.030	19.837	10.150	0.510
684.000	419.502	79.985	19.992	100.030	19.839	9.955	0.498
684.500	419.764	79.984	19.991	100.029	19.841	9.847	0.533
685.000	420.013	79.984	19.992	100.029	19.842	9.716	0.531
685.500	420.286	79.984	19.992	100.028	19.840	9.914	0.517
686.000	420.490	79.984	19.992	100.028	19.843	9.660	0.499
686.500	420.789	79.984	19.992	100.028	19.844	9.576	0.490
687.000	421.001	79.984	19.992	100.028	19.842	9.695	0.507
687.500	421.247	79.984	19.992	100.028	19.844	9.587	0.484
688.000	421.492	79.983	19.991	100.029	19.842	9.732	0.474
688.500	421.789	79.983	19.992	100.029	19.845	9.463	0.517
689.000	422.042	79.985	19.992	100.030	19.844	9.535	0.546
689.500	422.287	79.985	19.993	100.030	19.844	9.608	0.524
690.000	422.471	79.983	19.992	100.030	19.845	9.511	0.464
690.500	422.787	79.983	19.992	100.030	19.843	9.637	0.465
691.000	423.033	79.984	19.992	100.031	19.844	9.578	0.531
691.500	423.299	79.983	19.993	100.031	19.844	9.567	0.537
692.000	423.522	79.984	19.992	100.030	19.842	9.690	0.500
692.500	423.807	79.982	19.993	100.031	19.845	9.450	0.498
693.000	424.060	79.982	19.993	100.031	19.849	9.172	0.523
693.500	424.279	79.983	19.993	100.031	19.844	9.539	0.505
694.000	424.588	79.982	19.992	100.030	19.842	9.753	0.500
694.500	424.844	79.983	19.992	100.031	19.849	9.205	0.547
695.000	425.069	79.984	19.993	100.029	19.845	9.478	0.523
695.500	425.337	79.983	19.993	100.027	19.850	9.109	0.486
696.000	425.594	79.983	19.992	100.027	19.847	9.317	0.509
696.500	425.838	79.982	19.992	100.027	19.845	9.475	0.513
697.001	426.109	79.981	19.993	100.026	19.845	9.491	0.508
697.500	426.303	79.982	19.992	100.028	19.843	9.688	0.490
698.000	426.542	79.983	19.993	100.030	19.854	8.744	0.449
698.500	426.821	79.983	19.993	100.029	19.844	9.574	0.476
699.000	427.073	79.983	19.993	100.029	19.852	8.947	0.525
699.500	427.335	79.982	19.993	100.030	19.841	9.773	0.522
700.000	427.623	79.983	19.993	100.029	19.854	8.772	0.532
700.500	427.847	79.983	19.993	100.029	19.848	9.240	0.531
701.000	428.117	79.983	19.992	100.029	19.843	9.617	0.503
701.500	428.349	79.984	19.992	100.030	19.855	8.711	0.498
702.000	428.649	79.985	19.993	100.029	19.846	9.387	0.517
702.500	428.907	79.983	19.992	100.026	19.848	9.214	0.545
703.000	429.131	79.986	19.993	100.026	19.855	8.698	0.520
703.500	429.391	79.984	19.992	100.025	19.847	9.309	0.483
704.000	429.725	79.986	19.992	100.024	19.845	9.483	0.539
704.500	429.843	79.984	19.992	100.025	19.859	8.343	0.524
705.000	430.223	79.985	19.992	100.027	19.853	8.863	0.475
705.500	430.396	79.985	19.992	100.024	19.855	8.672	0.526
706.000	430.631	79.985	19.992	100.022	19.854	8.744	0.480
706.500	430.910	79.985	19.993	100.021	19.851	8.978	0.460
707.000	431.151	79.984	19.992	100.021	19.857	8.531	0.517
707.500	431.404	79.985	19.992	100.022	19.852	8.908	0.507
708.000	431.737	79.986	19.992	100.025	19.856	8.624	0.540
708.500	431.951	79.985	19.992	100.028	19.853	8.811	0.567
709.000	432.193	79.985	19.992	100.029	19.853	8.813	0.502
709.500	432.381	79.985	19.992	100.029	19.857	8.537	0.443
710.000	432.681	79.985	19.992	100.030	19.854	8.750	0.459
710.500	432.922	79.986	19.992	100.031	19.855	8.685	0.514
711.000	433.202	79.985	19.993	100.031	19.852	8.904	0.531
711.500	433.465	79.984	19.992	100.031	19.861	8.239	0.533
712.000	433.933	79.984	19.993	100.031	19.858	8.451	0.637
712.500	433.917	79.983	19.993	100.031	19.854	8.789	0.591
713.000	434.345	79.984	19.992	100.030	19.859	8.373	0.432
713.500	434.419	79.984	19.992	100.031	19.857	8.514	0.457
714.000	434.972	79.985	19.993	100.031	19.857	8.527	0.564
714.500	434.703	79.982	19.993	100.031	19.856	8.607	0.455
715.000	435.300	79.982	19.992	100.030	19.856	8.624	0.306
715.500	435.503	79.982	19.993	100.029	19.856	8.568	0.564
716.000	435.409	79.982	19.993	100.029	19.859	8.334	0.455
716.500	435.649	79.982	19.993	100.029	19.857	8.538	0.128
717.000	436.476	79.982	19.993	100.029	19.858	8.455	0.607
717.500	436.424	79.980	19.992	100.029	19.861	8.163	0.921
718.000	436.456	79.981	19.994	100.030	19.858	8.442	0.377
718.500	437.069	79.981	19.994	100.030	19.861	8.219	0.313
719.000	437.425	79.981	19.994	100.028	19.860	8.252	0.807
719.500	437.669	79.981	19.994	100.028	19.858	8.416	0.785
720.000	437.802	79.981	19.993	100.028	19.863	8.078	0.488
720.500	438.026	79.981	19.993	100.028	19.862	8.148	0.367
721.000	438.336	79.982	19.994	100.028	19.861	8.239	0.446
721.500	438.426	79.982	19.994	100.029	19.860	8.295	0.467
722.000	438.887	79.981	19.993	100.029	19.862	8.100	0.476
722.500	439.175	79.980	19.994	100.030	19.864	7.968	0.650
723.000	439.310	79.980	19.993	100.030	19.866	7.803	0.586
723.500	439.628	79.980	19.994	100.030	19.864	7.968	0.438
724.000	439.813	79.981	19.994	100.030	19.866	7.838	0.478
724.500	440.244	79.980	19.994	100.032	19.866	7.797	0.560
725.000	440.345	79.979	19.993	100.031	19.865	7.853	0.574
725.500	440.690	79.980	19.994	100.031	19.869	7.560	0.490
726.000	440.858	79.980	19.993	100.031	19.865	7.874	0.479
726.500	441.165	79.981	19.993	100.031	19.865	7.881	0.493
727.000	441.501	79.980	19.992	100.031	19.864	7.974	0.559
727.500	441.572	79.979	19.993	100.031	19.867	7.707	0.525
728.000	441.940	79.980	19.993	100.032	19.865	7.900	0.424
728.500	442.112	79.981	19.994	100.032	19.867	7.718	0.490
729.000	442.436	79.980	19.993	100.032	19.868	7.642	0.518
729.500	442.634	79.981	19.994	100.033	19.867	7.685	0.509
730.000	442.936	79.981	19.993	100.033	19.870	7.495	0.511
730.500	443.223	79.981	19.992	100.032	19.869	7.591	0.545
731.000	443.456	79.981	19.993	100.031	19.869	7.569	0.554
731.500	443.656	79.981	19.994	100.031	19.869	7.582	0.476
732.000	443.994	79.981	19.993	100.031	19.867	7.751	0.485
732.500	444.254	79.981	19.992	100.031	19.869	7.586	0.568
733.000	444.450	79.982	19.992	100.032	19.866	7.790	0.527
733.500	444.780	79.982	19.993	100.032	19.867	7.751	0.492
734.000	444.991	79.982	19.992	100.033	19.864	7.957	0.534
734.500	445.282	79.981	19.993	100.034	19.866	7.766	0.521
735.000	445.522	79.981	19.991	100.034	19.866	7.774	0.516
735.500	445.736	79.981	19.992	100.033	19.867	7.727	0.492
736.000	446.047	79.981	19.992	100.030	19.866	7.798	0.489
736.500	446.301	79.982	19.993	100.030	19.870	7.488	0.545
737.000	446.554	79.981	19.992	100.029	19.868	7.616	0.536
737.500	446.826	79.982	19.992	100.028	19.866	7.794	0.516
738.000	447.085	79.981	19.993	100.027	19.871	7.430	0.528
738.500	447.349	79.982	19.992	100.026	19.868	7.651	0.527
739.000	447.615	79.982	19.992	100.024	19.868	7.606	0.527
739.500	447.907	79.983	19.992	100.023	19.869	7.590	0.544
740.000	448.086	79.982	19.992	100.023	19.869	7.560	0.515
740.500	448.374	79.980	19.992	100.025	19.864	7.939	0.469
741.000	448.657	79.980	19.992	100.028	19.870	7.458	0.518
741.500	448.893	79.980	19.991	100.030	19.870	7.484	0.545
742.000	449.213	79.982	19.992	100.031	19.867	7.753	0.538
742.500	449.400	79.982	19.992	100.031	19.869	7.526	0.532
743.000	449.682	79.983	19.992	100.030	19.870	7.482	0.488
743.500	449.970	79.982	19.993	100.030	19.869	7.536	0.520
744.000	450.183	79.982	19.992	100.030	19.869	7.571	0.536
744.500	450.419	79.982	19.993	100.028	19.872	7.339	0.475
745.000	450.689	79.982	19.993	100.027	19.872	7.326	0.477
745.500	450.978	79.982	19.993	100.028	19.869	7.597	0.533
746.000	451.236	79.980	19.992	100.025	19.869	7.580	0.553
746.500	451.496	79.981	19.992	100.026	19.872	7.315	0.532
747.000	451.710	79.981	19.994	100.027	19.874	7.146	0.496
747.501	451.967	79.981	19.992	100.028	19.870	7.441	0.472
748.001	452.244	79.981	19.992	100.028	19.874	7.128	0.503
748.500	452.513	79.981	19.992	100.030	19.875	7.053	0.540
749.000	452.745	79.982	19.992	100.029	19.874	7.187	0.523
749.500	453.012	79.981	19.993	100.030	19.875	7.087	0.499
750.000	453.229	79.980	19.992	100.030	19.874	7.146	0.491
750.500	453.541	79.980	19.993	100.030	19.873	7.211	0.507
751.000	453.803	79.981	19.992	100.029	19.874	7.164	0.552
751.500	454.031	79.981	19.992	100.030	19.877	6.895	0.532
752.000	454.301	79.982	19.993	100.030	19.876	7.005	0.494
752.500	454.555	79.982	19.992	100.030	19.872	7.321	0.511
753.000	454.776	79.981	19.994	100.031	19.873	7.247	0.500
753.500	455.081	79.981	19.992	100.031	19.877	6.922	0.501
754.000	455.306	79.982	19.991	100.031	19.878	6.833	0.528
754.500	455.553	79.983	19.993	100.030	19.876	7.032	0.501
755.000	455.849	79.981	19.993	100.030	19.876	7.002	0.508
755.500	456.045	79.982	19.992	100.030	19.874	7.117	0.517
756.000	456.305	79.981	19.992	100.030	19.877	6.913	0.474
756.500	456.559	79.982	19.992	100.030	19.876	7.006	0.485
757.000	456.831	79.983	19.992	100.029	19.875	7.047	0.520
757.500	457.118	79.982	19.993	100.029	19.877	6.880	0.542
758.000	457.355	79.982	19.993	100.028	19.878	6.816	0.541
758.500	457.624	79.982	19.992	100.027	19.877	6.887	0.515
759.000	457.872	79.982	19.993	100.025	19.877	6.881	0.512
759.500	458.119	79.983	19.992	100.026	19.876	6.966	0.506
760.000	458.386	79.984	19.992	100.026	19.879	6.786	0.504
760.500	458.678	79.984	19.992	100.027	19.877	6.940	0.536
761.000	458.950	79.984	19.993	100.029	19.876	7.029	0.562
761.500	459.179	79.983	19.993	100.031	19.881	6.556	0.532
762.000	459.431	79.984	19.992	100.031	19.880	6.691	0.491
762.500	459.696	79.984	19.993	100.030	19.879	6.738	0.499
763.000	459.949	79.983	19.993	100.028	19.879	6.756	0.517
763.500	460.220	79.983	19.992	100.021	19.878	6.842	0.521
764.000	460.451	79.984	19.992	100.016	19.881	6.608	0.513
764.500	460.708	79.985	19.992	100.012	19.879	6.723	0.496
765.000	460.963	79.984	19.993	100.011	19.879	6.740	0.500
765.500	461.246	79.985	19.992	100.013	19.881	6.623	0.525
766.000	461.486	79.983	19.992	100.015	19.882	6.550	0.530
766.500	461.738	79.985	19.992	100.015	19.883	6.468	0.507
767.000	462.007	79.984	19.992	100.015	19.882	6.522	0.506
767.500	462.262	79.984	19.992	100.013	19.879	6.780	0.523
768.000	462.506	79.984	19.992	100.008	19.883	6.426	0.512
768.500	462.751	79.985	19.992	100.010	19.884	6.370	0.494
769.001	463.007	79.984	19.992	100.014	19.885	6.276	0.495
769.500	463.285	79.984	19.991	100.018	19.885	6.279	0.517
770.000	463.512	79.984	19.992	100.021	19.888	5.993	0.519
770.500	463.782	79.983	19.991	100.026	19.885	6.296	0.501
771.000	464.042	79.984	19.992	100.028	19.888	6.028	0.514
771.500	464.276	79.983	19.992	100.027	19.885	6.299	0.512
772.000	464.534	79.982	19.992	100.025	19.887	6.075	0.493
772.500	464.799	79.983	19.992	100.024	19.884	6.338	0.507
773.000	465.048	79.982	19.993	100.023	19.887	6.121	0.519
773.500	465.274	79.983	19.992	100.021	19.885	6.268	0.495
774.000	465.542	79.983	19.992	100.023	19.889	5.987	0.485
774.500	465.782	79.983	19.991	100.024	19.883	6.450	0.501
775.000	466.058	79.983	19.993	100.022	19.891	5.802	0.512
775.500	466.349	79.983	19.993	100.023	19.885	6.273	0.541
776.000	466.571	79.982	19.993	100.025	19.886	6.156	0.540
776.500	466.845	79.982	19.993	100.024	19.888	6.045	0.505
777.000	467.092	79.983	19.994	100.025	19.889	5.925	0.508
777.500	467.333	79.982	19.992	100.028	19.892	5.674	0.505
778.000	467.606	79.981	19.992	100.026	19.888	6.016	0.501
778.500	467.865	79.983	19.993	100.025	19.889	5.966	0.523
779.000	468.130	79.982	19.992	100.025	19.889	5.951	0.528
779.500	468.383	79.983	19.993	100.023	19.889	5.936	0.521
780.000	468.610	79.984	19.993	100.022	19.890	5.869	0.498
780.500	468.894	79.983	19.992	100.023	19.888	6.056	0.495
781.000	469.133	79.982	19.993	100.023	19.891	5.750	0.517
781.500	469.396	79.982	19.993	100.024	19.891	5.752	0.513
782.000	469.683	79.984	19.993	100.026	19.891	5.798	0.526
782.500	469.915	79.983	19.993	100.028	19.892	5.704	0.535
783.000	470.197	79.983	19.992	100.029	19.889	5.960	0.517
783.500	470.460	79.984	19.993	100.031	19.891	5.774	0.530
784.000	470.723	79.984	19.992	100.031	19.890	5.858	0.536
784.500	470.984	79.981	19.992	100.030	19.893	5.639	0.525
785.000	471.251	79.983	19.994	100.029	19.891	5.780	0.526
785.500	471.500	79.984	19.993	100.030	19.891	5.813	0.522
786.000	471.731	79.983	19.993	100.030	19.892	5.676	0.498
786.500	472.011	79.983	19.991	100.029	19.892	5.719	0.495
787.000	472.235	79.983	19.993	100.028	19.892	5.674	0.508
787.500	472.497	79.985	19.993	100.025	19.892	5.695	0.495
788.000	472.785	79.984	19.992	100.023	19.896	5.422	0.518
788.501	473.010	79.982	19.993	100.020	19.894	5.550	0.532
789.000	473.313	79.985	19.994	100.019	19.898	5.256	0.521
789.500	473.574	79.984	19.993	100.018	19.895	5.473	0.546
790.000	473.848	79.986	19.993	100.021	19.893	5.657	0.549
790.500	474.105	79.983	19.993	100.023	19.896	5.399	0.533
791.000	474.346	79.983	19.992	100.025	19.893	5.633	0.514
791.500	474.597	79.984	19.994	100.025	19.897	5.345	0.495
792.000	474.880	79.985	19.993	100.023	19.893	5.605	0.513
792.500	475.129	79.983	19.992	100.023	19.897	5.330	0.533
793.000	475.361	79.984	19.993	100.023	19.897	5.267	0.506
793.500	475.619	79.982	19.992	100.021	19.898	5.247	0.486
794.000	475.865	79.984	19.992	100.021	19.900	5.059	0.497
794.500	476.114	79.983	19.992	100.024	19.896	5.366	0.499
795.000	476.409	79.983	19.992	100.022	19.900	5.067	0.519
795.500	476.641	79.982	19.993	100.022	19.900	5.065	0.535
796.000	476.889	79.981	19.992	100.025	19.900	5.033	0.503
796.500	477.132	79.982	19.992	100.026	19.898	5.223	0.485
797.000	477.427	79.982	19.993	100.022	19.897	5.303	0.514
797.500	477.699	79.982	19.992	100.019	19.897	5.282	0.553
798.000	477.919	79.981	19.992	100.014	19.899	5.119	0.530
798.500	478.200	79.980	19.992	100.013	19.899	5.152	0.497
799.000	478.387	79.980	19.992	100.011	19.895	5.470	0.485
799.500	478.712	79.982	19.992	100.017	19.897	5.278	0.490
800.000	478.933	79.982	19.993	100.022	19.899	5.156	0.529
800.500	479.207	79.981	19.992	100.025	19.898	5.191	0.521
801.000	479.455	79.981	19.992	100.025	19.898	5.208	0.509
801.500	479.692	79.979	19.993	100.026	19.899	5.184	0.503
802.000	479.962	79.981	19.993	100.026	19.895	5.485	0.496
802.500	480.227	79.980	19.992	100.027	19.895	5.503	0.521
803.000	480.504	79.982	19.994	100.029	19.898	5.234	0.538
803.500	480.769	79.982	19.993	100.031	19.897	5.318	0.542
804.000	481.030	79.981	19.993	100.032	19.900	5.074	0.534
804.500	481.261	79.982	19.994	100.030	19.902	4.902	0.509
805.000	481.491	79.981	19.993	100.028	19.895	5.440	0.476
805.500	481.751	79.982	19.993	100.026	19.903	4.818	0.475
806.000	482.032	79.981	19.993	100.024	19.900	5.041	0.516
806.500	482.284	79.982	19.993	100.021	19.904	4.720	0.537
807.000	482.560	79.981	19.993	100.023	19.902	4.885	0.530
807.500	482.853	79.982	19.993	100.023	19.901	5.012	0.548
808.000	483.065	79.982	19.994	100.023	19.901	4.987	0.537
808.500	483.301	79.980	19.993	100.021	19.902	4.913	0.477
809.000	483.602	79.982	19.994	100.023	19.902	4.937	0.492
809.500	483.822	79.981	19.993	100.023	19.902	4.930	0.529
810.000	484.113	79.981	19.994	100.024	19.902	4.911	0.516
810.500	484.349	79.981	19.994	100.025	19.901	5.000	0.519
811.000	484.576	79.980	19.993	100.026	19.904	4.772	0.495
811.500	484.841	79.980	19.994	100.027	19.904	4.731	0.477
812.000	485.098	79.981	19.994	100.024	19.907	4.531	0.507
812.500	485.341	79.981	19.994	100.021	19.904	4.774	0.511
813.000	485.618	79.980	19.993	100.018	19.904	4.724	0.510
813.500	485.884	79.982	19.995	100.018	19.908	4.451	0.531
814.000	486.146	79.980	19.994	100.018	19.906	4.562	0.536
814.500	486.370	79.981	19.994	100.018	19.905	4.683	0.507
815.000	486.648	79.981	19.994	100.021	19.905	4.621	0.494
815.501	486.896	79.980	19.993	100.023	19.909	4.356	0.514
816.000	487.131	79.982	19.993	100.024	19.906	4.606	0.504
816.500	487.393	79.981	19.993	100.020	19.905	4.658	0.490
817.000	487.665	79.982	19.992	100.019	19.906	4.615	0.516
817.500	487.917	79.982	19.992	100.016	19.905	4.645	0.529
818.000	488.228	79.982	19.992	100.012	19.905	4.637	0.543
818.500	488.439	79.982	19.993	100.011	19.905	4.642	0.542
819.000	488.720	79.983	19.993	100.015	19.904	4.784	0.507
819.500	488.980	79.982	19.993	100.018	19.909	4.346	0.517
820.000	489.234	79.982	19.992	100.017	19.907	4.463	0.527
820.500	489.496	79.982	19.992	100.016	19.907	4.519	0.515
821.000	489.720	79.984	19.993	100.015	19.904	4.739	0.502
821.500	489.964	79.983	19.993	100.014	19.907	4.501	0.477
822.000	490.283	79.980	19.992	100.011	19.907	4.529	0.515
822.500	490.515	79.983	19.992	100.009	19.909	4.371	0.557
823.000	490.763	79.982	19.992	100.011	19.908	4.404	0.516
823.500	491.025	79.982	19.992	100.013	19.907	4.492	0.495
824.000	491.268	79.982	19.992	100.010	19.905	4.644	0.508
824.501	491.536	79.982	19.992	100.014	19.905	4.677	0.508
825.000	491.803	79.983	19.992	100.023	19.907	4.475	0.523
825.500	492.071	79.982	19.991	100.006	19.906	4.605	0.535
826.000	492.320	79.982	19.992	99.975	19.905	4.654	0.526
826.500	492.588	79.981	19.993	99.959	19.911	4.165	0.517
827.000	492.810	79.982	19.992	99.945	19.904	4.778	0.504
827.500	493.071	79.982	19.992	99.935	19.907	4.493	0.486
828.000	493.364	79.981	19.992	99.984	19.908	4.432	0.519
828.500	493.586	79.981	19.992	100.032	19.909	4.356	0.535
829.000	493.885	79.981	19.992	100.055	19.908	4.438	0.518
829.500	494.139	79.983	19.993	100.070	19.906	4.559	0.537
830.000	494.412	79.982	19.993	100.075	19.908	4.419	0.540
830.500	494.631	79.982	19.993	100.046	19.907	4.510	0.509
831.000	494.900	79.982	19.993	100.024	19.911	4.211	0.490
831.500	495.171	79.983	19.993	100.015	19.907	4.481	0.514
832.000	495.418	79.981	19.992	100.011	19.910	4.245	0.529
832.500	495.668	79.980	19.992	100.008	19.910	4.282	0.507
833.000	495.947	79.980	19.992	100.005	19.909	4.349	0.513
833.500	496.199	79.982	19.994	100.007	19.912	4.095	0.530
834.000	496.472	79.980	19.992	100.012	19.909	4.303	0.528
834.500	496.719	79.980	19.992	100.015	19.912	4.102	0.523
835.000	496.935	79.981	19.992	100.016	19.913	4.017	0.491
835.500	497.187	79.981	19.992	100.015	19.911	4.156	0.465
836.000	497.446	79.981	19.992	100.011	19.912	4.079	0.489
836.500	497.741	79.981	19.993	100.005	19.915	3.853	0.533
837.000	497.938	79.981	19.992	100.003	19.913	3.994	0.523
837.500	498.243	79.981	19.993	100.006	19.915	3.875	0.497
838.000	498.468	79.982	19.993	100.012	19.914	3.973	0.516
838.500	498.734	79.982	19.992	100.017	19.913	4.033	0.511
839.000	498.981	79.982	19.993	100.022	19.913	4.014	0.502
839.500	499.254	79.982	19.993	100.023	19.911	4.139	0.517
840.000	499.504	79.982	19.992	100.017	19.913	4.031	0.522
840.500	499.749	79.983	19.994	100.010	19.916	3.792	0.509
841.001	500.041	79.983	19.992	100.010	19.913	4.000	0.516
841.500	500.264	79.983	19.992	100.011	19.913	4.052	0.526
842.000	500.534	79.982	19.992	100.010	19.911	4.217	0.505
842.500	500.734	79.983	19.992	100.009	19.914	3.914	0.482
843.000	501.022	79.982	19.992	100.010	19.914	3.959	0.479
843.500	501.264	79.984	19.993	100.008	19.912	4.111	0.509
844.000	501.508	79.983	19.993	100.007	19.914	3.970	0.508
844.500	501.778	79.985	19.992	100.004	19.911	4.148	0.501
845.000	502.047	79.984	19.992	100.003	19.912	4.127	0.526
845.500	502.312	79.983	19.992	100.003	19.910	4.235	0.536
846.000	502.584	79.983	19.993	100.005	19.914	3.977	0.536
846.500	502.821	79.983	19.992	100.008	19.913	4.044	0.523
847.000	503.057	79.982	19.993	100.014	19.914	3.899	0.491
847.500	503.340	79.982	19.992	100.018	19.916	3.801	0.496
848.000	503.558	79.984	19.993	100.021	19.917	3.727	0.510
848.500	503.826	79.983	19.991	100.022	19.914	3.922	0.493
849.000	504.088	79.984	19.992	100.018	19.911	4.156	0.508
849.500	504.344	79.982	19.992	100.018	19.916	3.797	0.524
850.000	504.595	79.982	19.993	100.015	19.918	3.639	0.512
850.500	504.881	79.983	19.992	100.012	19.918	3.637	0.522
851.000	505.099	79.984	19.992	100.010	19.916	3.767	0.521
851.500	505.354	79.983	19.993	100.012	19.915	3.880	0.488
852.000	505.603	79.983	19.992	100.011	19.914	3.912	0.488
852.500	505.852	79.983	19.992	100.013	19.915	3.860	0.501
853.000	506.120	79.983	19.992	100.013	19.917	3.701	0.508
853.500	506.366	79.984	19.992	100.015	19.918	3.645	0.516
854.000	506.609	79.982	19.993	100.016	19.918	3.576	0.501
854.500	506.880	79.984	19.992	100.014	19.916	3.764	0.501
855.000	507.137	79.983	19.992	100.016	19.915	3.823	0.521
855.500	507.353	79.981	19.992	100.022	19.915	3.866	0.501
856.000	507.619	79.982	19.992	100.023	19.920	3.463	0.478
856.500	507.844	79.983	19.993	100.021	19.916	3.814	0.486
857.000	508.084	79.983	19.992	100.021	19.919	3.569	0.477
857.500	508.369	79.984	19.992	100.021	19.918	3.651	0.495
858.000	508.632	79.982	19.991	100.014	19.913	4.015	0.537
858.500	508.876	79.984	19.991	100.010	19.913	3.996	0.528
859.000	509.151	79.981	19.991	100.009	19.914	3.929	0.513
859.500	509.384	79.981	19.993	100.008	19.916	3.738	0.513
860.000	509.648	79.983	19.993	100.010	19.914	3.925	0.502
860.500	509.918	79.982	19.992	100.017	19.913	3.994	0.515
861.000	510.147	79.983	19.992	100.019	19.913	4.009	0.517
861.500	510.437	79.982	19.991	100.024	19.917	3.733	0.509
862.000	510.647	79.983	19.992	100.027	19.913	4.006	0.510
862.500	510.899	79.982	19.992	100.023	19.915	3.837	0.481
863.000	511.144	79.983	19.992	100.018	19.917	3.727	0.479
863.500	511.416	79.982	19.992	100.016	19.920	3.441	0.507
864.000	511.667	79.984	19.992	100.012	19.917	3.716	0.521
864.500	511.938	79.983	19.992	100.008	19.920	3.452	0.523
865.000	512.142	79.983	19.992	100.011	19.915	3.829	0.498
865.500	512.434	79.983	19.992	100.016	19.915	3.875	0.485
866.000	512.666	79.983	19.993	100.019	19.919	3.545	0.510
866.500	512.909	79.983	19.991	100.017	19.918	3.628	0.500
867.000	513.189	79.984	19.993	100.015	19.917	3.686	0.499
867.500	513.454	79.986	19.993	100.010	19.919	3.530	0.534
868.000	513.666	79.984	19.992	100.006	19.918	3.641	0.511
868.500	513.965	79.984	19.992	100.007	19.920	3.467	0.494
869.000	514.213	79.984	19.992	100.009	19.919	3.532	0.529
869.500	514.464	79.985	19.993	100.015	19.918	3.608	0.523
870.000	514.695	79.984	19.993	100.019	19.918	3.595	0.490
870.500	514.939	79.985	19.993	100.016	19.919	3.556	0.478
871.000	515.209	79.985	19.993	100.013	19.916	3.779	0.494
871.500	515.442	79.984	19.992	100.008	19.916	3.770	0.509
872.000	515.689	79.984	19.993	100.001	19.917	3.669	0.492
872.500	515.941	79.983	19.992	99.998	19.918	3.630	0.490
873.000	516.261	79.984	19.993	99.999	19.917	3.686	0.536
873.500	516.523	79.984	19.993	99.999	19.916	3.756	0.577
874.000	516.725	79.983	19.993	99.998	19.915	3.836	0.523
874.500	517.025	79.983	19.992	100.001	19.917	3.667	0.483
875.000	517.258	79.983	19.994	100.005	19.916	3.758	0.518
875.500	517.519	79.983	19.993	100.004	19.920	3.465	0.513
876.000	517.784	79.983	19.993	100.002	19.920	3.476	0.510
876.500	518.017	79.983	19.993	100.008	19.918	3.613	0.512
877.000	518.308	79.983	19.993	100.013	19.918	3.598	0.511
877.500	518.570	79.982	19.994	100.014	19.918	3.639	0.538
878.000	518.843	79.983	19.992	100.017	19.919	3.550	0.544
878.500	519.096	79.982	19.993	100.017	19.915	3.862	0.531
879.000	519.317	79.982	19.993	100.016	19.917	3.729	0.500
879.500	519.592	79.981	19.993	100.014	19.918	3.653	0.485
880.000	519.838	79.982	19.994	100.010	19.919	3.552	0.508
880.500	520.063	79.982	19.993	100.008	19.918	3.595	0.496
881.000	520.373	79.982	19.993	100.008	19.918	3.615	0.503
881.500	520.630	79.982	19.993	100.004	19.919	3.530	0.552
882.000	520.870	79.981	19.993	100.003	19.913	4.039	0.532
882.500	521.105	79.982	19.993	100.005	19.918	3.588	0.486
883.000	521.377	79.982	19.993	100.004	19.916	3.766	0.491
883.500	521.634	79.981	19.993	100.011	19.920	3.484	0.518
884.000	521.892	79.983	19.993	100.018	19.919	3.573	0.522
884.500	522.176	79.983	19.993	100.018	19.918	3.647	0.529
885.000	522.378	79.982	19.993	100.018	19.919	3.543	0.514
885.500	522.687	79.980	19.993	100.022	19.919	3.543	0.498
886.000	522.905	79.983	19.993	100.020	19.917	3.730	0.519
886.500	523.185	79.980	19.993	100.020	19.918	3.634	0.513
887.000	523.433	79.983	19.994	100.021	19.917	3.695	0.514
887.500	523.687	79.981	19.993	100.023	19.917	3.660	0.515
888.000	523.946	79.981	19.993	100.019	19.918	3.630	0.507
888.500	524.201	79.981	19.994	100.016	19.917	3.668	0.513
889.000	524.455	79.982	19.993	100.012	19.919	3.510	0.511
889.500	524.703	79.982	19.993	100.008	19.919	3.543	0.506
890.000	524.958	79.982	19.993	100.004	19.915	3.855	0.503
890.500	525.220	79.981	19.993	100.006	19.918	3.619	0.510
891.001	525.472	79.981	19.994	100.008	19.918	3.647	0.515
891.500	525.743	79.982	19.993	100.013	19.916	3.794	0.519
892.000	525.997	79.980	19.993	100.014	19.914	3.902	0.524
892.500	526.269	79.981	19.994	100.013	19.913	4.052	0.525
893.000	526.483	79.981	19.994	100.010	19.914	3.970	0.506
893.500	526.757	79.981	19.994	100.005	19.916	3.814	0.487
894.000	527.044	79.982	19.993	100.004	19.917	3.708	0.524
894.500	527.260	79.982	19.994	100.002	19.916	3.812	0.532
895.000	527.510	79.981	19.993	100.004	19.915	3.831	0.485
895.500	527.775	79.981	19.993	100.007	19.915	3.836	0.491
896.000	528.063	79.980	19.994	100.008	19.916	3.784	0.534
896.500	528.289	79.982	19.993	100.007	19.918	3.595	0.533
897.000	528.573	79.981	19.992	100.011	19.916	3.812	0.512
897.500	528.838	79.982	19.994	100.010	19.915	3.861	0.529
898.000	529.095	79.983	19.993	100.009	19.917	3.707	0.536
898.500	529.341	79.983	19.993	100.008	19.913	4.043	0.513
899.001	529.581	79.982	19.994	100.002	19.916	3.812	0.494
899.501	529.832	79.982	19.994	99.998	19.918	3.651	0.488
900.000	530.129	79.981	19.993	99.996	19.917	3.723	0.519
900.500	530.381	79.983	19.993	99.995	19.918	3.638	0.549
901.000	530.634	79.981	19.994	99.997	19.916	3.769	0.527
901.500	530.908	79.982	19.993	99.998	19.916	3.803	0.516
902.000	531.170	79.981	19.994	100.000	19.917	3.699	0.531
902.500	531.415	79.981	19.993	100.000	19.913	4.018	0.521
903.000	531.674	79.982	19.993	100.000	19.919	3.554	0.506
903.500	531.904	79.981	19.992	100.002	19.921	3.408	0.497
904.000	532.162	79.981	19.992	100.007	19.919	3.495	0.489
904.500	532.422	79.983	19.992	100.010	19.917	3.666	0.503
905.000	532.663	79.981	19.993	100.010	19.917	3.727	0.509
905.500	532.919	79.981	19.992	100.010	19.919	3.495	0.499
906.000	533.191	79.980	19.992	100.013	19.916	3.784	0.513
906.500	533.419	79.981	19.994	100.013	19.918	3.589	0.514
907.000	533.712	79.982	19.992	100.009	19.916	3.805	0.511
907.500	533.957	79.983	19.993	100.009	19.919	3.504	0.530
908.000	534.223	79.982	19.993	100.009	19.917	3.702	0.525
908.500	534.467	79.982	19.992	100.003	19.916	3.740	0.510
909.000	534.750	79.980	19.993	99.998	19.915	3.864	0.518
909.500	535.016	79.983	19.992	99.999	19.919	3.558	0.538
910.000	535.322	79.981	19.992	100.002	19.918	3.617	0.560
910.500	535.562	79.982	19.993	100.001	19.916	3.799	0.559
911.000	535.787	79.982	19.992	100.003	19.920	3.463	0.506
911.500	536.003	79.981	19.993	100.007	19.919	3.512	0.453
912.000	536.305	79.982	19.992	100.010	19.918	3.599	0.479
912.500	536.561	79.981	19.991	100.011	19.921	3.335	0.538
913.000	536.795	79.981	19.993	100.013	19.921	3.409	0.524
913.500	537.078	79.981	19.993	100.011	19.917	3.675	0.503
914.000	537.302	79.982	19.993	100.006	19.919	3.559	0.512
914.500	537.612	79.980	19.992	100.002	19.923	3.192	0.521
915.000	537.873	79.982	19.993	100.000	19.919	3.552	0.553
915.500	538.071	79.979	19.993	100.003	19.921	3.359	0.515
916.000	538.333	79.980	19.992	100.003	19.919	3.571	0.460
916.500	538.643	79.982	19.992	100.003	19.921	3.346	0.516
917.000	538.889	79.981	19.993	100.006	19.918	3.619	0.563
917.500	539.153	79.981	19.993	100.011	19.921	3.355	0.533
918.000	539.418	79.982	19.993	100.008	19.920	3.424	0.520
918.500	539.669	79.983	19.992	100.012	19.921	3.381	0.522
919.000	539.888	79.982	19.993	100.017	19.918	3.612	0.493
919.500	540.177	79.983	19.993	100.014	19.920	3.489	0.489
920.000	540.437	79.982	19.993	100.009	19.921	3.402	0.529
920.500	540.700	79.983	19.991	100.009	19.919	3.508	0.536
921.000	540.958	79.983	19.991	100.006	19.919	3.526	0.522
921.500	541.215	79.982	19.991	100.003	19.921	3.408	0.518
922.000	541.448	79.982	19.993	100.001	19.915	3.831	0.503
922.500	541.724	79.982	19.992	99.999	19.916	3.764	0.500
923.001	541.987	79.982	19.991	100.001	19.919	3.554	0.524
923.501	542.238	79.983	19.992	100.003	19.917	3.736	0.526
924.000	542.458	79.982	19.992	100.007	19.920	3.419	0.492
924.500	542.737	79.983	19.992	100.014	19.921	3.387	0.485
925.000	542.998	79.981	19.993	100.016	19.920	3.437	0.519
925.500	543.273	79.983	19.992	100.014	19.923	3.248	0.538
926.000	543.543	79.984	19.993	100.012	19.922	3.293	0.541
926.500	543.752	79.982	19.993	100.008	19.924	3.094	0.512
927.000	544.017	79.983	19.992	100.006	19.920	3.434	0.476
927.500	544.273	79.983	19.991	100.008	19.922	3.304	0.498
928.000	544.551	79.983	19.992	100.010	19.921	3.359	0.528
928.500	544.809	79.983	19.993	100.009	19.925	3.086	0.535
929.000	545.054	79.984	19.992	100.010	19.925	3.073	0.519
929.500	545.326	79.984	19.992	100.008	19.922	3.302	0.509
930.000	545.529	79.984	19.993	100.007	19.922	3.298	0.495
930.500	545.800	79.983	19.992	100.005	19.923	3.231	0.475
931.000	546.067	79.982	19.992	100.006	19.923	3.239	0.506
931.500	546.350	79.982	19.993	100.006	19.919	3.564	0.544
932.000	546.598	79.983	19.992	100.005	19.922	3.315	0.540
932.500	546.848	79.983	19.993	100.002	19.922	3.296	0.515
933.000	547.096	79.982	19.993	100.003	19.920	3.458	0.498
933.500	547.380	79.984	19.993	100.002	19.920	3.460	0.515
934.000	547.619	79.982	19.992	99.999	19.919	3.567	0.528
934.500	547.890	79.983	19.992	100.000	19.923	3.209	0.516
935.000	548.137	79.982	19.991	99.999	19.921	3.367	0.514
935.500	548.397	79.982	19.993	99.997	19.916	3.788	0.513
936.000	548.672	79.983	19.992	99.998	19.922	3.261	0.521
936.500	548.939	79.982	19.993	99.999	19.922	3.328	0.539
937.000	549.184	79.983	19.992	99.997	19.923	3.207	0.527
937.500	549.440	79.983	19.994	99.996	19.920	3.450	0.506
938.000	549.685	79.984	19.992	99.999	19.916	3.753	0.501
938.500	549.923	79.982	19.992	99.999	19.919	3.554	0.492
939.000	550.189	79.984	19.992	99.999	19.918	3.576	0.494
939.500	550.459	79.984	19.993	99.999	19.919	3.513	0.520
940.000	550.727	79.984	19.992	99.999	19.916	3.790	0.537
940.500	550.988	79.984	19.992	99.996	19.916	3.809	0.533
941.000	551.244	79.982	19.993	99.994	19.920	3.428	0.523
941.500	551.516	79.983	19.991	99.994	19.920	3.480	0.523
942.000	551.776	79.983	19.993	99.994	19.920	3.493	0.530
942.500	552.018	79.984	19.992	99.994	19.918	3.623	0.517
943.000	552.261	79.984	19.991	99.994	19.921	3.378	0.494
943.500	552.541	79.984	19.991	99.995	19.919	3.534	0.504
944.000	552.791	79.983	19.991	99.996	19.920	3.415	0.526
944.500	553.051	79.983	19.992	99.997	19.924	3.157	0.519
945.000	553.333	79.984	19.991	99.998	19.923	3.252	0.526
945.500	553.568	79.984	19.991	100.003	19.920	3.415	0.530
946.000	553.823	79.983	19.992	100.004	19.917	3.734	0.504
946.500	554.090	79.985	19.992	100.002	19.916	3.740	0.506
947.000	554.353	79.984	19.991	100.002	19.920	3.467	0.526
947.500	554.595	79.985	19.991	100.002	19.920	3.450	0.518
948.000	554.885	79.983	19.991	100.002	19.914	3.902	0.518
948.500	555.141	79.987	19.992	100.002	19.920	3.467	0.539
949.000	555.401	79.984	19.992	100.005	19.920	3.430	0.531
949.500	555.621	79.984	19.992	100.009	19.922	3.272	0.498
950.000	555.876	79.984	19.992	100.009	19.921	3.389	0.477
950.500	556.153	79.983	19.992	100.007	19.923	3.239	0.503
951.000	556.449	79.985	19.993	100.006	19.925	3.081	0.553
951.500	556.695	79.982	19.992	100.003	19.918	3.601	0.558
952.000	556.921	79.984	19.992	99.997	19.923	3.218	0.507
952.500	557.210	79.985	19.992	99.994	19.927	2.915	0.493
953.000	557.437	79.983	19.993	99.996	19.921	3.365	0.515
953.501	557.699	79.984	19.992	99.998	19.925	3.084	0.503
954.000	557.918	79.983	19.993	99.998	19.922	3.255	0.485
954.500	558.219	79.983	19.992	100.002	19.923	3.242	0.500
955.000	558.470	79.984	19.993	100.004	19.919	3.525	0.536
955.500	558.751	79.983	19.993	100.001	19.922	3.280	0.542
956.000	558.992	79.983	19.992	100.001	19.922	3.291	0.527
956.500	559.273	79.983	19.993	100.005	19.924	3.150	0.522
957.000	559.515	79.982	19.993	100.004	19.921	3.345	0.523
957.500	559.778	79.983	19.993	100.007	19.921	3.344	0.514
958.000	560.058	79.983	19.993	100.007	19.922	3.268	0.523
958.500	560.320	79.982	19.994	100.003	19.923	3.222	0.543
959.000	560.571	79.982	19.994	99.998	19.925	3.077	0.528
959.500	560.791	79.982	19.994	99.996	19.923	3.185	0.492
960.000	561.027	79.981	19.993	99.995	19.923	3.209	0.464
960.500	561.325	79.980	19.993	100.002	19.926	3.001	0.495
961.000	561.559	79.981	19.993	100.003	19.924	3.116	0.533
961.500	561.853	79.981	19.993	100.003	19.927	2.893	0.530
962.000	562.092	79.981	19.993	100.002	19.926	2.966	0.530
962.500	562.349	79.982	19.994	100.001	19.927	2.910	0.514
963.000	562.641	79.982	19.993	100.000	19.925	3.060	0.523
963.500	562.904	79.981	19.994	100.007	19.924	3.149	0.552
964.000	563.108	79.981	19.994	100.011	19.927	2.893	0.511
964.500	563.412	79.984	19.993	100.013	19.921	3.398	0.488
965.000	563.667	79.982	19.993	100.013	19.931	2.568	0.533
965.500	563.898	79.982	19.992	100.008	19.924	3.121	0.522
966.000	564.151	79.982	19.992	100.001	19.926	2.975	0.485
966.500	564.407	79.982	19.994	99.997	19.923	3.185	0.497
967.000	564.702	79.981	19.993	99.997	19.921	3.341	0.530
967.500	564.930	79.981	19.993	99.995	19.922	3.265	0.537
968.000	565.181	79.981	19.992	99.998	19.925	3.057	0.501
968.500	565.445	79.983	19.993	100.003	19.928	2.799	0.497
969.000	565.713	79.983	19.992	100.003	19.927	2.901	0.524
969.500	565.987	79.981	19.992	100.002	19.926	2.990	0.537
970.000	566.237	79.982	19.993	100.005	19.927	2.867	0.533
970.500	566.473	79.982	19.992	100.006	19.926	2.936	0.505
971.000	566.729	79.981	19.992	100.003	19.923	3.174	0.490
971.500	566.986	79.983	19.992	100.005	19.924	3.109	0.502
972.001	567.227	79.983	19.992	100.006	19.925	3.055	0.505
972.500	567.519	79.980	19.993	100.003	19.924	3.100	0.516
973.000	567.772	79.982	19.992	100.000	19.924	3.142	0.539
973.500	568.048	79.982	19.993	99.999	19.923	3.211	0.537
974.000	568.310	79.982	19.992	100.000	19.926	2.992	0.533
974.500	568.543	79.982	19.992	100.005	19.924	3.116	0.517
975.000	568.827	79.982	19.993	100.012	19.925	3.066	0.506
975.500	569.082	79.982	19.993	100.018	19.924	3.172	0.528
976.000	569.325	79.981	19.994	100.018	19.925	3.060	0.519
976.500	569.578	79.982	19.994	100.015	19.927	2.875	0.497
977.000	569.855	79.981	19.993	100.010	19.926	2.938	0.513
977.500	570.119	79.982	19.993	100.004	19.923	3.218	0.535
978.000	570.349	79.981	19.994	99.998	19.925	3.064	0.518
978.500	570.610	79.981	19.992	99.995	19.921	3.391	0.492
979.000	570.858	79.981	19.994	99.994	19.921	3.389	0.500
979.500	571.124	79.981	19.993	99.995	19.926	2.966	0.511
980.000	571.381	79.981	19.993	99.995	19.929	2.765	0.519
980.500	571.679	79.982	19.993	99.993	19.927	2.904	0.539
981.000	571.912	79.980	19.992	99.993	19.925	3.090	0.543
981.500	572.163	79.982	19.993	99.993	19.927	2.856	0.507
982.000	572.407	79.982	19.994	99.992	19.926	2.953	0.489
982.500	572.681	79.983	19.993	99.992	19.924	3.105	0.507
983.000	572.928	79.982	19.993	99.992	19.927	2.899	0.520
983.500	573.206	79.980	19.993	99.992	19.926	2.999	0.523
984.000	573.462	79.982	19.993	99.993	19.923	3.183	0.529
984.500	573.705	79.981	19.993	99.997	19.931	2.585	0.516
985.000	573.980	79.981	19.993	99.999	19.925	3.046	0.508
985.500	574.253	79.980	19.993	100.002	19.927	2.912	0.533
986.000	574.527	79.981	19.993	100.005	19.927	2.904	0.548
986.500	574.789	79.981	19.993	100.006	19.925	3.092	0.541
987.000	575.017	79.981	19.994	100.005	19.928	2.841	0.513
987.500	575.253	79.980	19.994	100.003	19.929	2.743	0.477
988.000	575.556	79.980	19.994	100.000	19.925	3.014	0.501
988.500	575.826	79.980	19.993	99.998	19.929	2.741	0.556
989.000	576.063	79.980	19.994	99.996	19.927	2.925	0.540
989.500	576.324	79.981	19.994	99.994	19.927	2.858	0.503
990.000	576.563	79.979	19.993	99.997	19.926	2.966	0.499
990.500	576.811	79.981	19.994	99.998	19.927	2.914	0.493
991.000	577.088	79.981	19.994	99.999	19.924	3.094	0.506
991.500	577.338	79.981	19.994	100.000	19.926	2.962	0.526
992.000	577.554	79.981	19.993	100.000	19.932	2.498	0.496
992.500	577.871	79.981	19.993	99.999	19.928	2.819	0.500
993.000	578.106	79.982	19.994	100.001	19.927	2.897	0.543
993.500	578.370	79.981	19.993	100.001	19.928	2.815	0.526
994.000	578.620	79.980	19.993	100.000	19.927	2.901	0.507
994.500	578.849	79.982	19.993	99.999	19.926	2.936	0.496
995.000	579.141	79.982	19.993	99.997	19.927	2.862	0.500
995.501	579.381	79.981	19.994	99.994	19.929	2.737	0.527
996.000	579.632	79.981	19.992	99.994	19.925	3.070	0.512
996.500	579.886	79.982	19.993	99.998	19.926	2.955	0.498
997.000	580.140	79.982	19.992	100.004	19.926	2.949	0.506
997.500	580.379	79.982	19.993	100.004	19.927	2.927	0.501
998.000	580.673	79.981	19.992	100.004	19.926	2.990	0.513
998.500	580.888	79.984	19.994	100.003	19.928	2.797	0.521
999.000	581.169	79.983	19.992	99.999	19.931	2.598	0.503
999.500	581.415	79.983	19.992	99.993	19.926	2.949	0.511
1000.000	581.682	79.982	19.992	99.996	19.927	2.890	0.520
1000.500	581.924	79.982	19.992	99.997	19.928	2.836	0.511
1001.000	582.158	79.983	19.993	100.000	19.926	2.936	0.492
1001.500	582.421	79.982	19.993	99.999	19.928	2.823	0.486
1002.000	582.685	79.984	19.994	100.000	19.925	3.055	0.512
1002.500	582.952	79.982	19.992	99.999	19.926	2.955	0.529
1003.000	583.197	79.984	19.992	99.998	19.925	3.033	0.522
1003.500	583.453	79.984	19.993	99.996	19.925	3.074	0.506
1004.000	583.708	79.985	19.993	99.996	19.927	2.860	0.506
1004.500	583.953	79.983	19.992	99.994	19.927	2.921	0.506
1005.000	584.189	79.983	19.992	99.993	19.930	2.644	0.491
1005.500	584.433	79.984	19.991	99.994	19.927	2.921	0.481
1006.000	584.719	79.984	19.994	99.993	19.926	2.995	0.505
1006.500	584.988	79.982	19.993	99.993	19.926	3.003	0.542
1007.000	585.210	79.983	19.991	99.993	19.927	2.897	0.523
1007.500	585.477	79.984	19.992	99.993	19.926	2.968	0.490
1008.000	585.760	79.983	19.992	99.992	19.927	2.899	0.520
1008.500	585.981	79.982	19.993	99.992	19.926	2.994	0.528
1009.000	586.238	79.983	19.992	99.996	19.927	2.910	0.491
1009.500	586.510	79.982	19.993	99.998	19.931	2.594	0.503
1010.000	586.756	79.983	19.991	99.997	19.927	2.876	0.524
1010.501	587.007	79.983	19.992	99.996	19.928	2.850	0.508
1011.000	587.259	79.982	19.992	99.998	19.926	2.960	0.500
1011.500	587.504	79.982	19.993	99.993	19.928	2.843	0.500
1012.000	587.750	79.982	19.993	99.993	19.927	2.895	0.494
1012.500	588.025	79.983	19.992	99.993	19.928	2.845	0.506
1013.000	588.277	79.982	19.993	99.994	19.926	2.973	0.524
1013.500	588.484	79.981	19.992	99.992	19.927	2.925	0.493
1014.000	588.769	79.982	19.993	99.992	19.928	2.827	0.475
1014.500	589.030	79.983	19.993	99.991	19.924	3.148	0.519
1015.000	589.290	79.982	19.993	99.994	19.929	2.734	0.534
1015.500	589.542	79.981	19.992	99.997	19.929	2.711	0.517
1016.000	589.803	79.983	19.993	100.002	19.927	2.877	0.512
1016.500	590.069	79.982	19.993	100.002	19.924	3.146	0.520
1017.000	590.295	79.981	19.992	100.002	19.934	2.338	0.510
1017.500	590.551	79.982	19.992	99.999	19.926	2.977	0.487
1018.000	590.824	79.981	19.993	99.996	19.926	2.979	0.505
1018.500	591.064	79.982	19.992	99.992	19.929	2.769	0.521
1019.000	591.368	79.983	19.992	99.994	19.928	2.849	0.528
1019.500	591.620	79.984	19.993	99.998	19.926	2.969	0.550
1020.000	591.838	79.983	19.992	100.003	19.924	3.144	0.513
1020.500	592.079	79.984	19.992	100.009	19.925	3.036	0.465
1021.000	592.367	79.983	19.992	100.011	19.925	3.025	0.494
1021.500	592.608	79.984	19.992	100.010	19.923	3.244	0.529
1022.000	592.835	79.983	19.992	100.005	19.932	2.524	0.498
1022.500	593.116	79.982	19.992	100.000	19.928	2.828	0.488
1023.000	593.386	79.983	19.992	99.994	19.925	3.025	0.530
1023.500	593.662	79.984	19.993	99.993	19.924	3.111	0.548
1024.000	593.934	79.982	19.992	99.991	19.926	2.958	0.547
1024.500	594.173	79.982	19.992	99.991	19.926	2.936	0.529
1025.000	594.428	79.984	19.992	99.989	19.926	2.960	0.503
1025.500	594.660	79.984	19.992	99.992	19.924	3.111	0.490
1026.000	594.946	79.984	19.992	99.993	19.928	2.830	0.502
1026.500	595.207	79.983	19.993	99.994	19.926	2.945	0.532
1027.000	595.444	79.984	19.994	99.996	19.927	2.932	0.523
1027.500	595.696	79.984	19.992	99.996	19.928	2.799	0.494
1028.000	595.949	79.985	19.993	99.994	19.930	2.676	0.497
1028.500	596.204	79.984	19.992	99.993	19.926	2.958	0.506
1029.000	596.459	79.986	19.991	99.993	19.928	2.778	0.509
1029.500	596.723	79.986	19.991	99.992	19.928	2.797	0.514
1030.000	596.938	79.987	19.992	99.998	19.929	2.726	0.499
1030.500	597.224	79.984	19.992	100.000	19.928	2.778	0.490
1031.000	597.472	79.985	19.992	100.001	19.928	2.819	0.517
1031.500	597.763	79.983	19.991	100.000	19.925	3.070	0.536
1032.000	597.984	79.984	19.991	99.999	19.926	2.981	0.526
1032.500	598.209	79.985	19.992	99.994	19.924	3.098	0.479
1033.001	598.514	79.985	19.991	99.996	19.930	2.685	0.487
1033.501	598.746	79.984	19.991	99.996	19.927	2.880	0.533
1034.000	599.000	79.983	19.991	99.996	19.925	3.053	0.512
1034.500	599.236	79.983	19.992	99.996	19.928	2.795	0.488
1035.001	599.481	79.984	19.992	99.996	19.923	3.187	0.485
1035.501	599.728	79.984	19.991	99.993	19.925	3.055	0.486
1036.000	600.034	79.983	19.993	99.994	19.927	2.873	0.523
1036.500	600.257	79.984	19.993	99.995	19.926	2.967	0.541
1037.000	600.537	79.982	19.993	99.995	19.926	2.934	0.516
1037.500	600.789	79.981	19.992	99.996	19.926	2.958	0.517
1038.000	601.064	79.982	19.992	99.996	19.923	3.187	0.530
1038.500	601.307	79.982	19.992	99.996	19.927	2.877	0.522
1039.000	601.576	79.981	19.991	100.001	19.926	2.960	0.515
1039.500	601.771	79.981	19.992	100.005	19.928	2.786	0.488
1040.000	602.044	79.984	19.994	100.005	19.928	2.795	0.466
1040.500	602.323	79.982	19.993	100.004	19.927	2.880	0.510
1041.000	602.595	79.981	19.992	100.001	19.928	2.806	0.551
1041.500	602.849	79.983	19.993	99.996	19.931	2.533	0.539
1042.000	603.132	79.982	19.993	99.993	19.927	2.856	0.532
1042.501	603.309	79.982	19.993	99.994	19.924	3.107	0.499
1043.001	603.598	79.983	19.993	99.995	19.928	2.825	0.463
1043.500	603.819	79.981	19.993	99.996	19.933	2.442	0.488
1044.000	604.111	79.981	19.994	99.996	19.928	2.847	0.511
1044.500	604.367	79.982	19.994	99.996	19.925	3.025	0.531
1045.001	604.595	79.980	19.993	99.995	19.929	2.700	0.516
1045.501	604.867	79.981	19.992	99.994	19.927	2.903	0.492
1046.000	605.152	79.983	19.993	99.995	19.925	3.079	0.528
1046.500	605.365	79.982	19.993	99.999	19.927	2.860	0.527
1047.000	605.652	79.982	19.993	100.004	19.929	2.698	0.499
1047.500	605.861	79.981	19.993	100.006	19.926	2.984	0.499
1048.000	606.158	79.982	19.994	100.007	19.928	2.834	0.501
1048.500	606.388	79.981	19.993	100.006	19.929	2.736	0.516
1049.000	606.659	79.981	19.993	100.001	19.931	2.576	0.514
1049.500	606.892	79.981	19.993	99.996	19.932	2.487	0.502
1050.001	607.127	79.982	19.993	99.994	19.931	2.596	0.486
1050.501	607.418	79.982	19.993	99.994	19.932	2.459	0.497
1051.000	607.658	79.981	19.994	99.994	19.929	2.743	0.529
1051.500	607.913	79.981	19.992	99.996	19.928	2.847	0.513
1052.000	608.156	79.982	19.992	99.997	19.932	2.463	0.496
1052.500	608.430	79.981	19.993	99.996	19.930	2.650	0.507
1053.000	608.704	79.982	19.993	99.996	19.932	2.479	0.532
1053.501	608.941	79.981	19.992	99.996	19.931	2.574	0.530
1054.001	609.181	79.980	19.993	99.994	19.925	3.042	0.494
1054.500	609.448	79.981	19.992	99.994	19.929	2.739	0.492
1055.000	609.710	79.981	19.994	99.995	19.927	2.875	0.518
1055.500	609.983	79.981	19.993	99.995	19.930	2.669	0.532
1056.000	610.226	79.981	19.992	99.995	19.933	2.409	0.525
1056.500	610.473	79.983	19.993	99.994	19.928	2.776	0.503
1057.000	610.770	79.983	19.992	99.994	19.932	2.492	0.517
1057.500	610.983	79.984	19.993	99.993	19.929	2.726	0.527
1058.000	611.233	79.983	19.994	99.993	19.930	2.630	0.487
1058.500	611.462	79.981	19.992	99.993	19.930	2.654	0.471
1059.000	611.756	79.982	19.993	99.993	19.931	2.539	0.501
1059.500	611.980	79.982	19.994	99.992	19.931	2.552	0.521
1060.000	612.253	79.981	19.994	99.992	19.933	2.411	0.507
1060.500	612.488	79.982	19.993	99.991	19.937	2.110	0.503
1061.000	612.759	79.982	19.993	99.990	19.932	2.489	0.507
1061.500	613.025	79.982	19.994	99.991	19.930	2.613	0.522
1062.000	613.281	79.983	19.993	99.990	19.933	2.398	0.529
1062.500	613.524	79.981	19.994	99.990	19.931	2.591	0.510
1063.000	613.783	79.983	19.994	99.990	19.927	2.925	0.500
1063.500	614.047	79.983	19.995	99.990	19.929	2.713	0.513
1064.000	614.295	79.982	19.993	99.990	19.934	2.329	0.518
1064.500	614.555	79.981	19.993	99.990	19.929	2.704	0.510
1065.000	614.801	79.981	19.994	99.992	19.928	2.782	0.507
1065.500	615.056	79.982	19.993	99.995	19.930	2.661	0.503
1066.000	615.325	79.982	19.994	99.996	19.928	2.773	0.513
1066.500	615.621	79.981	19.994	99.996	19.927	2.856	0.545
1067.000	615.868	79.982	19.993	99.999	19.931	2.591	0.554
1067.500	616.117	79.982	19.993	99.999	19.926	2.962	0.520
1068.000	616.303	79.980	19.992	99.997	19.928	2.778	0.465
1068.500	616.574	79.982	19.994	99.997	19.928	2.801	0.445
1069.000	616.844	79.982	19.992	99.997	19.927	2.875	0.499
1069.500	617.126	79.981	19.993	99.993	19.930	2.650	0.547
1070.000	617.378	79.980	19.993	99.991	19.926	3.007	0.543
1070.500	617.618	79.979	19.993	99.990	19.928	2.801	0.513
1071.000	617.871	79.982	19.994	99.989	19.931	2.583	0.492
1071.500	618.123	79.981	19.993	99.990	19.928	2.838	0.499
1072.000	618.388	79.981	19.994	99.991	19.930	2.665	0.511
1072.500	618.642	79.982	19.994	99.992	19.929	2.752	0.519
1073.000	618.892	79.981	19.994	99.991	19.931	2.602	0.512
1073.501	619.149	79.980	19.995	99.992	19.927	2.919	0.505
1074.001	619.384	79.980	19.994	99.992	19.928	2.791	0.499
1074.501	619.671	79.981	19.994	99.991	19.929	2.695	0.507
1075.001	619.917	79.982	19.995	99.991	19.926	2.960	0.528
1075.501	620.173	79.980	19.994	99.991	19.927	2.860	0.517
1076.001	620.405	79.981	19.995	99.990	19.927	2.893	0.495
1076.500	620.675	79.982	19.995	99.990	19.927	2.895	0.495
1077.000	620.913	79.982	19.994	99.990	19.927	2.899	0.505
1077.500	621.143	79.983	19.993	99.989	19.927	2.877	0.488
1078.000	621.421	79.983	19.995	99.989	19.929	2.708	0.488
1078.501	621.653	79.982	19.994	99.990	19.927	2.851	0.509
1079.001	621.938	79.982	19.993	99.989	19.928	2.784	0.514
1079.501	622.193	79.983	19.994	99.989	19.930	2.617	0.528
1080.001	622.444	79.981	19.994	99.990	19.928	2.775	0.523
1080.500	622.675	79.983	19.993	99.991	19.929	2.693	0.494
1081.001	622.953	79.984	19.994	99.990	19.930	2.685	0.495
1081.501	623.195	79.983	19.992	99.990	19.926	2.971	0.515
1082.000	623.456	79.983	19.992	99.990	19.928	2.782	0.512
1082.500	623.721	79.983	19.994	99.991	19.931	2.583	0.515
1083.000	623.955	79.983	19.992	99.992	19.928	2.810	0.512
1083.500	624.233	79.985	19.993	99.995	19.930	2.628	0.506
1084.000	624.459	79.983	19.993	99.995	19.930	2.667	0.508
1084.500	624.690	79.984	19.992	99.997	19.930	2.641	0.480
1085.000	624.974	79.985	19.993	99.996	19.930	2.620	0.487
1085.500	625.210	79.983	19.992	99.994	19.934	2.344	0.517
1086.000	625.513	79.983	19.993	99.992	19.932	2.487	0.529
1086.501	625.757	79.983	19.992	99.993	19.928	2.836	0.543
1087.001	625.979	79.984	19.993	99.995	19.939	1.917	0.507
1087.501	626.272	79.983	19.991	99.998	19.932	2.503	0.491
1088.000	626.514	79.983	19.991	99.998	19.930	2.682	0.525
1088.500	626.753	79.984	19.993	99.998	19.930	2.669	0.508
1089.001	627.038	79.982	19.993	99.997	19.933	2.386	0.502
1089.501	627.276	79.983	19.992	99.993	19.932	2.494	0.523
1090.000	627.531	79.983	19.993	99.991	19.929	2.719	0.508
1090.500	627.762	79.984	19.993	99.991	19.931	2.583	0.490
1091.000	628.049	79.982	19.992	99.991	19.933	2.418	0.502
1091.500	628.265	79.981	19.992	99.992	19.937	2.108	0.510
1092.000	628.544	79.983	19.993	99.993	19.934	2.292	0.499
1092.500	628.810	79.981	19.993	99.993	19.932	2.500	0.520
1093.001	629.066	79.982	19.993	99.991	19.930	2.652	0.534
1093.501	629.299	79.982	19.992	99.991	19.930	2.641	0.506
1094.000	629.589	79.983	19.993	99.992	19.933	2.383	0.506
1094.500	629.820	79.983	19.993	99.991	19.930	2.661	0.522
1095.001	630.086	79.982	19.993	99.991	19.929	2.754	0.509
1095.501	630.353	79.982	19.992	99.994	19.929	2.754	0.516
1096.000	630.603	79.983	19.993	99.993	19.927	2.901	0.525
1096.500	630.883	79.982	19.992	99.993	19.930	2.669	0.523
1097.000	631.161	79.984	19.994	99.993	19.937	2.115	0.544
1097.500	631.362	79.982	19.993	99.992	19.935	2.243	0.518
1098.001	631.609	79.983	19.993	99.992	19.931	2.581	0.464
1098.501	631.875	79.984	19.993	99.993	19.932	2.466	0.481
1099.000	632.116	79.983	19.993	99.994	19.929	2.708	0.510
1099.500	632.429	79.983	19.993	99.994	19.932	2.496	0.530
1100.000	632.656	79.983	19.993	99.995	19.930	2.667	0.547
1100.500	632.924	79.983	19.992	99.995	19.929	2.769	0.518
1101.000	633.223	79.984	19.993	99.994	19.931	2.580	0.531
1101.500	633.457	79.983	19.993	99.994	19.932	2.520	0.550
1102.000	633.743	79.983	19.991	99.994	19.929	2.767	0.527
1102.500	633.958	79.983	19.993	99.993	19.928	2.782	0.511
1103.000	634.231	79.983	19.992	99.992	19.931	2.602	0.495
1103.501	634.481	79.983	19.992	99.991	19.933	2.399	0.505
1104.001	634.732	79.984	19.992	99.991	19.934	2.295	0.512
1104.501	635.019	79.983	19.992	99.990	19.931	2.576	0.520
1105.001	635.310	79.983	19.992	99.991	19.929	2.741	0.557
1105.501	635.539	79.985	19.992	99.992	19.932	2.481	0.549
1106.001	635.780	79.985	19.991	99.990	19.930	2.639	0.496
1106.501	636.035	79.984	19.993	99.989	19.933	2.409	0.483
1107.001	636.310	79.983	19.993	99.989	19.931	2.548	0.513
1107.500	636.534	79.985	19.994	99.993	19.933	2.396	0.515
1108.000	636.785	79.984	19.992	99.998	19.931	2.542	0.487
1108.500	637.071	79.984	19.992	100.000	19.930	2.674	0.506
1109.000	637.311	79.985	19.992	100.000	19.932	2.485	0.532
1109.500	637.543	79.984	19.993	99.999	19.935	2.242	0.499
1110.000	637.797	79.984	19.992	99.994	19.930	2.656	0.479
1110.501	638.083	79.985	19.991	99.988	19.928	2.784	0.513
1111.001	638.369	79.984	19.992	99.987	19.928	2.821	0.556
1111.500	638.605	79.985	19.993	99.988	19.930	2.678	0.547
1112.000	638.862	79.984	19.992	99.989	19.933	2.414	0.507
1112.501	639.124	79.985	19.992	99.990	19.929	2.719	0.506
1113.001	639.354	79.985	19.992	99.992	19.932	2.474	0.506
1113.501	639.602	79.983	19.992	99.993	19.934	2.314	0.485
1114.001	639.829	79.984	19.991	99.993	19.930	2.689	0.477
1114.500	640.104	79.985	19.993	99.994	19.934	2.321	0.488
1115.000	640.374	79.985	19.992	99.994	19.931	2.557	0.523
1115.500	640.607	79.984	19.992	99.994	19.931	2.602	0.524
1116.001	640.885	79.984	19.992	99.994	19.931	2.568	0.507
1116.501	641.104	79.984	19.992	99.994	19.931	2.570	0.504
1117.000	641.397	79.984	19.991	99.994	19.933	2.385	0.505
1117.500	641.622	79.984	19.993	99.994	19.933	2.429	0.515
1118.000	641.892	79.983	19.993	99.995	19.930	2.678	0.507
1118.501	642.129	79.982	19.992	99.994	19.930	2.626	0.501
1119.001	642.375	79.982	19.992	99.994	19.929	2.745	0.495
1119.501	642.655	79.983	19.992	99.994	19.929	2.750	0.504
1120.001	642.898	79.981	19.993	99.992	19.928	2.849	0.525
1120.501	643.165	79.982	19.992	99.991	19.931	2.544	0.517
1121.001	643.393	79.981	19.994	99.991	19.929	2.721	0.502
1121.500	643.679	79.981	19.993	99.992	19.933	2.422	0.504
1122.001	643.896	79.983	19.993	99.992	19.931	2.537	0.508
1122.501	644.141	79.983	19.993	99.993	19.932	2.507	0.482
1123.000	644.383	79.983	19.993	99.993	19.932	2.500	0.475
1123.500	644.635	79.982	19.994	99.993	19.927	2.851	0.491
1124.000	644.892	79.983	19.993	99.993	19.928	2.795	0.502
1124.500	645.147	79.982	19.993	99.993	19.927	2.888	0.510
1125.000	645.390	79.982	19.992	99.993	19.927	2.858	0.505
1125.500	645.666	79.983	19.992	99.994	19.932	2.515	0.509
1126.000	645.930	79.981	19.993	99.994	19.929	2.762	0.530
1126.500	646.136	79.983	19.992	99.994	19.934	2.325	0.505
1127.000	646.418	79.981	19.993	99.993	19.933	2.420	0.479
1127.500	646.679	79.982	19.993	99.992	19.933	2.414	0.515
1128.001	646.920	79.982	19.993	99.991	19.933	2.370	0.522
1128.501	647.182	79.983	19.993	99.992	19.932	2.485	0.502
1129.000	647.463	79.982	19.992	99.991	19.932	2.466	0.523
1129.500	647.719	79.983	19.993	99.994	19.933	2.403	0.540
1130.001	647.954	79.983	19.993	99.999	19.931	2.570	0.514
1130.501	648.224	79.982	19.994	100.000	19.932	2.455	0.498
1131.000	648.462	79.983	19.993	100.001	19.932	2.487	0.507
1131.500	648.718	79.982	19.994	100.000	19.932	2.515	0.501
1132.000	648.930	79.982	19.993	99.998	19.932	2.515	0.481
1132.500	649.231	79.983	19.994	99.993	19.932	2.468	0.490
1133.000	649.459	79.983	19.993	99.992	19.935	2.286	0.521
1133.500	649.702	79.981	19.993	99.991	19.931	2.585	0.500
1134.001	649.988	79.982	19.992	99.991	19.931	2.574	0.500
1134.501	650.230	79.981	19.992	99.990	19.932	2.476	0.528
1135.001	650.455	79.982	19.993	99.990	19.932	2.509	0.497
1135.500	650.752	79.981	19.993	99.990	19.932	2.481	0.494
1136.000	651.050	79.982	19.993	99.991	19.929	2.691	0.559
1136.501	651.263	79.982	19.993	99.991	19.931	2.572	0.553
1137.001	651.460	79.982	19.993	99.990	19.930	2.626	0.460
1137.501	651.763	79.982	19.993	99.992	19.928	2.786	0.455
1138.000	651.953	79.982	19.993	99.995	19.929	2.695	0.497
1138.500	652.196	79.983	19.992	99.996	19.932	2.474	0.463
1139.000	652.519	79.981	19.993	99.999	19.931	2.587	0.499
1139.500	652.736	79.983	19.993	100.000	19.932	2.481	0.553
1140.000	652.990	79.982	19.994	99.997	19.933	2.372	0.506
1140.500	653.303	79.982	19.993	99.994	19.933	2.396	0.519
1141.000	653.587	79.983	19.993	99.993	19.932	2.468	0.582
1141.500	653.827	79.982	19.992	99.990	19.932	2.453	0.561
1142.001	654.065	79.983	19.993	99.989	19.932	2.481	0.501
1142.501	654.316	79.982	19.994	99.990	19.929	2.710	0.484
1143.001	654.583	79.981	19.993	99.990	19.929	2.752	0.504
1143.500	654.854	79.982	19.992	99.990	19.929	2.698	0.528
1144.000	655.096	79.981	19.993	99.990	19.933	2.401	0.526
1144.500	655.392	79.982	19.993	99.992	19.930	2.656	0.525
1145.001	655.583	79.982	19.994	99.990	19.930	2.648	0.513
1145.501	655.859	79.982	19.993	99.988	19.930	2.617	0.478
1146.000	656.077	79.983	19.993	99.989	19.933	2.414	0.480
1146.500	656.352	79.981	19.993	99.989	19.936	2.164	0.493
1147.000	656.601	79.981	19.993	99.988	19.933	2.385	0.509
1147.500	656.857	79.982	19.992	99.986	19.934	2.355	0.515
1148.000	657.121	79.982	19.992	99.982	19.931	2.578	0.512
1148.500	657.370	79.982	19.993	99.981	19.932	2.502	0.517
1149.000	657.625	79.982	19.993	99.981	19.933	2.407	0.509
1149.500	657.870	79.981	19.993	99.982	19.933	2.403	0.502
1150.000	658.122	79.981	19.993	99.984	19.933	2.431	0.498
1150.500	658.390	79.982	19.993	99.989	19.931	2.567	0.508
1151.000	658.651	79.981	19.993	99.989	19.933	2.446	0.524
1151.500	658.930	79.980	19.991	99.988	19.930	2.654	0.535
1152.001	659.169	79.981	19.993	99.987	19.930	2.689	0.530
1152.501	659.463	79.981	19.993	99.989	19.930	2.678	0.526
1153.000	659.685	79.982	19.992	99.991	19.930	2.689	0.524
1153.500	659.946	79.982	19.992	99.992	19.932	2.505	0.500
1154.001	660.188	79.982	19.993	99.993	19.931	2.531	0.493
1154.501	660.467	79.981	19.994	99.994	19.933	2.388	0.512
1155.001	660.739	79.981	19.993	99.994	19.926	2.951	0.536
1155.501	660.936	79.981	19.992	99.993	19.926	3.005	0.510
1156.000	661.184	79.981	19.993	99.993	19.931	2.550	0.457
1156.500	661.456	79.982	19.993	99.992	19.931	2.606	0.482
1157.000	661.734	79.981	19.992	99.991	19.933	2.427	0.535
1157.500	661.994	79.983	19.994	99.991	19.930	2.630	0.544
1158.000	662.241	79.982	19.994	99.991	19.930	2.611	0.522
1158.500	662.492	79.980	19.992	99.991	19.931	2.574	0.502
1159.000	662.771	79.981	19.993	99.992	19.932	2.505	0.514
1159.500	663.022	79.982	19.993	99.993	19.930	2.678	0.530
1160.000	663.260	79.982	19.993	99.993	19.929	2.717	0.509
1160.500	663.502	79.983	19.994	99.993	19.930	2.667	0.484
1161.000	663.784	79.983	19.994	99.993	19.930	2.676	0.502
1161.500	664.059	79.982	19.993	99.992	19.927	2.851	0.541
1162.000	664.319	79.983	19.992	99.992	19.933	2.373	0.546
1162.500	664.550	79.983	19.993	99.992	19.929	2.752	0.513
1163.000	664.808	79.983	19.994	99.991	19.929	2.752	0.490
1163.501	665.075	79.983	19.993	99.991	19.931	2.561	0.507
1164.001	665.364	79.982	19.993	99.991	19.934	2.351	0.541
1164.501	665.563	79.982	19.993	99.991	19.930	2.689	0.522
1165.001	665.855	79.983	19.994	99.990	19.932	2.464	0.490
1165.500	666.088	79.984	19.993	99.989	19.932	2.487	0.508
1166.001	666.359	79.983	19.993	99.989	19.932	2.500	0.514
1166.501	666.636	79.983	19.993	99.989	19.932	2.520	0.526
1167.000	666.835	79.984	19.993	99.990	19.931	2.596	0.512
1167.500	667.128	79.983	19.993	99.991	19.925	3.033	0.484
1168.000	667.348	79.983	19.995	99.991	19.929	2.743	0.503
1168.500	667.610	79.983	19.995	99.991	19.925	3.025	0.498
1169.000	667.847	79.983	19.995	99.992	19.929	2.760	0.490
1169.500	668.140	79.983	19.994	99.992	19.923	3.211	0.515
1170.000	668.400	79.983	19.994	99.993	19.933	2.422	0.542
1170.500	668.652	79.982	19.993	99.993	19.928	2.825	0.532
1171.000	668.938	79.983	19.992	99.994	19.933	2.435	0.525
1171.500	669.150	79.983	19.992	99.993	19.928	2.801	0.518
1172.000	669.437	79.983	19.993	99.994	19.929	2.747	0.498
1172.500	669.668	79.983	19.992	99.993	19.925	3.016	0.508
1173.000	669.946	79.982	19.992	99.993	19.929	2.747	0.513
1173.500	670.236	79.984	19.993	99.993	19.933	2.396	0.539
1174.000	670.434	79.981	19.991	99.992	19.931	2.583	0.528
1174.500	670.715	79.982	19.992	99.991	19.930	2.687	0.483
1175.000	670.954	79.982	19.992	99.992	19.928	2.830	0.499
1175.500	671.229	79.983	19.992	99.993	19.929	2.706	0.517
1176.000	671.476	79.981	19.992	99.993	19.926	2.944	0.518
1176.500	671.735	79.982	19.992	99.993	19.932	2.498	0.515
1177.000	671.999	79.982	19.993	99.994	19.925	3.077	0.515
1177.500	672.226	79.981	19.992	99.993	19.929	2.697	0.507
1178.000	672.525	79.982	19.993	99.993	19.927	2.886	0.508
1178.501	672.784	79.982	19.992	99.993	19.929	2.762	0.542
1179.001	673.021	79.981	19.992	99.993	19.929	2.758	0.528
1179.500	673.285	79.982	19.992	99.993	19.929	2.702	0.499
1180.000	673.520	79.983	19.991	99.994	19.929	2.765	0.500
1180.500	673.797	79.983	19.992	99.994	19.927	2.851	0.506
1181.000	674.030	79.983	19.992	99.994	19.931	2.557	0.511
1181.500	674.306	79.982	19.991	99.994	19.931	2.596	0.509
1182.000	674.596	79.983	19.992	99.992	19.930	2.684	0.538
1182.500	674.809	79.981	19.992	99.991	19.933	2.390	0.534
1183.000	675.117	79.983	19.992	99.991	19.928	2.775	0.511
1183.500	675.348	79.984	19.993	99.989	19.927	2.931	0.530
1184.000	675.689	79.984	19.992	99.988	19.928	2.773	0.556
1184.500	675.880	79.984	19.993	99.989	19.927	2.892	0.552
1185.000	676.131	79.985	19.992	99.989	19.930	2.652	0.487
1185.500	676.364	79.984	19.992	99.987	19.928	2.845	0.463
1186.000	676.646	79.985	19.991	99.987	19.932	2.468	0.500
1186.500	676.912	79.985	19.992	99.987	19.930	2.671	0.532
1187.000	677.106	79.986	19.993	99.986	19.931	2.604	0.504
1187.500	677.420	79.986	19.992	99.986	19.929	2.745	0.484
1188.000	677.672	79.985	19.991	99.988	19.931	2.608	0.537
1188.500	677.911	79.985	19.993	99.989	19.931	2.576	0.528
1189.000	678.173	79.986	19.992	99.989	19.935	2.234	0.495
1189.500	678.427	79.985	19.991	99.989	19.932	2.500	0.508
1190.000	678.716	79.985	19.991	99.989	19.930	2.684	0.530
1190.500	678.930	79.985	19.992	99.989	19.931	2.563	0.523
1191.000	679.192	79.985	19.991	99.988	19.931	2.565	0.489
1191.500	679.456	79.985	19.991	99.988	19.930	2.632	0.501
1192.000	679.702	79.986	19.991	99.988	19.931	2.567	0.518
1192.500	679.973	79.986	19.993	99.987	19.928	2.808	0.513
1193.000	680.236	79.985	19.992	99.986	19.927	2.929	0.525
1193.500	680.516	79.985	19.991	99.985	19.931	2.582	0.538
1194.000	680.768	79.984	19.991	99.985	19.931	2.571	0.538
1194.500	680.998	79.984	19.992	99.985	19.933	2.374	0.508
1195.001	681.295	79.983	19.992	99.985	19.932	2.478	0.505
1195.501	681.514	79.983	19.991	99.984	19.933	2.379	0.522
1196.000	681.785	79.982	19.992	99.984	19.933	2.385	0.503
1196.500	682.016	79.984	19.992	99.985	19.934	2.359	0.496
1197.000	682.260	79.983	19.992	99.985	19.933	2.427	0.489
1197.500	682.553	79.983	19.990	99.986	19.934	2.305	0.506
1198.000	682.793	79.982	19.992	99.987	19.934	2.368	0.535
1198.500	683.035	79.982	19.993	99.987	19.935	2.247	0.507
1199.000	683.302	79.982	19.991	99.986	19.931	2.559	0.495
1199.500	683.563	79.982	19.992	99.987	19.929	2.734	0.518
1200.000	683.804	79.982	19.993	99.987	19.930	2.669	0.515
1200.500	684.084	79.982	19.992	99.982	19.932	2.481	0.512
1201.000	684.338	79.983	19.992	99.976	19.935	2.219	0.527
1201.500	684.575	79.982	19.992	99.974	19.931	2.604	0.512
1202.000	684.844	79.982	19.993	99.971	19.929	2.715	0.499
1202.501	685.101	79.983	19.992	99.971	19.934	2.355	0.516
1203.001	685.326	79.982	19.993	99.976	19.933	2.444	0.504
1203.501	685.614	79.983	19.992	99.980	19.933	2.446	0.497
1204.000	685.883	79.981	19.992	99.977	19.929	2.704	0.535
1204.500	686.153	79.982	19.993	99.978	19.929	2.736	0.548
1205.001	686.374	79.982	19.992	99.979	19.935	2.221	0.515
1205.501	686.609	79.982	19.992	99.978	19.933	2.388	0.474
1206.000	686.880	79.982	19.992	99.982	19.930	2.680	0.481
1206.500	687.108	79.982	19.992	99.988	19.929	2.717	0.502
1207.000	687.389	79.981	19.991	99.990	19.932	2.483	0.504
1207.500	687.629	79.983	19.991	99.990	19.931	2.533	0.515
1208.000	687.901	79.982	19.991	99.991	19.930	2.626	0.517
1208.500	688.185	79.983	19.993	99.990	19.928	2.821	0.534
1209.000	688.396	79.983	19.993	99.989	19.928	2.847	0.525
1209.500	688.666	79.982	19.992	99.987	19.935	2.251	0.487
1210.000	688.913	79.983	19.993	99.987	19.926	2.962	0.499
1210.501	689.202	79.982	19.992	99.988	19.931	2.602	0.527
1211.001	689.455	79.982	19.991	99.989	19.935	2.271	0.539
1211.500	689.717	79.983	19.992	99.989	19.929	2.758	0.528
1212.000	689.958	79.983	19.992	99.991	19.929	2.767	0.509
1212.501	690.230	79.981	19.993	99.992	19.930	2.624	0.508
1213.001	690.498	79.982	19.992	99.991	19.928	2.814	0.527
1213.500	690.713	79.983	19.993	99.991	19.927	2.868	0.512
1214.000	690.988	79.982	19.992	99.991	19.930	2.632	0.487
1214.500	691.260	79.983	19.992	99.991	19.929	2.728	0.518
1215.001	691.466	79.983	19.993	99.990	19.930	2.637	0.512
1215.501	691.708	79.983	19.992	99.989	19.929	2.726	0.463
1216.000	691.987	79.982	19.992	99.989	19.927	2.886	0.485
1216.500	692.264	79.983	19.993	99.989	19.930	2.641	0.538
1217.000	692.524	79.984	19.993	99.989	19.926	2.953	0.546
1217.500	692.773	79.982	19.993	99.990	19.929	2.728	0.523
1218.000	693.017	79.982	19.993	99.990	19.929	2.739	0.501
1218.500	693.266	79.981	19.992	99.989	19.928	2.832	0.493
1219.000	693.571	79.985	19.992	99.988	19.927	2.920	0.524
1219.500	693.804	79.981	19.993	99.985	19.931	2.572	0.546
1220.000	694.025	79.982	19.993	99.985	19.925	3.061	0.496
1220.500	694.295	79.982	19.993	99.985	19.926	2.977	0.472
1221.001	694.543	79.983	19.993	99.986	19.929	2.734	0.504
1221.501	694.808	79.983	19.992	99.988	19.932	2.459	0.516
1222.000	695.058	79.983	19.993	99.992	19.920	3.445	0.514
1222.500	695.298	79.985	19.992	99.992	19.927	2.866	0.502
1223.001	695.582	79.980	19.992	99.992	19.928	2.775	0.507
1223.501	695.817	79.982	19.993	99.986	19.930	2.680	0.522
1224.000	696.064	79.983	19.993	99.982	19.926	2.946	0.500
1224.500	696.307	79.980	19.992	99.981	19.926	2.979	0.486
1225.000	696.594	79.981	19.992	99.981	19.930	2.676	0.510
1225.500	696.850	79.982	19.994	99.981	19.933	2.374	0.536
1226.001	697.057	79.984	19.994	99.987	19.929	2.719	0.502
1226.501	697.305	79.982	19.993	99.991	19.930	2.632	0.459
1227.001	697.563	79.981	19.992	99.992	19.926	2.981	0.480
1227.501	697.810	79.981	19.992	99.992	19.929	2.767	0.506
1228.001	698.086	79.982	19.992	99.993	19.925	3.055	0.515
1228.501	698.315	79.981	19.994	99.993	19.930	2.630	0.514
1229.000	698.551	79.981	19.992	99.990	19.927	2.905	0.485
1229.500	698.832	79.981	19.992	99.988	19.922	3.308	0.491
1230.000	699.086	79.981	19.992	99.986	19.920	3.434	0.525
1230.501	699.307	79.981	19.993	99.987	19.929	2.756	0.505
1231.001	699.577	79.982	19.993	99.987	19.926	2.946	0.483
1231.501	699.778	79.982	19.994	99.990	19.926	2.946	0.482
1232.001	700.046	79.983	19.992	99.991	19.924	3.105	0.470
1232.501	700.271	79.981	19.991	99.990	19.928	2.786	0.481
1233.000	700.533	79.980	19.992	99.989	19.922	3.293	0.490
1233.500	700.815	79.981	19.993	99.987	19.925	3.072	0.516
1234.000	701.069	79.982	19.993	99.985	19.929	2.752	0.540
1234.500	701.310	79.982	19.992	99.986	19.925	3.074	0.515
1235.001	701.557	79.983	19.992	99.984	19.924	3.115	0.491
1235.501	701.799	79.982	19.994	99.981	19.928	2.771	0.488
1236.001	702.035	79.982	19.992	99.983	19.926	3.007	0.484
1236.500	702.296	79.981	19.993	99.985	19.928	2.782	0.487
1237.000	702.541	79.983	19.991	99.986	19.926	2.977	0.502
1237.500	702.793	79.981	19.993	99.988	19.928	2.773	0.502
1238.000	703.026	79.982	19.993	99.991	19.930	2.628	0.491
1238.500	703.279	79.982	19.993	99.989	19.930	2.656	0.485
1239.000	703.547	79.981	19.991	99.990	19.928	2.799	0.504
1239.500	703.793	79.983	19.993	99.988	19.928	2.797	0.517
1240.000	704.065	79.982	19.992	99.985	19.927	2.924	0.516
1240.500	704.308	79.982	19.992	99.981	19.929	2.695	0.517
1241.000	704.554	79.983	19.992	99.982	19.930	2.686	0.502
1241.500	704.776	79.982	19.994	99.982	19.923	3.219	0.478
1242.000	705.027	79.983	19.993	99.983	19.928	2.797	0.471
1242.500	705.303	79.983	19.991	99.987	19.928	2.797	0.500
1243.000	705.544	79.982	19.993	99.993	19.928	2.819	0.522
1243.500	705.793	79.982	19.992	99.993	19.931	2.587	0.503
1244.000	706.018	79.983	19.992	99.992	19.928	2.834	0.482
1244.500	706.304	79.983	19.993	99.989	19.926	3.003	0.493
1245.001	706.542	79.983	19.992	99.987	19.930	2.680	0.517
1245.501	706.804	79.982	19.993	99.986	19.926	2.988	0.512
1246.000	707.057	79.982	19.991	99.985	19.922	3.256	0.508
1246.500	707.313	79.983	19.992	99.986	19.921	3.358	0.512
1247.000	707.530	79.983	19.992	99.987	19.923	3.204	0.491
1247.500	707.807	79.984	19.993	99.988	19.927	2.856	0.483
1248.000	708.082	79.982	19.993	99.986	19.928	2.780	0.523
1248.501	708.308	79.982	19.993	99.986	19.929	2.726	0.527
1249.001	708.575	79.984	19.993	99.983	19.924	3.096	0.497
1249.500	708.839	79.985	19.994	99.979	19.925	3.048	0.512
1250.000	709.067	79.981	19.994	99.977	19.927	2.858	0.511
1250.500	709.333	79.981	19.993	99.979	19.928	2.816	0.493
1251.000	709.606	79.982	19.993	99.975	19.928	2.775	0.517
1251.500	709.832	79.981	19.994	99.976	19.925	3.092	0.519
1252.000	710.067	79.984	19.994	99.980	19.929	2.710	0.480
1252.500	710.345	79.982	19.993	99.983	19.930	2.678	0.487
1253.000	710.605	79.982	19.993	99.983	19.927	2.851	0.525
1253.500	710.832	79.981	19.993	99.986	19.923	3.224	0.512
1254.000	711.082	79.981	19.992	99.983	19.927	2.871	0.482
1254.500	711.383	79.983	19.994	99.979	19.931	2.567	0.514
1255.000	711.586	79.981	19.994	99.977	19.928	2.827	0.527
1255.501	711.863	79.981	19.993	99.978	19.929	2.739	0.492
1256.001	712.136	79.983	19.993	99.980	19.930	2.687	0.515
1256.500	712.353	79.983	19.994	99.984	19.931	2.578	0.520
1257.000	712.656	79.982	19.992	99.988	19.930	2.632	0.506
1257.500	712.909	79.982	19.992	99.989	19.931	2.604	0.538
1258.000	713.137	79.983	19.993	99.988	19.930	2.676	0.518
1258.500	713.442	79.982	19.992	99.988	19.932	2.492	0.507
1259.000	713.666	79.983	19.993	99.987	19.929	2.769	0.531
1259.501	713.915	79.983	19.992	99.988	19.931	2.574	0.501
1260.001	714.151	79.983	19.992	99.987	19.926	2.973	0.479
1260.500	714.430	79.982	19.991	99.987	19.930	2.680	0.500
1261.000	714.690	79.983	19.991	99.987	19.929	2.758	0.527
1261.500	714.955	79.983	19.994	99.985	19.926	2.979	0.532
1262.000	715.207	79.984	19.991	99.983	19.928	2.823	0.521
1262.500	715.483	79.983	19.992	99.984	19.928	2.817	0.522
1263.000	715.730	79.983	19.991	99.986	19.930	2.680	0.525
1263.500	715.997	79.984	19.993	99.986	19.925	3.029	0.518
1264.000	716.252	79.984	19.991	99.988	19.933	2.435	0.518
1264.500	716.540	79.984	19.992	99.991	19.927	2.871	0.532
1265.000	716.780	79.984	19.991	99.991	19.927	2.914	0.536
1265.500	717.077	79.983	19.992	99.990	19.929	2.723	0.533
1266.000	717.327	79.985	19.992	99.990	19.931	2.541	0.542
1266.500	717.549	79.984	19.992	99.990	19.931	2.548	0.509
1267.000	717.819	79.985	19.993	99.990	19.930	2.634	0.482
1267.500	718.087	79.985	19.992	99.990	19.926	2.942	0.515
1268.000	718.349	79.985	19.991	99.990	19.927	2.881	0.534
1268.501	718.604	79.987	19.993	99.991	19.929	2.714	0.524
1269.001	718.832	79.986	19.991	99.992	19.932	2.506	0.500
1269.500	719.104	79.986	19.991	99.993	19.928	2.792	0.492
1270.000	719.358	79.985	19.990	99.992	19.927	2.879	0.513
1270.500	719.621	79.984	19.991	99.992	19.922	3.263	0.522
1271.000	719.913	79.985	19.992	99.991	19.929	2.741	0.536
1271.500	720.147	79.986	19.991	99.988	19.928	2.810	0.540
1272.000	720.437	79.984	19.991	99.987	19.927	2.901	0.525
1272.500	720.626	79.986	19.993	99.987	19.927	2.908	0.501
1273.000	720.936	79.986	19.991	99.987	19.928	2.793	0.489
1273.500	721.219	79.985	19.992	99.987	19.928	2.825	0.547
1274.000	721.467	79.984	19.992	99.988	19.927	2.897	0.562
1274.500	721.689	79.986	19.993	99.988	19.926	2.940	0.500
1275.000	721.988	79.983	19.991	99.989	19.925	3.066	0.495
1275.500	722.213	79.983	19.991	99.989	19.929	2.769	0.522
1276.000	722.472	79.984	19.993	99.989	19.924	3.170	0.504
1276.500	722.723	79.984	19.992	99.990	19.928	2.771	0.497
1277.001	722.936	79.984	19.993	99.990	19.928	2.847	0.487
1277.501	723.199	79.983	19.991	99.990	19.927	2.905	0.470
1278.000	723.451	79.983	19.992	99.984	19.928	2.845	0.496
1278.500	723.758	79.982	19.992	99.978	19.924	3.170	0.537
1279.000	724.027	79.983	19.994	99.971	19.928	2.823	0.567
1279.500	724.268	79.982	19.993	99.969	19.934	2.353	0.543
1280.000	724.505	79.982	19.992	99.968	19.929	2.699	0.494
1280.500	724.769	79.982	19.993	99.975	19.929	2.702	0.490
1281.000	725.013	79.983	19.991	99.982	19.933	2.383	0.504
1281.500	725.288	79.982	19.993	99.988	19.930	2.634	0.514
1282.000	725.515	79.982	19.993	99.989	19.930	2.626	0.511
1282.500	725.766	79.982	19.993	99.990	19.926	2.955	0.490
1283.000	725.993	79.982	19.993	99.990	19.928	2.810	0.477
1283.500	726.287	79.981	19.993	99.990	19.930	2.654	0.500
1284.000	726.488	79.983	19.992	99.991	19.931	2.561	0.509
1284.500	726.719	79.982	19.993	99.993	19.930	2.671	0.464
1285.000	727.000	79.982	19.993	99.993	19.932	2.513	0.472
1285.500	727.243	79.981	19.993	99.993	19.932	2.472	0.518
1286.000	727.507	79.983	19.994	99.993	19.929	2.699	0.516
1286.500	727.800	79.983	19.992	99.993	19.925	3.070	0.532
1287.000	728.009	79.982	19.992	99.988	19.931	2.552	0.530
1287.500	728.263	79.982	19.993	99.988	19.932	2.476	0.482
1288.000	728.516	79.982	19.991	99.988	19.923	3.240	0.485
1288.500	728.755	79.983	19.992	99.985	19.928	2.786	0.499
1289.000	729.024	79.981	19.991	99.984	19.930	2.613	0.500
1289.500	729.278	79.982	19.992	99.988	19.925	3.068	0.515
1290.000	729.538	79.982	19.991	99.988	19.929	2.725	0.518
1290.500	729.795	79.982	19.993	99.985	19.929	2.756	0.516
1291.000	730.060	79.983	19.990	99.984	19.923	3.187	0.520
1291.500	730.301	79.981	19.992	99.984	19.923	3.213	0.514
1292.000	730.559	79.982	19.991	99.981	19.929	2.745	0.502
1292.500	730.788	79.983	19.992	99.980	19.933	2.431	0.493
1293.000	731.070	79.983	19.993	99.981	19.925	3.087	0.499
1293.500	731.324	79.981	19.991	99.980	19.924	3.135	0.524
1294.000	731.557	79.981	19.992	99.981	19.920	3.462	0.512
1294.500	731.829	79.983	19.993	99.985	19.925	3.046	0.496
1295.000	732.058	79.983	19.993	99.986	19.925	3.020	0.503
1295.500	732.300	79.984	19.994	99.988	19.929	2.754	0.486
1296.000	732.595	79.982	19.993	99.991	19.931	2.602	0.503
1296.500	732.815	79.981	19.991	99.992	19.928	2.789	0.526
1297.000	733.115	79.980	19.991	99.984	19.929	2.706	0.518
1297.501	733.370	79.982	19.993	99.976	19.928	2.786	0.538
1298.001	733.601	79.982	19.992	99.971	19.924	3.102	0.521
1298.500	733.858	79.983	19.992	99.967	19.927	2.864	0.487
1299.000	734.111	79.982	19.993	99.967	19.926	2.940	0.499
1299.500	734.354	79.982	19.991	99.971	19.927	2.931	0.503
1300.000	734.601	79.983	19.991	99.975	19.926	2.968	0.493
1300.500	734.867	79.982	19.991	99.977	19.924	3.159	0.501
1301.000	735.073	79.983	19.993	99.978	19.927	2.871	0.493
1301.500	735.339	79.982	19.994	99.977	19.926	2.938	0.472
1302.001	735.600	79.981	19.991	99.981	19.926	2.949	0.499
1302.501	735.857	79.982	19.993	99.983	19.927	2.892	0.522
1303.000	736.092	79.982	19.991	99.988	19.925	3.046	0.505
1303.500	736.340	79.980	19.992	99.990	19.925	3.022	0.488
1304.000	736.605	79.981	19.991	99.991	19.925	3.014	0.499
1304.500	736.842	79.981	19.992	99.991	19.926	3.003	0.508
1305.000	737.092	79.981	19.991	99.992	19.927	2.929	0.494
1305.500	737.351	79.980	19.991	99.992	19.923	3.191	0.498
1306.000	737.584	79.981	19.992	99.992	19.925	3.046	0.501
1306.500	737.812	79.981	19.993	99.993	19.927	2.931	0.477
1307.000	738.069	79.981	19.993	99.993	19.922	3.319	0.473
1307.500	738.311	79.980	19.992	99.993	19.922	3.297	0.491
1308.001	738.564	79.981	19.992	99.990	19.925	3.080	0.497
1308.501	738.814	79.983	19.994	99.989	19.927	2.890	0.499
1309.001	739.087	79.982	19.992	99.987	19.928	2.775	0.514
1309.501	739.317	79.982	19.993	99.986	19.922	3.332	0.513
1310.001	739.617	79.983	19.993	99.986	19.924	3.128	0.516
1310.500	739.869	79.982	19.993	99.989	19.922	3.269	0.541
1311.000	740.109	79.981	19.992	99.990	19.926	2.944	0.522
1311.500	740.336	79.981	19.994	99.991	19.927	2.879	0.479
1312.000	740.592	79.981	19.994	99.992	19.927	2.914	0.475
1312.501	740.821	79.980	19.992	99.991	19.927	2.890	0.484
1313.001	741.107	79.981	19.994	99.991	19.927	2.868	0.500
1313.500	741.349	79.980	19.994	99.990	19.926	2.936	0.522
1314.000	741.590	79.982	19.994	99.988	19.934	2.325	0.506
1314.500	741.849	79.981	19.993	99.984	19.936	2.186	0.491
1315.000	742.097	79.982	19.993	99.982	19.923	3.219	0.503
1315.500	742.344	79.982	19.992	99.982	19.922	3.313	0.501
1316.000	742.579	79.983	19.995	99.982	19.924	3.161	0.489
1316.500	742.851	79.982	19.993	99.979	19.924	3.148	0.494
1317.001	743.064	79.983	19.993	99.978	19.928	2.788	0.496
1317.501	743.353	79.981	19.993	99.973	19.928	2.827	0.494
1318.000	743.582	79.981	19.993	99.969	19.922	3.308	0.510
