Sample ID:	C:\MCC\MCC Cal\Test\Masonite_Board_30K_min_211022_R1.txt
Sample Weight (mg):	4.92
Heating Rate (C/s):	0.5
Combustor Temp (C):	900
N2 Flow Rate (cc/min):	80
O2 Flow Rate (cc/min):	20
Calibration File:	C:\MCC\MCC Cal\Coeff1 JN10440_30_210304.txt.txt
T Correction Coefficients:	0	1.024463	0
Time Shift (s):	14
*
Time (s)	Temperature (C)	N2 flow rate (cc/min)	O2 flow rate (cc/min)	Flow Rate (cc/min)	Oxygen (%)	HRR (W/g)	Heating rate (C/s)
0.000	107.979	80.000	19.995	103.036	20.109	-0.038	-0.034
0.500	107.954	79.999	19.996	103.034	20.108	0.036	-0.024
1.000	107.996	79.999	19.996	103.037	20.110	-0.109	0.001
1.500	107.965	79.999	19.997	103.037	20.110	-0.106	0.014
2.000	107.964	79.998	19.996	103.038	20.111	-0.161	-0.010
2.500	108.002	79.999	19.995	103.037	20.107	0.097	0.003
3.000	107.991	80.000	19.996	103.037	20.107	0.081	0.032
3.500	107.971	79.998	19.994	103.034	20.107	0.045	-0.003
4.000	107.985	79.999	19.995	103.035	20.108	-0.016	-0.019
4.500	107.971	79.999	19.996	103.035	20.108	0.030	-0.003
5.000	107.968	79.999	19.996	103.037	20.108	-0.005	-0.009
5.500	107.967	80.000	19.995	103.037	20.108	-0.020	-0.010
6.000	107.959	79.999	19.994	103.037	20.108	0.041	-0.006
6.500	107.968	79.998	19.996	103.037	20.106	0.168	-0.004
7.000	107.963	79.999	19.995	103.035	20.107	0.082	0.002
7.500	107.956	79.999	19.997	103.035	20.106	0.136	-0.005
8.000	107.946	80.001	19.996	103.035	20.105	0.175	-0.014
8.500	107.963	80.000	19.995	103.034	20.109	-0.050	-0.005
9.000	107.936	80.001	19.995	103.034	20.109	-0.052	-0.002
9.500	107.954	80.000	19.995	103.035	20.108	-0.018	-0.010
10.000	107.922	80.000	19.994	103.041	20.106	0.154	-0.011
10.500	107.913	80.001	19.996	103.046	20.108	0.002	-0.028
11.000	107.933	80.000	19.996	103.048	20.108	0.016	-0.015
11.500	107.934	80.001	19.995	103.048	20.107	0.073	0.016
12.000	107.924	80.000	19.995	103.046	20.106	0.147	0.006
12.500	107.924	80.001	19.996	103.039	20.104	0.301	-0.010
13.000	107.921	80.001	19.996	103.036	20.107	0.107	-0.007
13.500	107.934	80.001	19.994	103.038	20.104	0.267	0.004
14.000	107.947	80.002	19.994	103.041	20.106	0.111	0.018
14.500	107.938	80.001	19.995	103.048	20.107	0.043	0.015
15.000	107.930	80.001	19.996	103.054	20.107	0.097	-0.006
15.500	107.955	80.002	19.995	103.057	20.109	-0.027	-0.000
16.000	107.959	80.002	19.995	103.060	20.107	0.091	0.023
16.500	107.903	80.001	19.995	103.062	20.107	0.055	-0.011
17.000	107.946	80.001	19.995	103.059	20.105	0.190	-0.033
17.500	107.938	80.001	19.995	103.055	20.107	0.093	0.011
18.000	107.936	80.003	19.994	103.048	20.107	0.047	0.013
18.500	107.947	80.002	19.994	103.044	20.107	0.079	-0.000
19.000	107.944	80.001	19.994	103.040	20.106	0.114	0.008
19.500	107.943	80.003	19.995	103.038	20.107	0.098	0.001
20.000	107.913	80.002	19.993	103.042	20.107	0.055	-0.017
20.500	107.942	80.000	19.995	103.048	20.108	0.034	-0.016
21.000	107.940	80.000	19.995	103.048	20.106	0.136	0.013
21.500	107.948	79.999	19.994	103.048	20.110	-0.104	0.017
22.000	107.915	79.999	19.995	103.047	20.107	0.052	-0.009
22.500	107.939	80.001	19.995	103.042	20.107	0.082	-0.017
23.000	107.935	79.999	19.995	103.038	20.108	0.013	0.005
23.500	107.939	80.001	19.996	103.039	20.107	0.059	0.010
24.000	107.919	80.000	19.996	103.039	20.110	-0.116	-0.008
24.500	107.935	80.001	19.995	103.039	20.110	-0.136	-0.010
25.000	107.950	80.001	19.995	103.039	20.110	-0.138	0.013
25.500	107.922	79.999	19.995	103.038	20.111	-0.190	0.009
26.000	107.909	80.000	19.996	103.035	20.109	-0.088	-0.026
26.500	107.926	80.001	19.994	103.036	20.108	-0.021	-0.018
27.000	107.888	80.001	19.995	103.039	20.109	-0.061	-0.009
27.500	107.913	79.999	19.994	103.038	20.109	-0.048	-0.017
28.000	107.907	80.000	19.996	103.037	20.106	0.131	0.003
28.500	107.912	80.001	19.995	103.038	20.107	0.079	0.009
29.000	107.899	80.000	19.995	103.036	20.105	0.174	-0.005
29.500	107.936	80.000	19.995	103.034	20.107	0.059	0.008
30.000	107.917	80.001	19.994	103.037	20.107	0.088	0.021
30.500	107.933	80.000	19.995	103.038	20.106	0.154	0.008
31.000	107.930	80.001	19.995	103.040	20.108	0.014	0.005
31.500	107.945	80.000	19.994	103.041	20.109	-0.068	0.012
32.000	107.952	80.000	19.996	103.042	20.106	0.113	0.017
32.500	107.921	80.000	19.996	103.041	20.106	0.147	-0.001
33.000	107.925	80.000	19.995	103.039	20.106	0.161	-0.025
33.500	107.918	80.000	19.995	103.038	20.106	0.129	-0.015
34.000	107.924	80.003	19.995	103.039	20.110	-0.140	-0.002
34.500	107.900	80.001	19.996	103.040	20.108	-0.007	-0.010
35.000	107.930	80.002	19.995	103.041	20.108	0.041	-0.006
35.500	107.912	80.001	19.996	103.041	20.106	0.131	0.009
36.000	107.921	80.001	19.996	103.042	20.108	0.039	0.001
36.500	107.896	80.002	19.996	103.041	20.106	0.123	-0.013
37.000	107.897	80.000	19.997	103.043	20.108	0.034	-0.020
37.500	107.931	80.002	19.995	103.042	20.106	0.132	0.005
38.000	107.918	80.002	19.996	103.042	20.107	0.063	0.028
38.500	107.934	80.002	19.994	103.039	20.106	0.136	0.012
39.000	107.924	80.003	19.994	103.038	20.110	-0.107	0.004
39.500	107.925	80.001	19.996	103.032	20.105	0.193	-0.001
40.000	107.898	80.003	19.996	103.030	20.105	0.186	-0.017
40.500	107.895	80.003	19.995	103.029	20.106	0.163	-0.028
41.000	107.915	80.002	19.997	103.029	20.105	0.179	-0.006
41.500	107.907	80.002	19.996	103.028	20.108	0.005	0.015
42.000	107.904	80.001	19.995	103.029	20.104	0.258	0.001
42.500	107.909	80.002	19.995	103.028	20.108	0.030	-0.005
43.000	107.866	80.002	19.995	103.029	20.107	0.043	-0.019
43.500	107.903	80.001	19.997	103.030	20.109	-0.045	-0.022
44.000	107.907	80.002	19.995	103.030	20.109	-0.032	0.018
44.500	107.918	80.003	19.995	103.030	20.108	0.013	0.028
45.000	107.887	80.002	19.995	103.031	20.109	-0.048	-0.003
45.500	107.898	80.003	19.995	103.032	20.109	-0.086	-0.020
46.000	107.906	80.002	19.995	103.033	20.110	-0.099	0.000
46.500	107.875	80.002	19.995	103.034	20.108	0.031	-0.002
47.000	107.902	80.001	19.995	103.035	20.107	0.075	-0.014
47.500	107.887	80.000	19.995	103.034	20.106	0.111	0.004
48.000	107.871	80.001	19.996	103.033	20.107	0.095	-0.010
48.500	107.897	80.001	19.997	103.032	20.110	-0.140	-0.010
49.000	107.870	80.000	19.995	103.032	20.108	0.034	0.005
49.500	107.854	80.000	19.995	103.031	20.107	0.043	-0.022
50.000	107.900	80.000	19.996	103.033	20.112	-0.271	-0.007
50.500	107.870	80.000	19.996	103.035	20.108	0.018	0.023
51.000	107.873	79.999	19.995	103.036	20.107	0.081	-0.005
51.500	107.883	80.000	19.996	103.036	20.105	0.214	-0.006
52.000	107.845	80.000	19.995	103.036	20.105	0.198	-0.007
52.500	107.858	80.000	19.996	103.033	20.103	0.345	-0.027
53.000	107.892	80.000	19.996	103.031	20.101	0.479	0.011
53.500	107.838	80.000	19.996	103.030	20.100	0.530	0.014
54.000	107.850	80.000	19.996	103.031	20.097	0.725	-0.031
54.500	107.849	80.001	19.996	103.043	20.094	0.937	-0.016
55.000	107.852	80.000	19.995	103.077	20.088	1.313	0.006
55.500	107.855	80.000	19.995	103.128	20.084	1.566	0.004
56.000	107.878	79.999	19.996	103.190	20.082	1.688	0.016
56.500	107.862	79.999	19.996	103.257	20.077	2.056	0.016
57.000	107.894	79.999	19.996	103.315	20.073	2.307	0.011
57.500	107.955	80.000	19.995	103.354	20.070	2.514	0.054
58.000	107.959	80.000	19.996	103.378	20.066	2.750	0.079
58.500	107.975	79.999	19.996	103.394	20.067	2.696	0.042
59.000	108.011	80.000	19.995	103.402	20.061	3.082	0.036
59.500	108.066	80.000	19.996	103.410	20.056	3.395	0.071
60.000	108.136	80.000	19.995	103.415	20.055	3.459	0.108
60.500	108.170	79.999	19.996	103.417	20.055	3.468	0.115
61.000	108.217	80.000	19.996	103.417	20.052	3.673	0.093
61.500	108.261	79.999	19.996	103.418	20.049	3.897	0.086
62.000	108.362	79.999	19.997	103.419	20.051	3.757	0.118
62.500	108.409	80.000	19.997	103.419	20.048	3.922	0.146
63.000	108.494	80.000	19.996	103.418	20.047	4.001	0.139
63.500	108.575	80.000	19.997	103.417	20.047	4.019	0.149
64.001	108.672	79.999	19.996	103.417	20.046	4.075	0.172
64.501	108.780	79.999	19.997	103.417	20.044	4.182	0.192
65.000	108.853	79.999	19.996	103.417	20.044	4.200	0.193
65.500	108.934	79.999	19.998	103.415	20.041	4.434	0.167
66.000	109.076	79.999	19.997	103.415	20.041	4.416	0.188
66.500	109.132	80.000	19.997	103.416	20.040	4.435	0.211
67.000	109.259	79.999	19.996	103.412	20.041	4.421	0.191
67.500	109.395	79.999	19.998	103.408	20.039	4.527	0.224
68.000	109.502	79.998	19.996	103.411	20.038	4.618	0.253
68.500	109.611	79.998	19.997	103.410	20.040	4.455	0.229
69.000	109.735	79.999	19.997	103.403	20.039	4.521	0.225
69.500	109.848	79.998	19.997	103.400	20.039	4.539	0.235
70.000	110.001	79.998	19.997	103.398	20.037	4.637	0.251
70.500	110.095	80.000	19.996	103.392	20.038	4.608	0.256
71.000	110.232	79.998	19.998	103.393	20.039	4.517	0.239
71.500	110.418	80.000	19.996	103.395	20.039	4.555	0.277
72.000	110.496	79.999	19.996	103.395	20.037	4.686	0.294
72.500	110.657	79.999	19.996	103.392	20.039	4.523	0.251
73.000	110.796	80.000	19.996	103.391	20.038	4.607	0.270
73.500	110.931	79.999	19.997	103.384	20.041	4.424	0.287
74.000	111.074	79.999	19.996	103.381	20.037	4.640	0.276
74.500	111.245	79.999	19.997	103.381	20.037	4.640	0.296
75.000	111.407	79.998	19.995	103.384	20.039	4.503	0.324
75.500	111.549	79.999	19.995	103.383	20.037	4.634	0.318
76.000	111.740	80.000	19.995	103.383	20.041	4.420	0.318
76.500	111.882	80.000	19.996	103.382	20.038	4.569	0.333
77.000	112.070	79.999	19.995	103.382	20.042	4.327	0.332
77.500	112.192	79.998	19.994	103.381	20.043	4.300	0.320
78.000	112.384	80.000	19.995	103.382	20.040	4.468	0.312
78.500	112.583	80.000	19.995	103.382	20.043	4.248	0.352
79.000	112.732	80.000	19.996	103.380	20.045	4.126	0.369
79.500	112.922	80.000	19.995	103.374	20.045	4.160	0.343
80.000	113.056	79.998	19.995	103.368	20.046	4.070	0.331
80.500	113.261	79.998	19.995	103.365	20.047	4.018	0.331
81.000	113.420	80.000	19.995	103.362	20.049	3.907	0.352
81.500	113.606	80.000	19.995	103.360	20.049	3.867	0.355
82.000	113.787	80.000	19.995	103.364	20.046	4.054	0.356
82.501	113.954	79.998	19.995	103.365	20.049	3.883	0.357
83.001	114.155	79.999	19.996	103.366	20.046	4.082	0.358
83.500	114.340	80.000	19.994	103.365	20.051	3.770	0.377
84.000	114.528	79.999	19.996	103.367	20.048	3.911	0.380
84.500	114.749	79.999	19.996	103.369	20.047	3.984	0.391
85.000	114.939	79.998	19.997	103.373	20.048	3.911	0.410
85.500	115.106	79.999	19.996	103.371	20.048	3.967	0.384
86.000	115.288	79.999	19.996	103.372	20.048	3.949	0.353
86.500	115.504	80.000	19.995	103.372	20.048	3.940	0.373
87.000	115.702	80.000	19.995	103.366	20.050	3.836	0.406
87.500	115.898	79.999	19.996	103.360	20.049	3.877	0.404
88.000	116.092	79.999	19.995	103.357	20.050	3.808	0.392
88.500	116.284	80.000	19.994	103.360	20.049	3.894	0.388
89.000	116.505	79.999	19.996	103.359	20.049	3.876	0.400
89.500	116.727	80.001	19.995	103.360	20.046	4.050	0.428
90.001	116.925	80.000	19.994	103.361	20.046	4.104	0.431
90.501	117.153	79.999	19.995	103.363	20.047	4.034	0.423
91.001	117.373	80.000	19.994	103.358	20.048	3.951	0.438
91.501	117.577	80.001	19.996	103.357	20.049	3.849	0.436
92.000	117.827	80.000	19.995	103.357	20.049	3.851	0.439
92.500	118.011	80.001	19.995	103.357	20.047	3.976	0.444
93.000	118.244	80.000	19.996	103.354	20.045	4.158	0.425
93.500	118.500	80.000	19.995	103.354	20.048	3.966	0.453
94.001	118.691	80.001	19.995	103.353	20.045	4.127	0.468
94.501	118.905	80.001	19.995	103.358	20.046	4.081	0.426
95.000	119.123	80.001	19.995	103.365	20.046	4.097	0.418
95.500	119.383	80.000	19.996	103.372	20.047	4.021	0.455
96.000	119.602	80.001	19.996	103.377	20.044	4.187	0.478
96.500	119.806	80.001	19.996	103.382	20.047	4.029	0.451
97.000	120.031	80.001	19.996	103.382	20.045	4.108	0.426
97.500	120.287	80.002	19.997	103.379	20.043	4.273	0.455
98.000	120.501	80.000	19.996	103.374	20.042	4.332	0.476
98.500	120.732	80.001	19.996	103.372	20.044	4.237	0.458
99.000	120.937	80.001	19.996	103.368	20.046	4.084	0.440
99.500	121.171	80.001	19.996	103.363	20.044	4.201	0.437
100.001	121.440	80.002	19.996	103.359	20.046	4.048	0.471
100.501	121.661	80.001	19.995	103.355	20.047	4.008	0.496
101.000	121.853	80.000	19.996	103.355	20.048	3.912	0.451
101.500	122.126	80.001	19.996	103.352	20.045	4.127	0.439
102.000	122.388	80.002	19.996	103.350	20.048	3.953	0.500
102.500	122.596	80.001	19.996	103.349	20.045	4.158	0.502
103.000	122.881	80.000	19.995	103.350	20.049	3.873	0.481
103.500	123.095	80.000	19.996	103.350	20.045	4.109	0.496
104.001	123.355	80.002	19.995	103.351	20.047	3.982	0.487
104.501	123.613	80.000	19.996	103.351	20.048	3.969	0.496
105.000	123.819	80.001	19.995	103.353	20.048	3.926	0.491
105.500	124.095	80.001	19.995	103.353	20.046	4.093	0.473
106.000	124.326	80.002	19.997	103.349	20.049	3.858	0.495
106.500	124.544	80.003	19.995	103.352	20.051	3.730	0.478
107.000	124.766	80.000	19.997	103.359	20.049	3.861	0.444
107.500	125.032	80.000	19.996	103.365	20.048	3.910	0.464
108.000	125.342	80.001	19.995	103.366	20.045	4.150	0.532
108.500	125.500	79.999	19.995	103.367	20.047	3.980	0.522
109.000	125.827	80.001	19.995	103.364	20.050	3.841	0.477
109.500	126.052	79.999	19.996	103.357	20.048	3.931	0.518
110.000	126.269	80.001	19.995	103.349	20.046	4.098	0.497
110.500	126.549	80.001	19.995	103.347	20.049	3.863	0.470
111.000	126.816	80.000	19.996	103.346	20.047	3.983	0.522
111.500	127.057	80.000	19.996	103.344	20.051	3.757	0.527
112.000	127.261	80.001	19.996	103.349	20.049	3.883	0.476
112.500	127.535	80.000	19.996	103.354	20.050	3.786	0.462
113.000	127.826	80.001	19.995	103.354	20.053	3.619	0.522
113.500	128.079	80.002	19.996	103.357	20.047	4.035	0.554
114.000	128.337	80.001	19.995	103.357	20.051	3.766	0.527
114.500	128.620	80.001	19.996	103.353	20.050	3.834	0.526
115.000	128.883	80.002	19.995	103.348	20.046	4.044	0.544
115.500	129.164	80.000	19.996	103.347	20.049	3.888	0.545
116.000	129.392	80.002	19.996	103.344	20.047	4.024	0.527
116.500	129.638	80.002	19.994	103.343	20.049	3.886	0.491
117.000	129.901	80.004	19.995	103.343	20.051	3.757	0.491
117.500	130.173	80.002	19.995	103.342	20.048	3.935	0.522
118.000	130.440	80.002	19.997	103.342	20.051	3.746	0.537
118.501	130.687	80.003	19.994	103.342	20.050	3.801	0.527
119.001	130.938	80.001	19.995	103.341	20.051	3.769	0.506
119.500	131.225	80.002	19.996	103.341	20.051	3.740	0.518
120.000	131.472	80.003	19.995	103.340	20.052	3.699	0.536
120.500	131.768	80.002	19.995	103.338	20.051	3.755	0.539
121.000	132.034	80.003	19.995	103.338	20.051	3.739	0.552
121.500	132.285	80.004	19.994	103.337	20.049	3.859	0.539
122.000	132.534	80.004	19.996	103.338	20.050	3.820	0.509
122.500	132.792	80.003	19.996	103.339	20.051	3.719	0.503
123.000	133.036	80.002	19.995	103.341	20.049	3.848	0.504
123.500	133.312	80.004	19.996	103.340	20.047	4.024	0.511
124.000	133.573	80.002	19.997	103.340	20.050	3.837	0.528
124.500	133.835	80.002	19.995	103.340	20.050	3.781	0.530
125.000	134.130	80.003	19.995	103.338	20.052	3.690	0.540
125.500	134.371	80.002	19.995	103.331	20.049	3.880	0.546
126.000	134.631	80.002	19.996	103.329	20.050	3.812	0.519
126.500	134.916	80.002	19.996	103.328	20.052	3.690	0.523
127.000	135.197	80.001	19.996	103.328	20.054	3.537	0.556
127.500	135.460	80.002	19.997	103.329	20.055	3.492	0.555
128.000	135.730	80.001	19.996	103.335	20.055	3.492	0.538
128.500	135.991	80.000	19.996	103.337	20.050	3.808	0.532
129.000	136.243	80.001	19.996	103.332	20.051	3.728	0.523
129.500	136.525	79.999	19.997	103.326	20.050	3.794	0.524
130.000	136.821	80.001	19.997	103.323	20.051	3.724	0.556
130.500	137.096	79.999	19.997	103.321	20.053	3.634	0.574
131.000	137.323	79.999	19.996	103.320	20.052	3.695	0.536
131.500	137.612	79.998	19.997	103.325	20.054	3.579	0.509
132.000	137.887	79.999	19.996	103.331	20.051	3.715	0.540
132.500	138.149	80.000	19.996	103.334	20.052	3.708	0.550
133.000	138.443	79.999	19.996	103.333	20.052	3.709	0.547
133.500	138.677	79.999	19.997	103.333	20.054	3.548	0.542
134.000	138.974	80.000	19.995	103.331	20.054	3.537	0.530
134.500	139.215	79.998	19.995	103.325	20.053	3.602	0.534
135.000	139.530	80.000	19.997	103.321	20.058	3.261	0.547
135.500	139.740	79.999	19.997	103.319	20.055	3.514	0.541
136.000	140.038	79.999	19.996	103.316	20.056	3.402	0.517
136.500	140.270	79.999	19.996	103.313	20.051	3.772	0.519
137.000	140.556	79.998	19.996	103.311	20.052	3.666	0.524
137.500	140.824	80.000	19.996	103.311	20.055	3.487	0.536
138.000	141.071	79.999	19.997	103.310	20.056	3.390	0.534
138.500	141.372	80.000	19.996	103.308	20.060	3.137	0.532
139.000	141.648	79.999	19.995	103.308	20.056	3.395	0.562
139.500	141.933	79.999	19.997	103.312	20.055	3.474	0.569
140.000	142.192	80.000	19.997	103.318	20.053	3.607	0.553
140.500	142.433	80.000	19.997	103.321	20.051	3.723	0.522
141.000	142.738	80.000	19.996	103.321	20.054	3.537	0.523
141.500	142.999	80.000	19.998	103.320	20.057	3.321	0.556
142.000	143.320	79.999	19.995	103.318	20.055	3.463	0.574
142.500	143.548	79.998	19.996	103.312	20.054	3.558	0.566
143.000	143.831	79.999	19.997	103.308	20.053	3.642	0.530
143.500	144.093	80.000	19.995	103.308	20.057	3.328	0.528
144.000	144.372	79.998	19.998	103.308	20.058	3.310	0.543
144.500	144.641	79.999	19.996	103.307	20.054	3.524	0.544
145.000	144.922	79.998	19.995	103.306	20.058	3.258	0.549
145.500	145.155	79.999	19.995	103.305	20.059	3.205	0.532
146.000	145.466	79.999	19.994	103.304	20.056	3.432	0.529
146.500	145.730	79.999	19.996	103.303	20.060	3.176	0.560
147.000	145.993	79.999	19.996	103.302	20.058	3.318	0.551
147.500	146.248	80.000	19.997	103.302	20.059	3.196	0.522
148.000	146.519	80.000	19.997	103.301	20.055	3.466	0.522
148.500	146.788	80.001	19.996	103.301	20.057	3.344	0.533
149.000	147.085	79.998	19.996	103.300	20.056	3.396	0.553
149.500	147.366	79.998	19.996	103.298	20.059	3.202	0.572
150.000	147.610	79.998	19.997	103.298	20.057	3.331	0.552
150.500	147.822	79.999	19.996	103.295	20.060	3.185	0.491
151.000	148.109	79.998	19.995	103.293	20.060	3.183	0.477
151.500	148.384	79.998	19.995	103.295	20.059	3.208	0.530
152.000	148.686	79.999	19.995	103.297	20.057	3.379	0.570
152.500	148.961	79.998	19.996	103.293	20.058	3.301	0.578
153.000	149.232	79.998	19.997	103.293	20.060	3.131	0.562
153.500	149.469	79.999	19.996	103.289	20.057	3.344	0.526
154.000	149.711	79.999	19.996	103.285	20.062	3.012	0.493
154.500	150.012	79.999	19.997	103.281	20.060	3.168	0.511
155.000	150.210	79.999	19.997	103.278	20.058	3.265	0.521
155.500	150.527	79.998	19.996	103.279	20.058	3.294	0.507
156.000	150.745	79.998	19.996	103.280	20.058	3.303	0.525
156.500	151.033	79.998	19.996	103.284	20.059	3.236	0.520
157.000	151.327	79.998	19.997	103.288	20.060	3.122	0.544
157.500	151.553	79.998	19.997	103.291	20.066	2.745	0.551
158.000	151.825	79.998	19.996	103.288	20.063	2.969	0.509
158.500	152.098	79.998	19.997	103.290	20.062	3.007	0.521
159.000	152.330	79.998	19.997	103.284	20.064	2.901	0.525
159.500	152.628	79.998	19.998	103.277	20.060	3.168	0.518
160.000	152.870	79.998	19.997	103.273	20.061	3.059	0.535
160.500	153.150	79.999	19.996	103.272	20.059	3.236	0.531
161.000	153.389	79.998	19.999	103.272	20.061	3.068	0.521
161.500	153.689	79.999	19.998	103.277	20.064	2.904	0.529
162.000	153.919	79.997	19.997	103.283	20.061	3.055	0.535
162.500	154.172	79.998	19.998	103.286	20.064	2.862	0.507
163.000	154.399	79.998	19.998	103.285	20.065	2.799	0.481
163.500	154.652	79.999	19.997	103.279	20.063	2.964	0.480
164.000	154.953	79.999	19.997	103.273	20.064	2.885	0.517
164.500	155.205	79.999	19.997	103.266	20.065	2.844	0.554
165.000	155.454	79.999	19.996	103.263	20.065	2.840	0.527
165.500	155.713	79.999	19.997	103.263	20.062	3.035	0.504
166.000	155.963	80.000	19.997	103.264	20.060	3.127	0.508
166.500	156.195	79.999	19.997	103.264	20.062	3.027	0.496
167.000	156.482	80.000	19.997	103.266	20.059	3.206	0.501
167.500	156.736	80.000	19.996	103.267	20.062	3.032	0.530
168.000	156.979	79.999	19.997	103.268	20.065	2.810	0.520
168.500	157.223	80.000	19.995	103.267	20.067	2.663	0.492
169.000	157.461	79.999	19.996	103.267	20.065	2.840	0.484
169.500	157.738	79.998	19.995	103.266	20.067	2.704	0.499
170.000	157.981	80.000	19.996	103.264	20.064	2.890	0.518
170.500	158.220	80.000	19.996	103.263	20.064	2.888	0.501
171.000	158.502	80.000	19.996	103.263	20.064	2.885	0.501
171.500	158.751	79.999	19.996	103.264	20.063	2.965	0.526
172.000	159.033	80.000	19.995	103.263	20.066	2.788	0.531
172.500	159.257	79.999	19.996	103.263	20.062	3.032	0.518
173.000	159.490	79.999	19.997	103.265	20.063	2.960	0.481
173.500	159.784	80.001	19.995	103.265	20.064	2.860	0.492
174.000	160.004	80.002	19.995	103.266	20.063	2.926	0.520
174.500	160.254	80.001	19.996	103.266	20.062	3.043	0.492
175.000	160.496	80.001	19.996	103.266	20.060	3.129	0.481
175.500	160.756	80.001	19.996	103.266	20.061	3.107	0.497
176.000	160.995	80.002	19.994	103.265	20.063	2.976	0.500
176.500	161.263	80.001	19.997	103.267	20.062	3.048	0.503
177.000	161.525	80.000	19.997	103.270	20.064	2.917	0.518
177.500	161.758	80.001	19.995	103.273	20.060	3.138	0.512
178.000	162.019	80.001	19.995	103.277	20.061	3.111	0.495
178.500	162.250	80.000	19.995	103.277	20.058	3.272	0.493
179.000	162.507	80.001	19.995	103.276	20.061	3.055	0.490
179.500	162.712	80.001	19.994	103.273	20.060	3.173	0.475
180.000	162.987	80.002	19.995	103.269	20.061	3.116	0.471
180.500	163.226	80.001	19.995	103.265	20.061	3.104	0.497
181.000	163.515	80.002	19.996	103.264	20.063	2.958	0.521
181.500	163.735	80.002	19.996	103.264	20.062	3.012	0.518
182.000	163.987	80.002	19.996	103.264	20.062	3.009	0.491
182.500	164.231	80.001	19.996	103.263	20.061	3.055	0.485
183.000	164.493	80.002	19.996	103.264	20.061	3.116	0.501
183.500	164.746	80.001	19.995	103.265	20.063	2.949	0.510
184.000	165.031	80.002	19.996	103.265	20.064	2.912	0.527
184.500	165.258	80.001	19.996	103.266	20.063	2.964	0.525
185.000	165.516	80.000	19.995	103.268	20.063	2.964	0.498
185.500	165.723	80.001	19.997	103.267	20.062	2.991	0.475
186.000	166.033	79.999	19.997	103.266	20.065	2.844	0.491
186.500	166.266	80.001	19.997	103.266	20.062	3.001	0.530
187.000	166.503	80.001	19.996	103.266	20.065	2.838	0.507
187.500	166.756	80.000	19.995	103.265	20.067	2.698	0.480
188.000	167.005	80.001	19.996	103.263	20.060	3.154	0.496
188.500	167.244	80.001	19.996	103.262	20.062	3.035	0.495
189.000	167.478	80.001	19.997	103.262	20.061	3.069	0.480
189.500	167.727	80.002	19.997	103.262	20.059	3.188	0.478
190.000	167.965	80.002	19.996	103.262	20.061	3.098	0.485
190.500	168.230	80.001	19.996	103.262	20.061	3.059	0.495
191.000	168.457	80.002	19.997	103.263	20.062	3.030	0.498
191.500	168.682	80.001	19.996	103.264	20.062	3.050	0.471
192.000	168.945	80.001	19.996	103.263	20.060	3.163	0.470
192.500	169.182	80.000	19.997	103.264	20.064	2.878	0.494
193.000	169.420	80.002	19.995	103.264	20.062	3.041	0.488
193.500	169.710	80.001	19.996	103.264	20.060	3.145	0.502
194.000	169.908	80.001	19.996	103.264	20.060	3.141	0.508
194.500	170.169	80.002	19.996	103.264	20.064	2.901	0.474
195.000	170.392	80.001	19.996	103.264	20.063	2.971	0.471
195.500	170.657	80.001	19.996	103.265	20.062	3.007	0.485
196.000	170.917	80.001	19.996	103.266	20.063	2.948	0.506
196.500	171.137	80.003	19.995	103.266	20.062	3.021	0.503
197.000	171.368	80.001	19.995	103.266	20.063	2.951	0.466
197.500	171.623	80.001	19.995	103.265	20.065	2.835	0.468
198.000	171.884	80.001	19.996	103.265	20.062	2.994	0.501
198.500	172.123	80.002	19.995	103.264	20.060	3.130	0.508
199.000	172.362	80.001	19.995	103.264	20.063	2.985	0.489
199.500	172.578	80.002	19.995	103.264	20.061	3.105	0.467
200.000	172.826	80.002	19.995	103.265	20.062	3.037	0.459
200.500	173.088	80.003	19.996	103.265	20.059	3.191	0.487
201.000	173.337	80.003	19.996	103.266	20.060	3.147	0.510
201.500	173.610	80.003	19.995	103.266	20.063	2.949	0.516
202.000	173.847	80.001	19.995	103.265	20.062	3.050	0.516
202.500	174.059	80.002	19.995	103.265	20.061	3.107	0.479
203.000	174.280	80.002	19.996	103.265	20.065	2.845	0.441
203.500	174.543	80.002	19.995	103.264	20.062	3.026	0.459
204.000	174.791	80.002	19.996	103.264	20.064	2.881	0.497
204.500	175.036	80.001	19.994	103.264	20.063	2.946	0.502
205.000	175.295	80.002	19.995	103.265	20.066	2.774	0.499
205.500	175.510	80.001	19.994	103.265	20.066	2.783	0.489
206.000	175.754	80.003	19.994	103.265	20.062	2.998	0.466
206.500	176.001	80.000	19.995	103.266	20.062	3.032	0.475
207.000	176.252	80.001	19.995	103.266	20.061	3.103	0.494
207.500	176.465	80.000	19.996	103.266	20.061	3.064	0.481
208.000	176.717	80.001	19.996	103.266	20.063	2.924	0.465
208.500	176.962	80.001	19.995	103.265	20.065	2.831	0.481
209.000	177.212	80.002	19.995	103.266	20.065	2.824	0.496
209.500	177.437	80.000	19.995	103.266	20.061	3.066	0.485
210.000	177.705	80.001	19.995	103.266	20.066	2.788	0.484
210.500	177.924	80.001	19.996	103.266	20.062	3.012	0.490
211.000	178.208	80.000	19.996	103.265	20.064	2.908	0.495
211.500	178.422	79.999	19.995	103.264	20.060	3.143	0.501
212.000	178.659	79.999	19.996	103.264	20.064	2.890	0.475
212.500	178.899	80.001	19.997	103.263	20.062	3.012	0.464
213.000	179.149	80.000	19.996	103.263	20.065	2.797	0.484
213.500	179.390	80.000	19.996	103.265	20.065	2.854	0.491
214.000	179.638	79.998	19.995	103.265	20.062	2.996	0.491
214.500	179.840	80.000	19.996	103.265	20.064	2.897	0.470
215.000	180.080	79.999	19.996	103.266	20.066	2.786	0.446
215.500	180.330	79.999	19.996	103.265	20.063	2.958	0.466
216.000	180.579	80.000	19.996	103.264	20.065	2.850	0.494
216.500	180.844	80.000	19.997	103.261	20.064	2.911	0.506
217.000	181.080	80.000	19.996	103.261	20.064	2.877	0.508
217.500	181.324	79.999	19.996	103.261	20.065	2.849	0.491
218.000	181.593	79.999	19.996	103.262	20.063	2.953	0.496
218.500	181.832	79.999	19.996	103.263	20.065	2.817	0.511
219.000	182.068	79.999	19.996	103.263	20.061	3.059	0.492
219.500	182.312	79.999	19.996	103.259	20.063	2.981	0.478
220.000	182.543	79.998	19.996	103.256	20.063	2.974	0.478
220.500	182.771	79.997	19.996	103.253	20.064	2.899	0.467
221.000	182.994	80.000	19.996	103.253	20.061	3.116	0.455
221.500	183.275	79.998	19.997	103.256	20.064	2.870	0.478
222.000	183.492	79.999	19.996	103.259	20.061	3.085	0.501
222.500	183.778	80.000	19.996	103.261	20.064	2.879	0.500
223.000	183.978	79.998	19.997	103.262	20.065	2.834	0.495
223.500	184.240	79.999	19.997	103.263	20.061	3.076	0.474
224.000	184.463	80.001	19.997	103.263	20.062	3.021	0.473
224.500	184.716	80.001	19.995	103.262	20.062	3.051	0.480
225.000	184.982	80.000	19.995	103.261	20.065	2.854	0.497
225.500	185.225	80.001	19.996	103.258	20.063	2.947	0.514
226.000	185.464	80.000	19.995	103.254	20.060	3.121	0.496
226.500	185.694	80.001	19.996	103.251	20.065	2.811	0.476
227.000	185.941	79.999	19.997	103.253	20.062	3.017	0.473
227.500	186.224	80.001	19.997	103.254	20.066	2.765	0.503
228.000	186.419	80.000	19.996	103.258	20.065	2.843	0.504
228.500	186.726	80.001	19.996	103.262	20.061	3.071	0.490
229.000	186.936	80.000	19.996	103.262	20.061	3.075	0.510
229.500	187.208	80.000	19.996	103.262	20.065	2.829	0.499
230.000	187.407	79.999	19.996	103.261	20.061	3.060	0.476
230.500	187.684	80.000	19.996	103.260	20.064	2.890	0.474
231.000	187.912	80.000	19.996	103.257	20.061	3.078	0.491
231.500	188.153	80.000	19.997	103.257	20.060	3.170	0.488
232.000	188.412	80.001	19.996	103.252	20.062	3.046	0.484
232.500	188.662	80.000	19.996	103.251	20.061	3.064	0.504
233.000	188.926	80.001	19.996	103.252	20.063	2.989	0.512
233.500	189.114	80.001	19.996	103.251	20.060	3.128	0.483
234.000	189.324	80.001	19.997	103.252	20.064	2.867	0.425
234.500	189.603	80.000	19.997	103.257	20.063	2.958	0.444
235.000	189.865	80.000	19.996	103.261	20.061	3.057	0.515
235.500	190.099	79.999	19.996	103.262	20.062	3.048	0.518
236.000	190.383	80.000	19.997	103.262	20.066	2.759	0.507
236.500	190.571	80.000	19.996	103.262	20.064	2.859	0.495
237.000	190.843	80.000	19.996	103.261	20.063	2.980	0.466
237.500	191.065	79.999	19.996	103.260	20.062	3.014	0.477
238.000	191.292	80.001	19.995	103.258	20.065	2.797	0.472
238.500	191.560	80.000	19.995	103.261	20.064	2.922	0.472
239.001	191.802	79.998	19.996	103.262	20.063	2.962	0.503
239.500	192.040	80.000	19.996	103.263	20.064	2.908	0.495
240.000	192.305	79.999	19.997	103.263	20.061	3.098	0.491
240.500	192.524	79.998	19.997	103.264	20.060	3.157	0.494
241.000	192.804	79.999	19.997	103.261	20.063	2.964	0.491
241.500	193.064	79.999	19.997	103.260	20.063	2.978	0.519
242.000	193.281	80.000	19.996	103.258	20.063	2.969	0.508
242.500	193.509	80.000	19.996	103.254	20.065	2.800	0.461
243.000	193.726	79.998	19.996	103.254	20.064	2.908	0.445
243.500	193.999	79.998	19.996	103.257	20.062	3.023	0.467
244.000	194.215	79.998	19.997	103.256	20.064	2.904	0.490
244.500	194.469	79.999	19.996	103.259	20.063	2.947	0.480
245.000	194.737	79.999	19.996	103.261	20.061	3.116	0.496
245.500	194.966	79.999	19.996	103.260	20.061	3.107	0.509
246.000	195.177	80.000	19.996	103.260	20.060	3.134	0.469
246.500	195.420	79.997	19.997	103.257	20.060	3.179	0.447
247.000	195.690	80.000	19.997	103.255	20.059	3.191	0.483
247.500	195.917	79.998	19.997	103.255	20.061	3.084	0.505
248.000	196.202	80.000	19.996	103.255	20.062	3.030	0.505
248.500	196.420	79.999	19.996	103.255	20.059	3.229	0.507
249.000	196.672	80.000	19.998	103.259	20.056	3.420	0.486
249.500	196.895	80.000	19.996	103.257	20.060	3.180	0.473
250.000	197.154	79.999	19.998	103.256	20.062	3.036	0.479
250.500	197.383	80.000	19.997	103.257	20.060	3.167	0.485
251.000	197.641	79.999	19.996	103.257	20.058	3.297	0.487
251.500	197.907	80.000	19.997	103.257	20.062	3.053	0.505
252.000	198.118	80.000	19.996	103.259	20.059	3.221	0.500
252.500	198.369	80.001	19.997	103.257	20.057	3.356	0.470
253.000	198.595	80.001	19.997	103.255	20.059	3.202	0.470
253.500	198.835	79.999	19.997	103.254	20.057	3.369	0.472
254.000	199.090	80.000	19.997	103.253	20.058	3.301	0.481
254.500	199.335	80.000	19.996	103.255	20.058	3.256	0.498
255.000	199.599	80.000	19.997	103.256	20.058	3.299	0.505
255.500	199.813	80.001	19.997	103.254	20.056	3.416	0.494
256.000	200.099	80.001	19.996	103.252	20.057	3.328	0.489
256.500	200.349	80.001	19.997	103.254	20.058	3.267	0.518
257.000	200.555	80.000	19.997	103.254	20.057	3.340	0.496
257.500	200.831	80.001	19.996	103.254	20.058	3.302	0.468
258.000	201.039	80.002	19.995	103.256	20.058	3.313	0.483
258.500	201.283	80.002	19.995	103.255	20.055	3.478	0.468
259.000	201.514	80.001	19.996	103.252	20.054	3.544	0.464
259.500	201.766	80.002	19.996	103.247	20.055	3.496	0.479
260.000	202.025	80.001	19.997	103.245	20.061	3.114	0.497
260.500	202.200	80.000	19.996	103.242	20.058	3.302	0.473
261.000	202.498	80.002	19.995	103.240	20.055	3.449	0.454
261.500	202.733	80.001	19.995	103.242	20.060	3.159	0.503
262.000	202.987	80.001	19.995	103.246	20.059	3.248	0.511
262.500	203.213	80.001	19.996	103.248	20.056	3.418	0.484
263.000	203.440	80.001	19.996	103.251	20.055	3.485	0.466
263.500	203.712	80.002	19.995	103.255	20.056	3.397	0.476
264.000	203.964	80.002	19.996	103.256	20.057	3.356	0.512
264.500	204.196	80.002	19.994	103.256	20.058	3.284	0.504
265.000	204.442	79.999	19.995	103.257	20.056	3.444	0.481
265.500	204.678	80.001	19.995	103.261	20.056	3.433	0.480
266.000	204.918	80.001	19.997	103.263	20.056	3.408	0.479
266.500	205.147	80.001	19.996	103.265	20.053	3.587	0.473
267.000	205.421	80.001	19.996	103.265	20.056	3.403	0.486
267.500	205.648	80.001	19.995	103.267	20.054	3.534	0.501
268.000	205.879	80.000	19.996	103.263	20.058	3.273	0.479
268.500	206.117	80.001	19.998	103.258	20.055	3.480	0.464
269.000	206.413	80.002	19.997	103.255	20.056	3.413	0.502
269.500	206.608	79.999	19.996	103.248	20.054	3.530	0.513
270.000	206.866	80.001	19.996	103.247	20.057	3.358	0.472
270.500	207.110	80.001	19.996	103.249	20.054	3.574	0.477
271.000	207.379	80.001	19.995	103.250	20.055	3.483	0.507
271.500	207.619	80.001	19.995	103.250	20.055	3.479	0.511
272.000	207.892	80.001	19.995	103.251	20.056	3.415	0.511
272.500	208.167	80.000	19.996	103.246	20.054	3.566	0.531
273.000	208.348	79.999	19.996	103.245	20.054	3.523	0.502
273.500	208.623	80.001	19.996	103.241	20.051	3.720	0.456
274.000	208.859	80.000	19.995	103.240	20.054	3.568	0.483
274.500	209.097	80.000	19.995	103.241	20.054	3.530	0.492
275.000	209.344	80.000	19.994	103.241	20.053	3.610	0.480
275.500	209.596	80.001	19.995	103.241	20.052	3.675	0.492
276.000	209.876	80.000	19.996	103.246	20.055	3.468	0.515
276.500	210.083	79.999	19.995	103.251	20.051	3.773	0.510
277.000	210.348	80.001	19.995	103.256	20.053	3.594	0.480
277.500	210.600	80.001	19.996	103.260	20.054	3.520	0.494
278.000	210.813	80.001	19.995	103.262	20.053	3.616	0.491
278.500	211.042	80.000	19.995	103.258	20.052	3.695	0.454
279.000	211.296	80.001	19.996	103.251	20.050	3.822	0.463
279.500	211.521	80.001	19.994	103.250	20.053	3.603	0.481
280.000	211.784	80.003	19.994	103.246	20.053	3.616	0.484
280.500	212.023	80.000	19.995	103.244	20.052	3.659	0.495
281.000	212.233	80.002	19.996	103.246	20.050	3.784	0.476
281.500	212.483	80.001	19.995	103.247	20.051	3.754	0.455
282.000	212.762	80.002	19.995	103.246	20.053	3.636	0.495
282.500	213.057	80.002	19.996	103.247	20.053	3.582	0.551
283.000	213.276	80.001	19.995	103.248	20.056	3.385	0.544
283.500	213.496	80.002	19.994	103.251	20.057	3.342	0.476
284.000	213.753	80.002	19.995	103.251	20.055	3.498	0.458
284.500	213.996	80.002	19.995	103.253	20.052	3.661	0.489
285.000	214.254	80.003	19.994	103.253	20.053	3.623	0.501
285.500	214.464	80.002	19.995	103.249	20.054	3.526	0.484
286.000	214.717	80.002	19.994	103.243	20.050	3.802	0.466
286.500	214.972	80.003	19.996	103.242	20.053	3.608	0.486
287.000	215.216	80.002	19.996	103.238	20.053	3.630	0.504
287.500	215.498	80.002	19.995	103.233	20.052	3.694	0.513
288.000	215.717	80.003	19.995	103.234	20.051	3.746	0.513
288.500	215.943	80.002	19.996	103.237	20.052	3.700	0.472
289.000	216.200	80.001	19.995	103.241	20.051	3.711	0.464
289.500	216.439	80.001	19.995	103.246	20.051	3.734	0.489
290.000	216.685	80.001	19.996	103.253	20.051	3.770	0.491
290.500	216.964	80.003	19.995	103.255	20.048	3.958	0.505
291.000	217.194	80.001	19.995	103.255	20.050	3.837	0.517
291.500	217.448	80.001	19.995	103.254	20.051	3.720	0.496
292.000	217.663	80.001	19.994	103.253	20.048	3.915	0.477
292.500	217.940	80.001	19.996	103.253	20.050	3.804	0.481
293.000	218.165	80.001	19.995	103.254	20.047	3.973	0.497
293.500	218.422	80.002	19.996	103.252	20.047	3.985	0.492
294.000	218.715	80.001	19.996	103.253	20.046	4.044	0.516
294.500	218.942	80.002	19.995	103.252	20.047	4.032	0.535
295.000	219.137	80.001	19.995	103.250	20.047	4.008	0.471
295.500	219.428	80.002	19.996	103.249	20.047	4.005	0.454
296.000	219.680	80.001	19.995	103.249	20.047	4.010	0.515
296.500	219.938	80.001	19.996	103.245	20.047	4.004	0.526
297.000	220.161	80.000	19.996	103.241	20.047	4.022	0.496
297.500	220.422	80.001	19.996	103.237	20.045	4.150	0.483
298.000	220.632	80.001	19.996	103.232	20.044	4.180	0.477
298.500	220.889	80.001	19.996	103.236	20.046	4.064	0.469
299.000	221.143	80.000	19.996	103.237	20.044	4.186	0.489
299.500	221.384	80.001	19.996	103.241	20.045	4.166	0.503
300.000	221.631	80.001	19.995	103.247	20.042	4.340	0.492
300.500	221.849	80.001	19.996	103.254	20.043	4.277	0.477
301.000	222.138	80.001	19.996	103.254	20.044	4.227	0.486
301.500	222.358	80.000	19.995	103.257	20.041	4.403	0.508
302.000	222.640	80.000	19.996	103.255	20.044	4.227	0.506
302.500	222.887	80.002	19.994	103.254	20.045	4.127	0.515
303.000	223.123	80.002	19.995	103.253	20.045	4.103	0.506
303.500	223.385	80.002	19.995	103.253	20.045	4.135	0.491
304.000	223.563	80.001	19.995	103.251	20.040	4.443	0.470
304.500	223.879	80.001	19.995	103.252	20.044	4.167	0.467
305.000	224.093	80.000	19.995	103.251	20.042	4.309	0.512
305.500	224.339	80.000	19.995	103.249	20.041	4.380	0.495
306.000	224.586	80.000	19.996	103.247	20.042	4.339	0.476
306.500	224.835	80.001	19.996	103.245	20.040	4.447	0.494
307.000	225.044	80.001	19.996	103.245	20.043	4.280	0.477
307.500	225.312	80.001	19.995	103.241	20.041	4.420	0.467
308.000	225.552	80.000	19.997	103.238	20.039	4.537	0.492
308.500	225.796	80.000	19.996	103.238	20.040	4.477	0.497
309.000	226.075	80.001	19.996	103.243	20.039	4.505	0.504
309.500	226.315	80.001	19.996	103.244	20.040	4.460	0.521
310.000	226.577	80.000	19.996	103.248	20.039	4.528	0.510
310.500	226.791	80.000	19.997	103.251	20.038	4.616	0.489
311.000	227.044	80.000	19.996	103.251	20.038	4.590	0.472
311.500	227.253	80.000	19.995	103.248	20.039	4.533	0.465
312.000	227.528	80.000	19.996	103.247	20.038	4.605	0.473
312.500	227.781	80.000	19.996	103.245	20.034	4.838	0.506
313.000	228.023	80.000	19.995	103.243	20.038	4.624	0.511
313.500	228.223	80.000	19.996	103.245	20.039	4.558	0.469
314.000	228.497	79.999	19.996	103.242	20.035	4.802	0.458
314.500	228.757	80.000	19.997	103.240	20.040	4.449	0.504
315.000	229.040	80.001	19.997	103.238	20.036	4.750	0.539
315.500	229.247	80.001	19.996	103.236	20.038	4.609	0.517
316.000	229.505	80.001	19.997	103.232	20.036	4.706	0.478
316.500	229.798	80.000	19.997	103.230	20.036	4.731	0.507
317.000	230.042	80.000	19.996	103.229	20.035	4.765	0.544
317.500	230.267	79.999	19.996	103.233	20.035	4.767	0.503
318.000	230.533	79.999	19.997	103.237	20.038	4.616	0.480
318.500	230.789	80.002	19.996	103.243	20.037	4.631	0.506
319.000	231.017	80.000	19.996	103.251	20.032	4.961	0.502
319.500	231.259	80.002	19.997	103.257	20.032	4.997	0.477
320.000	231.517	80.000	19.996	103.254	20.034	4.860	0.485
320.500	231.744	80.000	19.996	103.254	20.033	4.946	0.493
321.000	231.978	79.999	19.996	103.252	20.035	4.779	0.473
321.500	232.238	80.001	19.995	103.245	20.034	4.869	0.477
322.000	232.487	79.999	19.996	103.237	20.032	4.976	0.501
322.500	232.751	80.000	19.996	103.236	20.030	5.105	0.511
323.000	233.007	79.999	19.997	103.233	20.031	5.073	0.517
323.500	233.231	80.000	19.996	103.235	20.032	4.959	0.500
324.000	233.500	80.001	19.995	103.236	20.031	5.038	0.487
324.500	233.688	79.999	19.996	103.240	20.028	5.269	0.475
325.000	233.964	79.999	19.995	103.244	20.029	5.158	0.460
325.500	234.237	80.000	19.997	103.248	20.030	5.106	0.507
326.000	234.485	79.999	19.996	103.245	20.029	5.183	0.535
326.500	234.720	79.999	19.997	103.249	20.029	5.153	0.502
327.000	234.941	80.000	19.997	103.247	20.030	5.136	0.469
327.500	235.222	80.000	19.995	103.244	20.029	5.150	0.479
328.000	235.474	80.000	19.997	103.245	20.029	5.213	0.517
328.500	235.696	80.000	19.996	103.250	20.029	5.193	0.503
329.000	235.971	79.999	19.996	103.250	20.026	5.372	0.486
329.500	236.212	80.000	19.996	103.256	20.024	5.502	0.507
330.000	236.463	80.000	19.995	103.261	20.025	5.440	0.504
330.500	236.728	79.999	19.995	103.258	20.021	5.675	0.504
331.000	236.967	79.999	19.997	103.258	20.021	5.679	0.510
331.500	237.198	80.000	19.996	103.255	20.022	5.611	0.487
332.000	237.460	80.000	19.997	103.248	20.022	5.663	0.482
332.500	237.716	80.001	19.995	103.244	20.023	5.597	0.505
333.000	237.956	80.001	19.995	103.246	20.021	5.704	0.507
333.500	238.177	80.000	19.996	103.244	20.022	5.661	0.478
334.000	238.424	80.001	19.995	103.248	20.019	5.813	0.464
334.500	238.689	79.999	19.996	103.252	20.019	5.820	0.490
335.000	238.953	80.000	19.996	103.254	20.019	5.833	0.521
335.500	239.197	80.000	19.997	103.255	20.017	5.991	0.518
336.000	239.450	80.001	19.996	103.257	20.019	5.868	0.502
336.500	239.629	80.000	19.995	103.258	20.019	5.857	0.465
337.000	239.899	80.001	19.997	103.259	20.016	6.063	0.441
337.500	240.174	80.001	19.996	103.259	20.017	5.948	0.497
338.000	240.386	80.001	19.997	103.255	20.014	6.181	0.516
338.500	240.628	80.002	19.997	103.250	20.014	6.147	0.470
339.000	240.875	80.000	19.996	103.243	20.016	6.033	0.472
339.500	241.117	80.000	19.996	103.237	20.014	6.151	0.490
340.000	241.347	80.001	19.996	103.232	20.011	6.337	0.481
340.500	241.615	79.999	19.996	103.231	20.012	6.327	0.485
341.000	241.808	80.001	19.997	103.235	20.014	6.169	0.479
341.501	242.101	80.001	19.997	103.238	20.013	6.212	0.473
342.000	242.340	79.999	19.997	103.243	20.011	6.343	0.510
342.500	242.616	80.001	19.997	103.247	20.010	6.431	0.524
343.000	242.869	80.000	19.995	103.251	20.009	6.483	0.522
343.500	243.068	79.999	19.996	103.248	20.009	6.479	0.490
344.000	243.350	80.001	19.997	103.244	20.009	6.490	0.466
344.500	243.582	80.001	19.996	103.243	20.010	6.438	0.497
345.000	243.833	80.000	19.996	103.242	20.004	6.793	0.499
345.500	244.060	80.000	19.995	103.242	20.005	6.757	0.481
346.000	244.335	80.001	19.996	103.248	20.005	6.756	0.490
346.500	244.601	79.999	19.996	103.255	20.003	6.870	0.522
347.000	244.820	79.999	19.997	103.255	20.001	7.013	0.513
347.500	245.049	79.999	19.996	103.253	20.003	6.855	0.466
348.000	245.296	80.000	19.996	103.254	20.003	6.857	0.462
348.500	245.556	79.999	19.997	103.249	20.002	6.959	0.491
349.000	245.801	80.000	19.996	103.248	20.002	6.949	0.506
349.500	246.082	80.001	19.996	103.252	20.003	6.913	0.516
350.000	246.293	80.001	19.997	103.256	20.000	7.083	0.509
350.500	246.558	80.001	19.995	103.254	19.997	7.291	0.484
351.000	246.787	80.001	19.998	103.256	19.995	7.422	0.485
351.500	247.038	80.001	19.996	103.254	19.998	7.241	0.488
352.000	247.321	80.001	19.995	103.252	19.997	7.281	0.507
352.500	247.531	80.001	19.995	103.253	19.997	7.247	0.513
353.000	247.774	80.001	19.995	103.257	19.995	7.410	0.473
353.500	248.008	80.001	19.995	103.257	19.991	7.695	0.465
354.000	248.287	80.001	19.995	103.260	19.991	7.666	0.495
354.500	248.493	80.001	19.997	103.262	19.994	7.503	0.499
355.000	248.776	80.001	19.995	103.261	19.994	7.501	0.487
355.500	249.042	80.002	19.995	103.261	19.990	7.707	0.519
356.000	249.266	80.002	19.995	103.263	19.988	7.887	0.519
356.500	249.549	80.001	19.995	103.262	19.988	7.867	0.498
357.000	249.783	80.003	19.995	103.261	19.988	7.866	0.512
357.500	250.066	80.003	19.995	103.259	19.988	7.855	0.517
358.000	250.295	80.002	19.994	103.256	19.985	8.043	0.514
358.500	250.566	80.003	19.995	103.254	19.982	8.272	0.506
359.000	250.781	80.003	19.995	103.255	19.983	8.220	0.493
359.500	251.002	80.003	19.996	103.255	19.980	8.362	0.461
360.000	251.258	80.003	19.994	103.256	19.982	8.233	0.457
360.500	251.527	80.002	19.994	103.259	19.979	8.441	0.501
361.000	251.758	80.003	19.995	103.260	19.979	8.445	0.512
361.500	252.045	80.002	19.997	103.259	19.977	8.613	0.509
362.000	252.253	80.003	19.995	103.260	19.979	8.482	0.506
362.500	252.511	80.003	19.995	103.261	19.978	8.520	0.481
363.000	252.759	80.002	19.995	103.262	19.974	8.759	0.486
363.500	253.013	80.003	19.995	103.263	19.976	8.682	0.504
364.000	253.275	80.003	19.996	103.263	19.975	8.747	0.509
364.500	253.447	80.003	19.995	103.260	19.970	9.064	0.475
365.000	253.739	80.003	19.995	103.259	19.973	8.876	0.449
365.500	254.003	80.002	19.995	103.258	19.968	9.148	0.510
366.000	254.261	80.002	19.995	103.258	19.970	9.075	0.539
366.500	254.482	80.002	19.995	103.259	19.970	9.062	0.500
367.000	254.698	80.003	19.994	103.262	19.967	9.254	0.458
367.500	254.964	80.003	19.995	103.264	19.964	9.408	0.460
368.000	255.219	80.003	19.995	103.264	19.962	9.601	0.502
368.500	255.440	80.002	19.995	103.264	19.965	9.363	0.498
369.000	255.728	80.002	19.995	103.263	19.961	9.654	0.492
369.500	255.945	80.002	19.995	103.264	19.960	9.716	0.507
370.000	256.195	80.003	19.996	103.263	19.958	9.810	0.486
370.500	256.405	80.002	19.995	103.264	19.961	9.638	0.464
371.000	256.678	80.001	19.994	103.265	19.956	9.946	0.472
371.500	256.928	80.002	19.995	103.266	19.957	9.898	0.503
372.000	257.175	80.003	19.996	103.266	19.958	9.862	0.510
372.500	257.419	80.002	19.996	103.266	19.954	10.106	0.494
373.000	257.687	80.000	19.996	103.265	19.954	10.067	0.502
373.500	257.908	80.001	19.995	103.268	19.956	9.938	0.500
374.000	258.163	80.001	19.996	103.270	19.955	10.027	0.482
374.500	258.409	80.000	19.995	103.271	19.950	10.330	0.488
375.000	258.672	80.000	19.996	103.273	19.949	10.431	0.505
375.500	258.908	80.001	19.996	103.275	19.950	10.339	0.504
376.000	259.170	80.001	19.995	103.271	19.948	10.492	0.498
376.500	259.443	80.001	19.996	103.270	19.947	10.580	0.516
377.000	259.689	79.999	19.996	103.271	19.943	10.808	0.527
377.500	259.915	80.000	19.994	103.269	19.942	10.873	0.496
378.000	260.145	80.002	19.995	103.267	19.941	10.916	0.464
378.500	260.413	80.001	19.996	103.268	19.939	11.077	0.477
379.000	260.671	80.000	19.996	103.269	19.940	11.016	0.512
379.500	260.901	80.000	19.995	103.268	19.933	11.443	0.507
380.000	261.141	80.000	19.996	103.269	19.936	11.271	0.479
380.500	261.399	80.000	19.995	103.270	19.935	11.365	0.484
381.000	261.662	79.999	19.995	103.270	19.933	11.457	0.510
381.500	261.886	80.000	19.995	103.271	19.927	11.838	0.504
382.000	262.113	79.999	19.995	103.271	19.929	11.730	0.469
382.500	262.380	80.001	19.997	103.272	19.926	11.906	0.473
383.000	262.634	80.001	19.995	103.275	19.924	12.035	0.508
383.500	262.884	80.001	19.996	103.278	19.924	12.074	0.513
384.000	263.147	80.001	19.997	103.277	19.922	12.223	0.508
384.500	263.438	80.001	19.995	103.277	19.922	12.187	0.533
385.000	263.639	80.002	19.995	103.275	19.918	12.462	0.523
385.500	263.929	80.000	19.995	103.275	19.918	12.457	0.491
386.000	264.150	79.999	19.996	103.275	19.913	12.765	0.501
386.500	264.432	80.000	19.995	103.277	19.914	12.734	0.507
387.000	264.667	80.002	19.995	103.283	19.912	12.853	0.510
387.500	264.920	80.001	19.995	103.284	19.910	12.966	0.503
388.000	265.163	80.000	19.995	103.288	19.908	13.143	0.492
388.500	265.405	80.001	19.997	103.290	19.908	13.144	0.490
389.000	265.690	80.002	19.995	103.288	19.906	13.262	0.506
389.500	265.920	80.000	19.996	103.286	19.901	13.562	0.521
390.000	266.145	80.001	19.995	103.288	19.898	13.773	0.485
390.500	266.419	80.000	19.995	103.288	19.898	13.790	0.477
391.000	266.645	80.001	19.995	103.291	19.895	13.964	0.500
391.500	266.905	80.002	19.995	103.297	19.895	13.973	0.493
392.000	267.144	79.999	19.996	103.299	19.892	14.141	0.492
392.500	267.423	80.001	19.996	103.304	19.890	14.279	0.508
393.000	267.645	79.999	19.996	103.305	19.885	14.594	0.510
393.500	267.910	80.002	19.996	103.304	19.887	14.490	0.494
394.000	268.156	80.000	19.995	103.303	19.883	14.775	0.499
394.500	268.446	80.001	19.995	103.303	19.880	14.927	0.523
395.000	268.687	79.999	19.994	103.303	19.879	15.033	0.534
395.500	268.903	80.000	19.996	103.303	19.878	15.078	0.494
396.000	269.149	80.001	19.995	103.303	19.876	15.234	0.460
396.500	269.412	79.999	19.995	103.304	19.872	15.490	0.485
397.000	269.643	80.001	19.995	103.303	19.872	15.499	0.501
397.500	269.963	79.999	19.996	103.302	19.868	15.733	0.523
398.000	270.204	80.000	19.995	103.302	19.864	16.020	0.556
398.500	270.437	80.000	19.996	103.303	19.865	15.950	0.517
399.000	270.701	80.000	19.996	103.303	19.861	16.203	0.486
399.500	270.938	80.000	19.995	103.305	19.861	16.221	0.499
400.000	271.234	79.999	19.996	103.306	19.856	16.495	0.517
400.500	271.481	80.000	19.995	103.307	19.856	16.549	0.538
401.000	271.699	79.999	19.996	103.307	19.854	16.635	0.504
401.500	271.984	80.000	19.996	103.307	19.848	17.075	0.484
402.000	272.239	80.000	19.996	103.307	19.849	16.953	0.522
402.500	272.469	80.000	19.996	103.307	19.844	17.285	0.513
403.000	272.770	79.999	19.995	103.307	19.845	17.209	0.507
403.500	272.983	80.000	19.995	103.308	19.844	17.312	0.522
404.000	273.239	79.999	19.996	103.310	19.841	17.508	0.492
404.500	273.445	80.000	19.996	103.310	19.839	17.619	0.466
405.000	273.720	79.999	19.997	103.310	19.836	17.808	0.471
405.500	273.990	79.998	19.996	103.310	19.834	17.983	0.513
406.000	274.242	79.999	19.996	103.312	19.831	18.134	0.534
406.500	274.484	79.997	19.996	103.309	19.826	18.477	0.509
407.000	274.731	79.999	19.997	103.310	19.825	18.571	0.492
407.500	275.023	79.999	19.997	103.309	19.825	18.581	0.514
408.000	275.209	79.998	19.996	103.309	19.820	18.881	0.508
408.500	275.436	79.998	19.997	103.310	19.818	19.001	0.445
409.000	275.728	79.998	19.996	103.310	19.817	19.072	0.466
409.500	275.984	79.999	19.998	103.311	19.815	19.204	0.533
410.000	276.246	79.999	19.995	103.311	19.811	19.442	0.533
410.500	276.475	79.999	19.995	103.312	19.810	19.569	0.504
411.000	276.740	79.998	19.996	103.312	19.807	19.755	0.492
411.500	276.988	79.999	19.996	103.313	19.802	20.046	0.503
412.001	277.221	79.998	19.996	103.313	19.802	20.085	0.497
412.500	277.487	79.999	19.996	103.315	19.796	20.444	0.490
413.000	277.738	79.999	19.995	103.316	19.796	20.478	0.508
413.500	277.999	79.999	19.995	103.314	19.796	20.449	0.515
414.000	278.237	80.001	19.995	103.314	19.793	20.630	0.505
414.500	278.517	79.999	19.995	103.316	19.790	20.876	0.509
415.000	278.736	80.000	19.997	103.318	19.787	21.018	0.509
415.500	278.989	80.001	19.996	103.319	19.785	21.203	0.486
416.000	279.250	80.001	19.996	103.318	19.781	21.431	0.493
416.500	279.467	80.001	19.996	103.318	19.779	21.585	0.496
417.000	279.769	80.002	19.995	103.321	19.778	21.619	0.498
417.500	280.004	80.002	19.995	103.322	19.777	21.716	0.528
418.000	280.250	80.002	19.997	103.322	19.776	21.747	0.509
418.500	280.528	80.001	19.996	103.322	19.772	22.014	0.502
419.000	280.764	80.001	19.996	103.321	19.768	22.276	0.519
419.500	281.020	80.002	19.996	103.319	19.768	22.315	0.503
420.000	281.245	80.001	19.994	103.319	19.764	22.532	0.487
420.500	281.507	80.002	19.996	103.323	19.766	22.429	0.484
421.000	281.736	80.001	19.996	103.330	19.765	22.482	0.488
421.500	281.993	80.002	19.996	103.338	19.760	22.832	0.488
422.000	282.236	80.005	19.996	103.342	19.755	23.116	0.493
422.500	282.501	80.002	19.996	103.342	19.757	23.020	0.505
423.000	282.744	80.002	19.995	103.342	19.753	23.304	0.508
423.500	283.000	80.000	19.996	103.341	19.750	23.476	0.503
424.000	283.230	80.001	19.995	103.340	19.749	23.564	0.493
424.500	283.542	80.002	19.996	103.339	19.747	23.680	0.514
425.000	283.782	80.002	19.996	103.339	19.741	24.043	0.546
425.500	284.012	80.002	19.996	103.340	19.741	24.053	0.511
426.000	284.267	80.002	19.995	103.340	19.740	24.150	0.478
426.500	284.479	80.001	19.996	103.341	19.736	24.377	0.476
427.000	284.739	80.001	19.995	103.342	19.735	24.432	0.470
427.500	285.003	80.001	19.996	103.343	19.731	24.725	0.498
428.000	285.241	79.999	19.996	103.343	19.730	24.789	0.513
428.500	285.494	80.000	19.997	103.343	19.729	24.850	0.496
429.000	285.741	80.001	19.997	103.343	19.728	24.893	0.495
429.500	286.022	80.000	19.995	103.343	19.725	25.075	0.514
430.000	286.273	80.001	19.997	103.343	19.721	25.366	0.530
430.500	286.507	80.000	19.997	103.341	19.722	25.278	0.508
431.000	286.780	80.001	19.997	103.339	19.719	25.508	0.496
431.500	287.028	80.001	19.997	103.335	19.720	25.455	0.514
432.000	287.289	80.000	19.996	103.334	19.715	25.795	0.515
432.500	287.551	80.001	19.995	103.334	19.716	25.721	0.516
433.000	287.765	80.001	19.996	103.335	19.713	25.922	0.500
433.500	288.033	80.001	19.997	103.333	19.706	26.328	0.479
434.000	288.288	80.001	19.997	103.333	19.708	26.235	0.502
434.500	288.532	80.000	19.996	103.332	19.705	26.430	0.511
435.000	288.822	80.000	19.997	103.333	19.702	26.596	0.516
435.500	289.061	80.001	19.997	103.331	19.703	26.576	0.532
436.000	289.313	80.000	19.998	103.334	19.702	26.609	0.511
436.500	289.584	80.002	19.997	103.339	19.701	26.652	0.507
437.000	289.797	80.002	19.996	103.339	19.698	26.874	0.503
437.500	290.053	80.002	19.996	103.333	19.697	26.935	0.476
438.000	290.304	80.001	19.997	103.332	19.697	26.923	0.488
438.500	290.554	80.001	19.997	103.329	19.693	27.199	0.504
439.000	290.853	80.001	19.996	103.326	19.690	27.375	0.525
439.500	291.083	80.000	19.996	103.324	19.689	27.452	0.539
440.000	291.320	80.002	19.997	103.326	19.692	27.270	0.498
440.500	291.579	80.002	19.996	103.327	19.686	27.632	0.482
441.000	291.845	80.001	19.996	103.329	19.687	27.574	0.511
441.500	292.095	80.001	19.996	103.330	19.684	27.780	0.521
442.000	292.368	80.002	19.994	103.332	19.683	27.875	0.519
442.500	292.594	80.003	19.996	103.335	19.683	27.838	0.510
443.000	292.831	80.003	19.996	103.336	19.679	28.150	0.481
443.500	293.128	80.003	19.997	103.335	19.679	28.126	0.499
444.000	293.328	80.002	19.996	103.336	19.680	28.066	0.515
444.501	293.620	80.003	19.996	103.337	19.675	28.373	0.494
445.000	293.849	80.003	19.995	103.338	19.676	28.315	0.506
445.500	294.096	80.003	19.996	103.338	19.678	28.187	0.499
446.000	294.337	80.005	19.996	103.339	19.676	28.347	0.482
446.500	294.620	80.004	19.995	103.340	19.674	28.478	0.506
447.000	294.882	80.003	19.996	103.340	19.673	28.506	0.535
447.500	295.089	80.002	19.995	103.341	19.669	28.776	0.507
448.000	295.315	80.004	19.995	103.341	19.672	28.585	0.451
448.500	295.579	80.003	19.995	103.341	19.668	28.831	0.462
449.000	295.833	80.002	19.995	103.341	19.668	28.822	0.504
449.500	296.118	80.002	19.995	103.341	19.666	29.003	0.528
450.000	296.407	80.003	19.994	103.340	19.667	28.934	0.557
450.500	296.606	80.001	19.994	103.339	19.665	29.011	0.531
451.000	296.881	80.002	19.996	103.337	19.662	29.230	0.481
451.500	297.137	80.002	19.996	103.337	19.662	29.209	0.503
452.000	297.366	80.000	19.995	103.334	19.660	29.362	0.508
452.500	297.576	80.001	19.994	103.332	19.662	29.245	0.462
453.000	297.836	80.001	19.994	103.333	19.658	29.494	0.454
453.500	298.093	80.000	19.994	103.336	19.658	29.490	0.493
454.000	298.361	80.001	19.994	103.336	19.657	29.548	0.521
454.500	298.610	80.000	19.994	103.339	19.655	29.678	0.522
455.000	298.873	80.000	19.994	103.343	19.658	29.507	0.514
455.500	299.119	79.999	19.995	103.342	19.653	29.829	0.510
456.000	299.334	80.000	19.995	103.341	19.654	29.750	0.485
456.500	299.594	79.999	19.994	103.338	19.655	29.698	0.468
457.000	299.841	79.999	19.995	103.333	19.654	29.789	0.491
457.500	300.107	79.999	19.995	103.332	19.654	29.751	0.510
458.000	300.353	79.999	19.994	103.332	19.652	29.925	0.512
458.500	300.599	79.999	19.994	103.335	19.653	29.837	0.502
459.000	300.845	79.999	19.995	103.339	19.650	30.000	0.492
459.500	301.080	80.000	19.995	103.344	19.651	29.979	0.487
460.000	301.314	79.999	19.996	103.343	19.652	29.892	0.475
460.500	301.567	80.000	19.995	103.343	19.652	29.924	0.478
461.000	301.844	79.999	19.995	103.342	19.650	30.024	0.508
461.500	302.083	80.000	19.995	103.342	19.649	30.112	0.523
462.000	302.346	80.000	19.995	103.342	19.650	30.006	0.509
462.500	302.553	79.998	19.995	103.344	19.647	30.220	0.486
463.000	302.823	80.000	19.994	103.343	19.645	30.338	0.473
463.500	303.047	80.000	19.995	103.343	19.649	30.116	0.486
464.000	303.317	80.000	19.995	103.340	19.648	30.186	0.494
464.500	303.592	79.999	19.995	103.335	19.649	30.089	0.519
465.000	303.830	80.000	19.995	103.335	19.644	30.428	0.529
465.500	304.075	80.000	19.995	103.337	19.644	30.392	0.498
466.000	304.319	80.001	19.995	103.336	19.644	30.399	0.486
466.500	304.532	79.999	19.996	103.339	19.645	30.381	0.473
467.000	304.800	79.999	19.996	103.344	19.641	30.594	0.469
467.500	305.023	79.999	19.996	103.344	19.641	30.591	0.486
468.000	305.286	80.000	19.994	103.343	19.640	30.709	0.488
468.500	305.533	79.999	19.995	103.343	19.637	30.905	0.498
469.000	305.758	80.001	19.994	103.343	19.641	30.618	0.491
469.500	306.036	80.000	19.996	103.343	19.638	30.805	0.488
470.000	306.283	79.999	19.995	103.343	19.635	31.034	0.514
470.500	306.544	80.001	19.994	103.345	19.636	30.915	0.516
471.000	306.755	80.000	19.995	103.346	19.637	30.876	0.489
471.500	306.986	79.999	19.996	103.345	19.633	31.168	0.457
472.000	307.261	80.000	19.995	103.345	19.633	31.130	0.475
472.500	307.509	80.000	19.995	103.345	19.637	30.908	0.515
473.000	307.747	80.002	19.996	103.344	19.634	31.088	0.504
473.500	307.975	80.000	19.995	103.344	19.633	31.127	0.476
474.000	308.304	80.000	19.995	103.344	19.632	31.176	0.511
474.500	308.487	80.002	19.995	103.344	19.630	31.338	0.534
475.000	308.780	80.001	19.994	103.344	19.632	31.181	0.494
475.500	308.985	80.000	19.995	103.345	19.630	31.339	0.488
476.000	309.242	80.001	19.995	103.346	19.629	31.431	0.480
476.500	309.490	79.999	19.995	103.345	19.632	31.226	0.483
477.000	309.731	80.001	19.994	103.345	19.628	31.499	0.497
477.500	310.013	80.000	19.995	103.345	19.626	31.613	0.506
478.000	310.271	80.000	19.996	103.343	19.624	31.753	0.532
478.500	310.470	80.000	19.994	103.342	19.626	31.588	0.499
479.000	310.707	80.001	19.995	103.343	19.623	31.821	0.446
479.500	310.976	80.000	19.996	103.343	19.626	31.584	0.471
480.000	311.230	80.001	19.994	103.343	19.624	31.702	0.514
480.500	311.472	80.001	19.995	103.345	19.618	32.096	0.510
481.000	311.715	79.999	19.995	103.344	19.622	31.879	0.490
481.500	311.942	80.000	19.994	103.342	19.624	31.750	0.477
482.000	312.203	80.000	19.995	103.342	19.621	31.955	0.479
482.500	312.454	80.001	19.995	103.341	19.620	32.013	0.500
483.000	312.748	79.999	19.995	103.341	19.618	32.095	0.528
483.500	312.919	80.000	19.996	103.343	19.619	32.050	0.505
484.000	313.198	80.000	19.994	103.343	19.616	32.286	0.458
484.500	313.472	79.999	19.995	103.344	19.617	32.178	0.501
485.000	313.665	79.999	19.996	103.344	19.617	32.175	0.510
485.500	313.946	80.000	19.996	103.344	19.615	32.340	0.470
486.000	314.193	80.001	19.996	103.344	19.615	32.342	0.501
486.500	314.459	80.000	19.996	103.344	19.613	32.419	0.521
487.000	314.686	79.999	19.996	103.344	19.610	32.627	0.503
487.500	314.898	80.000	19.996	103.344	19.608	32.767	0.466
488.000	315.151	80.000	19.996	103.344	19.605	32.993	0.452
488.500	315.408	79.999	19.996	103.342	19.603	33.090	0.487
489.000	315.641	80.000	19.996	103.340	19.603	33.076	0.500
489.500	315.891	79.999	19.995	103.340	19.602	33.182	0.487
490.000	316.151	80.000	19.995	103.341	19.598	33.454	0.497
490.500	316.416	80.001	19.997	103.340	19.600	33.309	0.517
491.000	316.634	80.000	19.996	103.341	19.599	33.359	0.504
491.500	316.862	80.000	19.996	103.343	19.599	33.391	0.465
492.000	317.114	80.000	19.995	103.344	19.598	33.426	0.462
492.500	317.380	79.999	19.996	103.344	19.594	33.729	0.499
493.000	317.613	80.000	19.995	103.345	19.592	33.829	0.509
493.500	317.861	80.000	19.996	103.345	19.592	33.867	0.490
494.000	318.097	80.001	19.996	103.346	19.589	34.006	0.482
494.500	318.360	80.001	19.995	103.346	19.590	33.945	0.491
495.000	318.602	80.001	19.995	103.346	19.584	34.329	0.502
495.500	318.882	80.001	19.996	103.347	19.584	34.385	0.514
496.000	319.109	80.000	19.995	103.348	19.584	34.383	0.514
496.500	319.337	79.999	19.996	103.348	19.579	34.699	0.481
497.000	319.593	80.001	19.996	103.348	19.577	34.793	0.470
497.500	319.812	79.999	19.996	103.347	19.580	34.595	0.479
498.000	320.032	80.000	19.996	103.347	19.578	34.727	0.457
498.500	320.280	80.002	19.995	103.347	19.574	35.032	0.454
499.000	320.546	80.001	19.996	103.349	19.570	35.255	0.491
499.500	320.799	80.002	19.995	103.348	19.570	35.274	0.516
500.000	321.025	80.002	19.996	103.348	19.568	35.424	0.499
500.500	321.277	80.002	19.996	103.351	19.568	35.443	0.479
501.000	321.536	80.002	19.997	103.351	19.565	35.623	0.495
501.500	321.770	80.001	19.995	103.353	19.561	35.898	0.502
502.000	322.032	80.002	19.995	103.353	19.558	36.041	0.494
502.500	322.252	80.002	19.996	103.357	19.557	36.161	0.489
503.000	322.493	80.002	19.995	103.361	19.555	36.262	0.471
503.500	322.697	80.000	19.996	103.366	19.552	36.438	0.453
504.000	322.956	80.002	19.996	103.369	19.554	36.307	0.454
504.500	323.213	80.001	19.995	103.376	19.549	36.675	0.490
505.000	323.441	80.002	19.996	103.379	19.546	36.824	0.501
505.500	323.728	80.002	19.996	103.379	19.544	36.969	0.500
506.000	323.961	80.003	19.996	103.379	19.540	37.280	0.517
506.500	324.174	80.001	19.995	103.378	19.539	37.350	0.483
507.000	324.425	80.001	19.996	103.378	19.535	37.596	0.455
507.500	324.649	80.002	19.996	103.379	19.532	37.807	0.469
508.000	324.946	80.000	19.995	103.379	19.530	37.923	0.498
508.500	325.183	80.000	19.996	103.380	19.528	38.042	0.528
509.000	325.397	80.002	19.996	103.381	19.526	38.184	0.492
509.500	325.648	80.003	19.994	103.381	19.521	38.482	0.458
510.000	325.893	80.002	19.996	103.381	19.519	38.662	0.481
510.500	326.152	80.001	19.995	103.382	19.519	38.645	0.501
511.000	326.392	80.001	19.995	103.382	19.516	38.806	0.501
511.500	326.659	80.002	19.996	103.382	19.513	39.052	0.502
512.000	326.896	80.001	19.996	103.382	19.512	39.119	0.506
512.500	327.151	80.001	19.996	103.382	19.508	39.341	0.498
513.000	327.359	80.001	19.996	103.383	19.503	39.677	0.478
513.500	327.600	79.999	19.996	103.382	19.501	39.834	0.456
514.000	327.860	80.001	19.996	103.383	19.497	40.091	0.475
514.500	328.103	80.000	19.995	103.383	19.495	40.201	0.501
515.000	328.341	80.001	19.995	103.384	19.494	40.306	0.492
515.500	328.614	80.000	19.996	103.384	19.491	40.489	0.496
516.000	328.838	80.002	19.995	103.387	19.487	40.728	0.504
516.500	329.089	80.002	19.996	103.393	19.486	40.810	0.486
517.000	329.363	80.002	19.994	103.398	19.482	41.059	0.500
517.500	329.604	80.001	19.995	103.403	19.480	41.224	0.520
518.000	329.884	80.001	19.996	103.409	19.475	41.531	0.518
518.500	330.134	80.001	19.995	103.414	19.472	41.748	0.526
519.000	330.369	80.001	19.996	103.415	19.466	42.155	0.507
519.500	330.628	80.001	19.996	103.416	19.463	42.293	0.489
520.000	330.874	80.001	19.995	103.411	19.461	42.449	0.499
520.500	331.117	80.001	19.995	103.406	19.455	42.824	0.497
521.000	331.330	80.000	19.995	103.407	19.452	43.026	0.473
521.500	331.598	80.001	19.996	103.408	19.449	43.237	0.469
522.000	331.832	80.002	19.996	103.408	19.444	43.561	0.491
522.500	332.113	80.002	19.996	103.413	19.441	43.755	0.508
523.000	332.344	80.002	19.996	103.418	19.438	43.970	0.514
523.500	332.613	80.002	19.996	103.417	19.433	44.266	0.506
524.000	332.865	80.002	19.995	103.418	19.429	44.584	0.510
524.500	333.123	80.000	19.996	103.420	19.423	44.946	0.515
525.000	333.371	80.001	19.995	103.421	19.422	45.004	0.508
525.500	333.657	80.002	19.996	103.423	19.418	45.274	0.520
526.000	333.849	80.001	19.995	103.423	19.413	45.591	0.506
526.500	334.117	80.002	19.995	103.423	19.411	45.759	0.469
527.000	334.392	80.001	19.996	103.423	19.407	45.975	0.501
527.500	334.632	80.001	19.996	103.427	19.399	46.556	0.528
528.000	334.907	80.002	19.996	103.429	19.394	46.888	0.515
528.500	335.141	80.003	19.996	103.434	19.390	47.094	0.513
529.000	335.394	80.002	19.996	103.437	19.387	47.352	0.498
529.500	335.654	80.002	19.995	103.442	19.380	47.755	0.499
530.000	335.897	80.000	19.996	103.444	19.375	48.096	0.507
530.500	336.179	80.002	19.996	103.448	19.372	48.289	0.514
531.000	336.399	80.002	19.995	103.448	19.368	48.595	0.514
531.500	336.665	80.000	19.995	103.451	19.362	48.995	0.494
532.000	336.894	80.001	19.996	103.454	19.356	49.353	0.491
532.500	337.161	80.001	19.995	103.455	19.354	49.509	0.496
533.000	337.411	80.000	19.995	103.456	19.346	50.027	0.506
533.500	337.675	80.000	19.996	103.457	19.343	50.226	0.516
534.000	337.950	80.001	19.995	103.459	19.340	50.412	0.527
534.500	338.181	80.000	19.996	103.459	19.331	51.004	0.522
535.000	338.450	80.000	19.995	103.460	19.326	51.339	0.503
535.500	338.727	80.000	19.996	103.461	19.324	51.435	0.523
536.000	338.940	80.000	19.996	103.463	19.320	51.740	0.518
536.500	339.208	80.001	19.995	103.464	19.313	52.171	0.485
537.000	339.465	80.001	19.994	103.465	19.308	52.520	0.503
537.500	339.729	80.000	19.994	103.467	19.302	52.934	0.523
538.000	339.988	80.000	19.994	103.468	19.298	53.151	0.522
538.500	340.237	80.000	19.994	103.469	19.294	53.461	0.515
539.000	340.474	80.000	19.995	103.470	19.291	53.619	0.497
539.500	340.753	80.001	19.995	103.476	19.280	54.357	0.501
540.000	341.006	80.001	19.995	103.482	19.279	54.449	0.524
540.500	341.295	80.001	19.995	103.483	19.273	54.840	0.537
541.000	341.541	80.001	19.995	103.487	19.263	55.504	0.539
541.500	341.786	80.001	19.995	103.491	19.260	55.662	0.513
542.000	342.047	80.001	19.995	103.490	19.257	55.904	0.499
542.500	342.312	80.001	19.995	103.488	19.250	56.331	0.516
543.000	342.539	80.001	19.995	103.493	19.242	56.840	0.509
543.500	342.761	80.001	19.995	103.495	19.236	57.270	0.471
544.000	343.030	80.000	19.994	103.497	19.231	57.608	0.470
544.500	343.293	80.001	19.995	103.499	19.225	58.004	0.511
545.000	343.557	80.001	19.996	103.500	19.223	58.130	0.529
545.500	343.806	79.999	19.995	103.500	19.217	58.520	0.520
546.000	344.075	80.000	19.994	103.498	19.210	58.948	0.516
546.500	344.315	80.002	19.995	103.497	19.203	59.434	0.513
547.000	344.571	80.000	19.995	103.497	19.197	59.855	0.502
547.500	344.841	80.001	19.995	103.496	19.189	60.327	0.511
548.000	345.087	80.000	19.995	103.497	19.187	60.467	0.521
548.500	345.347	80.000	19.997	103.500	19.178	61.082	0.511
549.000	345.624	80.002	19.995	103.504	19.175	61.278	0.522
549.500	345.860	80.002	19.995	103.510	19.165	61.908	0.525
550.000	346.159	80.000	19.996	103.513	19.158	62.366	0.524
550.500	346.417	80.002	19.995	103.515	19.154	62.676	0.546
551.000	346.660	80.000	19.995	103.519	19.149	62.964	0.529
551.500	346.935	80.000	19.995	103.515	19.146	63.215	0.509
552.000	347.147	80.001	19.995	103.517	19.138	63.736	0.502
552.500	347.432	80.000	19.996	103.522	19.131	64.194	0.492
553.000	347.697	80.001	19.995	103.528	19.125	64.550	0.523
553.500	347.925	80.000	19.995	103.531	19.117	65.072	0.522
554.000	348.192	80.001	19.995	103.538	19.116	65.168	0.494
554.500	348.440	80.001	19.995	103.538	19.108	65.688	0.505
555.000	348.695	80.001	19.995	103.538	19.103	66.030	0.509
555.500	348.950	79.999	19.996	103.538	19.096	66.475	0.507
556.000	349.242	80.000	19.996	103.539	19.093	66.692	0.529
556.500	349.516	80.000	19.995	103.539	19.082	67.375	0.556
557.000	349.776	80.000	19.995	103.539	19.080	67.504	0.550
557.500	350.016	80.001	19.995	103.541	19.074	67.901	0.517
558.000	350.254	80.001	19.995	103.542	19.066	68.484	0.489
558.500	350.524	80.000	19.996	103.542	19.061	68.774	0.493
559.000	350.795	80.001	19.997	103.548	19.051	69.436	0.525
559.500	351.048	80.001	19.996	103.552	19.050	69.475	0.532
560.000	351.287	80.001	19.995	103.555	19.043	69.966	0.508
560.500	351.533	80.000	19.996	103.555	19.036	70.405	0.489
561.000	351.813	80.000	19.996	103.554	19.029	70.914	0.506
561.500	352.057	80.000	19.995	103.552	19.025	71.176	0.525
562.000	352.302	80.000	19.995	103.554	19.021	71.404	0.507
562.500	352.563	80.000	19.996	103.555	19.012	72.024	0.497
563.000	352.834	80.001	19.995	103.561	19.007	72.306	0.519
563.500	353.108	80.002	19.996	103.569	19.003	72.614	0.539
564.000	353.359	79.999	19.995	103.572	18.996	73.037	0.535
564.500	353.581	80.000	19.994	103.575	18.988	73.604	0.499
565.000	353.853	80.001	19.996	103.576	18.984	73.846	0.484
565.500	354.154	79.999	19.996	103.577	18.982	73.995	0.534
566.000	354.383	80.001	19.995	103.577	18.974	74.466	0.551
566.500	354.674	80.000	19.995	103.578	18.970	74.773	0.525
567.000	354.933	80.000	19.995	103.578	18.962	75.254	0.535
567.500	355.177	80.001	19.995	103.578	18.959	75.490	0.526
568.000	355.443	79.999	19.996	103.578	18.956	75.647	0.507
568.500	355.683	80.000	19.995	103.578	18.951	76.026	0.508
569.000	355.926	80.000	19.995	103.578	18.945	76.383	0.495
569.500	356.210	79.999	19.995	103.579	18.943	76.515	0.506
570.000	356.442	80.000	19.995	103.580	18.936	76.963	0.521
570.500	356.709	80.001	19.996	103.579	18.932	77.226	0.507
571.000	356.958	80.001	19.995	103.579	18.928	77.498	0.507
571.500	357.210	80.000	19.995	103.579	18.921	77.999	0.509
572.000	357.456	79.999	19.995	103.579	18.917	78.273	0.500
572.500	357.759	80.001	19.996	103.578	18.913	78.487	0.524
573.000	357.984	80.000	19.995	103.581	18.910	78.720	0.538
573.500	358.255	80.001	19.996	103.582	18.906	78.934	0.512
574.000	358.524	80.001	19.994	103.582	18.902	79.258	0.518
574.500	358.758	80.000	19.995	103.582	18.900	79.349	0.521
575.000	358.969	80.001	19.996	103.583	18.895	79.702	0.474
575.500	359.249	80.003	19.995	103.581	18.891	79.930	0.468
576.000	359.512	80.001	19.995	103.580	18.891	79.977	0.517
576.500	359.804	80.001	19.994	103.580	18.885	80.348	0.549
577.000	360.033	80.002	19.995	103.582	18.881	80.630	0.538
577.500	360.297	80.000	19.995	103.581	18.878	80.786	0.507
578.000	360.561	80.001	19.995	103.580	18.873	81.127	0.510
578.500	360.810	80.002	19.995	103.581	18.875	81.011	0.521
579.000	361.066	80.003	19.995	103.581	18.872	81.168	0.509
579.500	361.319	80.001	19.995	103.581	18.868	81.449	0.507
580.000	361.564	80.001	19.995	103.582	18.864	81.689	0.504
580.500	361.837	80.001	19.994	103.583	18.866	81.595	0.508
581.000	362.073	80.001	19.995	103.584	18.862	81.859	0.513
581.500	362.356	80.002	19.995	103.584	18.858	82.065	0.514
582.000	362.634	80.001	19.994	103.582	18.859	82.018	0.540
582.500	362.851	80.001	19.994	103.581	18.855	82.278	0.528
583.000	363.139	80.002	19.996	103.581	18.854	82.366	0.501
583.500	363.360	80.002	19.994	103.582	18.855	82.281	0.507
584.000	363.660	80.001	19.994	103.583	18.852	82.449	0.515
584.500	363.928	80.001	19.995	103.583	18.852	82.488	0.544
585.000	364.167	80.002	19.994	103.583	18.850	82.585	0.538
585.500	364.363	80.002	19.995	103.582	18.850	82.601	0.471
586.000	364.638	80.001	19.995	103.581	18.852	82.468	0.453
586.500	364.911	80.002	19.996	103.580	18.852	82.487	0.509
587.000	365.171	79.999	19.995	103.579	18.852	82.487	0.541
587.500	365.430	80.002	19.995	103.574	18.850	82.612	0.526
588.000	365.720	80.001	19.994	103.571	18.849	82.617	0.534
588.500	365.949	80.001	19.996	103.571	18.854	82.326	0.534
589.000	366.204	80.002	19.996	103.572	18.856	82.164	0.501
589.500	366.478	80.002	19.995	103.571	18.855	82.232	0.507
590.000	366.706	80.001	19.996	103.569	18.857	82.098	0.515
590.500	366.962	80.001	19.996	103.570	18.860	81.904	0.493
591.000	367.207	80.000	19.995	103.564	18.860	81.886	0.493
591.500	367.480	80.002	19.997	103.561	18.863	81.702	0.510
592.000	367.726	80.000	19.995	103.555	18.865	81.592	0.519
592.500	368.052	80.001	19.995	103.552	18.870	81.222	0.545
593.000	368.273	80.001	19.996	103.546	18.873	81.035	0.559
593.500	368.503	80.001	19.996	103.545	18.877	80.754	0.499
594.000	368.760	80.001	19.995	103.540	18.880	80.604	0.469
594.500	369.037	80.001	19.996	103.540	18.882	80.410	0.510
595.000	369.286	80.001	19.996	103.541	18.890	79.918	0.530
595.500	369.549	80.001	19.996	103.541	18.893	79.707	0.519
596.000	369.801	80.000	19.996	103.540	18.899	79.304	0.514
596.500	370.050	80.000	19.996	103.538	18.902	79.138	0.508
597.000	370.340	80.001	19.995	103.531	18.906	78.832	0.520
597.500	370.558	80.001	19.995	103.524	18.910	78.547	0.524
598.000	370.799	80.001	19.995	103.516	18.916	78.209	0.483
598.500	371.080	80.001	19.996	103.509	18.922	77.813	0.490
599.000	371.343	80.001	19.995	103.504	18.928	77.397	0.533
599.500	371.532	80.001	19.995	103.504	18.932	77.134	0.498
600.000	371.873	80.001	19.996	103.504	18.941	76.527	0.491
600.500	372.121	80.001	19.995	103.503	18.948	76.022	0.560
601.000	372.374	80.001	19.995	103.502	18.950	75.894	0.545
601.500	372.642	80.001	19.995	103.498	18.961	75.200	0.511
602.000	372.896	80.002	19.994	103.491	18.969	74.639	0.522
602.500	373.190	80.001	19.995	103.485	18.979	74.010	0.535
603.000	373.423	80.002	19.995	103.478	18.987	73.491	0.537
603.500	373.723	80.003	19.995	103.471	18.997	72.811	0.530
604.000	373.968	80.003	19.995	103.467	19.005	72.295	0.539
604.500	374.206	80.003	19.995	103.465	19.014	71.682	0.514
605.000	374.468	80.001	19.995	103.460	19.025	70.959	0.491
605.500	374.711	80.003	19.995	103.455	19.031	70.616	0.502
606.000	374.946	80.003	19.995	103.448	19.043	69.807	0.492
606.500	375.223	80.001	19.995	103.440	19.052	69.200	0.495
607.000	375.466	80.004	19.995	103.432	19.063	68.499	0.516
607.500	375.750	80.004	19.995	103.427	19.075	67.697	0.524
608.000	376.007	80.001	19.996	103.423	19.084	67.117	0.533
608.500	376.272	80.005	19.996	103.422	19.093	66.510	0.531
609.000	376.501	80.005	19.995	103.418	19.103	65.848	0.508
609.500	376.796	80.002	19.995	103.413	19.115	65.041	0.509
610.000	377.020	80.003	19.995	103.406	19.127	64.270	0.521
610.500	377.273	80.003	19.995	103.397	19.139	63.477	0.498
611.000	377.525	80.003	19.996	103.385	19.153	62.579	0.491
611.500	377.760	80.002	19.995	103.374	19.161	62.047	0.496
612.000	378.030	80.004	19.995	103.369	19.176	61.066	0.496
612.500	378.284	80.002	19.996	103.364	19.189	60.215	0.515
613.000	378.538	80.004	19.995	103.358	19.199	59.513	0.516
613.500	378.795	80.002	19.996	103.355	19.212	58.712	0.509
614.000	379.032	80.002	19.995	103.357	19.226	57.749	0.502
614.500	379.257	80.002	19.996	103.351	19.237	57.035	0.478
615.000	379.542	80.001	19.996	103.347	19.252	56.032	0.486
615.500	379.795	80.001	19.996	103.346	19.266	55.116	0.524
616.000	380.058	80.000	19.996	103.346	19.278	54.355	0.527
616.500	380.305	80.000	19.996	103.338	19.294	53.321	0.513
617.000	380.575	80.000	19.996	103.336	19.304	52.640	0.514
617.500	380.840	80.000	19.997	103.329	19.322	51.463	0.526
618.000	381.082	80.000	19.997	103.321	19.332	50.786	0.521
618.500	381.327	80.000	19.996	103.314	19.348	49.759	0.497
619.000	381.568	80.001	19.996	103.309	19.368	48.471	0.486
619.500	381.834	80.000	19.997	103.304	19.379	47.734	0.496
620.000	382.092	79.999	19.996	103.300	19.392	46.883	0.515
620.500	382.352	80.001	19.996	103.300	19.406	45.983	0.521
621.000	382.578	79.999	19.997	103.300	19.422	44.885	0.502
621.500	382.840	80.000	19.996	103.294	19.433	44.183	0.488
622.000	383.064	79.999	19.995	103.292	19.449	43.170	0.487
622.500	383.343	80.000	19.996	103.290	19.463	42.263	0.494
623.000	383.598	80.000	19.997	103.287	19.475	41.436	0.519
623.500	383.866	80.001	19.996	103.280	19.488	40.613	0.529
624.000	384.104	80.000	19.996	103.278	19.502	39.674	0.514
624.500	384.374	80.000	19.996	103.273	19.513	38.939	0.507
625.000	384.596	80.000	19.995	103.267	19.528	37.974	0.500
625.500	384.840	80.001	19.995	103.262	19.542	37.074	0.479
626.000	385.092	80.001	19.997	103.261	19.553	36.312	0.481
626.500	385.343	80.000	19.995	103.257	19.568	35.354	0.500
627.000	385.630	79.999	19.995	103.252	19.582	34.415	0.520
627.500	385.915	79.999	19.995	103.246	19.596	33.521	0.554
628.000	386.106	80.002	19.996	103.240	19.604	32.980	0.524
628.500	386.387	80.000	19.994	103.233	19.620	31.921	0.474
629.000	386.654	80.002	19.995	103.231	19.633	31.079	0.510
629.500	386.907	80.001	19.996	103.228	19.644	30.355	0.534
630.000	387.162	80.001	19.995	103.229	19.652	29.843	0.515
630.500	387.430	80.001	19.995	103.229	19.668	28.776	0.516
631.000	387.713	80.002	19.995	103.228	19.683	27.803	0.537
631.500	387.916	80.002	19.995	103.228	19.692	27.236	0.518
632.000	388.176	80.001	19.995	103.229	19.702	26.585	0.475
632.500	388.474	80.001	19.995	103.228	19.710	26.025	0.510
633.000	388.715	80.001	19.995	103.227	19.723	25.208	0.548
633.500	389.008	80.001	19.994	103.227	19.735	24.442	0.537
634.000	389.235	80.002	19.994	103.224	19.745	23.759	0.528
634.500	389.451	80.001	19.994	103.224	19.751	23.377	0.482
635.000	389.731	80.002	19.995	103.218	19.765	22.455	0.469
635.500	389.982	80.002	19.995	103.212	19.777	21.660	0.513
636.000	390.204	80.000	19.994	103.209	19.786	21.097	0.502
636.500	390.531	80.002	19.995	103.210	19.785	21.172	0.511
637.000	390.704	80.001	19.994	103.209	19.804	19.915	0.525
637.500	390.967	80.003	19.995	103.211	19.813	19.285	0.468
638.000	391.266	80.002	19.995	103.210	19.825	18.531	0.499
638.500	391.549	80.002	19.995	103.205	19.824	18.578	0.572
639.000	391.729	80.003	19.994	103.202	19.825	18.512	0.523
639.500	391.971	80.003	19.996	103.199	19.837	17.774	0.443
640.000	392.318	80.001	19.997	103.200	19.848	17.055	0.505
640.500	392.530	80.001	19.996	103.201	19.849	16.931	0.574
641.000	392.793	80.002	19.996	103.203	19.852	16.757	0.517
641.500	393.033	80.000	19.995	103.199	19.867	15.755	0.489
642.000	393.294	80.002	19.996	103.198	19.877	15.146	0.502
642.500	393.635	80.001	19.996	103.194	19.879	14.990	0.551
643.000	393.842	80.001	19.996	103.194	19.883	14.747	0.575
643.500	394.082	80.001	19.996	103.196	19.892	14.161	0.497
644.000	394.377	80.001	19.996	103.196	19.893	14.071	0.491
644.500	394.639	80.000	19.996	103.193	19.897	13.835	0.546
645.000	394.918	80.000	19.995	103.193	19.901	13.537	0.549
645.500	395.133	80.000	19.995	103.198	19.907	13.150	0.518
646.000	395.363	80.001	19.995	103.202	19.916	12.568	0.470
646.500	395.609	79.999	19.994	103.202	19.918	12.473	0.460
647.000	395.848	80.000	19.994	103.203	19.922	12.158	0.480
647.500	396.222	80.001	19.996	103.203	19.926	11.946	0.549
648.000	396.339	80.001	19.995	103.196	19.928	11.801	0.552
648.500	396.658	80.001	19.996	103.191	19.932	11.559	0.463
649.000	396.909	80.001	19.995	103.192	19.934	11.380	0.503
649.500	397.191	80.000	19.996	103.193	19.936	11.235	0.551
650.000	397.512	80.001	19.997	103.194	19.939	11.058	0.568
650.500	397.649	80.000	19.995	103.194	19.943	10.810	0.531
651.000	398.087	80.000	19.996	103.192	19.947	10.578	0.516
651.500	398.101	79.999	19.995	103.191	19.949	10.406	0.513
652.000	398.447	80.000	19.995	103.191	19.949	10.425	0.406
652.500	398.984	80.000	19.995	103.189	19.954	10.119	0.621
653.000	398.860	80.000	19.995	103.188	19.956	9.982	0.648
653.500	398.890	80.000	19.996	103.188	19.960	9.665	0.160
654.000	399.587	80.001	19.995	103.188	19.957	9.878	0.316
654.500	399.649	80.000	19.996	103.188	19.962	9.562	0.743
655.000	399.743	80.001	19.996	103.189	19.966	9.279	0.458
655.500	400.155	80.000	19.996	103.189	19.965	9.389	0.331
656.000	400.458	80.001	19.997	103.189	19.967	9.247	0.611
656.500	400.769	80.001	19.995	103.188	19.967	9.233	0.664
657.000	400.941	80.001	19.997	103.186	19.969	9.128	0.549
657.500	401.217	80.000	19.996	103.187	19.975	8.738	0.466
658.000	401.440	80.002	19.996	103.188	19.971	8.962	0.473
658.500	401.700	80.001	19.995	103.187	19.974	8.777	0.491
659.000	401.993	80.001	19.995	103.187	19.973	8.840	0.518
659.500	402.204	80.002	19.995	103.188	19.977	8.578	0.528
660.000	402.520	80.001	19.994	103.188	19.977	8.591	0.515
660.500	402.728	80.001	19.995	103.187	19.977	8.582	0.526
661.000	403.027	80.002	19.996	103.187	19.981	8.347	0.516
661.500	403.206	80.002	19.995	103.188	19.982	8.232	0.493
662.000	403.530	80.003	19.994	103.189	19.984	8.146	0.491
662.500	403.741	80.003	19.994	103.188	19.984	8.114	0.519
663.000	403.954	80.003	19.994	103.188	19.982	8.277	0.479
663.500	404.225	80.002	19.994	103.187	19.983	8.200	0.454
664.000	404.501	80.002	19.994	103.185	19.982	8.245	0.515
664.500	404.718	80.002	19.994	103.183	19.983	8.218	0.520
665.000	404.926	80.001	19.997	103.179	19.983	8.202	0.459
665.500	405.209	80.003	19.996	103.175	19.982	8.270	0.458
666.000	405.479	80.003	19.996	103.174	19.983	8.166	0.522
666.500	405.692	80.002	19.995	103.177	19.985	8.065	0.518
667.000	405.952	80.004	19.994	103.179	19.987	7.956	0.479
667.500	406.242	80.003	19.994	103.184	19.987	7.958	0.512
668.000	406.446	80.002	19.995	103.188	19.988	7.892	0.522
668.500	406.695	80.003	19.996	103.189	19.990	7.763	0.474
669.000	406.979	80.002	19.994	103.188	19.990	7.761	0.493
669.500	407.203	80.003	19.996	103.188	19.988	7.865	0.520
670.000	407.447	80.002	19.995	103.188	19.987	7.897	0.488
670.500	407.665	80.002	19.995	103.189	19.991	7.664	0.465
671.000	407.935	80.003	19.994	103.190	19.995	7.433	0.476
671.500	408.248	80.002	19.995	103.190	19.990	7.757	0.535
672.000	408.459	80.003	19.995	103.189	19.992	7.596	0.553
672.500	408.709	80.001	19.995	103.188	19.993	7.535	0.492
673.000	408.962	80.002	19.996	103.187	19.992	7.591	0.482
673.500	409.184	80.002	19.994	103.186	19.993	7.514	0.489
674.000	409.463	80.001	19.996	103.185	19.994	7.498	0.488
674.500	409.676	80.001	19.995	103.186	19.994	7.473	0.497
675.000	409.928	80.001	19.996	103.187	19.994	7.444	0.478
675.500	410.237	80.003	19.995	103.186	19.995	7.381	0.513
676.000	410.449	80.002	19.996	103.187	19.997	7.284	0.541
676.500	410.720	80.002	19.995	103.187	19.996	7.309	0.502
677.000	410.941	80.003	19.996	103.185	19.994	7.463	0.488
677.500	411.210	80.002	19.996	103.184	19.994	7.453	0.491
678.000	411.426	80.002	19.995	103.183	19.997	7.290	0.487
678.500	411.684	80.001	19.995	103.182	19.996	7.326	0.479
679.000	411.918	80.002	19.995	103.182	19.999	7.143	0.484
679.500	412.159	80.000	19.995	103.183	19.997	7.263	0.484
680.000	412.434	80.001	19.996	103.182	19.999	7.134	0.495
680.500	412.675	80.002	19.995	103.182	19.998	7.236	0.516
681.000	412.932	80.002	19.995	103.181	19.997	7.304	0.507
681.500	413.163	80.002	19.996	103.181	20.000	7.095	0.493
682.000	413.395	80.002	19.995	103.181	20.000	7.048	0.475
682.500	413.608	80.004	19.996	103.183	20.000	7.069	0.454
683.000	413.877	80.002	19.995	103.184	19.998	7.186	0.463
683.500	414.110	80.002	19.995	103.186	20.002	6.939	0.492
684.000	414.387	80.002	19.996	103.186	19.998	7.204	0.506
684.500	414.639	80.003	19.996	103.186	20.000	7.062	0.519
685.000	414.866	80.003	19.996	103.186	20.002	6.944	0.504
685.500	415.097	80.003	19.995	103.185	20.001	6.996	0.469
686.000	415.323	80.003	19.995	103.184	20.001	6.989	0.457
686.500	415.638	80.003	19.995	103.183	20.000	7.080	0.499
687.000	415.864	80.005	19.995	103.182	20.000	7.048	0.541
687.500	416.060	80.004	19.995	103.182	20.003	6.905	0.482
688.000	416.363	80.004	19.995	103.184	20.003	6.862	0.460
688.500	416.565	80.004	19.995	103.184	20.003	6.899	0.501
689.000	416.869	80.003	19.994	103.184	20.002	6.933	0.506
689.500	417.086	80.004	19.995	103.185	20.000	7.044	0.514
690.000	417.348	80.003	19.996	103.183	20.004	6.790	0.500
690.500	417.574	80.002	19.995	103.183	20.004	6.806	0.484
691.000	417.840	80.004	19.995	103.184	20.004	6.813	0.491
691.500	418.092	80.004	19.995	103.185	20.004	6.842	0.505
692.000	418.315	80.005	19.996	103.185	20.005	6.740	0.496
692.500	418.593	80.004	19.995	103.186	20.004	6.797	0.488
693.000	418.824	80.004	19.995	103.186	20.007	6.636	0.505
693.500	419.103	80.003	19.996	103.186	20.007	6.629	0.509
694.000	419.317	80.003	19.995	103.185	20.007	6.647	0.502
694.500	419.564	80.002	19.997	103.186	20.007	6.643	0.478
695.000	419.831	80.003	19.994	103.185	20.008	6.521	0.487
695.500	420.080	80.003	19.995	103.186	20.010	6.450	0.514
696.000	420.348	80.003	19.996	103.185	20.010	6.426	0.516
696.500	420.605	80.002	19.995	103.185	20.007	6.611	0.521
697.000	420.861	80.000	19.994	103.185	20.003	6.849	0.519
697.500	421.098	80.000	19.994	103.186	20.008	6.523	0.503
698.000	421.333	80.002	19.995	103.187	20.011	6.382	0.483
698.500	421.589	80.001	19.996	103.188	20.008	6.554	0.482
699.000	421.842	80.001	19.997	103.188	20.008	6.532	0.500
699.500	422.088	80.000	19.995	103.188	20.008	6.541	0.504
700.000	422.325	80.000	19.995	103.188	20.007	6.602	0.492
700.500	422.607	80.001	19.996	103.187	20.009	6.474	0.501
701.000	422.843	80.000	19.996	103.187	20.007	6.607	0.518
701.500	423.133	80.000	19.996	103.186	20.008	6.550	0.522
702.000	423.370	80.002	19.996	103.186	20.006	6.657	0.527
702.500	423.614	80.001	19.995	103.185	20.009	6.490	0.504
703.000	423.883	80.002	19.996	103.185	20.009	6.516	0.497
703.500	424.116	80.001	19.996	103.185	20.008	6.528	0.507
704.000	424.390	80.001	19.996	103.187	20.007	6.640	0.505
704.500	424.670	80.001	19.997	103.187	20.008	6.532	0.531
705.000	424.927	80.000	19.997	103.186	20.010	6.391	0.545
705.500	425.173	80.001	19.997	103.185	20.009	6.480	0.520
706.000	425.436	80.001	19.996	103.185	20.011	6.362	0.506
706.500	425.673	80.000	19.997	103.185	20.008	6.582	0.505
707.000	425.951	80.000	19.996	103.184	20.012	6.272	0.508
707.500	426.209	80.000	19.996	103.186	20.011	6.367	0.525
708.000	426.473	80.000	19.996	103.187	20.010	6.396	0.529
708.500	426.739	80.001	19.997	103.188	20.011	6.329	0.526
709.000	426.940	80.000	19.996	103.188	20.014	6.193	0.499
709.500	427.216	80.001	19.996	103.189	20.008	6.528	0.472
710.000	427.438	80.000	19.996	103.190	20.012	6.283	0.487
710.500	427.698	79.999	19.997	103.189	20.011	6.362	0.490
711.000	427.997	80.001	19.996	103.188	20.013	6.232	0.521
711.500	428.252	80.000	19.996	103.182	20.011	6.379	0.557
712.000	428.477	80.000	19.995	103.180	20.014	6.147	0.517
712.500	428.766	80.000	19.997	103.180	20.012	6.286	0.497
713.000	429.036	80.001	19.996	103.180	20.015	6.072	0.536
713.500	429.270	80.001	19.997	103.179	20.013	6.219	0.531
714.000	429.555	80.001	19.996	103.185	20.017	5.982	0.512
714.500	429.773	80.000	19.997	103.187	20.018	5.887	0.511
715.000	430.045	80.001	19.997	103.186	20.013	6.240	0.496
715.500	430.295	80.000	19.995	103.186	20.015	6.116	0.506
716.000	430.531	80.000	19.996	103.187	20.018	5.877	0.504
716.500	430.794	80.001	19.996	103.187	20.016	6.032	0.492
717.000	431.039	80.001	19.994	103.188	20.016	6.054	0.503
717.500	431.300	80.002	19.996	103.187	20.019	5.803	0.507
718.000	431.532	80.001	19.996	103.185	20.020	5.753	0.499
718.500	431.826	80.001	19.995	103.183	20.021	5.683	0.510
719.000	432.054	80.002	19.996	103.181	20.021	5.676	0.524
719.500	432.314	80.001	19.997	103.181	20.023	5.568	0.505
720.000	432.563	80.001	19.995	103.182	20.021	5.692	0.499
720.500	432.818	80.002	19.996	103.182	20.025	5.470	0.506
721.000	433.092	80.002	19.995	103.183	20.026	5.405	0.516
721.500	433.363	80.002	19.995	103.181	20.022	5.640	0.537
722.000	433.590	80.001	19.996	103.180	20.023	5.568	0.522
722.500	433.890	80.001	19.996	103.180	20.024	5.504	0.513
723.000	434.116	80.001	19.995	103.182	20.024	5.518	0.527
723.500	434.384	80.000	19.995	103.183	20.025	5.463	0.510
724.000	434.625	80.001	19.995	103.187	20.024	5.531	0.501
724.500	434.879	80.001	19.995	103.186	20.025	5.436	0.501
725.000	435.157	80.000	19.995	103.186	20.027	5.307	0.514
725.500	435.421	80.001	19.995	103.187	20.027	5.303	0.537
726.000	435.693	80.000	19.995	103.187	20.026	5.360	0.539
726.500	435.966	80.001	19.995	103.187	20.026	5.353	0.541
727.000	436.221	80.001	19.996	103.190	20.027	5.299	0.537
727.500	436.446	80.001	19.995	103.191	20.028	5.256	0.504
728.000	436.722	80.002	19.995	103.191	20.025	5.422	0.491
728.500	436.978	80.001	19.995	103.191	20.028	5.249	0.516
729.000	437.247	80.000	19.994	103.191	20.029	5.163	0.528
729.500	437.502	80.000	19.996	103.191	20.030	5.086	0.524
730.000	437.767	80.000	19.995	103.189	20.028	5.234	0.522
730.500	437.973	79.999	19.995	103.188	20.028	5.256	0.496
731.000	438.270	80.000	19.995	103.188	20.030	5.129	0.487
731.500	438.545	79.999	19.996	103.188	20.030	5.089	0.537
732.000	438.811	80.000	19.995	103.189	20.031	5.035	0.557
732.500	439.089	80.001	19.996	103.191	20.028	5.227	0.542
733.000	439.304	80.000	19.995	103.189	20.028	5.233	0.518
733.500	439.582	79.999	19.996	103.188	20.031	5.034	0.493
734.000	439.807	80.000	19.996	103.189	20.030	5.145	0.498
734.500	440.121	80.000	19.996	103.188	20.028	5.258	0.521
735.000	440.355	80.000	19.996	103.186	20.034	4.830	0.543
735.500	440.630	80.000	19.995	103.186	20.031	5.052	0.528
736.000	440.870	80.001	19.995	103.186	20.032	4.971	0.512
736.500	441.150	80.001	19.995	103.185	20.034	4.858	0.518
737.000	441.383	80.001	19.995	103.182	20.033	4.890	0.517
737.500	441.643	80.002	19.997	103.182	20.033	4.910	0.503
738.000	441.923	80.000	19.996	103.182	20.036	4.729	0.517
738.500	442.129	80.001	19.996	103.176	20.037	4.629	0.513
739.000	442.388	80.000	19.996	103.172	20.035	4.792	0.475
739.500	442.661	80.001	19.995	103.173	20.037	4.656	0.499
740.000	442.925	80.002	19.995	103.172	20.040	4.466	0.535
740.500	443.184	80.002	19.996	103.173	20.038	4.588	0.530
741.000	443.449	80.002	19.995	103.176	20.038	4.607	0.524
741.500	443.696	80.002	19.996	103.179	20.037	4.627	0.518
742.000	443.911	80.002	19.994	103.181	20.040	4.485	0.487
742.500	444.198	80.003	19.996	103.178	20.040	4.482	0.482
743.000	444.485	80.002	19.995	103.173	20.037	4.645	0.538
743.500	444.720	80.004	19.996	103.175	20.040	4.448	0.548
744.000	444.954	80.003	19.996	103.176	20.042	4.332	0.495
744.500	445.230	80.003	19.996	103.174	20.042	4.326	0.489
745.000	445.491	80.002	19.996	103.179	20.041	4.410	0.524
745.500	445.741	80.004	19.995	103.184	20.040	4.475	0.524
746.000	445.978	80.004	19.996	103.185	20.042	4.337	0.499
746.500	446.214	80.002	19.996	103.182	20.038	4.588	0.480
747.000	446.448	80.003	19.995	103.178	20.043	4.265	0.471
747.500	446.729	80.003	19.995	103.174	20.040	4.436	0.492
748.000	446.968	80.002	19.994	103.170	20.041	4.423	0.518
748.500	447.257	80.003	19.996	103.165	20.041	4.373	0.524
749.000	447.502	80.004	19.995	103.167	20.042	4.310	0.531
749.500	447.761	80.004	19.995	103.171	20.039	4.539	0.519
750.000	448.011	80.003	19.994	103.174	20.045	4.124	0.507
750.500	448.200	80.003	19.996	103.176	20.042	4.328	0.474
751.000	448.522	80.003	19.996	103.178	20.044	4.187	0.475
751.500	448.779	80.003	19.995	103.173	20.044	4.228	0.545
752.000	449.019	80.003	19.995	103.166	20.042	4.350	0.539
752.500	449.266	80.003	19.996	103.162	20.042	4.316	0.492
753.000	449.510	80.001	19.994	103.162	20.043	4.291	0.489
753.500	449.765	80.002	19.994	103.165	20.040	4.429	0.495
754.000	450.007	80.003	19.996	103.170	20.043	4.250	0.498
754.500	450.271	80.002	19.995	103.176	20.043	4.280	0.502
755.000	450.524	80.002	19.994	103.178	20.043	4.289	0.512
755.500	450.790	80.001	19.995	103.180	20.041	4.364	0.518
756.000	450.998	80.001	19.995	103.178	20.044	4.229	0.496
756.500	451.301	80.002	19.994	103.178	20.045	4.145	0.492
757.000	451.547	80.002	19.994	103.178	20.043	4.244	0.530
757.500	451.796	80.003	19.995	103.180	20.048	3.925	0.522
758.000	452.058	80.002	19.994	103.178	20.047	3.977	0.503
758.500	452.282	80.001	19.995	103.179	20.050	3.791	0.498
759.000	452.512	80.002	19.996	103.178	20.046	4.063	0.470
759.500	452.812	80.003	19.996	103.177	20.050	3.784	0.492
760.000	453.033	80.002	19.995	103.177	20.049	3.877	0.526
760.500	453.294	80.004	19.995	103.176	20.050	3.815	0.501
761.000	453.554	80.003	19.995	103.176	20.050	3.808	0.501
761.500	453.825	80.003	19.995	103.177	20.052	3.643	0.526
762.000	454.029	80.003	19.995	103.177	20.051	3.719	0.503
762.500	454.313	80.003	19.996	103.178	20.051	3.767	0.482
763.000	454.568	80.003	19.995	103.182	20.049	3.875	0.514
763.500	454.780	80.003	19.995	103.184	20.049	3.889	0.503
764.000	455.062	80.004	19.996	103.186	20.049	3.889	0.480
764.500	455.346	80.003	19.995	103.187	20.051	3.737	0.530
765.000	455.593	80.003	19.995	103.186	20.053	3.631	0.548
765.500	455.842	80.003	19.995	103.180	20.052	3.694	0.513
766.000	456.091	80.003	19.995	103.176	20.053	3.628	0.497
766.500	456.314	80.003	19.994	103.174	20.050	3.814	0.485
767.000	456.594	80.004	19.995	103.173	20.052	3.674	0.488
767.500	456.842	80.001	19.995	103.174	20.051	3.721	0.516
768.000	457.103	80.002	19.996	103.178	20.052	3.667	0.518
768.500	457.331	80.004	19.995	103.180	20.052	3.694	0.499
769.000	457.624	80.003	19.996	103.182	20.054	3.527	0.505
769.500	457.863	80.003	19.994	103.183	20.054	3.544	0.527
770.000	458.142	80.003	19.995	103.184	20.054	3.545	0.525
770.500	458.389	80.003	19.996	103.180	20.055	3.497	0.522
771.000	458.646	80.003	19.995	103.175	20.055	3.451	0.515
771.500	458.936	80.003	19.995	103.168	20.052	3.694	0.526
772.000	459.195	80.003	19.995	103.164	20.054	3.560	0.548
772.500	459.450	80.002	19.996	103.162	20.052	3.680	0.532
773.000	459.702	80.001	19.995	103.166	20.054	3.544	0.510
773.500	460.001	80.002	19.996	103.173	20.054	3.563	0.529
774.000	460.229	80.001	19.996	103.179	20.053	3.638	0.539
774.500	460.492	80.002	19.995	103.183	20.057	3.364	0.509
775.000	460.756	80.002	19.996	103.185	20.058	3.259	0.509
775.500	461.015	80.002	19.996	103.182	20.055	3.508	0.525
776.000	461.289	80.001	19.997	103.179	20.057	3.327	0.528
776.500	461.515	80.002	19.997	103.178	20.057	3.327	0.517
777.000	461.751	80.002	19.996	103.176	20.059	3.216	0.481
777.500	462.015	80.000	19.997	103.178	20.059	3.216	0.481
778.000	462.284	80.000	19.997	103.182	20.058	3.253	0.517
778.500	462.557	80.000	19.996	103.183	20.061	3.108	0.538
779.000	462.829	80.002	19.994	103.181	20.058	3.307	0.543
779.500	463.122	80.001	19.995	103.182	20.059	3.200	0.555
780.000	463.356	80.001	19.996	103.183	20.060	3.124	0.546
780.500	463.622	80.000	19.996	103.181	20.059	3.205	0.514
781.000	463.877	80.001	19.996	103.183	20.059	3.187	0.511
781.500	464.093	80.001	19.997	103.187	20.059	3.198	0.496
782.000	464.395	80.001	19.996	103.187	20.058	3.302	0.495
782.500	464.649	80.000	19.996	103.187	20.061	3.071	0.537
783.000	464.913	79.999	19.995	103.188	20.062	3.049	0.537
783.500	465.188	80.000	19.996	103.188	20.062	3.049	0.528
784.000	465.431	80.001	19.997	103.181	20.062	3.044	0.528
784.500	465.701	80.001	19.996	103.177	20.061	3.080	0.515
785.000	465.968	80.000	19.996	103.177	20.062	2.995	0.525
785.500	466.172	79.999	19.995	103.177	20.063	2.954	0.504
786.000	466.482	80.000	19.996	103.179	20.060	3.149	0.493
786.500	466.712	80.001	19.995	103.184	20.062	3.031	0.527
787.000	466.995	80.000	19.996	103.184	20.061	3.069	0.526
787.500	467.249	80.000	19.996	103.180	20.059	3.225	0.525
788.000	467.533	80.000	19.996	103.180	20.062	3.051	0.538
788.500	467.815	80.002	19.996	103.178	20.061	3.092	0.552
789.000	468.065	80.000	19.994	103.179	20.063	2.986	0.549
789.500	468.313	80.000	19.996	103.183	20.062	3.004	0.515
790.000	468.617	80.001	19.995	103.186	20.061	3.085	0.524
790.500	468.840	80.001	19.994	103.184	20.066	2.728	0.539
791.000	469.135	80.000	19.994	103.181	20.063	2.924	0.523
791.500	469.396	80.001	19.996	103.179	20.063	2.963	0.538
792.000	469.636	80.001	19.996	103.175	20.064	2.882	0.529
792.500	469.891	80.001	19.997	103.176	20.065	2.795	0.498
793.000	470.172	80.001	19.996	103.177	20.065	2.843	0.516
793.500	470.436	80.000	19.996	103.180	20.064	2.907	0.541
794.000	470.738	80.001	19.996	103.182	20.065	2.830	0.555
794.500	470.979	80.002	19.996	103.183	20.064	2.873	0.554
795.000	471.224	80.001	19.995	103.181	20.067	2.712	0.515
795.500	471.484	80.000	19.996	103.181	20.065	2.855	0.495
796.000	471.733	80.003	19.997	103.182	20.063	2.984	0.506
796.500	472.042	80.001	19.995	103.182	20.063	2.939	0.534
797.000	472.254	80.000	19.996	103.184	20.062	3.027	0.540
797.500	472.556	80.001	19.996	103.186	20.065	2.798	0.518
798.000	472.822	80.002	19.995	103.183	20.066	2.770	0.541
798.500	473.072	80.001	19.997	103.179	20.067	2.703	0.542
799.000	473.360	79.999	19.996	103.174	20.066	2.734	0.527
799.500	473.598	80.000	19.996	103.171	20.067	2.708	0.532
800.000	473.844	80.001	19.996	103.172	20.067	2.708	0.506
800.500	474.172	80.000	19.995	103.175	20.070	2.528	0.529
801.000	474.406	80.001	19.998	103.177	20.069	2.553	0.568
801.500	474.645	79.999	19.997	103.179	20.069	2.533	0.518
802.000	474.939	80.000	19.996	103.179	20.070	2.490	0.503
802.500	475.200	80.002	19.997	103.178	20.066	2.771	0.544
803.000	475.514	80.001	19.998	103.177	20.068	2.622	0.565
803.500	475.789	80.000	19.998	103.177	20.068	2.651	0.582
804.000	476.008	80.001	19.996	103.176	20.068	2.635	0.541
804.500	476.270	80.001	19.996	103.172	20.067	2.721	0.488
805.000	476.529	80.000	19.997	103.168	20.065	2.794	0.501
805.500	476.805	80.001	19.996	103.161	20.069	2.583	0.528
806.000	477.065	80.000	19.997	103.156	20.071	2.409	0.535
806.500	477.343	80.000	19.997	103.152	20.070	2.470	0.537
807.000	477.599	80.000	19.997	103.156	20.069	2.533	0.536
807.500	477.852	80.001	19.997	103.158	20.070	2.524	0.521
808.000	478.142	80.001	19.995	103.165	20.071	2.461	0.526
808.500	478.388	80.001	19.995	103.171	20.067	2.662	0.539
809.000	478.640	80.001	19.996	103.177	20.068	2.606	0.516
809.500	478.908	80.001	19.995	103.174	20.072	2.334	0.509
810.000	479.157	80.001	19.995	103.170	20.069	2.549	0.519
810.500	479.404	80.002	19.996	103.170	20.069	2.585	0.507
811.000	479.674	80.001	19.997	103.170	20.069	2.565	0.506
811.500	479.941	80.001	19.997	103.173	20.069	2.540	0.527
812.000	480.209	80.001	19.997	103.176	20.068	2.604	0.536
812.500	480.514	80.000	19.997	103.176	20.067	2.672	0.554
813.000	480.753	80.001	19.995	103.169	20.066	2.742	0.558
813.500	481.010	80.001	19.996	103.166	20.070	2.516	0.520
814.000	481.260	80.000	19.996	103.159	20.069	2.591	0.502
814.500	481.531	80.000	19.996	103.161	20.068	2.611	0.514
815.000	481.790	80.000	19.995	103.166	20.071	2.420	0.526
815.500	482.073	80.001	19.995	103.171	20.070	2.511	0.536
816.000	482.329	80.002	19.995	103.173	20.069	2.556	0.540
816.500	482.555	80.001	19.996	103.177	20.069	2.577	0.510
817.000	482.827	80.001	19.995	103.176	20.071	2.409	0.490
817.500	483.085	80.002	19.995	103.171	20.070	2.523	0.514
818.000	483.330	80.002	19.995	103.169	20.068	2.601	0.517
818.500	483.572	80.003	19.995	103.169	20.072	2.387	0.495
819.000	483.817	80.002	19.996	103.169	20.069	2.545	0.487
819.500	484.110	80.002	19.996	103.166	20.072	2.364	0.512
820.000	484.376	80.001	19.995	103.166	20.071	2.404	0.548
820.500	484.635	80.003	19.995	103.167	20.072	2.380	0.542
821.000	484.885	80.002	19.995	103.163	20.070	2.497	0.517
821.500	485.112	80.003	19.995	103.161	20.076	2.120	0.493
822.000	485.346	80.003	19.996	103.165	20.071	2.448	0.469
822.500	485.619	80.003	19.996	103.165	20.073	2.310	0.484
823.000	485.841	80.004	19.995	103.160	20.074	2.228	0.501
823.500	486.120	80.003	19.996	103.160	20.072	2.387	0.498
824.000	486.365	80.003	19.995	103.157	20.073	2.271	0.512
824.500	486.599	80.003	19.995	103.151	20.071	2.445	0.501
825.000	486.881	80.003	19.995	103.149	20.074	2.207	0.498
825.500	487.096	80.003	19.995	103.152	20.074	2.214	0.507
826.000	487.324	80.003	19.995	103.157	20.074	2.234	0.470
826.500	487.578	80.003	19.996	103.158	20.074	2.239	0.462
827.000	487.819	80.004	19.995	103.160	20.073	2.289	0.488
827.500	488.083	80.001	19.994	103.160	20.073	2.285	0.500
828.000	488.307	80.002	19.995	103.157	20.074	2.253	0.497
828.500	488.575	80.002	19.995	103.151	20.071	2.427	0.490
829.000	488.840	80.002	19.997	103.154	20.069	2.588	0.512
829.500	489.042	80.002	19.995	103.156	20.071	2.430	0.500
830.000	489.291	80.003	19.996	103.158	20.074	2.251	0.459
830.500	489.577	80.003	19.994	103.159	20.070	2.513	0.493
831.000	489.777	80.002	19.995	103.159	20.069	2.538	0.510
831.500	489.999	80.003	19.995	103.157	20.072	2.364	0.454
832.000	490.264	80.002	19.996	103.153	20.071	2.432	0.455
832.500	490.530	80.002	19.995	103.151	20.071	2.398	0.509
833.000	490.750	80.001	19.995	103.153	20.070	2.490	0.508
833.500	491.003	80.001	19.995	103.153	20.071	2.409	0.480
834.000	491.214	80.001	19.995	103.153	20.072	2.379	0.468
834.500	491.451	80.002	19.995	103.155	20.069	2.549	0.456
835.000	491.727	80.001	19.995	103.156	20.070	2.507	0.481
835.500	491.983	80.000	19.995	103.159	20.072	2.386	0.522
836.000	492.209	80.002	19.996	103.161	20.073	2.275	0.507
836.500	492.451	80.001	19.995	103.162	20.069	2.547	0.475
837.000	492.682	80.002	19.995	103.161	20.074	2.257	0.470
837.500	492.928	80.003	19.994	103.163	20.070	2.482	0.475
838.000	493.153	80.003	19.995	103.161	20.071	2.459	0.474
838.500	493.376	80.002	19.994	103.161	20.070	2.488	0.459
839.000	493.630	80.001	19.995	103.159	20.071	2.416	0.462
839.500	493.886	80.001	19.996	103.159	20.071	2.417	0.494
840.000	494.128	80.002	19.995	103.154	20.071	2.440	0.504
840.500	494.378	80.002	19.996	103.153	20.072	2.384	0.495
841.000	494.590	80.002	19.994	103.151	20.074	2.220	0.477
841.500	494.836	80.002	19.995	103.151	20.071	2.418	0.460
842.000	495.055	80.001	19.994	103.152	20.072	2.359	0.462
842.500	495.315	80.002	19.995	103.153	20.070	2.486	0.472
843.000	495.514	80.002	19.995	103.157	20.071	2.463	0.469
843.500	495.779	80.003	19.995	103.163	20.071	2.457	0.461
844.000	496.021	80.002	19.994	103.163	20.070	2.497	0.485
844.500	496.215	80.003	19.995	103.162	20.073	2.325	0.471
845.000	496.492	80.003	19.994	103.163	20.066	2.735	0.453
845.500	496.739	80.003	19.995	103.159	20.070	2.504	0.498
846.000	496.940	80.002	19.993	103.154	20.068	2.631	0.486
846.500	497.197	80.003	19.994	103.153	20.072	2.370	0.453
847.000	497.463	80.003	19.996	103.153	20.073	2.300	0.491
847.500	497.683	80.003	19.994	103.151	20.072	2.393	0.504
848.000	497.956	80.003	19.995	103.152	20.070	2.466	0.489
848.500	498.153	80.003	19.995	103.155	20.068	2.620	0.482
849.000	498.405	80.003	19.995	103.162	20.070	2.499	0.460
849.500	498.618	80.004	19.994	103.163	20.072	2.334	0.457
850.000	498.935	80.003	19.995	103.170	20.070	2.470	0.497
850.500	499.110	80.003	19.995	103.173	20.070	2.488	0.511
851.000	499.353	80.003	19.995	103.177	20.073	2.323	0.455
851.500	499.577	80.003	19.995	103.174	20.072	2.346	0.443
852.000	499.835	80.003	19.995	103.177	20.070	2.508	0.474
852.500	500.082	80.002	19.993	103.171	20.074	2.230	0.493
853.000	500.301	80.004	19.996	103.167	20.072	2.377	0.485
853.500	500.553	80.004	19.993	103.164	20.072	2.393	0.469
854.000	500.759	80.004	19.994	103.165	20.073	2.323	0.465
854.500	501.017	80.002	19.994	103.162	20.074	2.237	0.461
855.000	501.258	80.004	19.995	103.162	20.074	2.233	0.481
855.500	501.498	80.001	19.995	103.162	20.073	2.316	0.490
856.000	501.736	80.003	19.995	103.158	20.077	2.051	0.479
856.500	502.007	80.003	19.994	103.153	20.073	2.321	0.494
857.000	502.234	80.002	19.994	103.158	20.075	2.180	0.504
857.500	502.487	80.002	19.994	103.159	20.074	2.241	0.489
858.000	502.725	80.001	19.995	103.160	20.073	2.278	0.485
858.500	502.931	80.001	19.994	103.163	20.072	2.364	0.467
859.000	503.182	80.000	19.995	103.165	20.073	2.284	0.450
859.500	503.400	80.001	19.994	103.161	20.073	2.278	0.463
860.000	503.667	80.001	19.996	103.163	20.073	2.310	0.477
860.500	503.935	80.001	19.994	103.162	20.073	2.287	0.510
861.000	504.168	80.000	19.996	103.159	20.075	2.191	0.518
861.500	504.391	80.000	19.994	103.156	20.073	2.269	0.478
862.000	504.632	79.999	19.994	103.155	20.072	2.353	0.460
862.500	504.880	80.000	19.997	103.155	20.071	2.409	0.477
863.000	505.127	80.000	19.996	103.160	20.071	2.403	0.493
863.500	505.372	80.001	19.995	103.165	20.073	2.278	0.493
864.000	505.598	80.002	19.996	103.165	20.075	2.197	0.481
864.500	505.853	80.001	19.994	103.164	20.074	2.219	0.476
865.000	506.102	80.001	19.995	103.162	20.074	2.248	0.493
865.500	506.384	80.002	19.995	103.156	20.077	2.052	0.518
866.000	506.637	79.999	19.995	103.150	20.076	2.115	0.533
866.500	506.877	80.001	19.996	103.150	20.074	2.208	0.514
867.000	507.110	80.001	19.994	103.151	20.073	2.330	0.483
867.500	507.368	80.001	19.995	103.156	20.075	2.178	0.482
868.000	507.610	80.002	19.996	103.156	20.076	2.079	0.496
868.500	507.848	80.001	19.996	103.156	20.076	2.122	0.490
869.000	508.091	80.000	19.996	103.156	20.078	1.983	0.481
869.500	508.344	80.001	19.995	103.155	20.073	2.314	0.488
870.000	508.610	79.999	19.996	103.153	20.076	2.114	0.508
870.500	508.818	80.002	19.996	103.156	20.078	2.003	0.497
871.000	509.088	80.002	19.995	103.156	20.076	2.083	0.476
871.500	509.348	80.001	19.996	103.159	20.075	2.169	0.504
872.000	509.585	80.002	19.997	103.159	20.077	2.051	0.513
872.500	509.837	80.001	19.996	103.156	20.078	1.974	0.493
873.000	510.066	80.002	19.995	103.153	20.078	1.952	0.485
873.500	510.312	80.000	19.996	103.153	20.074	2.232	0.478
874.000	510.579	80.002	19.995	103.149	20.077	2.054	0.494
874.500	510.843	80.001	19.994	103.149	20.076	2.090	0.522
875.000	511.087	80.002	19.996	103.149	20.076	2.117	0.520
875.500	511.303	80.001	19.994	103.149	20.074	2.230	0.484
876.000	511.583	80.001	19.996	103.149	20.074	2.243	0.478
876.500	511.811	80.003	19.995	103.149	20.071	2.415	0.502
877.000	512.050	80.001	19.996	103.149	20.075	2.141	0.487
877.500	512.297	80.000	19.995	103.150	20.073	2.278	0.476
878.000	512.576	80.001	19.995	103.149	20.073	2.280	0.506
878.500	512.784	80.000	19.995	103.152	20.077	2.061	0.506
879.000	513.062	80.002	19.995	103.156	20.077	2.020	0.486
879.500	513.299	80.002	19.996	103.158	20.076	2.081	0.500
880.000	513.552	80.001	19.995	103.164	20.072	2.377	0.503
880.500	513.819	80.002	19.996	103.167	20.074	2.228	0.505
881.000	514.071	80.000	19.995	103.170	20.076	2.081	0.519
881.500	514.333	80.002	19.995	103.170	20.075	2.148	0.516
882.000	514.620	80.001	19.996	103.168	20.075	2.149	0.532
882.500	514.856	80.001	19.996	103.162	20.077	2.024	0.536
883.000	515.134	80.002	19.996	103.163	20.073	2.328	0.518
883.500	515.395	80.002	19.995	103.159	20.074	2.244	0.526
884.000	515.656	80.001	19.996	103.155	20.074	2.216	0.531
884.500	515.916	80.001	19.995	103.155	20.073	2.289	0.522
885.000	516.145	80.000	19.996	103.155	20.076	2.128	0.505
885.500	516.400	80.000	19.996	103.152	20.076	2.090	0.486
886.000	516.659	80.001	19.995	103.158	20.074	2.250	0.500
886.500	516.963	80.001	19.995	103.163	20.073	2.309	0.539
887.000	517.198	79.999	19.996	103.166	20.074	2.219	0.551
887.500	517.458	80.001	19.997	103.168	20.073	2.329	0.517
888.000	517.701	80.001	19.996	103.168	20.073	2.318	0.499
888.500	517.944	80.001	19.997	103.162	20.071	2.418	0.495
889.000	518.249	80.000	19.996	103.156	20.072	2.368	0.517
889.500	518.458	80.000	19.995	103.155	20.072	2.380	0.531
890.000	518.731	80.000	19.997	103.159	20.074	2.210	0.498
890.500	518.973	80.000	19.997	103.163	20.073	2.293	0.498
891.000	519.254	80.001	19.996	103.164	20.069	2.550	0.519
891.500	519.466	80.001	19.997	103.164	20.072	2.382	0.508
892.000	519.791	80.001	19.996	103.163	20.072	2.357	0.515
892.500	520.049	80.001	19.997	103.159	20.071	2.430	0.560
893.000	520.297	80.000	19.997	103.157	20.073	2.321	0.544
893.500	520.579	79.999	19.996	103.156	20.071	2.443	0.518
894.000	520.791	80.000	19.997	103.160	20.072	2.337	0.512
894.500	521.068	80.000	19.997	103.164	20.074	2.246	0.492
895.000	521.298	80.000	19.998	103.164	20.073	2.318	0.498
895.500	521.555	80.001	19.996	103.165	20.071	2.454	0.497
896.000	521.812	80.000	19.996	103.165	20.072	2.366	0.501
896.500	522.112	80.000	19.998	103.162	20.072	2.371	0.536
897.000	522.347	80.000	19.997	103.159	20.071	2.412	0.546
897.500	522.567	80.002	19.996	103.161	20.071	2.439	0.495
898.000	522.836	80.001	19.997	103.163	20.072	2.371	0.472
898.500	523.082	80.000	19.997	103.166	20.073	2.301	0.501
899.000	523.389	80.001	19.996	103.169	20.074	2.216	0.534
899.500	523.628	80.001	19.996	103.172	20.072	2.362	0.550
900.000	523.887	80.001	19.998	103.171	20.074	2.224	0.522
900.500	524.139	80.000	19.996	103.164	20.076	2.128	0.504
901.000	524.379	80.001	19.996	103.161	20.077	2.065	0.502
901.500	524.638	80.001	19.995	103.158	20.075	2.176	0.496
902.000	524.931	80.002	19.997	103.152	20.075	2.178	0.526
902.500	525.154	80.002	19.997	103.150	20.073	2.280	0.534
903.000	525.451	80.001	19.996	103.151	20.075	2.155	0.518
903.500	525.705	80.002	19.995	103.150	20.071	2.422	0.535
904.000	525.947	80.003	19.995	103.151	20.072	2.363	0.524
904.500	526.203	80.002	19.995	103.153	20.072	2.357	0.497
905.000	526.461	80.002	19.995	103.154	20.075	2.169	0.506
905.500	526.726	80.002	19.995	103.155	20.074	2.262	0.519
906.000	527.012	80.002	19.994	103.155	20.074	2.241	0.537
906.500	527.274	80.003	19.995	103.155	20.074	2.233	0.549
907.000	527.512	80.002	19.996	103.154	20.070	2.472	0.524
907.500	527.782	80.002	19.994	103.154	20.074	2.258	0.504
908.000	528.069	80.002	19.994	103.154	20.073	2.319	0.532
908.500	528.329	80.002	19.996	103.156	20.074	2.205	0.552
909.000	528.540	80.003	19.996	103.156	20.073	2.321	0.510
909.500	528.819	80.002	19.995	103.156	20.071	2.436	0.481
910.000	529.079	80.002	19.995	103.155	20.073	2.296	0.514
910.500	529.352	80.001	19.994	103.154	20.074	2.233	0.536
911.000	529.633	80.000	19.995	103.155	20.074	2.228	0.544
911.500	529.872	80.001	19.994	103.156	20.074	2.255	0.537
912.000	530.158	80.002	19.995	103.155	20.074	2.232	0.522
912.500	530.425	80.002	19.994	103.156	20.075	2.183	0.539
913.000	530.654	80.001	19.995	103.156	20.075	2.192	0.525
913.500	530.943	80.001	19.996	103.154	20.075	2.156	0.507
914.000	531.223	80.002	19.995	103.157	20.073	2.320	0.543
914.500	531.462	80.001	19.995	103.164	20.073	2.277	0.544
915.000	531.732	80.002	19.994	103.164	20.075	2.166	0.514
915.500	531.990	80.001	19.994	103.164	20.073	2.304	0.518
916.000	532.226	80.001	19.995	103.167	20.074	2.209	0.511
916.500	532.496	80.001	19.994	103.164	20.074	2.205	0.501
917.000	532.770	80.001	19.995	103.157	20.075	2.151	0.525
917.500	533.050	80.002	19.994	103.156	20.076	2.126	0.549
918.000	533.289	80.002	19.995	103.155	20.071	2.434	0.536
918.500	533.524	80.002	19.993	103.152	20.073	2.326	0.496
919.000	533.809	80.001	19.995	103.151	20.073	2.274	0.497
919.500	534.068	80.001	19.995	103.152	20.073	2.328	0.533
920.000	534.323	80.002	19.995	103.153	20.073	2.303	0.529
920.500	534.572	80.001	19.995	103.153	20.074	2.246	0.509
921.000	534.869	80.000	19.995	103.153	20.074	2.244	0.525
921.500	535.121	80.000	19.995	103.154	20.075	2.181	0.547
922.000	535.354	80.000	19.993	103.155	20.078	1.995	0.517
922.500	535.608	80.001	19.996	103.154	20.074	2.246	0.486
923.000	535.904	80.002	19.997	103.157	20.075	2.147	0.518
923.500	536.150	80.002	19.995	103.161	20.072	2.334	0.546
924.000	536.373	80.003	19.996	103.160	20.073	2.312	0.506
924.500	536.644	80.002	19.995	103.159	20.073	2.310	0.481
925.000	536.914	80.001	19.995	103.162	20.075	2.192	0.518
925.500	537.175	80.003	19.995	103.166	20.076	2.119	0.536
926.000	537.456	80.001	19.995	103.166	20.076	2.083	0.536
926.500	537.729	80.003	19.996	103.167	20.073	2.319	0.548
927.000	538.001	80.001	19.995	103.166	20.076	2.077	0.550
927.500	538.242	80.003	19.995	103.163	20.073	2.282	0.529
928.000	538.516	80.003	19.995	103.155	20.073	2.274	0.514
928.500	538.766	80.003	19.995	103.152	20.075	2.154	0.519
929.000	539.032	80.004	19.995	103.150	20.074	2.210	0.520
929.500	539.307	80.004	19.996	103.150	20.076	2.076	0.528
930.000	539.532	80.005	19.994	103.150	20.076	2.088	0.520
930.500	539.834	80.004	19.995	103.151	20.076	2.101	0.514
931.000	540.061	80.004	19.995	103.151	20.073	2.328	0.528
931.500	540.352	80.002	19.995	103.151	20.074	2.242	0.524
932.000	540.576	80.004	19.995	103.151	20.073	2.276	0.516
932.500	540.841	80.005	19.995	103.151	20.077	2.067	0.502
933.000	541.118	80.003	19.995	103.152	20.073	2.284	0.516
933.500	541.357	80.005	19.994	103.152	20.073	2.268	0.530
934.000	541.667	80.004	19.995	103.151	20.075	2.189	0.533
934.500	541.926	80.004	19.996	103.151	20.073	2.318	0.559
935.000	542.169	80.003	19.995	103.150	20.073	2.268	0.535
935.500	542.477	80.005	19.995	103.150	20.076	2.124	0.526
936.000	542.757	80.004	19.995	103.150	20.075	2.198	0.569
936.500	542.998	80.004	19.996	103.150	20.075	2.158	0.554
937.000	543.252	80.003	19.994	103.151	20.072	2.364	0.508
937.500	543.502	80.004	19.993	103.153	20.075	2.192	0.499
938.000	543.766	80.002	19.994	103.151	20.074	2.208	0.509
938.500	544.015	80.003	19.995	103.150	20.070	2.482	0.514
939.000	544.288	80.004	19.995	103.150	20.074	2.253	0.518
939.500	544.568	80.003	19.995	103.150	20.076	2.072	0.537
940.000	544.856	80.000	19.995	103.149	20.075	2.166	0.560
940.500	545.082	80.003	19.994	103.149	20.075	2.171	0.541
941.000	545.362	80.003	19.995	103.149	20.077	2.033	0.511
941.500	545.621	80.002	19.995	103.150	20.074	2.212	0.522
942.000	545.901	80.002	19.995	103.150	20.075	2.189	0.538
942.500	546.207	80.001	19.996	103.151	20.073	2.310	0.562
943.000	546.462	80.001	19.995	103.154	20.074	2.265	0.574
943.500	546.764	80.001	19.995	103.162	20.073	2.287	0.559
944.000	547.022	80.002	19.996	103.163	20.078	1.949	0.558
944.500	547.284	80.000	19.995	103.168	20.072	2.339	0.540
945.000	547.566	80.001	19.995	103.166	20.074	2.217	0.532
945.500	547.848	80.002	19.995	103.164	20.074	2.251	0.554
946.000	548.094	80.002	19.995	103.159	20.074	2.212	0.546
946.500	548.358	80.001	19.995	103.157	20.071	2.407	0.519
947.000	548.647	80.001	19.995	103.153	20.074	2.262	0.531
947.500	548.915	80.000	19.995	103.153	20.074	2.237	0.555
948.000	549.214	80.001	19.995	103.152	20.075	2.199	0.562
948.500	549.467	80.000	19.995	103.150	20.076	2.092	0.560
949.000	549.746	80.001	19.996	103.152	20.075	2.199	0.541
949.500	550.018	80.001	19.996	103.156	20.076	2.103	0.541
950.000	550.291	80.002	19.995	103.163	20.074	2.217	0.548
950.500	550.582	80.001	19.995	103.168	20.074	2.206	0.555
951.000	550.840	80.001	19.995	103.170	20.076	2.106	0.556
951.500	551.101	80.001	19.995	103.171	20.075	2.164	0.534
952.000	551.369	80.000	19.997	103.166	20.075	2.139	0.524
952.500	551.678	80.001	19.996	103.159	20.078	2.002	0.553
953.000	551.956	80.001	19.995	103.154	20.077	2.044	0.581
953.500	552.219	80.001	19.996	103.151	20.074	2.212	0.563
954.000	552.508	80.001	19.995	103.148	20.077	2.045	0.546
954.500	552.766	80.001	19.995	103.148	20.077	2.049	0.550
955.000	553.018	80.001	19.998	103.150	20.077	2.042	0.529
955.500	553.317	80.000	19.996	103.153	20.078	1.992	0.530
956.000	553.565	80.001	19.996	103.155	20.077	2.044	0.549
956.500	553.865	80.001	19.997	103.155	20.076	2.110	0.548
957.000	554.148	80.001	19.996	103.155	20.076	2.119	0.565
957.500	554.443	80.001	19.996	103.154	20.077	2.015	0.580
958.000	554.715	80.001	19.995	103.151	20.075	2.174	0.572
958.500	554.975	80.002	19.996	103.150	20.075	2.199	0.550
959.000	555.263	80.000	19.997	103.149	20.077	2.063	0.540
959.500	555.570	80.002	19.996	103.148	20.074	2.215	0.572
960.001	555.795	80.001	19.996	103.148	20.079	1.920	0.563
960.500	556.072	80.001	19.996	103.148	20.076	2.092	0.517
961.000	556.350	80.000	19.995	103.148	20.077	2.015	0.528
961.500	556.623	80.001	19.996	103.153	20.076	2.087	0.553
962.000	556.874	80.000	19.998	103.157	20.075	2.140	0.538
962.500	557.170	80.001	19.997	103.160	20.075	2.138	0.536
963.000	557.443	80.000	19.997	103.161	20.076	2.121	0.558
963.500	557.750	80.001	19.996	103.161	20.076	2.094	0.575
964.000	557.998	80.000	19.996	103.157	20.078	1.954	0.567
964.500	558.303	80.002	19.996	103.154	20.076	2.115	0.553
965.000	558.574	80.000	19.994	103.155	20.077	2.053	0.565
965.500	558.824	80.001	19.995	103.159	20.076	2.113	0.549
966.000	559.123	80.001	19.996	103.161	20.076	2.128	0.535
966.500	559.370	80.000	19.994	103.163	20.076	2.072	0.547
967.000	559.673	80.000	19.996	103.162	20.081	1.786	0.548
967.500	559.923	80.000	19.996	103.159	20.080	1.818	0.551
968.000	560.199	80.000	19.995	103.154	20.078	1.984	0.540
968.500	560.462	79.999	19.996	103.151	20.081	1.802	0.533
969.000	560.769	80.000	19.996	103.150	20.075	2.144	0.555
969.500	561.034	80.000	19.995	103.150	20.079	1.875	0.571
970.000	561.319	80.000	19.995	103.150	20.077	2.053	0.560
970.500	561.567	80.000	19.995	103.151	20.077	2.008	0.541
971.000	561.864	80.000	19.996	103.151	20.076	2.114	0.539
971.500	562.113	80.000	19.995	103.152	20.081	1.777	0.545
972.000	562.390	79.998	19.996	103.152	20.079	1.931	0.536
972.500	562.675	80.000	19.996	103.153	20.080	1.830	0.544
973.000	562.934	80.000	19.997	103.153	20.075	2.149	0.553
973.500	563.250	79.999	19.996	103.153	20.078	1.965	0.560
974.000	563.495	80.001	19.996	103.153	20.077	2.061	0.568
974.500	563.752	80.001	19.995	103.154	20.076	2.110	0.531
975.000	564.013	80.001	19.996	103.153	20.080	1.830	0.510
975.500	564.325	80.000	19.996	103.156	20.076	2.110	0.545
976.000	564.592	80.001	19.996	103.158	20.077	2.040	0.576
976.500	564.864	79.999	19.996	103.159	20.078	1.981	0.559
977.000	565.131	80.000	19.997	103.158	20.079	1.906	0.539
977.500	565.384	79.999	19.996	103.158	20.079	1.918	0.530
978.000	565.707	80.000	19.996	103.155	20.079	1.929	0.548
978.500	565.955	79.999	19.995	103.153	20.077	2.008	0.574
979.000	566.229	79.998	19.996	103.152	20.079	1.913	0.546
979.500	566.478	79.999	19.997	103.153	20.077	2.056	0.522
980.000	566.773	80.000	19.996	103.152	20.077	2.038	0.534
980.500	567.100	80.000	19.995	103.157	20.076	2.072	0.583
981.000	567.319	80.000	19.997	103.162	20.076	2.129	0.584
981.500	567.584	80.000	19.996	103.163	20.077	2.058	0.515
982.000	567.864	79.999	19.995	103.163	20.075	2.181	0.514
982.500	568.140	80.000	19.998	103.163	20.076	2.099	0.550
983.000	568.372	79.999	19.998	103.161	20.073	2.287	0.532
983.500	568.671	80.001	19.997	103.158	20.076	2.092	0.520
984.000	568.917	80.000	19.998	103.156	20.076	2.086	0.538
984.500	569.190	80.001	19.997	103.156	20.076	2.120	0.532
985.000	569.490	80.000	19.998	103.156	20.077	2.022	0.546
985.500	569.737	80.000	19.996	103.154	20.076	2.106	0.560
986.000	570.017	80.001	19.996	103.151	20.073	2.292	0.537
986.500	570.303	80.001	19.997	103.151	20.077	2.054	0.546
987.000	570.550	79.999	19.998	103.151	20.074	2.231	0.549
987.500	570.790	80.000	19.997	103.151	20.075	2.151	0.510
988.000	571.057	80.001	19.997	103.151	20.077	2.020	0.497
988.500	571.343	80.000	19.996	103.151	20.076	2.079	0.530
989.000	571.596	80.002	19.996	103.150	20.079	1.893	0.546
989.500	571.859	80.000	19.996	103.149	20.079	1.936	0.528
990.000	572.161	80.003	19.997	103.149	20.077	2.029	0.541
990.500	572.398	80.002	19.995	103.148	20.075	2.190	0.552
991.000	572.724	80.002	19.996	103.149	20.077	2.056	0.551
991.500	572.927	80.001	19.996	103.149	20.077	2.008	0.546
992.000	573.209	80.001	19.997	103.151	20.076	2.085	0.507
992.500	573.496	80.000	19.997	103.150	20.078	1.948	0.527
993.000	573.788	80.001	19.996	103.150	20.079	1.893	0.574
993.500	574.006	80.002	19.994	103.149	20.077	2.068	0.544
994.000	574.328	80.001	19.997	103.149	20.077	2.022	0.525
994.500	574.560	80.002	19.995	103.147	20.076	2.111	0.547
995.000	574.821	80.001	19.996	103.146	20.076	2.108	0.524
995.500	575.096	80.001	19.996	103.147	20.075	2.188	0.515
996.000	575.369	80.001	19.995	103.148	20.078	1.975	0.542
996.500	575.637	80.002	19.995	103.147	20.078	1.945	0.545
997.000	575.909	80.002	19.995	103.148	20.078	1.991	0.540
997.500	576.200	80.003	19.994	103.149	20.077	2.067	0.551
998.000	576.446	80.001	19.995	103.149	20.078	1.965	0.550
998.500	576.694	80.001	19.995	103.148	20.074	2.260	0.515
999.000	576.937	80.001	19.996	103.148	20.075	2.192	0.492
999.500	577.235	80.001	19.996	103.148	20.072	2.348	0.516
1000.000	577.482	80.002	19.994	103.149	20.075	2.172	0.543
1000.500	577.719	80.001	19.996	103.150	20.078	1.997	0.515
1001.000	577.994	80.001	19.995	103.150	20.075	2.138	0.498
1001.500	578.265	80.002	19.995	103.150	20.074	2.228	0.529
1002.000	578.511	80.001	19.995	103.149	20.077	2.045	0.532
1002.500	578.791	80.001	19.995	103.150	20.078	1.963	0.522
1003.000	579.040	80.004	19.995	103.147	20.074	2.221	0.527
1003.500	579.297	80.002	19.995	103.148	20.075	2.153	0.517
1004.000	579.559	80.002	19.995	103.148	20.076	2.117	0.512
1004.500	579.848	80.001	19.994	103.148	20.075	2.185	0.535
1005.000	580.081	80.002	19.995	103.148	20.070	2.487	0.537
1005.500	580.348	80.003	19.995	103.148	20.075	2.156	0.511
1006.000	580.607	80.002	19.995	103.148	20.074	2.217	0.513
1006.500	580.868	80.002	19.996	103.147	20.075	2.145	0.523
1007.000	581.092	80.003	19.995	103.147	20.076	2.128	0.502
1007.500	581.370	80.002	19.995	103.148	20.074	2.224	0.494
1008.000	581.650	80.002	19.995	103.148	20.077	2.063	0.530
1008.500	581.868	80.003	19.994	103.149	20.074	2.208	0.528
1009.000	582.149	80.003	19.995	103.149	20.075	2.140	0.498
1009.500	582.386	80.002	19.995	103.150	20.073	2.299	0.508
1010.000	582.652	80.003	19.994	103.148	20.077	2.033	0.511
1010.500	582.922	80.004	19.995	103.147	20.077	2.038	0.519
1011.000	583.173	80.002	19.995	103.147	20.074	2.242	0.528
1011.500	583.406	80.003	19.995	103.148	20.075	2.163	0.503
1012.000	583.636	80.003	19.995	103.148	20.076	2.097	0.474
1012.500	583.909	80.003	19.995	103.147	20.078	1.974	0.483
1013.000	584.155	80.003	19.994	103.147	20.074	2.223	0.511
1013.500	584.403	80.005	19.995	103.146	20.078	1.972	0.506
1014.000	584.684	80.005	19.996	103.144	20.076	2.133	0.512
1014.500	584.951	80.003	19.995	103.142	20.077	2.063	0.538
1015.000	585.169	80.003	19.995	103.142	20.075	2.174	0.516
1015.500	585.445	80.004	19.994	103.141	20.074	2.214	0.490
1016.000	585.712	80.004	19.996	103.141	20.075	2.201	0.519
1016.500	585.955	80.002	19.995	103.141	20.078	1.991	0.526
1017.000	586.165	80.004	19.995	103.143	20.073	2.276	0.481
1017.500	586.444	80.003	19.994	103.144	20.075	2.187	0.471
1018.000	586.704	80.003	19.994	103.145	20.077	2.034	0.514
1018.500	586.944	80.002	19.996	103.146	20.077	2.034	0.519
1019.000	587.199	80.002	19.995	103.148	20.074	2.258	0.497
1019.500	587.437	80.002	19.995	103.147	20.075	2.167	0.494
1020.000	587.721	80.002	19.996	103.148	20.075	2.165	0.507
1020.500	587.935	80.001	19.996	103.147	20.076	2.099	0.509
1021.000	588.195	80.001	19.995	103.146	20.073	2.332	0.486
1021.500	588.434	80.002	19.996	103.146	20.076	2.081	0.487
1022.000	588.663	80.001	19.996	103.147	20.075	2.178	0.484
1022.500	588.923	80.001	19.995	103.147	20.076	2.095	0.478
1023.000	589.215	80.002	19.996	103.148	20.075	2.137	0.520
1023.500	589.464	80.000	19.995	103.147	20.076	2.092	0.547
1024.001	589.701	80.001	19.996	103.148	20.075	2.144	0.514
1024.501	589.952	80.002	19.998	103.148	20.078	1.968	0.487
1025.000	590.188	80.001	19.996	103.148	20.074	2.258	0.487
1025.500	590.451	80.000	19.996	103.147	20.076	2.088	0.493
1026.000	590.683	80.002	19.998	103.148	20.077	2.067	0.497
1026.500	590.908	80.001	19.997	103.148	20.077	2.024	0.476
1027.000	591.198	80.000	19.997	103.145	20.074	2.239	0.486
1027.500	591.432	80.000	19.996	103.144	20.076	2.094	0.520
1028.000	591.662	80.000	19.994	103.145	20.077	2.027	0.494
1028.500	591.918	80.001	19.995	103.145	20.077	2.047	0.475
1029.000	592.183	80.000	19.995	103.146	20.076	2.099	0.504
1029.500	592.410	80.001	19.994	103.147	20.077	2.047	0.507
1030.000	592.640	80.002	19.995	103.148	20.077	2.067	0.474
1030.500	592.902	80.001	19.994	103.148	20.074	2.237	0.474
1031.000	593.160	80.000	19.996	103.150	20.079	1.914	0.506
1031.500	593.401	80.000	19.995	103.151	20.075	2.149	0.510
1032.000	593.631	79.999	19.994	103.152	20.075	2.170	0.486
1032.500	593.902	79.999	19.995	103.153	20.079	1.911	0.486
1033.000	594.122	80.001	19.995	103.152	20.077	2.022	0.496
1033.500	594.386	80.000	19.995	103.151	20.074	2.255	0.488
1034.000	594.611	80.000	19.995	103.149	20.076	2.120	0.487
1034.500	594.898	80.002	19.995	103.148	20.076	2.077	0.500
1035.000	595.082	80.001	19.996	103.149	20.078	1.999	0.491
1035.500	595.415	80.001	19.995	103.150	20.075	2.197	0.494
1036.000	595.601	80.001	19.994	103.150	20.076	2.118	0.518
1036.500	595.872	80.001	19.995	103.151	20.078	2.000	0.488
1037.000	596.089	80.001	19.996	103.152	20.075	2.178	0.472
1037.500	596.351	80.001	19.994	103.150	20.078	1.950	0.483
1038.000	596.554	80.001	19.995	103.147	20.077	2.008	0.472
1038.500	596.798	80.001	19.996	103.145	20.075	2.163	0.456
1039.000	597.067	80.002	19.994	103.145	20.077	2.031	0.480
1039.500	597.292	80.001	19.995	103.145	20.076	2.106	0.504
1040.000	597.522	80.001	19.994	103.147	20.078	1.966	0.475
1040.500	597.787	80.002	19.995	103.149	20.074	2.258	0.475
1041.000	598.036	80.002	19.995	103.151	20.077	2.070	0.504
1041.500	598.271	80.002	19.995	103.149	20.077	2.040	0.499
1042.000	598.476	80.000	19.994	103.145	20.078	1.952	0.462
1042.500	598.749	79.998	19.995	103.142	20.076	2.090	0.459
1043.000	598.983	80.001	19.996	103.142	20.078	2.004	0.492
1043.501	599.275	80.000	19.996	103.143	20.075	2.194	0.517
1044.001	599.477	80.000	19.996	103.144	20.076	2.090	0.510
1044.500	599.703	80.000	19.995	103.150	20.074	2.206	0.461
1045.000	599.946	80.001	19.995	103.151	20.077	2.068	0.448
1045.500	600.153	80.000	19.995	103.150	20.076	2.117	0.459
1046.000	600.426	80.000	19.995	103.148	20.077	2.013	0.465
1046.501	600.663	79.999	19.995	103.141	20.076	2.104	0.495
1047.001	600.900	80.000	19.996	103.140	20.077	2.031	0.492
1047.500	601.103	79.999	19.996	103.142	20.078	1.997	0.457
1048.000	601.356	80.000	19.996	103.142	20.078	1.961	0.448
1048.500	601.605	80.001	19.996	103.143	20.079	1.932	0.479
1049.000	601.880	80.000	19.996	103.148	20.078	1.993	0.513
1049.500	602.104	80.000	19.996	103.150	20.078	2.002	0.511
1050.000	602.321	79.999	19.995	103.148	20.080	1.862	0.470
1050.500	602.598	79.999	19.996	103.148	20.076	2.085	0.468
1051.000	602.817	79.998	19.995	103.149	20.074	2.258	0.495
1051.500	603.050	79.999	19.996	103.149	20.079	1.931	0.474
1052.000	603.289	80.000	19.997	103.147	20.080	1.864	0.462
1052.500	603.509	79.999	19.996	103.148	20.079	1.925	0.465
1053.000	603.786	80.000	19.995	103.149	20.080	1.871	0.478
1053.500	603.992	79.999	19.995	103.150	20.081	1.767	0.490
1054.000	604.221	79.999	19.995	103.151	20.080	1.812	0.459
1054.500	604.478	80.002	19.995	103.151	20.077	2.054	0.460
1055.000	604.716	80.000	19.996	103.150	20.080	1.812	0.490
1055.500	604.947	80.001	19.995	103.147	20.080	1.843	0.482
1056.000	605.203	80.001	19.996	103.144	20.078	1.988	0.478
1056.500	605.432	80.000	19.995	103.143	20.078	1.971	0.486
1057.000	605.665	79.999	19.995	103.141	20.078	1.979	0.473
1057.500	605.909	80.000	19.995	103.141	20.076	2.097	0.470
1058.000	606.129	80.000	19.997	103.143	20.076	2.102	0.471
1058.500	606.391	80.001	19.995	103.144	20.080	1.871	0.474
1059.001	606.639	79.999	19.996	103.141	20.079	1.930	0.496
1059.501	606.874	80.000	19.995	103.140	20.076	2.117	0.496
1060.001	607.126	80.000	19.995	103.141	20.078	1.986	0.485
1060.501	607.365	80.001	19.996	103.141	20.080	1.828	0.489
1061.001	607.600	80.002	19.996	103.142	20.083	1.630	0.483
1061.500	607.856	80.001	19.995	103.146	20.080	1.866	0.482
1062.000	608.068	80.000	19.996	103.149	20.081	1.748	0.479
1062.500	608.360	80.001	19.997	103.149	20.080	1.818	0.486
1063.000	608.588	80.000	19.995	103.145	20.082	1.730	0.512
1063.500	608.804	80.002	19.995	103.142	20.081	1.784	0.482
1064.001	609.050	80.002	19.996	103.140	20.081	1.750	0.453
1064.501	609.315	80.001	19.996	103.140	20.077	2.052	0.487
1065.000	609.559	80.001	19.996	103.139	20.080	1.827	0.510
1065.500	609.785	80.002	19.997	103.142	20.081	1.803	0.489
1066.000	610.015	80.001	19.995	103.138	20.080	1.820	0.463
1066.500	610.290	80.002	19.996	103.132	20.077	2.051	0.480
1067.000	610.576	80.003	19.995	103.130	20.079	1.891	0.533
1067.500	610.786	80.002	19.996	103.130	20.081	1.791	0.528
1068.000	611.028	80.003	19.995	103.132	20.080	1.832	0.474
1068.500	611.276	80.002	19.994	103.137	20.081	1.784	0.472
1069.000	611.505	80.001	19.996	103.143	20.084	1.581	0.483
1069.500	611.744	80.002	19.996	103.143	20.082	1.703	0.472
1070.000	611.995	80.002	19.995	103.137	20.083	1.674	0.479
1070.500	612.230	80.002	19.996	103.132	20.079	1.918	0.488
1071.000	612.494	80.001	19.996	103.132	20.080	1.871	0.492
1071.500	612.734	80.002	19.996	103.134	20.081	1.773	0.502
1072.000	612.997	80.002	19.997	103.135	20.077	2.043	0.504
1072.500	613.215	80.003	19.994	103.138	20.080	1.873	0.492
1073.000	613.467	80.001	19.996	103.143	20.079	1.907	0.475
1073.500	613.694	80.001	19.996	103.142	20.079	1.884	0.475
1074.000	613.984	80.001	19.995	103.143	20.078	1.952	0.499
1074.500	614.231	80.001	19.997	103.144	20.081	1.796	0.527
1075.000	614.474	80.002	19.996	103.148	20.077	2.015	0.513
1075.500	614.724	80.002	19.997	103.149	20.079	1.884	0.491
1076.000	614.976	80.001	19.998	103.149	20.081	1.800	0.498
1076.500	615.263	80.002	19.996	103.147	20.078	1.970	0.521
1077.000	615.474	80.001	19.998	103.147	20.078	1.966	0.518
1077.500	615.710	80.001	19.996	103.146	20.079	1.880	0.473
1078.000	615.964	80.003	19.996	103.146	20.079	1.884	0.469
1078.500	616.205	80.002	19.997	103.146	20.081	1.782	0.492
1079.000	616.471	80.002	19.996	103.147	20.082	1.714	0.501
1079.500	616.709	80.002	19.996	103.147	20.083	1.644	0.505
1080.000	616.957	80.002	19.996	103.147	20.082	1.685	0.495
1080.500	617.187	80.002	19.997	103.146	20.082	1.692	0.482
1081.000	617.421	80.001	19.996	103.146	20.083	1.671	0.471
1081.500	617.704	80.002	19.995	103.144	20.082	1.705	0.491
1082.000	617.956	80.003	19.996	103.145	20.083	1.667	0.526
1082.500	618.178	80.001	19.997	103.145	20.080	1.866	0.504
1083.001	618.428	80.002	19.997	103.145	20.084	1.596	0.473
1083.501	618.712	80.002	19.996	103.145	20.084	1.574	0.503
1084.000	618.922	80.002	19.997	103.146	20.081	1.809	0.514
1084.500	619.180	80.002	19.997	103.146	20.084	1.608	0.481
1085.000	619.424	80.002	19.996	103.146	20.081	1.798	0.485
1085.500	619.679	80.002	19.996	103.145	20.085	1.490	0.500
1086.000	619.939	80.002	19.996	103.145	20.078	1.941	0.507
1086.500	620.183	80.003	19.995	103.145	20.081	1.757	0.510
1087.000	620.455	80.002	19.996	103.146	20.083	1.635	0.510
1087.500	620.674	80.002	19.995	103.146	20.081	1.769	0.504
1088.000	620.927	80.002	19.996	103.146	20.080	1.832	0.482
1088.500	621.196	80.003	19.996	103.146	20.082	1.707	0.497
1089.000	621.428	80.003	19.995	103.146	20.081	1.778	0.512
1089.500	621.660	80.003	19.994	103.145	20.082	1.714	0.482
1090.000	621.940	80.003	19.995	103.144	20.082	1.703	0.488
1090.500	622.166	80.003	19.995	103.145	20.084	1.580	0.509
1091.000	622.445	80.003	19.996	103.145	20.079	1.882	0.505
1091.500	622.704	80.004	19.995	103.145	20.081	1.753	0.522
1092.000	622.927	80.004	19.997	103.146	20.077	2.013	0.511
1092.501	623.220	80.003	19.995	103.146	20.077	2.015	0.499
1093.001	623.454	80.002	19.994	103.148	20.079	1.900	0.522
1093.500	623.727	80.002	19.995	103.148	20.079	1.924	0.517
1094.000	623.985	80.003	19.994	103.148	20.078	1.999	0.518
1094.500	624.258	80.003	19.995	103.147	20.078	1.961	0.531
1095.000	624.513	80.003	19.995	103.146	20.078	1.959	0.530
1095.500	624.745	80.003	19.995	103.146	20.079	1.934	0.507
1096.000	624.982	80.003	19.995	103.147	20.078	1.979	0.478
1096.500	625.269	80.003	19.994	103.147	20.079	1.916	0.496
1097.000	625.511	80.004	19.995	103.149	20.079	1.888	0.527
1097.500	625.788	80.002	19.994	103.150	20.080	1.864	0.524
1098.000	626.030	80.003	19.995	103.150	20.078	1.970	0.519
1098.500	626.298	80.002	19.994	103.149	20.080	1.839	0.515
1099.000	626.522	80.002	19.996	103.149	20.079	1.877	0.501
1099.500	626.786	80.002	19.996	103.149	20.078	2.000	0.490
1100.001	627.093	80.002	19.995	103.149	20.079	1.877	0.529
1100.501	627.326	80.001	19.995	103.153	20.081	1.807	0.556
1101.000	627.574	80.001	19.995	103.155	20.079	1.923	0.510
1101.500	627.849	80.001	19.995	103.155	20.081	1.778	0.502
1102.000	628.123	80.002	19.995	103.155	20.079	1.931	0.536
1102.500	628.403	80.001	19.996	103.157	20.078	1.990	0.552
1103.000	628.639	80.001	19.997	103.157	20.079	1.914	0.535
1103.500	628.907	80.001	19.997	103.156	20.079	1.913	0.510
1104.000	629.156	80.001	19.996	103.155	20.078	1.983	0.511
1104.500	629.398	80.001	19.995	103.155	20.078	1.954	0.504
1105.000	629.687	80.001	19.995	103.154	20.080	1.832	0.511
1105.500	629.963	80.000	19.995	103.151	20.082	1.732	0.548
1106.000	630.199	80.001	19.995	103.150	20.081	1.760	0.539
1106.500	630.458	80.000	19.995	103.151	20.077	2.047	0.504
1107.000	630.732	80.000	19.995	103.148	20.080	1.818	0.513
1107.500	630.995	80.001	19.995	103.147	20.080	1.857	0.535
1108.000	631.261	79.999	19.996	103.147	20.079	1.905	0.533
1108.500	631.513	80.000	19.996	103.145	20.080	1.811	0.524
1109.000	631.781	80.000	19.996	103.143	20.080	1.855	0.519
1109.500	632.032	79.999	19.996	103.146	20.083	1.633	0.520
1110.000	632.328	80.000	19.995	103.146	20.083	1.637	0.533
1110.500	632.567	80.000	19.996	103.145	20.086	1.456	0.541
1111.000	632.822	79.999	19.996	103.146	20.082	1.678	0.514
1111.500	633.076	80.000	19.995	103.147	20.084	1.596	0.501
1112.000	633.356	80.000	19.997	103.147	20.077	2.031	0.522
1112.500	633.617	80.000	19.995	103.148	20.083	1.646	0.538
1113.000	633.871	80.000	19.995	103.150	20.081	1.744	0.528
1113.500	634.153	80.000	19.995	103.151	20.079	1.932	0.525
1114.000	634.406	79.999	19.996	103.149	20.082	1.719	0.536
1114.500	634.677	80.000	19.995	103.148	20.081	1.782	0.529
1115.000	634.953	80.001	19.997	103.147	20.079	1.891	0.535
1115.500	635.202	80.000	19.995	103.145	20.080	1.821	0.537
1116.001	635.465	80.000	19.995	103.145	20.082	1.691	0.519
1116.501	635.717	80.001	19.996	103.145	20.083	1.674	0.513
1117.000	635.961	80.000	19.996	103.145	20.083	1.628	0.505
1117.500	636.197	80.002	19.995	103.144	20.080	1.814	0.488
1118.000	636.466	80.002	19.996	103.146	20.080	1.857	0.493
1118.500	636.751	80.001	19.995	103.145	20.080	1.812	0.530
1119.000	636.967	80.002	19.995	103.143	20.080	1.857	0.528
1119.500	637.264	80.002	19.995	103.144	20.081	1.769	0.507
1120.000	637.504	80.003	19.995	103.145	20.081	1.803	0.525
1120.500	637.777	80.002	19.994	103.145	20.082	1.716	0.525
1121.000	638.029	80.003	19.996	103.146	20.080	1.812	0.519
1121.500	638.299	80.002	19.995	103.150	20.078	1.997	0.524
1122.000	638.583	80.002	19.995	103.150	20.082	1.708	0.538
1122.500	638.808	80.002	19.995	103.149	20.079	1.884	0.531
1123.000	639.058	80.001	19.994	103.149	20.079	1.897	0.492
1123.500	639.349	80.003	19.996	103.149	20.077	2.031	0.508
1124.000	639.621	80.001	19.995	103.148	20.082	1.685	0.553
1124.500	639.885	80.001	19.996	103.149	20.081	1.766	0.550
1125.000	640.162	80.003	19.995	103.148	20.081	1.780	0.538
1125.500	640.400	80.002	19.995	103.148	20.079	1.877	0.528
1126.000	640.666	80.003	19.994	103.148	20.079	1.898	0.509
1126.500	640.934	80.003	19.995	103.147	20.080	1.872	0.519
1127.000	641.173	80.003	19.996	103.146	20.077	2.051	0.521
1127.500	641.424	80.003	19.994	103.145	20.081	1.766	0.499
1128.000	641.733	80.002	19.995	103.144	20.079	1.905	0.525
1128.500	641.953	80.003	19.996	103.143	20.081	1.805	0.545
1129.000	642.262	80.002	19.994	103.145	20.079	1.934	0.529
1129.500	642.502	80.001	19.995	103.146	20.077	2.049	0.539
1130.000	642.813	80.001	19.996	103.146	20.083	1.671	0.550
1130.500	643.045	80.002	19.995	103.148	20.080	1.846	0.547
1131.000	643.330	80.001	19.995	103.148	20.078	1.981	0.530
1131.500	643.592	80.002	19.995	103.144	20.080	1.812	0.532
1132.000	643.844	80.000	19.996	103.142	20.080	1.870	0.531
1132.500	644.110	80.001	19.995	103.142	20.080	1.871	0.516
1133.000	644.382	80.000	19.996	103.142	20.078	1.988	0.528
1133.500	644.648	80.000	19.995	103.142	20.077	2.049	0.539
1134.000	644.911	80.001	19.996	103.147	20.081	1.771	0.534
1134.500	645.186	80.001	19.996	103.148	20.079	1.900	0.534
1135.000	645.451	79.999	19.996	103.148	20.078	1.956	0.539
1135.500	645.715	79.999	19.997	103.149	20.080	1.841	0.534
1136.000	646.005	80.000	19.996	103.149	20.079	1.909	0.541
1136.500	646.256	79.999	19.996	103.151	20.079	1.887	0.547
1137.000	646.498	80.001	19.996	103.153	20.080	1.861	0.517
1137.500	646.823	80.001	19.997	103.152	20.077	2.029	0.529
1138.000	647.096	80.000	19.996	103.150	20.075	2.138	0.582
1138.500	647.338	80.002	19.996	103.149	20.077	2.034	0.557
1139.000	647.622	80.001	19.996	103.146	20.079	1.900	0.521
1139.500	647.908	80.002	19.997	103.145	20.080	1.823	0.548
1140.000	648.162	80.002	19.996	103.144	20.082	1.692	0.555
1140.500	648.465	80.000	19.996	103.145	20.085	1.531	0.549
1141.000	648.717	80.001	19.997	103.144	20.079	1.880	0.556
1141.500	648.984	80.002	19.996	103.145	20.080	1.837	0.537
1142.000	649.263	80.000	19.996	103.144	20.081	1.805	0.533
1142.500	649.580	80.002	19.996	103.140	20.083	1.624	0.571
1143.000	649.822	80.000	19.997	103.139	20.081	1.751	0.578
1143.500	650.089	80.001	19.995	103.140	20.082	1.712	0.534
1144.000	650.369	80.002	19.996	103.140	20.084	1.554	0.528
1144.500	650.627	80.002	19.996	103.140	20.080	1.832	0.542
1145.000	650.923	80.002	19.995	103.144	20.081	1.749	0.546
1145.500	651.199	80.002	19.995	103.145	20.079	1.877	0.563
1146.000	651.494	80.003	19.997	103.145	20.080	1.855	0.571
1146.500	651.698	80.002	19.996	103.143	20.080	1.816	0.535
1147.000	651.965	80.001	19.995	103.141	20.079	1.909	0.485
1147.500	652.266	80.003	19.996	103.137	20.084	1.581	0.520
1148.000	652.522	80.002	19.996	103.136	20.080	1.833	0.563
1148.500	652.828	80.003	19.996	103.136	20.083	1.624	0.560
1149.000	653.069	80.004	19.995	103.133	20.083	1.624	0.555
1149.500	653.216	80.002	19.996	103.134	20.085	1.520	0.468
1150.000	653.682	80.002	19.995	103.135	20.084	1.597	0.500
1150.500	653.863	80.004	19.996	103.130	20.078	1.957	0.630
1151.000	654.106	80.003	19.996	103.125	20.082	1.726	0.535
1151.500	654.404	80.002	19.996	103.125	20.083	1.642	0.483
1152.000	654.623	80.003	19.995	103.126	20.082	1.696	0.530
1152.501	654.889	80.003	19.996	103.130	20.083	1.628	0.501
1153.001	655.214	80.002	19.995	103.136	20.084	1.572	0.538
1153.500	655.442	80.002	19.997	103.138	20.083	1.628	0.572
1154.000	655.707	80.002	19.996	103.139	20.079	1.913	0.523
1154.500	655.957	80.003	19.997	103.136	20.082	1.712	0.504
1155.000	656.208	80.003	19.995	103.134	20.084	1.578	0.508
1155.500	656.461	80.000	19.995	103.130	20.083	1.637	0.503
1156.000	656.706	80.002	19.995	103.132	20.084	1.562	0.501
1156.500	656.995	80.002	19.996	103.136	20.082	1.683	0.516
1157.000	657.203	80.002	19.996	103.139	20.083	1.669	0.516
1157.500	657.453	80.001	19.996	103.134	20.081	1.775	0.477
1158.000	657.737	80.000	19.995	103.132	20.082	1.710	0.496
1158.500	657.998	80.002	19.996	103.126	20.081	1.766	0.539
1159.000	658.220	80.002	19.996	103.120	20.082	1.680	0.514
1159.500	658.501	80.001	19.996	103.117	20.084	1.578	0.494
1160.000	658.698	80.002	19.996	103.123	20.084	1.580	0.491
1160.500	658.998	80.001	19.995	103.128	20.082	1.694	0.487
1161.000	659.254	80.001	19.996	103.134	20.084	1.583	0.526
1161.500	659.529	80.001	19.996	103.140	20.085	1.533	0.543
1162.000	659.802	80.001	19.995	103.143	20.080	1.837	0.540
1162.500	660.025	79.998	19.996	103.143	20.082	1.685	0.522
1163.000	660.314	80.002	19.996	103.146	20.082	1.706	0.504
1163.500	660.589	80.001	19.996	103.148	20.084	1.601	0.538
1164.000	660.801	80.000	19.996	103.149	20.084	1.599	0.526
1164.500	661.038	80.001	19.998	103.150	20.084	1.611	0.467
1165.000	661.338	80.000	19.996	103.150	20.084	1.585	0.493
1165.500	661.569	80.002	19.998	103.149	20.083	1.629	0.534
1166.000	661.812	80.000	19.997	103.147	20.081	1.796	0.502
1166.500	662.065	80.000	19.996	103.142	20.086	1.477	0.485
1167.000	662.331	80.001	19.997	103.141	20.081	1.762	0.508
1167.500	662.598	80.001	19.996	103.141	20.084	1.583	0.526
1168.000	662.858	80.001	19.997	103.140	20.080	1.821	0.530
1168.501	663.060	80.001	19.996	103.142	20.081	1.805	0.495
1169.001	663.372	80.001	19.996	103.147	20.085	1.513	0.488
1169.500	663.615	80.001	19.996	103.147	20.083	1.644	0.534
1170.000	663.859	80.002	19.998	103.147	20.082	1.723	0.521
1170.500	664.098	80.002	19.997	103.146	20.084	1.597	0.485
1171.000	664.378	80.002	19.996	103.145	20.081	1.753	0.501
1171.500	664.591	80.003	19.996	103.143	20.085	1.485	0.506
1172.000	664.864	80.002	19.996	103.138	20.082	1.692	0.490
1172.500	665.117	80.001	19.996	103.135	20.081	1.782	0.506
1173.000	665.387	80.001	19.995	103.132	20.082	1.680	0.524
1173.500	665.618	80.002	19.995	103.127	20.083	1.664	0.512
1174.000	665.837	80.003	19.996	103.125	20.081	1.773	0.476
1174.500	666.128	80.003	19.995	103.126	20.082	1.725	0.480
1175.000	666.298	80.002	19.995	103.123	20.085	1.546	0.485
1175.500	666.623	80.002	19.995	103.121	20.083	1.639	0.478
1176.000	666.857	80.002	19.995	103.123	20.084	1.601	0.527
1176.500	667.102	80.003	19.995	103.125	20.084	1.562	0.519
1177.000	667.345	80.002	19.995	103.128	20.082	1.701	0.483
1177.500	667.588	80.002	19.996	103.132	20.083	1.673	0.487
1178.000	667.820	80.002	19.995	103.131	20.081	1.750	0.481
1178.500	668.063	80.002	19.996	103.129	20.083	1.617	0.475
1179.000	668.321	80.002	19.995	103.124	20.083	1.674	0.488
1179.500	668.561	80.001	19.995	103.120	20.083	1.653	0.499
1180.000	668.817	80.002	19.995	103.123	20.083	1.665	0.497
1180.500	669.056	80.002	19.995	103.128	20.084	1.608	0.495
1181.000	669.284	80.001	19.995	103.134	20.084	1.588	0.481
1181.501	669.526	80.002	19.995	103.142	20.083	1.671	0.469
1182.001	669.774	80.002	19.995	103.147	20.087	1.365	0.480
1182.500	670.026	80.002	19.994	103.147	20.082	1.696	0.495
1183.000	670.266	80.002	19.996	103.147	20.088	1.330	0.496
1183.500	670.507	80.001	19.996	103.147	20.085	1.513	0.486
1184.000	670.750	80.001	19.995	103.147	20.085	1.536	0.482
1184.500	670.993	80.000	19.996	103.147	20.086	1.448	0.485
1185.000	671.230	80.000	19.994	103.147	20.081	1.744	0.483
1185.500	671.499	80.000	19.995	103.147	20.085	1.483	0.493
1186.000	671.748	80.002	19.996	103.147	20.084	1.563	0.512
1186.500	672.003	80.001	19.995	103.147	20.085	1.520	0.511
1187.000	672.234	80.000	19.995	103.146	20.085	1.499	0.495
1187.501	672.484	80.001	19.995	103.144	20.082	1.685	0.483
1188.001	672.763	80.002	19.994	103.145	20.080	1.848	0.505
1188.500	673.023	80.000	19.995	103.145	20.082	1.724	0.534
1189.000	673.265	80.000	19.996	103.145	20.084	1.595	0.520
1189.500	673.480	80.002	19.995	103.146	20.081	1.773	0.480
1190.000	673.775	80.001	19.995	103.147	20.080	1.812	0.484
1190.500	674.049	80.001	19.995	103.143	20.082	1.696	0.539
1191.000	674.296	80.000	19.994	103.142	20.082	1.685	0.545
1191.500	674.552	80.001	19.995	103.142	20.079	1.898	0.512
1192.000	674.789	80.000	19.995	103.142	20.084	1.568	0.498
1192.500	675.061	80.000	19.995	103.138	20.083	1.636	0.501
1193.001	675.363	80.001	19.995	103.136	20.083	1.613	0.541
1193.501	675.552	80.001	19.994	103.129	20.083	1.649	0.532
1194.000	675.805	80.000	19.995	103.123	20.082	1.685	0.467
1194.500	676.094	80.001	19.995	103.119	20.084	1.570	0.492
1195.000	676.306	80.002	19.996	103.119	20.082	1.726	0.522
1195.500	676.601	80.000	19.995	103.120	20.084	1.581	0.504
1196.000	676.852	80.001	19.996	103.122	20.085	1.511	0.526
1196.500	677.093	80.000	19.995	103.125	20.083	1.633	0.518
1197.000	677.368	80.000	19.997	103.129	20.083	1.624	0.504
1197.500	677.583	80.000	19.996	103.133	20.084	1.603	0.503
1198.000	677.859	79.999	19.995	103.137	20.083	1.639	0.490
1198.500	678.054	80.001	19.995	103.140	20.082	1.730	0.481
1199.000	678.307	80.001	19.995	103.139	20.083	1.644	0.460
1199.500	678.564	80.000	19.996	103.137	20.084	1.595	0.479
1200.000	678.815	80.002	19.996	103.131	20.084	1.547	0.508
1200.500	679.046	80.002	19.995	103.125	20.080	1.871	0.495
1201.000	679.275	80.001	19.995	103.123	20.082	1.739	0.471
1201.500	679.493	80.001	19.996	103.123	20.083	1.635	0.454
1202.000	679.750	80.000	19.996	103.122	20.082	1.685	0.461
1202.500	679.986	80.001	19.995	103.124	20.082	1.703	0.484
1203.000	680.247	80.001	19.996	103.124	20.082	1.728	0.495
1203.500	680.498	80.001	19.996	103.123	20.083	1.673	0.504
1204.000	680.722	80.001	19.996	103.123	20.079	1.903	0.493
1204.500	680.935	80.002	19.996	103.121	20.078	2.000	0.456
1205.001	681.223	80.000	19.995	103.125	20.081	1.794	0.469
1205.501	681.411	80.001	19.996	103.128	20.081	1.753	0.489
1206.000	681.660	80.002	19.995	103.129	20.082	1.699	0.456
1206.500	681.911	80.000	19.997	103.132	20.083	1.631	0.468
1207.000	682.184	80.002	19.997	103.137	20.082	1.681	0.512
1207.500	682.377	80.001	19.997	103.138	20.080	1.826	0.495
1208.000	682.672	80.001	19.995	103.141	20.082	1.742	0.476
1208.500	682.904	80.001	19.997	103.142	20.079	1.877	0.508
1209.000	683.153	80.001	19.995	103.141	20.081	1.796	0.504
1209.500	683.431	80.000	19.997	103.136	20.075	2.170	0.504
1210.000	683.624	79.999	19.996	103.133	20.079	1.923	0.499
1210.500	683.871	80.001	19.996	103.129	20.078	1.959	0.456
1211.000	684.127	80.002	19.996	103.126	20.079	1.930	0.472
1211.500	684.333	80.001	19.995	103.126	20.080	1.823	0.482
1212.000	684.574	80.001	19.996	103.131	20.079	1.893	0.454
1212.500	684.849	80.000	19.995	103.130	20.082	1.689	0.481
1213.000	685.104	80.001	19.996	103.135	20.079	1.900	0.523
1213.500	685.360	80.000	19.996	103.140	20.079	1.909	0.521
1214.000	685.606	80.001	19.995	103.140	20.080	1.862	0.506
1214.500	685.869	80.001	19.995	103.138	20.079	1.927	0.505
1215.000	686.080	80.001	19.996	103.135	20.079	1.923	0.491
1215.500	686.327	79.999	19.996	103.134	20.078	1.979	0.466
1216.000	686.578	80.000	19.996	103.135	20.080	1.870	0.478
1216.500	686.823	80.000	19.995	103.139	20.079	1.929	0.497
1217.000	687.099	79.999	19.996	103.138	20.081	1.773	0.509
1217.501	687.369	80.000	19.995	103.139	20.083	1.671	0.533
1218.001	687.637	80.000	19.995	103.135	20.079	1.891	0.542
1218.500	687.862	80.000	19.995	103.131	20.078	1.950	0.515
1219.000	688.127	80.001	19.996	103.131	20.081	1.803	0.491
1219.500	688.379	80.000	19.995	103.132	20.084	1.601	0.503
1220.000	688.673	79.999	19.995	103.134	20.080	1.826	0.532
1220.500	688.917	80.000	19.995	103.139	20.079	1.889	0.542
1221.000	689.161	80.001	19.995	103.143	20.077	2.031	0.513
1221.500	689.419	80.001	19.996	103.141	20.078	1.961	0.495
1222.000	689.689	80.001	19.994	103.137	20.078	1.979	0.515
1222.500	689.908	80.001	19.996	103.137	20.077	2.045	0.508
1223.000	690.196	80.001	19.996	103.138	20.079	1.900	0.498
1223.500	690.421	80.001	19.996	103.138	20.077	2.045	0.510
1224.000	690.729	80.002	19.995	103.139	20.079	1.907	0.523
1224.501	690.968	80.000	19.995	103.141	20.078	1.952	0.540
1225.001	691.247	80.001	19.995	103.140	20.075	2.159	0.532
1225.500	691.513	80.000	19.995	103.137	20.077	2.034	0.532
1226.000	691.795	80.001	19.995	103.135	20.078	1.966	0.547
1226.500	692.050	80.000	19.996	103.136	20.077	2.027	0.543
1227.000	692.327	80.000	19.995	103.139	20.081	1.799	0.535
1227.500	692.617	80.002	19.996	103.143	20.081	1.765	0.550
1228.000	692.869	80.002	19.994	103.145	20.080	1.853	0.554
1228.501	693.093	80.003	19.996	103.142	20.080	1.826	0.509
1229.001	693.401	80.000	19.996	103.134	20.081	1.807	0.504
1229.500	693.665	80.001	19.995	103.129	20.075	2.145	0.552
1230.000	693.928	80.002	19.995	103.126	20.080	1.871	0.550
1230.500	694.165	80.001	19.995	103.126	20.077	2.005	0.514
1231.000	694.484	80.001	19.996	103.130	20.075	2.149	0.529
1231.500	694.759	80.002	19.995	103.137	20.078	1.941	0.575
1232.000	695.023	80.002	19.996	103.143	20.078	2.002	0.566
1232.500	695.300	80.001	19.996	103.146	20.079	1.901	0.540
1233.000	695.589	80.001	19.995	103.148	20.081	1.798	0.554
1233.500	695.869	80.002	19.996	103.147	20.076	2.073	0.568
1234.000	696.124	80.001	19.996	103.141	20.083	1.662	0.552
1234.500	696.389	80.001	19.997	103.139	20.079	1.919	0.527
1235.000	696.668	80.002	19.995	103.136	20.077	2.013	0.532
1235.500	696.934	80.000	19.996	103.131	20.079	1.912	0.544
1236.000	697.227	80.001	19.996	103.132	20.079	1.903	0.552
1236.500	697.485	80.001	19.996	103.130	20.078	1.944	0.555
1237.000	697.764	80.001	19.996	103.127	20.080	1.857	0.544
1237.500	698.033	80.002	19.996	103.125	20.078	1.950	0.542
1238.000	698.319	80.002	19.995	103.126	20.079	1.910	0.552
1238.500	698.543	80.000	19.995	103.123	20.077	2.021	0.532
1239.000	698.850	80.001	19.996	103.125	20.081	1.767	0.520
1239.500	699.102	80.001	19.995	103.127	20.079	1.880	0.545
1240.000	699.381	80.001	19.996	103.124	20.078	1.950	0.545
1240.500	699.657	80.001	19.995	103.121	20.083	1.676	0.543
1241.000	699.936	80.000	19.995	103.123	20.080	1.848	0.555
1241.500	700.200	80.000	19.995	103.126	20.082	1.740	0.549
1242.000	700.454	80.000	19.996	103.126	20.082	1.722	0.530
1242.500	700.724	80.000	19.996	103.128	20.080	1.824	0.521
1243.000	701.037	80.000	19.995	103.128	20.082	1.695	0.554
1243.500	701.243	80.001	19.995	103.123	20.080	1.837	0.551
1244.000	701.485	80.002	19.996	103.123	20.080	1.865	0.483
1244.500	701.781	80.002	19.994	103.125	20.079	1.899	0.493
1245.000	702.046	80.000	19.993	103.126	20.081	1.794	0.550
1245.500	702.311	80.002	19.996	103.125	20.082	1.735	0.546
1246.001	702.569	80.002	19.995	103.127	20.079	1.921	0.527
1246.501	702.824	80.002	19.996	103.124	20.082	1.740	0.518
1247.000	703.082	80.002	19.996	103.118	20.079	1.900	0.513
1247.500	703.332	80.001	19.996	103.115	20.086	1.432	0.510
1248.000	703.605	80.001	19.996	103.114	20.079	1.912	0.515
1248.500	703.835	80.001	19.995	103.113	20.078	1.979	0.513
1249.000	704.090	80.002	19.994	103.113	20.077	2.007	0.495
1249.500	704.322	80.001	19.996	103.115	20.081	1.782	0.486
1250.000	704.613	80.002	19.996	103.120	20.081	1.781	0.504
1250.500	704.832	80.001	19.995	103.123	20.078	1.955	0.517
1251.000	705.098	80.002	19.995	103.123	20.082	1.733	0.498
1251.500	705.348	80.002	19.994	103.123	20.078	1.975	0.500
1252.000	705.570	80.001	19.995	103.122	20.079	1.896	0.494
1252.500	705.813	80.004	19.996	103.117	20.078	1.955	0.469
1253.000	706.053	80.004	19.996	103.114	20.081	1.783	0.474
1253.500	706.316	80.003	19.995	103.114	20.078	1.952	0.493
1254.000	706.554	80.002	19.996	103.111	20.077	2.011	0.502
1254.500	706.809	80.003	19.996	103.112	20.081	1.807	0.497
1255.000	707.041	80.003	19.995	103.111	20.081	1.805	0.490
1255.500	707.290	80.004	19.995	103.113	20.080	1.832	0.484
1256.000	707.547	80.003	19.996	103.118	20.080	1.819	0.494
1256.500	707.795	80.004	19.995	103.125	20.081	1.760	0.505
1257.000	708.056	80.003	19.996	103.130	20.077	2.011	0.507
1257.500	708.290	80.003	19.996	103.133	20.082	1.728	0.502
1258.000	708.525	80.003	19.995	103.132	20.079	1.889	0.482
1258.500	708.772	80.001	19.996	103.131	20.082	1.722	0.476
1259.000	709.027	80.003	19.995	103.131	20.079	1.937	0.492
1259.500	709.282	80.002	19.996	103.129	20.078	1.971	0.506
1260.000	709.539	80.002	19.996	103.126	20.075	2.150	0.511
1260.500	709.772	80.001	19.997	103.124	20.077	2.036	0.501
1261.000	710.004	80.002	19.996	103.120	20.077	2.066	0.478
1261.500	710.291	80.001	19.997	103.113	20.083	1.665	0.492
1262.000	710.527	80.003	19.997	103.109	20.079	1.885	0.521
1262.500	710.794	80.002	19.996	103.111	20.081	1.780	0.513
1263.001	711.062	80.001	19.997	103.114	20.079	1.934	0.519
1263.501	711.270	80.001	19.997	103.117	20.078	1.986	0.505
1264.000	711.551	79.999	19.996	103.121	20.079	1.892	0.483
1264.500	711.819	80.000	19.997	103.123	20.080	1.850	0.519
1265.000	712.048	80.000	19.997	103.124	20.079	1.939	0.523
1265.500	712.317	79.999	19.997	103.124	20.078	1.968	0.498
1266.000	712.636	80.001	19.997	103.126	20.081	1.762	0.543
1266.500	712.851	79.999	19.996	103.125	20.082	1.715	0.561
1267.000	713.091	79.998	19.996	103.122	20.081	1.805	0.494
1267.500	713.357	80.001	19.996	103.123	20.080	1.812	0.480
1268.000	713.583	80.001	19.997	103.120	20.081	1.767	0.499
1268.500	713.882	80.000	19.997	103.117	20.079	1.877	0.508
1269.000	714.173	80.000	19.995	103.116	20.081	1.785	0.557
1269.500	714.436	80.001	19.995	103.121	20.082	1.741	0.572
1270.000	714.709	80.002	19.997	103.122	20.080	1.873	0.545
1270.500	714.990	80.000	19.995	103.125	20.080	1.873	0.545
1271.000	715.210	80.001	19.995	103.128	20.078	1.998	0.528
1271.500	715.522	80.001	19.995	103.133	20.080	1.837	0.517
1272.000	715.753	80.001	19.995	103.132	20.078	1.961	0.538
1272.500	716.035	80.000	19.995	103.129	20.079	1.921	0.528
1273.000	716.310	80.002	19.995	103.128	20.079	1.898	0.535
1273.500	716.535	80.001	19.995	103.125	20.082	1.692	0.529
1274.000	716.807	80.001	19.994	103.121	20.081	1.769	0.499
1274.500	717.069	80.001	19.995	103.119	20.081	1.798	0.515
1275.000	717.360	80.000	19.995	103.120	20.080	1.828	0.543
1275.500	717.612	80.002	19.995	103.123	20.081	1.805	0.548
1276.000	717.899	80.001	19.995	103.124	20.082	1.690	0.541
1276.500	718.117	80.000	19.995	103.124	20.083	1.658	0.522
1277.000	718.378	80.000	19.995	103.123	20.081	1.798	0.492
1277.500	718.697	79.998	19.996	103.124	20.079	1.914	0.530
1278.000	718.921	80.000	19.995	103.119	20.078	2.004	0.562
1278.500	719.231	80.001	19.994	103.121	20.082	1.705	0.539
1279.000	719.475	80.001	19.994	103.126	20.079	1.891	0.544
1279.500	719.734	80.002	19.995	103.132	20.080	1.817	0.528
1280.000	720.024	80.001	19.994	103.132	20.078	1.991	0.526
1280.500	720.277	80.001	19.995	103.135	20.081	1.764	0.546
1281.000	720.544	80.001	19.996	103.135	20.080	1.873	0.532
1281.500	720.812	80.003	19.995	103.128	20.078	1.998	0.528
1282.000	721.095	80.001	19.994	103.123	20.076	2.102	0.543
1282.500	721.360	80.000	19.995	103.122	20.078	1.950	0.549
1283.000	721.637	80.002	19.996	103.120	20.078	1.970	0.544
1283.500	721.882	80.000	19.995	103.117	20.081	1.773	0.531
1284.000	722.123	80.001	19.995	103.120	20.079	1.875	0.504
1284.500	722.427	80.000	19.995	103.120	20.082	1.739	0.516
1285.000	722.645	80.001	19.995	103.120	20.079	1.930	0.534
1285.500	722.922	80.001	19.995	103.122	20.075	2.136	0.508
1286.000	723.209	80.000	19.996	103.123	20.080	1.870	0.529
1286.500	723.434	80.001	19.996	103.125	20.078	1.963	0.538
1287.000	723.756	80.001	19.996	103.130	20.079	1.907	0.529
1287.500	723.996	80.001	19.995	103.130	20.077	2.052	0.555
1288.001	724.266	80.000	19.996	103.131	20.075	2.149	0.537
1288.501	724.514	80.000	19.995	103.129	20.078	1.952	0.514
1289.000	724.796	80.001	19.996	103.125	20.077	2.038	0.524
1289.500	725.041	80.000	19.995	103.125	20.081	1.808	0.529
1290.000	725.367	80.000	19.996	103.131	20.079	1.900	0.549
1290.501	725.621	80.000	19.994	103.132	20.075	2.197	0.575
1291.001	725.895	80.001	19.995	103.137	20.076	2.122	0.554
1291.500	726.093	80.000	19.996	103.139	20.075	2.152	0.500
1292.000	726.399	80.001	19.995	103.139	20.076	2.100	0.488
1292.500	726.660	80.000	19.996	103.136	20.077	2.054	0.536
1293.000	726.897	80.001	19.995	103.133	20.074	2.211	0.533
1293.500	727.149	80.000	19.994	103.129	20.075	2.170	0.493
1294.000	727.446	80.001	19.995	103.127	20.080	1.819	0.519
1294.500	727.701	80.000	19.996	103.126	20.076	2.109	0.551
1295.000	728.003	80.000	19.995	103.128	20.076	2.084	0.554
1295.500	728.289	80.000	19.995	103.134	20.077	2.061	0.572
1296.000	728.562	80.000	19.995	103.138	20.078	1.975	0.573
1296.500	728.761	80.000	19.995	103.140	20.080	1.828	0.516
1297.001	729.013	80.000	19.995	103.140	20.078	1.971	0.462
1297.501	729.287	79.999	19.995	103.134	20.076	2.091	0.489
1298.000	729.539	80.000	19.995	103.129	20.076	2.113	0.526
1298.500	729.792	80.000	19.996	103.126	20.078	1.986	0.516
1299.000	730.064	79.999	19.994	103.123	20.077	2.050	0.515
1299.500	730.299	79.999	19.995	103.121	20.078	1.993	0.516
1300.000	730.582	80.000	19.995	103.122	20.074	2.229	0.512
1300.500	730.805	80.000	19.995	103.121	20.078	1.982	0.512
1301.000	731.049	79.999	19.994	103.122	20.076	2.113	0.486
1301.500	731.287	79.999	19.995	103.122	20.076	2.080	0.475
1302.000	731.515	79.999	19.994	103.120	20.080	1.871	0.474
1302.500	731.800	80.002	19.995	103.120	20.080	1.853	0.489
1303.000	732.036	80.000	19.995	103.119	20.078	1.955	0.517
1303.500	732.288	80.001	19.993	103.117	20.078	2.000	0.504
1304.000	732.552	80.002	19.995	103.118	20.077	2.062	0.502
1304.500	732.753	80.001	19.995	103.121	20.082	1.710	0.491
1305.000	732.996	80.001	19.994	103.121	20.080	1.831	0.455
1305.500	733.197	80.000	19.995	103.119	20.079	1.919	0.444
1306.000	733.510	80.004	19.994	103.119	20.077	2.027	0.479
1306.500	733.692	80.002	19.996	103.117	20.079	1.898	0.504
1307.000	733.931	80.002	19.994	103.113	20.076	2.082	0.458
1307.500	734.161	80.002	19.995	103.112	20.076	2.099	0.445
1308.000	734.417	80.002	19.995	103.112	20.078	1.977	0.478
1308.500	734.596	80.003	19.995	103.111	20.082	1.705	0.460
1309.000	734.852	80.004	19.995	103.113	20.077	2.025	0.435
1309.500	735.085	80.004	19.994	103.117	20.077	2.052	0.462
1310.000	735.304	80.002	19.995	103.118	20.077	2.057	0.470
1310.500	735.526	80.002	19.995	103.118	20.077	2.007	0.447
1311.000	735.788	80.002	19.995	103.118	20.077	2.038	0.463
1311.500	736.002	80.002	19.994	103.117	20.074	2.236	0.480
1312.000	736.226	80.003	19.993	103.113	20.078	1.941	0.457
1312.500	736.479	80.004	19.994	103.112	20.079	1.916	0.457
1313.000	736.685	80.002	19.994	103.113	20.077	2.005	0.468
1313.500	736.952	80.002	19.994	103.112	20.077	2.068	0.466
1314.000	737.149	80.003	19.995	103.113	20.080	1.839	0.468
1314.500	737.397	80.002	19.995	103.112	20.082	1.699	0.454
1315.000	737.639	80.003	19.994	103.112	20.081	1.778	0.468
1315.500	737.884	80.003	19.995	103.110	20.079	1.885	0.489
1316.000	738.102	80.002	19.994	103.111	20.077	2.057	0.475
1316.501	738.346	80.003	19.994	103.111	20.083	1.653	0.463
1317.001	738.589	80.003	19.995	103.117	20.078	1.966	0.475
1317.500	738.823	80.002	19.996	103.124	20.079	1.896	0.482
1318.000	739.065	80.002	19.994	103.130	20.078	1.984	0.476
1318.500	739.327	80.001	19.997	103.136	20.077	2.021	0.490
1319.000	739.592	80.002	19.995	103.139	20.076	2.086	0.515
1319.500	739.794	80.002	19.995	103.137	20.078	1.986	0.497
1320.000	740.045	80.002	19.996	103.134	20.079	1.891	0.460
1320.500	740.252	80.002	19.996	103.134	20.079	1.907	0.456
1321.000	740.490	80.001	19.995	103.130	20.078	2.002	0.451
1321.500	740.796	80.003	19.995	103.128	20.077	2.021	0.494
1322.000	741.060	80.002	19.995	103.125	20.076	2.075	0.557
1322.500	741.284	80.001	19.995	103.122	20.080	1.826	0.529
1323.000	741.555	80.000	19.996	103.122	20.077	2.048	0.491
1323.500	741.767	80.001	19.995	103.126	20.078	1.980	0.489
1324.000	742.028	80.002	19.995	103.131	20.081	1.796	0.478
1324.500	742.285	80.001	19.995	103.136	20.077	2.020	0.495
1325.000	742.503	80.003	19.995	103.138	20.078	2.004	0.497
1325.500	742.752	80.002	19.995	103.137	20.078	1.960	0.471
1326.000	743.023	80.003	19.996	103.132	20.077	2.052	0.494
1326.500	743.307	80.001	19.996	103.126	20.078	1.973	0.537
