Sample ID:	C:\MCC\MCC Cal\Test\FRP_Panel_MCC_30K_min_211029_R1.txt
Sample Weight (mg):	4.6
Heating Rate (C/s):	0.5
Combustor Temp (C):	900
N2 Flow Rate (cc/min):	80
O2 Flow Rate (cc/min):	20
Calibration File:	C:\MCC\MCC Cal\Coeff1 JN10440_30_210304.txt.txt
T Correction Coefficients:	0	1.024463	0
Time Shift (s):	14
*
Time (s)	Temperature (C)	N2 flow rate (cc/min)	O2 flow rate (cc/min)	Flow Rate (cc/min)	Oxygen (%)	HRR (W/g)	Heating rate (C/s)
0.001	107.706	79.994	19.998	102.914	20.052	0.006	-0.006
0.501	107.719	79.994	19.996	102.918	20.051	0.035	-0.013
1.000	107.712	79.993	19.997	102.915	20.054	-0.127	-0.000
1.500	107.677	79.994	19.997	102.921	20.054	-0.149	-0.019
2.000	107.699	79.992	19.997	102.922	20.053	-0.039	-0.028
2.500	107.678	79.993	19.997	102.922	20.053	-0.076	-0.005
3.000	107.689	79.990	19.996	102.923	20.051	0.082	-0.004
3.500	107.704	79.993	19.997	102.926	20.055	-0.244	0.008
4.000	107.673	79.993	19.997	102.923	20.053	-0.094	0.005
4.502	107.726	79.993	19.996	102.918	20.054	-0.121	0.003
5.001	107.699	79.993	19.996	102.912	20.054	-0.151	0.024
5.500	107.698	79.993	19.995	102.907	20.054	-0.137	-0.001
6.000	107.679	79.994	19.996	102.905	20.053	-0.041	-0.024
6.500	107.672	79.993	19.995	102.902	20.053	-0.094	-0.023
7.000	107.701	79.993	19.996	102.902	20.050	0.147	-0.002
7.500	107.676	79.993	19.996	102.903	20.051	0.055	0.013
8.000	107.700	79.993	19.995	102.909	20.052	0.014	0.002
8.500	107.691	79.993	19.996	102.914	20.049	0.227	0.008
9.000	107.671	79.992	19.996	102.919	20.049	0.194	-0.007
9.500	107.690	79.992	19.996	102.924	20.048	0.266	-0.015
10.001	107.709	79.993	19.996	102.929	20.046	0.442	0.019
10.501	107.691	79.993	19.995	102.929	20.045	0.497	0.019
11.001	107.682	79.993	19.995	102.929	20.047	0.348	-0.014
11.501	107.682	79.990	19.996	102.929	20.045	0.513	-0.018
12.000	107.687	79.991	19.997	102.929	20.047	0.348	-0.002
12.500	107.694	79.992	19.996	102.930	20.046	0.391	0.009
13.000	107.732	79.993	19.998	102.933	20.048	0.305	0.028
13.500	107.702	79.993	19.996	102.937	20.048	0.278	0.027
14.000	107.711	79.992	19.999	102.941	20.048	0.262	-0.006
14.500	107.684	79.991	19.998	102.946	20.049	0.196	-0.020
15.000	107.735	79.992	19.998	102.945	20.046	0.427	0.003
15.500	107.754	79.991	19.997	102.948	20.047	0.362	0.047
16.000	107.746	79.992	19.998	102.949	20.047	0.327	0.041
16.500	107.723	79.990	19.996	102.953	20.043	0.648	-0.010
17.000	107.711	79.992	19.999	102.955	20.042	0.711	-0.033
17.500	107.762	79.991	19.999	102.962	20.041	0.799	0.002
18.000	107.770	79.993	19.998	102.966	20.039	0.938	0.049
18.500	107.777	79.991	19.999	102.974	20.040	0.830	0.037
19.000	107.800	79.992	19.998	102.981	20.039	0.879	0.022
19.500	107.794	79.992	19.996	102.985	20.037	1.028	0.023
20.000	107.816	79.992	19.998	102.990	20.038	1.006	0.016
20.500	107.835	79.993	19.996	102.997	20.037	1.047	0.028
21.000	107.841	79.991	19.997	102.999	20.034	1.230	0.033
21.500	107.845	79.993	19.998	102.999	20.037	1.059	0.018
22.000	107.883	79.991	19.996	103.003	20.033	1.310	0.026
22.500	107.888	79.995	19.997	103.006	20.033	1.339	0.043
23.000	107.878	79.992	19.996	103.012	20.033	1.357	0.019
23.500	107.889	79.994	19.996	103.021	20.031	1.494	-0.002
24.000	107.914	79.993	19.995	103.030	20.030	1.530	0.018
24.500	107.989	79.993	19.997	103.038	20.026	1.837	0.068
25.000	107.944	79.994	19.997	103.050	20.030	1.541	0.065
25.500	108.022	79.994	19.995	103.058	20.027	1.755	0.032
26.000	108.053	79.993	19.995	103.062	20.029	1.616	0.071
26.500	108.085	79.994	19.996	103.061	20.023	2.002	0.086
27.000	108.110	79.993	19.997	103.060	20.024	1.943	0.060
27.500	108.150	79.993	19.996	103.057	20.025	1.890	0.061
28.000	108.240	79.994	19.997	103.052	20.026	1.800	0.097
28.500	108.235	79.994	19.996	103.049	20.027	1.775	0.108
29.000	108.268	79.994	19.997	103.050	20.025	1.875	0.057
29.500	108.336	79.995	19.996	103.050	20.022	2.102	0.065
30.000	108.348	79.995	19.996	103.051	20.026	1.830	0.090
30.500	108.413	79.993	19.996	103.049	20.025	1.887	0.079
31.000	108.421	79.996	19.996	103.048	20.021	2.151	0.075
31.500	108.497	79.995	19.995	103.048	20.023	2.002	0.078
32.000	108.515	79.994	19.996	103.048	20.022	2.069	0.088
32.500	108.559	79.994	19.996	103.047	20.022	2.081	0.078
33.000	108.642	79.994	19.995	103.048	20.022	2.077	0.095
33.500	108.692	79.995	19.994	103.053	20.021	2.148	0.130
34.000	108.739	79.996	19.995	103.061	20.022	2.099	0.115
34.500	108.795	79.994	19.994	103.069	20.023	2.044	0.100
35.000	108.859	79.994	19.996	103.077	20.019	2.299	0.112
35.500	108.908	79.993	19.995	103.084	20.022	2.130	0.117
36.000	108.975	79.995	19.996	103.087	20.020	2.218	0.115
36.500	109.039	79.994	19.996	103.088	20.022	2.118	0.123
37.000	109.105	79.993	19.995	103.088	20.021	2.171	0.131
37.500	109.142	79.995	19.995	103.088	20.022	2.087	0.116
38.000	109.234	79.992	19.996	103.088	20.021	2.169	0.115
38.500	109.284	79.995	19.995	103.088	20.020	2.250	0.136
39.000	109.339	79.995	19.995	103.088	20.016	2.502	0.124
39.500	109.429	79.995	19.995	103.089	20.020	2.232	0.125
40.001	109.502	79.993	19.995	103.090	20.016	2.495	0.154
40.501	109.541	79.994	19.995	103.094	20.016	2.538	0.138
41.000	109.619	79.994	19.994	103.100	20.014	2.664	0.114
41.500	109.713	79.994	19.995	103.108	20.013	2.746	0.144
42.000	109.811	79.995	19.995	103.116	20.016	2.550	0.182
42.500	109.867	79.995	19.995	103.123	20.017	2.472	0.173
43.000	109.968	79.994	19.995	103.128	20.016	2.534	0.155
43.500	110.046	79.995	19.995	103.129	20.014	2.654	0.168
44.000	110.139	79.994	19.994	103.129	20.014	2.680	0.175
44.501	110.223	79.993	19.996	103.129	20.015	2.566	0.174
45.001	110.335	79.993	19.996	103.129	20.014	2.640	0.186
45.501	110.420	79.994	19.995	103.131	20.015	2.582	0.196
46.001	110.511	79.995	19.996	103.135	20.014	2.640	0.187
46.501	110.628	79.994	19.996	103.136	20.016	2.550	0.192
47.000	110.677	79.993	19.996	103.137	20.016	2.509	0.187
47.500	110.777	79.995	19.995	103.139	20.013	2.709	0.158
48.000	110.868	79.992	19.996	103.136	20.012	2.819	0.170
48.500	110.976	79.995	19.996	103.133	20.012	2.764	0.195
49.000	111.082	79.993	19.995	103.134	20.011	2.899	0.206
49.501	111.190	79.994	19.995	103.134	20.012	2.780	0.214
50.001	111.290	79.996	19.996	103.139	20.014	2.632	0.211
50.501	111.424	79.994	19.995	103.144	20.011	2.901	0.221
51.001	111.515	79.995	19.995	103.152	20.008	3.046	0.229
51.501	111.642	79.995	19.995	103.158	20.009	3.019	0.221
52.001	111.768	79.994	19.996	103.163	20.009	3.019	0.235
52.500	111.862	79.995	19.995	103.164	20.010	2.944	0.237
53.000	112.000	79.995	19.996	103.167	20.008	3.056	0.226
53.500	112.100	79.994	19.995	103.167	20.007	3.127	0.235
54.000	112.226	79.994	19.995	103.166	20.009	3.034	0.232
54.500	112.365	79.995	19.996	103.166	20.009	3.019	0.246
55.000	112.465	79.995	19.994	103.166	20.007	3.127	0.252
55.500	112.580	79.995	19.996	103.165	20.008	3.101	0.227
56.000	112.725	79.996	19.999	103.164	20.008	3.087	0.238
56.500	112.792	79.995	19.998	103.165	20.007	3.113	0.236
57.000	112.977	79.993	19.999	103.165	20.008	3.086	0.232
57.500	113.102	79.994	19.999	103.165	20.010	2.914	0.281
58.000	113.236	79.996	19.996	103.166	20.009	3.006	0.284
58.500	113.399	79.994	19.997	103.167	20.008	3.102	0.278
59.000	113.531	79.995	19.996	103.167	20.010	2.914	0.296
59.500	113.673	79.993	19.996	103.167	20.006	3.188	0.285
60.000	113.811	79.994	19.996	103.166	20.006	3.216	0.277
60.500	113.939	79.994	19.996	103.166	20.009	2.996	0.273
61.000	114.108	79.993	19.996	103.165	20.003	3.406	0.281
61.501	114.220	79.994	19.995	103.164	20.008	3.078	0.289
62.001	114.353	79.993	19.996	103.164	20.006	3.223	0.263
62.500	114.511	79.992	19.995	103.166	20.005	3.305	0.268
63.000	114.666	79.995	19.995	103.167	20.006	3.241	0.302
63.501	114.787	79.993	19.995	103.168	20.004	3.380	0.294
64.001	114.980	79.994	19.996	103.168	20.006	3.196	0.295
64.501	115.080	79.994	19.995	103.169	20.009	3.000	0.304
65.001	115.221	79.992	19.996	103.169	20.006	3.221	0.267
65.500	115.376	79.992	19.995	103.168	20.006	3.233	0.268
66.000	115.547	79.991	19.996	103.169	20.005	3.318	0.311
66.500	115.715	79.993	19.996	103.173	20.005	3.290	0.333
67.000	115.843	79.994	19.994	103.174	20.004	3.373	0.318
67.500	116.002	79.994	19.994	103.181	20.003	3.431	0.292
68.000	116.159	79.993	19.996	103.189	20.003	3.431	0.302
68.500	116.355	79.993	19.995	103.195	20.000	3.622	0.334
69.000	116.488	79.992	19.994	103.198	20.001	3.557	0.341
69.500	116.665	79.993	19.998	103.203	20.000	3.661	0.320
70.000	116.828	79.992	19.994	103.203	20.002	3.467	0.325
70.500	116.983	79.992	19.995	103.203	20.003	3.451	0.329
71.000	117.149	79.993	19.995	103.203	20.001	3.598	0.320
71.500	117.389	79.993	19.996	103.197	20.003	3.457	0.363
72.000	117.491	79.990	19.995	103.193	20.001	3.586	0.374
72.500	117.710	79.993	19.995	103.191	20.003	3.408	0.332
73.000	117.850	79.994	19.995	103.189	20.002	3.468	0.340
73.500	118.017	79.992	19.996	103.185	20.003	3.437	0.333
74.000	118.205	79.992	19.996	103.188	20.003	3.396	0.331
74.500	118.393	79.993	19.995	103.189	20.002	3.490	0.365
75.000	118.546	79.993	19.996	103.187	20.002	3.482	0.359
75.501	118.715	79.994	19.995	103.188	20.004	3.368	0.332
76.001	118.933	79.993	19.995	103.193	20.006	3.221	0.354
76.500	119.080	79.992	19.996	103.195	20.003	3.423	0.376
77.000	119.299	79.993	19.995	103.198	20.002	3.496	0.366
77.500	119.448	79.992	19.998	103.200	20.003	3.439	0.367
78.000	119.654	79.992	19.997	103.199	20.004	3.390	0.361
78.500	119.835	79.994	19.998	103.199	19.999	3.674	0.371
79.000	120.011	79.991	19.998	103.199	20.001	3.586	0.372
79.500	120.226	79.993	19.998	103.199	20.003	3.420	0.374
80.000	120.424	79.993	19.996	103.201	20.005	3.322	0.402
80.501	120.601	79.994	19.997	103.203	20.006	3.188	0.394
81.001	120.765	79.992	19.996	103.202	20.000	3.641	0.358
81.501	120.995	79.992	19.996	103.201	20.001	3.547	0.368
82.001	121.154	79.993	19.996	103.202	20.000	3.663	0.391
82.501	121.359	79.991	19.997	103.198	20.003	3.451	0.376
83.001	121.560	79.994	19.996	103.195	20.004	3.386	0.385
83.501	121.748	79.992	19.996	103.193	20.004	3.353	0.397
84.000	121.953	79.992	19.996	103.193	20.001	3.588	0.391
84.500	122.181	79.991	19.997	103.192	20.004	3.349	0.413
85.000	122.375	79.993	19.995	103.195	20.001	3.535	0.428
85.500	122.567	79.992	19.997	103.195	20.003	3.394	0.404
86.000	122.785	79.993	19.995	103.196	20.001	3.584	0.398
86.500	122.971	79.992	19.996	103.191	20.005	3.255	0.407
87.000	123.200	79.991	19.996	103.188	20.004	3.386	0.410
87.500	123.413	79.994	19.995	103.186	20.003	3.404	0.428
88.000	123.639	79.993	19.996	103.189	20.002	3.512	0.440
88.500	123.834	79.993	19.995	103.189	20.001	3.533	0.430
89.000	124.048	79.993	19.995	103.192	20.002	3.517	0.415
89.500	124.227	79.993	19.996	103.195	20.005	3.288	0.401
90.000	124.462	79.993	19.996	103.196	20.006	3.190	0.404
90.500	124.691	79.993	19.995	103.196	20.004	3.341	0.440
91.000	124.847	79.990	19.996	103.197	20.004	3.361	0.425
91.500	125.082	79.993	19.995	103.197	20.002	3.525	0.388
92.000	125.307	79.993	19.995	103.198	20.004	3.376	0.425
92.500	125.516	79.991	19.996	103.199	20.005	3.298	0.447
93.000	125.727	79.991	19.996	103.200	20.003	3.399	0.427
93.500	125.923	79.992	19.997	103.201	20.006	3.207	0.413
94.000	126.152	79.993	19.996	103.203	20.007	3.127	0.416
94.500	126.406	79.992	19.996	103.202	20.004	3.325	0.454
95.000	126.576	79.991	19.996	103.199	20.005	3.315	0.453
95.500	126.818	79.993	19.997	103.198	20.005	3.319	0.418
96.000	127.020	79.991	19.996	103.199	20.004	3.367	0.428
96.500	127.249	79.991	19.996	103.199	20.006	3.225	0.437
97.000	127.457	79.992	19.996	103.201	20.006	3.194	0.434
97.501	127.705	79.991	19.996	103.204	20.003	3.437	0.447
98.001	127.917	79.993	19.996	103.204	20.005	3.282	0.458
98.500	128.122	79.992	19.996	103.201	20.003	3.410	0.438
99.001	128.357	79.992	19.995	103.198	20.005	3.302	0.429
99.501	128.565	79.991	19.997	103.195	20.001	3.557	0.442
100.000	128.781	79.992	19.996	103.193	20.002	3.488	0.433
100.500	129.011	79.992	19.996	103.191	20.004	3.364	0.435
101.000	129.243	79.993	19.996	103.189	20.003	3.404	0.454
101.500	129.462	79.992	19.996	103.190	20.005	3.288	0.456
102.000	129.736	79.994	19.995	103.193	20.004	3.335	0.472
102.500	129.929	79.992	19.995	103.189	20.002	3.474	0.480
103.000	130.147	79.994	19.996	103.183	20.003	3.445	0.439
103.501	130.406	79.994	19.995	103.182	20.002	3.500	0.444
104.001	130.584	79.992	19.997	103.181	20.003	3.396	0.457
104.500	130.800	79.992	19.996	103.176	20.003	3.412	0.416
105.000	131.051	79.993	19.997	103.180	20.004	3.333	0.430
105.500	131.280	79.993	19.996	103.183	19.999	3.676	0.473
106.000	131.557	79.994	19.996	103.188	20.005	3.262	0.494
106.500	131.772	79.996	19.995	103.192	20.006	3.225	0.499
107.001	131.990	79.994	19.996	103.197	20.004	3.348	0.463
107.501	132.255	79.993	19.997	103.193	20.003	3.427	0.458
108.000	132.469	79.994	19.996	103.195	20.001	3.579	0.481
108.500	132.723	79.991	19.996	103.194	20.004	3.342	0.473
109.000	132.930	79.993	19.996	103.196	20.005	3.315	0.465
109.500	133.174	79.994	19.996	103.196	20.003	3.425	0.457
110.000	133.416	79.994	19.996	103.199	20.006	3.199	0.469
110.500	133.621	79.994	19.997	103.196	20.004	3.344	0.466
111.000	133.888	79.994	19.997	103.190	20.006	3.221	0.459
111.500	134.107	79.994	19.996	103.188	20.005	3.288	0.479
112.000	134.333	79.994	19.995	103.187	20.005	3.260	0.465
112.500	134.536	79.993	19.995	103.183	20.003	3.423	0.437
113.000	134.809	79.991	19.996	103.186	20.002	3.480	0.453
113.501	135.020	79.994	19.996	103.190	20.004	3.329	0.480
114.001	135.303	79.992	19.996	103.190	20.005	3.260	0.489
114.500	135.533	79.993	19.996	103.190	20.003	3.421	0.504
115.000	135.746	79.995	19.995	103.196	20.004	3.325	0.478
115.500	135.998	79.993	19.996	103.196	20.006	3.250	0.454
116.000	136.248	79.992	19.995	103.197	20.003	3.426	0.483
116.500	136.454	79.994	19.995	103.192	20.006	3.246	0.479
117.000	136.708	79.992	19.994	103.188	20.004	3.387	0.459
117.501	136.972	79.994	19.996	103.181	20.002	3.522	0.489
118.001	137.209	79.993	19.996	103.176	20.004	3.368	0.509
118.500	137.413	79.994	19.995	103.172	20.003	3.458	0.471
119.000	137.703	79.994	19.994	103.171	20.004	3.381	0.468
119.500	137.932	79.994	19.995	103.170	20.004	3.346	0.506
120.001	138.197	79.995	19.994	103.172	20.002	3.491	0.506
120.501	138.435	79.993	19.994	103.175	20.005	3.289	0.498
121.000	138.681	79.992	19.995	103.175	20.002	3.497	0.493
121.500	138.914	79.992	19.994	103.175	20.007	3.146	0.481
122.000	139.164	79.993	19.995	103.175	20.005	3.277	0.481
122.500	139.405	79.993	19.995	103.176	20.002	3.507	0.487
123.000	139.659	79.993	19.995	103.175	20.002	3.483	0.493
123.500	139.898	79.994	19.995	103.176	20.001	3.550	0.494
124.000	140.147	79.994	19.995	103.175	20.003	3.428	0.491
124.500	140.387	79.993	19.996	103.175	20.004	3.334	0.488
125.000	140.678	79.992	19.995	103.173	20.006	3.221	0.510
125.500	140.918	79.994	19.995	103.171	20.006	3.207	0.531
126.000	141.121	79.995	19.996	103.169	20.005	3.293	0.487
126.501	141.439	79.995	19.996	103.168	20.005	3.301	0.482
127.001	141.633	79.994	19.996	103.168	20.005	3.277	0.516
127.500	141.892	79.995	19.995	103.166	20.003	3.403	0.482
128.000	142.159	79.994	19.995	103.166	20.003	3.438	0.489
128.500	142.354	79.993	19.995	103.166	20.005	3.275	0.494
129.000	142.635	79.995	19.995	103.165	20.005	3.256	0.470
129.500	142.857	79.992	19.996	103.167	20.003	3.440	0.490
130.000	143.134	79.996	19.995	103.168	20.006	3.230	0.500
130.500	143.383	79.995	19.995	103.168	20.006	3.252	0.512
131.000	143.649	79.995	19.996	103.169	20.005	3.264	0.521
131.500	143.888	79.995	19.995	103.170	20.004	3.336	0.511
132.000	144.138	79.996	19.995	103.167	20.006	3.187	0.497
132.500	144.416	79.996	19.994	103.166	20.004	3.375	0.508
133.000	144.621	79.995	19.996	103.166	20.002	3.518	0.505
133.500	144.863	79.995	19.995	103.166	20.004	3.356	0.465
134.000	145.145	79.996	19.995	103.164	20.003	3.409	0.486
134.500	145.413	79.996	19.995	103.164	20.006	3.195	0.537
135.000	145.632	79.994	19.995	103.164	20.004	3.348	0.518
135.500	145.902	79.997	19.995	103.165	20.005	3.289	0.488
136.000	146.139	79.993	19.995	103.165	20.003	3.415	0.498
136.500	146.385	79.994	19.995	103.165	20.005	3.283	0.495
137.000	146.616	79.993	19.994	103.164	20.004	3.332	0.480
137.500	146.888	79.993	19.996	103.164	20.006	3.219	0.490
138.000	147.125	79.993	19.996	103.163	20.002	3.487	0.507
138.500	147.391	79.993	19.996	103.162	20.002	3.499	0.506
139.000	147.634	79.992	19.995	103.161	20.004	3.389	0.506
139.500	147.911	79.992	19.996	103.161	20.007	3.172	0.515
140.000	148.098	79.992	19.995	103.161	20.005	3.303	0.492
140.500	148.384	79.992	19.995	103.160	20.006	3.230	0.468
141.000	148.627	79.992	19.995	103.161	20.004	3.363	0.501
141.500	148.877	79.993	19.996	103.163	20.004	3.383	0.511
142.000	149.120	79.991	19.995	103.164	20.004	3.346	0.493
142.500	149.368	79.992	19.996	103.164	20.002	3.464	0.492
143.000	149.658	79.992	19.995	103.164	20.007	3.140	0.514
143.500	149.895	79.993	19.995	103.164	20.004	3.369	0.532
144.000	150.156	79.992	19.995	103.163	20.003	3.418	0.513
144.500	150.403	79.993	19.995	103.163	20.003	3.432	0.503
145.000	150.643	79.994	19.995	103.164	20.005	3.275	0.497
145.500	150.886	79.992	19.996	103.164	20.003	3.395	0.485
146.000	151.159	79.993	19.995	103.164	20.003	3.403	0.499
146.500	151.378	79.994	19.996	103.164	20.001	3.563	0.504
147.000	151.623	79.993	19.995	103.164	20.000	3.607	0.478
147.500	151.848	79.993	19.995	103.164	20.004	3.340	0.467
148.000	152.170	79.993	19.995	103.164	20.004	3.324	0.509
148.500	152.382	79.993	19.996	103.164	20.004	3.364	0.541
149.000	152.662	79.992	19.996	103.165	20.004	3.369	0.513
149.500	152.888	79.993	19.995	103.165	20.006	3.209	0.499
150.000	153.134	79.993	19.994	103.165	20.006	3.221	0.489
150.500	153.369	79.992	19.995	103.165	20.007	3.123	0.477
151.000	153.659	79.993	19.995	103.163	20.003	3.448	0.503
151.500	153.848	79.991	19.996	103.161	20.003	3.462	0.502
152.000	154.113	79.994	19.996	103.161	20.003	3.450	0.467
152.500	154.375	79.993	19.994	103.161	20.003	3.393	0.491
153.000	154.577	79.994	19.995	103.161	20.003	3.436	0.495
153.500	154.860	79.995	19.995	103.164	20.004	3.383	0.475
154.000	155.091	79.993	19.995	103.166	20.006	3.211	0.500
154.500	155.356	79.991	19.996	103.165	20.003	3.403	0.505
155.000	155.566	79.993	19.996	103.165	20.007	3.164	0.486
155.500	155.883	79.993	19.995	103.164	20.004	3.348	0.501
156.000	156.124	79.995	19.996	103.163	20.003	3.420	0.543
156.500	156.337	79.995	19.996	103.163	20.003	3.414	0.506
157.000	156.589	79.993	19.996	103.164	20.004	3.371	0.459
157.500	156.843	79.994	19.994	103.164	20.005	3.273	0.486
158.000	157.088	79.994	19.996	103.162	20.009	3.012	0.503
158.500	157.303	79.992	19.995	103.163	20.007	3.151	0.479
159.000	157.601	79.993	19.996	103.163	20.007	3.173	0.486
159.500	157.821	79.990	19.996	103.162	20.006	3.220	0.515
160.000	158.071	79.993	19.995	103.163	20.003	3.445	0.494
160.500	158.326	79.992	19.995	103.165	20.007	3.130	0.488
161.000	158.589	79.992	19.996	103.166	20.004	3.377	0.512
161.500	158.800	79.992	19.996	103.166	20.006	3.191	0.496
162.000	159.069	79.994	19.994	103.166	20.009	3.028	0.477
162.500	159.282	79.992	19.995	103.166	20.009	3.001	0.481
163.000	159.532	79.993	19.994	103.167	20.004	3.379	0.472
163.500	159.844	79.992	19.996	103.167	20.005	3.303	0.512
164.000	160.046	79.992	19.997	103.167	20.004	3.385	0.538
164.500	160.318	79.993	19.995	103.167	20.003	3.405	0.494
165.000	160.565	79.993	19.996	103.167	20.004	3.387	0.496
165.500	160.785	79.991	19.996	103.166	20.007	3.124	0.493
166.000	161.061	79.992	19.997	103.165	20.004	3.375	0.482
166.500	161.290	79.993	19.995	103.160	20.004	3.361	0.501
167.000	161.537	79.992	19.996	103.153	20.004	3.373	0.490
167.500	161.789	79.993	19.996	103.151	20.001	3.565	0.487
168.000	162.069	79.993	19.996	103.149	20.002	3.504	0.515
168.500	162.272	79.991	19.996	103.142	20.001	3.597	0.507
169.000	162.525	79.991	19.996	103.145	20.001	3.591	0.470
169.500	162.773	79.993	19.995	103.149	20.002	3.499	0.479
170.000	163.027	79.993	19.997	103.149	20.000	3.652	0.502
170.500	163.255	79.991	19.996	103.146	20.002	3.475	0.492
171.000	163.510	79.990	19.998	103.152	19.999	3.699	0.483
171.500	163.774	79.992	19.997	103.152	20.000	3.661	0.501
172.000	164.012	79.992	19.996	103.148	20.001	3.567	0.510
172.500	164.296	79.993	19.996	103.149	20.000	3.628	0.512
173.000	164.534	79.992	19.996	103.151	19.998	3.805	0.522
173.500	164.783	79.992	19.998	103.153	19.999	3.724	0.505
174.000	165.029	79.992	19.995	103.156	20.001	3.560	0.491
174.500	165.254	79.992	19.997	103.162	19.999	3.691	0.483
175.000	165.531	79.991	19.996	103.162	20.000	3.603	0.486
175.500	165.782	79.992	19.996	103.165	19.998	3.795	0.514
176.000	166.048	79.991	19.996	103.163	19.998	3.771	0.522
176.500	166.282	79.991	19.996	103.162	19.997	3.879	0.509
177.000	166.525	79.991	19.996	103.159	19.995	3.955	0.488
177.500	166.742	79.992	19.997	103.159	19.997	3.832	0.469
178.000	167.020	79.991	19.997	103.156	20.001	3.564	0.478
178.500	167.240	79.992	19.997	103.155	19.998	3.781	0.496
179.000	167.483	79.992	19.997	103.156	19.999	3.677	0.480
179.500	167.746	79.991	19.997	103.159	19.996	3.944	0.484
180.000	167.989	79.992	19.995	103.161	19.996	3.930	0.506
180.500	168.236	79.993	19.996	103.164	19.998	3.785	0.498
181.000	168.436	79.993	19.996	103.167	19.997	3.875	0.469
181.500	168.746	79.990	19.996	103.166	19.998	3.769	0.478
182.000	168.965	79.994	19.996	103.163	19.998	3.793	0.519
182.500	169.183	79.992	19.996	103.163	19.994	4.040	0.483
183.000	169.452	79.991	19.996	103.163	19.996	3.901	0.462
183.500	169.692	79.994	19.996	103.163	19.996	3.942	0.498
184.000	169.969	79.993	19.995	103.164	19.994	4.083	0.513
184.500	170.217	79.993	19.997	103.167	19.997	3.849	0.521
185.000	170.443	79.994	19.995	103.167	19.996	3.928	0.499
185.500	170.704	79.995	19.995	103.166	19.996	3.947	0.480
186.000	170.921	79.994	19.995	103.166	19.994	4.086	0.483
186.500	171.194	79.994	19.996	103.162	19.996	3.926	0.484
187.000	171.433	79.993	19.996	103.161	19.991	4.257	0.501
187.500	171.697	79.993	19.996	103.162	19.995	3.979	0.508
188.000	171.966	79.994	19.995	103.162	19.997	3.877	0.518
188.500	172.167	79.993	19.996	103.162	19.996	3.949	0.501
189.000	172.428	79.992	19.997	103.165	19.995	3.988	0.466
189.500	172.673	79.993	19.997	103.164	19.991	4.262	0.484
190.000	172.927	79.994	19.995	103.164	19.995	3.974	0.503
190.500	173.186	79.994	19.996	103.164	19.994	4.062	0.506
191.000	173.429	79.993	19.996	103.163	19.994	4.066	0.507
191.500	173.692	79.992	19.997	103.163	19.992	4.164	0.504
192.000	173.940	79.993	19.996	103.164	19.997	3.859	0.509
192.500	174.192	79.993	19.997	103.163	19.993	4.123	0.506
193.000	174.480	79.993	19.996	103.163	19.992	4.190	0.520
193.500	174.701	79.992	19.997	103.164	19.995	3.981	0.524
194.000	174.955	79.994	19.997	103.162	19.991	4.298	0.492
194.500	175.215	79.992	19.996	103.160	19.993	4.110	0.494
195.000	175.436	79.993	19.997	103.159	19.991	4.244	0.497
195.500	175.681	79.992	19.996	103.155	19.991	4.263	0.473
196.000	175.976	79.993	19.997	103.153	19.990	4.349	0.503
196.500	176.218	79.992	19.997	103.151	19.993	4.108	0.538
197.000	176.427	79.992	19.995	103.151	19.991	4.239	0.494
197.500	176.684	79.992	19.997	103.153	19.991	4.273	0.459
198.000	176.952	79.991	19.998	103.156	19.995	3.957	0.495
198.500	177.195	79.993	19.996	103.154	19.994	4.061	0.518
199.000	177.423	79.991	19.997	103.155	19.991	4.245	0.491
199.500	177.688	79.992	19.997	103.150	19.991	4.282	0.482
200.000	177.969	79.992	19.997	103.144	19.992	4.174	0.520
200.500	178.186	79.994	19.996	103.138	19.988	4.507	0.522
201.000	178.459	79.992	19.996	103.136	19.994	4.088	0.494
201.500	178.705	79.993	19.996	103.132	19.990	4.370	0.505
202.000	178.984	79.992	19.997	103.131	19.991	4.299	0.522
202.500	179.197	79.993	19.995	103.133	19.990	4.368	0.508
203.000	179.496	79.994	19.997	103.139	19.991	4.291	0.502
203.500	179.701	79.995	19.996	103.143	19.989	4.375	0.508
204.000	179.979	79.994	19.996	103.149	19.989	4.375	0.494
204.500	180.218	79.994	19.996	103.155	19.988	4.507	0.500
205.001	180.444	79.993	19.995	103.160	19.989	4.387	0.491
205.501	180.710	79.993	19.996	103.160	19.991	4.236	0.479
206.000	181.000	79.995	19.996	103.160	19.991	4.282	0.524
206.500	181.241	79.995	19.995	103.160	19.988	4.454	0.543
207.000	181.484	79.996	19.996	103.158	19.989	4.419	0.507
207.500	181.705	79.993	19.996	103.157	19.990	4.317	0.474
208.000	181.976	79.996	19.996	103.156	19.989	4.417	0.479
208.500	182.241	79.994	19.995	103.156	19.986	4.587	0.514
209.000	182.483	79.994	19.994	103.156	19.986	4.591	0.521
209.500	182.750	79.995	19.996	103.155	19.988	4.456	0.508
210.000	183.013	79.996	19.996	103.150	19.984	4.724	0.520
210.500	183.232	79.997	19.995	103.146	19.989	4.432	0.506
211.000	183.494	79.995	19.996	103.146	19.986	4.589	0.481
211.500	183.754	79.997	19.995	103.139	19.987	4.573	0.501
212.000	183.989	79.993	19.996	103.139	19.984	4.736	0.509
212.500	184.272	79.996	19.995	103.138	19.986	4.599	0.506
213.000	184.548	79.995	19.995	103.136	19.987	4.568	0.539
213.500	184.756	79.996	19.994	103.130	19.983	4.795	0.522
214.000	185.014	79.996	19.994	103.129	19.983	4.836	0.475
214.500	185.264	79.996	19.993	103.125	19.982	4.869	0.487
215.000	185.528	79.995	19.995	103.126	19.982	4.926	0.511
215.501	185.791	79.994	19.995	103.129	19.983	4.856	0.521
216.000	186.043	79.993	19.994	103.130	19.982	4.907	0.521
216.500	186.276	79.995	19.995	103.132	19.982	4.885	0.500
217.000	186.558	79.995	19.994	103.133	19.982	4.895	0.500
217.500	186.778	79.993	19.995	103.134	19.983	4.832	0.509
218.000	187.075	79.995	19.994	103.132	19.981	4.953	0.509
218.500	187.290	79.993	19.994	103.131	19.983	4.820	0.514
219.001	187.551	79.994	19.995	103.128	19.981	4.948	0.494
219.501	187.826	79.995	19.995	103.131	19.982	4.893	0.506
220.000	188.060	79.995	19.996	103.130	19.981	4.991	0.523
220.500	188.325	79.992	19.995	103.130	19.984	4.720	0.504
221.000	188.567	79.993	19.996	103.130	19.984	4.746	0.504
221.500	188.803	79.994	19.996	103.130	19.984	4.760	0.493
222.000	189.042	79.992	19.995	103.127	19.982	4.916	0.476
222.500	189.318	79.991	19.995	103.127	19.982	4.861	0.495
223.000	189.519	79.991	19.996	103.130	19.980	5.004	0.496
223.500	189.809	79.992	19.996	103.132	19.983	4.857	0.484
224.000	190.044	79.990	19.995	103.132	19.982	4.865	0.508
224.500	190.313	79.991	19.994	103.133	19.983	4.809	0.515
225.000	190.581	79.992	19.996	103.132	19.979	5.106	0.521
225.500	190.836	79.992	19.995	103.132	19.982	4.912	0.530
226.000	191.053	79.991	19.995	103.136	19.980	5.028	0.497
226.500	191.347	79.992	19.996	103.136	19.981	4.967	0.491
227.000	191.560	79.992	19.995	103.135	19.981	4.969	0.509
227.500	191.818	79.993	19.996	103.135	19.981	4.979	0.489
228.000	192.078	79.991	19.995	103.132	19.982	4.867	0.495
228.500	192.303	79.990	19.995	103.128	19.983	4.838	0.502
229.000	192.549	79.993	19.995	103.128	19.979	5.095	0.478
229.500	192.811	79.991	19.995	103.128	19.980	5.063	0.489
230.000	193.039	79.992	19.995	103.128	19.978	5.177	0.499
230.500	193.322	79.992	19.994	103.129	19.977	5.238	0.501
231.000	193.563	79.991	19.995	103.130	19.978	5.204	0.517
231.500	193.824	79.992	19.996	103.131	19.979	5.122	0.513
232.000	194.075	79.992	19.996	103.130	19.979	5.136	0.507
232.500	194.322	79.992	19.996	103.130	19.980	5.048	0.505
233.000	194.548	79.992	19.996	103.129	19.979	5.120	0.486
233.500	194.827	79.992	19.995	103.128	19.980	5.026	0.489
234.000	195.071	79.993	19.995	103.128	19.980	5.044	0.514
234.500	195.336	79.993	19.996	103.129	19.980	5.030	0.516
235.000	195.570	79.992	19.995	103.129	19.976	5.306	0.505
235.500	195.861	79.993	19.996	103.129	19.981	4.950	0.512
236.000	196.095	79.992	19.994	103.129	19.977	5.236	0.525
236.500	196.373	79.990	19.997	103.129	19.976	5.318	0.519
237.000	196.574	79.991	19.995	103.129	19.979	5.071	0.495
237.500	196.818	79.991	19.995	103.130	19.977	5.273	0.462
238.000	197.092	79.992	19.994	103.130	19.976	5.298	0.482
238.500	197.338	79.993	19.996	103.130	19.975	5.404	0.519
239.000	197.534	79.993	19.995	103.130	19.977	5.267	0.481
239.500	197.802	79.994	19.994	103.130	19.979	5.114	0.453
240.000	198.085	79.992	19.995	103.131	19.979	5.079	0.507
240.500	198.300	79.993	19.994	103.131	19.978	5.189	0.525
241.000	198.511	79.993	19.994	103.131	19.977	5.263	0.462
241.500	198.777	79.993	19.995	103.131	19.976	5.324	0.452
242.000	199.078	79.992	19.994	103.130	19.976	5.345	0.522
242.500	199.334	79.994	19.995	103.129	19.976	5.285	0.562
243.000	199.564	79.992	19.994	103.129	19.973	5.520	0.521
243.500	199.793	79.991	19.995	103.129	19.976	5.288	0.473
244.000	200.047	79.992	19.995	103.128	19.976	5.316	0.471
244.500	200.296	79.991	19.994	103.129	19.977	5.210	0.493
245.000	200.542	79.993	19.994	103.129	19.979	5.116	0.499
245.500	200.784	79.993	19.994	103.129	19.977	5.235	0.492
246.000	201.042	79.990	19.995	103.129	19.976	5.292	0.494
246.500	201.289	79.992	19.995	103.129	19.976	5.282	0.502
247.000	201.539	79.990	19.994	103.129	19.976	5.322	0.501
247.500	201.814	79.993	19.995	103.129	19.978	5.185	0.511
248.000	202.018	79.992	19.995	103.129	19.977	5.249	0.502
248.500	202.290	79.991	19.995	103.129	19.973	5.559	0.477
249.000	202.522	79.993	19.996	103.129	19.977	5.255	0.490
249.500	202.771	79.992	19.995	103.129	19.975	5.390	0.493
250.000	203.009	79.993	19.995	103.129	19.975	5.355	0.485
250.500	203.273	79.993	19.994	103.128	19.973	5.510	0.495
251.000	203.530	79.992	19.996	103.128	19.972	5.627	0.511
251.500	203.760	79.992	19.995	103.128	19.970	5.727	0.503
252.000	204.013	79.992	19.996	103.128	19.970	5.739	0.485
252.500	204.218	79.992	19.995	103.127	19.974	5.468	0.471
253.000	204.511	79.992	19.998	103.126	19.974	5.457	0.478
253.500	204.733	79.993	19.996	103.126	19.973	5.504	0.506
254.000	205.007	79.992	19.996	103.125	19.974	5.459	0.506
254.500	205.243	79.992	19.997	103.125	19.972	5.601	0.503
255.000	205.482	79.991	19.997	103.125	19.973	5.531	0.492
255.500	205.717	79.993	19.998	103.124	19.974	5.485	0.474
256.000	205.979	79.991	19.997	103.124	19.975	5.415	0.486
256.500	206.205	79.992	19.996	103.124	19.973	5.505	0.493
257.000	206.487	79.993	19.997	103.124	19.974	5.464	0.498
257.500	206.732	79.992	19.999	103.124	19.972	5.586	0.518
258.000	206.987	79.994	19.997	103.125	19.974	5.488	0.513
258.500	207.238	79.992	19.997	103.125	19.976	5.312	0.503
259.000	207.500	79.992	19.996	103.123	19.972	5.614	0.510
259.500	207.712	79.992	19.997	103.122	19.970	5.733	0.493
260.000	207.968	79.993	19.997	103.122	19.971	5.684	0.471
260.500	208.262	79.992	19.997	103.122	19.971	5.649	0.509
261.000	208.473	79.992	19.996	103.120	19.972	5.576	0.527
261.500	208.724	79.992	19.997	103.121	19.970	5.709	0.483
262.000	208.970	79.993	19.997	103.121	19.975	5.408	0.479
262.500	209.142	79.992	19.996	103.118	19.973	5.502	0.458
263.000	209.449	79.994	19.995	103.117	19.972	5.582	0.449
263.500	209.698	79.994	19.997	103.120	19.970	5.762	0.518
264.000	209.908	79.992	19.997	103.120	19.972	5.593	0.508
264.500	210.154	79.993	19.996	103.119	19.969	5.801	0.457
265.000	210.432	79.995	19.997	103.120	19.970	5.744	0.490
265.500	210.686	79.994	19.996	103.116	19.970	5.742	0.528
266.000	210.901	79.995	19.996	103.112	19.968	5.838	0.501
266.500	211.156	79.996	19.997	103.108	19.969	5.832	0.469
267.000	211.403	79.994	19.995	103.108	19.964	6.154	0.485
267.500	211.636	79.995	19.996	103.109	19.970	5.746	0.491
268.000	211.897	79.995	19.996	103.115	19.970	5.762	0.487
268.500	212.152	79.995	19.995	103.119	19.968	5.850	0.505
269.000	212.363	79.994	19.996	103.122	19.970	5.761	0.491
269.500	212.653	79.993	19.996	103.124	19.966	6.030	0.484
270.000	212.869	79.994	19.996	103.125	19.964	6.126	0.503
270.500	213.142	79.995	19.996	103.125	19.967	5.969	0.498
271.000	213.355	79.994	19.996	103.125	19.967	5.928	0.488
271.501	213.586	79.994	19.995	103.124	19.966	5.997	0.465
272.000	213.845	79.993	19.996	103.123	19.964	6.154	0.467
272.500	214.098	79.993	19.996	103.121	19.966	5.984	0.501
273.000	214.360	79.996	19.996	103.120	19.966	6.032	0.514
273.500	214.566	79.994	19.997	103.117	19.965	6.062	0.492
274.000	214.812	79.995	19.996	103.116	19.968	5.899	0.460
274.500	215.090	79.994	19.996	103.116	19.964	6.118	0.487
275.000	215.363	79.994	19.997	103.114	19.967	5.930	0.537
275.500	215.579	79.991	19.998	103.110	19.964	6.152	0.521
276.000	215.822	79.993	19.996	103.110	19.966	5.985	0.474
276.500	216.075	79.992	19.997	103.107	19.966	5.997	0.477
277.000	216.318	79.991	19.997	103.108	19.963	6.209	0.496
277.500	216.577	79.993	19.996	103.107	19.960	6.467	0.499
278.000	216.830	79.993	19.997	103.109	19.963	6.220	0.507
278.500	217.046	79.991	19.997	103.108	19.963	6.211	0.490
279.000	217.299	79.993	19.997	103.107	19.961	6.397	0.469
279.500	217.533	79.991	19.997	103.105	19.959	6.507	0.478
280.000	217.770	79.993	19.996	103.104	19.960	6.415	0.479
280.500	218.038	79.992	19.997	103.105	19.957	6.630	0.488
281.000	218.280	79.993	19.995	103.103	19.957	6.636	0.508
281.500	218.544	79.992	19.997	103.108	19.956	6.704	0.508
282.000	218.793	79.992	19.997	103.110	19.955	6.782	0.509
282.500	219.043	79.992	19.997	103.114	19.959	6.530	0.506
283.000	219.274	79.992	19.996	103.115	19.959	6.510	0.490
283.500	219.525	79.992	19.996	103.119	19.956	6.699	0.481
284.000	219.791	79.992	19.997	103.116	19.955	6.758	0.500
284.500	220.009	79.993	19.996	103.115	19.957	6.665	0.501
285.000	220.236	79.993	19.996	103.115	19.958	6.601	0.464
285.501	220.480	79.993	19.997	103.113	19.957	6.620	0.457
286.001	220.760	79.992	19.996	103.114	19.956	6.681	0.497
286.500	220.994	79.992	19.997	103.116	19.955	6.816	0.519
287.000	221.254	79.995	19.997	103.114	19.953	6.909	0.504
287.500	221.473	79.994	19.997	103.114	19.954	6.885	0.487
288.000	221.714	79.992	19.997	103.114	19.953	6.907	0.470
288.500	221.971	79.993	19.996	103.112	19.953	6.930	0.479
289.000	222.221	79.994	19.997	103.112	19.954	6.862	0.502
289.500	222.497	79.994	19.996	103.117	19.951	7.042	0.516
290.000	222.749	79.993	19.996	103.118	19.953	6.928	0.527
290.500	222.959	79.995	19.997	103.120	19.950	7.159	0.495
291.000	223.210	79.993	19.996	103.121	19.950	7.103	0.462
291.500	223.451	79.994	19.997	103.119	19.951	7.084	0.477
292.001	223.708	79.994	19.996	103.114	19.952	7.011	0.495
292.501	223.933	79.995	19.996	103.107	19.950	7.164	0.490
293.000	224.211	79.995	19.995	103.105	19.951	7.051	0.492
293.500	224.461	79.993	19.995	103.108	19.948	7.246	0.515
294.000	224.659	79.992	19.994	103.113	19.949	7.185	0.488
294.500	224.921	79.995	19.995	103.116	19.951	7.095	0.454
295.000	225.144	79.994	19.995	103.122	19.948	7.269	0.473
295.500	225.383	79.994	19.994	103.120	19.949	7.219	0.473
296.000	225.646	79.994	19.996	103.119	19.948	7.242	0.482
296.500	225.912	79.992	19.996	103.120	19.952	7.002	0.515
297.000	226.134	79.993	19.994	103.119	19.952	6.963	0.508
297.500	226.396	79.993	19.995	103.119	19.947	7.357	0.486
298.000	226.652	79.994	19.996	103.122	19.949	7.210	0.501
298.500	226.869	79.991	19.994	103.122	19.946	7.400	0.496
299.000	227.143	79.993	19.995	103.122	19.947	7.311	0.482
299.500	227.367	79.992	19.996	103.123	19.947	7.315	0.494
300.000	227.640	79.991	19.997	103.124	19.948	7.279	0.497
300.500	227.890	79.993	19.995	103.121	19.946	7.377	0.510
301.000	228.091	79.992	19.997	103.117	19.948	7.287	0.487
301.500	228.359	79.992	19.997	103.109	19.952	6.978	0.460
302.000	228.612	79.991	19.996	103.107	19.949	7.221	0.495
302.500	228.903	79.990	19.996	103.104	19.947	7.355	0.533
303.000	229.153	79.990	19.995	103.108	19.947	7.321	0.543
303.500	229.359	79.993	19.995	103.108	19.949	7.212	0.498
304.000	229.622	79.991	19.996	103.110	19.952	7.025	0.462
304.500	229.900	79.990	19.994	103.105	19.944	7.527	0.505
305.000	230.110	79.991	19.995	103.103	19.948	7.286	0.514
305.500	230.389	79.990	19.996	103.097	19.947	7.376	0.488
306.000	230.638	79.991	19.995	103.098	19.945	7.455	0.509
306.500	230.871	79.992	19.994	103.100	19.942	7.674	0.505
307.000	231.101	79.991	19.995	103.105	19.945	7.489	0.472
307.500	231.351	79.991	19.995	103.112	19.945	7.468	0.471
308.000	231.590	79.991	19.995	103.119	19.945	7.511	0.484
308.500	231.843	79.994	19.994	103.119	19.945	7.446	0.491
309.000	232.071	79.991	19.995	103.122	19.942	7.671	0.487
309.500	232.364	79.991	19.994	103.118	19.942	7.664	0.501
310.000	232.589	79.991	19.995	103.110	19.942	7.680	0.520
310.500	232.856	79.991	19.996	103.103	19.943	7.636	0.505
311.000	233.085	79.990	19.995	103.101	19.943	7.627	0.493
311.500	233.320	79.995	19.994	103.095	19.943	7.603	0.480
312.000	233.591	79.994	19.995	103.099	19.943	7.612	0.485
312.500	233.818	79.990	19.995	103.106	19.942	7.704	0.502
313.000	234.078	79.992	19.995	103.111	19.943	7.596	0.492
313.500	234.299	79.992	19.995	103.114	19.944	7.516	0.484
314.000	234.585	79.992	19.997	103.114	19.944	7.580	0.495
314.501	234.859	79.992	19.995	103.112	19.944	7.547	0.533
315.001	235.067	79.992	19.995	103.108	19.942	7.714	0.521
315.500	235.327	79.991	19.996	103.107	19.942	7.693	0.475
316.000	235.574	79.991	19.996	103.108	19.947	7.368	0.487
316.500	235.801	79.993	19.995	103.110	19.945	7.511	0.491
317.000	236.106	79.991	19.994	103.112	19.944	7.556	0.503
317.500	236.287	79.995	19.996	103.109	19.944	7.549	0.509
318.000	236.588	79.992	19.996	103.106	19.948	7.265	0.484
318.500	236.809	79.991	19.996	103.103	19.943	7.608	0.502
319.000	237.055	79.992	19.995	103.101	19.945	7.508	0.494
319.500	237.287	79.996	19.995	103.100	19.946	7.393	0.472
320.000	237.558	79.992	19.995	103.104	19.946	7.430	0.491
320.500	237.747	79.992	19.994	103.108	19.947	7.320	0.481
321.000	238.045	79.992	19.995	103.111	19.947	7.322	0.474
321.500	238.293	79.993	19.995	103.108	19.948	7.267	0.517
322.000	238.541	79.991	19.994	103.109	19.946	7.410	0.521
322.500	238.795	79.990	19.995	103.104	19.947	7.371	0.499
323.000	239.010	79.991	19.995	103.100	19.947	7.318	0.485
323.500	239.254	79.993	19.994	103.095	19.944	7.549	0.464
324.000	239.526	79.992	19.996	103.095	19.946	7.385	0.488
324.500	239.742	79.993	19.995	103.092	19.946	7.400	0.502
325.000	239.974	79.991	19.996	103.091	19.946	7.406	0.468
325.500	240.280	79.994	19.996	103.095	19.947	7.318	0.493
326.000	240.429	79.993	19.995	103.101	19.946	7.400	0.497
326.500	240.719	79.993	19.995	103.103	19.948	7.275	0.446
327.000	240.956	79.993	19.995	103.104	19.947	7.333	0.483
327.500	241.209	79.994	19.994	103.107	19.945	7.455	0.509
328.000	241.476	79.993	19.994	103.103	19.947	7.308	0.505
328.500	241.700	79.991	19.996	103.097	19.946	7.434	0.505
329.000	241.951	79.996	19.994	103.095	19.948	7.271	0.483
329.500	242.194	79.992	19.996	103.095	19.946	7.422	0.485
330.000	242.436	79.991	19.994	103.092	19.947	7.340	0.489
330.500	242.711	79.993	19.994	103.095	19.947	7.314	0.500
331.000	242.957	79.994	19.995	103.096	19.952	7.018	0.519
331.500	243.230	79.991	19.994	103.096	19.951	7.051	0.520
332.000	243.428	79.991	19.996	103.095	19.950	7.102	0.495
332.500	243.700	79.996	19.994	103.095	19.950	7.106	0.470
333.000	243.898	79.992	19.995	103.094	19.948	7.254	0.470
333.500	244.172	79.992	19.996	103.092	19.950	7.105	0.471
334.000	244.414	79.993	19.995	103.091	19.949	7.234	0.494
334.500	244.631	79.994	19.995	103.092	19.950	7.161	0.488
335.000	244.903	79.991	19.995	103.092	19.950	7.126	0.474
335.500	245.156	79.992	19.995	103.089	19.950	7.096	0.507
336.000	245.431	79.995	19.994	103.088	19.952	7.020	0.526
336.500	245.631	79.989	19.996	103.090	19.949	7.220	0.502
337.001	245.850	79.992	19.995	103.090	19.953	6.926	0.448
337.501	246.140	79.990	19.996	103.091	19.954	6.873	0.464
338.000	246.397	79.991	19.995	103.090	19.955	6.769	0.528
338.500	246.666	79.994	19.995	103.090	19.953	6.904	0.536
339.000	246.873	79.990	19.996	103.093	19.953	6.912	0.501
339.500	247.101	79.989	19.996	103.097	19.954	6.871	0.456
340.000	247.359	79.993	19.995	103.099	19.952	6.983	0.460
340.500	247.645	79.993	19.995	103.101	19.952	6.983	0.515
341.000	247.892	79.992	19.996	103.100	19.952	7.013	0.539
341.500	248.117	79.993	19.995	103.095	19.951	7.073	0.503
342.000	248.358	79.995	19.995	103.093	19.954	6.883	0.469
342.500	248.609	79.994	19.996	103.089	19.952	6.995	0.479
343.000	248.838	79.993	19.995	103.088	19.956	6.724	0.486
343.500	249.081	79.994	19.995	103.091	19.951	7.089	0.476
344.000	249.353	79.992	19.995	103.096	19.954	6.862	0.494
344.500	249.606	79.992	19.995	103.094	19.951	7.038	0.520
345.000	249.873	79.993	19.996	103.094	19.953	6.899	0.523
345.500	250.127	79.993	19.996	103.094	19.951	7.083	0.520
346.000	250.391	79.991	19.996	103.092	19.950	7.136	0.519
346.500	250.631	79.994	19.996	103.087	19.951	7.048	0.511
347.000	250.884	79.993	19.996	103.088	19.950	7.099	0.498
347.500	251.134	79.992	19.997	103.087	19.951	7.046	0.498
348.000	251.376	79.994	19.994	103.086	19.951	7.065	0.498
348.500	251.624	79.994	19.996	103.087	19.950	7.126	0.491
349.000	251.886	79.993	19.995	103.088	19.948	7.287	0.500
349.500	252.131	79.993	19.995	103.088	19.952	7.009	0.508
350.000	252.398	79.992	19.995	103.092	19.953	6.891	0.510
350.500	252.602	79.993	19.996	103.094	19.951	7.056	0.492
351.000	252.897	79.993	19.995	103.094	19.951	7.054	0.485
351.500	253.109	79.993	19.995	103.094	19.949	7.168	0.502
352.000	253.436	79.992	19.996	103.095	19.950	7.146	0.523
352.500	253.678	79.994	19.995	103.092	19.947	7.369	0.554
353.000	253.922	79.996	19.996	103.091	19.950	7.159	0.528
353.500	254.155	79.991	19.995	103.092	19.948	7.267	0.482
354.000	254.398	79.992	19.995	103.093	19.951	7.085	0.477
354.500	254.659	79.996	19.995	103.092	19.950	7.096	0.490
355.000	254.902	79.994	19.996	103.093	19.950	7.130	0.504
355.500	255.100	79.993	19.996	103.097	19.951	7.055	0.472
356.000	255.402	79.994	19.996	103.096	19.948	7.236	0.470
356.500	255.645	79.992	19.996	103.097	19.949	7.234	0.523
357.000	255.919	79.992	19.996	103.097	19.946	7.380	0.531
357.500	256.149	79.992	19.996	103.095	19.949	7.224	0.511
358.000	256.425	79.992	19.996	103.092	19.949	7.186	0.505
358.500	256.664	79.991	19.996	103.092	19.948	7.235	0.511
359.001	256.884	79.991	19.996	103.094	19.950	7.155	0.487
359.501	257.125	79.992	19.996	103.093	19.949	7.198	0.460
360.000	257.380	79.991	19.997	103.096	19.948	7.288	0.478
360.500	257.626	79.992	19.996	103.099	19.946	7.384	0.499
361.000	257.865	79.992	19.995	103.099	19.945	7.445	0.494
361.500	258.127	79.992	19.995	103.097	19.946	7.437	0.493
362.000	258.390	79.993	19.996	103.098	19.947	7.343	0.513
362.500	258.638	79.992	19.995	103.099	19.946	7.386	0.518
363.000	258.888	79.992	19.995	103.095	19.945	7.488	0.504
363.500	259.169	79.994	19.996	103.095	19.941	7.752	0.514
364.000	259.412	79.993	19.996	103.095	19.946	7.412	0.527
364.500	259.678	79.991	19.996	103.094	19.947	7.349	0.516
365.000	259.904	79.994	19.996	103.090	19.949	7.227	0.500
365.500	260.148	79.995	19.995	103.090	19.944	7.554	0.481
366.000	260.395	79.995	19.995	103.090	19.947	7.357	0.481
366.500	260.634	79.993	19.996	103.091	19.946	7.406	0.488
367.000	260.907	79.993	19.997	103.091	19.946	7.417	0.499
367.500	261.178	79.994	19.997	103.091	19.945	7.474	0.528
368.001	261.420	79.994	19.997	103.090	19.943	7.635	0.528
368.501	261.690	79.996	19.995	103.090	19.945	7.509	0.512
369.000	261.946	79.994	19.995	103.089	19.942	7.686	0.519
369.500	262.187	79.993	19.996	103.089	19.944	7.570	0.512
370.000	262.400	79.995	19.996	103.089	19.940	7.797	0.476
370.500	262.695	79.993	19.996	103.089	19.942	7.664	0.481
371.000	262.912	79.993	19.995	103.089	19.940	7.807	0.510
371.500	263.213	79.995	19.996	103.089	19.941	7.784	0.515
372.000	263.463	79.995	19.996	103.091	19.941	7.731	0.535
372.500	263.673	79.994	19.996	103.091	19.938	7.948	0.506
373.000	263.978	79.992	19.996	103.091	19.940	7.858	0.487
373.500	264.191	79.993	19.996	103.091	19.939	7.925	0.516
374.000	264.451	79.993	19.996	103.089	19.938	7.948	0.495
374.500	264.678	79.993	19.996	103.087	19.939	7.915	0.480
375.000	264.952	79.994	19.997	103.087	19.935	8.156	0.494
375.500	265.221	79.995	19.995	103.085	19.936	8.123	0.522
376.000	265.479	79.992	19.996	103.086	19.937	8.031	0.535
376.500	265.734	79.992	19.996	103.086	19.937	8.009	0.520
377.001	265.947	79.994	19.995	103.085	19.935	8.209	0.491
377.501	266.243	79.994	19.997	103.085	19.937	8.036	0.489
378.000	266.511	79.993	19.997	103.087	19.937	8.044	0.537
378.500	266.766	79.990	19.997	103.086	19.938	7.999	0.543
379.000	267.024	79.994	19.995	103.085	19.939	7.913	0.518
379.500	267.240	79.992	19.997	103.086	19.936	8.138	0.494
380.000	267.482	79.989	19.998	103.086	19.936	8.079	0.466
380.500	267.765	79.993	19.996	103.086	19.937	8.007	0.491
381.000	268.017	79.992	19.997	103.085	19.936	8.111	0.530
381.500	268.280	79.992	19.996	103.085	19.935	8.152	0.525
382.000	268.550	79.994	19.996	103.085	19.937	8.052	0.524
382.500	268.778	79.992	19.996	103.086	19.934	8.262	0.515
383.000	269.011	79.992	19.996	103.086	19.934	8.254	0.480
383.500	269.249	79.992	19.996	103.085	19.934	8.242	0.467
384.000	269.519	79.992	19.995	103.086	19.932	8.360	0.490
384.500	269.783	79.995	19.994	103.086	19.934	8.230	0.521
385.000	270.071	79.992	19.995	103.085	19.934	8.240	0.543
385.500	270.307	79.992	19.995	103.085	19.934	8.240	0.538
386.000	270.551	79.993	19.995	103.086	19.933	8.338	0.502
386.500	270.807	79.994	19.994	103.086	19.937	8.042	0.490
387.000	271.093	79.991	19.996	103.087	19.934	8.224	0.521
387.500	271.355	79.992	19.996	103.087	19.936	8.113	0.545
388.000	271.605	79.994	19.995	103.087	19.932	8.363	0.530
388.500	271.852	79.991	19.996	103.088	19.935	8.175	0.504
389.000	272.093	79.993	19.996	103.087	19.932	8.391	0.492
389.500	272.336	79.991	19.996	103.087	19.933	8.352	0.486
390.000	272.600	79.992	19.995	103.087	19.931	8.448	0.495
390.500	272.832	79.991	19.997	103.087	19.931	8.483	0.501
391.000	273.109	79.993	19.996	103.086	19.936	8.121	0.502
391.500	273.375	79.995	19.994	103.087	19.934	8.221	0.526
392.000	273.610	79.994	19.995	103.087	19.934	8.240	0.522
392.500	273.875	79.992	19.995	103.088	19.933	8.309	0.500
393.000	274.097	79.992	19.997	103.088	19.933	8.313	0.493
393.500	274.358	79.995	19.995	103.089	19.935	8.171	0.485
394.000	274.593	79.992	19.997	103.088	19.935	8.185	0.489
394.500	274.901	79.994	19.995	103.087	19.936	8.138	0.519
395.000	275.163	79.994	19.996	103.087	19.938	7.989	0.556
395.500	275.398	79.995	19.995	103.087	19.933	8.344	0.534
396.000	275.654	79.992	19.996	103.087	19.930	8.503	0.495
396.500	275.907	79.992	19.996	103.087	19.935	8.207	0.500
397.000	276.186	79.993	19.996	103.087	19.937	8.074	0.520
397.500	276.403	79.991	19.996	103.085	19.934	8.254	0.513
398.000	276.687	79.994	19.995	103.085	19.937	8.044	0.498
398.500	276.932	79.996	19.996	103.084	19.934	8.228	0.515
399.000	277.188	79.991	19.994	103.085	19.934	8.258	0.515
399.500	277.419	79.991	19.997	103.085	19.937	8.064	0.494
400.000	277.707	79.993	19.995	103.086	19.934	8.232	0.503
400.500	277.923	79.993	19.994	103.086	19.934	8.248	0.511
401.000	278.227	79.993	19.995	103.087	19.936	8.109	0.512
401.500	278.464	79.996	19.995	103.086	19.936	8.090	0.531
402.000	278.711	79.991	19.996	103.087	19.938	7.974	0.512
402.500	279.005	79.992	19.996	103.088	19.937	8.048	0.513
403.000	279.247	79.992	19.996	103.087	19.940	7.835	0.538
403.500	279.446	79.992	19.995	103.087	19.938	7.968	0.489
404.000	279.684	79.992	19.996	103.087	19.935	8.199	0.439
404.500	279.988	79.993	19.995	103.086	19.938	7.950	0.490
405.000	280.282	79.995	19.995	103.086	19.939	7.927	0.570
405.500	280.547	79.994	19.994	103.087	19.938	7.958	0.579
406.000	280.773	79.993	19.995	103.088	19.939	7.931	0.525
406.500	281.031	79.994	19.994	103.088	19.940	7.839	0.488
407.000	281.279	79.991	19.995	103.089	19.941	7.741	0.495
407.500	281.560	79.994	19.995	103.090	19.941	7.765	0.517
408.000	281.840	79.992	19.995	103.090	19.939	7.917	0.545
408.500	282.073	79.990	19.996	103.089	19.941	7.757	0.537
409.000	282.305	79.993	19.995	103.089	19.943	7.592	0.489
409.500	282.539	79.991	19.995	103.089	19.939	7.896	0.465
410.000	282.839	79.991	19.995	103.088	19.939	7.870	0.500
410.500	283.106	79.991	19.995	103.088	19.944	7.522	0.551
411.000	283.363	79.992	19.995	103.088	19.944	7.543	0.546
411.500	283.606	79.993	19.995	103.089	19.945	7.486	0.512
412.000	283.876	79.993	19.995	103.090	19.944	7.529	0.506
412.500	284.126	79.992	19.995	103.091	19.946	7.383	0.516
413.000	284.386	79.993	19.995	103.092	19.945	7.475	0.515
413.500	284.612	79.990	19.995	103.091	19.945	7.510	0.498
414.000	284.893	79.994	19.994	103.091	19.945	7.484	0.496
414.500	285.163	79.991	19.994	103.090	19.945	7.484	0.529
415.000	285.410	79.991	19.995	103.090	19.947	7.339	0.534
415.500	285.634	79.993	19.996	103.090	19.948	7.284	0.494
416.000	285.927	79.993	19.995	103.090	19.949	7.198	0.494
416.500	286.182	79.995	19.995	103.091	19.949	7.186	0.533
417.000	286.440	79.994	19.995	103.091	19.948	7.243	0.531
417.500	286.694	79.994	19.995	103.091	19.950	7.112	0.512
418.000	286.931	79.992	19.995	103.092	19.948	7.291	0.501
418.500	287.202	79.995	19.994	103.092	19.951	7.079	0.500
419.000	287.436	79.992	19.994	103.093	19.952	6.959	0.506
419.500	287.734	79.994	19.995	103.092	19.951	7.031	0.518
420.000	287.986	79.995	19.994	103.092	19.950	7.108	0.541
420.500	288.206	79.993	19.995	103.093	19.949	7.174	0.511
421.000	288.492	79.993	19.995	103.093	19.952	6.986	0.489
421.500	288.700	79.994	19.994	103.093	19.952	6.975	0.500
422.000	288.970	79.994	19.995	103.093	19.952	6.985	0.486
422.500	289.232	79.996	19.994	103.092	19.950	7.116	0.505
423.000	289.525	79.993	19.994	103.092	19.951	7.034	0.543
423.500	289.752	79.993	19.995	103.092	19.951	7.034	0.537
424.000	290.017	79.994	19.995	103.091	19.952	6.998	0.506
424.500	290.299	79.995	19.994	103.090	19.951	7.067	0.520
425.000	290.560	79.992	19.996	103.090	19.953	6.893	0.545
425.500	290.777	79.995	19.995	103.087	19.953	6.914	0.510
426.000	291.079	79.994	19.995	103.086	19.958	6.581	0.499
426.500	291.304	79.992	19.996	103.086	19.954	6.881	0.523
427.000	291.607	79.995	19.994	103.086	19.955	6.810	0.527
427.501	291.847	79.995	19.995	103.086	19.955	6.810	0.535
428.000	292.111	79.994	19.995	103.091	19.956	6.739	0.524
428.500	292.364	79.996	19.996	103.092	19.958	6.598	0.511
429.000	292.638	79.995	19.996	103.092	19.954	6.817	0.522
429.500	292.899	79.994	19.995	103.091	19.952	6.974	0.531
430.000	293.152	79.994	19.995	103.087	19.958	6.594	0.525
430.500	293.395	79.993	19.996	103.083	19.958	6.598	0.505
431.000	293.671	79.996	19.994	103.083	19.960	6.420	0.507
431.500	293.872	79.994	19.995	103.084	19.958	6.559	0.498
432.000	294.154	79.993	19.994	103.086	19.959	6.506	0.480
432.500	294.425	79.992	19.995	103.090	19.959	6.475	0.519
433.000	294.713	79.995	19.994	103.092	19.961	6.363	0.556
433.500	294.956	79.993	19.995	103.089	19.962	6.314	0.545
434.000	295.172	79.991	19.996	103.089	19.963	6.250	0.495
434.500	295.443	79.993	19.995	103.087	19.961	6.363	0.473
435.000	295.683	79.993	19.995	103.086	19.961	6.352	0.499
435.500	295.932	79.992	19.995	103.087	19.962	6.293	0.500
436.000	296.173	79.994	19.996	103.087	19.962	6.285	0.490
436.500	296.461	79.995	19.996	103.087	19.966	6.003	0.509
437.000	296.700	79.993	19.996	103.089	19.965	6.103	0.528
437.500	296.943	79.994	19.995	103.088	19.963	6.252	0.505
438.000	297.197	79.994	19.997	103.085	19.964	6.179	0.490
438.501	297.458	79.993	19.996	103.083	19.965	6.099	0.506
439.001	297.693	79.993	19.995	103.077	19.966	5.983	0.505
439.500	297.944	79.993	19.996	103.071	19.964	6.148	0.491
440.000	298.211	79.993	19.996	103.070	19.966	6.021	0.502
440.500	298.503	79.994	19.996	103.072	19.965	6.068	0.538
441.000	298.759	79.994	19.996	103.075	19.968	5.905	0.553
441.500	298.992	79.992	19.996	103.078	19.964	6.119	0.519
442.000	299.235	79.994	19.995	103.082	19.967	5.966	0.483
442.500	299.471	79.996	19.996	103.083	19.968	5.878	0.477
443.000	299.742	79.996	19.996	103.081	19.968	5.854	0.493
443.500	299.966	79.994	19.995	103.077	19.968	5.894	0.501
444.000	300.264	79.996	19.996	103.079	19.969	5.821	0.509
444.500	300.479	79.996	19.996	103.080	19.967	5.931	0.517
445.000	300.762	79.995	19.996	103.080	19.970	5.749	0.506
445.500	300.994	79.996	19.996	103.082	19.969	5.819	0.507
446.000	301.270	79.995	19.996	103.086	19.970	5.762	0.511
446.500	301.506	79.995	19.996	103.085	19.972	5.605	0.510
447.000	301.766	79.996	19.997	103.085	19.970	5.754	0.504
447.500	302.040	79.995	19.996	103.085	19.968	5.864	0.515
448.000	302.269	79.996	19.996	103.085	19.970	5.711	0.518
448.500	302.538	79.996	19.996	103.084	19.970	5.756	0.501
449.000	302.757	79.996	19.995	103.084	19.971	5.684	0.493
449.500	303.048	79.994	19.995	103.083	19.972	5.595	0.499
450.000	303.296	79.997	19.994	103.081	19.972	5.609	0.525
450.500	303.531	79.994	19.995	103.083	19.970	5.703	0.511
451.000	303.801	79.997	19.995	103.083	19.970	5.703	0.494
451.500	304.038	79.996	19.996	103.082	19.971	5.676	0.505
452.000	304.296	79.995	19.996	103.080	19.971	5.654	0.501
452.500	304.569	79.996	19.995	103.081	19.971	5.666	0.513
453.000	304.781	79.994	19.996	103.081	19.970	5.764	0.508
453.500	305.038	79.997	19.995	103.081	19.969	5.776	0.477
454.000	305.292	79.995	19.997	103.084	19.970	5.748	0.490
454.500	305.565	79.995	19.996	103.088	19.969	5.791	0.519
455.000	305.802	79.992	19.997	103.089	19.971	5.675	0.518
455.500	306.045	79.996	19.997	103.087	19.973	5.499	0.495
456.000	306.327	79.994	19.997	103.087	19.971	5.654	0.503
456.500	306.592	79.994	19.996	103.084	19.970	5.711	0.536
457.000	306.831	79.991	19.996	103.080	19.969	5.774	0.525
457.500	307.099	79.992	19.997	103.076	19.970	5.744	0.505
458.000	307.329	79.992	19.997	103.077	19.970	5.726	0.503
458.500	307.541	79.990	19.998	103.077	19.969	5.830	0.471
459.000	307.813	79.993	19.997	103.079	19.971	5.654	0.463
459.500	308.076	79.992	19.997	103.079	19.975	5.354	0.509
460.000	308.346	79.993	19.995	103.078	19.973	5.501	0.534
460.500	308.610	79.993	19.997	103.078	19.971	5.633	0.534
461.000	308.840	79.992	19.996	103.076	19.973	5.549	0.514
461.500	309.052	79.991	19.997	103.076	19.971	5.670	0.468
462.000	309.361	79.992	19.996	103.078	19.971	5.649	0.482
462.500	309.586	79.994	19.996	103.081	19.972	5.617	0.528
463.000	309.837	79.993	19.996	103.082	19.975	5.367	0.505
463.500	310.087	79.992	19.996	103.083	19.971	5.670	0.488
464.000	310.309	79.992	19.997	103.081	19.975	5.357	0.486
464.500	310.618	79.990	19.998	103.081	19.969	5.774	0.502
465.000	310.862	79.993	19.997	103.081	19.971	5.647	0.542
465.500	311.055	79.993	19.996	103.075	19.970	5.717	0.494
466.000	311.344	79.994	19.996	103.071	19.973	5.533	0.459
466.500	311.603	79.993	19.996	103.073	19.974	5.439	0.515
467.000	311.829	79.993	19.996	103.075	19.971	5.643	0.517
467.500	312.126	79.993	19.997	103.073	19.973	5.535	0.504
468.000	312.350	79.991	19.996	103.077	19.970	5.751	0.521
468.500	312.627	79.994	19.997	103.077	19.972	5.604	0.511
469.000	312.866	79.992	19.996	103.073	19.970	5.746	0.509
469.500	313.128	79.994	19.997	103.070	19.969	5.807	0.509
470.000	313.360	79.991	19.997	103.069	19.973	5.548	0.497
470.500	313.629	79.992	19.997	103.071	19.972	5.618	0.498
471.000	313.856	79.992	19.996	103.072	19.969	5.805	0.498
471.500	314.096	79.992	19.996	103.077	19.973	5.509	0.481
472.000	314.395	79.994	19.995	103.080	19.973	5.531	0.503
472.500	314.638	79.993	19.995	103.083	19.971	5.666	0.541
473.000	314.863	79.994	19.995	103.083	19.973	5.511	0.505
473.500	315.106	79.993	19.997	103.085	19.970	5.701	0.468
474.000	315.404	79.994	19.994	103.085	19.971	5.646	0.504
474.500	315.627	79.992	19.996	103.085	19.974	5.440	0.531
475.000	315.863	79.990	19.995	103.083	19.972	5.597	0.490
475.500	316.101	79.993	19.994	103.084	19.970	5.707	0.467
476.000	316.388	79.994	19.995	103.085	19.970	5.746	0.499
476.500	316.638	79.994	19.995	103.081	19.969	5.825	0.531
477.000	316.862	79.994	19.995	103.082	19.970	5.697	0.506
477.500	317.117	79.992	19.996	103.085	19.968	5.858	0.477
478.000	317.387	79.994	19.995	103.085	19.971	5.633	0.502
478.500	317.606	79.994	19.995	103.085	19.971	5.693	0.507
479.000	317.913	79.993	19.995	103.090	19.969	5.799	0.507
479.500	318.134	79.991	19.995	103.086	19.968	5.903	0.527
480.000	318.405	79.991	19.995	103.082	19.969	5.801	0.510
480.500	318.666	79.992	19.995	103.075	19.967	5.922	0.513
481.000	318.873	79.996	19.995	103.069	19.965	6.081	0.500
481.500	319.134	79.992	19.995	103.067	19.969	5.777	0.468
482.000	319.386	79.994	19.996	103.071	19.970	5.732	0.490
482.500	319.638	79.991	19.996	103.074	19.967	5.920	0.508
483.000	319.869	79.995	19.994	103.080	19.968	5.857	0.494
483.500	320.110	79.992	19.996	103.080	19.967	5.923	0.478
484.000	320.369	79.992	19.995	103.077	19.966	6.024	0.486
484.500	320.619	79.992	19.996	103.073	19.968	5.836	0.504
485.000	320.851	79.992	19.996	103.069	19.968	5.858	0.496
485.500	321.141	79.992	19.996	103.069	19.967	5.952	0.502
486.000	321.368	79.992	19.997	103.072	19.968	5.854	0.519
486.500	321.619	79.994	19.995	103.074	19.969	5.830	0.498
487.001	321.864	79.992	19.996	103.077	19.967	5.954	0.487
487.501	322.150	79.995	19.996	103.079	19.965	6.085	0.513
488.000	322.373	79.990	19.996	103.078	19.965	6.097	0.520
488.500	322.594	79.992	19.997	103.077	19.964	6.154	0.477
489.000	322.890	79.992	19.997	103.079	19.966	5.993	0.481
489.500	323.071	79.990	19.996	103.079	19.965	6.113	0.497
490.000	323.373	79.990	19.996	103.080	19.965	6.111	0.479
490.500	323.623	79.992	19.995	103.082	19.963	6.201	0.518
491.000	323.890	79.993	19.996	103.082	19.963	6.244	0.535
491.500	324.108	79.991	19.995	103.076	19.963	6.197	0.501
492.000	324.356	79.992	19.995	103.070	19.959	6.492	0.475
492.500	324.605	79.991	19.996	103.071	19.961	6.361	0.481
493.000	324.854	79.991	19.995	103.071	19.966	6.044	0.498
493.500	325.093	79.991	19.996	103.068	19.961	6.340	0.493
494.000	325.339	79.994	19.994	103.072	19.962	6.266	0.487
494.500	325.592	79.990	19.996	103.079	19.961	6.348	0.492
495.000	325.825	79.993	19.995	103.074	19.961	6.373	0.492
495.500	326.120	79.993	19.995	103.072	19.959	6.510	0.507
496.000	326.376	79.994	19.995	103.076	19.959	6.473	0.540
496.500	326.585	79.992	19.994	103.074	19.958	6.583	0.508
497.000	326.874	79.991	19.994	103.072	19.959	6.469	0.482
497.500	327.108	79.993	19.995	103.075	19.960	6.426	0.510
498.000	327.366	79.994	19.996	103.076	19.958	6.579	0.507
498.500	327.593	79.993	19.995	103.076	19.957	6.661	0.489
499.000	327.876	79.993	19.997	103.082	19.960	6.454	0.498
499.500	328.118	79.995	19.995	103.078	19.957	6.650	0.517
500.000	328.345	79.993	19.995	103.082	19.953	6.910	0.497
500.500	328.608	79.993	19.996	103.083	19.956	6.720	0.479
501.000	328.855	79.995	19.995	103.084	19.957	6.657	0.500
501.500	329.105	79.992	19.996	103.078	19.958	6.581	0.503
502.000	329.373	79.993	19.996	103.078	19.954	6.867	0.508
502.500	329.607	79.993	19.995	103.077	19.952	6.957	0.510
503.000	329.833	79.997	19.995	103.077	19.957	6.642	0.481
503.500	330.111	79.995	19.995	103.078	19.951	7.030	0.482
504.000	330.355	79.995	19.995	103.082	19.954	6.881	0.513
504.500	330.631	79.995	19.995	103.086	19.955	6.785	0.521
505.000	330.827	79.995	19.994	103.085	19.954	6.822	0.496
505.500	331.115	79.995	19.996	103.084	19.951	7.061	0.478
506.000	331.330	79.994	19.995	103.083	19.953	6.939	0.493
506.500	331.587	79.995	19.994	103.083	19.951	7.063	0.488
507.000	331.866	79.994	19.996	103.083	19.951	7.067	0.504
507.500	332.113	79.995	19.995	103.084	19.948	7.259	0.531
508.000	332.343	79.995	19.996	103.085	19.950	7.153	0.502
508.500	332.591	79.992	19.995	103.084	19.950	7.155	0.478
509.000	332.883	79.994	19.995	103.086	19.944	7.539	0.509
509.500	333.122	79.996	19.995	103.084	19.947	7.309	0.535
510.000	333.364	79.994	19.996	103.084	19.946	7.421	0.506
510.500	333.609	79.995	19.995	103.085	19.944	7.569	0.484
511.000	333.892	79.995	19.996	103.086	19.944	7.577	0.507
511.500	334.098	79.993	19.995	103.084	19.943	7.593	0.508
512.000	334.367	79.996	19.994	103.083	19.944	7.546	0.482
512.500	334.620	79.994	19.995	103.085	19.941	7.773	0.498
513.000	334.871	79.993	19.995	103.083	19.941	7.762	0.513
513.500	335.121	79.993	19.995	103.083	19.942	7.674	0.502
514.000	335.353	79.993	19.995	103.084	19.943	7.603	0.491
514.500	335.617	79.993	19.996	103.085	19.941	7.738	0.489
515.000	335.870	79.996	19.995	103.085	19.941	7.758	0.506
515.500	336.116	79.993	19.996	103.086	19.941	7.784	0.508
516.000	336.343	79.992	19.996	103.085	19.940	7.801	0.486
516.500	336.607	79.993	19.995	103.084	19.938	7.946	0.482
517.000	336.872	79.991	19.996	103.085	19.939	7.926	0.510
517.501	337.157	79.994	19.995	103.084	19.939	7.932	0.540
518.001	337.398	79.995	19.995	103.084	19.939	7.885	0.538
518.500	337.634	79.993	19.996	103.085	19.939	7.894	0.501
519.000	337.899	79.993	19.995	103.086	19.938	7.980	0.489
519.500	338.104	79.993	19.996	103.087	19.938	7.970	0.486
520.000	338.395	79.993	19.996	103.084	19.937	8.033	0.484
520.500	338.655	79.995	19.996	103.082	19.937	8.012	0.524
521.000	338.863	79.994	19.997	103.079	19.933	8.300	0.509
521.500	339.115	79.995	19.996	103.076	19.934	8.277	0.464
522.000	339.369	79.995	19.996	103.072	19.932	8.375	0.483
522.500	339.580	79.995	19.995	103.076	19.934	8.261	0.486
523.000	339.888	79.995	19.995	103.077	19.936	8.124	0.492
523.500	340.143	79.996	19.995	103.079	19.931	8.428	0.541
524.000	340.380	79.995	19.997	103.081	19.934	8.279	0.527
524.500	340.600	79.994	19.996	103.084	19.933	8.338	0.475
525.000	340.851	79.995	19.996	103.083	19.930	8.561	0.464
525.500	341.104	79.995	19.995	103.084	19.930	8.510	0.488
526.001	341.357	79.995	19.996	103.083	19.931	8.446	0.505
526.500	341.631	79.995	19.995	103.084	19.926	8.788	0.517
527.000	341.872	79.996	19.996	103.084	19.928	8.644	0.521
527.500	342.132	79.995	19.996	103.084	19.927	8.771	0.508
528.000	342.396	79.994	19.995	103.083	19.926	8.810	0.513
528.500	342.630	79.992	19.996	103.078	19.926	8.787	0.510
529.000	342.863	79.995	19.994	103.074	19.926	8.837	0.482
529.500	343.101	79.994	19.996	103.073	19.923	9.035	0.469
530.000	343.381	79.996	19.995	103.072	19.923	9.011	0.494
530.500	343.634	79.994	19.995	103.070	19.923	9.004	0.525
531.000	343.846	79.995	19.995	103.072	19.923	9.006	0.499
531.500	344.097	79.994	19.996	103.075	19.924	8.955	0.464
532.000	344.381	79.993	19.996	103.077	19.923	9.043	0.499
532.500	344.577	79.994	19.995	103.077	19.921	9.145	0.507
533.000	344.887	79.994	19.994	103.079	19.921	9.167	0.493
533.500	345.110	79.994	19.996	103.082	19.916	9.499	0.520
534.000	345.389	79.995	19.995	103.082	19.916	9.513	0.517
534.500	345.623	79.994	19.995	103.080	19.914	9.621	0.507
535.000	345.897	79.992	19.996	103.082	19.913	9.707	0.510
535.500	346.117	79.992	19.996	103.083	19.914	9.621	0.501
536.000	346.414	79.993	19.995	103.083	19.910	9.899	0.506
536.500	346.638	79.994	19.996	103.085	19.910	9.909	0.519
537.000	346.886	79.994	19.995	103.087	19.913	9.711	0.496
537.500	347.134	79.992	19.996	103.086	19.911	9.871	0.484
538.000	347.396	79.992	19.995	103.087	19.911	9.826	0.503
538.500	347.661	79.991	19.996	103.086	19.910	9.956	0.518
539.000	347.921	79.992	19.995	103.087	19.908	10.048	0.526
539.500	348.161	79.992	19.995	103.086	19.907	10.122	0.513
540.000	348.434	79.991	19.995	103.084	19.907	10.143	0.507
540.500	348.658	79.993	19.995	103.084	19.907	10.106	0.505
541.000	348.922	79.992	19.995	103.083	19.907	10.112	0.492
541.500	349.152	79.992	19.997	103.082	19.906	10.184	0.491
542.000	349.436	79.991	19.995	103.083	19.905	10.251	0.504
542.500	349.689	79.991	19.996	103.086	19.904	10.320	0.526
543.000	349.950	79.992	19.995	103.086	19.903	10.387	0.526
543.500	350.193	79.993	19.996	103.087	19.901	10.524	0.509
544.000	350.458	79.991	19.996	103.088	19.901	10.582	0.506
544.500	350.696	79.993	19.996	103.087	19.900	10.619	0.506
545.000	350.958	79.993	19.996	103.086	19.899	10.660	0.502
545.500	351.211	79.994	19.996	103.086	19.898	10.790	0.508
546.000	351.483	79.993	19.996	103.087	19.899	10.721	0.520
546.500	351.720	79.992	19.995	103.087	19.894	11.045	0.517
547.000	351.981	79.992	19.997	103.086	19.895	11.000	0.504
547.500	352.207	79.993	19.997	103.085	19.893	11.143	0.492
548.000	352.461	79.991	19.996	103.084	19.894	11.075	0.483
548.500	352.732	79.994	19.996	103.083	19.892	11.208	0.502
549.000	353.020	79.993	19.995	103.084	19.892	11.190	0.542
549.500	353.248	79.991	19.997	103.086	19.889	11.392	0.538
550.000	353.493	79.991	19.996	103.087	19.891	11.267	0.494
550.500	353.769	79.991	19.995	103.087	19.891	11.235	0.497
551.000	354.032	79.990	19.996	103.083	19.888	11.466	0.530
551.500	354.269	79.993	19.996	103.079	19.885	11.641	0.519
552.000	354.532	79.992	19.996	103.077	19.889	11.412	0.500
552.500	354.777	79.992	19.995	103.078	19.881	11.924	0.504
553.000	355.017	79.992	19.997	103.080	19.883	11.830	0.496
553.500	355.256	79.991	19.997	103.084	19.883	11.828	0.482
554.000	355.519	79.990	19.997	103.086	19.881	11.932	0.490
554.500	355.802	79.991	19.996	103.086	19.878	12.135	0.524
555.000	356.016	79.992	19.997	103.084	19.879	12.085	0.521
555.500	356.311	79.993	19.995	103.081	19.878	12.140	0.503
556.000	356.570	79.991	19.996	103.081	19.876	12.295	0.532
556.500	356.794	79.991	19.995	103.083	19.875	12.396	0.519
557.000	357.067	79.991	19.995	103.084	19.876	12.269	0.490
557.500	357.312	79.992	19.995	103.085	19.870	12.696	0.507
558.000	357.594	79.993	19.996	103.088	19.872	12.604	0.523
558.500	357.830	79.993	19.996	103.090	19.872	12.618	0.523
559.000	358.077	79.994	19.995	103.090	19.871	12.669	0.501
559.500	358.368	79.992	19.996	103.091	19.868	12.877	0.511
560.000	358.573	79.991	19.996	103.091	19.867	12.916	0.517
560.500	358.862	79.994	19.996	103.090	19.869	12.779	0.495
561.000	359.116	79.993	19.996	103.090	19.867	12.945	0.518
561.500	359.317	79.992	19.995	103.090	19.866	12.988	0.499
562.000	359.612	79.994	19.995	103.089	19.863	13.202	0.475
562.500	359.836	79.992	19.997	103.091	19.861	13.348	0.508
563.000	360.115	79.992	19.995	103.098	19.858	13.564	0.511
563.500	360.356	79.993	19.996	103.102	19.856	13.713	0.512
564.000	360.616	79.992	19.996	103.102	19.855	13.779	0.510
564.500	360.906	79.992	19.997	103.103	19.854	13.854	0.526
565.000	361.145	79.992	19.995	103.101	19.854	13.875	0.540
565.500	361.348	79.992	19.996	103.095	19.852	13.960	0.485
566.000	361.659	79.992	19.995	103.090	19.852	13.999	0.478
566.500	361.867	79.990	19.997	103.090	19.850	14.089	0.517
567.000	362.139	79.992	19.995	103.087	19.849	14.175	0.500
567.500	362.388	79.993	19.996	103.087	19.850	14.152	0.501
568.000	362.631	79.992	19.996	103.087	19.846	14.377	0.506
568.500	362.910	79.991	19.996	103.088	19.841	14.755	0.507
569.000	363.164	79.993	19.996	103.088	19.841	14.763	0.527
569.500	363.405	79.993	19.995	103.089	19.841	14.787	0.514
570.000	363.647	79.992	19.994	103.089	19.839	14.908	0.489
570.500	363.875	79.993	19.996	103.089	19.840	14.822	0.477
571.000	364.179	79.993	19.995	103.088	19.840	14.849	0.501
571.500	364.443	79.992	19.995	103.089	19.834	15.274	0.550
572.000	364.664	79.993	19.995	103.089	19.834	15.243	0.526
572.501	364.915	79.991	19.996	103.088	19.832	15.367	0.479
573.001	365.171	79.993	19.995	103.088	19.831	15.424	0.490
573.500	365.459	79.991	19.995	103.087	19.828	15.645	0.526
574.000	365.688	79.993	19.996	103.087	19.828	15.659	0.530
574.500	365.941	79.992	19.996	103.087	19.827	15.765	0.499
575.000	366.219	79.993	19.995	103.086	19.821	16.181	0.507
575.500	366.435	79.991	19.997	103.087	19.822	16.083	0.513
576.000	366.690	79.993	19.996	103.087	19.818	16.326	0.482
576.500	366.921	79.993	19.996	103.088	19.818	16.383	0.478
577.000	367.169	79.992	19.996	103.088	19.815	16.544	0.483
577.500	367.408	79.992	19.996	103.089	19.815	16.539	0.483
578.000	367.667	79.994	19.996	103.089	19.815	16.537	0.492
578.500	367.970	79.993	19.995	103.090	19.814	16.659	0.529
579.000	368.221	79.994	19.995	103.091	19.811	16.817	0.558
579.500	368.447	79.994	19.996	103.091	19.808	17.050	0.516
580.000	368.701	79.992	19.996	103.092	19.807	17.122	0.479
580.500	368.991	79.993	19.996	103.093	19.801	17.579	0.512
581.000	369.220	79.994	19.995	103.093	19.802	17.448	0.531
581.500	369.455	79.993	19.996	103.092	19.800	17.649	0.492
582.000	369.691	79.994	19.996	103.091	19.798	17.788	0.468
582.500	369.961	79.994	19.996	103.092	19.791	18.247	0.489
583.000	370.192	79.995	19.996	103.091	19.794	18.072	0.503
583.500	370.479	79.995	19.995	103.094	19.788	18.438	0.509
584.000	370.726	79.995	19.994	103.094	19.790	18.335	0.526
584.500	371.000	79.996	19.996	103.097	19.788	18.442	0.527
585.001	371.237	79.993	19.997	103.096	19.783	18.830	0.516
585.501	371.508	79.994	19.996	103.096	19.782	18.853	0.510
586.000	371.731	79.994	19.995	103.093	19.780	19.007	0.501
586.500	371.988	79.996	19.995	103.092	19.778	19.136	0.487
587.000	372.218	79.996	19.995	103.092	19.775	19.384	0.484
587.500	372.532	79.995	19.995	103.094	19.773	19.486	0.516
588.000	372.778	79.995	19.996	103.095	19.770	19.743	0.552
588.500	373.030	79.994	19.994	103.097	19.770	19.724	0.529
589.000	373.277	79.994	19.996	103.102	19.766	20.005	0.499
589.500	373.541	79.994	19.996	103.101	19.763	20.195	0.505
590.000	373.775	79.995	19.996	103.099	19.761	20.345	0.504
590.500	374.044	79.994	19.995	103.097	19.756	20.713	0.500
591.000	374.297	79.995	19.995	103.094	19.756	20.679	0.512
591.500	374.565	79.995	19.995	103.089	19.752	20.993	0.522
592.000	374.780	79.994	19.996	103.090	19.748	21.229	0.502
592.500	375.030	79.993	19.996	103.096	19.747	21.331	0.474
593.001	375.294	79.994	19.995	103.104	19.740	21.792	0.490
593.500	375.550	79.994	19.996	103.109	19.741	21.769	0.517
594.000	375.782	79.996	19.995	103.116	19.742	21.673	0.504
594.500	376.032	79.994	19.995	103.116	19.737	22.004	0.485
595.000	376.291	79.995	19.995	103.110	19.733	22.302	0.496
595.500	376.551	79.993	19.995	103.104	19.733	22.297	0.514
596.000	376.777	79.994	19.996	103.103	19.730	22.489	0.502
596.500	377.060	79.994	19.995	103.104	19.729	22.576	0.497
597.000	377.297	79.994	19.995	103.107	19.725	22.891	0.514
597.500	377.553	79.994	19.994	103.107	19.723	23.034	0.507
598.000	377.791	79.992	19.995	103.106	19.719	23.283	0.494
598.500	378.026	79.994	19.996	103.102	19.717	23.432	0.483
599.000	378.309	79.995	19.995	103.094	19.714	23.655	0.496
599.500	378.573	79.994	19.995	103.089	19.710	23.907	0.533
600.000	378.797	79.993	19.996	103.092	19.708	24.027	0.517
600.500	379.072	79.993	19.995	103.093	19.705	24.269	0.494
601.000	379.308	79.994	19.995	103.100	19.700	24.601	0.505
601.500	379.541	79.993	19.997	103.108	19.696	24.885	0.490
602.000	379.796	79.995	19.995	103.115	19.693	25.098	0.479
602.500	380.041	79.995	19.996	103.117	19.691	25.262	0.494
603.000	380.303	79.994	19.994	103.121	19.690	25.298	0.503
603.500	380.565	79.994	19.996	103.122	19.691	25.265	0.515
604.000	380.811	79.995	19.997	103.122	19.684	25.745	0.516
604.500	381.078	79.994	19.996	103.119	19.682	25.890	0.510
605.000	381.302	79.994	19.996	103.115	19.679	26.090	0.502
605.500	381.538	79.995	19.996	103.114	19.675	26.386	0.475
606.000	381.783	79.994	19.996	103.110	19.674	26.451	0.470
606.500	382.038	79.994	19.995	103.105	19.668	26.874	0.491
607.000	382.277	79.995	19.995	103.102	19.665	27.092	0.497
607.500	382.567	79.996	19.995	103.100	19.659	27.472	0.511
608.000	382.829	79.996	19.996	103.097	19.656	27.673	0.541
608.500	383.054	79.996	19.995	103.096	19.651	28.012	0.520
609.000	383.313	79.994	19.995	103.096	19.651	28.030	0.486
609.500	383.588	79.994	19.996	103.098	19.645	28.483	0.509
610.000	383.795	79.994	19.996	103.105	19.642	28.704	0.508
610.500	384.089	79.994	19.996	103.109	19.637	29.024	0.492
611.000	384.325	79.994	19.996	103.114	19.636	29.100	0.515
611.500	384.581	79.995	19.995	103.118	19.629	29.596	0.511
612.000	384.827	79.993	19.996	103.121	19.625	29.841	0.497
612.500	385.104	79.994	19.996	103.122	19.623	30.031	0.512
613.000	385.332	79.994	19.996	103.124	19.618	30.329	0.514
613.500	385.608	79.993	19.994	103.125	19.616	30.525	0.505
614.000	385.873	79.992	19.996	103.125	19.612	30.783	0.523
614.500	386.111	79.994	19.996	103.127	19.608	31.061	0.522
615.001	386.366	79.993	19.995	103.127	19.601	31.543	0.498
615.501	386.603	79.991	19.996	103.127	19.598	31.757	0.493
616.001	386.860	79.991	19.996	103.128	19.591	32.264	0.493
616.500	387.125	79.992	19.995	103.129	19.588	32.437	0.508
617.000	387.381	79.993	19.995	103.129	19.584	32.705	0.521
617.500	387.650	79.991	19.996	103.129	19.583	32.801	0.523
618.000	387.901	79.993	19.996	103.129	19.575	33.395	0.523
618.500	388.168	79.993	19.996	103.129	19.573	33.503	0.519
619.000	388.416	79.993	19.996	103.129	19.568	33.838	0.516
619.500	388.658	79.992	19.996	103.129	19.562	34.283	0.502
620.000	388.897	79.993	19.995	103.129	19.560	34.426	0.485
620.500	389.145	79.992	19.996	103.129	19.551	35.073	0.484
621.000	389.417	79.993	19.996	103.129	19.549	35.156	0.504
621.500	389.656	79.992	19.996	103.129	19.544	35.559	0.516
622.000	389.935	79.993	19.994	103.129	19.538	35.959	0.514
622.500	390.177	79.992	19.996	103.130	19.532	36.394	0.519
623.000	390.413	79.990	19.996	103.130	19.528	36.628	0.499
623.501	390.649	79.993	19.995	103.130	19.522	37.042	0.475
624.001	390.931	79.992	19.996	103.130	19.519	37.314	0.495
624.500	391.163	79.991	19.996	103.130	19.512	37.740	0.516
625.000	391.416	79.992	19.996	103.129	19.507	38.088	0.500
625.500	391.662	79.993	19.995	103.129	19.502	38.473	0.492
626.000	391.903	79.993	19.997	103.129	19.498	38.768	0.493
626.500	392.179	79.992	19.995	103.129	19.493	39.096	0.502
627.000	392.426	79.993	19.995	103.129	19.486	39.562	0.520
627.500	392.701	79.993	19.994	103.129	19.483	39.810	0.522
628.000	392.953	79.991	19.996	103.129	19.477	40.235	0.524
628.500	393.174	79.993	19.996	103.129	19.471	40.678	0.500
629.000	393.444	79.994	19.995	103.128	19.463	41.208	0.482
629.500	393.684	79.991	19.996	103.128	19.459	41.512	0.500
630.000	393.954	79.993	19.997	103.130	19.455	41.783	0.510
630.500	394.213	79.993	19.996	103.136	19.445	42.482	0.520
631.000	394.472	79.992	19.995	103.137	19.440	42.831	0.524
631.500	394.742	79.993	19.995	103.137	19.432	43.360	0.523
632.000	394.973	79.993	19.996	103.137	19.431	43.477	0.515
632.500	395.212	79.993	19.996	103.136	19.420	44.232	0.486
633.000	395.460	79.993	19.995	103.132	19.418	44.384	0.479
633.500	395.706	79.993	19.996	103.130	19.408	45.083	0.490
634.000	395.964	79.993	19.997	103.130	19.401	45.577	0.499
634.500	396.229	79.994	19.996	103.130	19.396	45.921	0.514
635.000	396.494	79.992	19.996	103.129	19.391	46.274	0.526
635.500	396.710	79.993	19.996	103.132	19.384	46.752	0.505
636.000	396.974	79.994	19.996	103.135	19.376	47.295	0.481
636.500	397.223	79.992	19.995	103.137	19.369	47.801	0.496
637.000	397.486	79.993	19.996	103.141	19.366	48.015	0.512
637.500	397.708	79.993	19.996	103.147	19.360	48.392	0.499
638.000	397.983	79.992	19.995	103.146	19.352	48.999	0.491
638.500	398.240	79.993	19.995	103.148	19.350	49.152	0.515
639.000	398.485	79.992	19.996	103.152	19.341	49.728	0.517
639.500	398.757	79.993	19.997	103.152	19.334	50.262	0.509
640.000	399.015	79.992	19.996	103.150	19.328	50.676	0.523
640.500	399.250	79.990	19.996	103.151	19.321	51.162	0.512
641.000	399.523	79.992	19.996	103.151	19.313	51.733	0.501
641.500	399.769	79.992	19.995	103.151	19.308	52.049	0.513
642.000	399.993	79.993	19.997	103.152	19.295	52.960	0.494
642.500	400.271	79.993	19.996	103.151	19.291	53.246	0.487
643.000	400.512	79.992	19.997	103.153	19.286	53.579	0.510
643.500	400.792	79.991	19.996	103.155	19.278	54.163	0.520
644.000	401.005	79.993	19.996	103.157	19.270	54.731	0.507
644.500	401.289	79.992	19.996	103.159	19.261	55.337	0.495
645.000	401.519	79.993	19.998	103.160	19.256	55.714	0.505
645.500	401.761	79.992	19.997	103.158	19.246	56.409	0.493
646.001	401.997	79.992	19.996	103.158	19.240	56.846	0.475
646.501	402.262	79.992	19.996	103.158	19.231	57.469	0.490
647.000	402.517	79.992	19.996	103.159	19.221	58.169	0.511
647.500	402.774	79.992	19.996	103.162	19.213	58.686	0.516
648.000	403.011	79.992	19.995	103.164	19.208	59.031	0.503
648.500	403.287	79.991	19.995	103.164	19.201	59.525	0.504
649.000	403.515	79.992	19.995	103.164	19.191	60.267	0.509
649.500	403.761	79.993	19.996	103.164	19.182	60.866	0.489
650.000	404.022	79.993	19.996	103.164	19.174	61.438	0.491
650.500	404.305	79.993	19.995	103.165	19.164	62.103	0.525
651.000	404.577	79.992	19.996	103.165	19.157	62.598	0.549
651.500	404.822	79.992	19.995	103.166	19.147	63.311	0.536
652.000	405.077	79.992	19.996	103.166	19.140	63.797	0.508
652.500	405.316	79.993	19.995	103.167	19.127	64.723	0.497
653.000	405.601	79.990	19.995	103.167	19.121	65.169	0.509
653.500	405.855	79.994	19.996	103.166	19.113	65.690	0.531
654.000	406.090	79.992	19.996	103.166	19.106	66.205	0.514
654.500	406.341	79.991	19.996	103.166	19.097	66.838	0.488
655.000	406.586	79.993	19.997	103.168	19.088	67.439	0.491
655.500	406.856	79.993	19.995	103.169	19.080	68.021	0.506
656.000	407.111	79.993	19.995	103.169	19.067	68.960	0.520
656.500	407.342	79.993	19.995	103.169	19.060	69.451	0.505
657.000	407.617	79.994	19.995	103.172	19.050	70.131	0.496
657.500	407.842	79.994	19.994	103.174	19.042	70.684	0.503
658.000	408.121	79.993	19.995	103.179	19.033	71.351	0.503
658.500	408.325	79.993	19.996	103.185	19.019	72.337	0.493
659.000	408.595	79.994	19.996	103.185	19.014	72.674	0.478
659.500	408.811	79.994	19.996	103.187	19.001	73.557	0.480
660.000	409.102	79.993	19.995	103.183	18.993	74.138	0.497
660.500	409.345	79.995	19.997	103.177	18.983	74.809	0.521
661.000	409.611	79.996	19.996	103.171	18.974	75.442	0.521
661.500	409.846	79.994	19.995	103.170	18.967	75.956	0.505
662.000	410.091	79.994	19.997	103.167	18.955	76.803	0.491
662.500	410.311	79.993	19.995	103.169	18.947	77.339	0.472
663.000	410.568	79.994	19.995	103.169	18.936	78.140	0.471
663.500	410.836	79.995	19.996	103.170	18.929	78.630	0.501
664.000	411.066	79.994	19.995	103.172	18.925	78.889	0.512
664.500	411.345	79.994	19.996	103.173	18.912	79.776	0.503
665.000	411.572	79.993	19.996	103.173	18.904	80.347	0.508
665.500	411.830	79.993	19.996	103.179	18.897	80.820	0.496
666.000	412.074	79.995	19.994	103.186	18.887	81.523	0.493
666.500	412.309	79.994	19.995	103.192	18.877	82.235	0.490
667.000	412.582	79.993	19.997	103.195	18.867	82.968	0.494
667.500	412.842	79.995	19.997	103.201	18.862	83.305	0.520
668.000	413.109	79.995	19.994	103.201	18.853	83.955	0.530
668.500	413.333	79.992	19.995	103.201	18.843	84.608	0.509
669.000	413.563	79.994	19.994	103.202	18.834	85.233	0.473
669.501	413.816	79.994	19.995	103.203	18.827	85.776	0.469
670.001	414.073	79.992	19.994	103.204	18.822	86.125	0.496
670.500	414.280	79.993	19.996	103.204	18.810	86.925	0.487
671.000	414.569	79.994	19.995	103.205	18.803	87.398	0.480
671.500	414.799	79.994	19.996	103.205	18.799	87.689	0.507
672.000	415.042	79.994	19.994	103.206	18.788	88.451	0.496
672.500	415.263	79.993	19.995	103.206	18.779	89.102	0.469
673.000	415.545	79.993	19.995	103.206	18.770	89.709	0.483
673.500	415.776	79.994	19.995	103.207	18.764	90.187	0.508
674.000	416.018	79.994	19.994	103.207	18.756	90.697	0.493
674.500	416.293	79.994	19.994	103.207	18.749	91.186	0.495
675.000	416.531	79.993	19.994	103.207	18.740	91.823	0.515
675.500	416.779	79.994	19.994	103.208	18.734	92.278	0.500
676.000	417.016	79.994	19.995	103.207	18.728	92.720	0.486
676.500	417.267	79.993	19.995	103.205	18.720	93.236	0.486
677.000	417.553	79.994	19.994	103.205	18.713	93.732	0.512
677.500	417.836	79.994	19.995	103.206	18.704	94.382	0.553
678.000	418.063	79.992	19.995	103.206	18.701	94.553	0.540
678.500	418.337	79.993	19.994	103.208	18.696	94.916	0.505
679.000	418.521	79.994	19.994	103.209	18.689	95.408	0.479
679.500	418.796	79.993	19.995	103.211	18.683	95.851	0.458
680.000	419.043	79.995	19.994	103.212	18.679	96.125	0.490
680.500	419.304	79.994	19.994	103.212	18.672	96.582	0.515
681.000	419.539	79.994	19.995	103.212	18.665	97.111	0.502
681.500	419.803	79.995	19.995	103.211	18.659	97.538	0.497
682.000	420.065	79.995	19.994	103.210	18.657	97.638	0.512
682.500	420.335	79.994	19.995	103.209	18.653	97.919	0.529
683.000	420.570	79.994	19.994	103.210	18.644	98.546	0.518
683.500	420.823	79.996	19.994	103.210	18.641	98.766	0.497
684.000	421.097	79.995	19.995	103.211	18.638	98.986	0.507
684.500	421.309	79.995	19.993	103.211	18.633	99.360	0.506
685.000	421.584	79.994	19.995	103.211	18.628	99.686	0.487
685.500	421.885	79.995	19.994	103.214	18.625	99.858	0.531
686.000	422.070	79.995	19.994	103.215	18.621	100.157	0.531
686.500	422.337	79.996	19.995	103.216	18.618	100.388	0.469
687.000	422.588	79.995	19.994	103.216	18.616	100.543	0.485
687.500	422.836	79.994	19.995	103.216	18.615	100.566	0.509
688.000	423.051	79.996	19.994	103.212	18.611	100.870	0.481
688.500	423.300	79.997	19.996	103.209	18.611	100.839	0.464
689.000	423.569	79.994	19.995	103.209	18.605	101.261	0.491
689.500	423.817	79.995	19.995	103.208	18.608	101.095	0.517
690.000	424.071	79.994	19.995	103.205	18.605	101.270	0.509
690.500	424.309	79.995	19.995	103.205	18.605	101.302	0.498
691.000	424.563	79.995	19.995	103.206	18.604	101.331	0.492
691.500	424.803	79.994	19.996	103.207	18.606	101.249	0.493
692.000	425.058	79.993	19.997	103.206	18.605	101.298	0.494
692.500	425.311	79.994	19.995	103.205	18.605	101.308	0.501
693.000	425.615	79.994	19.995	103.205	18.603	101.419	0.532
693.500	425.883	79.993	19.994	103.204	18.604	101.387	0.564
694.000	426.101	79.993	19.995	103.203	18.604	101.359	0.529
694.500	426.363	79.993	19.995	103.204	18.603	101.429	0.483
695.000	426.615	79.993	19.996	103.205	18.606	101.232	0.498
695.500	426.904	79.993	19.997	103.204	18.606	101.199	0.528
696.000	427.145	79.993	19.996	103.204	18.611	100.825	0.535
696.500	427.374	79.993	19.996	103.204	18.614	100.663	0.500
697.000	427.618	79.993	19.997	103.203	18.617	100.440	0.472
697.500	427.895	79.994	19.996	103.203	18.617	100.454	0.497
698.000	428.133	79.993	19.996	103.202	18.621	100.129	0.518
698.500	428.360	79.992	19.997	103.202	18.625	99.849	0.490
699.000	428.628	79.993	19.996	103.202	18.632	99.387	0.480
699.500	428.885	79.993	19.996	103.203	18.632	99.372	0.510
700.000	429.126	79.992	19.995	103.203	18.639	98.863	0.512
700.500	429.407	79.993	19.996	103.203	18.643	98.596	0.510
701.000	429.644	79.993	19.996	103.204	18.649	98.205	0.520
701.500	429.899	79.993	19.996	103.204	18.652	97.937	0.505
702.000	430.140	79.993	19.996	103.205	18.659	97.453	0.494
702.500	430.415	79.993	19.996	103.205	18.666	97.009	0.506
703.000	430.663	79.993	19.996	103.205	18.671	96.626	0.520
703.500	430.915	79.994	19.997	103.205	18.675	96.352	0.512
704.000	431.170	79.993	19.998	103.204	18.684	95.706	0.503
704.500	431.430	79.992	19.995	103.204	18.690	95.285	0.511
705.000	431.668	79.994	19.996	103.199	18.696	94.912	0.506
705.500	431.938	79.993	19.996	103.198	18.703	94.394	0.503
706.000	432.183	79.993	19.996	103.194	18.710	93.903	0.512
706.500	432.423	79.993	19.996	103.192	18.716	93.475	0.500
707.000	432.667	79.993	19.996	103.193	18.726	92.756	0.485
707.500	432.939	79.993	19.996	103.197	18.737	92.032	0.500
708.000	433.174	79.994	19.996	103.195	18.744	91.536	0.511
708.500	433.431	79.993	19.997	103.195	18.753	90.918	0.500
709.000	433.661	79.993	19.996	103.192	18.764	90.099	0.490
709.500	433.920	79.995	19.996	103.185	18.773	89.498	0.488
710.000	434.175	79.993	19.997	103.179	18.785	88.683	0.501
710.500	434.421	79.994	19.995	103.174	18.794	88.042	0.508
711.000	434.726	79.992	19.995	103.172	18.803	87.429	0.526
711.500	434.937	79.993	19.995	103.170	18.811	86.811	0.534
712.000	435.163	79.993	19.996	103.171	18.823	85.968	0.476
712.500	435.441	79.993	19.996	103.170	18.833	85.280	0.471
713.000	435.655	79.993	19.995	103.170	18.843	84.609	0.498
713.500	435.914	79.994	19.996	103.175	18.855	83.732	0.483
714.000	436.198	79.993	19.995	103.176	18.866	83.000	0.509
714.500	436.452	79.995	19.996	103.174	18.875	82.326	0.540
715.000	436.701	79.994	19.995	103.178	18.889	81.386	0.520
715.500	436.974	79.994	19.997	103.180	18.899	80.642	0.512
716.000	437.207	79.993	19.997	103.176	18.914	79.617	0.514
716.500	437.452	79.994	19.997	103.175	18.924	78.886	0.492
717.000	437.697	79.993	19.996	103.176	18.939	77.832	0.484
717.500	437.959	79.994	19.996	103.175	18.951	77.051	0.499
718.000	438.199	79.993	19.996	103.173	18.964	76.091	0.504
718.500	438.437	79.992	19.995	103.171	18.977	75.224	0.490
719.000	438.681	79.993	19.997	103.171	18.991	74.243	0.480
719.500	438.933	79.992	19.995	103.170	19.004	73.302	0.489
720.000	439.138	79.992	19.996	103.166	19.016	72.434	0.476
720.500	439.417	79.993	19.996	103.165	19.032	71.331	0.470
721.000	439.684	79.992	19.996	103.165	19.043	70.585	0.515
721.500	439.913	79.992	19.996	103.167	19.059	69.452	0.521
722.000	440.157	79.993	19.997	103.168	19.071	68.602	0.484
722.500	440.467	79.994	19.997	103.167	19.087	67.530	0.513
723.000	440.659	79.992	19.997	103.167	19.100	66.570	0.528
723.500	440.942	79.992	19.997	103.163	19.115	65.545	0.489
724.000	441.176	79.991	19.996	103.159	19.129	64.581	0.496
724.500	441.436	79.992	19.996	103.158	19.142	63.680	0.505
725.000	441.694	79.992	19.995	103.157	19.157	62.631	0.506
725.500	441.928	79.993	19.996	103.153	19.168	61.843	0.505
726.000	442.179	79.991	19.997	103.153	19.183	60.782	0.488
726.500	442.422	79.991	19.996	103.152	19.197	59.805	0.489
727.000	442.675	79.992	19.996	103.150	19.211	58.821	0.495
727.500	442.959	79.991	19.997	103.145	19.224	57.915	0.516
728.000	443.209	79.992	19.996	103.142	19.240	56.797	0.535
728.500	443.443	79.992	19.996	103.138	19.254	55.805	0.509
729.000	443.694	79.991	19.997	103.133	19.271	54.622	0.485
729.500	443.959	79.993	19.995	103.129	19.282	53.843	0.501
730.000	444.230	79.992	19.996	103.127	19.299	52.696	0.526
730.500	444.455	79.992	19.998	103.128	19.308	52.052	0.516
731.000	444.709	79.992	19.995	103.128	19.324	50.922	0.487
731.500	444.970	79.993	19.996	103.128	19.338	49.957	0.497
732.000	445.245	79.993	19.996	103.128	19.356	48.663	0.525
732.500	445.489	79.991	19.995	103.128	19.366	47.957	0.527
733.000	445.689	79.992	19.995	103.128	19.378	47.124	0.482
733.500	446.024	79.993	19.996	103.128	19.392	46.113	0.490
734.000	446.207	79.992	19.995	103.128	19.406	45.165	0.527
734.500	446.493	79.993	19.996	103.128	19.421	44.092	0.493
735.000	446.746	79.992	19.996	103.128	19.433	43.257	0.504
735.500	446.997	79.993	19.996	103.128	19.448	42.201	0.522
736.000	447.230	79.993	19.996	103.127	19.461	41.288	0.494
736.500	447.492	79.993	19.996	103.124	19.476	40.285	0.489
737.000	447.735	79.993	19.994	103.122	19.489	39.384	0.500
737.501	448.002	79.993	19.995	103.119	19.503	38.389	0.508
738.001	448.278	79.993	19.996	103.116	19.516	37.502	0.527
738.500	448.522	79.994	19.995	103.113	19.525	36.820	0.531
739.000	448.764	79.994	19.996	103.112	19.542	35.649	0.503
739.500	449.018	79.993	19.996	103.113	19.555	34.723	0.491
740.000	449.241	79.994	19.995	103.115	19.569	33.765	0.486
740.500	449.515	79.994	19.996	103.116	19.581	32.903	0.487
741.000	449.768	79.994	19.997	103.114	19.594	32.037	0.512
741.500	449.999	79.993	19.995	103.111	19.604	31.336	0.506
742.000	450.269	79.994	19.996	103.104	19.620	30.182	0.492
742.500	450.533	79.994	19.995	103.097	19.630	29.516	0.517
743.000	450.798	79.994	19.996	103.092	19.644	28.491	0.532
743.500	451.030	79.995	19.995	103.090	19.653	27.888	0.513
744.000	451.307	79.995	19.995	103.092	19.664	27.151	0.502
744.500	451.522	79.996	19.996	103.092	19.673	26.463	0.501
745.000	451.769	79.993	19.995	103.092	19.684	25.740	0.477
745.500	452.052	79.994	19.996	103.093	19.697	24.821	0.496
746.000	452.288	79.994	19.996	103.092	19.707	24.129	0.524
746.500	452.554	79.992	19.996	103.090	19.715	23.554	0.511
747.000	452.834	79.994	19.994	103.090	19.723	23.021	0.524
747.500	453.020	79.994	19.995	103.090	19.734	22.213	0.506
748.000	453.266	79.994	19.994	103.090	19.743	21.576	0.449
748.500	453.530	79.995	19.995	103.090	19.751	21.071	0.471
749.000	453.786	79.994	19.995	103.091	19.759	20.445	0.515
749.500	454.046	79.992	19.996	103.091	19.769	19.806	0.519
750.000	454.318	79.993	19.996	103.091	19.779	19.099	0.524
750.500	454.556	79.992	19.995	103.091	19.787	18.513	0.521
751.000	454.829	79.994	19.995	103.091	19.794	18.014	0.510
751.500	455.081	79.992	19.995	103.092	19.802	17.481	0.518
752.000	455.321	79.994	19.995	103.092	19.805	17.238	0.509
752.500	455.575	79.995	19.995	103.092	19.815	16.562	0.493
753.000	455.817	79.993	19.997	103.092	19.820	16.222	0.496
753.500	456.082	79.994	19.997	103.090	19.828	15.651	0.502
754.000	456.370	79.994	19.995	103.081	19.834	15.240	0.529
754.500	456.538	79.994	19.996	103.074	19.842	14.708	0.504
755.000	456.854	79.993	19.996	103.066	19.846	14.398	0.470
755.500	457.073	79.994	19.995	103.061	19.856	13.727	0.510
756.000	457.350	79.994	19.995	103.060	19.859	13.505	0.516
756.500	457.598	79.993	19.996	103.064	19.866	13.025	0.510
757.001	457.883	79.995	19.995	103.070	19.870	12.739	0.529
757.501	458.087	79.993	19.995	103.076	19.876	12.267	0.511
758.000	458.354	79.993	19.995	103.072	19.879	12.092	0.480
758.500	458.583	79.993	19.996	103.069	19.883	11.806	0.484
759.000	458.825	79.994	19.994	103.067	19.888	11.442	0.484
759.500	459.100	79.995	19.995	103.064	19.892	11.164	0.494
760.000	459.320	79.994	19.995	103.061	19.899	10.666	0.506
760.500	459.564	79.996	19.996	103.064	19.902	10.466	0.480
761.000	459.821	79.995	19.995	103.065	19.906	10.203	0.482
761.501	460.067	79.995	19.996	103.066	19.908	10.044	0.502
762.001	460.309	79.995	19.995	103.065	19.912	9.792	0.496
762.500	460.562	79.996	19.997	103.065	19.919	9.267	0.492
763.000	460.781	79.995	19.994	103.062	19.923	9.003	0.483
763.500	461.038	79.995	19.995	103.059	19.925	8.899	0.474
764.000	461.287	79.996	19.994	103.054	19.927	8.762	0.491
764.500	461.524	79.994	19.995	103.054	19.929	8.617	0.496
765.000	461.781	79.995	19.995	103.056	19.931	8.468	0.490
765.500	462.033	79.997	19.996	103.060	19.937	8.033	0.501
766.000	462.290	79.996	19.995	103.059	19.939	7.912	0.509
766.500	462.556	79.995	19.995	103.059	19.941	7.726	0.516
767.000	462.792	79.996	19.995	103.057	19.944	7.542	0.512
767.500	463.070	79.995	19.994	103.052	19.944	7.569	0.508
768.000	463.284	79.995	19.994	103.052	19.946	7.385	0.503
768.500	463.519	79.995	19.995	103.056	19.949	7.197	0.471
769.000	463.777	79.994	19.995	103.060	19.950	7.127	0.471
769.500	464.030	79.994	19.994	103.067	19.957	6.635	0.502
770.000	464.265	79.994	19.995	103.066	19.955	6.747	0.500
770.500	464.527	79.995	19.994	103.062	19.959	6.518	0.492
771.000	464.782	79.995	19.994	103.058	19.959	6.524	0.506
771.500	465.020	79.995	19.994	103.054	19.959	6.496	0.505
772.000	465.267	79.994	19.995	103.048	19.963	6.220	0.489
772.500	465.514	79.996	19.995	103.048	19.965	6.070	0.490
773.000	465.780	79.995	19.994	103.048	19.966	5.980	0.504
773.500	466.009	79.994	19.995	103.048	19.968	5.884	0.504
774.000	466.270	79.993	19.995	103.048	19.970	5.711	0.492
774.500	466.535	79.994	19.995	103.047	19.970	5.735	0.508
775.000	466.786	79.994	19.995	103.046	19.970	5.745	0.521
775.500	467.073	79.992	19.995	103.047	19.974	5.459	0.527
776.000	467.290	79.994	19.995	103.049	19.973	5.514	0.521
776.500	467.581	79.992	19.996	103.049	19.974	5.429	0.506
777.000	467.791	79.993	19.996	103.049	19.977	5.226	0.504
777.500	468.051	79.993	19.996	103.049	19.979	5.118	0.485
778.000	468.303	79.993	19.995	103.049	19.980	5.038	0.491
778.500	468.527	79.994	19.996	103.049	19.977	5.253	0.494
779.000	468.804	79.992	19.996	103.049	19.981	4.938	0.489
779.500	469.066	79.993	19.995	103.049	19.979	5.073	0.520
780.000	469.297	79.994	19.995	103.048	19.978	5.136	0.516
780.500	469.581	79.994	19.995	103.047	19.980	5.002	0.504
781.000	469.845	79.992	19.996	103.047	19.982	4.899	0.531
781.500	470.082	79.993	19.995	103.047	19.986	4.621	0.524
782.000	470.309	79.992	19.995	103.048	19.985	4.709	0.483
782.500	470.616	79.993	19.997	103.049	19.986	4.617	0.500
783.000	470.873	79.995	19.995	103.049	19.988	4.501	0.549
783.500	471.102	79.993	19.995	103.048	19.989	4.409	0.525
784.000	471.353	79.993	19.995	103.048	19.985	4.668	0.483
784.500	471.602	79.992	19.996	103.048	19.989	4.417	0.490
785.000	471.843	79.991	19.995	103.049	19.989	4.376	0.495
785.500	472.141	79.993	19.995	103.051	19.990	4.313	0.515
786.000	472.403	79.993	19.994	103.052	19.989	4.413	0.549
786.500	472.604	79.993	19.996	103.052	19.989	4.368	0.511
787.000	472.923	79.993	19.997	103.052	19.993	4.119	0.492
787.500	473.139	79.993	19.996	103.051	19.991	4.280	0.527
788.000	473.362	79.992	19.996	103.049	19.987	4.511	0.486
788.500	473.645	79.992	19.996	103.047	19.990	4.333	0.472
789.000	473.910	79.992	19.995	103.047	19.989	4.398	0.527
789.500	474.201	79.992	19.996	103.046	19.990	4.323	0.553
790.000	474.420	79.991	19.997	103.047	19.993	4.108	0.533
790.500	474.700	79.992	19.996	103.047	19.993	4.094	0.504
791.000	474.968	79.992	19.996	103.046	19.993	4.100	0.524
791.500	475.199	79.993	19.995	103.045	19.995	3.994	0.524
792.000	475.447	79.993	19.995	103.045	19.994	4.076	0.489
792.500	475.692	79.992	19.995	103.046	19.998	3.792	0.485
793.001	475.965	79.994	19.995	103.046	19.995	3.961	0.505
793.501	476.216	79.992	19.995	103.048	19.997	3.837	0.521
794.000	476.452	79.992	19.995	103.049	19.994	4.019	0.506
794.500	476.704	79.994	19.995	103.050	19.996	3.935	0.487
795.000	476.973	79.992	19.995	103.049	19.996	3.900	0.504
795.500	477.244	79.994	19.995	103.049	19.996	3.917	0.530
796.000	477.474	79.992	19.996	103.048	19.994	4.066	0.521
796.500	477.727	79.995	19.995	103.046	19.996	3.929	0.492
797.000	477.987	79.993	19.995	103.046	19.998	3.781	0.498
797.500	478.222	79.994	19.996	103.045	19.995	3.982	0.504
798.000	478.468	79.991	19.997	103.045	19.998	3.806	0.489
798.500	478.742	79.994	19.996	103.046	19.998	3.775	0.501
799.000	479.016	79.994	19.995	103.048	19.999	3.730	0.534
799.500	479.276	79.993	19.995	103.048	19.996	3.885	0.541
800.000	479.478	79.992	19.996	103.051	20.003	3.419	0.498
800.500	479.747	79.993	19.995	103.050	19.998	3.742	0.466
801.000	479.992	79.992	19.997	103.045	20.002	3.509	0.492
801.500	480.286	79.994	19.995	103.039	19.999	3.718	0.526
802.000	480.507	79.994	19.995	103.039	20.000	3.651	0.527
802.500	480.771	79.993	19.995	103.038	20.000	3.655	0.501
803.000	481.019	79.992	19.996	103.039	20.003	3.410	0.498
803.500	481.312	79.992	19.995	103.044	20.004	3.320	0.526
804.000	481.556	79.992	19.997	103.047	20.001	3.592	0.539
804.500	481.834	79.992	19.996	103.045	20.002	3.479	0.530
805.000	482.050	79.994	19.996	103.043	20.001	3.573	0.508
805.500	482.327	79.993	19.997	103.040	20.003	3.424	0.493
806.000	482.590	79.993	19.996	103.039	20.003	3.438	0.517
806.500	482.829	79.993	19.996	103.040	20.001	3.540	0.521
807.000	483.087	79.992	19.996	103.042	20.001	3.542	0.499
807.500	483.329	79.991	19.997	103.042	20.003	3.424	0.498
808.000	483.557	79.991	19.997	103.045	20.002	3.499	0.485
808.500	483.799	79.992	19.996	103.046	20.003	3.456	0.470
809.000	484.097	79.992	19.995	103.047	20.004	3.354	0.505
809.500	484.345	79.991	19.996	103.048	20.005	3.279	0.543
810.000	484.605	79.992	19.995	103.050	20.001	3.540	0.527
810.500	484.841	79.992	19.996	103.050	20.005	3.289	0.502
811.000	485.099	79.993	19.995	103.049	20.006	3.203	0.495
811.500	485.354	79.991	19.996	103.048	20.004	3.326	0.504
812.000	485.610	79.992	19.997	103.047	20.004	3.330	0.512
812.500	485.843	79.992	19.996	103.046	20.004	3.346	0.500
813.000	486.105	79.993	19.996	103.043	20.002	3.524	0.491
813.500	486.385	79.991	19.996	103.042	20.001	3.567	0.518
814.000	486.649	79.992	19.996	103.039	20.005	3.317	0.544
814.501	486.889	79.993	19.996	103.035	20.004	3.366	0.524
815.000	487.143	79.993	19.997	103.033	20.004	3.358	0.499
815.500	487.391	79.992	19.996	103.038	20.002	3.485	0.497
816.000	487.634	79.994	19.997	103.040	20.004	3.322	0.496
816.500	487.892	79.993	19.997	103.041	20.005	3.275	0.497
817.000	488.143	79.993	19.997	103.045	20.007	3.150	0.505
817.500	488.359	79.992	19.997	103.046	20.006	3.246	0.488
818.000	488.656	79.993	19.997	103.046	20.003	3.413	0.490
818.500	488.893	79.993	19.995	103.045	20.008	3.080	0.523
819.000	489.196	79.994	19.997	103.045	20.005	3.289	0.537
819.500	489.442	79.994	19.998	103.046	20.006	3.215	0.544
820.000	489.637	79.994	19.997	103.045	20.003	3.422	0.495
820.500	489.935	79.995	19.997	103.042	20.004	3.385	0.467
821.000	490.184	79.994	19.996	103.041	20.004	3.346	0.520
821.500	490.453	79.994	19.995	103.040	20.004	3.385	0.533
822.000	490.720	79.994	19.997	103.040	20.003	3.434	0.527
822.500	490.968	79.993	19.995	103.040	20.004	3.340	0.525
823.000	491.236	79.994	19.995	103.041	20.001	3.532	0.516
823.500	491.486	79.994	19.995	103.041	20.001	3.557	0.517
824.000	491.740	79.995	19.997	103.043	20.002	3.489	0.511
824.500	491.998	79.996	19.995	103.044	20.001	3.544	0.508
825.000	492.265	79.993	19.995	103.044	20.005	3.301	0.519
825.500	492.513	79.994	19.996	103.044	20.002	3.499	0.520
826.000	492.746	79.994	19.995	103.045	20.000	3.616	0.498
826.500	492.991	79.993	19.995	103.044	20.001	3.548	0.479
827.000	493.235	79.994	19.995	103.044	20.003	3.391	0.483
827.500	493.564	79.994	19.995	103.044	20.001	3.536	0.531
828.000	493.770	79.994	19.995	103.044	19.999	3.677	0.554
828.500	494.042	79.994	19.995	103.045	20.001	3.569	0.506
829.000	494.310	79.993	19.996	103.046	20.001	3.543	0.509
829.500	494.587	79.994	19.996	103.046	19.999	3.731	0.543
830.000	494.849	79.993	19.994	103.045	19.999	3.678	0.542
830.500	495.085	79.995	19.995	103.044	19.999	3.735	0.519
831.000	495.376	79.994	19.994	103.040	20.000	3.606	0.512
831.500	495.634	79.994	19.995	103.037	19.998	3.749	0.538
832.000	495.886	79.993	19.994	103.033	20.000	3.612	0.530
832.500	496.131	79.993	19.995	103.033	19.999	3.698	0.503
833.000	496.377	79.995	19.995	103.035	20.001	3.549	0.494
833.500	496.624	79.994	19.994	103.039	19.998	3.743	0.492
834.000	496.915	79.995	19.995	103.043	20.001	3.565	0.515
834.500	497.188	79.994	19.995	103.046	20.002	3.497	0.551
835.000	497.402	79.995	19.996	103.045	20.000	3.642	0.525
835.500	497.658	79.994	19.995	103.046	20.002	3.475	0.479
836.000	497.928	79.995	19.996	103.045	20.001	3.532	0.499
836.500	498.182	79.994	19.996	103.044	19.999	3.726	0.525
837.000	498.429	79.993	19.995	103.044	19.998	3.745	0.512
837.500	498.684	79.993	19.995	103.044	20.002	3.495	0.502
838.000	498.929	79.994	19.995	103.043	20.000	3.604	0.501
838.500	499.180	79.995	19.995	103.044	20.000	3.601	0.498
839.000	499.461	79.993	19.995	103.041	19.997	3.808	0.514
839.500	499.692	79.994	19.996	103.040	20.003	3.422	0.522
840.000	499.971	79.995	19.995	103.035	20.001	3.597	0.511
840.500	500.237	79.995	19.995	103.034	19.999	3.724	0.527
841.000	500.498	79.996	19.996	103.034	19.999	3.685	0.536
841.500	500.700	79.995	19.996	103.033	19.997	3.816	0.495
842.001	500.962	79.995	19.996	103.035	20.002	3.477	0.463
842.501	501.250	79.994	19.995	103.039	20.001	3.561	0.507
843.000	501.508	79.996	19.995	103.040	19.999	3.694	0.548
843.500	501.754	79.996	19.995	103.037	20.003	3.450	0.525
844.000	502.009	79.995	19.996	103.039	19.999	3.695	0.502
844.500	502.275	79.995	19.996	103.039	20.002	3.497	0.511
845.000	502.506	79.996	19.995	103.039	20.000	3.603	0.509
845.500	502.775	79.995	19.995	103.040	20.000	3.604	0.499
846.000	503.013	79.996	19.996	103.043	19.999	3.685	0.503
846.500	503.295	79.995	19.994	103.045	20.000	3.610	0.513
847.000	503.560	79.994	19.997	103.045	20.001	3.536	0.533
847.500	503.810	79.994	19.995	103.046	20.005	3.291	0.531
848.000	504.056	79.994	19.995	103.045	20.003	3.446	0.506
848.500	504.333	79.995	19.996	103.045	20.004	3.360	0.510
849.000	504.589	79.994	19.996	103.045	20.004	3.366	0.528
849.500	504.814	79.992	19.997	103.046	20.004	3.336	0.507
850.000	505.074	79.993	19.995	103.045	20.003	3.407	0.483
850.500	505.321	79.993	19.995	103.047	20.002	3.503	0.496
851.000	505.602	79.992	19.994	103.047	20.002	3.516	0.517
851.500	505.851	79.994	19.995	103.047	20.004	3.375	0.529
852.000	506.140	79.993	19.995	103.045	20.003	3.450	0.534
852.500	506.383	79.993	19.995	103.044	20.001	3.591	0.535
853.000	506.655	79.992	19.995	103.045	20.001	3.530	0.523
853.500	506.859	79.993	19.995	103.044	20.003	3.413	0.495
854.000	507.139	79.993	19.995	103.044	20.004	3.332	0.480
854.500	507.423	79.993	19.996	103.047	20.003	3.403	0.524
855.000	507.674	79.991	19.994	103.048	20.005	3.297	0.549
855.500	507.910	79.993	19.995	103.047	20.005	3.279	0.511
856.000	508.181	79.992	19.995	103.047	20.004	3.318	0.497
856.500	508.444	79.992	19.995	103.046	20.004	3.377	0.521
857.000	508.679	79.993	19.995	103.046	20.004	3.347	0.516
857.500	508.984	79.991	19.996	103.048	20.004	3.365	0.519
858.000	509.239	79.993	19.995	103.048	20.004	3.328	0.550
858.500	509.494	79.992	19.995	103.049	20.003	3.403	0.535
859.000	509.738	79.993	19.995	103.050	20.005	3.281	0.505
859.500	510.004	79.993	19.995	103.050	20.005	3.295	0.504
860.000	510.273	79.993	19.995	103.050	20.008	3.070	0.522
860.500	510.517	79.993	19.995	103.050	20.003	3.405	0.524
861.000	510.742	79.994	19.995	103.049	20.005	3.313	0.491
861.500	511.043	79.993	19.996	103.050	20.005	3.266	0.497
862.000	511.307	79.992	19.995	103.049	20.005	3.256	0.546
862.500	511.567	79.993	19.996	103.049	20.004	3.321	0.545
863.000	511.802	79.993	19.995	103.050	20.003	3.444	0.510
863.500	512.063	79.993	19.995	103.050	20.002	3.495	0.496
864.000	512.295	79.992	19.995	103.050	20.005	3.291	0.494
864.500	512.536	79.992	19.995	103.051	20.005	3.282	0.482
865.000	512.842	79.993	19.995	103.049	20.006	3.223	0.510
865.500	513.080	79.993	19.995	103.048	20.003	3.456	0.546
866.000	513.351	79.992	19.995	103.042	20.006	3.227	0.526
866.500	513.579	79.992	19.995	103.035	20.007	3.109	0.504
867.000	513.846	79.992	19.996	103.028	20.006	3.221	0.497
867.500	514.147	79.992	19.995	103.029	20.006	3.225	0.532
868.000	514.430	79.992	19.995	103.029	20.007	3.152	0.576
868.500	514.697	79.992	19.995	103.028	20.005	3.313	0.566
869.000	514.931	79.992	19.995	103.034	20.003	3.407	0.525
869.500	515.197	79.993	19.996	103.040	20.004	3.371	0.501
870.000	515.441	79.993	19.995	103.041	20.006	3.230	0.505
870.500	515.699	79.992	19.996	103.043	20.006	3.213	0.507
871.000	515.980	79.993	19.995	103.049	20.003	3.424	0.521
871.500	516.244	79.992	19.995	103.049	20.007	3.168	0.542
872.000	516.478	79.991	19.996	103.051	20.010	2.937	0.521
872.500	516.751	79.992	19.994	103.050	20.004	3.328	0.502
873.000	517.015	79.993	19.998	103.050	20.006	3.197	0.522
873.500	517.297	79.993	19.996	103.050	20.007	3.160	0.542
874.000	517.545	79.993	19.996	103.050	20.006	3.223	0.538
874.500	517.783	79.991	19.996	103.050	20.006	3.201	0.508
875.000	518.063	79.993	19.996	103.050	20.008	3.097	0.502
875.500	518.344	79.993	19.997	103.050	20.004	3.332	0.540
876.000	518.550	79.993	19.997	103.048	20.004	3.352	0.524
876.500	518.803	79.992	19.997	103.045	20.004	3.334	0.473
877.000	519.050	79.993	19.997	103.043	20.002	3.463	0.479
877.500	519.329	79.993	19.996	103.041	20.004	3.377	0.513
878.000	519.577	79.994	19.996	103.042	20.005	3.316	0.526
878.500	519.884	79.992	19.996	103.044	20.004	3.320	0.541
879.000	520.168	79.993	19.996	103.045	20.004	3.340	0.573
879.500	520.400	79.993	19.996	103.043	20.008	3.040	0.553
880.000	520.636	79.993	19.996	103.044	20.006	3.187	0.492
880.500	520.915	79.993	19.996	103.042	20.006	3.197	0.491
881.000	521.178	79.992	19.996	103.041	20.006	3.189	0.528
881.500	521.427	79.992	19.997	103.040	20.005	3.256	0.527
882.000	521.659	79.992	19.996	103.042	20.006	3.205	0.496
882.500	521.923	79.993	19.996	103.042	20.005	3.252	0.489
883.000	522.208	79.993	19.997	103.043	20.003	3.447	0.523
883.500	522.442	79.993	19.995	103.043	20.007	3.148	0.534
884.000	522.714	79.993	19.995	103.044	20.003	3.395	0.512
884.500	522.964	79.993	19.997	103.043	20.005	3.316	0.514
885.000	523.228	79.993	19.995	103.043	20.004	3.367	0.518
885.500	523.523	79.992	19.995	103.040	20.006	3.197	0.537
886.000	523.771	79.993	19.996	103.042	20.003	3.395	0.551
886.500	524.005	79.992	19.996	103.042	20.005	3.269	0.513
887.000	524.292	79.991	19.996	103.041	20.003	3.434	0.501
887.500	524.558	79.992	19.996	103.041	20.004	3.334	0.537
888.000	524.798	79.991	19.996	103.045	20.008	3.067	0.530
888.500	525.055	79.992	19.996	103.043	20.006	3.222	0.502
889.000	525.350	79.992	19.996	103.039	20.005	3.275	0.525
889.501	525.584	79.991	19.995	103.038	20.003	3.436	0.540
890.000	525.809	79.991	19.996	103.038	20.007	3.166	0.494
890.501	526.115	79.991	19.997	103.039	20.005	3.317	0.495
891.001	526.343	79.994	19.997	103.040	20.006	3.238	0.533
891.500	526.621	79.993	19.995	103.045	20.008	3.105	0.520
892.000	526.891	79.993	19.996	103.045	20.007	3.150	0.527
892.500	527.129	79.993	19.996	103.041	20.005	3.303	0.528
893.000	527.426	79.991	19.996	103.036	20.009	3.025	0.522
893.500	527.674	79.991	19.996	103.036	20.005	3.269	0.540
894.000	527.952	79.993	19.996	103.031	20.009	3.015	0.536
894.500	528.187	79.993	19.996	103.031	20.010	2.960	0.519
895.000	528.441	79.993	19.996	103.036	20.008	3.074	0.500
895.500	528.710	79.993	19.996	103.041	20.011	2.886	0.506
896.000	528.969	79.994	19.997	103.041	20.009	2.980	0.526
896.500	529.192	79.994	19.996	103.046	20.010	2.919	0.505
897.000	529.472	79.992	19.997	103.041	20.010	2.931	0.493
897.500	529.750	79.994	19.996	103.039	20.012	2.782	0.530
898.000	530.011	79.995	19.996	103.036	20.012	2.817	0.548
898.500	530.243	79.994	19.996	103.030	20.011	2.839	0.516
899.000	530.490	79.993	19.997	103.027	20.010	2.960	0.486
899.500	530.744	79.994	19.995	103.033	20.012	2.788	0.490
900.000	531.050	79.994	19.996	103.033	20.011	2.862	0.530
900.500	531.300	79.994	19.997	103.036	20.010	2.929	0.558
901.000	531.546	79.994	19.997	103.040	20.011	2.868	0.526
901.500	531.823	79.994	19.997	103.042	20.011	2.840	0.510
902.000	532.088	79.994	19.998	103.041	20.011	2.875	0.532
902.500	532.314	79.995	19.996	103.041	20.011	2.848	0.516
903.000	532.603	79.995	19.997	103.040	20.012	2.778	0.503
903.500	532.867	79.994	19.997	103.039	20.015	2.608	0.534
904.000	533.094	79.994	19.997	103.039	20.013	2.717	0.522
904.500	533.382	79.994	19.997	103.040	20.008	3.107	0.503
905.000	533.591	79.993	19.998	103.038	20.010	2.917	0.507
905.500	533.882	79.995	19.997	103.040	20.011	2.866	0.499
906.000	534.162	79.994	19.997	103.042	20.009	2.996	0.535
906.500	534.423	79.995	19.996	103.041	20.012	2.784	0.556
907.000	534.676	79.993	19.997	103.041	20.014	2.649	0.528
907.501	534.948	79.993	19.996	103.043	20.012	2.823	0.520
908.001	535.213	79.994	19.997	103.042	20.014	2.670	0.531
908.502	535.492	79.994	19.996	103.044	20.012	2.784	0.540
909.001	535.720	79.995	19.996	103.046	20.012	2.808	0.525
909.500	536.029	79.994	19.996	103.044	20.012	2.763	0.523
910.000	536.272	79.995	19.998	103.044	20.011	2.847	0.545
910.500	536.519	79.993	19.997	103.044	20.012	2.821	0.520
911.000	536.835	79.992	19.997	103.042	20.011	2.894	0.526
911.500	537.075	79.994	19.997	103.038	20.013	2.739	0.559
912.000	537.319	79.994	19.996	103.034	20.009	2.994	0.520
912.500	537.611	79.994	19.997	103.028	20.009	3.017	0.510
913.000	537.827	79.993	19.995	103.022	20.007	3.164	0.522
913.500	538.106	79.994	19.996	103.025	20.011	2.864	0.501
914.000	538.349	79.994	19.996	103.029	20.014	2.680	0.508
914.500	538.637	79.994	19.996	103.036	20.010	2.915	0.527
915.000	538.907	79.995	19.996	103.042	20.012	2.776	0.545
915.500	539.153	79.994	19.995	103.048	20.010	2.952	0.537
916.000	539.412	79.994	19.996	103.048	20.010	2.965	0.511
916.500	539.688	79.993	19.998	103.049	20.008	3.040	0.520
917.000	539.944	79.993	19.996	103.049	20.011	2.886	0.533
917.500	540.209	79.993	19.996	103.047	20.010	2.907	0.526
918.000	540.478	79.995	19.996	103.046	20.009	2.986	0.528
918.500	540.659	79.993	19.995	103.045	20.013	2.698	0.492
919.001	540.944	79.994	19.996	103.042	20.013	2.739	0.458
919.500	541.223	79.996	19.996	103.042	20.011	2.834	0.515
920.000	541.484	79.994	19.996	103.045	20.012	2.785	0.552
920.500	541.731	79.995	19.997	103.046	20.012	2.780	0.524
921.000	541.994	79.995	19.997	103.047	20.013	2.750	0.509
921.500	542.268	79.994	19.996	103.049	20.013	2.723	0.524
922.000	542.507	79.995	19.994	103.049	20.016	2.492	0.525
922.500	542.771	79.996	19.995	103.048	20.014	2.663	0.508
923.000	543.004	79.995	19.995	103.044	20.011	2.896	0.500
923.500	543.269	79.996	19.995	103.038	20.012	2.782	0.498
924.000	543.552	79.996	19.995	103.033	20.012	2.823	0.523
924.500	543.786	79.997	19.995	103.033	20.014	2.645	0.532
925.000	544.072	79.996	19.995	103.026	20.014	2.653	0.518
925.500	544.286	79.994	19.995	103.022	20.013	2.735	0.510
926.000	544.542	79.996	19.995	103.020	20.014	2.631	0.485
926.500	544.811	79.995	19.995	103.020	20.011	2.856	0.497
927.000	545.069	79.994	19.994	103.021	20.015	2.555	0.526
927.500	545.323	79.995	19.995	103.028	20.017	2.473	0.520
928.000	545.575	79.995	19.996	103.035	20.011	2.831	0.509
928.500	545.832	79.993	19.994	103.040	20.011	2.868	0.507
929.000	546.071	79.994	19.996	103.039	20.013	2.707	0.503
929.500	546.333	79.994	19.996	103.033	20.013	2.727	0.499
930.000	546.591	79.993	19.995	103.031	20.014	2.682	0.511
930.500	546.858	79.994	19.996	103.025	20.013	2.733	0.523
931.000	547.098	79.993	19.995	103.021	20.012	2.770	0.516
931.500	547.356	79.993	19.995	103.022	20.014	2.672	0.502
932.000	547.629	79.992	19.995	103.027	20.013	2.741	0.514
932.500	547.902	79.994	19.995	103.028	20.015	2.609	0.539
933.000	548.179	79.992	19.996	103.035	20.016	2.541	0.548
933.500	548.404	79.992	19.996	103.040	20.015	2.572	0.526
934.000	548.681	79.991	19.995	103.046	20.015	2.588	0.502
934.500	548.903	79.993	19.995	103.047	20.014	2.647	0.500
935.000	549.173	79.992	19.995	103.046	20.015	2.562	0.495
935.500	549.465	79.993	19.994	103.040	20.014	2.668	0.528
936.000	549.727	79.992	19.996	103.040	20.013	2.715	0.558
936.500	549.977	79.991	19.995	103.036	20.015	2.597	0.533
937.000	550.242	79.992	19.996	103.035	20.015	2.580	0.513
937.500	550.479	79.993	19.996	103.036	20.015	2.598	0.508
938.000	550.728	79.993	19.995	103.040	20.012	2.787	0.494
938.500	551.008	79.993	19.995	103.035	20.014	2.658	0.508
939.000	551.222	79.992	19.995	103.035	20.014	2.649	0.511
939.500	551.505	79.993	19.995	103.038	20.016	2.502	0.496
940.000	551.753	79.993	19.995	103.031	20.014	2.678	0.514
940.500	551.994	79.993	19.995	103.027	20.013	2.735	0.510
941.000	552.266	79.995	19.996	103.032	20.016	2.506	0.501
941.500	552.519	79.993	19.997	103.033	20.014	2.686	0.519
942.000	552.758	79.993	19.995	103.032	20.017	2.441	0.508
942.500	553.022	79.993	19.996	103.032	20.016	2.486	0.497
943.000	553.285	79.993	19.996	103.030	20.012	2.778	0.515
943.500	553.566	79.994	19.996	103.024	20.013	2.698	0.536
944.000	553.813	79.995	19.997	103.019	20.015	2.616	0.536
944.500	554.060	79.993	19.996	103.017	20.013	2.710	0.511
945.000	554.329	79.993	19.995	103.019	20.015	2.594	0.505
945.500	554.588	79.994	19.997	103.025	20.013	2.741	0.522
946.000	554.835	79.994	19.995	103.025	20.015	2.604	0.517
946.500	555.102	79.994	19.995	103.027	20.013	2.758	0.510
947.000	555.333	79.994	19.995	103.024	20.014	2.672	0.506
947.500	555.618	79.994	19.997	103.021	20.015	2.592	0.507
948.000	555.861	79.994	19.995	103.022	20.014	2.660	0.522
948.500	556.117	79.994	19.995	103.027	20.015	2.562	0.514
949.000	556.365	79.993	19.995	103.024	20.013	2.715	0.502
949.500	556.646	79.993	19.996	103.026	20.017	2.414	0.517
950.000	556.918	79.995	19.995	103.029	20.017	2.451	0.541
950.500	557.147	79.994	19.996	103.028	20.017	2.459	0.527
951.000	557.378	79.993	19.996	103.023	20.017	2.455	0.481
951.500	557.661	79.994	19.995	103.025	20.018	2.388	0.487
952.000	557.908	79.994	19.997	103.029	20.018	2.351	0.522
952.500	558.115	79.994	19.995	103.032	20.017	2.478	0.491
953.000	558.426	79.994	19.996	103.035	20.017	2.443	0.486
953.500	558.701	79.994	19.996	103.041	20.018	2.365	0.552
954.000	558.936	79.994	19.997	103.046	20.018	2.404	0.548
954.500	559.181	79.994	19.996	103.047	20.015	2.561	0.495
955.000	559.442	79.994	19.997	103.046	20.019	2.297	0.493
955.500	559.719	79.994	19.997	103.041	20.018	2.398	0.522
956.000	559.931	79.994	19.997	103.040	20.019	2.283	0.513
956.500	560.218	79.995	19.996	103.039	20.020	2.249	0.494
957.000	560.436	79.993	19.997	103.038	20.021	2.199	0.502
957.500	560.717	79.993	19.995	103.035	20.017	2.426	0.502
958.000	560.991	79.993	19.997	103.033	20.015	2.573	0.526
958.500	561.205	79.994	19.997	103.029	20.017	2.435	0.521
959.000	561.490	79.994	19.997	103.023	20.017	2.465	0.494
959.500	561.737	79.993	19.997	103.016	20.018	2.402	0.516
960.000	561.995	79.993	19.996	103.019	20.019	2.335	0.519
960.500	562.255	79.993	19.997	103.024	20.019	2.292	0.511
961.000	562.506	79.993	19.996	103.029	20.017	2.433	0.514
961.500	562.763	79.992	19.996	103.035	20.017	2.459	0.510
962.000	563.014	79.993	19.996	103.041	20.017	2.477	0.508
962.500	563.268	79.992	19.997	103.041	20.017	2.412	0.506
963.000	563.517	79.992	19.997	103.039	20.017	2.453	0.504
963.500	563.766	79.993	19.996	103.035	20.019	2.306	0.501
964.000	564.063	79.993	19.997	103.034	20.018	2.355	0.522
964.500	564.292	79.994	19.997	103.034	20.019	2.279	0.536
965.000	564.550	79.991	19.996	103.034	20.014	2.645	0.506
965.500	564.798	79.993	19.996	103.037	20.017	2.439	0.496
966.000	565.058	79.993	19.996	103.043	20.019	2.310	0.507
966.500	565.334	79.992	19.997	103.044	20.016	2.537	0.523
967.000	565.554	79.992	19.997	103.042	20.020	2.238	0.516
967.500	565.829	79.993	19.996	103.041	20.020	2.244	0.495
968.000	566.100	79.992	19.994	103.041	20.016	2.545	0.521
968.500	566.370	79.994	19.996	103.041	20.018	2.371	0.544
969.000	566.607	79.992	19.996	103.041	20.016	2.496	0.524
969.500	566.856	79.994	19.997	103.038	20.018	2.357	0.497
970.001	567.144	79.995	19.997	103.034	20.019	2.337	0.511
970.500	567.391	79.992	19.996	103.027	20.017	2.429	0.536
971.000	567.642	79.994	19.995	103.025	20.019	2.328	0.517
971.500	567.882	79.994	19.996	103.021	20.017	2.414	0.494
972.000	568.126	79.991	19.996	103.026	20.013	2.704	0.488
972.500	568.400	79.993	19.995	103.034	20.018	2.406	0.502
973.000	568.683	79.996	19.994	103.041	20.015	2.602	0.538
973.500	568.913	79.994	19.997	103.042	20.020	2.214	0.534
974.000	569.166	79.994	19.996	103.045	20.016	2.545	0.497
974.500	569.404	79.993	19.997	103.046	20.017	2.469	0.487
975.000	569.676	79.994	19.995	103.045	20.017	2.463	0.501
975.500	569.973	79.994	19.995	103.044	20.015	2.559	0.540
976.000	570.214	79.996	19.996	103.043	20.016	2.545	0.554
976.501	570.474	79.994	19.996	103.042	20.021	2.149	0.519
977.000	570.730	79.994	19.996	103.037	20.018	2.369	0.508
977.500	570.980	79.996	19.995	103.033	20.017	2.476	0.511
978.000	571.261	79.995	19.996	103.033	20.016	2.494	0.519
978.500	571.507	79.996	19.997	103.035	20.017	2.437	0.529
979.000	571.744	79.994	19.996	103.037	20.015	2.558	0.504
979.500	572.012	79.994	19.996	103.041	20.017	2.453	0.494
980.000	572.270	79.995	19.996	103.040	20.014	2.635	0.516
980.500	572.517	79.994	19.996	103.037	20.017	2.427	0.516
981.000	572.783	79.996	19.997	103.031	20.018	2.380	0.509
981.500	573.056	79.993	19.996	103.031	20.017	2.421	0.526
982.000	573.326	79.995	19.995	103.030	20.018	2.404	0.541
982.500	573.542	79.994	19.997	103.034	20.018	2.341	0.515
983.001	573.837	79.996	19.997	103.038	20.015	2.554	0.498
983.500	574.110	79.994	19.997	103.042	20.017	2.429	0.539
984.000	574.377	79.993	19.995	103.039	20.019	2.327	0.554
984.500	574.635	79.993	19.997	103.039	20.016	2.507	0.533
985.000	574.885	79.993	19.996	103.037	20.015	2.570	0.517
985.500	575.156	79.994	19.995	103.038	20.012	2.807	0.515
986.000	575.410	79.993	19.996	103.038	20.016	2.494	0.523
986.500	575.652	79.993	19.995	103.038	20.014	2.672	0.510
987.000	575.926	79.993	19.997	103.034	20.012	2.774	0.505
987.500	576.149	79.993	19.997	103.031	20.017	2.416	0.507
988.000	576.400	79.993	19.997	103.028	20.015	2.559	0.486
988.500	576.703	79.992	19.997	103.026	20.017	2.414	0.514
989.000	576.930	79.993	19.996	103.026	20.018	2.396	0.542
989.500	577.179	79.993	19.996	103.027	20.017	2.476	0.503
990.000	577.467	79.994	19.998	103.025	20.017	2.429	0.507
990.500	577.687	79.994	19.998	103.025	20.018	2.377	0.523
991.000	577.942	79.993	19.997	103.022	20.018	2.355	0.492
991.500	578.227	79.992	19.997	103.017	20.019	2.308	0.507
992.000	578.458	79.993	19.997	103.014	20.016	2.486	0.528
992.500	578.725	79.993	19.996	103.015	20.016	2.529	0.507
993.000	578.984	79.992	19.997	103.015	20.014	2.635	0.512
993.500	579.228	79.993	19.998	103.016	20.017	2.427	0.515
994.000	579.485	79.994	19.996	103.016	20.018	2.394	0.502
994.500	579.733	79.993	19.996	103.016	20.016	2.533	0.503
995.000	580.014	79.993	19.995	103.021	20.017	2.433	0.517
995.500	580.278	79.993	19.996	103.022	20.015	2.553	0.537
996.000	580.514	79.993	19.996	103.028	20.018	2.343	0.522
996.500	580.768	79.994	19.996	103.034	20.016	2.525	0.495
997.000	581.006	79.992	19.998	103.040	20.015	2.613	0.491
997.500	581.254	79.995	19.996	103.040	20.014	2.664	0.489
998.000	581.513	79.995	19.995	103.039	20.013	2.690	0.496
998.500	581.729	79.995	19.995	103.036	20.017	2.445	0.491
999.000	582.004	79.995	19.996	103.036	20.015	2.610	0.483
999.500	582.271	79.995	19.996	103.031	20.019	2.310	0.517
1000.000	582.536	79.995	19.996	103.029	20.015	2.602	0.537
1000.500	582.786	79.996	19.996	103.032	20.015	2.551	0.523
1001.000	583.033	79.995	19.996	103.031	20.015	2.606	0.506
1001.500	583.306	79.995	19.996	103.032	20.018	2.378	0.508
1002.000	583.531	79.997	19.995	103.033	20.016	2.521	0.509
1002.500	583.849	79.995	19.997	103.030	20.015	2.602	0.521
1003.000	584.083	79.997	19.994	103.027	20.016	2.545	0.548
1003.500	584.327	79.996	19.997	103.027	20.018	2.408	0.515
1004.000	584.574	79.996	19.996	103.023	20.019	2.298	0.484
1004.500	584.855	79.996	19.995	103.025	20.018	2.365	0.509
1005.000	585.109	79.996	19.996	103.030	20.019	2.324	0.532
1005.500	585.326	79.994	19.994	103.034	20.015	2.578	0.503
1006.000	585.614	79.995	19.997	103.034	20.019	2.304	0.488
1006.500	585.844	79.994	19.995	103.038	20.018	2.367	0.511
1007.000	586.118	79.995	19.994	103.036	20.017	2.437	0.511
1007.500	586.336	79.995	19.996	103.033	20.017	2.473	0.498
1008.000	586.602	79.994	19.997	103.031	20.016	2.516	0.488
1008.500	586.926	79.994	19.995	103.032	20.015	2.551	0.538
1009.000	587.116	79.993	19.995	103.033	20.017	2.418	0.552
1009.500	587.405	79.994	19.995	103.034	20.014	2.676	0.496
1010.000	587.638	79.994	19.996	103.039	20.016	2.484	0.500
1010.500	587.903	79.993	19.993	103.038	20.018	2.371	0.510
1011.000	588.138	79.993	19.994	103.036	20.017	2.462	0.499
1011.500	588.430	79.992	19.996	103.032	20.016	2.539	0.514
1012.000	588.653	79.993	19.996	103.032	20.018	2.404	0.521
1012.500	588.902	79.994	19.995	103.028	20.015	2.593	0.493
1013.000	589.174	79.993	19.995	103.026	20.020	2.249	0.496
1013.500	589.422	79.993	19.995	103.026	20.019	2.335	0.521
1014.000	589.672	79.991	19.995	103.030	20.017	2.415	0.509
1014.500	589.966	79.992	19.995	103.031	20.018	2.394	0.521
1015.000	590.197	79.989	20.000	103.030	20.016	2.539	0.534
1015.500	590.464	79.993	19.996	103.027	20.018	2.363	0.511
1016.000	590.690	79.992	19.995	103.027	20.018	2.390	0.495
1016.500	590.970	79.992	19.996	103.026	20.015	2.608	0.500
1017.000	591.238	79.993	19.995	103.024	20.016	2.523	0.527
1017.500	591.469	79.993	19.996	103.028	20.021	2.185	0.523
1018.000	591.763	79.993	19.995	103.032	20.018	2.385	0.512
1018.500	591.985	79.993	19.995	103.035	20.018	2.357	0.520
1019.000	592.248	79.993	19.994	103.033	20.017	2.432	0.500
1019.500	592.498	79.992	19.997	103.037	20.016	2.549	0.499
1020.000	592.753	79.991	19.997	103.039	20.013	2.719	0.509
1020.500	592.985	79.992	19.995	103.036	20.018	2.361	0.496
1021.000	593.261	79.993	19.996	103.031	20.020	2.259	0.497
1021.500	593.519	79.991	19.997	103.028	20.016	2.512	0.521
1022.000	593.788	79.993	19.995	103.023	20.014	2.637	0.530
1022.500	594.090	79.993	19.996	103.016	20.017	2.410	0.549
1023.000	594.305	79.993	19.996	103.014	20.017	2.449	0.544
1023.500	594.584	79.992	19.996	103.015	20.015	2.602	0.506
1024.000	594.836	79.992	19.996	103.013	20.016	2.531	0.512
1024.500	595.098	79.993	19.995	103.010	20.017	2.416	0.522
1025.000	595.340	79.992	19.996	103.010	20.018	2.394	0.509
1025.500	595.596	79.994	19.996	103.015	20.016	2.523	0.501
1026.000	595.841	79.994	19.994	103.018	20.017	2.461	0.499
1026.500	596.091	79.993	19.995	103.025	20.018	2.357	0.498
1027.000	596.371	79.993	19.996	103.027	20.018	2.351	0.512
1027.500	596.608	79.993	19.996	103.034	20.018	2.389	0.524
1028.000	596.891	79.993	19.995	103.037	20.016	2.492	0.519
1028.500	597.132	79.993	19.994	103.039	20.015	2.596	0.522
1029.000	597.380	79.995	19.995	103.039	20.015	2.572	0.506
1029.500	597.641	79.991	19.997	103.040	20.013	2.699	0.499
1030.000	597.910	79.993	19.996	103.040	20.013	2.737	0.520
1030.500	598.145	79.995	19.995	103.036	20.014	2.659	0.517
1031.000	598.387	79.994	19.996	103.033	20.014	2.674	0.490
1031.500	598.664	79.996	19.995	103.035	20.015	2.610	0.498
1032.000	598.929	79.993	19.996	103.037	20.015	2.594	0.531
1032.500	599.153	79.994	19.995	103.036	20.015	2.609	0.516
1033.000	599.434	79.994	19.993	103.037	20.014	2.627	0.497
1033.500	599.655	79.995	19.995	103.036	20.017	2.478	0.503
1034.000	599.912	79.995	19.996	103.034	20.018	2.370	0.490
1034.501	600.169	79.992	19.996	103.035	20.015	2.562	0.496
1035.001	600.475	79.994	19.995	103.035	20.016	2.541	0.539
1035.501	600.677	79.993	19.995	103.032	20.015	2.582	0.536
1036.002	600.951	79.994	19.994	103.036	20.016	2.519	0.492
1036.501	601.187	79.993	19.996	103.035	20.017	2.449	0.493
1037.000	601.435	79.993	19.994	103.036	20.019	2.328	0.497
1037.501	601.704	79.993	19.998	103.038	20.022	2.091	0.500
1038.001	601.952	79.994	19.996	103.042	20.017	2.467	0.517
1038.500	602.190	79.994	19.996	103.043	20.017	2.478	0.502
1039.000	602.506	79.991	19.996	103.042	20.016	2.486	0.521
1039.500	602.699	79.993	19.996	103.036	20.019	2.310	0.532
1040.000	602.957	79.993	19.995	103.030	20.019	2.331	0.480
1040.500	603.235	79.993	19.996	103.029	20.021	2.159	0.493
1041.001	603.488	79.992	19.997	103.030	20.017	2.422	0.533
1041.501	603.727	79.993	19.995	103.034	20.016	2.504	0.511
1042.000	603.956	79.992	19.996	103.033	20.020	2.214	0.480
1042.500	604.199	79.994	19.996	103.034	20.017	2.443	0.471
1043.000	604.487	79.994	19.996	103.033	20.019	2.304	0.502
1043.500	604.736	79.991	19.997	103.030	20.017	2.461	0.534
1044.000	604.947	79.993	19.996	103.023	20.018	2.365	0.498
1044.500	605.236	79.992	19.996	103.023	20.017	2.447	0.480
1045.000	605.462	79.993	19.995	103.024	20.018	2.388	0.508
1045.500	605.735	79.992	19.996	103.022	20.021	2.199	0.507
1046.001	605.992	79.993	19.996	103.020	20.017	2.443	0.515
1046.501	606.242	79.994	19.996	103.021	20.021	2.195	0.518
1047.000	606.496	79.992	19.997	103.026	20.018	2.365	0.505
1047.500	606.725	79.993	19.996	103.030	20.014	2.647	0.494
1048.000	606.999	79.993	19.997	103.035	20.015	2.565	0.493
1048.500	607.221	79.993	19.996	103.040	20.017	2.429	0.499
1049.000	607.469	79.992	19.996	103.042	20.014	2.629	0.483
1049.500	607.719	79.992	19.997	103.036	20.013	2.743	0.484
1050.000	607.985	79.993	19.996	103.030	20.018	2.387	0.508
1050.500	608.234	79.993	19.996	103.028	20.016	2.494	0.515
1051.000	608.524	79.992	19.998	103.026	20.016	2.514	0.526
1051.500	608.768	79.995	19.998	103.029	20.019	2.330	0.536
1052.000	609.006	79.993	19.997	103.036	20.020	2.255	0.508
1052.500	609.270	79.993	19.995	103.042	20.017	2.471	0.492
1053.000	609.537	79.995	19.995	103.044	20.017	2.410	0.516
1053.500	609.761	79.992	19.997	103.048	20.018	2.406	0.511
1054.000	610.011	79.994	19.997	103.045	20.020	2.247	0.482
1054.501	610.290	79.994	19.998	103.040	20.020	2.249	0.501
1055.001	610.541	79.995	19.996	103.038	20.021	2.196	0.529
1055.500	610.762	79.995	19.997	103.036	20.020	2.249	0.501
1056.000	610.984	79.994	19.997	103.036	20.019	2.306	0.458
1056.500	611.253	79.994	19.993	103.040	20.022	2.083	0.467
1057.000	611.510	79.994	19.997	103.044	20.020	2.267	0.508
1057.500	611.800	79.994	19.996	103.040	20.020	2.214	0.537
1058.000	612.019	79.994	19.999	103.036	20.018	2.406	0.528
1058.500	612.267	79.995	19.997	103.034	20.020	2.253	0.488
1059.001	612.538	79.994	19.996	103.034	20.022	2.067	0.493
1059.501	612.794	79.995	19.996	103.034	20.018	2.355	0.523
1060.001	613.043	79.994	19.996	103.041	20.018	2.339	0.516
1060.501	613.306	79.994	19.995	103.048	20.020	2.249	0.509
1061.000	613.537	79.994	19.994	103.049	20.016	2.501	0.503
1061.500	613.790	79.993	19.996	103.048	20.018	2.345	0.489
1062.000	614.030	79.993	19.996	103.046	20.018	2.358	0.488
1062.500	614.304	79.994	19.996	103.046	20.020	2.241	0.503
1063.000	614.539	79.994	19.996	103.045	20.016	2.482	0.511
1063.500	614.798	79.996	19.995	103.045	20.014	2.660	0.502
1064.000	615.050	79.995	19.995	103.039	20.014	2.641	0.503
1064.500	615.278	79.994	19.995	103.038	20.015	2.615	0.496
1065.000	615.539	79.995	19.996	103.036	20.017	2.471	0.484
1065.500	615.782	79.995	19.995	103.035	20.022	2.099	0.497
1066.000	616.075	79.993	19.996	103.031	20.019	2.334	0.520
1066.500	616.308	79.994	19.997	103.029	20.015	2.560	0.531
1067.000	616.579	79.994	19.996	103.026	20.018	2.365	0.515
1067.500	616.815	79.995	19.996	103.020	20.017	2.474	0.506
1068.000	617.074	79.994	19.996	103.013	20.017	2.445	0.501
1068.500	617.310	79.995	19.996	103.013	20.021	2.177	0.495
1069.000	617.547	79.996	19.996	103.018	20.019	2.332	0.484
1069.500	617.794	79.994	19.998	103.022	20.018	2.386	0.478
1070.000	618.023	79.995	19.997	103.023	20.015	2.609	0.480
1070.500	618.320	79.995	19.996	103.023	20.013	2.736	0.502
1071.000	618.541	79.993	19.997	103.021	20.017	2.476	0.522
1071.500	618.810	79.994	19.997	103.013	20.015	2.607	0.504
1072.000	619.033	79.996	19.996	103.010	20.017	2.470	0.491
1072.500	619.285	79.995	19.997	103.009	20.017	2.441	0.484
1073.000	619.547	79.993	19.996	103.010	20.019	2.321	0.495
1073.501	619.837	79.994	19.996	103.010	20.015	2.554	0.533
1074.001	620.059	79.995	19.996	103.012	20.014	2.685	0.532
1074.500	620.307	79.995	19.997	103.019	20.014	2.650	0.491
1075.000	620.540	79.994	19.990	103.025	20.015	2.582	0.475
1075.500	620.789	79.995	19.998	103.030	20.019	2.329	0.482
1076.001	621.065	79.992	19.995	103.035	20.014	2.658	0.504
1076.501	621.263	79.993	19.997	103.040	20.015	2.605	0.499
1077.000	621.517	79.993	19.997	103.033	20.018	2.392	0.463
1077.500	621.766	79.996	19.995	103.029	20.015	2.578	0.477
1078.000	621.988	79.993	19.996	103.027	20.016	2.515	0.487
1078.500	622.230	79.994	19.995	103.027	20.015	2.564	0.467
1079.000	622.517	79.995	19.997	103.028	20.016	2.502	0.496
1079.500	622.745	79.996	19.995	103.032	20.017	2.449	0.522
1080.000	623.021	79.994	19.998	103.032	20.013	2.725	0.509
1080.500	623.248	79.995	19.997	103.028	20.014	2.633	0.504
1081.000	623.491	79.995	19.996	103.026	20.016	2.486	0.487
1081.500	623.748	79.995	19.996	103.019	20.016	2.549	0.485
1082.000	624.013	79.996	19.997	103.015	20.015	2.588	0.511
1082.500	624.236	79.997	19.997	103.016	20.014	2.622	0.505
1083.000	624.431	79.996	19.997	103.015	20.015	2.551	0.453
1083.500	624.721	79.995	19.996	103.012	20.016	2.522	0.452
1084.000	624.969	79.996	19.994	103.013	20.016	2.524	0.512
1084.500	625.182	79.995	19.997	103.012	20.015	2.616	0.499
1085.000	625.447	79.996	19.997	103.009	20.017	2.451	0.469
1085.500	625.663	79.995	19.998	103.009	20.016	2.487	0.479
1086.000	625.919	79.996	19.995	103.009	20.019	2.285	0.476
1086.500	626.181	79.997	19.996	103.007	20.015	2.567	0.495
1087.000	626.393	79.996	19.996	103.008	20.018	2.395	0.496
1087.500	626.640	79.994	19.996	103.009	20.017	2.443	0.466
1088.000	626.883	79.995	19.993	103.009	20.016	2.547	0.475
1088.500	627.160	79.995	19.995	103.015	20.014	2.686	0.506
1089.000	627.420	79.994	19.995	103.020	20.015	2.596	0.529
1089.500	627.682	79.995	19.996	103.025	20.016	2.502	0.529
1090.000	627.951	79.995	19.994	103.031	20.014	2.655	0.526
1090.501	628.216	79.996	19.994	103.037	20.014	2.624	0.532
1091.001	628.448	79.994	20.000	103.041	20.015	2.553	0.516
1091.500	628.730	79.993	19.999	103.043	20.015	2.618	0.506
1092.000	628.934	79.991	19.994	103.045	20.015	2.602	0.500
1092.500	629.224	79.992	19.997	103.047	20.012	2.771	0.490
1093.000	629.509	79.995	19.995	103.047	20.013	2.751	0.535
1093.500	629.744	79.993	19.996	103.047	20.012	2.763	0.547
1094.000	629.980	79.993	19.999	103.048	20.012	2.765	0.495
1094.500	630.247	79.993	19.999	103.047	20.015	2.589	0.487
1095.000	630.513	79.994	19.996	103.046	20.012	2.773	0.518
1095.501	630.793	79.993	19.997	103.046	20.014	2.630	0.540
1096.001	631.035	79.994	19.995	103.046	20.014	2.620	0.534
1096.501	631.316	79.994	19.995	103.046	20.016	2.502	0.523
1097.001	631.569	79.994	19.993	103.047	20.016	2.539	0.529
1097.501	631.824	79.993	19.998	103.047	20.014	2.641	0.521
1098.001	632.098	79.994	19.996	103.047	20.016	2.524	0.518
1098.501	632.318	79.995	19.995	103.048	20.017	2.465	0.511
1099.001	632.659	79.995	19.995	103.048	20.016	2.545	0.527
1099.500	632.921	79.995	19.993	103.049	20.014	2.669	0.582
1100.001	633.209	79.995	19.997	103.049	20.015	2.590	0.577
1100.501	633.462	79.995	19.995	103.050	20.017	2.438	0.546
1101.000	633.726	79.993	19.996	103.050	20.018	2.365	0.529
1101.500	634.054	79.994	19.996	103.048	20.016	2.547	0.555
1102.001	634.291	79.995	19.995	103.048	20.013	2.749	0.578
1102.501	634.577	79.992	19.995	103.049	20.015	2.592	0.543
1103.000	634.875	79.992	19.994	103.049	20.015	2.614	0.554
1103.500	635.144	79.994	19.996	103.050	20.014	2.677	0.576
1104.000	635.389	79.994	19.994	103.052	20.014	2.635	0.540
1104.500	635.674	79.991	19.997	103.052	20.015	2.563	0.522
1105.000	635.955	79.995	19.994	103.052	20.016	2.504	0.548
1105.500	636.245	79.994	19.994	103.053	20.013	2.710	0.568
1106.000	636.534	79.994	19.995	103.053	20.012	2.786	0.575
1106.500	636.801	79.992	19.997	103.052	20.015	2.606	0.568
1107.000	637.057	79.995	19.996	103.052	20.014	2.659	0.540
1107.500	637.309	79.993	19.997	103.051	20.010	2.908	0.516
1108.001	637.614	79.994	19.997	103.049	20.014	2.673	0.532
1108.501	637.891	79.994	19.996	103.049	20.006	3.197	0.570
1109.001	638.217	79.989	19.998	103.049	20.011	2.847	0.592
1109.501	638.457	79.994	19.994	103.049	20.009	3.025	0.584
1110.000	638.737	79.993	19.994	103.049	20.015	2.575	0.543
1110.500	639.092	79.993	19.996	103.050	20.015	2.563	0.578
1111.000	639.322	79.994	19.994	103.050	20.016	2.549	0.610
1111.500	639.609	79.994	19.994	103.051	20.014	2.684	0.551
1112.000	639.875	79.993	19.996	103.052	20.012	2.776	0.535
1112.500	640.193	79.994	19.995	103.054	20.013	2.730	0.569
1113.001	640.413	79.993	19.997	103.056	20.013	2.710	0.561
1113.501	640.711	79.994	19.996	103.056	20.016	2.514	0.528
1114.000	641.025	79.994	19.995	103.055	20.014	2.688	0.565
1114.500	641.312	79.991	19.997	103.054	20.013	2.755	0.607
1115.000	641.632	79.993	19.997	103.052	20.014	2.677	0.604
1115.500	641.833	79.994	19.996	103.048	20.014	2.669	0.563
1116.000	642.123	79.994	19.993	103.048	20.011	2.896	0.506
1116.500	642.398	79.990	19.997	103.047	20.014	2.659	0.529
1117.000	642.686	79.995	19.993	103.047	20.009	3.023	0.564
1117.500	642.947	79.992	19.995	103.048	20.011	2.888	0.556
1118.000	643.227	79.996	19.995	103.051	20.013	2.729	0.545
1118.500	643.494	79.993	19.996	103.052	20.011	2.853	0.544
1119.000	643.794	79.996	19.999	103.052	20.010	2.951	0.557
1119.500	644.058	79.991	19.999	103.052	20.012	2.784	0.566
1120.000	644.327	79.991	19.996	103.051	20.012	2.804	0.548
1120.500	644.593	79.993	19.997	103.049	20.014	2.630	0.534
1121.000	644.877	79.994	19.996	103.049	20.011	2.898	0.543
1121.500	645.164	79.993	19.995	103.050	20.010	2.933	0.561
1122.000	645.453	79.988	19.996	103.051	20.010	2.927	0.573
1122.500	645.703	79.993	19.992	103.051	20.008	3.047	0.557
1123.000	645.994	79.998	19.987	103.052	20.011	2.863	0.540
1123.500	646.273	79.990	20.000	103.054	20.010	2.951	0.556
1124.000	646.558	79.994	19.987	103.053	20.007	3.137	0.567
1124.500	646.833	79.995	19.996	103.056	20.013	2.759	0.562
1125.000	647.104	79.991	19.996	103.058	20.013	2.698	0.553
1125.500	647.407	79.994	19.991	103.057	20.012	2.827	0.560
1126.000	647.677	79.995	19.992	103.056	20.011	2.857	0.573
1126.500	647.931	79.995	19.994	103.057	20.012	2.821	0.548
1127.000	648.198	79.992	19.995	103.054	20.009	2.986	0.522
1127.500	648.496	79.994	19.996	103.053	20.011	2.884	0.543
1128.000	648.762	79.993	19.995	103.054	20.009	2.988	0.565
1128.500	649.057	79.993	19.994	103.054	20.009	3.037	0.563
1129.000	649.342	79.992	19.995	103.053	20.008	3.039	0.570
1129.501	649.575	79.995	19.996	103.054	20.014	2.665	0.549
1130.001	649.863	79.993	19.995	103.053	20.013	2.712	0.520
1130.500	650.167	79.995	19.995	103.051	20.010	2.949	0.556
1131.000	650.430	79.993	19.994	103.050	20.006	3.206	0.579
1131.501	650.697	79.994	19.995	103.050	20.006	3.180	0.548
1132.001	650.979	79.995	19.995	103.049	20.012	2.816	0.540
1132.501	651.250	79.997	19.993	103.049	20.005	3.272	0.551
1133.001	651.543	79.991	19.990	103.050	20.008	3.080	0.559
1133.500	651.779	79.996	19.995	103.050	20.007	3.168	0.547
1134.000	652.041	79.997	19.992	103.049	20.004	3.323	0.513
1134.501	652.337	79.994	19.995	103.050	20.006	3.231	0.528
1135.001	652.626	79.997	19.987	103.050	20.007	3.162	0.572
1135.500	652.900	79.996	19.993	103.051	20.008	3.055	0.574
1136.000	653.107	79.995	19.996	103.051	20.007	3.131	0.522
1136.500	653.442	79.993	19.996	103.051	20.007	3.174	0.512
1137.001	653.712	79.997	19.994	103.051	20.007	3.119	0.573
1137.501	653.984	79.996	19.998	103.051	20.009	3.000	0.573
1138.000	654.290	79.998	19.987	103.049	20.007	3.127	0.560
1138.500	654.517	79.997	19.996	103.049	20.005	3.307	0.556
1139.000	654.830	79.990	19.998	103.049	20.009	2.972	0.536
1139.500	655.095	79.994	19.996	103.049	20.012	2.788	0.558
1140.000	655.374	79.996	19.999	103.047	20.007	3.117	0.561
1140.500	655.632	79.996	19.995	103.049	20.009	2.996	0.541
1141.000	655.923	79.995	19.994	103.052	20.010	2.947	0.543
1141.500	656.195	79.990	19.999	103.057	20.008	3.084	0.556
1142.000	656.447	79.992	19.994	103.062	20.008	3.045	0.544
1142.500	656.704	79.996	19.993	103.067	20.005	3.256	0.516
1143.000	657.014	79.994	19.998	103.068	20.009	3.007	0.538
1143.500	657.283	79.996	19.997	103.062	20.009	2.974	0.573
1144.000	657.533	79.996	19.996	103.059	20.009	2.996	0.549
1144.500	657.795	79.993	19.998	103.056	20.007	3.148	0.516
1145.000	658.088	79.994	19.996	103.055	20.009	3.037	0.533
1145.500	658.342	79.992	19.996	103.055	20.008	3.086	0.551
1146.000	658.631	79.996	19.994	103.056	20.008	3.072	0.545
1146.501	658.890	79.995	19.995	103.055	20.006	3.221	0.546
1147.001	659.184	79.995	19.994	103.054	20.008	3.094	0.551
1147.500	659.433	79.994	19.996	103.052	20.004	3.345	0.548
1148.000	659.694	79.995	19.995	103.049	20.010	2.928	0.526
1148.500	659.940	79.993	19.996	103.049	20.008	3.065	0.509
1149.000	660.245	79.993	19.996	103.046	20.011	2.859	0.529
1149.500	660.504	79.994	19.996	103.046	20.008	3.063	0.558
1150.000	660.773	79.994	19.997	103.045	20.006	3.227	0.546
1150.500	661.064	79.994	19.995	103.045	20.006	3.206	0.544
1151.000	661.307	79.996	19.994	103.045	20.009	3.022	0.547
1151.500	661.590	79.995	19.995	103.048	20.010	2.922	0.530
1152.000	661.853	79.994	19.995	103.048	20.009	3.029	0.535
1152.500	662.113	79.995	19.997	103.048	20.007	3.172	0.534
1153.000	662.385	79.995	19.995	103.050	20.009	2.979	0.528
1153.500	662.657	79.996	19.996	103.050	20.006	3.235	0.539
1154.000	662.952	79.993	19.996	103.049	20.005	3.269	0.555
1154.501	663.200	79.996	19.997	103.049	20.006	3.226	0.555
1155.001	663.468	79.996	19.997	103.050	20.008	3.106	0.530
1155.500	663.732	79.992	19.997	103.049	20.007	3.159	0.524
1156.000	663.977	79.997	19.996	103.049	20.008	3.085	0.520
1156.500	664.222	79.997	19.995	103.049	20.009	3.012	0.499
1157.000	664.508	79.996	19.994	103.049	20.008	3.102	0.511
1157.500	664.778	79.995	19.998	103.052	20.006	3.239	0.543
1158.000	665.041	79.996	19.996	103.058	20.007	3.143	0.544
1158.500	665.290	79.996	19.997	103.065	20.007	3.164	0.523
1159.000	665.544	79.995	19.997	103.069	20.006	3.192	0.508
1159.500	665.848	79.994	19.998	103.074	20.007	3.135	0.531
1160.000	666.099	79.995	19.995	103.072	20.007	3.154	0.556
1160.500	666.390	79.995	19.996	103.073	20.005	3.292	0.549
1161.000	666.628	79.995	19.997	103.070	20.004	3.384	0.535
1161.500	666.925	79.995	19.994	103.067	20.008	3.092	0.532
1162.000	667.150	79.995	19.997	103.063	20.003	3.394	0.528
1162.500	667.442	80.000	19.992	103.063	20.006	3.249	0.520
1163.001	667.716	79.995	19.996	103.060	20.009	2.985	0.542
1163.501	667.972	79.995	19.993	103.063	20.008	3.108	0.548
1164.000	668.211	79.995	19.996	103.068	20.006	3.194	0.512
1164.500	668.499	79.994	19.996	103.074	20.009	2.989	0.511
1165.000	668.748	79.993	19.997	103.079	20.002	3.467	0.533
1165.500	669.004	79.995	19.998	103.081	20.007	3.169	0.521
1166.000	669.259	79.992	19.994	103.084	20.005	3.304	0.508
1166.500	669.539	79.995	19.995	103.085	20.009	3.032	0.523
1167.000	669.798	79.994	19.995	103.087	20.002	3.473	0.537
1167.500	670.019	79.994	19.996	103.087	20.001	3.592	0.509
1168.000	670.327	79.993	19.995	103.084	20.008	3.069	0.504
1168.500	670.583	79.993	19.996	103.078	20.005	3.294	0.547
1169.000	670.882	79.995	19.996	103.070	20.005	3.259	0.559
1169.500	671.118	79.992	19.997	103.062	20.006	3.216	0.545
1170.000	671.402	79.993	19.993	103.056	20.003	3.451	0.528
1170.500	671.663	79.988	19.999	103.057	20.006	3.224	0.533
1171.001	671.899	79.994	19.996	103.057	20.003	3.453	0.521
1171.501	672.144	79.990	19.999	103.064	20.003	3.412	0.488
1172.000	672.403	79.993	19.997	103.070	20.006	3.238	0.492
1172.500	672.671	79.994	19.998	103.077	20.004	3.375	0.516
1173.000	672.956	79.992	19.996	103.078	20.007	3.116	0.540
1173.500	673.203	79.994	19.994	103.080	20.007	3.144	0.542
1174.000	673.439	79.993	19.998	103.081	20.006	3.189	0.507
1174.500	673.733	79.993	19.996	103.083	20.004	3.367	0.507
1175.000	673.972	79.993	20.000	103.083	20.005	3.267	0.532
1175.501	674.253	79.994	19.997	103.085	20.007	3.114	0.527
1176.001	674.512	79.992	19.995	103.088	20.007	3.140	0.530
1176.500	674.788	79.994	19.993	103.088	20.008	3.065	0.537
1177.000	675.022	79.995	19.996	103.090	20.007	3.124	0.523
1177.500	675.309	79.994	19.997	103.090	20.009	3.022	0.516
1178.000	675.560	79.993	19.996	103.087	20.010	2.930	0.529
1178.500	675.838	79.994	19.995	103.085	20.007	3.148	0.533
1179.000	676.095	79.994	19.996	103.085	20.008	3.077	0.532
1179.500	676.388	79.995	19.992	103.083	20.008	3.079	0.543
1180.000	676.631	79.995	19.994	103.084	20.008	3.050	0.543
1180.501	676.895	79.998	19.992	103.088	20.006	3.240	0.521
1181.001	677.128	79.995	19.994	103.090	20.002	3.520	0.502
1181.501	677.411	79.994	19.994	103.089	20.007	3.148	0.506
1182.001	677.611	79.988	20.005	103.089	20.006	3.248	0.499
1182.500	677.892	79.989	19.999	103.086	20.006	3.214	0.482
1183.001	678.170	79.998	19.995	103.084	20.003	3.393	0.520
1183.501	678.444	79.999	19.992	103.084	20.006	3.250	0.555
1184.000	678.718	79.994	19.993	103.086	20.008	3.085	0.550
1184.500	678.985	79.995	19.994	103.088	20.007	3.130	0.545
1185.000	679.224	79.992	19.995	103.091	20.012	2.799	0.523
1185.500	679.494	79.996	19.993	103.094	20.007	3.136	0.507
1186.000	679.741	79.992	19.995	103.094	20.008	3.065	0.513
1186.500	680.022	79.995	19.991	103.092	20.007	3.114	0.523
1187.000	680.243	79.996	19.996	103.093	20.006	3.193	0.515
1187.500	680.520	79.995	19.999	103.091	20.006	3.185	0.500
1188.000	680.761	79.995	19.994	103.090	20.011	2.879	0.508
1188.500	681.053	79.992	19.996	103.090	20.009	3.028	0.526
1189.000	681.297	79.991	20.000	103.090	20.013	2.725	0.535
1189.500	681.548	79.991	19.994	103.088	20.008	3.099	0.515
1190.000	681.834	79.997	19.990	103.090	20.009	2.989	0.516
1190.500	682.068	79.993	19.997	103.092	20.004	3.371	0.528
1191.000	682.304	79.994	19.996	103.091	20.005	3.307	0.495
1191.500	682.591	79.993	19.996	103.092	20.007	3.122	0.497
1192.001	682.833	79.992	20.000	103.093	20.008	3.079	0.526
1192.501	683.077	79.995	19.996	103.092	20.010	2.942	0.507
1193.000	683.351	79.998	19.995	103.092	20.007	3.165	0.502
1193.500	683.586	79.993	19.995	103.092	20.006	3.191	0.514
1194.000	683.832	79.992	19.997	103.093	20.010	2.905	0.495
1194.500	684.085	79.991	19.998	103.092	20.008	3.093	0.490
1195.000	684.350	79.993	19.995	103.093	20.006	3.230	0.508
1195.501	684.603	79.996	19.996	103.092	20.008	3.040	0.518
1196.001	684.876	79.994	19.993	103.091	20.003	3.452	0.522
1196.500	685.160	79.994	19.996	103.091	20.008	3.044	0.542
1197.000	685.393	79.993	19.995	103.092	20.003	3.413	0.537
1197.500	685.645	79.993	19.996	103.092	20.007	3.127	0.501
1198.000	685.916	79.994	19.995	103.091	20.005	3.264	0.504
1198.500	686.185	79.993	19.997	103.090	20.004	3.358	0.531
1199.000	686.430	79.992	19.998	103.090	20.001	3.566	0.527
1199.501	686.667	79.992	19.998	103.089	20.004	3.327	0.498
1200.001	686.911	79.994	19.994	103.093	20.007	3.178	0.482
1200.501	687.230	79.997	19.994	103.096	20.004	3.366	0.522
1201.001	687.404	79.991	19.998	103.098	20.006	3.211	0.528
1201.500	687.696	79.993	19.995	103.098	20.005	3.272	0.479
1202.000	687.972	79.995	19.997	103.097	20.002	3.496	0.516
1202.500	688.234	79.990	19.998	103.092	20.008	3.104	0.553
1203.000	688.495	79.994	19.997	103.089	20.007	3.141	0.531
1203.500	688.706	79.994	19.993	103.090	20.002	3.466	0.498
1204.000	688.958	79.993	19.996	103.093	20.002	3.496	0.468
1204.500	689.206	79.994	19.996	103.100	20.006	3.225	0.481
1205.000	689.467	79.994	19.996	103.106	20.005	3.282	0.504
1205.500	689.722	79.993	19.995	103.108	20.003	3.415	0.512
1206.001	689.996	79.993	19.995	103.107	20.002	3.497	0.522
1206.501	690.272	79.991	19.997	103.107	20.003	3.445	0.540
1207.000	690.470	79.993	19.996	103.107	19.998	3.780	0.513
1207.500	690.745	79.992	19.997	103.109	20.020	2.220	0.474
1208.000	690.978	79.997	19.995	103.113	20.001	3.586	0.490
1208.500	691.247	79.991	19.997	103.119	19.993	4.095	0.505
1209.000	691.496	79.995	19.994	103.123	19.996	3.893	0.510
1209.501	691.740	79.998	19.991	103.123	20.000	3.633	0.506
1210.001	692.008	79.996	19.995	103.123	20.000	3.635	0.502
1210.500	692.246	79.995	19.996	103.125	20.002	3.484	0.509
1211.000	692.528	79.995	19.995	103.125	19.998	3.751	0.513
1211.500	692.752	79.995	19.996	103.124	20.000	3.656	0.513
1212.001	693.053	79.995	19.995	103.124	20.002	3.525	0.515
1212.501	693.286	79.995	19.993	103.124	20.001	3.582	0.529
1213.000	693.548	79.995	19.994	103.124	20.003	3.413	0.515
1213.500	693.772	79.995	19.995	103.123	20.001	3.598	0.491
1214.000	694.039	79.996	19.995	103.124	20.001	3.554	0.489
1214.500	694.291	79.991	19.995	103.124	20.000	3.658	0.505
1215.001	694.556	79.995	19.995	103.124	20.003	3.427	0.518
1215.501	694.822	79.994	19.997	103.123	19.998	3.792	0.524
1216.000	695.067	79.995	19.996	103.124	20.000	3.639	0.522
1216.500	695.293	79.996	19.994	103.124	20.001	3.592	0.491
1217.000	695.553	79.996	19.998	103.124	20.002	3.486	0.478
1217.500	695.813	79.999	19.996	103.123	19.999	3.705	0.503
1218.000	696.048	79.995	19.995	103.123	20.004	3.329	0.508
1218.500	696.303	79.996	19.997	103.124	20.002	3.500	0.492
1219.000	696.552	79.996	19.997	103.123	20.003	3.433	0.497
1219.500	696.862	79.996	19.997	103.124	20.005	3.280	0.531
1220.001	697.022	79.996	19.995	103.130	20.002	3.496	0.514
1220.501	697.298	79.995	19.995	103.134	20.005	3.292	0.453
1221.000	697.766	79.997	19.995	103.137	20.003	3.435	0.590
1221.500	698.447	79.995	19.994	103.137	20.001	3.541	0.946
1222.000	698.222	79.994	19.997	103.137	20.004	3.368	0.803
1222.500	697.925	79.995	19.994	103.132	20.002	3.474	-0.033
1223.000	698.324	79.994	19.995	103.129	20.003	3.435	-0.210
1223.500	698.788	79.993	19.997	103.129	20.001	3.543	0.483
1224.000	699.104	79.994	19.998	103.129	20.003	3.397	0.822
1224.500	699.349	79.993	19.993	103.129	20.003	3.416	0.670
1225.000	699.589	79.996	19.993	103.130	20.001	3.534	0.522
1225.500	699.858	79.994	19.996	103.130	20.002	3.510	0.497
1226.000	700.089	79.995	19.997	103.128	19.999	3.686	0.505
1226.500	700.333	79.995	19.997	103.128	20.000	3.643	0.487
1227.001	700.594	79.997	19.994	103.129	20.000	3.634	0.490
1227.501	700.871	79.994	19.993	103.129	20.001	3.542	0.521
1228.000	701.089	79.996	19.996	103.130	19.997	3.836	0.517
1228.500	701.373	79.993	19.996	103.131	19.997	3.879	0.499
1229.000	701.611	79.994	19.997	103.133	19.996	3.926	0.512
1229.500	701.882	79.997	19.994	103.133	19.997	3.879	0.516
1230.000	702.143	79.993	19.993	103.132	19.998	3.800	0.520
1230.500	702.363	79.994	19.997	103.131	19.997	3.822	0.506
1231.001	702.660	79.991	19.999	103.129	19.997	3.853	0.499
1231.501	702.894	79.993	19.997	103.129	19.996	3.924	0.524
1232.000	703.173	79.996	19.995	103.129	20.000	3.660	0.522
1232.500	703.431	79.994	19.997	103.129	19.997	3.865	0.525
1233.000	703.685	79.995	19.995	103.131	19.995	3.973	0.525
1233.500	704.006	79.996	19.997	103.136	19.999	3.736	0.543
1234.000	704.186	79.993	19.997	103.142	20.001	3.563	0.538
1234.500	704.501	79.995	19.995	103.148	19.998	3.748	0.498
1235.000	704.748	79.995	19.996	103.154	19.997	3.873	0.529
1235.500	704.996	79.995	19.994	103.159	19.999	3.740	0.528
1236.000	705.265	79.997	19.997	103.159	19.991	4.255	0.506
1236.500	705.525	79.996	19.996	103.155	19.995	3.960	0.523
1237.000	705.801	79.997	19.995	103.150	19.994	4.087	0.532
1237.501	706.038	79.999	19.993	103.148	19.995	3.954	0.525
1238.001	706.295	79.994	19.996	103.150	19.994	4.036	0.504
1238.500	706.556	79.998	19.997	103.153	19.994	4.026	0.506
1239.000	706.834	79.999	19.992	103.155	19.996	3.942	0.528
1239.501	707.035	79.998	19.995	103.156	19.998	3.785	0.509
1240.001	707.310	79.996	19.994	103.153	19.995	3.999	0.477
1240.500	707.584	79.999	19.992	103.152	19.996	3.887	0.512
1241.000	707.821	79.998	19.999	103.153	19.995	3.993	0.530
1241.500	708.098	80.001	19.991	103.154	19.994	4.079	0.513
1242.000	708.378	79.999	19.990	103.160	19.994	4.034	0.535
1242.500	708.579	79.994	19.999	103.166	19.992	4.203	0.519
1243.000	708.856	79.995	19.994	103.165	19.993	4.158	0.479
1243.500	709.111	79.997	19.995	103.165	19.997	3.854	0.505
1244.000	709.403	79.995	19.994	103.166	19.992	4.195	0.539
1244.500	709.665	79.995	19.997	103.164	19.990	4.316	0.551
1245.000	709.960	79.996	19.995	103.160	19.996	3.891	0.556
1245.500	710.194	79.995	19.993	103.161	20.002	3.513	0.543
1246.000	710.468	79.996	19.995	103.162	19.994	4.038	0.518
1246.500	710.701	79.993	19.994	103.162	19.991	4.277	0.508
1247.000	710.975	79.993	19.995	103.165	19.993	4.140	0.507
1247.500	711.249	79.993	19.996	103.166	19.996	3.914	0.527
1248.000	711.509	79.993	19.996	103.165	19.993	4.103	0.541
1248.500	711.760	79.993	19.996	103.166	19.997	3.877	0.523
1249.000	712.035	79.992	19.997	103.165	19.993	4.138	0.519
1249.500	712.288	79.993	19.997	103.165	19.995	3.956	0.527
1250.000	712.536	79.992	19.997	103.166	19.992	4.227	0.514
1250.500	712.781	79.993	19.997	103.167	20.000	3.660	0.497
1251.000	713.070	79.993	19.995	103.167	19.998	3.755	0.514
1251.500	713.311	79.987	20.004	103.171	19.991	4.282	0.532
1252.000	713.564	79.992	19.997	103.171	19.989	4.418	0.512
1252.500	713.802	79.992	19.995	103.172	19.990	4.314	0.493
1253.000	714.115	79.993	19.999	103.173	19.992	4.196	0.521
1253.500	714.343	79.991	19.999	103.173	19.991	4.237	0.546
1254.000	714.648	79.995	19.996	103.168	19.990	4.359	0.537
1254.500	714.905	79.993	19.998	103.167	19.995	3.955	0.547
1255.000	715.142	79.996	19.992	103.166	19.994	4.090	0.528
1255.500	715.429	79.991	19.998	103.166	19.994	4.035	0.509
1256.000	715.718	79.994	19.997	103.165	19.993	4.135	0.550
1256.500	715.984	79.994	19.996	103.166	19.994	4.063	0.565
1257.000	716.211	79.993	19.996	103.166	19.991	4.257	0.524
1257.500	716.474	79.993	19.997	103.167	19.993	4.120	0.491
1258.000	716.733	79.990	19.995	103.166	19.989	4.375	0.506
1258.500	717.037	79.990	19.998	103.166	19.989	4.392	0.543
1259.001	717.266	79.988	20.003	103.165	19.990	4.343	0.548
1259.501	717.567	79.991	19.999	103.166	19.988	4.461	0.532
1260.000	717.808	79.992	19.996	103.170	19.986	4.626	0.536
1260.500	718.019	79.991	19.998	103.176	19.988	4.453	0.497
1261.001	718.314	79.991	20.000	103.181	19.983	4.818	0.479
1261.501	718.592	79.996	19.996	103.188	19.986	4.584	0.539
1262.001	718.859	79.992	20.001	103.195	19.989	4.428	0.559
1262.501	719.131	79.994	19.997	103.197	19.990	4.361	0.542
1263.000	719.344	79.993	19.997	103.198	19.991	4.267	0.512
1263.500	719.630	79.994	19.996	103.199	19.986	4.630	0.492
1264.000	719.874	79.990	20.000	103.200	19.987	4.573	0.514
1264.500	720.117	79.992	20.000	103.199	19.990	4.320	0.508
1265.000	720.390	79.990	20.006	103.200	19.989	4.416	0.502
1265.500	720.664	79.992	19.998	103.199	19.996	3.894	0.532
1266.000	720.917	79.996	19.994	103.200	19.988	4.461	0.537
1266.500	721.138	79.995	19.996	103.200	19.990	4.355	0.500
1267.000	721.428	79.995	19.993	103.201	19.987	4.565	0.493
1267.500	721.742	79.995	19.995	103.202	19.988	4.500	0.557
1268.000	722.005	79.994	19.993	103.205	19.986	4.612	0.590
1268.500	722.226	79.997	19.993	103.206	19.990	4.326	0.531
1269.000	722.524	79.992	19.999	103.207	19.990	4.342	0.501
1269.500	722.738	79.995	19.996	103.205	19.987	4.563	0.516
1270.000	722.943	79.992	19.994	103.203	19.991	4.267	0.466
1270.500	723.210	79.993	19.995	103.201	19.986	4.608	0.446
1271.000	723.483	79.993	19.995	103.199	19.987	4.551	0.506
1271.500	723.758	79.995	19.995	103.198	19.992	4.230	0.544
1272.000	724.012	79.992	19.997	103.200	19.991	4.285	0.538
1272.501	724.267	79.990	20.003	103.201	19.987	4.549	0.519
1273.001	724.482	79.995	19.995	103.201	19.986	4.587	0.489
1273.500	724.781	79.993	19.998	103.202	19.985	4.667	0.492
1274.000	725.029	79.993	19.994	103.202	19.986	4.630	0.530
1274.500	725.303	79.995	19.996	103.202	19.984	4.754	0.535
1275.001	725.535	79.992	19.993	103.203	19.987	4.542	0.514
1275.501	725.838	79.994	19.996	103.204	19.985	4.708	0.520
1276.001	726.067	79.995	19.995	103.204	19.985	4.720	0.533
1276.501	726.296	79.993	19.996	103.205	19.982	4.918	0.495
1277.001	726.594	79.991	19.996	103.205	19.984	4.738	0.493
1277.501	726.840	79.992	19.994	103.207	19.983	4.838	0.536
1278.002	727.091	79.993	19.994	103.209	19.986	4.589	0.520
1278.501	727.348	79.995	19.995	103.209	19.983	4.815	0.503
1279.000	727.623	79.989	19.999	103.210	19.985	4.670	0.520
1279.500	727.862	79.995	19.999	103.209	19.983	4.803	0.523
1280.000	728.135	79.996	19.997	103.207	19.982	4.887	0.513
1280.500	728.392	79.993	19.998	103.205	19.983	4.852	0.521
1281.000	728.642	79.991	20.001	103.206	19.983	4.854	0.518
1281.500	728.874	79.990	19.996	103.204	19.983	4.798	0.494
1282.000	729.138	79.990	19.995	103.205	19.985	4.694	0.489
1282.501	729.375	79.990	20.000	103.205	19.983	4.822	0.499
1283.001	729.634	79.993	19.998	103.204	19.983	4.843	0.499
1283.500	729.889	79.992	19.995	103.206	19.983	4.798	0.505
1284.000	730.124	79.991	20.004	103.212	19.986	4.616	0.502
1284.500	730.432	79.993	19.994	103.213	19.983	4.851	0.516
1285.000	730.671	79.995	19.996	103.213	19.983	4.849	0.545
1285.500	730.950	79.993	19.997	103.214	19.981	5.004	0.533
1286.000	731.157	79.994	19.995	103.211	19.981	4.963	0.502
1286.501	731.416	79.993	19.997	103.206	19.982	4.886	0.476
1287.001	731.651	79.995	19.996	103.206	19.979	5.090	0.480
1287.500	731.909	79.993	19.996	103.206	19.985	4.710	0.493
1288.000	732.197	79.994	19.996	103.205	19.982	4.892	0.520
1288.500	732.434	79.994	19.995	103.208	19.983	4.833	0.536
1289.001	732.682	79.996	19.996	103.212	19.984	4.788	0.505
1289.501	732.938	79.995	19.995	103.218	19.983	4.808	0.495
1290.000	733.235	79.993	19.996	103.222	19.980	5.071	0.529
1290.500	733.453	79.994	19.995	103.224	19.984	4.751	0.534
1291.000	733.653	79.998	19.993	103.224	19.981	4.937	0.466
1291.500	733.923	79.996	19.998	103.227	19.984	4.773	0.444
1292.000	734.212	79.993	19.998	103.228	19.982	4.926	0.515
1292.500	734.408	79.996	19.995	103.230	19.983	4.833	0.522
1293.000	734.701	79.994	19.995	103.236	19.979	5.098	0.487
1293.500	734.964	79.999	19.994	103.240	19.981	4.984	0.522
1294.000	735.213	79.994	19.993	103.241	19.982	4.909	0.534
1294.500	735.453	79.997	19.995	103.241	19.984	4.727	0.501
1295.000	735.700	79.994	19.996	103.241	19.981	4.985	0.488
1295.500	735.966	79.994	19.995	103.238	19.978	5.157	0.500
1296.000	736.204	79.995	19.997	103.238	19.983	4.806	0.508
1296.501	736.453	79.994	19.996	103.237	19.980	5.063	0.495
1297.001	736.676	79.995	19.995	103.237	19.984	4.767	0.479
1297.500	736.943	79.995	19.996	103.239	19.983	4.844	0.481
1298.000	737.226	79.995	19.996	103.243	19.980	5.066	0.520
1298.500	737.420	79.996	19.996	103.244	19.977	5.223	0.514
1299.000	737.703	79.995	19.995	103.243	19.981	4.959	0.477
1299.500	737.958	79.995	19.995	103.243	19.981	4.941	0.508
1300.000	738.213	79.996	19.995	103.243	19.979	5.132	0.524
1300.500	738.469	79.996	19.995	103.242	19.981	4.989	0.510
1301.000	738.719	79.996	19.994	103.242	19.980	5.061	0.508
1301.500	738.960	79.996	19.996	103.244	19.977	5.218	0.498
1302.000	739.212	79.995	19.996	103.243	19.976	5.289	0.492
1302.501	739.444	79.995	19.995	103.241	19.977	5.228	0.489
1303.001	739.735	79.995	19.994	103.241	19.976	5.353	0.504
1303.500	739.992	79.993	19.995	103.242	19.974	5.455	0.535
1304.000	740.213	79.994	19.996	103.238	19.974	5.455	0.513
1304.500	740.453	79.995	19.996	103.233	19.976	5.330	0.469
1305.001	740.718	79.995	19.997	103.228	19.979	5.112	0.483
1305.502	740.955	79.995	19.994	103.221	19.976	5.300	0.504
1306.002	741.204	79.994	19.997	103.213	19.976	5.289	0.494
1306.501	741.476	79.995	19.994	103.209	19.977	5.230	0.503
1307.000	741.697	79.994	19.995	103.209	19.977	5.284	0.507
1307.500	741.999	79.996	19.994	103.208	19.978	5.149	0.509
1308.000	742.234	79.994	19.995	103.208	19.979	5.119	0.530
1308.500	742.459	79.993	19.996	103.214	19.976	5.306	0.498
1309.000	742.701	79.994	19.995	103.221	19.978	5.172	0.463
1309.500	742.967	79.994	19.995	103.228	19.977	5.237	0.488
1310.000	743.216	79.997	19.996	103.236	19.976	5.304	0.512
1310.500	743.457	79.996	19.993	103.242	19.979	5.127	0.502
1311.000	743.713	79.995	19.996	103.243	19.975	5.366	0.493
