Sample ID:	C:\MCC\MCC Cal\Test\FRP_Panel_MCC_30K_min_211101_R3.txt
Sample Weight (mg):	4.76
Heating Rate (C/s):	0.5
Combustor Temp (C):	900
N2 Flow Rate (cc/min):	80
O2 Flow Rate (cc/min):	20
Calibration File:	C:\MCC\MCC Cal\Coeff1 JN10440_30_210304.txt.txt
T Correction Coefficients:	0	1.024463	0
Time Shift (s):	14
*
Time (s)	Temperature (C)	N2 flow rate (cc/min)	O2 flow rate (cc/min)	Flow Rate (cc/min)	Oxygen (%)	HRR (W/g)	Heating rate (C/s)
0.000	107.551	80.001	19.991	102.964	20.324	0.363	0.003
0.499	107.559	80.001	19.994	102.965	20.328	0.083	0.010
1.000	107.528	79.994	20.002	102.966	20.327	0.211	-0.003
1.500	107.542	79.998	19.997	102.966	20.325	0.322	-0.020
2.000	107.510	79.996	19.997	102.965	20.323	0.422	-0.018
2.499	107.509	80.003	19.994	102.964	20.326	0.265	-0.025
2.999	107.521	80.001	19.995	102.966	20.326	0.248	-0.011
3.499	107.488	79.997	19.987	102.965	20.323	0.441	-0.005
3.999	107.498	80.000	19.995	102.965	20.326	0.265	-0.022
4.499	107.518	80.002	19.991	102.965	20.325	0.285	0.003
4.999	107.508	79.998	19.994	102.965	20.326	0.239	0.020
5.499	107.516	80.004	19.991	102.963	20.325	0.328	0.004
5.999	107.541	80.005	19.990	102.966	20.323	0.443	0.016
6.499	107.537	79.998	19.994	102.971	20.324	0.359	0.027
6.999	107.536	80.000	19.994	102.975	20.326	0.245	0.008
7.499	107.562	79.999	19.988	102.975	20.324	0.361	0.010
7.999	107.542	80.001	19.991	102.978	20.325	0.285	0.015
8.499	107.503	79.998	19.997	102.977	20.324	0.376	-0.027
8.999	107.504	80.003	19.992	102.974	20.327	0.193	-0.048
9.499	107.524	80.000	19.995	102.972	20.327	0.152	-0.009
9.999	107.557	79.999	19.994	102.975	20.330	-0.017	0.037
10.499	107.547	80.002	19.995	102.973	20.328	0.137	0.038
10.999	107.532	80.000	19.994	102.970	20.331	-0.100	-0.001
11.499	107.532	79.996	19.995	102.968	20.325	0.297	-0.021
11.999	107.523	79.999	19.995	102.966	20.329	0.069	-0.012
12.499	107.514	80.000	19.994	102.968	20.330	0.002	-0.014
12.999	107.543	80.003	19.992	102.974	20.331	-0.080	0.001
13.499	107.551	80.001	19.995	102.978	20.328	0.113	0.029
13.999	107.531	80.000	19.995	102.980	20.326	0.263	0.013
14.500	107.504	79.995	20.002	102.982	20.322	0.493	-0.030
15.000	107.531	80.002	19.992	102.981	20.327	0.211	-0.024
15.500	107.515	79.999	19.995	102.976	20.326	0.252	0.005
16.000	107.532	79.999	19.995	102.976	20.328	0.122	0.006
16.500	107.545	79.997	19.994	102.981	20.329	0.019	0.016
17.000	107.513	79.995	19.997	102.987	20.325	0.295	0.006
17.500	107.509	79.993	19.997	102.992	20.323	0.423	-0.027
18.000	107.524	79.997	19.992	102.996	20.323	0.425	-0.012
18.500	107.538	80.000	19.994	103.003	20.325	0.334	0.020
19.000	107.537	80.004	19.991	103.007	20.322	0.510	0.021
19.500	107.529	80.001	19.995	103.008	20.323	0.477	0.002
20.000	107.545	79.995	19.998	103.011	20.325	0.343	-0.000
20.500	107.533	79.994	20.002	103.014	20.324	0.360	0.006
21.000	107.552	79.999	19.993	103.015	20.324	0.399	0.005
21.500	107.557	79.997	19.994	103.011	20.325	0.304	0.016
22.000	107.578	79.999	19.995	103.013	20.325	0.345	0.025
22.500	107.597	80.002	19.994	103.015	20.323	0.449	0.033
23.000	107.600	79.997	19.997	103.020	20.325	0.325	0.031
23.500	107.615	79.997	20.002	103.023	20.323	0.418	0.021
24.000	107.608	79.998	19.998	103.025	20.322	0.510	0.013
24.500	107.621	80.001	19.995	103.026	20.321	0.561	0.007
25.000	107.652	80.000	19.997	103.029	20.321	0.596	0.025
25.500	107.672	79.995	19.996	103.029	20.317	0.833	0.047
26.000	107.726	80.005	19.990	103.034	20.320	0.670	0.063
26.500	107.718	80.002	19.998	103.047	20.321	0.590	0.060
27.000	107.742	80.001	19.990	103.053	20.318	0.765	0.030
27.500	107.751	79.998	19.996	103.059	20.319	0.754	0.025
28.000	107.736	80.000	19.997	103.067	20.318	0.757	0.014
28.500	107.758	79.996	19.995	103.077	20.313	1.147	0.001
29.000	107.758	80.001	19.995	103.084	20.312	1.190	0.015
29.500	107.806	79.999	19.996	103.099	20.310	1.362	0.035
30.000	107.789	80.000	19.986	103.109	20.307	1.555	0.039
30.500	107.855	80.003	19.997	103.118	20.305	1.641	0.040
31.000	107.886	80.000	19.995	103.120	20.310	1.338	0.073
31.500	107.886	79.998	19.993	103.121	20.306	1.579	0.064
32.000	107.912	80.002	19.993	103.126	20.307	1.544	0.028
32.499	107.956	79.995	19.997	103.133	20.304	1.746	0.048
32.999	107.960	80.000	19.993	103.139	20.305	1.672	0.059
33.499	108.030	79.997	19.991	103.148	20.303	1.780	0.061
33.999	108.073	79.999	19.996	103.156	20.302	1.891	0.093
34.499	108.134	80.000	19.994	103.160	20.303	1.832	0.109
34.999	108.178	79.996	19.996	103.159	20.299	2.079	0.104
35.499	108.239	79.999	19.991	103.157	20.298	2.149	0.105
35.999	108.287	79.996	19.995	103.154	20.294	2.405	0.107
36.499	108.339	79.995	19.997	103.152	20.296	2.283	0.105
36.999	108.387	79.999	19.989	103.152	20.295	2.313	0.100
37.499	108.439	80.000	19.998	103.153	20.299	2.060	0.100
37.999	108.534	79.998	19.996	103.156	20.295	2.315	0.123
38.499	108.562	79.999	19.994	103.158	20.296	2.242	0.135
39.000	108.601	79.997	19.997	103.160	20.296	2.261	0.095
39.500	108.661	79.994	19.994	103.158	20.295	2.319	0.083
39.999	108.729	80.000	19.994	103.151	20.298	2.153	0.113
40.499	108.821	79.999	19.993	103.145	20.300	2.007	0.144
40.999	108.894	79.999	19.996	103.145	20.295	2.330	0.163
41.499	108.951	80.000	19.997	103.144	20.294	2.389	0.148
41.999	109.007	79.997	19.996	103.146	20.297	2.185	0.122
42.499	109.065	79.990	20.004	103.152	20.300	1.992	0.113
42.999	109.143	79.998	19.997	103.156	20.294	2.432	0.125
43.500	109.202	80.003	19.993	103.157	20.293	2.465	0.137
44.000	109.279	79.999	19.991	103.158	20.292	2.530	0.136
44.499	109.365	79.995	19.994	103.162	20.294	2.419	0.150
44.999	109.431	79.998	20.000	103.163	20.293	2.456	0.158
45.499	109.545	79.998	19.992	103.164	20.293	2.469	0.166
46.000	109.628	80.002	19.997	103.164	20.289	2.756	0.188
46.500	109.685	79.999	19.991	103.163	20.294	2.383	0.168
46.999	109.769	80.000	19.991	103.160	20.292	2.545	0.140
47.499	109.830	79.997	19.996	103.161	20.292	2.521	0.143
47.999	109.939	79.999	19.995	103.162	20.293	2.510	0.158
48.499	110.005	79.999	19.992	103.163	20.292	2.525	0.173
48.999	110.068	79.996	19.996	103.169	20.293	2.460	0.152
49.499	110.211	79.994	19.994	103.172	20.290	2.685	0.167
49.999	110.266	79.999	19.989	103.170	20.291	2.625	0.202
50.500	110.335	79.993	19.993	103.173	20.292	2.523	0.161
51.000	110.461	80.000	19.993	103.173	20.291	2.635	0.159
51.500	110.552	79.993	20.000	103.168	20.290	2.709	0.206
52.000	110.651	79.993	19.996	103.171	20.290	2.690	0.204
52.499	110.754	79.994	19.996	103.177	20.292	2.531	0.196
52.999	110.888	79.994	19.993	103.180	20.290	2.655	0.219
53.499	110.974	79.993	19.994	103.184	20.292	2.514	0.229
53.999	111.029	79.996	19.998	103.184	20.292	2.514	0.181
54.499	111.160	80.004	19.991	103.179	20.292	2.575	0.163
54.999	111.265	79.999	19.995	103.177	20.293	2.471	0.211
55.499	111.362	79.998	19.996	103.171	20.292	2.555	0.219
55.999	111.479	80.000	19.993	103.164	20.290	2.692	0.208
56.500	111.583	80.000	19.993	103.163	20.291	2.596	0.218
57.000	111.685	79.996	19.996	103.162	20.292	2.533	0.214
57.499	111.783	79.996	19.996	103.157	20.291	2.607	0.203
57.999	111.915	79.994	19.992	103.157	20.291	2.646	0.214
58.500	112.018	79.997	19.997	103.163	20.290	2.715	0.232
59.001	112.116	79.998	20.003	103.170	20.288	2.845	0.218
59.500	112.199	79.999	19.997	103.172	20.288	2.802	0.191
59.999	112.354	79.998	19.992	103.179	20.287	2.876	0.209
60.500	112.491	79.996	19.993	103.187	20.288	2.832	0.265
61.000	112.570	79.997	19.991	103.190	20.288	2.815	0.254
61.499	112.693	79.996	19.994	103.190	20.289	2.776	0.209
61.999	112.866	79.995	19.998	103.190	20.287	2.876	0.250
62.499	112.954	80.000	19.992	103.191	20.287	2.884	0.279
62.999	113.048	79.997	19.996	103.191	20.285	3.021	0.221
63.499	113.184	79.998	19.989	103.191	20.288	2.851	0.206
63.999	113.331	79.997	19.994	103.192	20.284	3.057	0.257
64.499	113.479	80.000	19.992	103.197	20.285	3.004	0.289
64.999	113.599	79.996	19.996	103.195	20.285	2.988	0.282
65.499	113.700	79.996	19.999	103.194	20.283	3.123	0.244
65.999	113.836	79.994	19.996	103.193	20.284	3.078	0.229
66.499	113.971	79.997	19.993	103.192	20.287	2.863	0.254
66.999	114.097	79.997	19.994	103.196	20.284	3.069	0.266
67.499	114.244	79.998	19.994	103.198	20.285	2.993	0.267
67.999	114.421	79.998	19.991	103.199	20.283	3.136	0.298
68.499	114.508	80.003	19.991	103.201	20.284	3.071	0.294
68.999	114.659	79.998	19.995	103.202	20.287	2.859	0.251
69.499	114.790	79.999	19.995	103.198	20.286	2.949	0.260
70.000	114.952	79.997	19.995	103.198	20.287	2.910	0.287
70.501	115.073	79.998	19.995	103.199	20.288	2.845	0.288
71.000	115.208	80.002	19.992	103.199	20.284	3.058	0.269
71.499	115.340	80.001	19.997	103.203	20.283	3.136	0.262
71.999	115.526	80.001	19.992	103.205	20.286	2.965	0.293
72.500	115.651	79.995	19.998	103.207	20.282	3.214	0.314
73.001	115.785	79.997	19.998	103.209	20.286	2.963	0.285
73.500	115.898	79.999	19.989	103.209	20.285	3.008	0.253
74.000	116.080	80.001	19.993	103.212	20.284	3.116	0.271
74.500	116.196	79.998	19.998	103.213	20.283	3.149	0.296
74.999	116.377	79.997	19.998	103.210	20.283	3.140	0.298
75.499	116.524	80.001	19.994	103.207	20.284	3.086	0.313
75.999	116.651	79.998	19.994	103.205	20.286	2.939	0.301
76.499	116.848	79.999	19.994	103.199	20.282	3.207	0.299
76.999	116.989	79.997	19.994	103.197	20.285	2.993	0.331
77.499	117.149	79.999	19.994	103.198	20.285	3.006	0.319
77.999	117.301	79.999	19.994	103.199	20.283	3.123	0.307
78.500	117.497	79.998	19.995	103.199	20.284	3.114	0.330
79.000	117.613	80.000	19.993	103.198	20.282	3.211	0.330
79.499	117.787	79.998	19.991	103.198	20.285	3.044	0.301
80.000	117.942	79.997	19.995	103.198	20.284	3.105	0.310
80.500	118.126	79.999	19.996	103.199	20.287	2.917	0.334
80.999	118.272	80.000	19.994	103.200	20.284	3.056	0.334
81.499	118.460	80.000	19.996	103.202	20.286	2.941	0.332
82.000	118.581	79.998	19.994	103.205	20.284	3.078	0.322
82.500	118.757	80.003	19.993	103.204	20.283	3.134	0.304
82.999	118.932	80.004	19.990	103.204	20.284	3.071	0.324
83.499	119.107	80.003	19.993	103.203	20.285	2.987	0.350
83.999	119.231	79.999	19.993	103.202	20.284	3.084	0.324
84.499	119.411	80.000	19.994	103.204	20.281	3.268	0.302
84.999	119.560	79.995	20.000	103.205	20.284	3.114	0.317
85.499	119.746	79.999	19.994	103.204	20.284	3.097	0.332
86.000	119.923	79.999	19.995	103.204	20.281	3.272	0.349
86.500	120.117	79.997	19.994	103.204	20.281	3.317	0.367
86.999	120.235	80.000	19.996	103.201	20.284	3.059	0.341
87.499	120.394	79.999	19.994	103.199	20.284	3.079	0.294
88.000	120.638	79.996	19.993	103.201	20.286	2.957	0.340
88.500	120.772	79.998	19.994	103.202	20.286	2.957	0.391
89.000	120.950	79.999	19.994	103.206	20.283	3.176	0.345
89.500	121.141	79.999	19.994	103.213	20.285	3.040	0.341
89.999	121.317	79.996	19.995	103.218	20.282	3.199	0.368
90.499	121.514	80.000	19.993	103.218	20.282	3.251	0.370
90.999	121.625	79.999	19.996	103.216	20.285	3.028	0.340
91.499	121.825	80.002	19.997	103.211	20.284	3.060	0.309
91.999	122.030	79.999	19.994	103.203	20.285	3.049	0.359
92.499	122.199	79.999	19.993	103.198	20.286	2.982	0.390
92.999	122.436	80.000	19.994	103.198	20.283	3.133	0.390
93.499	122.595	79.998	19.993	103.198	20.283	3.127	0.401
93.999	122.786	79.999	19.995	103.198	20.286	2.986	0.373
94.499	122.998	80.002	19.993	103.197	20.284	3.114	0.376
94.999	123.159	79.998	19.993	103.198	20.282	3.244	0.388
95.499	123.300	80.001	19.994	103.200	20.283	3.159	0.338
95.999	123.485	79.998	19.995	103.200	20.281	3.283	0.314
96.499	123.652	80.000	19.993	103.200	20.285	3.044	0.339
96.999	123.868	80.001	19.993	103.205	20.284	3.081	0.368
97.499	124.089	79.999	19.993	103.209	20.285	3.034	0.410
97.999	124.229	79.997	19.995	103.216	20.282	3.213	0.399
98.499	124.441	80.001	19.991	103.222	20.284	3.116	0.357
98.999	124.590	79.996	19.998	103.223	20.282	3.196	0.357
99.499	124.777	79.994	19.998	103.219	20.281	3.301	0.349
100.000	124.992	80.000	19.989	103.213	20.281	3.268	0.369
100.500	125.170	80.002	19.988	103.206	20.284	3.097	0.397
100.999	125.369	79.998	19.996	103.201	20.282	3.246	0.385
101.499	125.560	80.003	19.997	103.200	20.285	3.041	0.384
101.999	125.774	80.000	19.990	103.201	20.282	3.225	0.397
102.499	125.955	80.003	19.990	103.204	20.281	3.288	0.400
102.999	126.131	79.998	19.993	103.206	20.285	3.025	0.376
103.499	126.329	79.999	19.996	103.208	20.285	3.030	0.366
103.999	126.517	79.995	19.996	103.211	20.283	3.138	0.380
104.499	126.711	80.003	19.994	103.212	20.282	3.218	0.384
104.999	126.903	80.005	19.992	103.209	20.282	3.240	0.384
105.499	127.095	80.000	19.998	103.207	20.281	3.305	0.385
105.999	127.303	80.001	19.987	103.203	20.282	3.223	0.392
106.499	127.499	80.001	19.994	103.204	20.282	3.231	0.402
106.999	127.686	80.000	19.993	103.207	20.281	3.303	0.393
107.499	127.922	80.002	19.992	103.211	20.279	3.435	0.403
107.999	128.083	80.004	19.993	103.213	20.282	3.235	0.410
108.499	128.296	80.002	19.993	103.215	20.281	3.307	0.386
108.999	128.485	80.000	19.994	103.212	20.280	3.366	0.388
109.499	128.694	80.002	19.992	103.210	20.282	3.192	0.400
109.999	128.873	80.000	19.995	103.206	20.280	3.355	0.393
110.499	129.113	79.999	19.994	103.203	20.285	3.019	0.404
110.999	129.305	79.996	19.996	103.203	20.284	3.116	0.425
111.499	129.485	80.002	19.991	103.201	20.285	3.023	0.402
111.999	129.709	80.000	19.993	103.199	20.282	3.253	0.388
112.499	129.898	79.999	19.992	103.197	20.283	3.188	0.408
112.999	130.075	79.996	20.000	103.197	20.280	3.389	0.389
113.499	130.258	79.997	19.988	103.195	20.283	3.155	0.363
114.000	130.528	79.998	19.995	103.196	20.282	3.254	0.406
114.500	130.704	79.998	19.993	103.196	20.281	3.325	0.450
114.999	130.915	79.994	19.995	103.196	20.280	3.337	0.417
115.499	131.120	79.998	19.995	103.196	20.283	3.178	0.402
115.999	131.334	79.997	19.995	103.197	20.282	3.244	0.417
116.499	131.514	79.998	19.995	103.195	20.277	3.539	0.406
117.000	131.709	79.999	19.994	103.196	20.282	3.255	0.385
117.500	131.930	79.997	19.995	103.199	20.282	3.253	0.396
117.999	132.118	80.000	19.993	103.200	20.280	3.346	0.413
118.499	132.288	79.996	19.994	103.200	20.280	3.369	0.384
119.000	132.507	79.997	19.997	103.202	20.280	3.350	0.373
119.500	132.744	80.001	19.994	103.201	20.278	3.475	0.422
119.999	132.920	80.000	19.995	103.197	20.284	3.115	0.434
120.499	133.113	79.998	19.994	103.198	20.278	3.479	0.391
120.999	133.340	79.998	19.996	103.198	20.279	3.443	0.395
121.499	133.540	79.995	19.995	103.197	20.282	3.221	0.423
121.999	133.714	80.002	19.994	103.197	20.283	3.165	0.400
122.499	133.967	79.998	19.992	103.197	20.279	3.408	0.401
122.999	134.190	79.996	19.997	103.201	20.279	3.401	0.451
123.499	134.389	80.000	19.991	103.207	20.279	3.405	0.449
123.999	134.603	79.997	19.991	103.212	20.278	3.486	0.418
124.499	134.826	79.997	19.995	103.219	20.281	3.311	0.425
124.999	135.031	79.998	19.996	103.226	20.279	3.460	0.432
125.499	135.218	79.999	19.995	103.227	20.279	3.401	0.410
125.999	135.436	79.998	19.993	103.224	20.279	3.425	0.399
126.499	135.626	79.995	19.996	103.222	20.277	3.555	0.406
126.999	135.800	79.997	20.000	103.214	20.280	3.365	0.386
127.499	136.054	80.000	19.993	103.206	20.281	3.276	0.396
128.000	136.282	79.998	19.993	103.203	20.278	3.479	0.455
128.500	136.501	80.000	19.996	103.207	20.280	3.352	0.464
129.000	136.698	79.996	19.994	103.213	20.277	3.590	0.432
129.500	136.906	79.997	20.000	103.217	20.285	3.033	0.411
130.000	137.129	80.003	19.995	103.219	20.280	3.343	0.418
130.500	137.329	79.997	19.989	103.221	20.279	3.395	0.427
131.000	137.552	80.000	19.992	103.223	20.277	3.530	0.423
131.500	137.780	79.999	19.987	103.222	20.277	3.556	0.437
132.000	138.007	79.994	19.996	103.227	20.279	3.456	0.453
132.500	138.217	79.997	19.991	103.234	20.280	3.343	0.446
133.000	138.389	79.998	19.995	103.238	20.281	3.291	0.410
133.500	138.641	79.998	19.995	103.237	20.279	3.449	0.403
134.000	138.845	79.999	19.995	103.237	20.282	3.211	0.440
134.500	139.066	79.997	19.994	103.234	20.278	3.512	0.440
135.000	139.297	79.998	19.993	103.227	20.279	3.427	0.438
135.500	139.523	79.997	19.997	103.225	20.278	3.503	0.455
136.000	139.729	79.998	19.991	103.225	20.279	3.438	0.445
136.500	139.954	79.995	19.996	103.223	20.280	3.332	0.432
137.000	140.164	79.997	19.993	103.221	20.279	3.399	0.433
137.500	140.403	79.998	19.993	103.226	20.278	3.525	0.441
138.000	140.627	79.994	19.996	103.228	20.279	3.408	0.456
138.500	140.830	80.001	19.995	103.229	20.276	3.616	0.445
139.000	141.070	79.997	19.996	103.230	20.280	3.350	0.436
139.500	141.293	79.995	19.998	103.229	20.277	3.595	0.453
140.001	141.537	79.997	19.993	103.222	20.276	3.653	0.465
140.501	141.786	79.999	19.992	103.214	20.280	3.373	0.480
141.000	141.964	79.997	19.994	103.210	20.277	3.557	0.459
141.500	142.197	79.996	19.999	103.209	20.278	3.482	0.419
142.000	142.429	79.996	19.999	103.209	20.279	3.429	0.438
142.500	142.667	79.997	19.996	103.210	20.276	3.611	0.468
143.000	142.894	79.998	19.996	103.213	20.278	3.501	0.467
143.500	143.104	80.002	19.993	103.215	20.278	3.518	0.451
144.000	143.345	79.997	19.997	103.217	20.276	3.635	0.444
144.500	143.550	79.998	19.995	103.223	20.276	3.611	0.449
145.000	143.839	79.997	19.996	103.231	20.277	3.566	0.470
145.500	144.019	79.996	19.995	103.234	20.278	3.511	0.481
146.000	144.265	79.998	19.997	103.236	20.278	3.500	0.448
146.500	144.487	79.997	19.997	103.235	20.277	3.564	0.447
147.000	144.760	79.998	19.996	103.235	20.278	3.507	0.482
147.500	144.992	80.002	19.990	103.234	20.277	3.553	0.500
148.000	145.191	79.998	19.996	103.235	20.280	3.356	0.468
148.500	145.415	79.999	19.995	103.233	20.278	3.524	0.427
149.000	145.665	79.993	19.996	103.227	20.279	3.454	0.448
149.500	145.891	79.991	20.002	103.222	20.277	3.558	0.475
150.000	146.108	79.992	19.997	103.216	20.280	3.352	0.459
150.500	146.367	79.998	19.997	103.214	20.280	3.385	0.460
151.000	146.577	79.996	19.993	103.216	20.279	3.412	0.473
151.500	146.824	79.997	19.993	103.222	20.278	3.507	0.463
152.000	147.048	79.997	19.998	103.224	20.277	3.546	0.463
152.500	147.319	79.998	19.995	103.230	20.279	3.440	0.483
153.000	147.529	79.999	19.992	103.229	20.275	3.665	0.488
153.500	147.766	79.998	19.995	103.228	20.280	3.386	0.464
154.000	147.981	79.998	19.992	103.226	20.277	3.592	0.449
154.500	148.220	79.998	19.997	103.230	20.278	3.475	0.453
155.000	148.462	80.002	19.992	103.231	20.278	3.479	0.468
155.500	148.696	79.997	19.993	103.234	20.278	3.470	0.479
156.000	148.921	80.002	19.990	103.236	20.282	3.251	0.468
156.500	149.166	79.998	19.990	103.239	20.279	3.449	0.464
157.000	149.411	79.999	19.999	103.241	20.278	3.525	0.479
157.500	149.631	80.001	19.995	103.235	20.278	3.498	0.477
158.000	149.898	79.993	19.997	103.227	20.276	3.650	0.476
158.500	150.132	79.998	19.996	103.219	20.276	3.663	0.494
159.000	150.346	80.001	19.996	103.211	20.278	3.524	0.474
159.500	150.598	80.000	19.995	103.203	20.278	3.466	0.457
160.000	150.840	80.001	19.996	103.205	20.280	3.382	0.481
160.500	151.059	79.999	19.994	103.211	20.278	3.523	0.478
161.000	151.285	80.000	19.995	103.214	20.278	3.499	0.453
161.500	151.540	80.000	19.994	103.215	20.278	3.488	0.463
162.000	151.771	79.999	19.994	103.223	20.278	3.512	0.483
162.500	152.027	80.000	19.990	103.227	20.278	3.517	0.487
163.000	152.250	80.000	19.995	103.228	20.277	3.569	0.483
163.500	152.530	80.000	19.992	103.232	20.276	3.626	0.491
164.000	152.761	80.001	19.992	103.233	20.277	3.543	0.507
164.500	153.000	80.002	19.990	103.227	20.280	3.393	0.491
165.000	153.246	80.001	19.993	103.227	20.276	3.601	0.477
165.500	153.433	79.998	19.992	103.228	20.279	3.432	0.459
165.999	153.713	80.000	19.994	103.229	20.274	3.735	0.450
166.499	153.950	80.001	19.991	103.233	20.276	3.620	0.492
166.999	154.141	79.999	19.995	103.239	20.275	3.695	0.473
167.499	154.415	80.002	19.997	103.239	20.275	3.695	0.447
167.999	154.630	79.999	19.993	103.239	20.273	3.832	0.477
168.499	154.842	79.998	19.996	103.239	20.275	3.708	0.458
168.999	155.145	80.001	19.994	103.239	20.277	3.589	0.471
169.499	155.362	79.999	19.994	103.238	20.276	3.621	0.517
169.999	155.626	80.000	19.994	103.237	20.277	3.546	0.500
170.499	155.845	79.998	19.994	103.233	20.277	3.587	0.482
170.999	156.098	80.000	19.994	103.231	20.277	3.543	0.478
171.499	156.323	79.999	19.996	103.227	20.274	3.793	0.475
171.999	156.582	79.993	19.999	103.223	20.274	3.767	0.481
172.499	156.811	79.996	19.990	103.220	20.270	4.003	0.486
172.999	157.087	80.001	19.992	103.217	20.274	3.791	0.497
173.499	157.341	79.998	19.996	103.211	20.274	3.771	0.517
174.000	157.573	79.999	19.995	103.208	20.275	3.722	0.507
174.500	157.788	80.000	19.995	103.202	20.272	3.919	0.466
174.999	158.057	79.999	19.992	103.200	20.275	3.706	0.466
175.499	158.266	80.000	19.993	103.206	20.271	3.994	0.481
175.999	158.522	79.998	19.995	103.211	20.273	3.860	0.471
176.499	158.731	80.000	19.994	103.214	20.271	3.960	0.465
176.999	159.000	79.998	19.992	103.218	20.271	3.936	0.471
177.499	159.208	79.996	19.997	103.220	20.272	3.907	0.478
177.999	159.469	80.000	19.995	103.211	20.274	3.795	0.474
178.499	159.712	80.001	19.996	103.206	20.272	3.897	0.487
178.999	159.988	80.001	19.994	103.202	20.271	3.949	0.511
179.499	160.181	80.000	19.995	103.198	20.270	4.009	0.493
179.999	160.451	79.999	19.994	103.197	20.273	3.853	0.466
180.500	160.677	79.999	20.000	103.198	20.270	4.020	0.479
181.000	160.926	79.995	19.997	103.196	20.271	3.955	0.485
181.499	161.182	79.996	19.992	103.195	20.271	3.942	0.490
181.999	161.386	80.003	19.993	103.196	20.273	3.847	0.482
182.499	161.658	80.004	19.994	103.195	20.269	4.096	0.468
182.999	161.899	80.001	19.995	103.194	20.272	3.901	0.495
183.499	162.144	80.004	19.992	103.195	20.272	3.925	0.500
183.999	162.429	80.000	19.998	103.193	20.270	4.053	0.508
184.499	162.632	80.006	19.994	103.186	20.271	3.947	0.508
184.999	162.892	80.000	19.995	103.185	20.270	4.027	0.475
185.499	163.117	79.997	19.996	103.185	20.269	4.131	0.474
185.999	163.304	80.002	19.994	103.186	20.269	4.102	0.449
186.499	163.570	79.998	19.988	103.190	20.269	4.098	0.433
186.999	163.833	80.002	19.996	103.196	20.269	4.137	0.491
187.499	164.080	80.001	19.994	103.198	20.268	4.196	0.520
187.999	164.303	80.005	19.990	103.199	20.268	4.170	0.490
188.499	164.559	80.002	19.995	103.199	20.268	4.202	0.475
188.999	164.794	80.004	19.998	103.199	20.268	4.181	0.485
189.499	165.075	80.000	19.994	103.197	20.266	4.274	0.503
189.999	165.295	80.006	19.993	103.199	20.268	4.200	0.509
190.499	165.554	80.001	19.993	103.198	20.266	4.285	0.491
190.999	165.784	79.995	19.998	103.198	20.265	4.363	0.484
191.500	166.054	80.000	19.992	103.197	20.263	4.497	0.494
192.000	166.333	79.999	19.992	103.197	20.269	4.120	0.524
192.499	166.547	79.997	19.998	103.193	20.267	4.244	0.521
192.999	166.771	80.006	19.994	103.191	20.266	4.311	0.466
193.499	167.046	79.998	19.998	103.190	20.264	4.408	0.468
194.000	167.291	80.001	19.989	103.190	20.263	4.486	0.510
194.500	167.572	80.001	19.988	103.192	20.265	4.399	0.523
195.000	167.794	79.997	19.992	103.194	20.266	4.337	0.514
195.499	168.020	80.000	19.995	103.196	20.267	4.233	0.475
196.000	168.258	79.999	19.991	103.198	20.265	4.389	0.456
196.500	168.469	79.998	19.989	103.202	20.265	4.391	0.456
196.999	168.766	79.995	19.998	103.205	20.264	4.427	0.478
197.500	169.011	79.999	19.996	103.203	20.260	4.720	0.525
198.000	169.265	79.998	19.994	103.202	20.260	4.703	0.521
198.500	169.499	79.998	19.996	103.200	20.261	4.668	0.494
199.000	169.782	80.001	19.992	103.198	20.262	4.560	0.503
199.499	170.020	80.000	19.994	103.195	20.262	4.593	0.519
199.999	170.286	79.998	19.994	103.195	20.259	4.810	0.513
200.499	170.492	79.997	19.993	103.196	20.262	4.559	0.488
200.999	170.739	79.997	19.996	103.194	20.263	4.480	0.462
201.499	171.011	79.997	19.989	103.193	20.263	4.537	0.486
201.999	171.234	79.998	19.993	103.189	20.260	4.688	0.507
202.499	171.457	79.998	19.998	103.187	20.262	4.597	0.471
202.999	171.704	79.996	19.992	103.188	20.262	4.564	0.458
203.499	171.935	79.999	19.995	103.189	20.261	4.640	0.474
203.999	172.219	79.998	19.994	103.191	20.262	4.594	0.496
204.500	172.466	79.998	19.994	103.193	20.261	4.655	0.523
205.000	172.698	79.999	19.995	103.195	20.262	4.551	0.505
205.499	172.968	79.999	19.993	103.195	20.260	4.699	0.491
205.999	173.189	79.998	19.997	103.195	20.260	4.705	0.497
206.499	173.462	79.996	19.997	103.194	20.259	4.746	0.493
206.999	173.712	80.000	19.991	103.194	20.260	4.714	0.508
207.499	173.949	79.998	19.995	103.196	20.261	4.640	0.505
208.000	174.147	80.001	19.995	103.200	20.261	4.677	0.461
208.500	174.449	79.997	19.994	103.201	20.261	4.623	0.467
209.000	174.705	79.998	19.995	103.202	20.264	4.445	0.529
209.500	174.948	79.996	19.998	103.200	20.262	4.584	0.529
209.999	175.185	80.002	19.991	103.194	20.259	4.772	0.489
210.499	175.400	79.998	19.997	103.187	20.259	4.785	0.466
211.000	175.718	79.994	19.995	103.184	20.261	4.649	0.493
211.500	175.948	79.991	19.994	103.180	20.255	5.030	0.541
212.000	176.189	79.997	19.993	103.180	20.258	4.879	0.509
212.500	176.416	79.996	19.995	103.185	20.256	4.963	0.470
212.999	176.652	79.997	19.997	103.194	20.257	4.896	0.465
213.499	176.915	79.997	19.996	103.195	20.258	4.872	0.481
213.999	177.143	79.993	19.992	103.199	20.255	5.056	0.495
214.499	177.430	79.998	19.996	103.200	20.258	4.838	0.503
214.999	177.655	80.000	19.992	103.198	20.258	4.872	0.514
215.499	177.891	79.999	19.994	103.195	20.255	5.054	0.487
215.999	178.176	79.997	19.994	103.196	20.255	5.052	0.491
216.499	178.407	79.999	19.994	103.194	20.257	4.935	0.518
216.999	178.679	80.000	19.995	103.193	20.256	5.013	0.510
217.499	178.929	79.998	19.994	103.194	20.255	5.037	0.513
217.999	179.163	79.997	19.996	103.192	20.255	5.076	0.503
218.499	179.412	79.997	19.998	103.191	20.252	5.227	0.484
218.999	179.679	79.998	19.997	103.192	20.256	4.952	0.499
219.499	179.927	80.000	19.993	103.191	20.256	4.952	0.515
219.999	180.122	79.993	19.993	103.192	20.258	4.868	0.479
220.499	180.430	79.995	19.997	103.193	20.253	5.199	0.473
220.999	180.651	80.000	19.997	103.193	20.254	5.132	0.516
221.499	180.909	79.996	19.996	103.194	20.255	5.084	0.504
221.999	181.140	79.991	19.996	103.194	20.252	5.269	0.484
222.499	181.425	79.998	19.997	103.190	20.256	5.011	0.503
222.999	181.686	79.996	19.993	103.190	20.256	4.964	0.531
223.500	181.947	79.998	19.994	103.190	20.253	5.213	0.534
224.000	182.170	79.996	19.995	103.188	20.256	4.968	0.503
224.499	182.413	79.995	19.992	103.190	20.253	5.206	0.475
224.999	182.663	79.996	19.999	103.193	20.252	5.219	0.480
225.499	182.884	79.999	19.995	103.192	20.252	5.280	0.482
225.999	183.174	79.995	19.993	103.193	20.254	5.095	0.491
226.499	183.410	79.997	19.996	103.197	20.253	5.174	0.519
227.000	183.667	80.000	19.989	103.197	20.257	4.890	0.509
227.500	183.887	80.002	19.991	103.194	20.254	5.103	0.485
228.000	184.120	79.996	19.998	103.195	20.258	4.836	0.465
228.499	184.341	79.999	19.996	103.195	20.255	5.038	0.454
228.999	184.625	79.998	19.995	103.194	20.255	5.038	0.479
229.499	184.855	79.996	19.993	103.194	20.253	5.193	0.509
229.999	185.137	79.998	19.994	103.198	20.251	5.345	0.513
230.500	185.391	79.998	19.993	103.198	20.253	5.178	0.524
231.000	185.646	79.998	19.994	103.197	20.252	5.265	0.522
231.499	185.896	79.997	19.994	103.197	20.253	5.207	0.507
231.999	186.169	79.999	19.993	103.197	20.254	5.145	0.514
232.499	186.408	79.997	19.995	103.193	20.256	4.978	0.518
232.999	186.662	80.000	19.996	103.188	20.254	5.131	0.503
233.499	186.948	79.997	19.996	103.188	20.252	5.253	0.517
233.999	187.195	79.998	19.995	103.186	20.252	5.285	0.536
234.500	187.396	79.999	19.996	103.186	20.251	5.344	0.491
235.000	187.668	79.998	19.995	103.189	20.249	5.474	0.461
235.499	187.934	79.999	19.996	103.194	20.251	5.331	0.506
235.999	188.145	79.998	19.996	103.195	20.247	5.560	0.508
236.499	188.393	79.998	19.997	103.194	20.250	5.358	0.468
237.000	188.641	79.999	19.997	103.191	20.250	5.391	0.478
237.500	188.883	79.998	19.997	103.186	20.251	5.350	0.493
237.999	189.198	80.001	19.995	103.179	20.249	5.465	0.523
238.499	189.404	80.000	19.996	103.179	20.249	5.436	0.539
238.999	189.621	79.996	19.998	103.180	20.250	5.412	0.472
239.499	189.865	80.000	19.995	103.179	20.247	5.607	0.442
239.999	190.139	79.999	19.996	103.180	20.248	5.555	0.490
240.499	190.380	79.999	19.996	103.185	20.246	5.629	0.516
240.999	190.661	80.000	19.997	103.185	20.247	5.620	0.518
241.499	190.891	79.999	19.998	103.181	20.247	5.616	0.517
241.999	191.134	79.998	20.001	103.176	20.248	5.540	0.492
242.500	191.379	80.001	19.991	103.172	20.250	5.417	0.480
243.000	191.659	80.001	19.997	103.167	20.247	5.601	0.506
243.499	191.855	79.997	19.998	103.164	20.246	5.625	0.501
243.999	192.120	79.998	19.997	103.167	20.245	5.741	0.469
244.499	192.357	80.003	19.996	103.169	20.247	5.611	0.481
244.999	192.619	80.000	19.993	103.173	20.243	5.843	0.501
245.499	192.861	80.000	19.992	103.175	20.245	5.702	0.501
245.999	193.147	79.999	19.991	103.172	20.243	5.886	0.515
246.499	193.398	79.999	19.993	103.172	20.246	5.628	0.532
246.999	193.606	80.001	19.993	103.176	20.245	5.715	0.498
247.499	193.872	79.996	19.999	103.180	20.243	5.869	0.467
247.999	194.084	80.001	19.996	103.178	20.244	5.771	0.476
248.499	194.326	79.998	19.997	103.182	20.242	5.938	0.466
248.999	194.611	80.000	19.993	103.182	20.242	5.941	0.491
249.499	194.856	80.001	19.993	103.182	20.243	5.859	0.528
249.999	195.119	80.002	19.990	103.183	20.243	5.831	0.519
250.499	195.318	79.999	19.995	103.185	20.243	5.853	0.485
250.999	195.581	79.998	19.995	103.187	20.244	5.824	0.462
251.499	195.825	79.997	19.995	103.189	20.241	6.000	0.485
251.999	196.076	79.996	19.992	103.186	20.241	5.994	0.501
252.499	196.318	79.998	19.995	103.182	20.244	5.822	0.494
252.999	196.564	80.000	19.994	103.182	20.244	5.766	0.491
253.499	196.801	79.999	19.995	103.180	20.245	5.735	0.486
253.999	197.017	80.002	19.995	103.178	20.243	5.857	0.468
254.499	197.288	79.994	20.000	103.175	20.240	6.033	0.470
254.999	197.580	79.995	19.996	103.171	20.241	5.964	0.525
255.499	197.785	79.996	19.997	103.169	20.241	5.984	0.530
256.000	198.047	79.998	19.996	103.167	20.241	6.023	0.482
256.500	198.305	79.998	19.996	103.168	20.239	6.160	0.493
257.000	198.537	79.998	19.994	103.166	20.240	6.077	0.505
257.500	198.805	79.995	19.996	103.167	20.236	6.299	0.495
258.000	199.004	79.996	19.997	103.166	20.241	5.982	0.484
258.500	199.272	79.999	19.995	103.166	20.240	6.066	0.467
259.000	199.515	79.998	19.997	103.168	20.239	6.136	0.489
259.500	199.772	79.999	19.990	103.175	20.242	5.904	0.506
260.000	199.968	80.001	19.994	103.183	20.242	5.917	0.477
260.500	200.260	80.000	19.995	103.184	20.244	5.810	0.470
261.000	200.499	80.007	19.990	103.182	20.243	5.865	0.509
261.500	200.723	79.996	19.992	103.182	20.243	5.889	0.498
262.000	200.988	80.000	19.992	103.179	20.244	5.797	0.476
262.500	201.227	79.993	20.001	103.173	20.240	6.057	0.496
263.000	201.446	79.998	20.000	103.176	20.242	5.940	0.481
263.500	201.692	80.004	19.994	103.183	20.237	6.239	0.462
264.000	201.948	79.993	20.005	103.184	20.238	6.230	0.483
264.500	202.214	80.000	19.993	103.181	20.240	6.085	0.512
265.000	202.476	80.005	19.993	103.181	20.237	6.286	0.525
265.500	202.724	80.003	19.991	103.175	20.238	6.204	0.519
266.000	203.000	79.997	20.000	103.170	20.238	6.181	0.517
266.500	203.207	80.001	19.995	103.161	20.239	6.133	0.503
267.000	203.460	80.003	19.992	103.162	20.237	6.264	0.472
267.500	203.724	80.001	19.994	103.159	20.237	6.237	0.489
268.000	203.915	79.998	19.997	103.158	20.238	6.181	0.486
268.500	204.160	80.000	19.990	103.155	20.238	6.221	0.445
269.000	204.419	80.001	19.996	103.158	20.235	6.398	0.470
269.500	204.670	80.003	19.994	103.159	20.235	6.418	0.507
270.000	204.894	79.998	19.993	103.161	20.234	6.467	0.492
270.500	205.144	80.005	19.991	103.161	20.234	6.482	0.474
271.000	205.412	79.999	19.993	103.164	20.233	6.549	0.496
271.500	205.634	79.997	19.996	103.163	20.232	6.582	0.504
272.000	205.904	80.005	19.992	103.162	20.234	6.438	0.491
272.500	206.158	79.998	19.989	103.161	20.236	6.367	0.509
273.000	206.393	80.002	19.994	103.163	20.233	6.542	0.507
273.500	206.663	80.001	19.991	103.167	20.235	6.432	0.497
274.000	206.934	80.002	19.993	103.173	20.232	6.581	0.523
274.500	207.159	80.002	19.995	103.178	20.234	6.450	0.519
275.000	207.417	79.999	19.996	103.182	20.230	6.708	0.489
275.500	207.664	79.999	19.996	103.180	20.233	6.539	0.494
276.000	207.900	79.996	19.998	103.175	20.232	6.589	0.494
276.500	208.153	80.000	19.992	103.170	20.237	6.248	0.486
277.000	208.381	79.996	19.999	103.168	20.233	6.517	0.485
277.500	208.625	80.001	19.995	103.164	20.233	6.567	0.476
278.000	208.854	79.998	19.994	103.165	20.231	6.688	0.473
278.500	209.126	79.998	19.998	103.165	20.230	6.742	0.487
279.000	209.391	79.997	19.997	103.164	20.231	6.669	0.520
279.500	209.628	80.000	19.990	103.158	20.230	6.749	0.519
280.000	209.878	79.995	19.999	103.162	20.229	6.818	0.494
280.500	210.116	80.002	19.993	103.162	20.229	6.829	0.487
281.000	210.393	79.997	19.996	103.164	20.231	6.692	0.502
281.500	210.595	80.000	19.991	103.166	20.228	6.902	0.497
282.000	210.872	79.998	19.992	103.169	20.229	6.781	0.479
282.500	211.100	80.001	19.991	103.166	20.227	6.944	0.492
283.000	211.340	79.997	19.994	103.171	20.227	6.965	0.486
283.500	211.593	79.999	19.995	103.173	20.226	7.012	0.480
284.000	211.831	80.002	19.992	103.173	20.226	7.009	0.492
284.500	212.118	79.999	19.994	103.172	20.225	7.101	0.508
285.000	212.366	80.001	19.990	103.172	20.223	7.233	0.530
285.500	212.596	79.993	19.999	103.168	20.223	7.184	0.506
286.000	212.826	79.997	19.995	103.164	20.221	7.325	0.469
286.500	213.071	80.003	19.996	103.163	20.223	7.180	0.468
287.000	213.335	79.994	20.000	103.165	20.224	7.171	0.492
287.500	213.544	79.999	19.994	103.164	20.224	7.139	0.491
288.000	213.826	79.998	19.993	103.168	20.224	7.167	0.482
288.500	214.072	79.998	19.995	103.171	20.222	7.248	0.510
289.000	214.319	79.999	19.993	103.168	20.221	7.369	0.511
289.500	214.574	79.999	19.991	103.165	20.219	7.486	0.497
290.000	214.842	79.999	19.993	103.167	20.219	7.478	0.513
290.500	215.054	79.995	19.995	103.163	20.219	7.492	0.502
291.000	215.314	79.997	19.994	103.164	20.217	7.586	0.476
291.500	215.549	79.999	19.996	103.168	20.219	7.484	0.483
292.000	215.820	79.997	19.996	103.174	20.217	7.594	0.500
292.500	216.027	80.001	19.993	103.175	20.215	7.768	0.492
293.000	216.302	80.001	19.990	103.174	20.216	7.684	0.480
293.500	216.502	79.995	19.997	103.173	20.215	7.732	0.478
294.000	216.765	79.994	19.996	103.170	20.215	7.786	0.469
294.500	217.005	79.999	19.993	103.163	20.214	7.788	0.483
295.000	217.278	79.999	19.994	103.162	20.214	7.825	0.508
295.500	217.558	79.998	19.993	103.161	20.214	7.790	0.533
296.000	217.789	80.000	19.994	103.161	20.213	7.892	0.532
296.500	218.033	79.999	19.993	103.169	20.212	7.929	0.493
297.000	218.254	79.998	19.994	103.173	20.212	7.966	0.470
297.500	218.505	79.996	19.995	103.173	20.209	8.159	0.469
298.000	218.786	80.001	19.994	103.173	20.211	7.994	0.502
298.500	219.010	80.000	19.995	103.173	20.210	8.120	0.518
299.000	219.267	80.000	19.994	103.166	20.211	8.049	0.493
299.500	219.500	79.998	19.995	103.162	20.211	8.007	0.486
300.000	219.753	79.999	19.995	103.163	20.209	8.191	0.488
300.500	220.035	80.000	19.995	103.166	20.208	8.206	0.511
301.000	220.254	79.999	19.995	103.165	20.210	8.105	0.518
301.500	220.540	79.998	19.994	103.168	20.209	8.187	0.503
302.000	220.767	79.999	19.994	103.169	20.207	8.302	0.509
302.500	221.014	79.999	19.995	103.168	20.207	8.324	0.493
303.000	221.270	79.998	19.995	103.165	20.207	8.291	0.488
303.500	221.532	79.998	19.994	103.165	20.209	8.183	0.510
304.000	221.740	80.000	19.993	103.160	20.207	8.309	0.494
304.500	222.023	79.998	19.992	103.159	20.206	8.345	0.481
305.000	222.288	79.999	19.998	103.161	20.206	8.393	0.520
305.500	222.502	79.997	19.997	103.161	20.207	8.320	0.513
306.000	222.734	79.999	19.996	103.160	20.206	8.378	0.462
306.500	222.997	79.998	19.992	103.160	20.207	8.276	0.471
307.000	223.274	79.997	19.996	103.160	20.206	8.341	0.517
307.500	223.505	79.999	19.996	103.157	20.205	8.437	0.524
308.000	223.774	79.998	19.996	103.157	20.204	8.482	0.504
308.500	223.995	79.998	19.993	103.157	20.207	8.283	0.494
309.000	224.258	79.999	19.993	103.157	20.205	8.410	0.486
309.500	224.516	79.997	19.996	103.156	20.205	8.460	0.503
310.000	224.803	80.000	19.988	103.156	20.204	8.467	0.533
310.500	225.036	79.998	19.993	103.157	20.202	8.617	0.533
311.000	225.310	79.997	19.995	103.158	20.204	8.521	0.513
311.500	225.520	79.992	19.995	103.159	20.203	8.532	0.496
312.000	225.747	79.995	19.996	103.159	20.203	8.530	0.461
312.500	226.050	79.998	19.994	103.160	20.203	8.567	0.483
313.000	226.298	79.997	19.995	103.159	20.202	8.619	0.541
313.500	226.541	79.997	19.998	103.159	20.203	8.536	0.521
314.000	226.804	79.998	19.994	103.157	20.205	8.449	0.498
314.500	227.060	79.998	19.993	103.157	20.205	8.441	0.513
315.000	227.308	79.997	19.995	103.157	20.200	8.742	0.512
315.500	227.540	79.997	19.995	103.157	20.200	8.753	0.492
316.000	227.783	79.998	19.995	103.157	20.204	8.471	0.478
316.500	228.034	79.994	19.992	103.156	20.201	8.669	0.484
317.000	228.305	79.996	19.995	103.157	20.204	8.504	0.507
317.500	228.582	80.000	19.994	103.156	20.202	8.660	0.535
318.000	228.830	79.998	19.995	103.156	20.203	8.585	0.537
318.500	229.120	79.998	19.994	103.156	20.203	8.586	0.531
319.000	229.293	79.998	19.994	103.157	20.204	8.500	0.501
319.500	229.607	80.000	19.995	103.156	20.204	8.502	0.475
320.000	229.901	79.997	19.995	103.156	20.202	8.636	0.547
320.500	230.130	79.998	19.993	103.156	20.203	8.584	0.566
321.000	230.384	80.000	19.995	103.156	20.202	8.607	0.503
321.500	230.621	79.998	19.994	103.156	20.206	8.392	0.487
322.000	230.871	79.999	19.995	103.154	20.204	8.502	0.489
322.500	231.131	79.999	19.994	103.154	20.207	8.290	0.498
323.000	231.384	79.999	19.996	103.153	20.207	8.318	0.511
323.500	231.620	79.998	19.995	103.154	20.202	8.639	0.501
324.000	231.872	80.000	19.995	103.156	20.208	8.205	0.489
324.500	232.160	80.000	19.995	103.159	20.206	8.369	0.514
325.000	232.364	80.000	19.995	103.159	20.209	8.190	0.516
325.500	232.650	79.995	19.995	103.158	20.207	8.261	0.491
326.000	232.879	79.998	19.995	103.157	20.206	8.372	0.502
326.500	233.137	79.998	19.993	103.155	20.205	8.421	0.501
327.000	233.390	79.998	19.996	103.156	20.203	8.564	0.499
327.500	233.629	80.000	19.995	103.155	20.207	8.302	0.501
328.000	233.917	80.000	19.997	103.156	20.206	8.385	0.509
328.500	234.164	79.998	20.001	103.150	20.203	8.593	0.531
329.000	234.397	79.997	19.997	103.141	20.204	8.529	0.507
329.500	234.673	79.999	19.996	103.134	20.205	8.460	0.495
330.000	234.912	80.003	19.997	103.128	20.204	8.510	0.512
330.500	235.170	79.996	19.999	103.127	20.205	8.402	0.506
331.000	235.437	79.997	20.001	103.133	20.205	8.430	0.511
331.500	235.634	80.002	19.993	103.138	20.205	8.411	0.495
332.000	235.904	80.000	19.996	103.143	20.208	8.207	0.465
332.500	236.174	80.000	19.995	103.148	20.207	8.281	0.503
333.000	236.450	79.997	19.992	103.149	20.204	8.466	0.543
333.500	236.711	79.995	19.998	103.151	20.206	8.344	0.542
334.000	236.939	79.997	20.001	103.151	20.208	8.252	0.513
334.500	237.194	79.999	19.997	103.153	20.207	8.272	0.486
335.000	237.462	79.999	19.995	103.154	20.206	8.367	0.503
335.500	237.713	80.001	19.994	103.154	20.209	8.187	0.521
336.000	237.986	79.999	19.993	103.154	20.206	8.358	0.521
336.500	238.232	79.997	19.994	103.154	20.209	8.182	0.522
337.000	238.503	79.997	19.998	103.156	20.208	8.195	0.518
337.500	238.748	79.999	19.993	103.155	20.209	8.129	0.517
338.000	238.999	80.000	19.994	103.156	20.208	8.236	0.506
338.500	239.228	80.000	19.994	103.156	20.208	8.232	0.487
339.000	239.483	79.998	19.993	103.157	20.208	8.206	0.482
339.500	239.740	79.998	19.995	103.158	20.208	8.200	0.498
340.000	239.975	80.000	19.995	103.159	20.211	8.015	0.502
340.500	240.212	79.998	19.997	103.158	20.208	8.217	0.482
341.000	240.475	79.995	19.992	103.157	20.210	8.117	0.486
341.500	240.709	79.999	19.994	103.158	20.211	8.054	0.499
342.000	240.961	79.999	19.988	103.154	20.209	8.151	0.492
342.500	241.237	80.000	19.994	103.155	20.209	8.125	0.507
343.000	241.454	80.000	19.994	103.155	20.208	8.244	0.511
343.500	241.717	80.000	19.995	103.153	20.213	7.910	0.486
344.000	241.919	80.001	19.994	103.146	20.209	8.142	0.472
344.500	242.234	80.003	19.993	103.143	20.211	8.048	0.491
345.000	242.448	80.005	19.993	103.139	20.210	8.076	0.523
345.500	242.683	80.000	19.992	103.133	20.210	8.057	0.489
346.000	242.988	80.000	19.990	103.132	20.212	7.946	0.495
346.500	243.215	80.000	19.997	103.137	20.208	8.228	0.536
347.000	243.459	80.000	19.994	103.139	20.209	8.176	0.502
347.500	243.751	80.001	19.991	103.143	20.210	8.063	0.504
348.000	243.964	79.999	19.999	103.148	20.210	8.069	0.520
348.500	244.251	79.999	19.992	103.147	20.208	8.193	0.502
349.000	244.458	80.003	19.992	103.145	20.209	8.157	0.497
349.500	244.714	79.998	19.996	103.145	20.210	8.067	0.479
350.000	244.998	80.002	19.991	103.141	20.211	8.015	0.502
350.500	245.223	80.002	19.993	103.140	20.212	7.969	0.524
351.000	245.467	80.001	19.992	103.140	20.209	8.160	0.489
351.500	245.726	79.998	19.999	103.139	20.209	8.151	0.486
352.000	245.990	80.001	19.994	103.140	20.212	7.984	0.513
352.500	246.243	80.001	19.990	103.143	20.209	8.184	0.520
353.000	246.491	80.001	19.993	103.146	20.212	7.963	0.509
353.500	246.735	79.997	20.000	103.150	20.211	8.003	0.496
354.000	246.974	79.998	20.002	103.154	20.212	7.947	0.487
354.500	247.210	79.996	20.001	103.155	20.212	7.958	0.479
355.000	247.470	80.001	19.996	103.149	20.212	7.969	0.485
355.500	247.719	79.999	19.996	103.144	20.210	8.081	0.502
356.000	247.989	79.997	19.999	103.137	20.210	8.087	0.514
356.500	248.232	80.000	19.995	103.136	20.215	7.781	0.516
357.000	248.464	79.995	19.992	103.139	20.214	7.840	0.494
357.500	248.745	79.993	19.998	103.142	20.213	7.920	0.494
358.000	248.996	79.998	19.993	103.143	20.213	7.916	0.523
358.500	249.269	79.999	19.995	103.144	20.212	7.955	0.528
359.000	249.526	80.002	19.991	103.139	20.212	7.936	0.527
359.500	249.717	79.994	19.995	103.136	20.214	7.798	0.489
360.000	249.980	80.000	19.995	103.136	20.214	7.796	0.451
360.500	250.270	79.995	19.993	103.139	20.213	7.908	0.503
361.000	250.506	79.994	19.990	103.145	20.212	7.987	0.539
361.500	250.733	79.998	19.996	103.153	20.213	7.909	0.495
362.000	250.990	79.998	19.993	103.150	20.209	8.155	0.474
362.500	251.241	79.998	19.992	103.145	20.211	8.016	0.496
363.000	251.529	80.000	19.994	103.145	20.213	7.862	0.524
363.500	251.737	79.998	19.994	103.145	20.210	8.062	0.517
364.000	251.978	79.998	19.995	103.144	20.215	7.778	0.472
364.500	252.253	79.996	19.995	103.150	20.212	7.934	0.483
365.000	252.502	80.000	19.994	103.155	20.214	7.808	0.520
365.500	252.737	79.998	19.993	103.150	20.213	7.884	0.504
366.000	252.988	79.997	19.992	103.143	20.212	7.925	0.486
366.500	253.259	79.996	19.993	103.138	20.212	7.974	0.504
367.000	253.509	79.997	19.994	103.137	20.210	8.054	0.521
367.500	253.725	80.000	19.992	103.138	20.209	8.173	0.493
368.000	253.982	79.997	19.995	103.140	20.210	8.101	0.469
368.500	254.237	79.998	19.995	103.142	20.210	8.104	0.493
369.000	254.481	79.996	19.998	103.140	20.209	8.134	0.506
369.500	254.769	79.999	19.987	103.133	20.207	8.269	0.516
370.000	255.003	79.998	19.994	103.127	20.209	8.135	0.527
370.500	255.212	79.999	19.996	103.125	20.209	8.188	0.482
371.000	255.508	80.001	19.993	103.124	20.209	8.132	0.474
371.500	255.752	80.001	19.992	103.129	20.206	8.376	0.523
372.000	255.995	79.996	20.000	103.136	20.207	8.280	0.514
372.500	256.247	79.999	19.994	103.135	20.205	8.401	0.491
373.000	256.471	80.001	19.996	103.135	20.206	8.332	0.485
373.500	256.738	79.996	19.999	103.134	20.207	8.275	0.483
374.000	256.986	80.000	19.992	103.128	20.206	8.384	0.503
374.500	257.235	80.000	19.994	103.125	20.209	8.181	0.506
375.000	257.455	79.997	19.994	103.128	20.206	8.333	0.483
375.500	257.755	80.001	19.993	103.127	20.207	8.293	0.495
376.000	257.976	79.998	19.991	103.129	20.205	8.424	0.520
376.500	258.196	79.997	19.991	103.130	20.207	8.314	0.481
377.000	258.469	79.997	19.995	103.127	20.207	8.266	0.467
377.500	258.749	80.001	19.995	103.122	20.205	8.419	0.523
378.000	258.997	80.001	19.994	103.124	20.205	8.440	0.540
378.500	259.271	79.999	19.994	103.125	20.204	8.479	0.524
379.000	259.500	79.999	19.992	103.132	20.206	8.384	0.512
379.500	259.744	79.999	19.993	103.139	20.204	8.495	0.488
380.000	259.965	79.998	19.993	103.140	20.204	8.502	0.469
380.500	260.223	80.000	19.993	103.138	20.203	8.570	0.472
381.000	260.453	80.000	19.993	103.135	20.204	8.481	0.483
381.500	260.690	79.998	19.994	103.127	20.200	8.748	0.478
382.000	260.926	79.999	19.996	103.121	20.205	8.446	0.470
382.500	261.168	80.001	19.991	103.127	20.204	8.513	0.475
383.000	261.419	79.998	19.996	103.135	20.202	8.602	0.485
383.500	261.646	79.998	19.996	103.141	20.201	8.725	0.485
384.000	261.920	80.003	19.987	103.140	20.205	8.404	0.489
384.500	262.182	79.999	19.989	103.142	20.202	8.658	0.519
385.000	262.431	79.999	19.991	103.141	20.198	8.920	0.524
385.500	262.617	79.996	19.994	103.135	20.203	8.553	0.473
386.000	262.898	80.001	19.990	103.130	20.199	8.858	0.451
386.500	263.155	79.997	19.994	103.133	20.200	8.741	0.502
387.000	263.400	79.996	19.998	103.130	20.203	8.589	0.520
387.500	263.666	80.005	19.987	103.124	20.203	8.579	0.507
388.000	263.873	80.001	19.994	103.127	20.201	8.718	0.492
388.500	264.141	80.000	19.993	103.132	20.201	8.672	0.474
389.000	264.375	79.997	19.995	103.137	20.204	8.475	0.488
389.500	264.662	79.998	19.994	103.138	20.202	8.625	0.512
390.000	264.859	79.997	19.995	103.139	20.200	8.741	0.503
390.500	265.094	79.999	19.993	103.134	20.199	8.844	0.458
391.000	265.375	79.997	19.996	103.131	20.201	8.708	0.474
391.500	265.620	79.998	19.993	103.125	20.199	8.803	0.521
392.000	265.861	79.997	19.998	103.125	20.199	8.838	0.506
392.500	266.129	80.000	19.993	103.126	20.202	8.648	0.498
393.000	266.348	79.998	19.993	103.130	20.198	8.876	0.498
393.500	266.616	79.999	19.995	103.130	20.201	8.682	0.487
394.000	266.845	79.995	19.994	103.132	20.201	8.684	0.492
394.500	267.125	79.997	20.000	103.136	20.200	8.776	0.503
395.000	267.361	80.000	19.996	103.136	20.197	8.940	0.513
395.500	267.561	79.996	19.999	103.136	20.202	8.639	0.476
396.000	267.848	80.001	19.994	103.139	20.200	8.789	0.462
396.500	268.069	79.998	19.998	103.142	20.200	8.782	0.498
397.000	268.303	79.997	19.996	103.144	20.198	8.891	0.482
397.500	268.584	79.996	19.993	103.148	20.198	8.929	0.485
398.000	268.851	79.997	19.996	103.148	20.194	9.166	0.531
398.500	269.108	80.002	19.993	103.144	20.197	8.934	0.536
399.000	269.321	79.995	19.993	103.145	20.199	8.832	0.498
399.500	269.593	79.997	19.997	103.145	20.201	8.706	0.477
400.000	269.840	79.997	19.994	103.142	20.202	8.660	0.501
400.500	270.073	80.001	19.992	103.141	20.198	8.924	0.500
401.000	270.373	80.000	19.995	103.145	20.200	8.742	0.507
401.500	270.620	80.000	19.998	103.140	20.198	8.889	0.540
402.000	270.875	80.002	19.995	103.132	20.198	8.928	0.524
402.500	271.101	80.001	19.993	103.129	20.199	8.816	0.492
403.000	271.388	80.003	19.994	103.127	20.195	9.070	0.497
403.500	271.602	79.997	19.996	103.123	20.196	9.015	0.507
404.000	271.897	79.999	19.996	103.123	20.199	8.859	0.505
404.500	272.113	79.998	19.997	103.129	20.201	8.698	0.510
405.000	272.354	80.002	19.989	103.135	20.196	9.008	0.484
405.500	272.629	80.000	19.993	103.142	20.199	8.867	0.486
406.000	272.833	79.998	19.999	103.149	20.199	8.837	0.498
406.500	273.101	80.002	19.995	103.154	20.199	8.817	0.476
407.000	273.348	80.002	19.995	103.150	20.200	8.791	0.493
407.500	273.606	80.000	19.995	103.145	20.200	8.746	0.510
408.000	273.867	80.001	19.995	103.140	20.198	8.883	0.512
408.500	274.130	79.998	19.994	103.131	20.200	8.794	0.521
409.000	274.356	79.999	19.992	103.126	20.201	8.693	0.507
409.500	274.628	79.997	19.996	103.127	20.197	8.958	0.494
410.000	274.825	80.000	19.994	103.128	20.200	8.736	0.483
410.500	275.105	79.999	19.994	103.130	20.202	8.647	0.473
411.000	275.332	80.000	19.993	103.133	20.203	8.595	0.492
411.500	275.581	80.000	19.994	103.138	20.201	8.692	0.491
412.000	275.820	79.998	19.994	103.142	20.202	8.599	0.482
412.500	276.088	79.999	19.994	103.139	20.200	8.734	0.498
413.000	276.315	79.998	19.994	103.137	20.205	8.424	0.501
413.500	276.599	80.005	19.990	103.140	20.205	8.459	0.503
414.000	276.850	80.000	19.994	103.138	20.206	8.387	0.523
414.500	277.052	79.998	19.994	103.136	20.207	8.272	0.494
415.000	277.318	80.000	19.993	103.139	20.208	8.249	0.460
415.500	277.567	79.999	19.995	103.143	20.205	8.456	0.491
416.000	277.836	79.998	19.995	103.144	20.208	8.258	0.516
416.500	278.088	79.999	19.995	103.146	20.207	8.301	0.520
417.000	278.326	79.999	19.995	103.145	20.207	8.286	0.506
417.500	278.562	79.996	19.998	103.146	20.207	8.311	0.482
418.000	278.842	79.998	19.998	103.145	20.208	8.225	0.495
418.500	279.057	79.997	19.995	103.142	20.204	8.485	0.505
419.000	279.339	79.999	19.994	103.137	20.209	8.188	0.495
419.500	279.563	79.999	19.997	103.134	20.206	8.373	0.502
420.000	279.792	79.999	19.996	103.131	20.208	8.253	0.480
420.500	280.063	80.000	19.992	103.128	20.209	8.138	0.476
421.000	280.298	79.997	19.995	103.130	20.207	8.266	0.503
421.500	280.534	79.998	19.994	103.133	20.209	8.150	0.489
422.000	280.800	80.000	19.992	103.134	20.207	8.315	0.487
422.500	281.048	79.998	19.996	103.135	20.209	8.177	0.508
423.000	281.308	79.993	19.996	103.134	20.209	8.123	0.511
423.500	281.575	79.999	19.992	103.128	20.214	7.785	0.518
424.000	281.830	80.001	19.991	103.124	20.210	8.064	0.525
424.500	282.042	79.997	19.995	103.125	20.213	7.884	0.494
425.000	282.297	79.998	19.999	103.124	20.212	7.986	0.467
425.500	282.585	79.999	20.000	103.125	20.211	8.009	0.505
426.000	282.808	80.000	19.994	103.125	20.213	7.899	0.527
426.500	283.057	79.998	19.990	103.130	20.212	7.922	0.492
427.000	283.308	80.004	19.992	103.137	20.216	7.699	0.486
427.500	283.596	80.000	19.988	103.143	20.213	7.889	0.519
428.000	283.852	80.003	19.991	103.147	20.214	7.822	0.542
428.500	284.105	79.996	19.994	103.149	20.215	7.783	0.527
429.000	284.344	79.996	19.997	103.147	20.215	7.738	0.500
429.500	284.603	80.000	19.992	103.145	20.215	7.749	0.495
430.000	284.838	80.001	19.991	103.142	20.215	7.732	0.496
430.500	285.085	80.001	19.990	103.143	20.215	7.773	0.488
431.000	285.338	79.999	19.998	103.147	20.217	7.639	0.491
431.500	285.590	80.002	19.992	103.146	20.217	7.649	0.502
432.000	285.839	79.995	20.002	103.145	20.223	7.213	0.503
432.500	286.086	80.002	19.993	103.139	20.219	7.495	0.499
433.000	286.334	79.999	19.998	103.133	20.222	7.263	0.496
433.500	286.588	80.005	19.990	103.127	20.220	7.440	0.499
434.000	286.838	80.002	19.990	103.124	20.221	7.368	0.503
434.500	287.093	80.007	19.986	103.120	20.220	7.409	0.504
435.000	287.289	80.001	19.996	103.129	20.218	7.531	0.478
435.500	287.556	80.000	19.994	103.131	20.218	7.524	0.457
436.000	287.790	79.998	19.993	103.131	20.220	7.429	0.482
436.500	288.095	80.001	19.994	103.133	20.224	7.170	0.520
437.000	288.308	79.998	19.994	103.136	20.221	7.333	0.528
437.500	288.622	79.999	19.996	103.134	20.220	7.413	0.523
438.000	288.829	79.996	19.997	103.139	20.222	7.261	0.524
438.500	289.092	79.998	19.995	103.145	20.222	7.298	0.495
439.000	289.319	80.001	19.994	103.146	20.222	7.296	0.480
439.500	289.576	79.998	19.994	103.146	20.223	7.216	0.487
440.000	289.821	80.002	19.992	103.142	20.222	7.292	0.493
440.500	290.064	80.001	19.996	103.136	20.223	7.205	0.495
441.000	290.311	80.000	19.992	103.133	20.221	7.320	0.489
441.500	290.559	79.998	19.996	103.132	20.222	7.307	0.493
442.000	290.834	79.998	19.994	103.133	20.221	7.331	0.509
442.500	291.072	79.998	19.995	103.133	20.226	7.014	0.518
443.000	291.334	79.998	19.994	103.134	20.224	7.112	0.506
443.500	291.623	79.999	19.994	103.131	20.225	7.106	0.526
444.000	291.849	79.997	19.994	103.130	20.229	6.798	0.533
444.500	292.106	79.998	19.994	103.125	20.230	6.726	0.499
445.000	292.353	79.999	19.995	103.123	20.230	6.733	0.494
445.500	292.619	79.999	19.996	103.124	20.229	6.780	0.509
446.000	292.885	79.999	19.999	103.125	20.229	6.833	0.522
446.500	293.121	80.000	19.997	103.126	20.231	6.683	0.517
447.000	293.389	80.000	19.998	103.130	20.230	6.732	0.503
447.500	293.627	80.000	19.990	103.133	20.228	6.864	0.505
448.000	293.862	80.000	19.991	103.134	20.231	6.675	0.490
448.500	294.131	80.000	19.995	103.136	20.231	6.692	0.488
449.000	294.380	79.996	19.996	103.137	20.230	6.733	0.511
449.500	294.663	79.997	19.998	103.132	20.230	6.726	0.525
450.000	294.869	79.998	19.993	103.130	20.229	6.827	0.511
450.500	295.145	79.998	20.000	103.130	20.231	6.688	0.486
451.000	295.376	79.998	19.994	103.129	20.231	6.669	0.494
451.500	295.632	79.999	19.993	103.128	20.230	6.722	0.497
452.000	295.914	80.001	19.990	103.132	20.233	6.540	0.512
452.500	296.138	80.001	19.995	103.134	20.234	6.466	0.522
453.000	296.413	80.002	19.994	103.131	20.231	6.639	0.503
453.500	296.628	79.999	19.994	103.128	20.232	6.596	0.495
454.000	296.892	80.000	19.995	103.127	20.231	6.652	0.484
454.500	297.164	79.996	19.998	103.124	20.232	6.623	0.507
455.000	297.393	79.997	19.995	103.122	20.234	6.496	0.519
455.500	297.645	80.000	19.990	103.121	20.238	6.168	0.491
456.000	297.892	79.996	19.996	103.122	20.235	6.376	0.490
456.500	298.159	80.001	19.991	103.121	20.233	6.550	0.507
457.000	298.403	79.996	19.996	103.121	20.235	6.404	0.513
457.500	298.673	79.998	19.994	103.121	20.234	6.434	0.512
458.000	298.952	80.000	19.992	103.126	20.235	6.430	0.531
458.500	299.174	79.996	19.995	103.132	20.237	6.239	0.525
459.000	299.448	80.006	19.993	103.136	20.237	6.233	0.498
459.500	299.685	80.002	19.990	103.143	20.238	6.175	0.503
460.000	299.936	80.000	19.994	103.150	20.235	6.386	0.500
460.500	300.198	79.998	19.999	103.148	20.238	6.221	0.501
461.000	300.438	79.999	19.996	103.141	20.239	6.112	0.507
461.500	300.695	80.000	19.994	103.137	20.238	6.173	0.499
462.000	300.928	79.997	19.996	103.131	20.236	6.344	0.493
462.500	301.203	79.998	19.997	103.123	20.235	6.381	0.499
463.000	301.479	79.999	19.991	103.118	20.237	6.279	0.530
463.500	301.714	79.999	19.995	103.119	20.236	6.298	0.531
464.000	301.983	79.999	19.993	103.123	20.234	6.458	0.508
464.500	302.234	79.999	19.994	103.129	20.237	6.254	0.512
465.000	302.500	80.000	19.996	103.132	20.238	6.177	0.518
465.500	302.741	79.999	19.990	103.134	20.235	6.418	0.512
466.000	302.961	80.001	19.991	103.135	20.238	6.205	0.485
466.500	303.271	79.999	19.994	103.135	20.237	6.268	0.496
467.000	303.494	79.995	19.995	103.132	20.237	6.256	0.531
467.500	303.758	79.997	19.994	103.132	20.235	6.377	0.510
468.000	304.006	80.002	19.991	103.134	20.236	6.359	0.499
468.500	304.248	79.998	19.995	103.137	20.236	6.344	0.500
469.000	304.511	80.001	19.992	103.135	20.234	6.496	0.497
469.500	304.756	79.998	19.996	103.135	20.235	6.379	0.507
470.000	305.008	79.999	19.993	103.131	20.237	6.255	0.503
470.500	305.264	80.000	19.995	103.129	20.237	6.253	0.503
471.000	305.539	79.994	19.993	103.125	20.235	6.409	0.520
471.500	305.777	79.993	19.993	103.125	20.235	6.411	0.522
472.000	306.026	79.993	19.997	103.124	20.234	6.459	0.500
472.500	306.299	79.997	19.994	103.124	20.236	6.325	0.504
473.000	306.543	79.996	19.996	103.126	20.236	6.299	0.519
473.500	306.809	79.995	20.001	103.128	20.238	6.209	0.513
474.000	307.048	79.997	19.994	103.133	20.234	6.443	0.507
474.500	307.359	79.997	19.994	103.134	20.233	6.513	0.528
475.000	307.593	79.998	19.994	103.138	20.232	6.578	0.548
475.500	307.868	79.997	19.998	103.137	20.233	6.511	0.527
476.000	308.085	79.999	19.991	103.134	20.233	6.559	0.500
476.500	308.284	79.999	19.994	103.130	20.233	6.552	0.454
477.000	308.561	80.000	19.992	103.128	20.235	6.414	0.447
477.500	308.777	79.994	19.998	103.125	20.234	6.498	0.484
478.000	309.035	80.000	19.995	103.123	20.236	6.362	0.483
478.500	309.331	80.000	19.994	103.125	20.234	6.446	0.514
479.000	309.603	79.999	19.992	103.125	20.239	6.140	0.561
479.500	309.837	79.998	19.991	103.124	20.234	6.442	0.537
480.000	310.087	80.000	19.994	103.125	20.234	6.464	0.495
480.500	310.322	80.003	19.996	103.127	20.236	6.351	0.484
481.000	310.576	79.998	19.996	103.127	20.236	6.355	0.487
481.500	310.811	79.995	19.999	103.127	20.235	6.368	0.490
482.000	311.079	79.998	19.993	103.125	20.233	6.512	0.496
482.500	311.364	79.998	19.998	103.125	20.238	6.173	0.528
483.000	311.623	79.996	19.991	103.124	20.233	6.548	0.548
483.500	311.869	80.000	19.991	103.127	20.237	6.256	0.524
484.000	312.121	80.003	19.993	103.129	20.234	6.470	0.501
484.500	312.373	79.996	19.998	103.134	20.234	6.492	0.501
485.000	312.601	79.994	19.997	103.135	20.232	6.626	0.492
485.500	312.889	79.997	19.991	103.137	20.234	6.453	0.498
486.000	313.125	80.002	19.988	103.133	20.235	6.394	0.520
486.500	313.378	80.001	19.997	103.132	20.235	6.422	0.507
487.000	313.582	79.996	19.998	103.128	20.232	6.618	0.473
487.500	313.841	80.003	19.995	103.125	20.232	6.570	0.460
488.000	314.142	79.997	19.992	103.123	20.231	6.644	0.512
488.500	314.370	79.999	19.992	103.122	20.232	6.568	0.545
489.000	314.612	79.997	19.990	103.121	20.230	6.759	0.499
489.500	314.869	79.998	19.994	103.122	20.233	6.542	0.484
490.000	315.081	79.997	19.996	103.123	20.232	6.594	0.484
490.500	315.365	80.000	19.994	103.123	20.229	6.791	0.482
491.000	315.583	79.998	19.994	103.123	20.230	6.720	0.499
491.500	315.842	80.002	19.996	103.122	20.227	6.905	0.489
492.000	316.120	80.001	19.996	103.122	20.230	6.746	0.508
492.500	316.389	80.000	19.992	103.122	20.230	6.727	0.542
493.000	316.596	80.006	19.993	103.122	20.231	6.649	0.511
493.500	316.875	80.006	19.992	103.122	20.229	6.833	0.481
494.000	317.086	80.005	19.993	103.123	20.228	6.865	0.488
494.500	317.383	80.005	19.995	103.122	20.228	6.863	0.499
495.000	317.629	80.001	19.996	103.121	20.228	6.869	0.525
495.500	317.861	80.003	19.991	103.120	20.231	6.670	0.511
496.000	318.125	79.999	19.994	103.122	20.230	6.720	0.487
496.500	318.354	80.007	19.991	103.122	20.226	7.002	0.494
497.000	318.616	80.000	19.993	103.123	20.227	6.961	0.492
497.500	318.833	80.000	19.995	103.123	20.226	7.013	0.485
498.000	319.098	80.000	19.993	103.123	20.229	6.793	0.480
498.500	319.359	80.001	19.995	103.122	20.227	6.960	0.504
499.000	319.606	79.998	19.994	103.120	20.228	6.878	0.517
499.500	319.824	79.999	19.995	103.119	20.224	7.125	0.487
500.000	320.119	79.999	19.988	103.119	20.225	7.087	0.489
500.500	320.336	79.997	19.997	103.120	20.224	7.143	0.512
501.000	320.583	79.997	19.994	103.119	20.226	6.993	0.488
501.500	320.855	80.000	19.988	103.119	20.226	7.030	0.492
502.000	321.057	79.998	20.001	103.121	20.224	7.121	0.496
502.500	321.305	79.999	19.998	103.118	20.224	7.141	0.462
503.000	321.602	80.002	19.991	103.116	20.224	7.154	0.498
503.500	321.851	80.000	19.995	103.117	20.220	7.407	0.545
504.000	322.080	80.004	19.993	103.117	20.220	7.392	0.512
504.500	322.315	79.997	19.990	103.116	20.221	7.312	0.471
505.000	322.583	79.997	19.997	103.119	20.220	7.408	0.483
505.500	322.771	80.000	19.993	103.120	20.217	7.597	0.480
506.000	323.058	80.002	19.997	103.121	20.221	7.369	0.466
506.500	323.278	80.001	19.995	103.121	20.218	7.578	0.491
507.000	323.561	79.998	19.997	103.121	20.218	7.514	0.505
507.500	323.752	80.000	19.996	103.119	20.217	7.601	0.489
508.000	324.018	80.003	19.991	103.120	20.217	7.607	0.466
508.500	324.276	80.005	19.990	103.123	20.219	7.458	0.490
509.000	324.534	79.998	19.997	103.123	20.215	7.722	0.520
509.500	324.782	80.003	19.995	103.123	20.215	7.742	0.511
510.000	325.025	80.000	19.996	103.123	20.214	7.790	0.498
510.500	325.262	80.001	19.995	103.124	20.215	7.751	0.485
511.000	325.520	80.001	19.994	103.119	20.212	7.928	0.488
511.500	325.748	79.998	19.994	103.118	20.211	8.007	0.491
512.000	326.037	80.005	19.996	103.119	20.214	7.796	0.502
512.500	326.270	79.999	19.993	103.120	20.211	8.045	0.519
513.000	326.491	80.000	19.996	103.119	20.215	7.757	0.488
513.500	326.740	80.001	19.993	103.120	20.212	7.973	0.462
514.000	326.980	80.002	19.995	103.121	20.212	7.964	0.480
514.500	327.242	79.998	19.997	103.120	20.212	7.978	0.496
515.000	327.483	79.997	20.000	103.119	20.211	8.034	0.502
515.500	327.723	79.998	19.998	103.115	20.207	8.275	0.492
516.000	327.970	79.996	20.001	103.115	20.209	8.179	0.484
516.500	328.243	79.997	19.998	103.113	20.210	8.054	0.504
517.000	328.457	79.999	19.996	103.111	20.210	8.060	0.504
517.500	328.684	79.998	19.994	103.110	20.207	8.316	0.464
518.000	328.955	80.000	19.993	103.112	20.207	8.280	0.470
518.500	329.174	79.999	19.994	103.113	20.204	8.487	0.494
519.000	329.416	79.998	19.996	103.114	20.204	8.474	0.475
519.500	329.672	79.996	19.998	103.115	20.204	8.491	0.479
520.000	329.926	79.996	19.995	103.116	20.209	8.176	0.504
520.500	330.183	79.996	19.997	103.116	20.207	8.302	0.510
521.000	330.408	79.996	19.996	103.116	20.205	8.460	0.496
521.500	330.670	79.998	19.994	103.116	20.210	8.078	0.484
522.000	330.889	79.997	19.995	103.117	20.205	8.418	0.484
522.500	331.133	79.998	19.995	103.117	20.204	8.473	0.472
523.000	331.390	79.999	19.994	103.117	20.205	8.460	0.482
523.500	331.670	80.001	19.991	103.118	20.202	8.633	0.519
524.000	331.867	79.995	19.997	103.122	20.203	8.558	0.507
524.500	332.134	79.997	19.995	103.125	20.205	8.405	0.471
525.000	332.395	79.999	19.995	103.126	20.204	8.464	0.496
525.500	332.616	79.997	19.992	103.126	20.203	8.542	0.505
526.000	332.872	79.997	19.993	103.126	20.204	8.487	0.479
526.500	333.105	79.999	19.994	103.123	20.202	8.609	0.483
527.000	333.373	79.996	19.993	103.123	20.202	8.621	0.495
527.500	333.626	80.001	19.993	103.125	20.203	8.564	0.510
528.000	333.847	79.999	19.994	103.125	20.200	8.794	0.497
528.500	334.117	79.995	19.997	103.129	20.199	8.825	0.483
529.000	334.386	79.996	19.996	103.134	20.201	8.669	0.516
529.500	334.642	79.999	19.990	103.132	20.199	8.843	0.532
530.000	334.897	79.996	19.995	103.132	20.198	8.928	0.517
530.500	335.178	79.998	19.992	103.133	20.197	8.989	0.524
531.000	335.381	80.000	19.992	103.137	20.195	9.086	0.510
531.500	335.627	80.005	19.991	103.135	20.197	8.978	0.466
532.000	335.856	80.000	19.996	103.137	20.196	9.041	0.462
532.500	336.094	79.996	19.992	103.139	20.198	8.932	0.471
533.000	336.334	79.998	19.996	103.145	20.197	8.949	0.472
533.500	336.610	79.999	19.994	103.144	20.196	9.010	0.497
534.000	336.862	80.001	19.995	103.142	20.195	9.090	0.522
534.500	337.098	79.996	19.994	103.140	20.194	9.164	0.508
535.000	337.371	80.000	19.995	103.136	20.193	9.244	0.498
535.500	337.613	80.000	19.994	103.128	20.192	9.304	0.512
536.000	337.872	80.001	19.992	103.122	20.190	9.458	0.508
536.500	338.066	79.994	19.997	103.123	20.189	9.511	0.478
537.000	338.349	79.999	19.992	103.124	20.190	9.448	0.465
537.500	338.592	79.999	19.992	103.126	20.190	9.437	0.501
538.000	338.889	79.991	19.992	103.132	20.186	9.720	0.532
538.500	339.110	79.997	19.995	103.138	20.188	9.589	0.529
539.000	339.381	79.999	19.997	103.135	20.187	9.665	0.505
539.500	339.631	79.993	19.990	103.134	20.186	9.695	0.507
540.000	339.854	79.999	19.995	103.133	20.184	9.844	0.498
540.500	340.096	80.000	19.996	103.127	20.185	9.809	0.469
541.000	340.370	79.999	19.987	103.122	20.184	9.814	0.490
541.500	340.630	80.000	19.993	103.123	20.184	9.875	0.525
542.000	340.864	79.995	19.994	103.124	20.182	9.991	0.514
542.500	341.141	79.999	19.992	103.123	20.183	9.923	0.502
543.000	341.368	79.997	19.993	103.124	20.179	10.177	0.507
543.500	341.588	79.997	19.992	103.124	20.178	10.240	0.475
544.000	341.860	79.998	19.993	103.123	20.177	10.345	0.470
544.500	342.098	79.999	19.994	103.124	20.174	10.532	0.501
545.000	342.352	80.002	19.993	103.126	20.177	10.300	0.501
545.500	342.587	79.999	19.994	103.129	20.178	10.287	0.491
546.000	342.893	79.999	19.995	103.129	20.177	10.313	0.514
546.500	343.090	79.998	19.995	103.129	20.174	10.558	0.522
547.000	343.339	79.995	19.994	103.130	20.173	10.575	0.475
547.500	343.584	79.996	19.994	103.128	20.172	10.669	0.470
548.000	343.847	79.996	19.994	103.122	20.168	10.914	0.501
548.500	344.035	79.994	19.996	103.122	20.171	10.755	0.479
549.000	344.323	79.994	19.994	103.121	20.168	10.958	0.463
549.500	344.580	80.002	19.992	103.122	20.169	10.886	0.511
550.000	344.813	79.998	19.994	103.126	20.165	11.103	0.517
550.500	345.062	79.998	19.993	103.130	20.167	10.986	0.486
551.000	345.290	79.995	19.994	103.131	20.164	11.221	0.479
551.500	345.595	79.997	19.993	103.133	20.165	11.121	0.505
552.000	345.839	79.998	19.994	103.133	20.164	11.230	0.541
552.500	346.051	79.996	19.996	103.132	20.159	11.568	0.503
553.000	346.339	79.997	19.993	103.135	20.161	11.417	0.478
553.500	346.586	79.998	19.998	103.141	20.158	11.599	0.518
554.000	346.887	80.003	19.989	103.140	20.160	11.438	0.541
554.500	347.091	80.000	19.995	103.140	20.157	11.682	0.526
555.000	347.336	79.996	19.996	103.137	20.157	11.661	0.477
555.500	347.586	79.997	19.993	103.132	20.158	11.582	0.472
556.000	347.842	79.997	19.992	103.132	20.153	11.935	0.500
556.500	348.096	79.997	19.997	103.151	20.153	11.924	0.508
557.000	348.385	79.997	19.994	103.171	20.155	11.780	0.527
557.500	348.602	79.995	19.997	103.183	20.150	12.127	0.525
558.000	348.874	79.997	19.994	103.187	20.150	12.151	0.497
558.500	349.094	79.997	19.994	103.184	20.148	12.308	0.490
559.000	349.357	79.993	19.998	103.163	20.146	12.425	0.487
559.500	349.650	79.996	19.999	103.135	20.147	12.323	0.519
560.000	349.856	80.004	19.992	103.119	20.144	12.526	0.528
560.500	350.146	79.999	19.994	103.112	20.144	12.553	0.498
561.000	350.434	80.002	19.990	103.107	20.143	12.630	0.537
561.500	350.675	79.998	19.996	103.110	20.142	12.687	0.554
562.000	350.861	79.999	19.994	103.115	20.138	12.932	0.478
562.500	351.170	80.001	19.993	103.119	20.138	12.975	0.461
563.000	351.439	79.999	19.993	103.120	20.135	13.177	0.536
563.500	351.684	79.999	19.993	103.122	20.133	13.298	0.546
564.000	351.946	79.999	19.994	103.127	20.131	13.404	0.510
564.500	352.221	80.000	19.995	103.132	20.131	13.427	0.522
565.000	352.502	80.000	19.994	103.139	20.130	13.508	0.547
565.500	352.722	80.000	19.994	103.146	20.129	13.558	0.529
566.000	352.995	79.999	19.994	103.151	20.126	13.777	0.497
566.500	353.268	79.999	19.994	103.149	20.126	13.780	0.519
567.000	353.502	80.001	19.993	103.150	20.126	13.773	0.526
567.500	353.748	80.000	19.993	103.147	20.127	13.699	0.493
568.000	354.054	80.000	19.993	103.143	20.120	14.143	0.516
568.500	354.297	79.999	19.995	103.138	20.121	14.079	0.551
569.000	354.582	80.001	19.994	103.139	20.122	14.025	0.539
569.500	354.838	80.000	19.993	103.135	20.119	14.261	0.534
570.000	355.096	79.998	19.993	103.132	20.118	14.290	0.527
570.500	355.345	80.002	19.994	103.136	20.119	14.241	0.511
571.000	355.598	79.999	19.994	103.140	20.116	14.469	0.505
571.500	355.858	79.999	19.993	103.137	20.113	14.632	0.507
572.000	356.130	79.999	19.994	103.140	20.111	14.762	0.522
572.500	356.385	80.001	19.993	103.140	20.110	14.833	0.529
573.000	356.631	79.998	19.993	103.138	20.107	15.042	0.514
573.500	356.887	80.001	19.995	103.136	20.106	15.138	0.502
574.000	357.167	79.998	19.994	103.135	20.105	15.181	0.519
574.500	357.449	79.998	19.994	103.136	20.106	15.094	0.549
575.000	357.687	80.001	19.996	103.142	20.104	15.274	0.541
575.500	357.989	80.000	19.994	103.144	20.105	15.196	0.530
576.000	358.204	79.998	19.995	103.146	20.103	15.347	0.529
576.500	358.472	79.999	19.995	103.152	20.099	15.592	0.500
577.000	358.716	80.000	19.993	103.154	20.097	15.707	0.498
577.500	358.956	79.999	19.995	103.154	20.096	15.821	0.498
578.000	359.254	79.997	19.996	103.155	20.096	15.820	0.511
578.500	359.498	79.999	19.995	103.156	20.091	16.129	0.539
579.000	359.747	79.997	19.993	103.156	20.092	16.077	0.517
579.500	360.038	80.000	19.994	103.155	20.090	16.233	0.517
580.000	360.283	80.000	19.993	103.153	20.088	16.318	0.538
580.500	360.548	79.999	19.994	103.152	20.087	16.380	0.523
581.000	360.833	79.998	19.995	103.147	20.081	16.815	0.530
581.500	361.095	79.999	19.993	103.139	20.079	16.956	0.549
582.000	361.382	79.999	19.993	103.137	20.078	17.022	0.548
582.500	361.630	80.000	19.993	103.138	20.075	17.189	0.541
583.000	361.891	79.998	19.994	103.139	20.075	17.197	0.522
583.500	362.161	79.999	19.995	103.145	20.070	17.544	0.520
584.000	362.401	80.001	19.994	103.150	20.072	17.427	0.521
584.500	362.670	79.999	19.994	103.149	20.067	17.724	0.510
585.000	362.953	79.999	19.995	103.150	20.067	17.771	0.531
585.500	363.217	79.999	19.994	103.150	20.067	17.755	0.550
586.000	363.440	79.999	19.994	103.149	20.066	17.818	0.517
586.500	363.695	80.000	19.994	103.153	20.062	18.107	0.482
587.000	364.005	80.001	19.994	103.157	20.062	18.079	0.521
587.500	364.256	79.999	19.995	103.156	20.060	18.263	0.563
588.000	364.536	80.001	19.993	103.157	20.055	18.587	0.546
588.500	364.767	80.000	19.994	103.157	20.054	18.639	0.521
589.000	365.080	80.000	19.994	103.156	20.054	18.647	0.528
589.500	365.320	79.999	19.994	103.156	20.052	18.782	0.549
590.000	365.597	80.000	19.994	103.157	20.048	19.010	0.535
590.500	365.842	80.000	19.994	103.157	20.046	19.197	0.519
591.000	366.108	80.000	19.994	103.155	20.045	19.262	0.517
591.500	366.364	80.000	19.995	103.150	20.041	19.542	0.517
592.000	366.619	80.004	19.991	103.143	20.039	19.645	0.516
592.500	366.877	79.999	19.995	103.142	20.037	19.769	0.512
593.000	367.161	79.997	19.996	103.136	20.033	20.033	0.528
593.500	367.417	79.999	19.994	103.135	20.033	20.091	0.541
594.000	367.715	80.000	19.993	103.140	20.031	20.187	0.547
594.500	367.896	79.997	19.995	103.142	20.026	20.529	0.516
595.000	368.226	80.001	19.994	103.139	20.025	20.572	0.494
595.500	368.469	79.999	19.993	103.142	20.020	20.956	0.542
596.000	368.700	79.999	19.994	103.144	20.019	21.018	0.524
596.500	368.977	79.999	19.993	103.146	20.018	21.049	0.491
597.000	369.210	80.001	19.997	103.150	20.015	21.289	0.509
597.500	369.516	79.995	19.994	103.154	20.015	21.258	0.524
598.000	369.753	80.001	19.998	103.156	20.010	21.595	0.541
598.500	370.033	79.997	19.996	103.154	20.010	21.646	0.530
599.000	370.280	79.999	19.990	103.152	20.006	21.869	0.522
599.500	370.565	79.998	19.995	103.153	20.003	22.064	0.529
600.000	370.827	80.000	19.995	103.153	20.001	22.195	0.539
600.500	371.084	80.002	19.990	103.151	20.002	22.167	0.533
601.000	371.307	80.002	19.996	103.150	19.997	22.524	0.500
601.500	371.615	79.997	19.996	103.151	19.992	22.802	0.506
602.000	371.844	80.001	19.994	103.150	19.990	22.978	0.534
602.500	372.150	79.998	19.991	103.149	19.988	23.082	0.536
603.000	372.404	79.996	19.993	103.152	19.985	23.303	0.548
603.500	372.655	79.997	19.996	103.153	19.984	23.379	0.532
604.000	372.916	79.998	19.997	103.153	19.981	23.552	0.509
604.500	373.187	79.994	19.997	103.153	19.976	23.941	0.523
605.000	373.483	79.997	19.990	103.153	19.975	24.014	0.550
605.500	373.714	79.996	19.994	103.155	19.972	24.205	0.547
606.000	373.967	79.997	19.995	103.158	19.969	24.384	0.506
606.500	374.184	79.997	19.994	103.158	19.965	24.642	0.477
607.000	374.506	79.998	19.997	103.159	19.962	24.846	0.505
607.500	374.714	79.995	19.995	103.159	19.962	24.848	0.534
608.000	375.010	79.998	19.993	103.159	19.957	25.195	0.517
608.500	375.240	79.996	19.997	103.161	19.952	25.525	0.515
609.000	375.525	79.997	19.995	103.160	19.951	25.628	0.520
609.500	375.757	79.998	19.996	103.161	19.945	25.999	0.516
610.000	376.029	79.998	19.995	103.164	19.945	26.038	0.511
610.500	376.309	79.998	19.996	103.163	19.938	26.493	0.528
611.000	376.536	79.995	19.998	103.161	19.936	26.608	0.529
611.500	376.806	79.993	19.997	103.159	19.932	26.879	0.502
612.000	377.049	79.997	19.997	103.154	19.929	27.081	0.505
612.500	377.305	80.000	19.993	103.151	19.927	27.210	0.506
613.000	377.601	79.996	19.995	103.151	19.925	27.350	0.525
613.500	377.780	79.995	19.994	103.152	19.923	27.501	0.514
614.000	378.106	79.996	19.995	103.153	19.916	28.004	0.491
614.500	378.312	79.995	19.994	103.158	19.922	27.595	0.519
615.000	378.620	79.997	19.991	103.160	19.905	28.731	0.523
615.500	378.843	79.996	19.993	103.160	19.897	29.250	0.522
616.000	379.058	79.996	19.995	103.160	19.905	28.704	0.485
616.500	379.362	80.005	19.990	103.161	19.907	28.576	0.479
617.000	379.572	80.002	19.991	103.169	19.901	29.015	0.517
617.500	379.880	79.998	19.997	103.173	19.889	29.787	0.516
618.000	380.129	79.999	19.993	103.173	19.882	30.271	0.537
618.500	380.377	79.999	19.993	103.171	19.887	29.910	0.527
619.000	380.643	80.001	19.990	103.169	19.887	29.943	0.506
619.500	380.877	79.997	19.997	103.163	19.874	30.797	0.507
620.000	381.155	80.001	19.989	103.157	19.876	30.694	0.506
620.500	381.393	79.995	20.000	103.158	19.859	31.824	0.514
621.000	381.575	79.994	20.001	103.158	19.864	31.523	0.468
621.500	381.918	80.000	19.992	103.158	19.862	31.657	0.473
622.000	382.097	80.001	19.993	103.157	19.858	31.930	0.524
622.500	382.376	80.000	19.992	103.158	19.853	32.243	0.490
623.000	382.630	79.999	19.995	103.157	19.845	32.758	0.495
623.500	382.868	79.999	19.994	103.159	19.843	32.905	0.512
624.000	383.226	79.998	19.993	103.164	19.840	33.078	0.544
624.500	383.321	79.999	19.994	103.165	19.834	33.498	0.525
625.000	383.615	79.999	19.995	103.165	19.828	33.940	0.421
625.500	383.924	80.000	19.994	103.169	19.827	33.984	0.496
626.000	384.216	79.995	19.995	103.171	19.822	34.299	0.602
626.500	384.417	79.996	19.995	103.169	19.817	34.648	0.547
627.000	384.694	79.992	19.994	103.168	19.810	35.154	0.486
627.500	384.980	79.997	19.996	103.167	19.809	35.231	0.520
628.000	385.196	80.003	19.991	103.163	19.801	35.761	0.532
628.500	385.448	79.995	19.999	103.163	19.795	36.137	0.485
629.000	385.540	80.000	19.994	103.162	19.791	36.445	0.406
629.500	385.698	79.997	19.994	103.164	19.786	36.761	0.297
630.000	385.894	79.998	19.994	103.168	19.782	37.046	0.302
630.500	386.489	79.999	19.996	103.176	19.778	37.338	0.572
631.000	386.835	79.996	19.994	103.180	19.772	37.734	0.866
631.500	387.092	80.000	19.992	103.185	19.766	38.114	0.772
632.000	386.976	79.999	19.995	103.188	19.761	38.489	0.372
632.500	387.295	79.998	19.993	103.185	19.755	38.870	0.172
633.000	387.720	79.999	19.994	103.177	19.751	39.143	0.473
633.500	388.084	79.996	19.994	103.171	19.746	39.510	0.767
634.000	388.158	79.998	19.995	103.166	19.740	39.903	0.614
634.500	388.338	79.997	19.993	103.162	19.738	40.039	0.346
635.000	388.676	79.997	19.995	103.163	19.731	40.496	0.386
635.500	388.950	79.997	19.994	103.166	19.720	41.225	0.565
636.000	389.208	79.999	19.994	103.170	19.719	41.286	0.572
636.500	389.516	79.999	19.994	103.175	19.712	41.812	0.549
637.000	389.675	79.997	19.993	103.178	19.707	42.129	0.516
637.500	389.878	79.998	19.994	103.185	19.702	42.452	0.414
638.000	390.263	79.999	19.991	103.189	19.692	43.122	0.475
638.500	390.328	79.997	19.996	103.191	19.689	43.326	0.519
639.000	390.741	79.998	19.994	103.192	19.681	43.868	0.464
639.500	390.955	79.998	19.995	103.196	19.674	44.325	0.553
640.000	391.173	79.999	19.995	103.196	19.667	44.808	0.529
640.500	391.480	79.998	19.993	103.196	19.664	45.026	0.478
641.000	391.682	79.999	19.995	103.199	19.655	45.617	0.517
641.500	391.959	79.998	19.995	103.200	19.650	46.009	0.495
642.000	392.175	79.999	19.994	103.200	19.643	46.442	0.486
642.500	392.407	79.998	19.994	103.199	19.639	46.723	0.470
643.000	392.701	80.000	19.994	103.199	19.628	47.474	0.487
643.500	392.986	79.999	19.995	103.196	19.624	47.719	0.553
644.000	393.200	79.999	19.994	103.196	19.616	48.268	0.539
644.500	393.547	80.000	19.992	103.199	19.611	48.608	0.530
645.000	393.786	79.999	19.995	103.202	19.604	49.082	0.573
645.500	394.004	79.998	19.996	103.203	19.599	49.412	0.521
646.000	394.317	80.001	19.993	103.204	19.591	50.014	0.494
646.500	394.500	79.999	19.994	103.210	19.585	50.397	0.514
647.000	394.802	80.000	19.995	103.211	19.576	50.964	0.490
647.500	395.069	79.999	19.996	103.211	19.570	51.382	0.527
648.000	395.335	80.002	19.992	103.210	19.562	51.938	0.551
648.500	395.567	80.002	19.994	103.211	19.555	52.450	0.516
649.000	395.877	79.999	19.994	103.205	19.546	53.012	0.520
649.500	396.078	80.000	19.996	103.204	19.540	53.452	0.526
650.000	396.387	80.000	19.995	103.207	19.533	53.901	0.511
650.500	396.611	80.000	19.996	103.214	19.525	54.418	0.522
651.000	396.906	79.999	19.996	103.218	19.519	54.845	0.526
651.500	397.157	80.000	19.994	103.222	19.512	55.304	0.532
652.000	397.435	80.001	19.994	103.224	19.503	55.957	0.538
652.500	397.741	80.000	19.995	103.224	19.494	56.574	0.557
653.000	397.941	80.000	19.996	103.224	19.487	57.052	0.545
653.500	398.246	80.000	19.994	103.221	19.477	57.726	0.505
654.000	398.485	80.000	19.995	103.224	19.470	58.179	0.524
654.500	398.759	80.000	19.994	103.223	19.459	58.892	0.529
655.000	399.016	79.999	19.992	103.226	19.454	59.253	0.522
655.500	399.270	79.998	19.995	103.227	19.446	59.820	0.521
656.000	399.521	80.000	19.994	103.231	19.436	60.492	0.508
656.500	399.826	79.999	19.993	103.230	19.431	60.807	0.530
657.000	400.066	80.000	19.995	103.234	19.419	61.641	0.550
657.500	400.365	80.000	19.990	103.234	19.412	62.126	0.542
658.000	400.629	79.999	19.993	103.236	19.402	62.782	0.552
658.500	400.906	79.999	19.995	103.237	19.390	63.615	0.552
659.000	401.185	80.000	19.994	103.237	19.382	64.127	0.548
659.500	401.442	79.998	19.995	103.237	19.374	64.678	0.546
660.000	401.734	79.999	19.996	103.237	19.366	65.195	0.542
660.500	401.974	79.999	19.993	103.237	19.358	65.759	0.540
661.000	402.286	80.001	19.993	103.237	19.348	66.412	0.542
661.500	402.546	79.999	19.994	103.237	19.337	67.213	0.562
662.000	402.777	79.998	19.994	103.238	19.328	67.770	0.531
662.500	403.077	79.996	19.995	103.238	19.321	68.287	0.511
663.000	403.355	79.996	19.994	103.237	19.310	69.017	0.554
663.500	403.597	80.002	19.991	103.237	19.300	69.669	0.549
664.000	403.873	80.002	19.997	103.237	19.289	70.408	0.520
664.500	404.153	79.996	19.994	103.237	19.278	71.175	0.537
665.000	404.466	79.998	19.996	103.237	19.271	71.670	0.574
665.500	404.721	79.999	19.997	103.237	19.261	72.310	0.581
666.000	404.978	80.002	19.992	103.235	19.250	73.098	0.540
666.500	405.279	79.999	19.995	103.235	19.240	73.769	0.535
667.000	405.505	79.999	19.994	103.242	19.233	74.242	0.543
667.500	405.791	79.999	19.995	103.243	19.221	75.036	0.520
668.000	406.033	79.999	19.995	103.242	19.214	75.502	0.521
668.500	406.305	80.001	19.994	103.244	19.202	76.292	0.521
669.000	406.590	79.999	19.996	103.243	19.190	77.137	0.535
669.500	406.874	80.000	19.993	103.238	19.182	77.643	0.563
670.000	407.123	80.000	19.995	103.240	19.172	78.339	0.551
670.500	407.400	80.000	19.994	103.248	19.164	78.862	0.529
671.000	407.709	80.001	19.993	103.250	19.154	79.550	0.556
671.500	407.961	80.002	19.997	103.252	19.142	80.359	0.573
672.000	408.238	80.000	19.996	103.256	19.134	80.935	0.545
672.500	408.509	80.000	19.993	103.256	19.125	81.530	0.539
673.000	408.784	80.001	19.994	103.249	19.114	82.282	0.547
673.500	409.068	80.000	19.993	103.248	19.103	83.043	0.552
674.000	409.304	80.000	19.995	103.247	19.090	83.874	0.539
674.500	409.580	80.001	19.996	103.242	19.084	84.301	0.516
675.000	409.869	80.001	19.994	103.239	19.071	85.204	0.539
675.500	410.122	79.999	19.992	103.242	19.066	85.524	0.553
676.000	410.401	79.998	19.995	103.243	19.052	86.467	0.537
676.500	410.680	80.000	19.997	103.244	19.042	87.133	0.545
677.000	410.949	80.001	19.995	103.250	19.036	87.597	0.553
677.500	411.231	79.999	19.995	103.255	19.024	88.388	0.550
678.000	411.521	79.999	19.995	103.255	19.014	89.037	0.562
678.500	411.769	79.997	19.997	103.256	19.003	89.802	0.555
679.000	412.029	79.999	19.996	103.257	18.993	90.473	0.523
679.500	412.281	79.999	19.994	103.256	18.983	91.175	0.510
680.000	412.578	80.000	19.995	103.252	18.977	91.532	0.531
680.500	412.845	79.999	19.995	103.252	18.966	92.330	0.556
681.000	413.126	79.998	19.994	103.253	18.961	92.631	0.556
681.500	413.411	79.998	19.994	103.249	18.951	93.345	0.557
682.000	413.632	80.000	19.995	103.248	18.941	93.999	0.536
682.500	413.923	79.998	19.996	103.249	18.934	94.437	0.510
683.000	414.191	80.000	19.991	103.252	18.926	94.983	0.535
683.500	414.417	80.001	19.994	103.255	18.917	95.612	0.526
684.000	414.707	80.005	19.992	103.261	18.910	96.116	0.505
684.500	414.962	79.996	19.998	103.263	18.902	96.640	0.531
685.000	415.220	79.998	19.997	103.261	18.891	97.372	0.529
685.500	415.503	79.999	19.997	103.261	18.885	97.766	0.527
686.000	415.782	80.004	19.992	103.260	18.879	98.190	0.552
686.500	416.059	80.001	19.995	103.261	18.871	98.726	0.559
687.000	416.277	79.997	19.996	103.264	18.865	99.151	0.525
687.500	416.570	79.999	19.995	103.270	18.857	99.670	0.504
688.000	416.861	79.998	19.994	103.272	18.853	99.968	0.548
688.500	417.126	79.999	19.995	103.273	18.846	100.394	0.570
689.000	417.369	79.997	19.994	103.272	18.840	100.821	0.532
689.500	417.667	79.999	19.994	103.271	18.834	101.230	0.525
690.000	417.928	79.998	19.997	103.269	18.831	101.464	0.550
690.500	418.145	79.999	19.993	103.265	18.822	102.028	0.518
691.000	418.475	80.001	19.994	103.267	18.819	102.239	0.512
691.500	418.721	79.998	19.996	103.266	18.814	102.600	0.562
692.000	418.992	79.993	19.995	103.266	18.808	102.958	0.546
692.500	419.248	79.994	19.994	103.266	18.806	103.094	0.522
693.000	419.513	79.999	19.993	103.265	18.798	103.636	0.524
693.500	419.774	79.998	19.994	103.262	18.799	103.619	0.523
694.000	420.059	79.994	19.997	103.260	18.797	103.704	0.536
694.500	420.296	79.996	19.997	103.261	18.788	104.344	0.535
695.000	420.578	80.001	19.996	103.261	18.785	104.518	0.521
695.500	420.859	79.996	19.997	103.264	18.783	104.656	0.541
696.000	421.094	79.998	19.994	103.263	18.780	104.898	0.540
696.500	421.379	79.995	19.997	103.260	18.779	104.916	0.518
697.000	421.642	79.994	19.995	103.256	18.775	105.247	0.534
697.500	421.848	79.998	19.992	103.255	18.776	105.129	0.509
698.000	422.169	80.002	19.991	103.255	18.774	105.269	0.498
698.500	422.403	79.995	19.989	103.255	18.774	105.280	0.541
699.000	422.693	79.997	19.989	103.262	18.774	105.271	0.539
699.500	422.903	79.997	19.998	103.267	18.774	105.289	0.512
700.000	423.235	80.000	19.992	103.268	18.776	105.125	0.521
700.500	423.470	79.997	19.996	103.272	18.777	105.041	0.554
701.000	423.772	80.002	19.993	103.274	18.780	104.884	0.552
701.500	424.023	80.002	19.990	103.273	18.781	104.765	0.545
702.000	424.249	79.999	20.000	103.269	18.782	104.705	0.515
702.500	424.537	79.997	19.993	103.263	18.787	104.387	0.495
703.000	424.769	80.000	19.995	103.261	18.789	104.225	0.517
703.500	425.092	79.999	19.998	103.255	18.792	104.044	0.537
704.000	425.318	79.998	19.998	103.248	18.796	103.751	0.552
704.500	425.581	79.999	19.996	103.247	18.799	103.599	0.519
705.000	425.861	79.999	19.995	103.253	18.805	103.153	0.516
705.500	426.100	80.000	19.995	103.248	18.806	103.063	0.531
706.000	426.394	79.993	19.999	103.249	18.815	102.518	0.526
706.500	426.659	80.001	19.997	103.254	18.816	102.402	0.546
707.000	426.892	79.996	19.994	103.256	18.826	101.719	0.529
707.500	427.174	79.999	19.993	103.253	18.828	101.611	0.507
708.000	427.450	80.002	19.997	103.252	18.834	101.205	0.536
708.500	427.699	79.993	19.997	103.249	18.839	100.893	0.542
709.000	427.929	79.998	19.988	103.244	18.847	100.293	0.502
709.500	428.205	79.993	19.999	103.240	18.857	99.637	0.492
710.000	428.463	79.997	19.996	103.237	18.866	99.032	0.520
710.500	428.728	79.995	20.000	103.238	18.872	98.639	0.529
711.000	428.946	79.995	19.995	103.237	18.878	98.239	0.503
711.500	429.234	80.001	19.992	103.239	18.886	97.676	0.494
712.000	429.483	80.001	19.992	103.238	18.896	97.019	0.521
712.500	429.753	79.999	19.997	103.238	18.906	96.323	0.528
713.000	429.992	79.998	19.994	103.236	18.913	95.847	0.514
713.500	430.263	79.999	19.995	103.237	18.924	95.099	0.510
714.000	430.542	79.999	19.994	103.235	18.932	94.521	0.530
714.500	430.789	79.994	19.997	103.234	18.942	93.836	0.538
715.000	431.017	80.000	19.995	103.233	18.950	93.313	0.500
715.500	431.309	80.002	19.988	103.233	18.962	92.483	0.498
716.000	431.552	79.997	19.997	103.233	18.973	91.774	0.528
716.500	431.837	79.998	19.994	103.230	18.983	91.089	0.532
717.000	432.120	79.998	19.991	103.231	18.998	90.044	0.548
717.500	432.345	79.996	19.997	103.232	19.011	89.219	0.538
718.000	432.610	80.003	19.994	103.231	19.022	88.454	0.499
718.500	432.866	79.998	19.992	103.231	19.037	87.418	0.506
719.000	433.134	80.000	19.996	103.235	19.049	86.611	0.523
719.500	433.414	79.999	19.994	103.233	19.059	85.919	0.536
720.000	433.697	79.999	19.994	103.231	19.072	85.065	0.555
720.500	433.930	79.999	19.994	103.231	19.088	83.977	0.539
721.000	434.224	79.998	19.994	103.227	19.101	83.108	0.521
721.500	434.454	79.999	19.996	103.226	19.117	82.046	0.525
722.000	434.723	79.998	19.992	103.223	19.128	81.311	0.512
722.500	434.958	79.999	19.995	103.218	19.143	80.292	0.502
723.000	435.202	79.999	19.995	103.212	19.156	79.376	0.491
723.500	435.481	79.997	19.994	103.210	19.173	78.211	0.500
724.000	435.735	80.004	19.993	103.204	19.186	77.333	0.528
724.500	435.982	79.999	19.994	103.201	19.200	76.396	0.517
725.000	436.213	79.998	19.990	103.199	19.217	75.270	0.490
725.500	436.499	80.001	19.994	103.200	19.231	74.284	0.498
726.000	436.741	80.001	19.994	103.199	19.243	73.461	0.523
726.500	437.001	80.000	19.989	103.198	19.262	72.218	0.515
727.000	437.235	80.001	19.994	103.199	19.276	71.238	0.498
727.500	437.481	80.004	19.993	103.199	19.290	70.315	0.487
728.000	437.741	79.999	19.995	103.199	19.304	69.342	0.493
728.500	437.977	80.000	19.992	103.198	19.323	68.063	0.501
729.000	438.218	80.003	19.993	103.199	19.339	66.989	0.486
729.500	438.482	79.998	19.991	103.196	19.351	66.169	0.491
730.000	438.727	79.996	20.001	103.193	19.370	64.866	0.507
730.500	439.027	80.001	19.996	103.189	19.389	63.597	0.527
731.000	439.256	80.001	19.996	103.189	19.404	62.600	0.537
731.500	439.502	79.996	19.989	103.189	19.419	61.571	0.502
732.000	439.737	80.000	19.996	103.191	19.437	60.390	0.478
732.500	440.036	80.000	19.996	103.193	19.452	59.306	0.508
733.000	440.298	80.002	19.990	103.196	19.466	58.386	0.547
733.500	440.509	80.003	19.995	103.192	19.485	57.095	0.517
734.000	440.756	80.000	19.996	103.185	19.497	56.267	0.466
734.500	440.993	80.004	19.995	103.177	19.513	55.201	0.471
735.000	441.274	79.998	19.995	103.172	19.530	54.092	0.501
735.500	441.519	80.000	19.998	103.166	19.547	52.923	0.522
736.000	441.770	80.001	19.992	103.164	19.561	51.957	0.511
736.500	442.038	80.000	19.994	103.164	19.578	50.819	0.508
737.000	442.269	79.999	19.995	103.163	19.597	49.532	0.509
737.500	442.523	79.998	19.995	103.161	19.605	48.995	0.492
738.000	442.757	79.997	19.992	103.160	19.623	47.771	0.486
738.500	443.054	80.002	19.988	103.160	19.636	46.861	0.510
739.000	443.300	79.999	19.992	103.160	19.655	45.626	0.537
739.500	443.522	80.000	19.994	103.160	19.669	44.646	0.505
740.000	443.770	79.999	19.993	103.160	19.687	43.467	0.469
740.500	444.036	79.998	19.994	103.160	19.698	42.717	0.492
741.000	444.262	79.998	19.997	103.160	19.715	41.576	0.503
741.500	444.534	80.000	19.990	103.159	19.725	40.868	0.495
742.000	444.755	80.001	19.993	103.158	19.744	39.601	0.495
742.500	444.996	80.001	19.996	103.157	19.754	38.925	0.478
743.000	445.258	79.994	20.001	103.155	19.770	37.831	0.483
743.500	445.520	80.001	19.996	103.148	19.783	36.951	0.513
744.000	445.781	80.001	19.990	103.146	19.800	35.813	0.523
744.500	446.017	80.001	19.994	103.144	19.815	34.795	0.510
745.000	446.258	79.997	19.996	103.140	19.827	33.963	0.487
745.500	446.513	80.001	19.994	103.140	19.840	33.075	0.487
746.001	446.765	80.004	19.989	103.140	19.854	32.183	0.502
746.500	446.989	80.003	19.995	103.138	19.865	31.414	0.492
747.000	447.222	80.001	19.992	103.134	19.878	30.507	0.467
747.500	447.493	80.001	19.993	103.138	19.890	29.705	0.480
748.000	447.724	80.002	19.993	103.135	19.901	28.977	0.503
748.500	447.963	80.000	19.993	103.133	19.917	27.915	0.486
749.000	448.268	79.998	19.994	103.131	19.926	27.315	0.507
749.500	448.470	80.003	19.992	103.129	19.938	26.452	0.526
750.000	448.732	80.000	19.991	103.122	19.950	25.632	0.486
750.500	448.982	80.007	19.995	103.122	19.958	25.103	0.488
751.000	449.216	80.008	19.990	103.121	19.968	24.411	0.498
751.500	449.453	80.002	19.994	103.123	19.980	23.651	0.477
752.000	449.711	80.005	19.992	103.124	19.990	22.957	0.482
752.500	449.941	79.999	19.998	103.129	20.001	22.209	0.491
753.000	450.206	80.000	19.996	103.126	20.007	21.828	0.492
753.500	450.437	80.005	19.996	103.125	20.016	21.167	0.496
754.000	450.670	80.004	19.996	103.122	20.028	20.378	0.480
754.500	450.960	80.005	19.996	103.119	20.033	20.023	0.493
755.000	451.194	80.003	19.995	103.112	20.044	19.291	0.524
755.500	451.424	80.002	19.992	103.113	20.052	18.733	0.495
756.000	451.655	80.008	19.992	103.117	20.057	18.444	0.462
756.500	451.872	80.008	19.994	103.124	20.066	17.841	0.454
757.000	452.124	79.996	20.002	103.126	20.072	17.422	0.459
757.500	452.362	80.000	19.993	103.125	20.079	16.929	0.480
758.000	452.648	80.000	19.994	103.125	20.086	16.486	0.507
758.500	452.879	80.008	19.994	103.122	20.092	16.044	0.520
759.000	453.124	80.004	19.993	103.115	20.097	15.743	0.496
759.500	453.366	80.007	19.990	103.112	20.105	15.181	0.482
760.000	453.644	79.999	19.995	103.115	20.110	14.870	0.504
760.500	453.845	79.998	19.996	103.113	20.114	14.584	0.499
761.000	454.091	79.999	19.995	103.107	20.121	14.080	0.463
761.500	454.360	80.001	19.993	103.105	20.129	13.564	0.481
762.000	454.591	80.001	19.995	103.107	20.135	13.170	0.508
762.500	454.892	80.000	19.995	103.106	20.141	12.778	0.516
763.000	455.108	80.000	19.993	103.106	20.140	12.846	0.525
763.500	455.375	79.998	19.997	103.112	20.148	12.258	0.500
764.000	455.619	80.000	19.994	103.111	20.152	12.004	0.496
764.500	455.836	79.993	19.997	103.110	20.158	11.602	0.486
765.000	456.095	80.001	19.994	103.106	20.161	11.420	0.469
765.500	456.307	79.998	19.995	103.101	20.167	10.998	0.474
766.000	456.560	80.000	19.996	103.096	20.168	10.918	0.468
766.500	456.782	80.001	19.993	103.097	20.173	10.586	0.470
767.000	457.012	79.999	19.995	103.092	20.178	10.262	0.464
767.500	457.321	79.998	19.992	103.088	20.180	10.125	0.496
768.000	457.523	79.997	19.997	103.087	20.184	9.835	0.525
768.500	457.759	80.003	19.992	103.091	20.187	9.663	0.474
769.000	458.055	79.999	19.995	103.094	20.189	9.474	0.485
769.500	458.289	80.000	19.995	103.100	20.192	9.327	0.531
770.000	458.524	80.000	19.994	103.108	20.193	9.221	0.499
770.500	458.754	79.999	19.991	103.114	20.196	9.058	0.467
771.000	459.002	80.000	19.995	103.118	20.200	8.749	0.472
771.500	459.242	79.997	19.998	103.112	20.201	8.719	0.483
772.000	459.478	80.000	19.995	103.106	20.201	8.693	0.482
772.500	459.739	80.000	19.994	103.102	20.204	8.478	0.487
773.000	460.001	79.999	19.994	103.098	20.208	8.234	0.510
773.500	460.245	79.999	19.996	103.090	20.212	7.930	0.514
774.000	460.473	79.999	19.995	103.087	20.211	8.033	0.489
774.500	460.727	79.998	19.996	103.086	20.211	8.022	0.477
775.000	460.937	79.999	19.994	103.088	20.216	7.662	0.473
775.500	461.186	80.001	19.995	103.088	20.214	7.796	0.461
776.000	461.426	79.999	19.995	103.092	20.219	7.481	0.474
776.500	461.687	79.999	19.993	103.094	20.218	7.521	0.495
777.000	461.919	79.999	19.995	103.096	20.219	7.484	0.497
777.500	462.183	79.999	19.996	103.092	20.223	7.222	0.495
778.000	462.436	80.000	19.995	103.088	20.225	7.068	0.507
778.500	462.673	79.998	19.995	103.084	20.223	7.189	0.504
779.000	462.922	79.999	19.995	103.082	20.224	7.118	0.488
779.500	463.129	79.998	19.996	103.080	20.226	7.005	0.471
780.000	463.433	79.998	19.994	103.082	20.228	6.852	0.483
780.500	463.659	79.997	19.995	103.082	20.229	6.802	0.520
781.000	463.927	80.000	19.994	103.082	20.233	6.500	0.512
781.500	464.151	80.000	19.994	103.082	20.235	6.401	0.493
782.000	464.389	79.999	19.996	103.087	20.233	6.518	0.478
782.500	464.623	80.000	19.994	103.089	20.236	6.331	0.467
783.000	464.854	79.999	19.995	103.089	20.239	6.112	0.468
783.500	465.127	79.999	19.995	103.089	20.240	6.091	0.484
784.000	465.341	79.999	19.995	103.093	20.239	6.134	0.496
784.500	465.547	79.998	19.995	103.093	20.243	5.831	0.453
785.000	465.826	79.999	19.995	103.089	20.241	5.967	0.452
785.500	466.075	79.999	19.995	103.088	20.241	5.977	0.507
786.000	466.299	79.997	19.994	103.092	20.240	6.055	0.501
786.500	466.575	79.999	19.995	103.094	20.243	5.868	0.487
787.000	466.817	80.000	19.994	103.092	20.242	5.899	0.509
787.500	467.061	79.996	19.997	103.092	20.242	5.951	0.502
788.000	467.319	79.997	19.995	103.091	20.242	5.939	0.494
788.500	467.530	79.998	19.996	103.088	20.246	5.670	0.485
789.000	467.787	79.998	19.995	103.082	20.244	5.814	0.469
789.500	468.036	79.997	19.995	103.082	20.245	5.688	0.487
790.000	468.297	79.997	19.996	103.084	20.244	5.792	0.508
790.500	468.540	79.999	19.994	103.086	20.245	5.718	0.507
791.000	468.754	79.997	19.995	103.092	20.246	5.623	0.480
791.500	469.035	79.998	19.992	103.096	20.245	5.694	0.476
792.000	469.290	79.996	19.996	103.096	20.248	5.537	0.515
792.500	469.539	79.998	19.996	103.095	20.246	5.659	0.520
793.000	469.768	79.995	19.995	103.097	20.246	5.665	0.491
793.500	470.036	80.000	19.989	103.093	20.247	5.585	0.488
794.000	470.297	79.998	19.997	103.091	20.246	5.666	0.513
794.500	470.527	80.001	19.992	103.089	20.248	5.494	0.510
795.000	470.781	79.998	19.994	103.088	20.249	5.477	0.487
795.500	471.020	79.999	19.995	103.089	20.250	5.368	0.488
796.000	471.280	79.999	19.992	103.092	20.252	5.247	0.496
796.500	471.503	79.998	19.995	103.098	20.250	5.412	0.491
797.000	471.766	79.997	19.996	103.104	20.250	5.395	0.485
797.500	472.023	79.998	19.994	103.108	20.248	5.523	0.503
798.000	472.287	79.996	19.997	103.105	20.252	5.265	0.521
798.500	472.523	79.996	19.995	103.099	20.253	5.210	0.511
799.000	472.761	79.998	19.994	103.091	20.253	5.201	0.487
799.500	473.012	79.996	19.994	103.086	20.253	5.199	0.481
800.000	473.272	79.996	19.996	103.081	20.253	5.164	0.500
800.500	473.519	79.998	19.995	103.080	20.249	5.473	0.509
801.000	473.792	79.998	19.995	103.079	20.251	5.321	0.513
801.500	474.021	79.998	19.995	103.079	20.254	5.132	0.511
802.000	474.263	79.998	19.994	103.082	20.252	5.230	0.487
802.500	474.532	79.999	19.994	103.084	20.251	5.310	0.492
803.000	474.751	79.998	19.994	103.089	20.256	4.982	0.500
803.500	475.014	79.998	19.994	103.091	20.253	5.178	0.485
804.000	475.253	79.998	19.994	103.091	20.253	5.182	0.492
804.500	475.524	79.999	19.994	103.090	20.254	5.143	0.506
805.000	475.757	79.999	19.993	103.090	20.254	5.091	0.507
805.500	476.021	79.998	19.994	103.085	20.254	5.104	0.501
806.000	476.261	80.000	19.995	103.087	20.254	5.097	0.500
806.500	476.489	79.999	19.994	103.089	20.253	5.189	0.485
807.000	476.717	79.998	19.994	103.088	20.255	5.013	0.462
807.500	477.015	80.000	19.994	103.087	20.252	5.254	0.491
808.000	477.258	79.999	19.993	103.087	20.255	5.065	0.534
808.500	477.493	80.000	19.993	103.085	20.258	4.874	0.510
809.000	477.766	80.001	19.993	103.084	20.255	5.052	0.493
809.500	477.993	80.000	19.993	103.083	20.256	4.959	0.504
810.000	478.261	79.999	19.993	103.084	20.255	5.039	0.497
810.500	478.551	80.000	19.993	103.085	20.255	5.032	0.526
811.000	478.774	79.999	19.994	103.086	20.255	5.065	0.536
811.500	479.029	80.000	19.994	103.087	20.257	4.908	0.496
812.000	479.275	79.999	19.993	103.088	20.259	4.767	0.489
812.500	479.539	80.000	19.993	103.088	20.257	4.913	0.505
813.000	479.763	80.000	19.993	103.088	20.255	5.067	0.499
813.500	480.019	80.000	19.995	103.088	20.256	4.995	0.484
814.000	480.286	80.002	19.993	103.086	20.255	5.028	0.502
814.500	480.525	79.999	19.993	103.085	20.255	5.069	0.515
815.000	480.771	79.999	19.993	103.085	20.256	4.961	0.496
815.500	481.003	80.000	19.995	103.083	20.254	5.124	0.482
816.000	481.221	79.999	19.993	103.084	20.255	5.070	0.464
816.500	481.536	80.001	19.995	103.084	20.257	4.939	0.491
817.000	481.768	79.999	19.994	103.083	20.255	5.058	0.540
817.500	482.029	80.001	19.993	103.081	20.256	4.960	0.520
818.000	482.310	79.999	19.993	103.080	20.254	5.106	0.518
818.500	482.551	80.001	19.995	103.079	20.256	4.990	0.532
819.000	482.832	79.999	19.994	103.078	20.256	4.986	0.522
819.500	483.030	79.999	19.995	103.079	20.255	5.036	0.501
820.000	483.280	80.001	19.994	103.079	20.254	5.084	0.464
820.500	483.556	79.999	19.993	103.079	20.254	5.136	0.487
821.000	483.803	79.998	19.995	103.082	20.257	4.943	0.524
821.500	484.077	80.001	19.992	103.083	20.253	5.162	0.522
822.000	484.357	79.998	19.993	103.085	20.255	5.049	0.537
822.500	484.581	79.999	19.994	103.087	20.254	5.116	0.529
823.000	484.864	80.000	19.993	103.088	20.258	4.854	0.506
823.500	485.089	79.999	19.994	103.089	20.253	5.160	0.508
824.000	485.349	79.999	19.995	103.091	20.254	5.097	0.496
824.500	485.578	79.998	19.995	103.089	20.258	4.875	0.487
825.000	485.867	80.000	19.995	103.088	20.258	4.865	0.504
825.500	486.091	80.000	19.993	103.085	20.253	5.166	0.516
826.000	486.396	80.000	19.994	103.082	20.258	4.817	0.521
826.500	486.627	80.001	19.994	103.079	20.255	5.025	0.532
827.000	486.862	80.002	19.995	103.079	20.255	5.028	0.501
827.500	487.120	79.999	19.994	103.079	20.255	5.041	0.480
828.000	487.391	80.000	19.993	103.080	20.255	5.012	0.511
828.500	487.652	80.002	19.994	103.087	20.257	4.917	0.530
829.000	487.878	80.000	19.994	103.092	20.257	4.915	0.509
829.500	488.125	80.001	19.994	103.099	20.253	5.179	0.480
830.000	488.389	80.000	19.993	103.098	20.253	5.156	0.492
830.500	488.658	80.000	19.995	103.097	20.252	5.221	0.522
831.000	488.912	80.001	19.993	103.091	20.251	5.338	0.528
831.500	489.128	80.000	19.995	103.087	20.253	5.206	0.496
832.000	489.409	80.002	19.994	103.083	20.249	5.434	0.484
832.500	489.654	80.001	19.994	103.089	20.254	5.113	0.512
833.000	489.905	80.000	19.994	103.088	20.256	4.995	0.511
833.500	490.156	80.001	19.994	103.090	20.253	5.158	0.499
834.000	490.425	80.000	19.993	103.091	20.251	5.325	0.511
834.500	490.689	80.002	19.993	103.089	20.249	5.460	0.526
835.000	490.952	80.001	19.993	103.086	20.251	5.301	0.529
835.500	491.175	80.000	19.994	103.093	20.252	5.251	0.507
836.000	491.465	80.001	19.994	103.095	20.250	5.414	0.500
836.500	491.735	80.002	19.994	103.093	20.249	5.458	0.537
837.000	491.990	80.003	19.993	103.093	20.253	5.195	0.543
837.500	492.213	80.001	19.994	103.091	20.251	5.347	0.501
838.000	492.482	80.002	19.994	103.090	20.249	5.475	0.484
838.500	492.766	80.002	19.994	103.089	20.250	5.395	0.522
839.000	492.982	80.003	19.992	103.090	20.250	5.386	0.527
839.500	493.229	80.002	19.994	103.091	20.252	5.221	0.482
840.000	493.512	80.001	19.994	103.091	20.252	5.221	0.496
840.500	493.722	80.002	19.993	103.089	20.251	5.292	0.511
841.000	494.023	80.001	19.993	103.085	20.251	5.327	0.502
841.500	494.290	80.001	19.994	103.084	20.253	5.196	0.539
842.000	494.568	80.002	19.994	103.085	20.249	5.435	0.557
842.500	494.789	80.001	19.994	103.084	20.252	5.214	0.522
843.000	495.092	79.999	19.993	103.081	20.252	5.244	0.512
843.500	495.323	80.000	19.993	103.082	20.252	5.266	0.529
844.000	495.561	80.000	19.994	103.082	20.252	5.238	0.501
844.500	495.783	80.000	19.994	103.082	20.253	5.184	0.465
845.000	496.036	79.999	19.994	103.084	20.253	5.201	0.467
845.500	496.335	79.999	19.993	103.085	20.251	5.345	0.513
846.000	496.553	79.999	19.994	103.087	20.254	5.119	0.534
846.500	496.837	79.998	19.995	103.091	20.252	5.281	0.509
847.000	497.073	79.998	19.995	103.089	20.254	5.134	0.511
847.500	497.373	79.999	19.995	103.085	20.252	5.252	0.528
848.000	497.598	79.999	19.995	103.085	20.249	5.446	0.530
848.500	497.855	79.999	19.994	103.082	20.253	5.211	0.504
849.000	498.103	79.997	19.994	103.079	20.253	5.169	0.494
849.500	498.405	79.998	19.994	103.080	20.254	5.134	0.527
850.000	498.614	79.999	19.995	103.082	20.253	5.167	0.530
850.500	498.889	79.997	19.993	103.084	20.251	5.334	0.497
851.000	499.136	79.999	19.995	103.091	20.252	5.231	0.503
851.500	499.398	79.998	19.995	103.097	20.252	5.253	0.516
852.000	499.666	79.999	19.994	103.098	20.251	5.305	0.519
852.500	499.884	79.998	19.994	103.098	20.250	5.364	0.508
853.000	500.175	79.997	19.995	103.098	20.252	5.262	0.498
853.500	500.435	79.998	19.995	103.096	20.251	5.333	0.530
854.000	500.708	79.999	19.995	103.092	20.252	5.235	0.543
854.500	500.960	79.998	19.994	103.090	20.250	5.352	0.529
855.000	501.206	79.998	19.994	103.089	20.249	5.454	0.511
855.500	501.486	79.998	19.995	103.088	20.249	5.433	0.512
856.000	501.746	79.999	19.995	103.084	20.250	5.405	0.533
856.500	501.992	79.997	19.995	103.085	20.249	5.444	0.523
857.000	502.277	79.998	19.995	103.088	20.251	5.342	0.518
857.500	502.468	79.998	19.994	103.093	20.252	5.234	0.504
858.000	502.774	79.997	19.994	103.097	20.247	5.600	0.486
858.500	502.992	79.997	19.994	103.102	20.249	5.459	0.510
859.000	503.245	80.000	19.994	103.099	20.249	5.425	0.498
859.500	503.522	79.998	19.995	103.097	20.250	5.379	0.501
860.000	503.786	79.998	19.995	103.092	20.250	5.385	0.536
860.500	504.027	79.998	19.994	103.091	20.249	5.437	0.523
861.000	504.282	79.998	19.994	103.090	20.251	5.346	0.500
861.500	504.550	79.997	19.995	103.090	20.248	5.496	0.510
862.000	504.797	79.998	19.993	103.092	20.250	5.405	0.519
862.500	505.041	79.999	19.995	103.095	20.249	5.453	0.503
863.000	505.304	79.999	19.994	103.093	20.250	5.416	0.499
863.500	505.535	80.000	19.994	103.096	20.252	5.271	0.501
864.000	505.819	79.998	19.994	103.098	20.250	5.412	0.504
864.500	506.039	79.998	19.995	103.102	20.251	5.308	0.509
865.000	506.316	79.999	19.995	103.104	20.254	5.104	0.501
865.500	506.539	79.998	19.994	103.108	20.250	5.360	0.499
866.000	506.826	79.999	19.993	103.103	20.251	5.286	0.505
866.500	507.050	80.000	19.995	103.100	20.250	5.416	0.511
867.000	507.353	79.998	19.994	103.097	20.252	5.215	0.519
867.500	507.599	79.998	19.995	103.093	20.253	5.197	0.538
868.000	507.833	79.999	19.994	103.088	20.248	5.533	0.515
868.500	508.062	79.998	19.994	103.087	20.252	5.260	0.471
869.000	508.301	79.999	19.994	103.088	20.251	5.319	0.465
869.500	508.564	79.998	19.994	103.088	20.253	5.205	0.485
870.000	508.843	79.998	19.995	103.092	20.252	5.278	0.522
870.500	509.084	79.999	19.994	103.093	20.249	5.430	0.531
871.000	509.343	79.999	19.994	103.093	20.249	5.479	0.511
871.500	509.593	79.998	19.994	103.093	20.249	5.424	0.505
872.000	509.860	79.998	19.994	103.090	20.250	5.393	0.513
872.500	510.122	79.997	19.995	103.085	20.249	5.473	0.523
873.000	510.373	79.996	19.993	103.084	20.252	5.241	0.521
873.500	510.618	79.997	19.995	103.084	20.250	5.397	0.505
874.000	510.859	79.996	19.993	103.085	20.252	5.228	0.491
874.500	511.121	79.997	19.994	103.085	20.253	5.211	0.495
875.000	511.351	79.997	19.995	103.084	20.253	5.191	0.498
875.500	511.636	79.997	19.994	103.084	20.254	5.119	0.503
876.000	511.879	79.996	19.995	103.083	20.252	5.260	0.521
876.500	512.109	79.998	19.995	103.084	20.251	5.293	0.501
877.000	512.378	79.997	19.995	103.093	20.252	5.236	0.486
877.500	512.654	79.997	19.994	103.084	20.251	5.282	0.522
878.000	512.895	79.998	19.995	103.069	20.253	5.191	0.531
878.500	513.115	79.997	19.996	103.059	20.254	5.128	0.489
879.000	513.387	79.996	19.995	103.052	20.251	5.291	0.477
879.500	513.649	79.997	19.995	103.046	20.255	5.039	0.513
880.000	513.950	79.998	19.995	103.076	20.253	5.161	0.548
880.500	514.148	79.998	19.995	103.101	20.255	5.078	0.531
881.000	514.428	79.997	19.996	103.111	20.255	5.024	0.489
881.500	514.717	79.997	19.996	103.116	20.256	4.976	0.523
882.000	514.985	79.997	19.995	103.114	20.254	5.111	0.563
882.500	515.256	79.998	19.996	103.093	20.259	4.781	0.548
883.000	515.472	79.998	19.995	103.083	20.254	5.085	0.513
883.500	515.772	79.996	19.995	103.081	20.255	5.059	0.501
884.000	515.984	79.997	19.996	103.081	20.256	5.002	0.514
884.500	516.229	79.997	19.996	103.079	20.257	4.893	0.485
885.000	516.508	79.996	19.995	103.078	20.257	4.889	0.490
885.500	516.800	79.996	19.996	103.077	20.255	5.065	0.547
886.000	517.047	79.998	19.995	103.078	20.255	5.043	0.555
886.500	517.285	79.999	19.995	103.078	20.256	5.008	0.512
887.000	517.578	79.998	19.996	103.080	20.256	4.976	0.508
887.500	517.823	79.997	19.995	103.080	20.257	4.893	0.535
888.000	518.089	79.999	19.995	103.080	20.256	4.974	0.525
888.500	518.332	79.999	19.995	103.080	20.258	4.868	0.510
889.000	518.570	79.998	19.995	103.081	20.258	4.831	0.495
889.500	518.866	80.000	19.995	103.080	20.258	4.867	0.507
890.000	519.110	79.998	19.995	103.079	20.257	4.895	0.537
890.500	519.383	79.999	19.995	103.079	20.259	4.792	0.529
891.000	519.596	79.999	19.995	103.077	20.258	4.841	0.501
891.500	519.904	80.000	19.995	103.076	20.256	4.993	0.503
892.000	520.109	80.000	19.995	103.076	20.258	4.811	0.517
892.500	520.415	79.998	19.995	103.076	20.257	4.942	0.512
893.000	520.667	80.000	19.994	103.076	20.260	4.722	0.535
893.500	520.926	80.001	19.994	103.075	20.260	4.720	0.534
894.000	521.202	80.001	19.993	103.075	20.258	4.826	0.523
894.500	521.440	80.000	19.995	103.076	20.261	4.618	0.525
895.000	521.680	79.999	19.994	103.079	20.260	4.731	0.496
895.500	521.969	80.000	19.994	103.080	20.262	4.590	0.503
896.000	522.234	80.001	19.994	103.082	20.261	4.642	0.541
896.500	522.466	80.000	19.994	103.083	20.264	4.442	0.526
897.000	522.710	80.001	19.995	103.083	20.260	4.698	0.486
897.500	522.987	79.999	19.995	103.082	20.264	4.429	0.498
898.000	523.261	80.000	19.994	103.080	20.262	4.556	0.536
898.500	523.485	80.000	19.993	103.080	20.262	4.545	0.524
899.000	523.771	80.001	19.994	103.081	20.264	4.445	0.504
899.500	524.011	80.000	19.994	103.081	20.262	4.549	0.518
900.000	524.260	80.000	19.994	103.080	20.263	4.475	0.508
900.500	524.517	80.000	19.995	103.084	20.261	4.631	0.497
901.000	524.787	80.000	19.994	103.084	20.262	4.585	0.517
901.500	525.051	80.000	19.993	103.082	20.264	4.442	0.531
902.000	525.300	79.999	19.995	103.082	20.263	4.516	0.524
902.500	525.597	80.000	19.994	103.081	20.262	4.588	0.530
903.000	525.815	80.001	19.995	103.079	20.266	4.314	0.530
903.500	526.081	80.000	19.995	103.078	20.265	4.390	0.500
904.000	526.294	80.000	19.994	103.077	20.267	4.229	0.482
904.500	526.575	80.000	19.994	103.077	20.261	4.622	0.487
905.000	526.867	79.999	19.994	103.077	20.264	4.449	0.533
905.500	527.103	79.999	19.995	103.077	20.265	4.366	0.550
906.000	527.374	80.000	19.995	103.078	20.275	3.687	0.517
906.500	527.628	79.999	19.993	103.079	20.273	3.824	0.516
907.000	527.904	79.999	19.995	103.079	20.271	3.934	0.528
907.500	528.161	79.998	19.995	103.079	20.267	4.206	0.531
908.000	528.371	79.998	19.994	103.080	20.263	4.507	0.500
908.500	528.670	80.000	19.994	103.078	20.262	4.555	0.488
909.000	528.941	79.999	19.994	103.072	20.266	4.312	0.539
909.500	529.181	79.999	19.994	103.068	20.264	4.438	0.540
910.000	529.450	79.999	19.993	103.068	20.265	4.382	0.510
910.500	529.680	80.000	19.995	103.068	20.265	4.364	0.505
911.000	529.992	80.000	19.994	103.069	20.266	4.314	0.521
911.500	530.241	80.001	19.994	103.075	20.266	4.295	0.551
912.000	530.474	80.000	19.995	103.078	20.267	4.256	0.521
912.500	530.753	80.000	19.994	103.079	20.267	4.208	0.497
913.000	531.036	80.001	19.994	103.080	20.267	4.202	0.537
913.500	531.293	80.000	19.995	103.079	20.265	4.395	0.551
914.000	531.522	80.000	19.994	103.080	20.268	4.184	0.513
914.500	531.774	79.999	19.994	103.080	20.267	4.251	0.484
915.000	532.063	79.999	19.995	103.079	20.269	4.084	0.511
915.500	532.283	79.999	19.995	103.081	20.266	4.290	0.525
916.000	532.558	80.000	19.994	103.081	20.271	3.995	0.502
916.500	532.807	80.000	19.994	103.081	20.271	3.980	0.509
917.000	533.059	80.000	19.994	103.082	20.269	4.069	0.513
917.500	533.309	80.002	19.994	103.083	20.269	4.108	0.502
918.000	533.580	80.001	19.994	103.081	20.272	3.893	0.511
918.500	533.857	80.002	19.994	103.081	20.269	4.084	0.534
919.000	534.106	80.001	19.994	103.081	20.270	4.063	0.537
919.500	534.377	80.002	19.994	103.081	20.268	4.193	0.523
920.000	534.558	80.001	19.993	103.080	20.270	4.023	0.486
920.500	534.875	80.001	19.993	103.080	20.269	4.073	0.475
921.000	535.085	80.000	19.994	103.080	20.268	4.190	0.512
921.500	535.391	80.001	19.994	103.080	20.270	4.054	0.521
922.000	535.650	80.001	19.994	103.080	20.270	4.012	0.541
922.500	535.957	80.000	19.993	103.080	20.272	3.891	0.565
923.000	536.182	80.001	19.994	103.079	20.272	3.886	0.549
923.500	536.446	80.001	19.994	103.079	20.273	3.815	0.511
924.000	536.667	80.000	19.993	103.074	20.268	4.186	0.487
924.500	536.979	79.999	19.994	103.074	20.270	4.036	0.509
925.000	537.247	79.999	19.993	103.074	20.269	4.066	0.556
925.500	537.479	80.000	19.994	103.074	20.269	4.112	0.540
926.000	537.747	79.998	19.993	103.075	20.274	3.784	0.500
926.500	538.010	79.999	19.994	103.081	20.271	3.930	0.516
927.000	538.275	79.998	19.995	103.081	20.270	4.032	0.529
927.501	538.491	80.000	19.995	103.081	20.271	3.969	0.505
928.000	538.775	79.998	19.994	103.082	20.271	3.962	0.491
928.500	539.039	79.998	19.994	103.082	20.271	3.963	0.524
929.000	539.295	79.998	19.994	103.080	20.273	3.819	0.534
929.500	539.554	79.998	19.995	103.079	20.271	3.982	0.517
930.000	539.816	79.998	19.994	103.079	20.271	3.952	0.518
930.500	540.068	79.998	19.993	103.080	20.271	3.937	0.518
931.000	540.337	79.998	19.993	103.080	20.272	3.878	0.517
931.500	540.600	79.997	19.994	103.082	20.271	3.934	0.527
932.000	540.840	79.997	19.993	103.082	20.272	3.906	0.518
932.500	541.098	79.998	19.994	103.083	20.272	3.876	0.500
933.000	541.326	79.998	19.995	103.083	20.274	3.783	0.492
933.500	541.602	79.998	19.993	103.083	20.273	3.845	0.495
934.000	541.837	79.997	19.995	103.083	20.273	3.852	0.508
934.500	542.111	79.997	19.993	103.083	20.274	3.791	0.510
935.000	542.359	79.999	19.993	103.083	20.270	4.052	0.516
935.500	542.606	79.999	19.993	103.083	20.271	3.970	0.509
936.000	542.883	80.000	19.993	103.085	20.271	3.961	0.510
936.500	543.179	79.999	19.994	103.085	20.270	4.051	0.549
937.000	543.374	79.998	19.994	103.085	20.271	3.940	0.532
937.500	543.677	79.998	19.994	103.084	20.272	3.895	0.494
938.000	543.918	79.998	19.994	103.083	20.272	3.929	0.521
938.500	544.162	79.998	19.994	103.082	20.272	3.894	0.514
939.000	544.411	79.997	19.993	103.082	20.273	3.796	0.489
939.500	544.670	79.998	19.994	103.082	20.275	3.712	0.501
940.000	544.972	79.998	19.994	103.083	20.273	3.808	0.535
940.500	545.178	79.998	19.994	103.083	20.274	3.769	0.535
941.000	545.425	79.998	19.994	103.082	20.272	3.869	0.481
941.500	545.688	79.998	19.994	103.081	20.270	3.999	0.481
942.000	545.941	79.999	19.994	103.080	20.275	3.680	0.513
942.500	546.236	80.000	19.995	103.080	20.274	3.791	0.532
943.000	546.483	79.999	19.995	103.080	20.274	3.789	0.545
943.500	546.730	79.998	19.994	103.080	20.274	3.746	0.518
944.000	546.955	79.998	19.996	103.080	20.273	3.844	0.483
944.500	547.238	79.999	19.994	103.079	20.274	3.757	0.490
945.000	547.506	79.997	19.994	103.084	20.271	3.935	0.529
945.500	547.762	79.997	19.995	103.080	20.275	3.711	0.538
946.000	548.021	79.997	19.996	103.067	20.274	3.739	0.520
946.500	548.294	79.999	19.995	103.059	20.277	3.565	0.523
947.000	548.503	79.999	19.995	103.058	20.274	3.772	0.506
947.500	548.770	79.998	19.995	103.052	20.273	3.819	0.479
948.000	549.035	79.999	19.995	103.055	20.273	3.807	0.504
948.500	549.286	79.999	19.995	103.086	20.276	3.646	0.524
949.000	549.540	79.999	19.994	103.108	20.273	3.813	0.511
949.500	549.786	79.998	19.995	103.114	20.277	3.553	0.503
950.000	550.077	79.998	19.995	103.116	20.277	3.550	0.518
950.500	550.299	79.998	19.995	103.116	20.276	3.642	0.525
951.000	550.558	79.999	19.995	103.099	20.277	3.561	0.497
951.500	550.828	79.998	19.997	103.089	20.278	3.507	0.505
952.000	551.106	79.999	19.995	103.085	20.277	3.542	0.538
952.500	551.363	79.997	19.995	103.084	20.278	3.459	0.542
953.000	551.611	79.999	19.996	103.083	20.276	3.607	0.520
953.500	551.853	79.998	19.996	103.081	20.276	3.620	0.497
954.000	552.131	80.000	19.994	103.075	20.275	3.698	0.505
954.500	552.371	79.999	19.995	103.075	20.279	3.411	0.519
955.000	552.634	79.999	19.994	103.074	20.275	3.685	0.510
955.500	552.905	79.996	19.995	103.075	20.277	3.555	0.518
956.000	553.150	79.998	19.995	103.077	20.277	3.555	0.525
956.500	553.406	79.998	19.995	103.081	20.276	3.613	0.509
957.000	553.639	79.998	19.995	103.083	20.278	3.507	0.495
957.500	553.915	79.999	19.995	103.081	20.276	3.657	0.499
958.000	554.202	79.999	19.995	103.080	20.275	3.659	0.536
958.500	554.437	79.999	19.994	103.078	20.279	3.437	0.542
959.000	554.699	79.999	19.994	103.077	20.277	3.587	0.510
959.500	554.985	79.999	19.995	103.075	20.277	3.583	0.523
960.000	555.223	79.997	19.994	103.077	20.275	3.722	0.536
960.500	555.459	79.998	19.995	103.078	20.279	3.442	0.499
961.000	555.725	79.999	19.994	103.079	20.278	3.516	0.488
961.500	555.980	79.999	19.994	103.078	20.276	3.631	0.512
962.000	556.254	79.999	19.994	103.079	20.275	3.672	0.525
962.500	556.484	79.998	19.995	103.080	20.274	3.789	0.516
963.000	556.776	79.999	19.994	103.083	20.278	3.505	0.512
963.500	557.015	79.999	19.995	103.084	20.273	3.832	0.526
964.000	557.268	80.000	19.994	103.084	20.274	3.778	0.512
964.500	557.514	79.999	19.995	103.084	20.273	3.835	0.496
965.000	557.810	79.999	19.995	103.083	20.277	3.583	0.521
965.500	558.041	79.997	19.996	103.077	20.278	3.462	0.534
966.000	558.293	79.998	19.995	103.076	20.275	3.702	0.505
966.500	558.587	79.997	19.995	103.076	20.276	3.633	0.515
967.000	558.816	79.998	19.994	103.076	20.275	3.726	0.535
967.500	559.092	80.000	19.995	103.078	20.277	3.589	0.514
968.000	559.351	79.999	19.995	103.080	20.278	3.479	0.520
968.500	559.627	79.999	19.995	103.081	20.276	3.607	0.535
969.000	559.897	80.000	19.995	103.081	20.276	3.607	0.541
969.500	560.133	79.999	19.996	103.081	20.275	3.681	0.526
970.000	560.371	80.000	19.994	103.078	20.277	3.529	0.490
970.500	560.654	79.999	19.995	103.078	20.276	3.633	0.497
971.000	560.891	79.998	19.994	103.078	20.276	3.624	0.520
971.500	561.126	80.000	19.994	103.078	20.275	3.722	0.496
972.000	561.401	80.000	19.994	103.078	20.278	3.511	0.491
972.500	561.619	80.000	19.995	103.079	20.276	3.609	0.502
973.000	561.908	80.000	19.996	103.078	20.277	3.568	0.500
973.500	562.160	79.998	19.996	103.078	20.281	3.268	0.524
974.000	562.433	80.001	19.995	103.078	20.281	3.301	0.533
974.500	562.684	80.000	19.994	103.078	20.279	3.418	0.524
975.000	562.941	79.999	19.996	103.076	20.280	3.361	0.516
975.500	563.193	79.999	19.995	103.077	20.278	3.509	0.509
976.000	563.443	80.000	19.996	103.077	20.277	3.567	0.505
976.500	563.699	80.000	19.996	103.077	20.276	3.595	0.503
977.000	563.981	80.000	19.994	103.077	20.277	3.555	0.522
977.500	564.199	80.000	19.995	103.078	20.278	3.498	0.519
978.000	564.474	80.000	19.994	103.078	20.275	3.672	0.497
978.500	564.709	80.000	19.995	103.074	20.275	3.663	0.501
979.000	564.972	79.999	19.995	103.072	20.275	3.689	0.504
979.500	565.199	79.998	19.995	103.070	20.276	3.600	0.494
980.000	565.479	79.999	19.995	103.070	20.278	3.463	0.499
980.500	565.754	80.000	19.995	103.070	20.277	3.553	0.531
981.000	565.991	79.999	19.994	103.074	20.277	3.528	0.533
981.500	566.249	80.000	19.995	103.077	20.273	3.796	0.503
982.000	566.524	79.999	19.995	103.080	20.275	3.713	0.514
982.500	566.782	79.999	19.995	103.079	20.277	3.568	0.533
983.000	567.011	79.998	19.994	103.078	20.278	3.518	0.510
983.500	567.271	79.999	19.995	103.077	20.277	3.531	0.488
984.000	567.559	80.000	19.996	103.077	20.277	3.591	0.519
984.500	567.783	79.999	19.994	103.077	20.280	3.338	0.530
985.000	568.045	79.999	19.995	103.078	20.278	3.503	0.499
985.500	568.281	79.999	19.994	103.082	20.274	3.759	0.492
986.000	568.568	79.998	19.994	103.086	20.277	3.542	0.511
986.500	568.800	79.999	19.995	103.087	20.277	3.583	0.521
987.000	569.069	79.999	19.994	103.087	20.277	3.535	0.510
987.500	569.358	79.998	19.996	103.087	20.278	3.500	0.529
988.000	569.629	80.000	19.995	103.084	20.278	3.513	0.559
988.500	569.874	79.999	19.993	103.085	20.278	3.509	0.538
989.000	570.142	79.999	19.994	103.085	20.278	3.479	0.514
989.500	570.414	79.999	19.994	103.084	20.277	3.535	0.526
990.000	570.681	79.999	19.994	103.084	20.277	3.576	0.540
990.500	570.885	80.000	19.994	103.084	20.277	3.526	0.505
991.000	571.170	80.000	19.994	103.080	20.278	3.500	0.480
991.500	571.393	79.999	19.994	103.079	20.277	3.558	0.499
992.000	571.672	79.999	19.995	103.080	20.276	3.610	0.505
992.500	571.926	80.000	19.995	103.081	20.276	3.596	0.517
993.000	572.187	79.999	19.993	103.081	20.277	3.570	0.524
993.500	572.454	80.001	19.994	103.081	20.274	3.730	0.522
994.000	572.702	80.001	19.994	103.082	20.277	3.540	0.521
994.500	572.978	80.000	19.993	103.081	20.276	3.594	0.519
995.000	573.218	79.999	19.994	103.082	20.274	3.733	0.520
995.500	573.488	80.002	19.993	103.083	20.278	3.481	0.513
996.000	573.737	80.001	19.994	103.083	20.278	3.500	0.515
996.500	574.013	80.001	19.993	103.083	20.277	3.576	0.522
997.000	574.290	80.000	19.994	103.081	20.276	3.631	0.539
997.500	574.558	80.001	19.994	103.078	20.277	3.563	0.549
998.000	574.815	80.002	19.992	103.078	20.279	3.424	0.535
998.500	575.066	80.001	19.992	103.078	20.277	3.528	0.517
999.000	575.335	80.002	19.992	103.078	20.278	3.502	0.514
999.500	575.580	80.002	19.991	103.080	20.275	3.693	0.516
1000.000	575.877	79.999	19.993	103.083	20.275	3.667	0.528
1000.500	576.097	80.001	19.993	103.088	20.277	3.531	0.530
1001.000	576.350	80.000	19.994	103.093	20.278	3.498	0.495
1001.500	576.620	80.000	19.995	103.097	20.276	3.592	0.498
1002.000	576.898	79.998	19.994	103.098	20.277	3.591	0.536
1002.500	577.140	80.001	19.993	103.098	20.277	3.531	0.535
1003.000	577.392	79.999	19.993	103.094	20.277	3.555	0.507
1003.500	577.644	79.999	19.994	103.088	20.277	3.539	0.498
1004.000	577.902	80.000	19.994	103.083	20.278	3.518	0.507
1004.500	578.150	80.001	19.993	103.081	20.274	3.765	0.508
1005.000	578.406	80.000	19.994	103.080	20.277	3.583	0.505
1005.500	578.698	79.998	19.992	103.079	20.274	3.767	0.526
1006.000	578.930	80.000	19.994	103.079	20.278	3.524	0.537
1006.500	579.173	79.998	19.994	103.079	20.276	3.602	0.500
1007.000	579.423	79.999	19.994	103.080	20.279	3.444	0.484
1007.500	579.697	80.000	19.994	103.080	20.279	3.394	0.509
1008.000	579.956	80.000	19.995	103.082	20.277	3.557	0.528
1008.500	580.215	79.997	19.993	103.083	20.281	3.314	0.525
1009.000	580.469	79.997	19.994	103.084	20.278	3.464	0.515
1009.500	580.716	80.000	19.994	103.084	20.278	3.520	0.508
1010.000	581.008	79.999	19.994	103.083	20.277	3.591	0.520
1010.500	581.277	79.999	19.995	103.081	20.274	3.779	0.550
1011.000	581.526	79.998	19.994	103.079	20.278	3.499	0.539
1011.500	581.759	79.999	19.994	103.079	20.277	3.592	0.500
1012.000	582.052	79.999	19.994	103.079	20.274	3.743	0.504
1012.500	582.263	79.999	19.995	103.080	20.272	3.879	0.515
1013.000	582.526	79.999	19.994	103.080	20.277	3.575	0.489
1013.500	582.814	79.998	19.994	103.080	20.279	3.422	0.512
1014.000	583.031	79.998	19.995	103.079	20.273	3.849	0.528
1014.500	583.272	79.999	19.994	103.078	20.276	3.630	0.482
1015.000	583.559	79.998	19.994	103.080	20.276	3.652	0.493
1015.500	583.792	79.999	19.995	103.083	20.276	3.639	0.524
1016.000	584.060	79.998	19.994	103.088	20.272	3.874	0.511
1016.500	584.304	79.998	19.995	103.090	20.277	3.559	0.506
1017.000	584.545	79.998	19.994	103.090	20.273	3.804	0.499
1017.500	584.831	79.999	19.994	103.088	20.275	3.667	0.506
1018.000	585.094	79.999	19.993	103.085	20.272	3.895	0.537
1018.500	585.354	79.999	19.994	103.081	20.273	3.796	0.535
1019.000	585.581	79.998	19.994	103.078	20.276	3.631	0.505
1019.500	585.804	79.999	19.993	103.079	20.277	3.535	0.469
1020.000	586.089	79.998	19.995	103.081	20.275	3.689	0.479
1020.500	586.339	80.000	19.994	103.088	20.275	3.687	0.521
1021.000	586.621	79.998	19.993	103.095	20.275	3.704	0.533
1021.500	586.872	79.999	19.994	103.101	20.274	3.741	0.532
1022.000	587.139	80.000	19.994	103.105	20.273	3.813	0.526
1022.500	587.367	79.999	19.994	103.109	20.279	3.453	0.507
1023.000	587.661	80.000	19.993	103.102	20.275	3.696	0.509
1023.500	587.897	79.998	19.993	103.098	20.276	3.631	0.526
1024.000	588.174	79.998	19.995	103.099	20.277	3.552	0.521
1024.499	588.409	79.998	19.994	103.099	20.276	3.611	0.512
1024.999	588.665	80.000	19.993	103.094	20.278	3.485	0.501
1025.499	588.946	80.000	19.994	103.093	20.276	3.654	0.514
1025.999	589.171	79.999	19.994	103.091	20.278	3.457	0.522
1026.499	589.416	79.999	19.994	103.085	20.277	3.579	0.488
1026.999	589.678	80.001	19.995	103.080	20.277	3.589	0.489
1027.499	589.968	80.000	19.993	103.078	20.277	3.555	0.530
1027.999	590.175	80.002	19.995	103.078	20.277	3.574	0.524
1028.499	590.437	79.998	19.995	103.079	20.279	3.423	0.483
1028.999	590.717	80.000	19.994	103.079	20.275	3.687	0.505
1029.499	590.965	79.999	19.995	103.078	20.277	3.539	0.535
1029.999	591.234	79.998	19.995	103.078	20.274	3.789	0.523
1030.499	591.458	79.999	19.995	103.078	20.277	3.559	0.505
1030.999	591.735	80.000	19.994	103.077	20.276	3.628	0.497
1031.499	591.990	79.999	19.995	103.077	20.275	3.696	0.516
1031.999	592.212	79.999	19.994	103.077	20.276	3.596	0.504
1032.500	592.486	79.998	19.994	103.077	20.272	3.893	0.487
1033.000	592.727	79.999	19.995	103.078	20.271	3.935	0.506
1033.499	592.989	79.998	19.994	103.080	20.275	3.726	0.509
1033.999	593.295	79.999	19.996	103.080	20.275	3.672	0.535
1034.499	593.553	80.000	19.995	103.080	20.275	3.672	0.566
1034.999	593.762	79.998	19.996	103.080	20.274	3.772	0.516
1035.499	594.016	79.999	19.995	103.079	20.272	3.898	0.466
1035.999	594.304	79.998	19.995	103.077	20.271	3.945	0.503
1036.499	594.575	79.998	19.996	103.078	20.273	3.828	0.550
1036.999	594.853	79.998	19.994	103.078	20.274	3.748	0.554
1037.499	595.111	79.997	19.995	103.077	20.273	3.824	0.543
1037.999	595.367	79.998	19.995	103.077	20.271	3.984	0.525
1038.499	595.622	79.999	19.996	103.076	20.272	3.891	0.512
1038.999	595.864	79.999	19.996	103.075	20.275	3.678	0.504
1039.499	596.158	79.997	19.995	103.075	20.272	3.913	0.517
1039.999	596.419	79.999	19.996	103.076	20.271	3.941	0.545
1040.499	596.687	79.998	19.996	103.081	20.273	3.856	0.542
1040.999	596.892	79.997	19.996	103.082	20.273	3.845	0.501
1041.499	597.166	79.998	19.995	103.082	20.270	4.024	0.476
1041.999	597.408	79.996	19.995	103.081	20.269	4.104	0.498
1042.499	597.666	79.996	19.995	103.077	20.270	4.011	0.508
1042.999	597.954	79.997	19.995	103.073	20.270	4.041	0.523
1043.499	598.190	79.996	19.996	103.073	20.273	3.824	0.535
1043.999	598.472	79.996	19.996	103.075	20.270	4.036	0.521
1044.500	598.693	79.997	19.996	103.077	20.272	3.906	0.511
1045.000	598.945	79.996	19.996	103.081	20.271	3.977	0.488
1045.499	599.227	79.997	19.996	103.081	20.273	3.819	0.503
1045.999	599.460	79.997	19.995	103.082	20.272	3.895	0.525
1046.499	599.692	79.998	19.995	103.081	20.274	3.750	0.490
1046.999	599.964	79.997	19.995	103.081	20.273	3.832	0.484
1047.500	600.216	79.998	19.996	103.082	20.272	3.926	0.514
1048.001	600.491	79.998	19.994	103.081	20.273	3.830	0.525
1048.500	600.733	79.998	19.994	103.080	20.270	4.006	0.522
1048.999	601.023	79.999	19.996	103.080	20.272	3.886	0.524
1049.499	601.254	79.997	19.994	103.081	20.270	4.016	0.527
1049.999	601.495	79.999	19.995	103.082	20.269	4.071	0.496
1050.500	601.774	79.998	19.995	103.082	20.272	3.875	0.496
1051.000	602.017	79.998	19.994	103.082	20.269	4.095	0.521
1051.499	602.297	80.000	19.995	103.082	20.271	3.969	0.522
1051.999	602.523	80.000	19.995	103.080	20.269	4.125	0.514
1052.499	602.782	79.999	19.994	103.072	20.269	4.095	0.496
1052.999	603.043	80.000	19.994	103.067	20.271	3.969	0.503
1053.500	603.255	79.998	19.996	103.066	20.269	4.119	0.496
1054.000	603.532	79.998	19.996	103.065	20.270	4.001	0.481
1054.500	603.770	79.999	19.994	103.068	20.269	4.071	0.502
1055.001	604.044	79.999	19.995	103.077	20.270	4.015	0.514
1055.500	604.313	79.998	19.995	103.082	20.270	4.053	0.528
1055.999	604.537	79.999	19.995	103.085	20.270	4.034	0.518
1056.499	604.827	79.999	19.995	103.085	20.271	3.979	0.503
1056.999	605.092	79.999	19.994	103.084	20.270	4.021	0.535
1057.499	605.347	80.001	19.994	103.081	20.268	4.140	0.538
1057.999	605.547	80.001	19.994	103.081	20.270	4.003	0.487
1058.499	605.819	79.998	19.995	103.079	20.271	3.936	0.463
1058.999	606.071	80.000	19.994	103.080	20.271	3.979	0.498
1059.499	606.329	79.999	19.994	103.088	20.269	4.105	0.517
1059.999	606.617	80.000	19.995	103.093	20.273	3.808	0.528
1060.500	606.838	79.998	19.994	103.094	20.271	3.953	0.528
1061.001	607.089	80.000	19.994	103.094	20.270	4.025	0.490
1061.500	607.382	79.998	19.995	103.093	20.271	3.972	0.508
1061.999	607.606	79.997	19.995	103.085	20.269	4.112	0.531
1062.499	607.865	79.997	19.994	103.079	20.270	4.016	0.500
1062.999	608.117	79.998	19.995	103.079	20.268	4.145	0.497
1063.499	608.375	79.999	19.995	103.082	20.269	4.078	0.510
1063.999	608.594	79.998	19.996	103.082	20.270	4.030	0.493
1064.499	608.908	79.998	19.995	103.084	20.269	4.093	0.505
1064.999	609.148	79.997	19.995	103.084	20.267	4.232	0.544
1065.499	609.384	79.997	19.994	103.084	20.270	4.019	0.515
1065.999	609.666	79.998	19.996	103.083	20.271	3.939	0.497
1066.500	609.885	79.998	19.995	103.087	20.269	4.069	0.509
1067.000	610.131	79.996	19.997	103.087	20.270	4.058	0.483
1067.499	610.382	79.997	19.996	103.090	20.273	3.828	0.481
1067.999	610.615	79.998	19.996	103.095	20.273	3.848	0.491
1068.499	610.899	79.999	19.996	103.096	20.269	4.075	0.500
1068.999	611.136	79.999	19.996	103.093	20.273	3.843	0.519
1069.499	611.410	79.999	19.995	103.092	20.271	3.954	0.516
1069.999	611.645	79.998	19.996	103.090	20.270	4.030	0.510
1070.499	611.906	79.998	19.996	103.087	20.272	3.898	0.503
1070.999	612.163	79.998	19.996	103.089	20.269	4.123	0.507
1071.500	612.451	79.998	19.995	103.095	20.270	4.002	0.531
1072.000	612.697	79.998	19.994	103.098	20.269	4.073	0.539
1072.499	612.972	80.000	19.996	103.100	20.269	4.097	0.527
1072.999	613.179	79.998	19.996	103.097	20.269	4.089	0.501
1073.499	613.451	79.999	19.996	103.091	20.270	4.047	0.481
1073.999	613.689	80.000	19.995	103.086	20.271	3.987	0.495
1074.499	613.977	79.999	19.995	103.081	20.269	4.071	0.518
1075.000	614.204	80.000	19.994	103.079	20.271	3.976	0.520
1075.500	614.460	79.999	19.995	103.078	20.271	3.991	0.499
1075.999	614.687	80.000	19.995	103.078	20.270	4.006	0.483
1076.499	614.984	79.999	19.996	103.076	20.272	3.882	0.503
1076.999	615.227	80.000	19.994	103.076	20.272	3.891	0.532
1077.499	615.431	80.000	19.994	103.076	20.272	3.874	0.493
1077.999	615.730	80.001	19.995	103.078	20.271	3.991	0.475
1078.499	615.975	80.000	19.995	103.080	20.270	4.058	0.524
1078.999	616.221	80.002	19.994	103.081	20.269	4.078	0.518
1079.499	616.474	80.000	19.994	103.081	20.269	4.103	0.495
1079.999	616.747	80.001	19.994	103.080	20.269	4.099	0.513
1080.499	616.977	80.001	19.994	103.078	20.269	4.121	0.515
1080.999	617.251	80.000	19.994	103.078	20.269	4.131	0.504
1081.499	617.509	80.001	19.995	103.079	20.271	3.955	0.517
1082.000	617.771	80.001	19.994	103.078	20.267	4.224	0.526
1082.501	618.008	79.999	19.994	103.078	20.269	4.079	0.510
1083.000	618.256	80.001	19.993	103.080	20.268	4.153	0.492
1083.500	618.512	80.000	19.994	103.081	20.269	4.095	0.495
1084.000	618.750	80.001	19.995	103.080	20.266	4.301	0.499
1084.499	619.039	80.000	19.994	103.080	20.269	4.130	0.510
1084.999	619.271	80.000	19.993	103.080	20.270	4.056	0.524
1085.499	619.536	79.999	19.995	103.079	20.264	4.425	0.508
1085.999	619.773	80.000	19.994	103.076	20.266	4.299	0.499
1086.499	620.016	79.999	19.995	103.076	20.268	4.199	0.491
1087.000	620.326	79.999	19.994	103.077	20.264	4.414	0.517
1087.500	620.540	80.000	19.993	103.077	20.266	4.273	0.539
1087.999	620.804	80.000	19.994	103.077	20.266	4.293	0.501
1088.499	621.072	79.999	19.994	103.080	20.268	4.175	0.504
1088.999	621.318	79.998	19.994	103.083	20.267	4.223	0.523
1089.500	621.595	79.999	19.993	103.082	20.270	4.026	0.519
1090.000	621.834	80.001	19.994	103.083	20.270	4.034	0.520
1090.499	622.122	79.998	19.994	103.087	20.268	4.145	0.521
1090.999	622.330	79.999	19.994	103.088	20.268	4.156	0.511
1091.499	622.606	79.998	19.994	103.088	20.266	4.319	0.490
1092.000	622.818	79.999	19.993	103.092	20.269	4.075	0.486
1092.500	623.118	79.997	19.993	103.097	20.269	4.100	0.500
1092.999	623.368	79.999	19.994	103.094	20.267	4.247	0.531
1093.500	623.612	79.999	19.994	103.090	20.267	4.202	0.522
1094.000	623.864	79.999	19.993	103.086	20.268	4.152	0.495
1094.499	624.148	80.000	19.994	103.082	20.267	4.266	0.516
1094.999	624.391	80.000	19.995	103.077	20.268	4.195	0.532
1095.499	624.641	79.998	19.994	103.075	20.268	4.140	0.510
1095.999	624.889	79.999	19.995	103.074	20.265	4.363	0.495
1096.499	625.135	79.998	19.994	103.075	20.266	4.316	0.496
1096.999	625.388	79.999	19.994	103.075	20.266	4.287	0.497
1097.499	625.639	79.998	19.994	103.076	20.265	4.350	0.502
1097.999	625.878	79.997	19.995	103.077	20.267	4.238	0.497
1098.499	626.154	79.999	19.993	103.079	20.266	4.311	0.502
1098.999	626.405	79.999	19.995	103.078	20.266	4.309	0.521
1099.499	626.675	79.999	19.995	103.078	20.266	4.276	0.524
1099.999	626.893	79.999	19.994	103.077	20.264	4.420	0.504
1100.500	627.205	79.999	19.994	103.079	20.266	4.300	0.509
1101.000	627.398	79.998	19.995	103.080	20.266	4.268	0.518
1101.499	627.692	79.997	19.995	103.081	20.268	4.137	0.496
1101.999	627.939	79.999	19.994	103.080	20.262	4.580	0.513
1102.499	628.182	79.999	19.995	103.080	20.265	4.376	0.515
1102.999	628.443	79.999	19.995	103.078	20.265	4.400	0.497
1103.500	628.705	79.999	19.994	103.076	20.261	4.615	0.514
1104.001	628.981	79.997	19.995	103.075	20.262	4.552	0.530
1104.500	629.192	79.999	19.996	103.075	20.262	4.588	0.512
1105.000	629.469	79.998	19.995	103.077	20.265	4.347	0.488
1105.500	629.689	79.998	19.994	103.079	20.264	4.439	0.492
1105.999	629.985	79.999	19.994	103.084	20.261	4.612	0.507
1106.499	630.221	79.999	19.995	103.087	20.262	4.582	0.524
1106.999	630.471	79.999	19.994	103.093	20.264	4.404	0.509
1107.499	630.746	79.998	19.994	103.095	20.265	4.391	0.505
1108.000	631.006	79.998	19.995	103.096	20.264	4.446	0.530
1108.500	631.238	79.998	19.994	103.093	20.262	4.573	0.514
1108.999	631.506	79.998	19.993	103.094	20.262	4.601	0.496
1109.499	631.750	79.999	19.995	103.094	20.265	4.380	0.506
1110.000	632.037	79.998	19.994	103.095	20.264	4.412	0.521
1110.500	632.253	79.998	19.993	103.099	20.264	4.410	0.517
1111.000	632.507	79.998	19.994	103.101	20.262	4.548	0.486
1111.500	632.781	79.999	19.994	103.100	20.265	4.400	0.499
1111.999	633.038	79.999	19.995	103.096	20.261	4.649	0.530
1112.499	633.254	79.998	19.994	103.098	20.262	4.599	0.502
1112.999	633.517	79.999	19.995	103.096	20.262	4.562	0.476
1113.499	633.771	80.000	19.994	103.096	20.261	4.643	0.498
1113.999	634.053	79.999	19.993	103.101	20.261	4.610	0.527
1114.499	634.309	79.998	19.995	103.104	20.263	4.516	0.537
1114.999	634.567	79.999	19.994	103.106	20.258	4.810	0.526
1115.499	634.838	80.000	19.994	103.106	20.263	4.475	0.522
1115.999	635.098	79.998	19.993	103.109	20.263	4.512	0.530
1116.499	635.305	79.998	19.994	103.109	20.261	4.636	0.499
1116.999	635.576	79.998	19.993	103.105	20.262	4.581	0.472
1117.499	635.820	79.999	19.994	103.098	20.259	4.750	0.496
1117.999	636.070	79.998	19.994	103.097	20.260	4.707	0.504
1118.499	636.311	79.997	19.994	103.095	20.260	4.718	0.493
1118.999	636.578	79.998	19.994	103.095	20.263	4.536	0.500
1119.499	636.837	79.999	19.993	103.100	20.261	4.647	0.517
1119.999	637.091	79.997	19.994	103.107	20.262	4.577	0.519
1120.500	637.333	79.998	19.993	103.110	20.265	4.343	0.504
1121.000	637.575	79.998	19.994	103.113	20.263	4.497	0.490
1121.499	637.843	79.997	19.995	103.107	20.258	4.853	0.497
1121.999	638.148	79.998	19.995	103.101	20.259	4.770	0.541
1122.499	638.364	79.997	19.994	103.097	20.261	4.610	0.547
1122.999	638.633	79.999	19.993	103.100	20.261	4.621	0.503
1123.499	638.870	79.997	19.994	103.100	20.265	4.401	0.496
1123.999	639.105	79.998	19.994	103.106	20.265	4.386	0.489
1124.499	639.401	79.997	19.993	103.109	20.262	4.584	0.501
1124.999	639.607	79.998	19.994	103.113	20.265	4.362	0.517
1125.499	639.869	79.998	19.994	103.111	20.260	4.677	0.485
1125.999	640.125	79.997	19.995	103.110	20.264	4.445	0.493
1126.499	640.387	79.997	19.995	103.111	20.259	4.754	0.518
1126.999	640.664	79.998	19.995	103.115	20.262	4.575	0.529
1127.499	640.883	79.997	19.994	103.115	20.262	4.556	0.518
1127.999	641.170	79.997	19.995	103.117	20.261	4.671	0.501
1128.499	641.422	79.996	19.995	103.119	20.262	4.551	0.523
1128.999	641.635	79.999	19.995	103.116	20.262	4.558	0.502
1129.499	641.909	79.997	19.994	103.115	20.263	4.506	0.476
1129.999	642.163	79.998	19.994	103.115	20.264	4.467	0.507
1130.499	642.404	79.999	19.994	103.115	20.263	4.490	0.512
1130.999	642.667	79.997	19.994	103.115	20.264	4.469	0.500
1131.499	642.911	79.998	19.994	103.118	20.261	4.649	0.505
1132.000	643.165	79.998	19.995	103.118	20.261	4.608	0.502
1132.500	643.391	79.999	19.994	103.118	20.261	4.632	0.489
1132.999	643.685	79.999	19.994	103.116	20.263	4.478	0.501
1133.499	643.921	79.999	19.994	103.115	20.260	4.684	0.525
1133.999	644.139	79.999	19.994	103.115	20.263	4.517	0.491
1134.499	644.440	79.998	19.995	103.115	20.262	4.542	0.487
1134.999	644.675	79.999	19.995	103.115	20.263	4.475	0.528
1135.499	644.911	79.999	19.994	103.114	20.262	4.592	0.504
1135.999	645.164	79.998	19.994	103.110	20.264	4.415	0.480
1136.499	645.384	80.000	19.994	103.107	20.262	4.558	0.481
1136.999	645.676	80.000	19.996	103.104	20.260	4.675	0.493
1137.499	645.929	80.001	19.995	103.103	20.264	4.451	0.529
1137.999	646.186	80.000	19.995	103.106	20.263	4.532	0.528
1138.499	646.458	80.000	19.994	103.110	20.262	4.584	0.519
1139.000	646.704	80.000	19.995	103.113	20.261	4.644	0.523
1139.500	646.921	79.999	19.995	103.113	20.264	4.406	0.490
1139.999	647.176	80.000	19.995	103.112	20.264	4.427	0.467
1140.500	647.396	80.000	19.995	103.110	20.262	4.603	0.473
1141.000	647.647	79.999	19.994	103.110	20.260	4.718	0.473
1141.499	647.918	80.000	19.995	103.111	20.260	4.740	0.496
1141.999	648.153	80.000	19.995	103.112	20.260	4.716	0.514
1142.499	648.405	80.000	19.994	103.113	20.261	4.612	0.497
1142.999	648.679	79.998	19.994	103.112	20.256	5.004	0.507
1143.499	648.952	80.000	19.995	103.112	20.259	4.791	0.536
1143.999	649.189	80.000	19.995	103.112	20.256	4.993	0.528
1144.499	649.407	79.999	19.995	103.111	20.254	5.110	0.483
1144.999	649.697	80.000	19.994	103.111	20.255	5.076	0.482
1145.499	649.940	80.001	19.994	103.114	20.258	4.868	0.520
1145.999	650.167	80.001	19.995	103.115	20.255	5.067	0.502
1146.499	650.463	79.999	19.995	103.115	20.255	5.030	0.496
1146.999	650.686	80.001	19.995	103.115	20.256	4.970	0.521
1147.499	650.916	80.000	19.995	103.115	20.256	5.009	0.486
1147.999	651.188	79.999	19.994	103.114	20.257	4.909	0.477
1148.499	651.469	80.000	19.995	103.115	20.259	4.751	0.527
1149.000	651.748	79.999	19.995	103.117	20.259	4.788	0.556
1149.500	651.986	80.001	19.995	103.118	20.258	4.872	0.539
1149.999	652.232	80.000	19.995	103.119	20.255	5.024	0.501
1150.500	652.500	80.001	19.995	103.120	20.258	4.851	0.499
1151.000	652.754	80.000	19.995	103.118	20.257	4.896	0.518
1151.499	652.968	80.000	19.994	103.116	20.259	4.781	0.495
1151.999	653.233	80.000	19.995	103.115	20.255	5.044	0.474
1152.499	653.480	80.000	19.995	103.114	20.256	4.966	0.495
1152.999	653.724	80.000	19.995	103.113	20.257	4.933	0.501
1153.499	654.001	80.001	19.995	103.118	20.256	4.983	0.506
1153.999	654.254	80.001	19.995	103.119	20.255	5.068	0.525
1154.499	654.529	80.001	19.994	103.122	20.251	5.293	0.529
1155.000	654.750	79.999	19.994	103.124	20.256	5.011	0.512
1155.500	655.015	80.000	19.995	103.123	20.256	4.956	0.491
1155.999	655.224	79.999	19.995	103.119	20.256	4.969	0.480
1156.500	655.522	79.999	19.995	103.120	20.256	4.998	0.490
1157.000	655.758	80.001	19.995	103.117	20.253	5.163	0.521
1157.500	655.982	80.000	19.994	103.115	20.252	5.234	0.497
1158.000	656.247	80.002	19.996	103.115	20.254	5.093	0.474
1158.500	656.504	79.999	19.995	103.116	20.255	5.036	0.505
1159.000	656.733	80.000	19.995	103.115	20.253	5.197	0.504
1159.499	656.980	80.001	19.995	103.115	20.253	5.153	0.481
1159.999	657.250	80.000	19.995	103.115	20.252	5.229	0.496
1160.499	657.509	80.001	19.996	103.114	20.254	5.112	0.523
1160.999	657.764	80.001	19.995	103.114	20.252	5.220	0.522
1161.500	658.018	80.001	19.996	103.113	20.252	5.242	0.512
1162.000	658.242	80.000	19.995	103.113	20.253	5.183	0.494
1162.499	658.520	80.001	19.996	103.113	20.253	5.215	0.490
1162.999	658.764	80.000	19.995	103.113	20.251	5.317	0.512
1163.499	659.001	79.999	19.994	103.112	20.253	5.192	0.501
1164.000	659.254	80.000	19.995	103.112	20.253	5.155	0.486
1164.500	659.513	80.000	19.994	103.112	20.252	5.261	0.501
1164.999	659.750	80.001	19.995	103.112	20.250	5.376	0.504
1165.499	660.010	80.000	19.995	103.116	20.253	5.149	0.497
1165.999	660.269	80.000	19.994	103.119	20.251	5.346	0.508
1166.499	660.498	80.001	19.995	103.120	20.251	5.322	0.504
1167.000	660.768	80.000	19.996	103.121	20.253	5.205	0.493
1167.500	660.975	80.001	19.995	103.122	20.252	5.227	0.488
1167.999	661.267	80.002	19.995	103.119	20.253	5.168	0.487
1168.499	661.493	80.000	19.995	103.124	20.252	5.268	0.509
1169.000	661.725	80.000	19.996	103.125	20.251	5.300	0.488
1169.500	661.995	80.000	19.996	103.129	20.256	4.962	0.480
1169.999	662.221	80.000	19.994	103.132	20.250	5.374	0.499
1170.499	662.483	80.000	19.995	103.137	20.249	5.435	0.492
1170.999	662.771	79.999	19.995	103.132	20.248	5.500	0.519
1171.499	662.997	80.000	19.994	103.134	20.248	5.549	0.531
1171.999	663.238	79.997	19.995	103.136	20.252	5.230	0.491
1172.499	663.514	80.000	19.995	103.137	20.249	5.469	0.492
1173.000	663.725	79.999	19.995	103.138	20.251	5.302	0.502
1173.500	664.014	79.999	19.994	103.140	20.253	5.163	0.493
1173.999	664.244	79.998	19.994	103.139	20.249	5.449	0.510
1174.499	664.478	79.999	19.993	103.136	20.248	5.499	0.491
1174.999	664.741	79.999	19.995	103.137	20.250	5.401	0.480
1175.499	664.987	79.999	19.994	103.138	20.248	5.536	0.503
1175.999	665.231	79.998	19.994	103.139	20.248	5.516	0.499
1176.500	665.501	79.997	19.994	103.137	20.248	5.499	0.502
1177.000	665.768	79.998	19.994	103.142	20.249	5.459	0.526
1177.499	666.023	79.999	19.994	103.142	20.247	5.611	0.530
1177.999	666.234	79.998	19.994	103.137	20.251	5.340	0.494
1178.499	666.504	79.999	19.993	103.135	20.245	5.717	0.473
1178.999	666.740	79.999	19.995	103.139	20.247	5.616	0.493
1179.499	667.023	79.998	19.994	103.140	20.250	5.390	0.513
1179.999	667.291	79.999	19.994	103.138	20.249	5.479	0.535
1180.499	667.508	79.999	19.994	103.137	20.247	5.598	0.518
1180.999	667.778	79.999	19.995	103.137	20.246	5.639	0.486
1181.499	668.055	79.998	19.994	103.136	20.247	5.570	0.517
1181.999	668.316	80.000	19.994	103.136	20.241	5.999	0.543
1182.500	668.565	79.999	19.993	103.140	20.244	5.804	0.524
1183.000	668.827	79.998	19.994	103.148	20.242	5.952	0.510
1183.500	669.071	79.999	19.994	103.152	20.245	5.735	0.509
1184.000	669.309	79.999	19.994	103.154	20.246	5.672	0.494
1184.499	669.587	80.000	19.994	103.155	20.247	5.590	0.499
1184.999	669.770	79.999	19.994	103.156	20.243	5.826	0.488
1185.500	670.059	79.998	19.992	103.155	20.246	5.676	0.466
1186.000	670.309	79.999	19.995	103.156	20.245	5.711	0.505
1186.499	670.568	79.999	19.995	103.157	20.245	5.719	0.524
1186.999	670.774	79.999	19.994	103.157	20.245	5.721	0.487
1187.499	671.073	80.000	19.994	103.158	20.245	5.710	0.485
1187.999	671.320	79.999	19.993	103.158	20.244	5.795	0.526
1188.499	671.569	79.999	19.994	103.157	20.240	6.031	0.521
1188.999	671.803	79.999	19.994	103.158	20.244	5.825	0.489
1189.499	672.102	79.999	19.994	103.158	20.242	5.932	0.508
1189.999	672.305	79.998	19.994	103.157	20.242	5.930	0.518
1190.499	672.616	79.999	19.995	103.157	20.242	5.932	0.508
1190.999	672.848	79.999	19.993	103.159	20.241	5.961	0.529
1191.499	673.116	79.998	19.995	103.161	20.243	5.831	0.521
1191.999	673.372	79.999	19.995	103.161	20.241	5.978	0.512
1192.499	673.641	79.998	19.994	103.162	20.242	5.924	0.525
1192.999	673.906	79.998	19.995	103.162	20.243	5.850	0.529
1193.499	674.161	79.999	19.995	103.160	20.243	5.865	0.527
1193.999	674.382	79.998	19.994	103.157	20.245	5.735	0.499
1194.499	674.626	79.999	19.994	103.157	20.241	6.006	0.471
1194.999	674.916	79.998	19.995	103.157	20.241	5.982	0.499
1195.499	675.155	79.999	19.994	103.156	20.240	6.075	0.531
1195.999	675.398	79.998	19.995	103.156	20.239	6.116	0.506
1196.499	675.651	79.998	19.994	103.159	20.238	6.216	0.490
1196.999	675.907	79.999	19.994	103.159	20.238	6.205	0.503
1197.499	676.177	79.999	19.994	103.160	20.238	6.201	0.517
1198.000	676.463	79.999	19.995	103.164	20.238	6.179	0.541
1198.500	676.702	79.999	19.994	103.166	20.238	6.174	0.540
1198.999	676.941	79.998	19.995	103.164	20.241	6.005	0.502
1199.499	677.202	79.998	19.993	103.164	20.237	6.238	0.489
1200.000	677.484	79.997	19.994	103.164	20.239	6.156	0.522
1200.500	677.708	80.000	19.993	103.158	20.234	6.448	0.524
1200.999	677.979	79.999	19.994	103.154	20.235	6.423	0.500
1201.499	678.231	80.000	19.995	103.155	20.236	6.368	0.509
1202.000	678.492	79.998	19.994	103.155	20.236	6.327	0.519
1202.500	678.706	79.999	19.995	103.155	20.238	6.230	0.494
1202.999	678.981	79.999	19.994	103.156	20.233	6.509	0.481
1203.499	679.282	79.999	19.994	103.158	20.234	6.473	0.532
1203.999	679.474	79.998	19.994	103.157	20.233	6.551	0.534
1204.499	679.707	79.999	19.994	103.157	20.236	6.304	0.459
1204.999	680.011	79.999	19.995	103.157	20.233	6.536	0.482
1205.499	680.250	79.999	19.995	103.158	20.235	6.425	0.540
1205.999	680.509	79.998	19.995	103.157	20.233	6.524	0.520
1206.499	680.753	79.998	19.994	103.157	20.234	6.455	0.500
1206.999	681.013	79.998	19.995	103.156	20.233	6.509	0.504
1207.499	681.261	79.999	19.994	103.157	20.236	6.355	0.507
1207.999	681.511	79.998	19.994	103.156	20.236	6.311	0.503
1208.499	681.763	79.999	19.994	103.157	20.233	6.515	0.500
1208.999	682.007	79.998	19.995	103.162	20.234	6.480	0.499
1209.499	682.269	79.999	19.995	103.168	20.233	6.506	0.501
1209.999	682.527	80.000	19.994	103.174	20.235	6.433	0.513
1210.499	682.763	80.000	19.993	103.180	20.237	6.283	0.507
1210.999	683.036	79.999	19.995	103.182	20.235	6.400	0.502
1211.500	683.291	79.999	19.994	103.183	20.233	6.519	0.518
1212.000	683.515	79.999	19.993	103.183	20.235	6.370	0.503
1212.499	683.765	79.999	19.993	103.182	20.234	6.483	0.477
1212.999	684.018	79.999	19.993	103.182	20.235	6.405	0.488
1213.499	684.267	80.000	19.994	103.185	20.236	6.368	0.502
1213.999	684.535	79.999	19.995	103.182	20.233	6.543	0.510
1214.499	684.758	80.000	19.994	103.176	20.235	6.404	0.504
1214.999	685.005	80.000	19.994	103.173	20.233	6.563	0.480
1215.500	685.283	80.001	19.995	103.170	20.230	6.723	0.497
1216.001	685.560	79.999	19.994	103.171	20.230	6.708	0.540
1216.500	685.789	80.001	19.994	103.175	20.236	6.359	0.531
1216.999	686.024	80.001	19.994	103.182	20.234	6.461	0.485
1217.499	686.303	80.000	19.994	103.189	20.233	6.515	0.489
1217.999	686.555	80.000	19.994	103.192	20.232	6.578	0.522
1218.499	686.802	80.001	19.994	103.192	20.233	6.567	0.515
1218.999	687.003	80.001	19.994	103.192	20.230	6.758	0.474
1219.499	687.331	80.001	19.994	103.192	20.230	6.745	0.489
1219.999	687.571	80.001	19.994	103.192	20.230	6.717	0.548
1220.499	687.827	80.001	19.993	103.191	20.230	6.708	0.532
1220.999	688.073	80.000	19.994	103.192	20.232	6.627	0.499
1221.499	688.365	80.000	19.994	103.191	20.231	6.705	0.520
1222.000	688.600	80.000	19.994	103.191	20.228	6.869	0.533
1222.500	688.863	80.000	19.995	103.191	20.230	6.737	0.513
1222.999	689.116	80.000	19.994	103.191	20.230	6.729	0.507
1223.499	689.363	80.001	19.994	103.192	20.231	6.655	0.508
1223.999	689.605	80.000	19.995	103.192	20.228	6.848	0.494
1224.499	689.867	80.000	19.995	103.192	20.226	6.991	0.496
1224.999	690.124	79.999	19.996	103.192	20.226	6.985	0.511
1225.499	690.372	80.001	19.995	103.193	20.226	6.980	0.512
1225.999	690.647	80.000	19.996	103.192	20.228	6.885	0.514
1226.499	690.884	80.000	19.995	103.192	20.228	6.873	0.518
1226.999	691.140	79.999	19.995	103.192	20.228	6.859	0.503
1227.499	691.386	80.001	19.996	103.193	20.226	7.030	0.497
1227.999	691.633	79.999	19.995	103.193	20.224	7.128	0.497
1228.499	691.878	80.000	19.995	103.193	20.224	7.132	0.492
1228.999	692.128	80.000	19.995	103.193	20.226	7.017	0.494
1229.499	692.368	80.000	19.994	103.193	20.224	7.124	0.493
1229.999	692.629	79.999	19.994	103.192	20.225	7.102	0.495
1230.500	692.899	79.999	19.995	103.192	20.225	7.098	0.516
1231.000	693.153	79.999	19.995	103.192	20.225	7.049	0.528
1231.499	693.409	79.998	19.995	103.197	20.224	7.169	0.517
1231.999	693.661	79.998	19.994	103.199	20.225	7.088	0.509
1232.499	693.905	80.000	19.996	103.203	20.221	7.344	0.502
1233.000	694.160	79.999	19.995	103.204	20.224	7.132	0.497
1233.501	694.426	80.000	19.995	103.208	20.223	7.210	0.510
1234.000	694.649	80.000	19.995	103.205	20.223	7.220	0.505
1234.499	694.945	80.000	19.995	103.204	20.226	7.021	0.504
1234.999	695.138	80.000	19.995	103.200	20.220	7.416	0.504
1235.499	695.425	80.000	19.994	103.198	20.224	7.169	0.484
1235.999	695.693	80.000	19.995	103.196	20.224	7.119	0.517
1236.499	695.945	80.000	19.994	103.202	20.224	7.115	0.537
1237.000	696.194	80.000	19.995	103.207	20.223	7.225	0.511
1237.500	696.439	79.999	19.994	103.212	20.224	7.166	0.498
1237.999	696.681	80.000	19.994	103.221	20.220	7.451	0.491
1238.499	696.970	79.999	19.994	103.228	20.222	7.278	0.509
1239.000	697.239	80.001	19.994	103.229	20.223	7.243	0.544
1239.500	697.478	80.000	19.994	103.226	20.222	7.316	0.533
1239.999	697.676	80.000	19.995	103.227	20.221	7.353	0.473
1240.499	697.972	80.001	19.993	103.225	20.220	7.428	0.465
1240.999	698.171	80.000	19.994	103.225	20.220	7.402	0.495
1241.499	698.426	80.001	19.994	103.226	20.221	7.343	0.475
1241.999	698.697	80.001	19.994	103.230	20.219	7.489	0.490
1242.499	698.953	80.000	19.994	103.233	20.219	7.465	0.527
1243.000	699.237	80.001	19.994	103.235	20.219	7.521	0.533
1243.501	699.469	80.002	19.994	103.235	20.219	7.465	0.528
1244.000	699.720	80.001	19.994	103.235	20.222	7.266	0.499
1244.499	699.968	80.001	19.994	103.234	20.218	7.545	0.491
1244.999	700.228	80.001	19.994	103.232	20.218	7.582	0.504
1245.499	700.505	80.000	19.994	103.232	20.216	7.714	0.523
1245.999	700.729	80.001	19.995	103.232	20.219	7.491	0.519
1246.499	701.006	80.001	19.994	103.231	20.213	7.879	0.501
1246.999	701.273	80.002	19.995	103.232	20.215	7.777	0.522
1247.499	701.495	80.002	19.995	103.231	20.220	7.452	0.517
1247.999	701.787	80.002	19.995	103.230	20.216	7.668	0.502
1248.499	702.072	80.001	19.993	103.229	20.217	7.658	0.545
1248.999	702.243	80.000	19.994	103.226	20.216	7.673	0.517
1249.499	702.524	80.000	19.994	103.225	20.216	7.693	0.454
1250.000	702.808	80.000	19.994	103.227	20.217	7.630	0.508
1250.500	703.038	80.001	19.995	103.232	20.219	7.522	0.539
1250.999	703.278	80.000	19.994	103.234	20.218	7.555	0.492
1251.499	703.516	80.001	19.994	103.237	20.217	7.647	0.474
1251.999	703.768	80.001	19.995	103.239	20.219	7.482	0.484
1252.499	704.030	79.999	19.994	103.238	20.217	7.655	0.502
1252.999	704.313	79.999	19.995	103.234	20.219	7.504	0.529
1253.499	704.556	79.997	19.995	103.232	20.217	7.616	0.535
1254.000	704.785	79.998	19.995	103.233	20.217	7.638	0.499
1254.500	705.045	79.996	19.995	103.235	20.216	7.722	0.481
1254.999	705.267	79.998	19.995	103.238	20.213	7.867	0.485
1255.499	705.529	79.997	19.995	103.238	20.215	7.794	0.483
1255.999	705.784	79.998	19.996	103.238	20.213	7.903	0.501
1256.499	706.034	79.998	19.994	103.238	20.215	7.789	0.511
1256.999	706.297	79.999	19.995	103.236	20.211	8.006	0.509
1257.500	706.555	79.998	19.996	103.234	20.212	7.993	0.516
1258.000	706.815	79.998	19.997	103.235	20.212	7.992	0.519
1258.500	707.072	79.997	19.995	103.242	20.211	7.998	0.518
1259.000	707.331	79.996	19.996	103.248	20.212	7.935	0.517
1259.500	707.589	79.998	19.995	103.253	20.209	8.186	0.516
1260.000	707.841	79.998	19.994	103.256	20.209	8.182	0.514
1260.499	708.082	79.998	19.995	103.256	20.212	7.974	0.502
1261.000	708.349	79.998	19.995	103.252	20.213	7.928	0.500
1261.500	708.592	79.998	19.996	103.248	20.213	7.926	0.509
1261.999	708.874	79.998	19.996	103.250	20.211	8.055	0.518
1262.499	709.126	79.999	19.995	103.255	20.210	8.099	0.530
1262.999	709.338	79.998	19.995	103.260	20.210	8.085	0.499
1263.499	709.612	79.998	19.996	103.263	20.214	7.855	0.475
1263.999	709.874	79.998	19.996	103.267	20.210	8.106	0.511
1264.499	710.134	79.999	19.994	103.268	20.213	7.922	0.529
1264.999	710.384	79.998	19.995	103.269	20.210	8.106	0.516
1265.499	710.668	80.000	19.995	103.267	20.210	8.131	0.522
1265.999	710.895	79.998	19.995	103.267	20.211	8.045	0.522
1266.499	711.122	79.999	19.994	103.261	20.211	8.012	0.483
1267.000	711.396	79.998	19.994	103.255	20.208	8.228	0.477
1267.500	711.617	80.000	19.994	103.251	20.209	8.138	0.498
1267.999	711.888	80.000	19.995	103.248	20.207	8.326	0.493
1268.499	712.128	79.999	19.995	103.246	20.211	8.051	0.502
1268.999	712.387	79.999	19.994	103.251	20.210	8.083	0.505
1269.499	712.650	79.999	19.994	103.255	20.207	8.311	0.511
1269.999	712.914	80.000	19.994	103.256	20.208	8.239	0.525
1270.499	713.176	79.998	19.994	103.257	20.207	8.270	0.526
1270.999	713.409	79.998	19.995	103.262	20.208	8.255	0.510
1271.499	713.671	79.999	19.994	103.264	20.207	8.306	0.496
1271.999	713.915	79.999	19.994	103.265	20.204	8.475	0.501
1272.499	714.169	80.000	19.994	103.267	20.206	8.354	0.501
1272.999	714.412	79.999	19.994	103.270	20.207	8.319	0.497
1273.499	714.667	80.000	19.994	103.265	20.203	8.553	0.498
1273.999	714.948	79.999	19.994	103.260	20.207	8.328	0.517
1274.499	715.192	79.997	19.993	103.260	20.207	8.312	0.531
1274.999	715.485	79.999	19.994	103.260	20.204	8.494	0.531
1275.499	715.738	79.999	19.995	103.260	20.204	8.493	0.542
1275.999	715.965	80.000	19.994	103.265	20.203	8.586	0.513
1276.500	716.234	80.000	19.994	103.270	20.205	8.439	0.488
1277.000	716.495	80.000	19.994	103.271	20.203	8.584	0.513
1277.499	716.742	80.000	19.995	103.272	20.202	8.623	0.518
1277.999	717.023	80.000	19.993	103.272	20.198	8.894	0.518
1278.499	717.252	80.000	19.994	103.272	20.200	8.761	0.519
1278.999	717.492	80.000	19.995	103.274	20.199	8.813	0.490
1279.499	717.751	80.000	19.993	103.273	20.199	8.823	0.484
1279.999	717.987	79.999	19.994	103.273	20.198	8.892	0.497
1280.499	718.257	79.999	19.995	103.273	20.200	8.795	0.501
1281.000	718.505	79.998	19.994	103.273	20.201	8.730	0.512
1281.500	718.753	80.000	19.995	103.271	20.200	8.790	0.507
1282.000	719.004	80.000	19.994	103.271	20.201	8.700	0.497
1282.500	719.280	80.000	19.995	103.271	20.198	8.899	0.513
1283.000	719.484	79.999	19.994	103.271	20.194	9.178	0.503
1283.501	719.774	80.000	19.994	103.272	20.197	8.972	0.487
1284.000	720.009	79.999	19.995	103.273	20.197	8.954	0.509
1284.499	720.261	80.000	19.994	103.274	20.201	8.693	0.506
1284.999	720.545	79.999	19.995	103.274	20.200	8.810	0.512
1285.499	720.796	79.999	19.995	103.281	20.200	8.760	0.536
1285.999	721.028	79.998	19.995	103.284	20.198	8.883	0.509
1286.499	721.287	79.999	19.994	103.290	20.199	8.833	0.487
1286.999	721.549	79.999	19.994	103.294	20.199	8.879	0.506
1287.499	721.789	79.998	19.995	103.296	20.197	8.969	0.512
1287.999	722.050	79.999	19.994	103.290	20.197	8.982	0.502
1288.499	722.318	79.999	19.995	103.291	20.199	8.851	0.515
1288.999	722.558	79.998	19.995	103.291	20.196	9.035	0.518
1289.499	722.805	79.999	19.995	103.295	20.194	9.173	0.498
1289.999	723.026	80.000	19.994	103.300	20.195	9.145	0.478
1290.499	723.299	79.997	19.995	103.306	20.197	8.956	0.481
1290.999	723.582	79.999	19.994	103.309	20.196	9.071	0.525
1291.499	723.821	79.999	19.994	103.306	20.196	9.080	0.539
1291.999	724.061	79.999	19.994	103.304	20.194	9.200	0.501
1292.499	724.308	79.998	19.995	103.305	20.195	9.096	0.483
1292.999	724.564	79.998	19.994	103.305	20.196	9.072	0.495
1293.499	724.792	79.999	19.995	103.305	20.194	9.169	0.493
1293.999	725.061	79.999	19.994	103.307	20.197	9.014	0.491
1294.499	725.308	79.999	19.995	103.309	20.195	9.142	0.507
1294.999	725.563	79.999	19.994	103.309	20.193	9.233	0.509
1295.499	725.821	80.000	19.994	103.307	20.194	9.211	0.507
1295.999	726.076	79.999	19.995	103.308	20.194	9.180	0.513
1296.499	726.285	80.000	19.995	103.309	20.195	9.125	0.489
1296.999	726.566	79.999	19.995	103.310	20.190	9.455	0.477
1297.499	726.819	80.000	19.994	103.310	20.195	9.145	0.512
1297.999	727.062	80.000	19.995	103.311	20.191	9.366	0.515
1298.499	727.332	80.000	19.995	103.310	20.191	9.372	0.504
1298.999	727.591	80.000	19.995	103.310	20.190	9.454	0.521
1299.500	727.831	80.001	19.994	103.309	20.189	9.528	0.514
1300.001	728.118	80.001	19.994	103.309	20.190	9.458	0.513
1300.501	728.367	79.999	19.994	103.309	20.190	9.432	0.532
1301.001	728.568	80.000	19.994	103.310	20.188	9.579	0.493
1301.501	728.850	80.000	19.994	103.310	20.190	9.462	0.466
1302.000	729.093	79.999	19.994	103.312	20.190	9.479	0.504
1302.500	729.323	80.002	19.994	103.315	20.189	9.557	0.499
1303.000	729.588	80.001	19.994	103.321	20.189	9.521	0.484
1303.500	729.846	80.000	19.993	103.323	20.192	9.352	0.509
1304.000	730.074	80.000	19.994	103.325	20.188	9.624	0.505
1304.500	730.371	80.003	19.994	103.327	20.188	9.613	0.506
1305.000	730.614	80.000	19.995	103.324	20.189	9.550	0.532
1305.500	730.853	80.000	19.993	103.319	20.187	9.666	0.511
1306.000	731.103	80.001	19.995	103.316	20.185	9.780	0.485
1306.500	731.374	80.002	19.995	103.315	20.189	9.552	0.505
1307.000	731.623	80.001	19.994	103.310	20.188	9.604	0.520
1307.500	731.882	80.000	19.994	103.309	20.186	9.730	0.514
1308.000	732.155	80.000	19.994	103.308	20.187	9.648	0.520
1308.500	732.369	80.000	19.994	103.309	20.186	9.742	0.510
1309.000	732.632	80.001	19.994	103.308	20.185	9.810	0.482
1309.500	732.885	80.001	19.994	103.310	20.183	9.909	0.496
1310.000	733.142	80.002	19.994	103.312	20.183	9.912	0.513
1310.500	733.403	80.002	19.994	103.314	20.184	9.864	0.514
1311.000	733.655	79.999	19.993	103.315	20.186	9.716	0.516
1311.500	733.908	80.001	19.994	103.316	20.185	9.823	0.510
1312.000	734.182	79.999	19.994	103.319	20.188	9.574	0.516
1312.500	734.423	80.000	19.994	103.319	20.184	9.881	0.521
1313.000	734.655	80.000	19.994	103.319	20.184	9.877	0.494
1313.500	734.912	79.999	19.994	103.318	20.183	9.904	0.481
1314.000	735.186	80.000	19.995	103.318	20.185	9.779	0.510
1314.500	735.417	79.999	19.994	103.317	20.182	10.026	0.518
1315.000	735.627	80.000	19.994	103.319	20.183	9.960	0.473
1315.500	735.910	79.998	19.993	103.323	20.184	9.846	0.467
1316.000	736.162	79.999	19.994	103.330	20.184	9.896	0.514
1316.500	736.398	79.999	19.995	103.336	20.186	9.747	0.511
1317.000	736.670	79.998	19.994	103.342	20.183	9.962	0.498
1317.500	736.898	79.999	19.995	103.346	20.182	10.020	0.504
1318.000	737.166	79.999	19.994	103.344	20.185	9.771	0.498
1318.500	737.390	79.999	19.995	103.339	20.186	9.721	0.494
1319.000	737.647	79.998	19.994	103.336	20.182	10.013	0.486
1319.500	737.903	80.000	19.995	103.332	20.182	10.030	0.497
1320.000	738.135	79.998	19.994	103.327	20.182	10.004	0.500
1320.500	738.408	79.999	19.994	103.326	20.182	9.973	0.497
1321.000	738.664	80.000	19.994	103.323	20.180	10.142	0.517
1321.500	738.937	80.000	19.995	103.320	20.179	10.192	0.529
1322.000	739.163	79.999	19.996	103.318	20.183	9.952	0.514
1322.500	739.432	80.000	19.995	103.321	20.182	9.999	0.497
1323.000	739.671	79.999	19.995	103.322	20.184	9.845	0.502
1323.500	739.896	80.000	19.995	103.323	20.183	9.931	0.486
1324.000	740.109	80.000	19.994	103.325	20.181	10.053	0.451
1324.500	740.445	80.001	19.994	103.331	20.182	10.025	0.493
1325.000	740.697	80.001	19.995	103.331	20.182	10.031	0.568
1325.500	740.923	80.001	19.995	103.332	20.181	10.077	0.533
1326.000	741.185	80.001	19.994	103.333	20.183	9.958	0.483
1326.500	741.417	80.000	19.994	103.334	20.182	10.017	0.491
1327.000	741.690	79.999	19.995	103.328	20.180	10.108	0.499
1327.500	741.955	80.001	19.995	103.323	20.181	10.084	0.522
1328.001	742.195	80.000	19.994	103.320	20.180	10.139	0.521
1328.501	742.459	80.001	19.994	103.319	20.184	9.862	0.504
1329.000	742.710	80.001	19.994	103.322	20.179	10.195	0.510
1329.500	742.977	79.999	19.994	103.329	20.178	10.290	0.516
1330.000	743.227	80.001	19.995	103.330	20.178	10.301	0.517
1330.500	743.498	80.001	19.995	103.329	20.176	10.374	0.519
