Sample ID:	C:\MCC\MCC Cal\Test\Cotton_Ball\Cotton_Ball_MCC_30K_min_21_07_08_R3.txt
Sample Weight (mg):	3.31
Heating Rate (C/s):	0.5
Combustor Temp (C):	900
N2 Flow Rate (cc/min):	80
O2 Flow Rate (cc/min):	20
Calibration File:	C:\MCC\MCC Cal\Coeff1 JN10440_30_210304.txt.txt
T Correction Coefficients:	0	1.024463	0
Time Shift (s):	14
*
Time (s)	Temperature (C)	N2 flow rate (cc/min)	O2 flow rate (cc/min)	Flow Rate (cc/min)	Oxygen (%)	HRR (W/g)	Heating rate (C/s)
0.000	112.757	79.995	19.996	99.923	20.241	0.364	-0.004
0.499	112.765	79.996	19.996	99.924	20.237	0.735	-0.013
1.000	112.722	79.998	19.996	99.924	20.238	0.681	-0.028
1.500	112.750	79.996	19.996	99.925	20.238	0.661	-0.024
2.000	112.757	79.998	19.995	99.925	20.239	0.604	0.010
2.500	112.716	79.996	19.995	99.925	20.242	0.237	0.000
3.000	112.715	79.997	19.997	99.924	20.236	0.813	-0.038
3.499	112.723	79.997	19.996	99.924	20.238	0.661	-0.018
4.000	112.688	79.996	19.996	99.924	20.240	0.472	-0.010
4.500	112.708	79.997	19.997	99.924	20.241	0.400	-0.021
5.000	112.700	79.997	19.996	99.924	20.237	0.715	-0.001
5.500	112.675	79.997	19.996	99.924	20.239	0.524	-0.011
6.000	112.683	79.997	19.996	99.924	20.241	0.390	-0.025
6.500	112.683	79.997	19.996	99.923	20.238	0.622	-0.004
7.000	112.716	79.998	19.996	99.923	20.237	0.723	0.021
7.500	112.684	79.999	19.996	99.922	20.237	0.705	0.017
8.000	112.688	79.999	19.995	99.922	20.241	0.408	-0.014
8.500	112.701	79.999	19.996	99.923	20.238	0.656	-0.006
9.000	112.692	80.000	19.995	99.924	20.243	0.176	0.011
9.499	112.670	79.997	19.995	99.924	20.241	0.385	-0.013
10.000	112.671	79.998	19.995	99.925	20.242	0.323	-0.026
10.500	112.626	79.998	19.995	99.925	20.238	0.689	-0.032
10.999	112.636	79.997	19.995	99.927	20.239	0.553	-0.039
11.500	112.616	79.997	19.995	99.927	20.240	0.496	-0.022
12.000	112.661	79.998	19.995	99.934	20.240	0.480	0.007
12.499	112.611	79.998	19.995	99.937	20.236	0.875	0.010
12.999	112.619	79.997	19.995	99.941	20.239	0.550	-0.024
13.499	112.651	79.996	19.994	99.940	20.240	0.470	-0.001
13.999	112.637	79.996	19.993	99.940	20.237	0.780	0.029
14.499	112.588	79.997	19.994	99.936	20.236	0.870	-0.022
14.999	112.617	79.997	19.995	99.941	20.235	0.935	-0.041
15.499	112.616	79.997	19.995	99.944	20.236	0.801	0.004
15.999	112.637	79.997	19.994	99.951	20.235	0.937	0.024
16.499	112.615	79.996	19.995	99.958	20.235	0.955	0.010
16.999	112.587	79.996	19.994	99.964	20.239	0.545	-0.025
17.499	112.624	79.996	19.995	99.968	20.234	0.999	-0.020
17.999	112.593	79.997	19.995	99.973	20.234	0.992	0.008
18.500	112.584	79.997	19.995	99.979	20.236	0.847	-0.017
19.000	112.585	79.996	19.995	99.983	20.236	0.850	-0.024
19.500	112.619	79.995	19.994	99.988	20.231	1.278	0.013
20.000	112.622	79.995	19.994	99.987	20.232	1.232	0.036
20.499	112.625	79.994	19.995	99.984	20.233	1.139	0.022
20.999	112.618	79.994	19.994	99.985	20.231	1.364	0.001
21.499	112.639	79.996	19.994	99.985	20.231	1.351	0.005
21.999	112.648	79.995	19.996	99.985	20.231	1.338	0.022
22.499	112.690	79.996	19.994	99.985	20.231	1.338	0.041
22.999	112.673	79.995	19.995	99.985	20.229	1.522	0.038
23.499	112.704	79.995	19.994	99.984	20.227	1.679	0.020
23.999	112.702	79.995	19.996	99.988	20.227	1.703	0.022
24.500	112.688	79.996	19.994	99.990	20.232	1.251	0.007
25.000	112.725	79.996	19.995	99.994	20.229	1.545	0.003
25.499	112.699	79.995	19.994	100.000	20.227	1.721	0.017
25.999	112.750	79.998	19.995	100.004	20.228	1.569	0.019
26.500	112.762	79.995	19.995	100.004	20.228	1.576	0.044
27.000	112.774	79.994	19.994	100.003	20.226	1.757	0.043
27.500	112.792	79.996	19.994	100.006	20.225	1.873	0.027
28.000	112.837	79.995	19.995	100.006	20.227	1.739	0.047
28.499	112.831	79.995	19.995	100.005	20.225	1.928	0.051
29.000	112.861	79.994	19.995	100.005	20.228	1.589	0.031
29.500	112.838	79.995	19.995	100.007	20.224	1.972	0.015
29.999	112.911	79.996	19.995	100.007	20.225	1.871	0.028
30.500	112.904	79.996	19.995	100.008	20.225	1.851	0.058
31.000	112.924	79.995	19.994	100.010	20.224	1.934	0.039
31.500	112.969	79.996	19.994	100.016	20.225	1.887	0.039
32.000	112.955	79.994	19.994	100.023	20.222	2.203	0.048
32.499	113.025	79.997	19.996	100.031	20.223	2.035	0.044
32.999	113.047	79.995	19.995	100.039	20.223	2.102	0.074
33.500	113.055	79.995	19.995	100.045	20.219	2.490	0.061
34.000	113.044	79.995	19.995	100.048	20.221	2.304	0.013
34.499	113.130	79.997	19.995	100.048	20.219	2.495	0.036
34.999	113.158	79.996	19.994	100.049	20.221	2.296	0.094
35.499	113.170	79.996	19.995	100.057	20.224	2.009	0.076
35.999	113.222	79.996	19.994	100.065	20.221	2.288	0.052
36.499	113.264	79.997	19.995	100.072	20.219	2.420	0.079
36.999	113.281	79.998	19.993	100.075	20.219	2.415	0.077
37.500	113.355	79.996	19.994	100.073	20.217	2.640	0.075
38.000	113.360	79.995	19.995	100.071	20.217	2.647	0.085
38.500	113.404	79.996	19.995	100.069	20.214	2.877	0.064
39.000	113.474	79.997	19.995	100.069	20.216	2.735	0.081
39.500	113.511	79.996	19.994	100.073	20.212	3.092	0.110
40.000	113.535	79.995	19.994	100.080	20.212	3.087	0.084
40.499	113.585	79.996	19.995	100.086	20.211	3.177	0.068
40.999	113.628	79.996	19.994	100.093	20.212	3.081	0.084
41.500	113.688	79.997	19.995	100.101	20.211	3.180	0.098
42.000	113.753	79.995	19.995	100.108	20.210	3.342	0.114
42.500	113.830	79.996	19.995	100.114	20.209	3.399	0.134
43.000	113.883	79.995	19.994	100.115	20.213	3.009	0.136
43.499	113.931	79.995	19.995	100.117	20.212	3.136	0.115
43.999	113.982	79.996	19.995	100.117	20.207	3.549	0.101
44.499	114.049	79.995	19.995	100.118	20.209	3.425	0.109
44.999	114.148	79.995	19.995	100.119	20.208	3.503	0.142
45.500	114.193	79.995	19.995	100.122	20.207	3.570	0.155
46.000	114.269	79.996	19.994	100.122	20.204	3.828	0.132
46.500	114.340	79.995	19.994	100.122	20.203	3.988	0.134
47.000	114.433	79.996	19.995	100.122	20.204	3.852	0.156
47.499	114.480	79.997	19.995	100.122	20.205	3.818	0.152
47.999	114.591	79.995	19.994	100.120	20.204	3.906	0.149
48.499	114.665	79.997	19.995	100.116	20.206	3.694	0.172
48.999	114.777	79.994	19.994	100.116	20.206	3.645	0.186
49.499	114.807	79.995	19.995	100.114	20.203	3.992	0.164
49.999	114.908	79.995	19.995	100.111	20.205	3.748	0.136
50.499	114.982	79.996	19.994	100.108	20.204	3.888	0.153
50.999	115.085	79.996	19.994	100.110	20.206	3.658	0.176
51.499	115.178	79.995	19.995	100.109	20.207	3.580	0.187
51.999	115.235	79.996	19.994	100.107	20.204	3.877	0.173
52.499	115.336	79.995	19.994	100.107	20.205	3.767	0.154
52.999	115.393	79.996	19.996	100.105	20.203	3.973	0.158
53.499	115.525	79.994	19.994	100.103	20.204	3.828	0.173
53.999	115.601	79.995	19.995	100.103	20.206	3.702	0.198
54.499	115.702	79.996	19.995	100.106	20.204	3.841	0.193
54.999	115.793	79.996	19.994	100.109	20.206	3.691	0.185
55.499	115.873	79.995	19.995	100.112	20.206	3.640	0.182
56.000	115.975	79.995	19.995	100.116	20.206	3.635	0.176
56.500	116.072	79.997	19.995	100.114	20.207	3.594	0.190
56.999	116.186	79.996	19.995	100.108	20.205	3.764	0.205
57.499	116.315	79.996	19.994	100.101	20.204	3.855	0.228
58.000	116.396	79.996	19.995	100.102	20.208	3.472	0.226
58.500	116.493	79.995	19.994	100.102	20.205	3.777	0.193
59.000	116.552	79.995	19.995	100.103	20.206	3.638	0.167
59.500	116.634	79.995	19.996	100.108	20.205	3.801	0.149
60.000	116.723	79.997	19.995	100.112	20.205	3.816	0.156
60.500	116.876	79.996	19.994	100.112	20.204	3.847	0.206
61.000	116.947	79.995	19.995	100.105	20.205	3.744	0.233
61.499	117.058	79.996	19.995	100.100	20.205	3.785	0.203
61.999	117.210	79.996	19.995	100.101	20.205	3.775	0.223
62.500	117.301	79.996	19.995	100.103	20.204	3.878	0.253
63.000	117.408	79.996	19.995	100.104	20.203	3.961	0.221
63.500	117.505	79.997	19.995	100.110	20.205	3.764	0.201
64.000	117.615	79.998	19.995	100.114	20.204	3.845	0.205
64.500	117.742	79.996	19.995	100.108	20.205	3.777	0.222
64.999	117.858	79.996	19.995	100.103	20.205	3.788	0.240
65.499	117.963	79.996	19.995	100.102	20.205	3.775	0.232
65.999	118.110	79.995	19.995	100.103	20.204	3.889	0.236
66.500	118.199	79.997	19.995	100.107	20.201	4.126	0.244
67.000	118.292	79.996	19.995	100.114	20.203	3.976	0.209
67.499	118.448	79.996	19.996	100.119	20.206	3.640	0.215
67.999	118.543	79.996	19.995	100.121	20.202	4.023	0.250
68.499	118.653	79.996	19.996	100.120	20.201	4.127	0.228
68.999	118.807	79.997	19.995	100.119	20.203	4.000	0.235
69.499	118.916	79.998	19.995	100.119	20.206	3.713	0.264
69.999	119.035	79.997	19.997	100.119	20.203	4.005	0.245
70.500	119.144	79.996	19.996	100.121	20.204	3.884	0.227
71.000	119.269	79.995	19.996	100.122	20.205	3.754	0.231
71.500	119.399	79.996	19.996	100.123	20.206	3.677	0.245
72.000	119.502	79.995	19.994	100.120	20.202	4.059	0.245
72.499	119.636	79.995	19.995	100.119	20.208	3.449	0.235
72.999	119.805	79.996	19.995	100.116	20.207	3.617	0.270
73.499	119.891	79.996	19.994	100.117	20.206	3.638	0.279
73.999	120.017	79.995	19.995	100.117	20.204	3.889	0.233
74.500	120.150	79.995	19.995	100.121	20.204	3.848	0.235
75.000	120.304	79.996	19.995	100.124	20.204	3.825	0.273
75.500	120.423	79.997	19.995	100.125	20.208	3.525	0.280
76.000	120.543	79.994	19.995	100.125	20.209	3.375	0.256
76.500	120.674	79.997	19.994	100.126	20.205	3.799	0.245
77.000	120.832	79.995	19.994	100.125	20.205	3.788	0.270
77.500	120.912	79.997	19.996	100.125	20.207	3.610	0.263
78.000	121.037	79.996	19.995	100.125	20.206	3.705	0.222
78.500	121.183	79.996	19.995	100.125	20.203	4.008	0.238
78.999	121.335	79.997	19.995	100.127	20.203	4.001	0.285
79.500	121.501	79.996	19.995	100.133	20.206	3.688	0.308
80.000	121.622	79.998	19.995	100.136	20.203	3.916	0.303
80.499	121.778	79.997	19.996	100.138	20.204	3.856	0.282
81.000	121.885	79.996	19.995	100.139	20.202	4.011	0.270
81.500	122.063	79.997	19.995	100.136	20.202	4.099	0.274
82.000	122.212	79.997	19.995	100.131	20.203	3.962	0.306
82.500	122.326	79.997	19.995	100.128	20.201	4.146	0.295
83.000	122.453	79.998	19.995	100.127	20.199	4.368	0.252
83.499	122.589	79.998	19.995	100.129	20.202	4.045	0.252
83.999	122.768	79.997	19.995	100.135	20.201	4.112	0.289
84.499	122.868	79.996	19.996	100.141	20.199	4.368	0.297
84.999	123.048	79.997	19.995	100.148	20.200	4.218	0.279
85.499	123.190	79.997	19.995	100.153	20.200	4.265	0.301
85.999	123.326	79.998	19.994	100.156	20.203	3.993	0.300
86.499	123.489	79.997	19.996	100.151	20.200	4.262	0.289
87.000	123.645	79.997	19.995	100.145	20.202	4.030	0.309
87.500	123.811	79.997	19.995	100.142	20.202	4.076	0.320
88.000	123.958	79.998	19.996	100.139	20.200	4.288	0.317
88.500	124.106	79.996	19.995	100.135	20.200	4.211	0.304
88.999	124.259	79.997	19.995	100.138	20.203	4.001	0.298
89.499	124.423	79.997	19.996	100.141	20.201	4.105	0.309
90.000	124.556	79.997	19.995	100.145	20.205	3.732	0.308
90.500	124.728	79.997	19.996	100.148	20.201	4.167	0.301
91.000	124.883	79.996	19.996	100.153	20.200	4.252	0.316
91.500	125.053	79.997	19.995	100.154	20.203	3.926	0.326
92.000	125.224	79.995	19.994	100.155	20.200	4.203	0.333
92.500	125.350	79.996	19.995	100.155	20.203	4.004	0.319
93.000	125.485	79.996	19.995	100.156	20.204	3.913	0.279
93.499	125.657	79.996	19.995	100.156	20.196	4.583	0.284
93.999	125.791	79.994	19.996	100.157	20.200	4.231	0.306
94.499	125.967	79.995	19.996	100.152	20.201	4.190	0.308
94.999	126.135	79.994	19.995	100.149	20.197	4.560	0.327
95.499	126.290	79.995	19.995	100.149	20.199	4.363	0.334
95.999	126.487	79.994	19.996	100.147	20.199	4.301	0.337
96.500	126.622	79.994	19.995	100.149	20.198	4.449	0.342
97.000	126.781	79.994	19.994	100.156	20.197	4.508	0.313
97.499	126.899	79.995	19.995	100.160	20.201	4.172	0.286
97.999	127.090	79.995	19.996	100.160	20.200	4.288	0.293
98.499	127.248	79.994	19.995	100.162	20.197	4.493	0.329
98.999	127.408	79.994	19.995	100.163	20.198	4.392	0.333
99.500	127.612	79.996	19.995	100.163	20.197	4.493	0.341
100.000	127.768	79.995	19.994	100.163	20.199	4.332	0.362
100.500	127.958	79.995	19.995	100.163	20.198	4.425	0.353
101.000	128.141	79.995	19.995	100.164	20.199	4.327	0.360
101.500	128.271	79.995	19.995	100.163	20.200	4.265	0.343
102.000	128.453	79.996	19.995	100.162	20.200	4.216	0.313
102.499	128.643	79.994	19.995	100.162	20.197	4.570	0.342
102.999	128.845	79.995	19.994	100.161	20.198	4.420	0.382
103.500	129.002	79.997	19.994	100.160	20.201	4.182	0.375
104.000	129.193	79.995	19.994	100.160	20.200	4.224	0.353
104.499	129.373	79.996	19.994	100.160	20.199	4.371	0.360
104.999	129.516	79.995	19.995	100.159	20.199	4.327	0.348
105.499	129.713	79.996	19.995	100.159	20.199	4.376	0.331
106.000	129.901	79.996	19.994	100.159	20.201	4.180	0.362
106.500	130.091	79.995	19.994	100.160	20.198	4.389	0.382
107.000	130.257	79.997	19.996	100.160	20.198	4.410	0.367
107.500	130.435	79.996	19.994	100.161	20.197	4.531	0.350
108.000	130.589	79.996	19.995	100.161	20.200	4.211	0.338
108.500	130.760	79.997	19.994	100.161	20.196	4.604	0.329
109.000	130.930	79.995	19.994	100.160	20.194	4.829	0.333
109.500	131.132	79.995	19.995	100.160	20.194	4.837	0.356
110.000	131.297	79.995	19.994	100.160	20.194	4.767	0.369
110.500	131.486	79.995	19.994	100.160	20.195	4.694	0.361
111.000	131.707	79.996	19.994	100.160	20.193	4.953	0.383
111.500	131.851	79.996	19.996	100.160	20.195	4.715	0.388
111.999	132.100	79.996	19.995	100.160	20.196	4.612	0.379
112.499	132.246	79.997	19.995	100.161	20.196	4.649	0.393
113.000	132.433	79.996	19.995	100.161	20.191	5.099	0.364
113.500	132.640	79.996	19.994	100.162	20.192	4.980	0.364
114.000	132.833	79.995	19.994	100.161	20.196	4.610	0.397
114.499	133.063	79.995	19.995	100.161	20.195	4.762	0.411
115.000	133.201	79.996	19.995	100.161	20.195	4.684	0.395
115.500	133.400	79.996	19.994	100.162	20.194	4.842	0.352
116.000	133.610	79.997	19.995	100.162	20.195	4.674	0.373
116.500	133.806	79.994	19.994	100.162	20.194	4.801	0.408
117.000	133.976	79.996	19.995	100.162	20.191	5.127	0.386
117.500	134.233	79.997	19.995	100.162	20.196	4.645	0.396
117.999	134.377	79.996	19.994	100.162	20.197	4.532	0.414
118.499	134.595	79.996	19.996	100.161	20.195	4.718	0.382
119.000	134.772	79.996	19.995	100.161	20.193	4.889	0.378
119.500	134.966	79.997	19.995	100.161	20.194	4.801	0.383
119.999	135.161	79.996	19.995	100.161	20.196	4.588	0.380
120.499	135.330	79.995	19.996	100.161	20.194	4.783	0.376
120.999	135.525	79.996	19.995	100.162	20.193	4.871	0.364
121.499	135.735	79.995	19.995	100.162	20.193	4.868	0.385
121.999	135.936	79.995	19.995	100.164	20.193	4.920	0.408
122.499	136.121	79.995	19.996	100.167	20.195	4.744	0.399
123.000	136.314	79.995	19.994	100.173	20.194	4.835	0.382
123.500	136.541	79.995	19.995	100.177	20.194	4.788	0.399
124.000	136.752	79.994	19.995	100.177	20.195	4.674	0.429
124.500	136.925	79.995	19.995	100.175	20.195	4.698	0.411
124.999	137.118	79.995	19.995	100.176	20.194	4.817	0.374
125.499	137.342	79.996	19.995	100.169	20.195	4.734	0.392
125.999	137.549	79.995	19.996	100.167	20.193	4.884	0.425
126.499	137.758	79.996	19.995	100.168	20.194	4.804	0.424
127.000	137.971	79.994	19.995	100.168	20.193	4.951	0.419
127.500	138.165	79.994	19.995	100.165	20.195	4.697	0.414
128.000	138.391	79.996	19.996	100.165	20.191	5.137	0.413
128.500	138.588	79.995	19.994	100.165	20.196	4.622	0.422
129.000	138.760	79.995	19.995	100.164	20.191	5.080	0.396
129.500	138.981	79.996	19.995	100.164	20.192	5.028	0.381
130.000	139.184	79.995	19.996	100.164	20.190	5.168	0.408
130.500	139.420	79.994	19.994	100.164	20.192	4.987	0.432
131.000	139.638	79.996	19.995	100.164	20.190	5.171	0.447
131.500	139.841	79.996	19.995	100.168	20.189	5.269	0.437
132.001	140.046	79.996	19.996	100.172	20.193	4.907	0.414
132.501	140.264	79.997	19.995	100.175	20.195	4.674	0.416
133.000	140.458	79.997	19.994	100.175	20.195	4.726	0.417
133.500	140.690	79.995	19.994	100.173	20.191	5.121	0.418
134.000	140.905	79.996	19.996	100.175	20.190	5.165	0.437
134.500	141.119	79.996	19.995	100.174	20.195	4.736	0.438
135.000	141.325	79.995	19.995	100.173	20.194	4.827	0.424
135.500	141.546	79.997	19.994	100.174	20.191	5.130	0.423
136.000	141.731	79.996	19.995	100.180	20.192	4.956	0.417
136.500	141.984	79.995	19.994	100.178	20.193	4.886	0.422
137.000	142.188	79.997	19.995	100.175	20.191	5.098	0.447
137.500	142.397	79.996	19.995	100.174	20.194	4.845	0.435
138.000	142.643	79.995	19.995	100.174	20.190	5.222	0.435
138.500	142.861	79.996	19.995	100.171	20.196	4.625	0.460
139.000	143.075	79.997	19.995	100.169	20.192	4.990	0.448
139.500	143.291	79.995	19.994	100.169	20.196	4.651	0.431
140.000	143.523	79.997	19.995	100.169	20.194	4.772	0.439
140.500	143.724	79.999	19.994	100.169	20.191	5.072	0.440
141.000	143.975	79.998	19.994	100.166	20.196	4.602	0.442
141.500	144.218	79.997	19.994	100.166	20.197	4.529	0.473
142.000	144.425	79.996	19.994	100.166	20.197	4.560	0.472
142.500	144.654	79.996	19.995	100.167	20.196	4.622	0.443
143.000	144.876	79.998	19.995	100.166	20.196	4.641	0.444
143.500	145.040	79.996	19.994	100.167	20.195	4.698	0.419
144.000	145.322	79.997	19.995	100.166	20.193	4.881	0.416
144.500	145.532	79.996	19.994	100.167	20.195	4.734	0.469
145.001	145.756	79.996	19.995	100.168	20.195	4.726	0.463
145.501	145.993	79.996	19.995	100.172	20.193	4.904	0.447
146.000	146.214	79.995	19.995	100.177	20.192	4.967	0.459
146.500	146.459	79.995	19.995	100.179	20.193	4.902	0.462
147.000	146.668	79.995	19.995	100.178	20.197	4.545	0.460
147.500	146.870	79.995	19.995	100.176	20.195	4.752	0.432
148.000	147.111	79.995	19.994	100.172	20.197	4.483	0.427
148.500	147.393	79.996	19.996	100.167	20.197	4.568	0.483
149.000	147.610	79.995	19.996	100.167	20.193	4.863	0.511
149.500	147.807	79.996	19.996	100.170	20.194	4.777	0.457
150.000	148.041	79.995	19.996	100.169	20.199	4.296	0.422
150.500	148.279	79.996	19.995	100.170	20.194	4.850	0.451
151.000	148.505	79.996	19.996	100.171	20.193	4.925	0.468
151.500	148.730	79.996	19.995	100.170	20.198	4.439	0.458
152.000	148.995	79.995	19.996	100.167	20.195	4.715	0.471
152.500	149.208	79.996	19.996	100.167	20.195	4.752	0.484
153.000	149.462	79.995	19.995	100.169	20.195	4.721	0.473
153.500	149.704	79.995	19.996	100.171	20.196	4.664	0.482
154.000	149.944	79.994	19.996	100.172	20.192	5.028	0.489
154.500	150.126	79.996	19.995	100.174	20.193	4.909	0.452
155.000	150.378	79.996	19.996	100.176	20.193	4.873	0.427
155.500	150.620	79.995	19.994	100.173	20.194	4.858	0.464
156.000	150.883	79.996	19.995	100.171	20.193	4.915	0.500
156.500	151.086	79.995	19.995	100.172	20.195	4.718	0.486
157.000	151.326	79.995	19.995	100.173	20.193	4.943	0.454
157.500	151.552	79.997	19.995	100.171	20.192	5.041	0.455
158.000	151.825	79.996	19.995	100.169	20.192	5.005	0.482
158.500	152.030	79.996	19.995	100.169	20.190	5.212	0.488
159.000	152.273	79.996	19.995	100.168	20.191	5.080	0.464
159.500	152.493	79.996	19.994	100.166	20.191	5.103	0.456
160.000	152.712	79.997	19.995	100.166	20.189	5.248	0.451
160.500	152.951	79.996	19.995	100.168	20.193	4.945	0.448
161.000	153.221	79.997	19.995	100.168	20.191	5.129	0.484
161.500	153.438	79.997	19.995	100.166	20.186	5.548	0.498
162.000	153.649	79.999	19.994	100.168	20.193	4.953	0.458
162.500	153.871	79.996	19.995	100.170	20.193	4.904	0.431
163.000	154.154	79.997	19.994	100.168	20.194	4.816	0.469
163.500	154.356	79.998	19.994	100.169	20.188	5.352	0.495
164.000	154.621	79.998	19.994	100.170	20.192	4.979	0.476
164.500	154.867	79.999	19.994	100.169	20.195	4.684	0.489
165.000	155.100	79.997	19.996	100.166	20.190	5.163	0.495
165.500	155.322	79.996	19.995	100.167	20.194	4.788	0.467
166.000	155.559	79.997	19.995	100.166	20.192	5.041	0.457
166.500	155.762	79.996	19.994	100.166	20.195	4.744	0.450
167.000	155.999	79.997	19.995	100.167	20.196	4.643	0.440
167.500	156.223	79.998	19.995	100.169	20.193	4.897	0.450
168.000	156.479	79.998	19.995	100.167	20.192	4.961	0.471
168.500	156.716	79.999	19.995	100.167	20.192	4.987	0.487
169.000	156.952	79.997	19.995	100.165	20.194	4.806	0.484
169.500	157.231	79.996	19.996	100.163	20.192	4.958	0.494
170.000	157.398	79.997	19.996	100.161	20.192	4.974	0.480
170.500	157.685	79.997	19.996	100.160	20.191	5.067	0.449
171.000	157.902	79.998	19.995	100.160	20.191	5.067	0.479
171.500	158.182	79.997	19.995	100.160	20.191	5.142	0.501
172.000	158.395	79.995	19.995	100.160	20.192	5.012	0.495
172.500	158.625	79.996	19.995	100.160	20.194	4.842	0.468
173.000	158.868	79.995	19.996	100.160	20.192	5.028	0.458
173.500	159.101	79.995	19.996	100.162	20.189	5.253	0.475
174.000	159.339	79.995	19.995	100.166	20.190	5.222	0.474
174.500	159.559	79.994	19.996	100.167	20.190	5.222	0.464
175.000	159.829	79.995	19.996	100.167	20.191	5.134	0.474
175.500	160.059	79.996	19.996	100.167	20.188	5.383	0.495
176.000	160.330	79.994	19.996	100.166	20.187	5.465	0.501
176.500	160.550	79.994	19.996	100.163	20.188	5.383	0.496
177.000	160.787	79.995	19.997	100.163	20.188	5.390	0.474
177.500	161.050	79.995	19.996	100.164	20.189	5.266	0.479
178.000	161.283	79.994	19.997	100.166	20.188	5.369	0.498
178.500	161.536	79.994	19.996	100.169	20.192	4.992	0.491
179.000	161.834	79.994	19.996	100.168	20.188	5.367	0.518
179.500	162.054	79.996	19.997	100.168	20.189	5.237	0.534
180.000	162.273	79.994	19.996	100.166	20.192	5.041	0.478
180.500	162.542	79.994	19.997	100.165	20.188	5.336	0.463
181.000	162.791	79.994	19.996	100.160	20.189	5.305	0.503
181.500	163.040	79.996	19.996	100.160	20.188	5.364	0.508
182.000	163.290	79.994	19.995	100.159	20.188	5.377	0.499
182.500	163.525	79.994	19.996	100.159	20.191	5.111	0.492
183.000	163.751	79.995	19.996	100.159	20.191	5.139	0.473
183.500	164.033	79.995	19.996	100.159	20.189	5.291	0.485
184.000	164.297	79.994	19.995	100.159	20.189	5.260	0.527
184.500	164.538	79.994	19.996	100.160	20.192	5.028	0.525
185.000	164.792	79.995	19.996	100.161	20.192	5.023	0.500
185.500	165.043	79.996	19.996	100.161	20.188	5.424	0.500
186.000	165.289	79.995	19.995	100.162	20.194	4.808	0.501
186.500	165.557	79.994	19.995	100.164	20.191	5.126	0.505
187.000	165.789	79.996	19.995	100.166	20.194	4.780	0.506
187.500	166.053	79.996	19.995	100.166	20.191	5.054	0.498
188.000	166.280	79.997	19.995	100.166	20.192	5.033	0.494
188.500	166.521	79.995	19.995	100.164	20.193	4.899	0.479
189.000	166.801	79.996	19.993	100.162	20.195	4.754	0.494
189.500	167.046	79.996	19.995	100.160	20.192	5.015	0.523
190.000	167.302	79.996	19.995	100.160	20.191	5.082	0.513
190.500	167.571	79.997	19.994	100.160	20.193	4.935	0.513
191.000	167.835	79.997	19.995	100.161	20.192	5.028	0.529
191.500	168.047	79.997	19.995	100.161	20.196	4.632	0.504
192.000	168.304	79.995	19.994	100.160	20.191	5.142	0.473
192.500	168.585	79.996	19.994	100.160	20.193	4.860	0.504
193.000	168.853	79.996	19.995	100.160	20.192	4.984	0.543
193.500	169.096	79.994	19.995	100.156	20.192	5.005	0.530
194.000	169.322	79.996	19.995	100.153	20.192	5.005	0.490
194.500	169.584	79.996	19.995	100.154	20.192	5.041	0.478
195.000	169.842	79.996	19.995	100.155	20.192	4.961	0.504
195.500	170.134	79.996	19.995	100.157	20.193	4.873	0.535
196.000	170.373	79.996	19.995	100.162	20.194	4.795	0.541
196.500	170.638	79.996	19.995	100.164	20.192	5.028	0.517
197.000	170.891	79.995	19.995	100.162	20.192	5.007	0.510
197.500	171.122	79.995	19.996	100.161	20.193	4.919	0.501
198.000	171.401	79.996	19.995	100.159	20.190	5.155	0.498
198.500	171.622	79.996	19.995	100.158	20.194	4.792	0.505
199.000	171.890	79.996	19.994	100.159	20.193	4.880	0.494
199.500	172.150	79.994	19.994	100.160	20.192	5.018	0.509
200.000	172.399	79.995	19.995	100.161	20.197	4.511	0.519
200.500	172.673	79.995	19.995	100.162	20.196	4.669	0.516
201.000	172.928	79.995	19.995	100.162	20.195	4.710	0.526
201.500	173.180	79.994	19.995	100.161	20.197	4.526	0.519
202.000	173.414	79.996	19.993	100.162	20.197	4.544	0.497
202.500	173.665	79.995	19.995	100.162	20.195	4.694	0.485
203.000	173.956	79.994	19.994	100.162	20.194	4.777	0.513
203.500	174.219	79.995	19.994	100.161	20.195	4.759	0.548
204.000	174.471	79.996	19.994	100.161	20.195	4.684	0.534
204.500	174.708	79.996	19.995	100.161	20.194	4.813	0.502
205.000	174.961	79.995	19.996	100.162	20.194	4.831	0.489
205.500	175.209	79.994	19.995	100.162	20.195	4.694	0.496
206.000	175.473	79.995	19.994	100.162	20.199	4.353	0.507
206.500	175.719	79.995	19.996	100.162	20.196	4.648	0.511
207.000	175.994	79.995	19.995	100.162	20.195	4.676	0.515
207.500	176.233	79.995	19.994	100.162	20.195	4.717	0.517
208.000	176.509	79.994	19.994	100.161	20.196	4.593	0.515
208.500	176.746	79.995	19.996	100.158	20.196	4.600	0.514
209.000	177.000	79.994	19.994	100.158	20.196	4.585	0.502
209.500	177.288	79.994	19.995	100.158	20.196	4.668	0.516
210.000	177.526	79.995	19.995	100.158	20.199	4.363	0.534
210.500	177.815	79.995	19.996	100.160	20.196	4.640	0.527
211.000	178.033	79.994	19.995	100.161	20.197	4.575	0.517
211.500	178.325	79.994	19.995	100.161	20.197	4.518	0.508
212.001	178.555	79.994	19.995	100.162	20.198	4.441	0.516
212.501	178.813	79.994	19.994	100.160	20.200	4.221	0.505
213.000	179.052	79.996	19.994	100.160	20.198	4.461	0.492
213.500	179.303	79.995	19.994	100.157	20.192	4.999	0.493
214.000	179.572	79.995	19.995	100.156	20.196	4.634	0.505
214.500	179.838	79.996	19.994	100.155	20.196	4.588	0.528
215.000	180.101	79.995	19.995	100.155	20.197	4.510	0.532
215.500	180.379	79.997	19.995	100.154	20.193	4.901	0.535
216.000	180.602	79.996	19.994	100.158	20.195	4.712	0.521
216.500	180.840	79.997	19.994	100.160	20.199	4.321	0.481
217.000	181.121	79.997	19.994	100.157	20.196	4.577	0.490
217.500	181.396	79.995	19.994	100.158	20.197	4.500	0.537
218.000	181.616	79.997	19.995	100.155	20.197	4.544	0.525
218.500	181.872	79.995	19.995	100.148	20.196	4.650	0.485
219.000	182.135	79.997	19.995	100.144	20.196	4.603	0.498
219.500	182.383	79.997	19.994	100.144	20.195	4.684	0.515
220.000	182.663	79.997	19.995	100.144	20.196	4.580	0.520
220.500	182.915	79.998	19.994	100.146	20.198	4.430	0.530
221.000	183.130	79.997	19.994	100.149	20.196	4.626	0.499
221.500	183.399	79.997	19.994	100.152	20.196	4.647	0.475
222.000	183.650	79.996	19.994	100.155	20.195	4.701	0.502
222.500	183.895	79.998	19.994	100.155	20.201	4.158	0.508
223.000	184.142	79.996	19.994	100.156	20.201	4.106	0.494
223.500	184.435	79.997	19.994	100.156	20.195	4.680	0.516
224.000	184.667	79.998	19.994	100.152	20.200	4.274	0.532
224.500	184.907	79.997	19.995	100.148	20.198	4.429	0.498
225.000	185.200	79.998	19.995	100.146	20.199	4.323	0.502
225.500	185.447	79.997	19.996	100.146	20.202	4.093	0.537
226.000	185.691	79.997	19.994	100.148	20.199	4.370	0.516
226.500	185.957	79.998	19.995	100.152	20.199	4.339	0.501
227.000	186.212	79.997	19.995	100.151	20.198	4.460	0.515
227.500	186.457	79.997	19.995	100.150	20.197	4.509	0.510
228.000	186.688	79.996	19.994	100.149	20.201	4.127	0.488
228.500	186.980	79.998	19.994	100.149	20.199	4.367	0.500
229.000	187.270	79.997	19.995	100.151	20.198	4.468	0.553
229.500	187.511	79.997	19.994	100.153	20.200	4.256	0.557
230.000	187.798	79.996	19.994	100.153	20.194	4.796	0.530
230.500	188.003	79.997	19.996	100.153	20.200	4.233	0.510
231.000	188.258	79.997	19.997	100.152	20.199	4.343	0.476
231.500	188.497	79.996	19.996	100.149	20.202	4.023	0.477
232.000	188.768	79.996	19.995	100.142	20.203	3.971	0.502
232.500	188.995	79.996	19.995	100.139	20.205	3.813	0.504
233.000	189.298	79.996	19.995	100.134	20.205	3.731	0.514
233.500	189.525	79.997	19.996	100.129	20.197	4.488	0.530
234.000	189.796	79.997	19.996	100.131	20.198	4.447	0.514
234.500	190.051	79.997	19.994	100.131	20.200	4.271	0.512
235.000	190.301	79.997	19.995	100.132	20.199	4.297	0.516
235.500	190.533	79.998	19.996	100.134	20.199	4.374	0.493
236.000	190.801	79.998	19.995	100.132	20.198	4.431	0.491
236.500	191.040	79.997	19.996	100.131	20.197	4.558	0.504
237.000	191.299	79.996	19.996	100.131	20.197	4.509	0.503
237.500	191.538	79.997	19.995	100.131	20.201	4.175	0.498
238.000	191.778	79.998	19.996	100.129	20.200	4.219	0.489
238.500	192.027	79.997	19.996	100.131	20.202	4.080	0.484
239.000	192.310	79.997	19.995	100.130	20.203	3.994	0.510
239.500	192.539	79.999	19.995	100.135	20.200	4.274	0.522
240.000	192.829	79.998	19.995	100.134	20.197	4.494	0.515
240.500	193.072	79.998	19.996	100.134	20.201	4.171	0.526
241.000	193.306	79.997	19.995	100.132	20.199	4.383	0.505
241.500	193.594	79.999	19.996	100.128	20.203	3.933	0.500
242.000	193.799	79.997	19.995	100.121	20.198	4.406	0.507
242.500	194.081	79.997	19.995	100.118	20.198	4.426	0.490
243.001	194.322	79.998	19.996	100.117	20.201	4.193	0.505
243.500	194.587	79.998	19.995	100.117	20.198	4.454	0.515
244.000	194.835	79.997	19.996	100.117	20.198	4.467	0.510
244.500	195.056	79.997	19.996	100.118	20.199	4.305	0.491
245.000	195.326	79.998	19.994	100.118	20.199	4.318	0.480
245.500	195.628	79.999	19.996	100.119	20.199	4.310	0.532
246.000	195.822	79.998	19.995	100.119	20.200	4.201	0.534
246.500	196.079	79.998	19.995	100.121	20.197	4.535	0.473
247.000	196.337	79.998	19.996	100.123	20.199	4.351	0.483
247.500	196.568	79.996	19.995	100.124	20.200	4.245	0.502
248.000	196.804	79.998	19.995	100.124	20.200	4.289	0.478
248.500	197.042	79.998	19.996	100.123	20.200	4.276	0.470
249.000	197.299	79.999	19.996	100.122	20.199	4.310	0.484
249.500	197.536	79.997	19.995	100.120	20.203	3.922	0.494
250.000	197.775	79.996	19.995	100.120	20.198	4.421	0.485
250.500	198.008	79.998	19.996	100.123	20.200	4.250	0.474
251.000	198.322	79.996	19.995	100.126	20.199	4.300	0.509
251.500	198.568	79.998	19.995	100.129	20.199	4.382	0.553
252.000	198.798	79.997	19.995	100.130	20.200	4.284	0.518
252.500	199.051	79.995	19.995	100.128	20.199	4.326	0.480
253.000	199.314	79.995	19.995	100.126	20.200	4.217	0.500
253.500	199.528	79.995	19.995	100.122	20.197	4.558	0.496
254.000	199.765	79.995	19.996	100.119	20.198	4.416	0.464
254.500	200.047	79.995	19.996	100.118	20.198	4.426	0.485
255.000	200.278	79.994	19.997	100.119	20.204	3.904	0.516
255.500	200.533	79.997	19.996	100.120	20.199	4.369	0.500
256.000	200.739	79.996	19.996	100.120	20.199	4.359	0.474
256.500	200.997	79.995	19.996	100.121	20.200	4.248	0.462
257.000	201.248	79.995	19.995	100.123	20.201	4.170	0.486
257.500	201.482	79.995	19.995	100.123	20.201	4.150	0.497
258.000	201.761	79.995	19.996	100.124	20.203	3.951	0.499
258.500	201.997	79.995	19.996	100.124	20.198	4.400	0.514
259.000	202.288	79.995	19.995	100.124	20.196	4.594	0.521
259.500	202.523	79.995	19.996	100.123	20.199	4.336	0.526
260.000	202.750	79.994	19.995	100.123	20.198	4.460	0.494
260.500	202.954	79.995	19.996	100.122	20.200	4.230	0.447
261.000	203.258	79.996	19.996	100.123	20.200	4.284	0.469
261.500	203.510	79.995	19.996	100.122	20.198	4.388	0.532
262.000	203.702	79.995	19.996	100.124	20.202	4.098	0.500
262.500	203.986	79.996	19.996	100.124	20.200	4.256	0.460
263.000	204.226	79.995	19.997	100.124	20.198	4.455	0.500
263.500	204.473	79.993	19.997	100.124	20.201	4.181	0.506
264.000	204.717	79.993	19.995	100.125	20.204	3.868	0.489
264.500	204.987	79.993	19.996	100.123	20.200	4.220	0.502
265.000	205.220	79.995	19.996	100.123	20.203	3.977	0.508
265.500	205.455	79.995	19.996	100.123	20.204	3.873	0.485
266.000	205.700	79.994	19.996	100.123	20.202	4.046	0.474
266.500	205.924	79.995	19.995	100.123	20.199	4.313	0.475
267.000	206.194	79.993	19.995	100.123	20.198	4.395	0.482
267.500	206.424	79.993	19.996	100.124	20.203	3.914	0.497
268.000	206.683	79.994	19.995	100.124	20.200	4.214	0.494
268.500	206.895	79.994	19.996	100.122	20.201	4.181	0.480
269.000	207.158	79.996	19.997	100.123	20.200	4.240	0.473
269.500	207.404	79.996	19.996	100.123	20.203	3.925	0.492
270.000	207.675	79.996	19.996	100.122	20.203	3.997	0.513
270.500	207.938	79.994	19.998	100.122	20.197	4.574	0.526
271.000	208.192	79.994	19.997	100.123	20.202	4.093	0.526
271.500	208.444	79.995	19.996	100.123	20.202	4.023	0.511
272.000	208.672	79.995	19.996	100.123	20.198	4.390	0.493
272.500	208.900	79.995	19.995	100.123	20.204	3.889	0.468
273.000	209.168	79.995	19.994	100.123	20.202	4.075	0.476
273.500	209.422	79.994	19.996	100.124	20.202	4.080	0.509
274.000	209.649	79.995	19.995	100.124	20.199	4.385	0.501
274.500	209.890	79.995	19.996	100.123	20.203	3.995	0.474
275.000	210.139	79.996	19.995	100.123	20.202	4.088	0.479
275.500	210.413	79.997	19.995	100.126	20.199	4.292	0.507
276.000	210.644	79.996	19.997	100.128	20.195	4.695	0.514
276.500	210.866	79.996	19.995	100.129	20.203	3.974	0.479
277.000	211.139	79.995	19.995	100.128	20.200	4.266	0.474
277.500	211.378	79.996	19.995	100.128	20.203	4.005	0.504
278.000	211.605	79.995	19.995	100.127	20.202	4.072	0.489
278.500	211.864	79.996	19.995	100.124	20.200	4.274	0.476
279.000	212.112	79.996	19.994	100.124	20.199	4.315	0.497
279.500	212.346	79.995	19.995	100.124	20.201	4.142	0.495
280.000	212.614	79.995	19.994	100.124	20.199	4.302	0.492
280.500	212.839	79.995	19.994	100.124	20.203	3.966	0.497
281.000	213.067	79.993	19.994	100.124	20.201	4.193	0.473
281.500	213.334	79.994	19.996	100.124	20.200	4.266	0.474
282.000	213.581	79.995	19.995	100.124	20.201	4.155	0.505
282.500	213.808	79.994	19.996	100.125	20.198	4.416	0.494
283.000	214.065	79.996	19.995	100.125	20.200	4.217	0.478
283.500	214.326	79.994	19.995	100.126	20.202	4.056	0.501
284.000	214.568	79.995	19.995	100.126	20.203	3.917	0.511
284.500	214.784	79.995	19.995	100.126	20.202	4.038	0.480
285.000	215.032	79.995	19.994	100.126	20.198	4.462	0.461
285.500	215.303	79.995	19.995	100.127	20.199	4.294	0.491
286.000	215.536	79.995	19.994	100.126	20.200	4.261	0.512
286.500	215.788	79.995	19.995	100.126	20.201	4.167	0.495
287.000	216.021	79.994	19.995	100.125	20.202	4.036	0.485
287.500	216.253	79.994	19.994	100.125	20.201	4.173	0.475
288.000	216.521	79.996	19.995	100.125	20.200	4.237	0.482
288.500	216.770	79.994	19.994	100.125	20.203	3.958	0.509
289.000	217.022	79.994	19.996	100.125	20.202	4.064	0.509
289.500	217.233	79.994	19.995	100.124	20.204	3.909	0.482
290.000	217.465	79.994	19.995	100.124	20.201	4.118	0.453
290.500	217.755	79.994	19.996	100.123	20.202	4.048	0.483
291.000	217.996	79.994	19.994	100.122	20.205	3.751	0.527
291.500	218.258	79.996	19.994	100.122	20.204	3.878	0.517
292.000	218.486	79.995	19.995	100.119	20.203	3.981	0.497
292.500	218.727	79.994	19.994	100.117	20.198	4.390	0.479
293.000	218.978	79.995	19.995	100.117	20.200	4.209	0.480
293.500	219.255	79.996	19.996	100.118	20.203	3.987	0.510
294.000	219.476	79.995	19.997	100.118	20.202	4.038	0.513
294.500	219.733	79.997	19.995	100.120	20.202	4.015	0.488
295.000	219.979	79.995	19.996	100.121	20.200	4.273	0.491
295.500	220.226	79.995	19.995	100.121	20.203	3.992	0.498
296.000	220.448	79.997	19.995	100.120	20.198	4.400	0.481
296.500	220.689	79.996	19.995	100.117	20.202	4.087	0.466
297.000	220.944	79.996	19.995	100.116	20.199	4.322	0.479
297.500	221.206	79.997	19.995	100.115	20.203	3.989	0.506
298.000	221.423	79.997	19.996	100.114	20.199	4.356	0.498
298.500	221.691	79.996	19.995	100.115	20.202	4.056	0.483
299.000	221.949	79.996	19.994	100.116	20.201	4.196	0.505
299.500	222.202	79.997	19.996	100.113	20.205	3.785	0.518
300.000	222.451	79.996	19.994	100.112	20.202	4.077	0.507
300.500	222.687	79.997	19.995	100.112	20.203	3.978	0.494
301.000	222.911	79.997	19.995	100.112	20.204	3.886	0.473
301.500	223.158	79.997	19.996	100.112	20.201	4.121	0.465
302.000	223.436	79.996	19.995	100.114	20.202	4.018	0.498
302.500	223.699	79.997	19.994	100.116	20.199	4.351	0.533
303.000	223.951	79.996	19.994	100.117	20.201	4.116	0.528
303.500	224.157	79.996	19.995	100.116	20.199	4.361	0.487
304.000	224.393	79.997	19.994	100.116	20.200	4.286	0.451
304.500	224.635	79.997	19.996	100.117	20.199	4.302	0.460
305.000	224.908	79.996	19.994	100.117	20.201	4.116	0.496
305.500	225.127	79.996	19.996	100.117	20.197	4.506	0.504
306.000	225.401	79.996	19.995	100.116	20.199	4.320	0.493
306.500	225.671	79.996	19.994	100.113	20.199	4.328	0.518
307.000	225.909	79.996	19.995	100.110	20.201	4.188	0.526
307.500	226.136	79.996	19.994	100.108	20.196	4.656	0.486
308.000	226.389	79.996	19.994	100.107	20.201	4.170	0.473
308.500	226.650	79.997	19.994	100.110	20.200	4.198	0.498
309.000	226.907	79.995	19.994	100.113	20.200	4.240	0.516
309.500	227.079	79.996	19.995	100.115	20.201	4.126	0.473
310.000	227.342	79.996	19.994	100.114	20.199	4.367	0.432
310.500	227.589	79.996	19.995	100.109	20.198	4.457	0.473
311.000	227.817	79.997	19.995	100.110	20.200	4.230	0.492
311.500	228.110	79.996	19.994	100.110	20.202	4.100	0.498
312.000	228.362	79.996	19.995	100.112	20.202	4.033	0.533
312.500	228.643	79.997	19.995	100.112	20.201	4.160	0.539
313.000	228.890	79.996	19.994	100.116	20.200	4.279	0.530
313.500	229.117	79.997	19.995	100.113	20.202	4.087	0.501
314.000	229.355	79.996	19.995	100.113	20.202	4.064	0.470
314.500	229.610	79.997	19.994	100.111	20.206	3.666	0.479
315.000	229.855	79.998	19.995	100.115	20.206	3.700	0.496
315.500	230.139	79.997	19.995	100.115	20.204	3.865	0.515
316.000	230.387	79.997	19.994	100.113	20.200	4.240	0.531
316.500	230.615	79.999	19.994	100.110	20.204	3.896	0.505
317.000	230.870	79.998	19.995	100.111	20.203	3.922	0.479
317.500	231.078	79.997	19.994	100.111	20.201	4.144	0.473
318.000	231.351	79.997	19.994	100.109	20.202	4.048	0.472
318.500	231.608	79.997	19.995	100.112	20.201	4.113	0.506
319.000	231.833	79.998	19.994	100.116	20.199	4.309	0.506
319.500	232.084	79.998	19.994	100.116	20.200	4.224	0.479
320.000	232.313	79.999	19.995	100.116	20.199	4.335	0.478
320.500	232.559	79.999	19.994	100.118	20.200	4.261	0.478
321.000	232.781	79.997	19.995	100.119	20.200	4.219	0.471
321.500	233.022	79.999	19.995	100.118	20.199	4.325	0.465
322.000	233.277	79.998	19.994	100.118	20.202	4.051	0.480
322.500	233.518	79.998	19.995	100.119	20.198	4.457	0.496
323.000	233.796	79.997	19.995	100.115	20.198	4.403	0.507
323.500	234.042	79.997	19.995	100.113	20.199	4.307	0.521
324.000	234.278	79.998	19.995	100.114	20.197	4.529	0.503
324.500	234.560	79.996	19.995	100.114	20.197	4.493	0.500
325.000	234.787	79.996	19.995	100.114	20.197	4.522	0.513
325.500	235.030	79.998	19.995	100.115	20.197	4.517	0.490
326.000	235.272	79.996	19.995	100.118	20.197	4.543	0.478
326.500	235.522	79.997	19.996	100.117	20.198	4.434	0.489
327.000	235.791	79.996	19.995	100.117	20.197	4.486	0.506
327.500	236.021	79.996	19.996	100.114	20.198	4.470	0.509
328.000	236.303	79.996	19.995	100.116	20.195	4.708	0.505
328.500	236.538	79.996	19.995	100.113	20.196	4.620	0.514
329.000	236.796	79.995	19.995	100.108	20.195	4.677	0.505
329.500	237.069	79.996	19.995	100.107	20.194	4.783	0.512
330.000	237.296	79.995	19.994	100.110	20.195	4.685	0.516
330.500	237.515	79.995	19.995	100.112	20.197	4.532	0.473
331.000	237.765	79.995	19.995	100.115	20.199	4.356	0.457
331.500	238.030	79.994	19.995	100.119	20.200	4.240	0.492
332.000	238.291	79.994	19.996	100.120	20.199	4.333	0.521
332.500	238.544	79.994	19.995	100.121	20.199	4.328	0.521
333.000	238.765	79.994	19.995	100.116	20.200	4.253	0.494
333.500	239.019	79.994	19.995	100.113	20.202	4.023	0.474
334.000	239.265	79.994	19.996	100.113	20.195	4.749	0.487
334.500	239.495	79.994	19.995	100.112	20.195	4.687	0.488
335.000	239.734	79.994	19.995	100.112	20.196	4.664	0.472
335.500	239.967	79.995	19.995	100.116	20.195	4.718	0.470
336.000	240.187	79.995	19.996	100.119	20.198	4.410	0.462
336.500	240.478	79.996	19.995	100.121	20.198	4.397	0.482
337.000	240.688	79.995	19.996	100.122	20.197	4.488	0.506
337.500	240.928	79.995	19.995	100.122	20.193	4.886	0.476
338.000	241.182	79.994	19.996	100.121	20.196	4.664	0.472
338.500	241.445	79.994	19.995	100.120	20.199	4.374	0.505
339.000	241.683	79.995	19.995	100.119	20.200	4.287	0.509
339.500	241.918	79.996	19.996	100.119	20.198	4.416	0.487
340.000	242.230	79.996	19.995	100.119	20.195	4.685	0.510
340.500	242.443	79.994	19.995	100.121	20.198	4.387	0.536
341.000	242.712	79.994	19.996	100.122	20.201	4.190	0.504
341.500	242.942	79.995	19.994	100.122	20.197	4.500	0.491
342.000	243.164	79.995	19.994	100.118	20.200	4.232	0.475
342.500	243.425	79.995	19.995	100.114	20.200	4.219	0.467
343.000	243.702	79.994	19.996	100.113	20.202	4.061	0.510
343.500	243.941	79.995	19.995	100.113	20.198	4.436	0.527
344.000	244.180	79.996	19.995	100.114	20.198	4.405	0.497
344.500	244.442	79.994	19.995	100.119	20.199	4.314	0.489
345.000	244.680	79.995	19.996	100.122	20.198	4.392	0.501
345.500	244.943	79.994	19.995	100.124	20.198	4.436	0.501
346.000	245.159	79.994	19.996	100.122	20.197	4.563	0.490
346.500	245.446	79.996	19.996	100.117	20.197	4.511	0.491
347.000	245.713	79.995	19.996	100.111	20.195	4.697	0.529
347.500	245.920	79.994	19.995	100.108	20.195	4.749	0.514
348.000	246.194	79.996	19.996	100.108	20.195	4.728	0.478
348.500	246.435	79.995	19.996	100.110	20.192	5.000	0.498
349.000	246.673	79.996	19.996	100.115	20.196	4.576	0.497
349.500	246.920	79.995	19.995	100.120	20.193	4.919	0.482
350.000	247.152	79.996	19.995	100.123	20.196	4.661	0.482
350.500	247.404	79.997	19.997	100.122	20.197	4.560	0.481
351.000	247.643	79.996	19.996	100.120	20.198	4.415	0.487
351.500	247.911	79.996	19.996	100.116	20.194	4.803	0.499
352.000	248.144	79.997	19.996	100.111	20.199	4.346	0.504
352.500	248.376	79.996	19.997	100.105	20.197	4.537	0.483
353.000	248.654	79.996	19.995	100.105	20.199	4.384	0.487
353.500	248.907	79.996	19.996	100.106	20.194	4.767	0.521
354.000	249.191	79.997	19.995	100.109	20.196	4.591	0.535
354.500	249.439	79.995	19.996	100.112	20.195	4.679	0.535
355.000	249.731	79.996	19.996	100.112	20.197	4.557	0.536
355.500	249.963	79.995	19.996	100.108	20.193	4.896	0.532
356.000	250.256	79.995	19.996	100.108	20.196	4.591	0.524
356.500	250.507	79.996	19.997	100.107	20.194	4.850	0.535
357.000	250.737	79.995	19.996	100.108	20.194	4.775	0.512
357.500	251.000	79.995	19.995	100.113	20.192	4.958	0.487
358.000	251.234	79.994	19.995	100.115	20.194	4.801	0.495
358.500	251.469	79.995	19.995	100.116	20.194	4.803	0.483
359.000	251.724	79.994	19.995	100.116	20.193	4.896	0.480
359.500	251.987	79.995	19.995	100.113	20.192	4.981	0.504
360.000	252.216	79.994	19.995	100.111	20.191	5.067	0.505
360.500	252.503	79.995	19.995	100.110	20.193	4.943	0.504
361.000	252.728	79.994	19.996	100.108	20.192	5.023	0.514
361.500	252.956	79.995	19.996	100.108	20.194	4.809	0.482
362.000	253.162	79.997	19.994	100.110	20.192	4.974	0.444
362.500	253.439	79.995	19.995	100.110	20.192	4.964	0.459
363.000	253.678	79.995	19.995	100.110	20.195	4.754	0.499
363.500	253.904	79.994	19.996	100.111	20.194	4.778	0.490
364.000	254.216	79.995	19.995	100.107	20.193	4.871	0.501
364.500	254.475	79.994	19.995	100.102	20.193	4.884	0.555
365.000	254.721	79.996	19.995	100.100	20.192	4.997	0.538
365.500	254.974	79.995	19.994	100.103	20.194	4.803	0.502
366.000	255.214	79.996	19.995	100.103	20.192	5.033	0.496
366.500	255.447	79.996	19.995	100.108	20.192	5.000	0.483
367.000	255.703	79.995	19.996	100.114	20.192	5.026	0.481
367.500	255.972	79.996	19.994	100.118	20.193	4.920	0.507
368.000	256.214	79.996	19.995	100.119	20.194	4.764	0.518
368.500	256.478	79.995	19.994	100.115	20.194	4.808	0.508
369.000	256.701	79.997	19.996	100.112	20.189	5.310	0.496
369.500	256.952	79.997	19.995	100.109	20.193	4.935	0.480
370.000	257.234	79.996	19.995	100.109	20.189	5.297	0.504
370.500	257.459	79.995	19.995	100.110	20.191	5.057	0.520
371.000	257.700	79.996	19.995	100.112	20.190	5.204	0.486
371.500	257.948	79.996	19.994	100.115	20.191	5.113	0.478
372.000	258.221	79.997	19.996	100.118	20.191	5.048	0.506
372.500	258.466	79.998	19.996	100.118	20.191	5.116	0.520
373.000	258.703	79.997	19.994	100.117	20.192	4.981	0.500
373.500	258.973	79.997	19.994	100.118	20.192	5.013	0.494
374.000	259.220	79.996	19.994	100.118	20.192	4.979	0.512
374.500	259.503	79.995	19.995	100.118	20.191	5.054	0.524
375.000	259.721	79.996	19.996	100.118	20.189	5.242	0.516
375.500	259.969	79.997	19.994	100.118	20.190	5.193	0.483
376.000	260.195	79.995	19.996	100.116	20.194	4.785	0.470
376.500	260.469	79.999	19.995	100.115	20.191	5.069	0.486
377.000	260.714	79.997	19.995	100.114	20.190	5.230	0.509
377.500	260.931	79.997	19.994	100.113	20.188	5.382	0.491
378.000	261.202	79.999	19.995	100.112	20.188	5.362	0.476
378.500	261.414	79.996	19.994	100.113	20.189	5.289	0.486
379.000	261.690	79.998	19.995	100.110	20.189	5.315	0.485
379.500	261.940	79.996	19.995	100.110	20.190	5.222	0.506
380.000	262.174	79.998	19.995	100.110	20.184	5.732	0.505
380.500	262.482	79.996	19.994	100.110	20.187	5.445	0.513
381.000	262.710	79.997	19.994	100.111	20.189	5.243	0.540
381.500	262.929	79.997	19.995	100.113	20.185	5.628	0.492
382.000	263.196	79.998	19.995	100.108	20.187	5.463	0.466
382.500	263.445	79.997	19.996	100.104	20.185	5.634	0.501
383.000	263.672	79.996	19.995	100.103	20.184	5.771	0.496
383.500	263.927	79.999	19.994	100.103	20.186	5.608	0.479
384.000	264.216	79.997	19.994	100.106	20.187	5.476	0.513
384.500	264.423	79.997	19.994	100.111	20.188	5.409	0.520
385.000	264.695	79.996	19.994	100.113	20.185	5.690	0.488
385.500	264.962	79.996	19.995	100.110	20.183	5.882	0.509
386.000	265.175	79.996	19.995	100.105	20.186	5.610	0.510
386.500	265.459	79.995	19.994	100.104	20.183	5.848	0.489
387.000	265.708	79.996	19.995	100.103	20.185	5.641	0.515
387.500	265.916	79.996	19.994	100.105	20.184	5.760	0.495
388.000	266.166	79.997	19.995	100.110	20.183	5.887	0.458
388.500	266.453	79.995	19.995	100.113	20.185	5.637	0.498
389.000	266.665	79.997	19.994	100.114	20.183	5.867	0.518
389.500	266.946	79.996	19.995	100.115	20.184	5.799	0.496
390.000	267.194	79.996	19.994	100.114	20.186	5.603	0.511
390.500	267.467	79.996	19.994	100.116	20.183	5.804	0.525
391.000	267.688	79.996	19.995	100.118	20.183	5.838	0.508
391.500	267.939	79.996	19.995	100.120	20.181	6.040	0.483
392.000	268.213	79.996	19.995	100.120	20.182	5.962	0.498
392.500	268.467	79.996	19.994	100.121	20.182	5.983	0.526
393.000	268.694	79.996	19.994	100.122	20.185	5.670	0.505
393.500	268.940	79.996	19.993	100.122	20.177	6.435	0.477
394.000	269.166	79.997	19.994	100.121	20.183	5.882	0.472
394.500	269.435	79.997	19.994	100.122	20.181	6.066	0.484
395.000	269.685	79.997	19.994	100.122	20.183	5.849	0.508
395.500	269.931	79.997	19.994	100.122	20.179	6.257	0.508
396.000	270.201	79.997	19.995	100.121	20.182	5.967	0.506
396.500	270.477	79.997	19.994	100.121	20.179	6.190	0.531
397.000	270.735	79.997	19.993	100.121	20.181	6.063	0.540
397.500	270.964	79.998	19.994	100.121	20.176	6.469	0.510
398.000	271.255	79.999	19.995	100.122	20.177	6.376	0.504
398.500	271.515	79.999	19.993	100.125	20.177	6.456	0.536
399.000	271.737	79.999	19.994	100.128	20.174	6.727	0.517
399.500	271.989	79.998	19.994	100.128	20.177	6.420	0.478
400.000	272.270	79.999	19.994	100.128	20.172	6.867	0.503
400.500	272.487	79.998	19.995	100.128	20.176	6.505	0.515
401.000	272.744	79.997	19.995	100.126	20.173	6.790	0.486
401.500	272.977	79.999	19.994	100.123	20.174	6.676	0.482
402.000	273.240	79.997	19.993	100.122	20.174	6.731	0.494
402.500	273.474	79.997	19.994	100.122	20.172	6.891	0.497
403.000	273.700	80.000	19.994	100.122	20.172	6.879	0.478
403.500	273.980	79.998	19.994	100.122	20.170	7.031	0.483
404.000	274.200	79.998	19.994	100.122	20.171	6.940	0.503
404.500	274.494	79.999	19.994	100.124	20.170	7.033	0.507
405.000	274.724	79.997	19.993	100.128	20.169	7.136	0.519
405.500	274.995	79.998	19.995	100.129	20.170	7.032	0.513
406.000	275.220	79.997	19.995	100.129	20.170	7.115	0.499
406.500	275.465	79.997	19.994	100.130	20.171	6.950	0.483
407.000	275.745	79.997	19.995	100.128	20.166	7.436	0.498
407.500	275.986	79.998	19.995	100.124	20.169	7.139	0.523
408.000	276.217	79.996	19.995	100.123	20.165	7.513	0.496
408.500	276.468	79.995	19.995	100.123	20.168	7.289	0.477
409.000	276.719	79.995	19.994	100.123	20.165	7.561	0.492
409.500	276.984	79.995	19.995	100.123	20.164	7.631	0.509
410.000	277.249	79.995	19.995	100.124	20.167	7.336	0.523
410.500	277.465	79.996	19.995	100.124	20.165	7.525	0.506
411.000	277.691	79.996	19.995	100.125	20.165	7.502	0.461
411.500	277.965	79.994	19.996	100.126	20.162	7.786	0.471
412.000	278.198	79.995	19.994	100.132	20.163	7.775	0.504
412.500	278.496	79.995	19.995	100.135	20.162	7.835	0.519
413.000	278.703	79.993	19.994	100.137	20.162	7.846	0.518
413.500	278.981	79.995	19.996	100.141	20.163	7.743	0.495
414.000	279.205	79.995	19.995	100.141	20.163	7.699	0.493
414.500	279.480	79.994	19.996	100.135	20.160	8.067	0.501
415.000	279.723	79.995	19.996	100.132	20.161	7.909	0.508
415.500	279.976	79.995	19.996	100.130	20.163	7.780	0.507
416.000	280.191	79.994	19.995	100.124	20.159	8.080	0.482
416.500	280.470	79.994	19.996	100.124	20.160	7.987	0.481
417.000	280.700	79.995	19.995	100.124	20.158	8.217	0.502
417.500	280.951	79.996	19.995	100.123	20.157	8.338	0.495
418.000	281.205	79.994	19.996	100.123	20.156	8.413	0.493
418.500	281.469	79.996	19.996	100.124	20.155	8.499	0.511
419.000	281.683	79.995	19.996	100.124	20.159	8.129	0.498
419.500	281.958	79.995	19.994	100.128	20.156	8.418	0.483
420.000	282.231	79.996	19.995	100.134	20.155	8.535	0.518
420.500	282.470	79.995	19.995	100.140	20.153	8.719	0.530
421.000	282.698	79.995	19.995	100.142	20.155	8.514	0.490
421.500	282.974	79.995	19.996	100.146	20.153	8.703	0.486
422.000	283.277	79.996	19.995	100.143	20.151	8.900	0.541
422.500	283.482	79.995	19.995	100.141	20.148	9.130	0.544
423.000	283.720	79.996	19.995	100.136	20.145	9.445	0.476
423.500	283.978	79.997	19.995	100.139	20.149	9.018	0.470
424.000	284.225	79.996	19.996	100.142	20.148	9.130	0.501
424.500	284.475	79.996	19.996	100.148	20.145	9.461	0.501
425.000	284.714	79.996	19.996	100.151	20.144	9.554	0.492
425.500	285.007	79.995	19.995	100.157	20.144	9.538	0.510
426.000	285.212	79.996	19.995	100.158	20.145	9.430	0.515
426.500	285.480	79.996	19.996	100.158	20.145	9.430	0.486
427.001	285.732	79.995	19.995	100.157	20.142	9.766	0.497
427.500	285.981	79.995	19.995	100.158	20.142	9.748	0.510
428.000	286.267	79.995	19.996	100.158	20.136	10.245	0.518
428.500	286.527	79.997	19.996	100.157	20.138	10.118	0.540
429.000	286.733	79.995	19.996	100.157	20.138	10.106	0.506
429.500	287.004	79.996	19.995	100.157	20.137	10.238	0.471
430.000	287.290	79.995	19.996	100.157	20.136	10.313	0.517
430.500	287.560	79.997	19.997	100.157	20.138	10.072	0.557
431.000	287.767	79.996	19.996	100.157	20.136	10.323	0.516
431.500	288.030	79.995	19.994	100.158	20.137	10.211	0.473
432.000	288.284	79.998	19.996	100.159	20.137	10.224	0.494
432.500	288.542	79.997	19.996	100.159	20.131	10.786	0.514
433.000	288.785	79.994	19.996	100.159	20.129	10.946	0.506
433.500	289.029	79.996	19.996	100.158	20.131	10.748	0.494
434.000	289.310	79.995	19.995	100.154	20.130	10.903	0.506
434.500	289.531	79.995	19.996	100.155	20.127	11.162	0.514
435.000	289.775	79.995	19.997	100.155	20.126	11.252	0.484
435.500	290.007	79.994	19.997	100.155	20.123	11.487	0.470
436.000	290.274	79.994	19.996	100.155	20.125	11.306	0.488
436.500	290.488	79.995	19.997	100.158	20.120	11.766	0.490
437.000	290.819	79.994	19.995	100.159	20.123	11.513	0.513
437.500	291.034	79.995	19.996	100.158	20.121	11.663	0.545
438.000	291.281	79.995	19.996	100.159	20.120	11.827	0.503
438.500	291.557	79.996	19.997	100.159	20.119	11.871	0.492
439.000	291.809	79.996	19.996	100.159	20.116	12.184	0.526
439.500	292.121	79.995	19.996	100.160	20.116	12.187	0.546
440.000	292.326	79.994	19.996	100.165	20.112	12.541	0.541
440.500	292.559	79.996	19.996	100.167	20.111	12.658	0.478
441.000	292.775	79.994	19.997	100.167	20.105	13.186	0.443
441.500	293.084	79.995	19.997	100.168	20.103	13.388	0.487
442.000	293.313	79.993	19.996	100.167	20.104	13.292	0.532
442.500	293.593	79.996	19.996	100.162	20.105	13.238	0.524
443.000	293.842	79.994	19.997	100.161	20.102	13.520	0.519
443.500	294.106	79.995	19.995	100.164	20.103	13.388	0.521
444.000	294.359	79.994	19.996	100.166	20.098	13.921	0.515
444.500	294.637	79.995	19.996	100.173	20.098	13.906	0.524
445.000	294.879	79.995	19.995	100.173	20.097	14.000	0.526
445.500	295.142	79.995	19.996	100.173	20.097	14.005	0.513
446.000	295.410	79.995	19.996	100.170	20.095	14.191	0.518
446.500	295.640	79.996	19.995	100.168	20.092	14.453	0.514
447.000	295.894	79.996	19.995	100.163	20.091	14.515	0.491
447.500	296.132	79.996	19.995	100.163	20.091	14.554	0.488
448.000	296.386	79.995	19.995	100.166	20.089	14.715	0.492
448.500	296.646	79.996	19.995	100.168	20.088	14.821	0.503
449.000	296.886	79.997	19.995	100.173	20.086	14.987	0.507
449.500	297.130	79.997	19.995	100.173	20.084	15.165	0.492
450.000	297.391	79.996	19.994	100.179	20.082	15.432	0.494
450.500	297.669	79.996	19.994	100.179	20.079	15.711	0.521
451.000	297.911	79.996	19.994	100.180	20.079	15.696	0.529
451.500	298.154	79.997	19.996	100.181	20.074	16.183	0.503
452.000	298.441	79.998	19.995	100.185	20.076	15.999	0.507
452.500	298.629	79.997	19.996	100.183	20.076	15.981	0.503
453.000	298.904	79.999	19.994	100.183	20.069	16.584	0.470
453.500	299.179	79.998	19.994	100.184	20.070	16.548	0.507
454.000	299.393	79.997	19.995	100.186	20.067	16.781	0.520
454.500	299.632	79.997	19.994	100.186	20.066	16.927	0.471
455.000	299.899	79.998	19.995	100.185	20.063	17.176	0.479
455.500	300.126	79.998	19.994	100.191	20.058	17.646	0.500
456.000	300.405	79.996	19.994	100.194	20.060	17.481	0.499
456.500	300.668	79.999	19.996	100.195	20.058	17.703	0.524
457.000	300.906	79.997	19.995	100.196	20.056	17.850	0.522
457.500	301.127	79.998	19.994	100.199	20.052	18.278	0.480
458.000	301.394	79.997	19.995	100.198	20.049	18.487	0.474
458.500	301.661	79.996	19.994	100.199	20.050	18.454	0.511
459.000	301.914	79.997	19.994	100.200	20.046	18.835	0.527
459.500	302.209	79.997	19.995	100.200	20.044	18.981	0.534
460.000	302.442	79.996	19.993	100.201	20.042	19.139	0.538
460.500	302.666	79.998	19.995	100.201	20.037	19.641	0.493
461.000	302.935	79.995	19.995	100.201	20.036	19.735	0.475
461.500	303.164	79.997	19.994	100.201	20.034	19.957	0.496
462.000	303.408	79.996	19.994	100.204	20.032	20.136	0.486
462.500	303.649	79.995	19.995	100.207	20.032	20.149	0.479
463.000	303.929	79.995	19.995	100.207	20.028	20.457	0.503
463.500	304.171	79.999	19.995	100.209	20.023	20.943	0.521
464.000	304.399	79.997	19.994	100.209	20.019	21.329	0.496
464.500	304.650	79.994	19.995	100.209	20.019	21.384	0.474
465.000	304.893	79.996	19.994	100.210	20.014	21.777	0.487
465.500	305.137	79.996	19.994	100.215	20.017	21.547	0.491
466.000	305.392	79.995	19.995	100.219	20.010	22.209	0.494
466.500	305.682	79.995	19.995	100.226	20.009	22.262	0.522
467.000	305.922	79.995	19.995	100.230	20.006	22.612	0.537
467.500	306.165	79.995	19.995	100.230	20.006	22.602	0.506
468.000	306.399	79.997	19.994	100.228	20.001	23.022	0.480
468.500	306.661	79.996	19.995	100.230	19.997	23.428	0.486
469.000	306.923	79.999	19.995	100.229	19.997	23.397	0.510
469.500	307.191	79.994	19.994	100.230	19.994	23.687	0.527
470.000	307.431	79.998	19.995	100.235	19.987	24.358	0.519
470.500	307.674	79.994	19.995	100.239	19.984	24.675	0.496
471.000	307.893	79.997	19.994	100.240	19.983	24.745	0.472
471.500	308.145	79.997	19.997	100.241	19.979	25.147	0.466
472.000	308.384	79.997	19.995	100.241	19.976	25.446	0.481
472.500	308.607	79.997	19.995	100.241	19.974	25.570	0.477
473.000	308.911	79.996	19.993	100.241	19.971	25.876	0.495
473.500	309.138	79.997	19.995	100.241	19.972	25.842	0.529
474.000	309.419	79.996	19.996	100.241	19.961	26.816	0.519
474.500	309.637	79.996	19.994	100.241	19.963	26.692	0.504
475.000	309.857	79.997	19.994	100.241	19.958	27.150	0.468
475.500	310.125	79.998	19.995	100.241	19.952	27.646	0.463
476.000	310.389	79.997	19.995	100.242	19.949	27.975	0.510
476.500	310.660	79.998	19.995	100.244	19.946	28.260	0.534
477.000	310.902	79.997	19.994	100.250	19.943	28.543	0.524
477.500	311.145	79.999	19.995	100.256	19.939	28.967	0.498
478.000	311.396	79.999	19.995	100.260	19.934	29.389	0.489
478.500	311.656	79.999	19.994	100.263	19.933	29.478	0.503
479.000	311.904	79.998	19.995	100.264	19.925	30.262	0.509
479.500	312.169	79.997	19.995	100.263	19.924	30.339	0.511
480.000	312.423	79.998	19.994	100.261	19.917	30.966	0.516
480.500	312.670	79.998	19.993	100.262	19.914	31.332	0.510
481.000	312.926	79.998	19.994	100.264	19.909	31.810	0.502
481.500	313.140	79.999	19.994	100.268	19.903	32.295	0.487
482.000	313.417	79.998	19.994	100.269	19.899	32.706	0.481
482.500	313.703	80.000	19.994	100.273	19.897	32.911	0.527
483.000	313.944	79.998	19.994	100.274	19.893	33.281	0.545
483.500	314.197	79.999	19.996	100.276	19.887	33.806	0.510
484.000	314.441	79.998	19.994	100.276	19.882	34.353	0.496
484.500	314.651	79.998	19.994	100.277	19.875	34.942	0.475
485.000	314.929	79.997	19.995	100.277	19.875	35.000	0.471
485.500	315.160	79.998	19.995	100.277	19.871	35.401	0.499
486.000	315.398	79.996	19.994	100.277	19.864	36.035	0.490
486.500	315.674	79.996	19.993	100.281	19.858	36.587	0.491
487.000	315.915	79.996	19.995	100.282	19.854	36.933	0.515
487.500	316.178	79.994	19.995	100.283	19.853	37.116	0.510
488.000	316.434	79.997	19.994	100.287	19.847	37.681	0.512
488.500	316.652	79.996	19.995	100.291	19.840	38.303	0.496
489.000	316.843	79.996	19.994	100.293	19.838	38.481	0.441
489.500	317.157	79.995	19.995	100.296	19.834	38.884	0.457
490.000	317.375	79.994	19.995	100.301	19.830	39.294	0.519
490.500	317.645	79.996	19.994	100.306	19.822	40.027	0.510
491.000	317.892	79.996	19.995	100.308	19.818	40.367	0.503
491.500	318.163	79.995	19.995	100.311	19.812	40.945	0.518
492.000	318.388	79.995	19.995	100.314	19.805	41.639	0.507
492.500	318.621	79.997	19.995	100.315	19.802	41.901	0.477
493.000	318.879	79.996	19.995	100.315	19.795	42.601	0.474
493.500	319.104	79.995	19.995	100.314	19.793	42.799	0.487
494.000	319.351	79.995	19.994	100.315	19.780	44.023	0.478
494.500	319.592	79.994	19.995	100.317	19.777	44.241	0.481
495.000	319.800	79.994	19.995	100.320	19.773	44.671	0.468
495.500	320.094	79.994	19.995	100.322	19.766	45.300	0.475
496.000	320.325	79.995	19.995	100.324	19.757	46.140	0.513
496.500	320.575	79.995	19.995	100.325	19.758	46.085	0.503
497.000	320.804	79.996	19.996	100.329	19.750	46.868	0.480
497.500	321.059	79.995	19.995	100.330	19.743	47.513	0.482
498.000	321.281	79.994	19.995	100.334	19.738	48.007	0.480
498.500	321.558	79.995	19.995	100.338	19.730	48.732	0.488
499.000	321.811	79.995	19.995	100.345	19.727	48.984	0.514
499.500	322.044	79.996	19.996	100.346	19.719	49.796	0.508
500.000	322.315	79.997	19.996	100.352	19.712	50.407	0.495
500.500	322.532	79.995	19.996	100.354	19.708	50.770	0.497
501.000	322.807	79.996	19.996	100.355	19.704	51.228	0.490
501.500	323.052	79.996	19.996	100.355	19.697	51.894	0.506
502.000	323.326	79.996	19.995	100.355	19.690	52.480	0.519
502.500	323.595	79.995	19.995	100.355	19.685	53.009	0.531
503.000	323.816	79.996	19.996	100.355	19.678	53.628	0.517
503.500	324.073	79.997	19.995	100.355	19.672	54.191	0.484
504.000	324.320	79.996	19.995	100.356	19.664	54.937	0.491
504.500	324.568	79.997	19.995	100.358	19.659	55.407	0.499
505.000	324.815	79.995	19.995	100.361	19.655	55.806	0.495
505.500	325.038	79.996	19.996	100.367	19.649	56.409	0.483
506.000	325.314	79.996	19.995	100.371	19.641	57.126	0.484
506.500	325.563	79.998	19.996	100.371	19.636	57.628	0.512
507.000	325.797	79.995	19.996	100.371	19.631	58.056	0.504
507.500	326.075	79.997	19.996	100.370	19.628	58.413	0.497
508.000	326.301	79.997	19.994	100.369	19.619	59.222	0.508
508.500	326.521	79.996	19.996	100.370	19.613	59.782	0.475
509.000	326.805	79.995	19.995	100.374	19.606	60.435	0.475
509.500	327.024	79.996	19.995	100.376	19.600	61.007	0.504
510.000	327.318	79.995	19.994	100.378	19.597	61.338	0.508
510.500	327.547	79.995	19.997	100.380	19.593	61.643	0.518
511.000	327.776	79.996	19.995	100.384	19.588	62.178	0.490
511.500	328.068	79.996	19.995	100.388	19.582	62.759	0.489
512.000	328.259	79.994	19.994	100.392	19.576	63.260	0.502
512.500	328.527	79.995	19.995	100.395	19.574	63.435	0.471
513.000	328.764	79.995	19.995	100.396	19.565	64.314	0.482
513.500	329.021	79.995	19.994	100.396	19.562	64.586	0.499
514.000	329.283	79.995	19.996	100.390	19.556	65.173	0.507
514.500	329.509	79.995	19.995	100.387	19.550	65.735	0.504
515.000	329.791	79.995	19.995	100.386	19.550	65.746	0.498
515.500	330.031	79.995	19.994	100.387	19.545	66.254	0.515
516.000	330.259	79.996	19.995	100.386	19.538	66.852	0.495
516.500	330.501	79.996	19.996	100.390	19.534	67.278	0.469
517.000	330.776	79.993	19.995	100.388	19.530	67.678	0.494
517.500	331.032	79.994	19.995	100.386	19.527	67.929	0.524
518.000	331.248	79.994	19.996	100.386	19.522	68.364	0.501
518.500	331.507	79.994	19.995	100.386	19.519	68.684	0.474
519.000	331.743	79.993	19.994	100.385	19.512	69.332	0.485
519.500	331.993	79.995	19.996	100.385	19.509	69.643	0.490
520.000	332.262	79.993	19.995	100.385	19.503	70.171	0.502
520.500	332.517	79.994	19.995	100.384	19.503	70.214	0.522
521.000	332.774	79.994	19.996	100.383	19.495	70.975	0.518
521.500	333.017	79.994	19.995	100.377	19.492	71.212	0.506
522.000	333.264	79.995	19.997	100.375	19.492	71.236	0.495
522.500	333.550	79.995	19.995	100.372	19.486	71.803	0.511
523.000	333.777	79.994	19.995	100.372	19.485	71.868	0.523
523.500	334.052	79.994	19.996	100.370	19.481	72.308	0.508
524.000	334.291	79.996	19.996	100.371	19.477	72.612	0.508
524.500	334.551	79.995	19.997	100.371	19.478	72.510	0.506
525.000	334.816	79.995	19.996	100.372	19.476	72.681	0.512
525.500	335.069	79.995	19.996	100.368	19.472	73.049	0.522
526.000	335.311	79.995	19.996	100.365	19.465	73.708	0.507
526.500	335.594	79.996	19.996	100.365	19.469	73.377	0.510
527.000	335.817	79.996	19.995	100.364	19.467	73.555	0.515
527.500	336.079	79.995	19.996	100.362	19.466	73.692	0.495
528.000	336.310	79.997	19.995	100.359	19.460	74.199	0.489
528.500	336.604	79.996	19.995	100.358	19.460	74.218	0.509
529.000	336.832	79.995	19.995	100.358	19.458	74.435	0.524
529.500	337.093	79.996	19.996	100.359	19.460	74.203	0.506
530.000	337.349	79.996	19.996	100.359	19.458	74.392	0.503
530.500	337.608	79.996	19.995	100.359	19.458	74.388	0.516
531.000	337.880	79.996	19.994	100.359	19.456	74.568	0.523
531.500	338.142	79.995	19.994	100.358	19.453	74.813	0.532
532.000	338.349	79.995	19.994	100.352	19.455	74.709	0.501
532.500	338.625	79.996	19.995	100.351	19.455	74.639	0.476
533.000	338.889	79.997	19.995	100.351	19.455	74.697	0.511
533.500	339.100	79.996	19.994	100.351	19.456	74.614	0.508
534.000	339.395	79.997	19.993	100.348	19.455	74.705	0.491
534.500	339.629	79.996	19.995	100.346	19.457	74.511	0.518
535.000	339.842	79.997	19.994	100.340	19.455	74.687	0.488
535.500	340.121	79.996	19.995	100.332	19.459	74.250	0.469
536.000	340.383	79.996	19.993	100.325	19.459	74.254	0.517
536.500	340.650	79.997	19.994	100.321	19.459	74.240	0.535
537.000	340.893	79.997	19.995	100.319	19.464	73.832	0.519
537.500	341.144	79.996	19.994	100.316	19.464	73.782	0.502
538.000	341.408	79.996	19.994	100.316	19.466	73.607	0.504
538.500	341.645	79.997	19.995	100.315	19.469	73.308	0.508
539.000	341.897	79.996	19.994	100.311	19.473	72.915	0.495
539.500	342.144	79.996	19.996	100.308	19.470	73.219	0.494
540.000	342.413	79.995	19.994	100.304	19.474	72.890	0.508
540.500	342.665	79.996	19.994	100.296	19.475	72.755	0.519
541.000	342.895	79.996	19.995	100.289	19.479	72.334	0.501
541.500	343.127	79.996	19.995	100.287	19.481	72.203	0.472
542.000	343.397	79.996	19.996	100.282	19.482	72.044	0.482
542.500	343.667	79.996	19.995	100.279	19.485	71.762	0.521
543.000	343.913	79.997	19.994	100.279	19.489	71.443	0.528
543.500	344.133	79.995	19.995	100.279	19.491	71.215	0.491
544.000	344.381	79.996	19.996	100.277	19.496	70.764	0.467
544.500	344.658	79.996	19.995	100.277	19.497	70.627	0.496
545.000	344.937	79.997	19.995	100.277	19.500	70.409	0.541
545.500	345.182	79.996	19.995	100.277	19.505	69.887	0.540
546.000	345.401	79.995	19.994	100.277	19.508	69.620	0.494
546.500	345.683	79.995	19.995	100.275	19.511	69.292	0.483
547.000	345.912	79.995	19.994	100.273	19.518	68.703	0.506
547.500	346.202	79.994	19.995	100.272	19.518	68.706	0.515
548.000	346.444	79.997	19.995	100.267	19.523	68.238	0.525
548.500	346.706	79.998	19.995	100.259	19.526	67.948	0.517
549.000	346.962	79.996	19.993	100.253	19.533	67.238	0.511
549.500	347.194	79.995	19.995	100.250	19.537	66.886	0.504
550.000	347.483	79.996	19.995	100.244	19.541	66.512	0.505
550.500	347.737	79.996	19.995	100.242	19.542	66.390	0.532
551.000	347.979	79.997	19.995	100.243	19.551	65.537	0.519
551.500	348.217	79.997	19.995	100.242	19.551	65.516	0.487
552.000	348.456	79.996	19.995	100.239	19.558	64.872	0.478
552.500	348.753	79.999	19.994	100.237	19.561	64.579	0.507
553.000	349.009	79.998	19.995	100.236	19.568	63.973	0.545
553.500	349.234	79.997	19.996	100.236	19.566	64.094	0.517
554.000	349.543	79.999	19.996	100.235	19.574	63.354	0.507
554.500	349.754	79.998	19.995	100.231	19.577	63.037	0.527
555.000	350.025	80.000	19.995	100.227	19.587	62.158	0.501
555.500	350.256	79.997	19.995	100.226	19.590	61.816	0.492
556.000	350.514	79.998	19.994	100.222	19.594	61.494	0.496
556.500	350.793	80.000	19.995	100.220	19.592	61.607	0.513
557.000	351.056	80.000	19.995	100.222	19.603	60.642	0.540
557.500	351.298	79.997	19.995	100.220	19.610	59.996	0.523
558.000	351.521	79.997	19.995	100.217	19.611	59.849	0.485
558.500	351.792	79.997	19.995	100.214	19.616	59.419	0.480
559.000	352.016	79.998	19.995	100.211	19.619	59.118	0.495
559.500	352.321	79.998	19.995	100.206	19.628	58.247	0.512
560.000	352.591	79.998	19.994	100.205	19.630	58.034	0.552
560.500	352.829	79.998	19.994	100.201	19.636	57.510	0.541
561.000	353.081	79.998	19.995	100.200	19.645	56.685	0.499
561.500	353.325	79.997	19.994	100.198	19.647	56.422	0.493
562.000	353.584	79.998	19.995	100.197	19.653	55.861	0.499
562.500	353.896	79.997	19.995	100.195	19.655	55.669	0.537
563.000	354.127	79.997	19.995	100.195	19.666	54.610	0.557
563.500	354.373	79.997	19.995	100.195	19.670	54.326	0.510
564.000	354.629	79.995	19.996	100.193	19.674	53.906	0.489
564.500	354.853	79.995	19.995	100.190	19.675	53.775	0.491
565.000	355.118	79.996	19.995	100.185	19.684	52.931	0.485
565.500	355.374	79.995	19.995	100.182	19.691	52.308	0.505
566.001	355.608	79.996	19.995	100.179	19.693	52.095	0.505
566.500	355.870	79.995	19.995	100.175	19.698	51.586	0.493
567.000	356.137	79.996	19.996	100.172	19.707	50.806	0.513
567.500	356.374	79.996	19.995	100.172	19.712	50.294	0.517
568.000	356.651	79.995	19.995	100.167	19.716	49.957	0.509
568.500	356.889	79.996	19.995	100.163	19.725	49.108	0.514
569.000	357.153	79.995	19.995	100.163	19.729	48.721	0.508
569.500	357.401	79.996	19.995	100.163	19.730	48.624	0.507
570.000	357.678	79.995	19.995	100.162	19.739	47.737	0.519
570.500	357.900	79.995	19.996	100.162	19.745	47.199	0.512
571.000	358.156	79.996	19.995	100.161	19.750	46.741	0.488
571.500	358.409	79.997	19.994	100.158	19.752	46.480	0.493
572.000	358.678	79.998	19.995	100.154	19.760	45.806	0.516
572.500	358.926	79.995	19.995	100.151	19.766	45.186	0.520
573.000	359.205	79.995	19.994	100.151	19.772	44.645	0.522
573.500	359.434	79.996	19.995	100.150	19.777	44.154	0.517
574.000	359.686	79.995	19.995	100.152	19.786	43.326	0.495
574.500	359.906	79.994	19.993	100.152	19.790	42.930	0.477
575.000	360.185	79.996	19.994	100.151	19.797	42.314	0.485
575.500	360.453	79.996	19.995	100.147	19.801	41.907	0.523
576.000	360.681	79.995	19.994	100.141	19.811	40.981	0.521
576.500	360.953	79.995	19.994	100.136	19.819	40.198	0.498
577.000	361.226	79.996	19.994	100.135	19.814	40.693	0.523
577.500	361.432	79.997	19.994	100.135	19.826	39.561	0.512
578.000	361.741	79.996	19.994	100.133	19.833	38.843	0.497
578.500	361.957	79.996	19.994	100.133	19.837	38.479	0.520
579.000	362.200	79.996	19.995	100.131	19.841	38.143	0.492
579.500	362.472	79.997	19.995	100.128	19.849	37.363	0.487
580.000	362.722	79.996	19.994	100.124	19.853	36.971	0.518
580.500	362.967	79.997	19.995	100.122	19.867	35.658	0.509
581.000	363.232	79.996	19.994	100.122	19.870	35.363	0.503
581.500	363.471	79.996	19.994	100.122	19.874	35.014	0.507
582.000	363.719	79.996	19.995	100.121	19.877	34.672	0.495
582.500	364.021	79.997	19.995	100.121	19.880	34.463	0.518
583.000	364.256	79.995	19.996	100.123	19.889	33.592	0.544
583.500	364.488	79.996	19.995	100.123	19.896	32.910	0.502
584.000	364.753	79.995	19.995	100.122	19.904	32.209	0.482
584.500	364.979	79.996	19.995	100.116	19.908	31.748	0.494
585.000	365.278	79.996	19.995	100.109	19.912	31.414	0.508
585.500	365.536	79.995	19.995	100.102	19.916	31.016	0.541
586.000	365.744	79.996	19.995	100.100	19.924	30.248	0.512
586.500	366.008	79.996	19.996	100.098	19.927	29.992	0.469
587.000	366.254	79.995	19.996	100.102	19.937	29.044	0.491
587.500	366.494	79.996	19.995	100.108	19.942	28.610	0.498
588.000	366.763	79.996	19.996	100.113	19.950	27.806	0.498
588.500	367.017	79.995	19.995	100.113	19.955	27.314	0.516
589.000	367.249	79.995	19.995	100.109	19.957	27.209	0.504
589.500	367.555	79.994	19.995	100.102	19.963	26.620	0.512
590.000	367.729	79.997	19.995	100.095	19.971	25.855	0.509
590.500	367.987	79.995	19.996	100.090	19.974	25.589	0.457
591.000	368.278	79.994	19.995	100.086	19.979	25.098	0.491
591.500	368.530	79.994	19.995	100.085	19.984	24.585	0.546
592.000	368.772	79.996	19.995	100.085	19.990	24.091	0.518
592.500	369.029	79.995	19.995	100.085	19.995	23.536	0.496
593.000	369.298	79.994	19.995	100.089	20.001	23.050	0.513
593.500	369.515	79.994	19.995	100.090	20.001	23.016	0.506
594.000	369.795	79.994	19.995	100.090	20.012	21.966	0.491
594.500	370.029	79.997	19.995	100.090	20.012	21.946	0.506
595.000	370.272	79.996	19.995	100.090	20.024	20.815	0.495
595.500	370.535	79.995	19.995	100.087	20.024	20.884	0.491
596.000	370.754	79.996	19.995	100.085	20.034	19.893	0.494
596.500	371.031	79.994	19.995	100.085	20.034	19.880	0.489
597.000	371.263	79.996	19.994	100.084	20.043	19.076	0.502
597.500	371.535	79.995	19.994	100.084	20.044	18.930	0.506
598.000	371.744	79.994	19.995	100.084	20.044	18.920	0.493
598.500	372.029	79.997	19.995	100.084	20.049	18.451	0.488
599.000	372.271	79.997	19.995	100.083	20.058	17.663	0.510
599.500	372.510	79.996	19.995	100.080	20.059	17.510	0.504
600.000	372.804	79.994	19.995	100.076	20.062	17.223	0.507
600.500	373.038	79.997	19.995	100.076	20.067	16.809	0.531
601.000	373.289	79.996	19.995	100.074	20.075	16.065	0.507
601.500	373.546	79.996	19.994	100.074	20.076	15.962	0.497
602.000	373.805	79.996	19.996	100.078	20.079	15.642	0.512
602.500	374.078	79.998	19.995	100.081	20.082	15.376	0.524
603.000	374.304	79.997	19.996	100.081	20.089	14.696	0.516
603.500	374.569	79.997	19.996	100.080	20.094	14.285	0.495
604.000	374.828	79.997	19.996	100.080	20.092	14.450	0.508
604.500	375.056	79.997	19.995	100.080	20.103	13.424	0.506
605.000	375.306	79.998	19.995	100.078	20.101	13.568	0.483
605.500	375.577	79.996	19.995	100.078	20.109	12.813	0.499
606.000	375.817	79.998	19.995	100.072	20.111	12.606	0.516
606.500	376.033	79.997	19.996	100.067	20.115	12.296	0.484
607.000	376.308	79.997	19.995	100.063	20.116	12.185	0.473
607.500	376.584	79.996	19.995	100.062	20.118	11.951	0.521
608.000	376.809	79.997	19.996	100.060	20.119	11.887	0.526
608.500	377.080	79.997	19.995	100.065	20.124	11.422	0.499
609.000	377.360	79.997	19.996	100.069	20.125	11.314	0.524
609.500	377.574	79.997	19.995	100.073	20.127	11.094	0.523
610.000	377.824	79.997	19.997	100.074	20.125	11.299	0.478
610.500	378.116	79.997	19.995	100.071	20.136	10.241	0.503
611.000	378.294	79.998	19.997	100.069	20.137	10.148	0.506
611.500	378.556	79.995	19.996	100.069	20.136	10.259	0.456
612.000	378.811	79.997	19.996	100.071	20.138	10.045	0.479
612.500	379.061	79.997	19.996	100.072	20.141	9.783	0.511
613.000	379.271	79.998	19.996	100.076	20.144	9.563	0.482
613.500	379.598	79.998	19.995	100.076	20.143	9.638	0.498
614.000	379.793	79.997	19.996	100.076	20.148	9.133	0.529
614.500	380.053	79.997	19.996	100.072	20.147	9.203	0.488
615.000	380.329	79.999	19.996	100.070	20.150	8.984	0.495
615.500	380.565	79.996	19.996	100.068	20.150	8.997	0.524
616.000	380.804	79.997	19.995	100.065	20.155	8.458	0.494
616.500	381.033	79.996	19.995	100.057	20.160	8.016	0.472
617.000	381.268	79.996	19.995	100.054	20.158	8.215	0.466
617.500	381.517	79.997	19.996	100.054	20.156	8.370	0.474
618.000	381.778	79.995	19.994	100.056	20.158	8.205	0.497
618.500	382.051	79.997	19.996	100.063	20.166	7.456	0.522
619.000	382.318	79.997	19.994	100.071	20.162	7.799	0.537
619.500	382.556	79.996	19.996	100.077	20.165	7.518	0.523
620.000	382.796	79.997	19.996	100.077	20.159	8.132	0.492
620.500	383.065	79.997	19.996	100.078	20.160	8.057	0.493
621.000	383.329	79.996	19.995	100.079	20.165	7.559	0.521
621.500	383.522	79.998	19.995	100.076	20.167	7.391	0.495
622.000	383.802	79.996	19.995	100.074	20.164	7.595	0.464
622.500	384.064	79.997	19.996	100.074	20.162	7.848	0.507
623.000	384.303	79.999	19.995	100.073	20.162	7.864	0.522
623.500	384.585	79.997	19.994	100.066	20.167	7.337	0.511
624.000	384.822	79.996	19.995	100.065	20.167	7.365	0.520
624.500	385.053	79.997	19.995	100.059	20.162	7.815	0.494
625.000	385.317	79.997	19.995	100.054	20.167	7.308	0.482
625.500	385.565	79.995	19.995	100.054	20.169	7.134	0.504
626.000	385.803	79.997	19.994	100.060	20.168	7.214	0.499
626.500	386.035	79.998	19.995	100.063	20.169	7.160	0.478
627.000	386.329	79.997	19.995	100.070	20.169	7.122	0.498
627.500	386.568	79.997	19.993	100.072	20.169	7.166	0.529
628.000	386.806	79.998	19.995	100.073	20.171	6.985	0.505
628.500	387.082	79.996	19.995	100.074	20.173	6.815	0.495
629.000	387.277	79.997	19.995	100.075	20.174	6.709	0.493
629.500	387.556	79.998	19.994	100.076	20.170	7.073	0.473
630.000	387.821	79.997	19.994	100.078	20.173	6.822	0.509
630.500	388.135	79.999	19.995	100.076	20.174	6.729	0.561
631.000	388.333	79.999	19.995	100.072	20.166	7.406	0.546
631.500	388.586	79.998	19.993	100.072	20.176	6.533	0.482
632.000	388.818	79.999	19.994	100.071	20.172	6.846	0.468
632.500	389.083	80.000	19.995	100.071	20.173	6.794	0.491
633.000	389.308	79.999	19.995	100.073	20.174	6.717	0.493
633.500	389.588	79.999	19.994	100.076	20.171	6.975	0.497
634.000	389.806	79.998	19.993	100.077	20.172	6.892	0.502
634.500	390.077	79.998	19.994	100.077	20.174	6.696	0.494
635.000	390.338	79.999	19.994	100.078	20.173	6.810	0.510
635.500	390.615	79.999	19.994	100.075	20.172	6.856	0.535
636.000	390.850	79.998	19.995	100.070	20.171	6.944	0.525
636.500	391.094	79.997	19.994	100.067	20.171	6.931	0.496
637.000	391.345	79.998	19.993	100.066	20.172	6.879	0.487
637.500	391.581	79.999	19.994	100.066	20.169	7.179	0.491
638.000	391.853	79.997	19.995	100.071	20.169	7.173	0.497
638.500	392.091	79.997	19.995	100.076	20.174	6.667	0.509
639.000	392.354	79.997	19.995	100.080	20.173	6.811	0.506
639.500	392.592	79.998	19.995	100.082	20.176	6.471	0.501
640.000	392.849	79.997	19.995	100.081	20.175	6.556	0.498
640.500	393.139	79.997	19.994	100.076	20.174	6.662	0.521
641.000	393.404	79.996	19.994	100.073	20.174	6.670	0.551
641.500	393.635	79.997	19.995	100.072	20.176	6.543	0.525
642.000	393.951	79.996	19.995	100.072	20.172	6.874	0.522
642.500	394.175	79.996	19.995	100.072	20.175	6.564	0.544
643.000	394.435	79.994	19.996	100.074	20.180	6.112	0.512
643.500	394.713	79.997	19.994	100.077	20.174	6.660	0.511
644.000	394.923	79.996	19.993	100.077	20.176	6.463	0.513
644.500	395.217	79.995	19.996	100.078	20.175	6.567	0.496
645.000	395.472	79.996	19.994	100.080	20.177	6.406	0.527
645.500	395.675	79.997	19.995	100.082	20.175	6.618	0.503
646.000	395.965	79.995	19.994	100.081	20.170	7.045	0.475
646.500	396.206	79.996	19.995	100.080	20.170	7.096	0.512
647.000	396.488	79.995	19.994	100.080	20.176	6.471	0.527
647.500	396.727	79.995	19.995	100.078	20.174	6.665	0.522
648.000	396.996	79.995	19.995	100.075	20.179	6.249	0.515
648.500	397.189	79.995	19.996	100.071	20.171	6.980	0.485
649.000	397.501	79.995	19.994	100.069	20.172	6.928	0.483
649.500	397.704	79.993	19.994	100.066	20.180	6.104	0.510
650.000	398.008	79.996	19.994	100.067	20.168	7.271	0.511
650.500	398.229	79.995	19.995	100.071	20.170	7.109	0.516
651.000	398.520	79.994	19.996	100.077	20.168	7.264	0.519
651.500	398.730	79.995	19.995	100.077	20.167	7.389	0.507
652.000	399.042	79.995	19.993	100.080	20.168	7.216	0.512
652.500	399.255	79.995	19.995	100.078	20.171	7.001	0.524
653.000	399.510	79.995	19.993	100.076	20.178	6.275	0.497
653.500	399.742	79.995	19.994	100.075	20.172	6.900	0.477
654.000	400.055	79.996	19.995	100.078	20.176	6.530	0.516
654.500	400.239	79.994	19.995	100.078	20.173	6.747	0.521
655.000	400.576	79.997	19.994	100.078	20.176	6.496	0.509
655.500	400.837	79.996	19.995	100.079	20.176	6.469	0.560
656.000	401.048	79.997	19.993	100.076	20.172	6.885	0.535
656.501	401.278	79.995	19.994	100.076	20.171	6.981	0.456
657.000	401.565	79.995	19.995	100.077	20.175	6.568	0.478
657.500	401.807	79.996	19.993	100.079	20.176	6.467	0.523
658.000	402.121	79.994	19.993	100.080	20.176	6.480	0.543
658.500	402.333	79.995	19.993	100.084	20.171	6.930	0.542
659.000	402.661	79.995	19.994	100.082	20.175	6.594	0.533
659.500	402.789	79.995	19.994	100.075	20.174	6.661	0.498
660.000	403.140	79.995	19.994	100.071	20.176	6.540	0.467
660.500	403.416	79.998	19.994	100.069	20.179	6.217	0.553
661.000	403.626	79.996	19.995	100.068	20.177	6.387	0.557
661.500	403.938	79.997	19.993	100.072	20.175	6.561	0.504
662.000	404.321	79.996	19.994	100.077	20.174	6.680	0.609
662.500	404.264	79.997	19.994	100.081	20.177	6.437	0.511
663.000	404.922	79.995	19.994	100.083	20.174	6.657	0.463
663.500	404.925	79.996	19.995	100.083	20.179	6.261	0.631
664.000	404.806	79.996	19.996	100.081	20.179	6.210	0.272
664.500	405.144	79.995	19.996	100.079	20.176	6.491	0.051
665.000	405.534	79.997	19.995	100.071	20.175	6.576	0.473
665.500	405.650	79.996	19.994	100.065	20.177	6.369	0.617
666.000	405.882	79.996	19.995	100.060	20.181	6.067	0.428
666.500	406.131	79.996	19.996	100.054	20.176	6.496	0.415
667.000	406.672	79.997	19.995	100.050	20.176	6.470	0.635
667.500	407.107	79.995	19.995	100.054	20.176	6.491	0.883
668.000	407.167	79.996	19.996	100.056	20.177	6.442	0.736
668.500	407.657	79.997	19.995	100.055	20.180	6.161	0.523
669.000	407.699	79.995	19.996	100.060	20.176	6.528	0.541
669.500	408.065	79.997	19.995	100.065	20.179	6.264	0.469
670.000	408.290	79.996	19.995	100.065	20.174	6.672	0.500
670.500	408.473	79.995	19.996	100.065	20.175	6.556	0.500
671.000	408.769	79.996	19.997	100.067	20.177	6.406	0.443
671.500	409.079	79.996	19.995	100.067	20.181	5.993	0.542
672.000	409.309	79.996	19.996	100.063	20.179	6.235	0.573
672.500	409.540	79.997	19.995	100.066	20.181	6.008	0.501
673.000	409.773	79.996	19.995	100.068	20.179	6.230	0.463
673.500	409.972	79.994	19.995	100.069	20.182	5.912	0.448
674.000	410.396	79.995	19.996	100.072	20.180	6.114	0.527
674.500	410.515	79.995	19.996	100.074	20.176	6.543	0.583
675.000	410.816	79.995	19.995	100.072	20.179	6.225	0.482
675.500	411.120	79.994	19.995	100.071	20.177	6.458	0.512
676.000	411.295	79.994	19.996	100.067	20.179	6.223	0.542
676.500	411.579	79.995	19.995	100.061	20.181	6.065	0.469
677.000	411.854	79.995	19.995	100.063	20.181	6.072	0.509
677.500	412.047	79.995	19.996	100.060	20.173	6.827	0.513
678.000	412.378	79.996	19.996	100.059	20.175	6.568	0.496
678.500	412.609	79.996	19.996	100.066	20.177	6.380	0.543
679.000	412.921	79.995	19.994	100.072	20.175	6.558	0.552
679.500	413.152	79.995	19.995	100.073	20.178	6.362	0.543
680.000	413.383	79.996	19.996	100.073	20.174	6.734	0.503
680.500	413.663	79.996	19.995	100.075	20.177	6.439	0.487
681.000	413.927	79.996	19.996	100.074	20.182	5.948	0.528
681.500	414.121	79.996	19.994	100.069	20.180	6.127	0.501
682.000	414.383	79.997	19.996	100.067	20.180	6.152	0.456
682.500	414.637	79.996	19.996	100.072	20.175	6.558	0.486
683.000	414.875	79.996	19.996	100.070	20.181	6.079	0.504
683.500	415.145	79.995	19.996	100.070	20.177	6.449	0.500
684.000	415.404	79.997	19.995	100.071	20.175	6.578	0.518
684.500	415.712	79.998	19.994	100.070	20.174	6.654	0.548
685.000	415.925	79.998	19.996	100.071	20.176	6.515	0.544
685.500	416.250	79.998	19.995	100.073	20.179	6.187	0.530
686.000	416.478	79.996	19.995	100.074	20.177	6.443	0.546
686.500	416.754	79.997	19.996	100.076	20.171	6.998	0.528
687.000	416.976	79.997	19.995	100.078	20.175	6.613	0.501
687.500	417.314	79.998	19.995	100.073	20.176	6.494	0.529
688.000	417.540	79.998	19.995	100.068	20.176	6.522	0.562
688.500	417.787	79.998	19.995	100.068	20.177	6.416	0.518
689.000	418.086	79.999	19.996	100.065	20.176	6.529	0.510
689.500	418.311	79.998	19.995	100.061	20.174	6.713	0.535
690.000	418.562	79.998	19.995	100.062	20.179	6.248	0.500
690.500	418.845	79.997	19.996	100.066	20.170	7.052	0.505
691.000	419.048	79.999	19.996	100.065	20.172	6.907	0.510
691.500	419.361	79.998	19.995	100.066	20.174	6.670	0.501
692.000	419.629	79.997	19.996	100.068	20.173	6.752	0.548
692.500	419.855	79.997	19.995	100.066	20.176	6.511	0.537
693.000	420.116	79.997	19.995	100.060	20.175	6.640	0.490
693.500	420.418	79.997	19.996	100.057	20.176	6.542	0.525
694.000	420.668	79.996	19.995	100.056	20.174	6.694	0.558
694.500	420.945	79.995	19.995	100.054	20.177	6.457	0.539
695.000	421.186	79.995	19.997	100.060	20.179	6.217	0.523
695.500	421.448	79.997	19.995	100.066	20.174	6.651	0.511
696.000	421.724	79.995	19.996	100.071	20.172	6.892	0.520
696.500	421.995	79.996	19.997	100.074	20.176	6.496	0.543
697.000	422.237	79.996	19.996	100.079	20.174	6.685	0.530
697.500	422.539	79.995	19.995	100.079	20.175	6.581	0.528
698.000	422.743	79.996	19.995	100.075	20.174	6.674	0.524
698.500	423.043	79.994	19.997	100.071	20.174	6.720	0.505
699.000	423.244	79.995	19.996	100.069	20.174	6.684	0.503
699.500	423.512	79.995	19.996	100.065	20.173	6.793	0.486
700.000	423.781	79.996	19.996	100.058	20.175	6.640	0.503
700.500	424.055	79.997	19.995	100.059	20.173	6.743	0.540
701.000	424.292	79.996	19.996	100.064	20.176	6.549	0.527
701.500	424.566	79.997	19.996	100.065	20.174	6.702	0.511
702.000	424.866	79.995	19.995	100.068	20.174	6.697	0.542
702.500	425.099	79.995	19.996	100.073	20.174	6.672	0.553
703.000	425.352	79.996	19.995	100.071	20.175	6.631	0.509
703.500	425.604	79.996	19.995	100.063	20.173	6.745	0.496
704.000	425.873	79.995	19.997	100.057	20.172	6.926	0.513
704.500	426.154	79.997	19.994	100.053	20.174	6.655	0.535
705.000	426.382	79.996	19.994	100.052	20.176	6.515	0.529
705.500	426.661	79.996	19.996	100.056	20.174	6.667	0.508
706.000	426.925	79.998	19.994	100.063	20.176	6.512	0.525
706.500	427.152	79.998	19.996	100.070	20.170	7.029	0.517
707.000	427.456	79.998	19.995	100.074	20.177	6.409	0.511
707.500	427.737	79.999	19.995	100.071	20.172	6.869	0.558
708.000	427.973	79.999	19.995	100.063	20.177	6.394	0.551
708.500	428.223	79.998	19.995	100.059	20.172	6.885	0.501
709.000	428.502	79.998	19.995	100.057	20.172	6.913	0.507
709.500	428.753	79.997	19.995	100.057	20.173	6.760	0.529
710.000	428.997	79.997	19.994	100.061	20.171	7.003	0.512
710.500	429.262	79.998	19.993	100.063	20.172	6.928	0.502
711.000	429.512	79.999	19.993	100.061	20.171	6.953	0.512
711.500	429.739	79.999	19.994	100.056	20.176	6.485	0.496
712.000	430.046	79.999	19.993	100.052	20.174	6.674	0.505
712.500	430.273	79.999	19.994	100.050	20.174	6.647	0.534
713.000	430.561	79.999	19.994	100.056	20.174	6.707	0.525
713.500	430.812	79.998	19.992	100.062	20.176	6.513	0.528
714.000	431.055	79.999	19.993	100.069	20.175	6.629	0.517
714.500	431.340	79.997	19.993	100.076	20.173	6.815	0.511
715.000	431.545	79.998	19.994	100.078	20.171	6.947	0.509
715.500	431.837	79.998	19.994	100.078	20.173	6.746	0.493
716.000	432.106	79.998	19.995	100.079	20.175	6.630	0.529
716.500	432.380	79.997	19.994	100.078	20.172	6.836	0.552
717.000	432.626	79.997	19.993	100.077	20.176	6.511	0.532
717.500	432.879	79.997	19.994	100.076	20.177	6.456	0.510
718.000	433.148	79.996	19.993	100.077	20.175	6.570	0.510
718.500	433.410	79.998	19.995	100.076	20.176	6.513	0.526
719.000	433.680	79.996	19.994	100.079	20.173	6.751	0.532
719.500	433.916	79.996	19.994	100.080	20.176	6.537	0.519
720.000	434.187	79.996	19.995	100.079	20.171	6.945	0.506
720.500	434.460	79.996	19.995	100.075	20.176	6.506	0.525
721.000	434.725	79.996	19.995	100.072	20.175	6.630	0.541
721.500	434.968	79.995	19.994	100.065	20.171	6.968	0.523
722.000	435.246	79.995	19.995	100.057	20.173	6.774	0.514
722.500	435.492	79.994	19.994	100.054	20.175	6.632	0.523
723.000	435.710	79.996	19.995	100.053	20.173	6.776	0.494
723.500	435.995	79.995	19.995	100.049	20.175	6.580	0.483
724.000	436.281	79.994	19.995	100.048	20.171	7.006	0.537
724.500	436.473	79.996	19.994	100.048	20.174	6.735	0.525
725.000	436.742	79.995	19.995	100.047	20.172	6.872	0.470
725.500	437.023	79.997	19.996	100.047	20.173	6.823	0.505
726.000	437.292	79.997	19.996	100.052	20.174	6.707	0.550
726.500	437.537	79.997	19.996	100.053	20.171	6.950	0.532
727.000	437.776	79.997	19.995	100.053	20.171	6.989	0.499
727.500	438.032	79.996	19.995	100.052	20.172	6.901	0.489
728.000	438.322	79.995	19.995	100.049	20.173	6.743	0.521
728.500	438.538	79.995	19.995	100.044	20.175	6.611	0.526
729.000	438.851	79.996	19.997	100.044	20.173	6.758	0.517
729.500	439.067	79.995	19.994	100.045	20.176	6.523	0.529
730.000	439.334	79.997	19.995	100.051	20.174	6.678	0.506
730.500	439.593	79.996	19.994	100.055	20.177	6.422	0.505
731.000	439.843	79.997	19.994	100.059	20.173	6.769	0.517
731.500	440.109	79.996	19.995	100.063	20.179	6.195	0.512
732.000	440.349	79.996	19.995	100.062	20.172	6.862	0.511
732.500	440.585	79.997	19.995	100.057	20.175	6.632	0.491
733.000	440.846	79.997	19.996	100.053	20.175	6.612	0.486
733.500	441.107	79.995	19.995	100.050	20.177	6.374	0.510
734.000	441.339	79.997	19.995	100.044	20.179	6.263	0.507
734.500	441.592	79.997	19.996	100.047	20.181	6.059	0.489
735.000	441.866	79.996	19.995	100.048	20.178	6.351	0.506
735.500	442.090	79.996	19.994	100.049	20.177	6.423	0.512
736.000	442.366	79.997	19.995	100.049	20.181	6.059	0.499
736.500	442.616	79.997	19.994	100.051	20.181	6.074	0.513
737.000	442.864	79.996	19.995	100.050	20.183	5.865	0.513
737.500	443.113	79.996	19.995	100.054	20.178	6.354	0.498
738.000	443.342	79.996	19.994	100.054	20.179	6.178	0.487
738.500	443.597	79.998	19.994	100.055	20.181	6.072	0.481
739.000	443.845	79.996	19.995	100.053	20.181	6.043	0.493
739.500	444.090	79.998	19.995	100.051	20.177	6.420	0.498
740.000	444.348	79.997	19.995	100.046	20.180	6.164	0.498
740.500	444.610	79.997	19.995	100.045	20.183	5.887	0.511
741.000	444.865	79.996	19.993	100.046	20.178	6.324	0.518
741.500	445.091	79.996	19.995	100.046	20.182	5.926	0.499
742.000	445.347	79.996	19.992	100.046	20.183	5.841	0.482
742.500	445.590	79.997	19.995	100.049	20.182	5.970	0.491
743.000	445.852	79.997	19.995	100.055	20.180	6.154	0.502
743.500	446.058	79.995	19.996	100.054	20.178	6.293	0.486
744.000	446.322	79.997	19.994	100.057	20.183	5.878	0.469
744.501	446.563	79.998	19.994	100.059	20.181	6.015	0.487
745.000	446.811	79.997	19.994	100.058	20.182	5.984	0.498
745.500	447.084	79.997	19.995	100.052	20.180	6.118	0.505
746.000	447.325	79.996	19.993	100.054	20.180	6.144	0.517
746.500	447.589	79.996	19.994	100.056	20.185	5.658	0.510
747.000	447.808	79.999	19.995	100.057	20.181	6.063	0.494
747.500	448.135	79.995	19.994	100.057	20.183	5.838	0.514
748.000	448.341	79.996	19.994	100.060	20.187	5.510	0.539
748.500	448.592	79.997	19.994	100.062	20.183	5.851	0.495
749.000	448.874	79.995	19.994	100.062	20.181	6.024	0.496
749.500	449.122	79.998	19.995	100.057	20.180	6.117	0.532
750.000	449.355	79.997	19.995	100.054	20.185	5.691	0.505
750.500	449.619	79.994	19.995	100.051	20.182	5.906	0.489
751.000	449.881	79.999	19.997	100.046	20.181	6.043	0.512
751.500	450.125	79.995	19.996	100.041	20.181	6.030	0.516
752.000	450.359	79.997	19.995	100.042	20.179	6.180	0.492
752.500	450.635	79.997	19.996	100.042	20.181	6.020	0.495
753.000	450.918	79.996	19.996	100.042	20.182	5.971	0.535
753.500	451.162	79.996	19.994	100.044	20.182	5.981	0.543
754.000	451.409	79.997	19.995	100.046	20.182	5.940	0.509
754.500	451.641	79.998	19.996	100.048	20.184	5.741	0.486
755.000	451.948	79.995	19.995	100.051	20.189	5.263	0.509
755.500	452.149	79.997	19.995	100.051	20.186	5.529	0.523
756.000	452.394	79.995	19.996	100.052	20.181	6.007	0.477
756.500	452.647	79.996	19.995	100.050	20.187	5.482	0.472
757.000	452.914	79.996	19.996	100.049	20.184	5.754	0.509
757.500	453.145	79.992	19.994	100.046	20.180	6.154	0.509
758.000	453.424	79.996	19.996	100.046	20.186	5.544	0.503
758.500	453.683	79.996	19.996	100.044	20.185	5.645	0.524
759.000	453.927	79.994	19.995	100.044	20.188	5.371	0.521
759.500	454.170	79.996	19.995	100.043	20.186	5.573	0.495
760.000	454.420	79.998	19.996	100.043	20.186	5.596	0.490
760.500	454.686	79.996	19.996	100.042	20.184	5.761	0.505
761.000	454.917	79.996	19.995	100.044	20.186	5.541	0.507
761.500	455.206	79.997	19.996	100.044	20.189	5.288	0.508
762.000	455.439	79.997	19.995	100.044	20.182	5.926	0.521
762.500	455.712	79.997	19.995	100.047	20.184	5.738	0.514
763.000	455.977	79.996	19.995	100.051	20.186	5.518	0.522
763.500	456.211	79.997	19.994	100.054	20.184	5.709	0.518
764.000	456.427	79.998	19.996	100.055	20.183	5.875	0.475
764.500	456.735	79.998	19.995	100.056	20.183	5.813	0.487
765.000	456.943	79.998	19.995	100.053	20.183	5.869	0.520
765.500	457.200	79.996	19.995	100.050	20.183	5.800	0.490
766.000	457.457	79.995	19.994	100.049	20.184	5.764	0.489
766.500	457.729	79.995	19.994	100.050	20.179	6.229	0.522
767.000	457.992	79.997	19.995	100.050	20.182	5.975	0.532
767.500	458.243	79.998	19.995	100.051	20.180	6.143	0.524
768.000	458.448	79.999	19.994	100.050	20.181	6.001	0.484
768.500	458.737	79.999	19.995	100.046	20.185	5.678	0.475
769.000	459.013	79.999	19.996	100.046	20.184	5.761	0.530
769.500	459.265	79.998	19.996	100.046	20.184	5.710	0.547
770.000	459.508	79.999	19.995	100.047	20.185	5.697	0.512
770.500	459.756	79.999	19.995	100.046	20.180	6.115	0.493
771.000	460.009	79.997	19.996	100.047	20.187	5.508	0.496
771.500	460.238	79.997	19.994	100.046	20.182	5.911	0.491
772.000	460.486	79.999	19.995	100.044	20.184	5.730	0.480
772.500	460.751	79.999	19.995	100.044	20.182	5.965	0.495
773.000	460.997	79.998	19.995	100.045	20.186	5.573	0.512
773.500	461.302	79.998	19.995	100.045	20.184	5.764	0.531
774.000	461.486	79.998	19.995	100.044	20.185	5.668	0.520
774.500	461.789	79.997	19.995	100.044	20.181	6.012	0.488
775.000	462.006	79.999	19.996	100.044	20.186	5.572	0.503
775.500	462.267	79.997	19.995	100.043	20.187	5.503	0.499
776.000	462.504	79.997	19.995	100.044	20.182	5.962	0.488
776.500	462.794	79.996	19.996	100.045	20.185	5.650	0.512
777.000	462.984	79.996	19.996	100.044	20.183	5.869	0.503
777.500	463.245	79.995	19.996	100.044	20.179	6.179	0.466
778.000	463.507	79.996	19.995	100.045	20.180	6.117	0.487
778.500	463.768	79.997	19.995	100.045	20.190	5.213	0.523
779.000	463.976	79.996	19.996	100.044	20.181	6.024	0.497
779.500	464.277	79.996	19.995	100.045	20.182	5.975	0.489
780.000	464.489	79.997	19.996	100.045	20.188	5.353	0.511
780.500	464.743	79.996	19.996	100.047	20.182	5.952	0.489
781.000	464.975	79.994	19.994	100.048	20.185	5.632	0.476
781.500	465.253	79.995	19.994	100.049	20.185	5.673	0.498
782.000	465.500	79.995	19.995	100.050	20.185	5.637	0.518
782.500	465.714	79.997	19.994	100.050	20.184	5.722	0.493
783.000	465.982	79.995	19.996	100.049	20.185	5.626	0.471
783.500	466.254	79.996	19.995	100.048	20.188	5.412	0.511
784.000	466.501	79.996	19.996	100.048	20.187	5.484	0.530
784.500	466.742	79.996	19.994	100.048	20.189	5.296	0.504
785.000	467.051	79.998	19.996	100.047	20.188	5.378	0.519
785.500	467.248	79.997	19.996	100.046	20.189	5.314	0.528
786.000	467.493	79.998	19.997	100.046	20.189	5.316	0.473
786.500	467.776	79.998	19.996	100.044	20.189	5.324	0.485
787.000	468.024	79.999	19.994	100.043	20.188	5.373	0.530
787.500	468.265	79.999	19.997	100.043	20.185	5.665	0.509
788.000	468.509	79.998	19.995	100.042	20.191	5.079	0.487
788.500	468.742	79.998	19.995	100.041	20.186	5.575	0.481
789.000	469.032	79.997	19.996	100.041	20.191	5.110	0.500
789.500	469.267	79.998	19.996	100.040	20.191	5.058	0.524
790.000	469.470	79.999	19.996	100.040	20.184	5.740	0.482
790.500	469.734	79.999	19.996	100.040	20.189	5.273	0.452
791.000	470.039	80.000	19.996	100.040	20.192	5.004	0.518
791.500	470.263	79.999	19.995	100.040	20.188	5.404	0.549
792.000	470.498	79.998	19.994	100.039	20.188	5.415	0.494
792.500	470.770	79.999	19.996	100.038	20.194	4.774	0.483
793.000	471.030	79.997	19.994	100.038	20.192	5.025	0.519
793.500	471.238	79.999	19.996	100.040	20.195	4.679	0.500
794.000	471.532	79.999	19.996	100.041	20.193	4.903	0.485
794.500	471.782	80.000	19.994	100.041	20.196	4.591	0.523
795.000	472.021	79.999	19.995	100.041	20.192	4.991	0.516
795.500	472.317	79.998	19.994	100.040	20.196	4.596	0.512
796.000	472.518	79.997	19.995	100.037	20.192	4.955	0.517
796.500	472.795	79.998	19.994	100.038	20.189	5.314	0.487
797.000	473.070	79.998	19.995	100.041	20.194	4.844	0.515
797.500	473.301	80.000	19.994	100.042	20.197	4.562	0.529
798.000	473.520	79.998	19.994	100.044	20.195	4.748	0.478
798.500	473.796	79.997	19.994	100.045	20.192	4.999	0.472
799.000	474.074	79.995	19.994	100.045	20.196	4.627	0.524
799.500	474.320	79.997	19.995	100.043	20.196	4.588	0.539
800.000	474.576	79.997	19.995	100.043	20.195	4.689	0.513
800.500	474.849	79.997	19.994	100.043	20.197	4.526	0.516
801.000	475.071	79.998	19.995	100.043	20.195	4.668	0.512
801.500	475.352	79.997	19.993	100.042	20.196	4.598	0.499
802.000	475.621	79.998	19.995	100.042	20.194	4.823	0.527
802.500	475.884	79.998	19.994	100.042	20.195	4.668	0.541
803.000	476.090	79.996	19.995	100.042	20.195	4.738	0.500
803.500	476.396	79.999	19.996	100.042	20.194	4.833	0.490
804.000	476.608	79.995	19.995	100.043	20.196	4.593	0.515
804.500	476.864	79.998	19.995	100.044	20.195	4.676	0.493
805.000	477.113	79.996	19.995	100.044	20.196	4.642	0.486
805.500	477.400	79.997	19.995	100.043	20.202	4.069	0.521
806.000	477.645	79.997	19.994	100.043	20.195	4.727	0.534
806.500	477.905	79.998	19.995	100.042	20.195	4.751	0.519
807.000	478.139	79.996	19.995	100.041	20.193	4.885	0.499
807.500	478.414	79.999	19.995	100.041	20.195	4.722	0.501
808.000	478.706	79.997	19.995	100.042	20.195	4.668	0.538
808.500	478.955	79.998	19.996	100.041	20.196	4.640	0.554
809.000	479.176	79.995	19.995	100.041	20.199	4.363	0.506
809.500	479.428	79.997	19.995	100.042	20.198	4.474	0.472
810.000	479.676	79.994	19.996	100.042	20.194	4.805	0.486
810.500	479.941	79.998	19.995	100.043	20.200	4.201	0.506
811.000	480.197	79.997	19.994	100.044	20.195	4.717	0.517
811.500	480.469	79.996	19.996	100.044	20.194	4.764	0.525
812.000	480.743	79.995	19.994	100.043	20.193	4.914	0.537
812.500	480.980	79.997	19.995	100.043	20.197	4.544	0.528
813.000	481.228	79.997	19.995	100.042	20.196	4.635	0.497
813.500	481.513	79.997	19.995	100.041	20.195	4.725	0.509
814.000	481.742	79.999	19.995	100.041	20.199	4.332	0.524
814.500	481.976	79.996	19.996	100.041	20.199	4.304	0.489
815.000	482.268	79.995	19.995	100.041	20.197	4.500	0.495
815.500	482.526	79.997	19.996	100.042	20.198	4.449	0.538
816.000	482.730	79.996	19.996	100.041	20.200	4.270	0.506
816.500	482.989	79.996	19.995	100.040	20.197	4.482	0.462
817.000	483.254	79.996	19.994	100.041	20.197	4.493	0.494
817.500	483.505	79.998	19.994	100.040	20.200	4.201	0.520
818.000	483.717	79.998	19.995	100.040	20.195	4.668	0.489
818.500	484.024	79.996	19.994	100.041	20.197	4.539	0.491
819.000	484.259	79.996	19.996	100.041	20.196	4.598	0.530
819.500	484.484	79.996	19.995	100.040	20.194	4.776	0.501
820.000	484.778	79.997	19.994	100.040	20.199	4.309	0.490
820.500	484.981	79.997	19.994	100.041	20.198	4.415	0.508
821.000	485.266	79.996	19.994	100.041	20.202	4.017	0.492
821.500	485.527	79.995	19.994	100.041	20.203	3.945	0.517
822.000	485.801	79.997	19.994	100.042	20.199	4.293	0.541
822.500	486.044	79.997	19.995	100.042	20.200	4.226	0.526
823.000	486.308	79.999	19.996	100.042	20.198	4.459	0.512
823.500	486.529	79.994	19.994	100.042	20.197	4.505	0.496
824.000	486.831	79.996	19.994	100.042	20.199	4.309	0.504
824.500	487.047	79.997	19.996	100.043	20.202	4.046	0.521
825.000	487.328	79.996	19.996	100.042	20.203	4.002	0.507
825.500	487.544	79.995	19.995	100.042	20.203	3.997	0.496
826.000	487.775	79.997	19.994	100.042	20.201	4.167	0.472
826.500	488.077	79.996	19.995	100.042	20.204	3.852	0.490
827.000	488.315	79.997	19.995	100.042	20.201	4.100	0.536
827.500	488.530	79.996	19.995	100.044	20.201	4.134	0.496
828.000	488.841	79.996	19.995	100.044	20.199	4.288	0.490
828.500	489.068	79.995	19.993	100.044	20.203	3.966	0.532
829.000	489.308	79.996	19.994	100.041	20.201	4.167	0.503
829.500	489.596	79.993	19.994	100.036	20.201	4.141	0.498
830.000	489.840	79.994	19.995	100.034	20.205	3.816	0.530
830.500	490.090	79.997	19.994	100.035	20.203	3.935	0.512
831.000	490.345	79.994	19.994	100.036	20.201	4.128	0.499
831.500	490.614	79.996	19.993	100.038	20.204	3.865	0.515
832.000	490.844	79.995	19.994	100.040	20.201	4.159	0.512
832.500	491.096	79.997	19.994	100.041	20.200	4.283	0.490
833.000	491.343	79.998	19.995	100.040	20.204	3.880	0.490
833.500	491.637	79.996	19.992	100.039	20.204	3.875	0.520
834.000	491.860	79.996	19.994	100.039	20.207	3.612	0.529
834.500	492.118	79.996	19.995	100.041	20.203	3.922	0.499
835.000	492.396	79.998	19.995	100.045	20.204	3.818	0.509
835.500	492.676	79.996	19.994	100.045	20.201	4.193	0.547
836.000	492.890	79.996	19.995	100.046	20.202	4.077	0.525
836.500	493.193	79.997	19.995	100.047	20.201	4.113	0.506
837.000	493.400	79.996	19.995	100.048	20.202	4.033	0.514
837.500	493.666	79.996	19.993	100.045	20.204	3.855	0.491
838.000	493.925	79.996	19.994	100.045	20.206	3.720	0.499
838.500	494.168	79.997	19.995	100.045	20.204	3.873	0.514
839.000	494.433	79.997	19.995	100.045	20.201	4.175	0.505
839.500	494.685	79.997	19.995	100.045	20.205	3.730	0.512
840.000	494.978	79.998	19.994	100.045	20.204	3.893	0.530
840.500	495.214	79.998	19.995	100.044	20.204	3.821	0.537
841.000	495.535	79.996	19.994	100.044	20.208	3.464	0.543
841.500	495.753	79.997	19.995	100.045	20.203	3.953	0.548
842.000	495.974	79.995	19.995	100.045	20.204	3.844	0.489
842.500	496.231	79.997	19.994	100.043	20.205	3.767	0.458
843.000	496.487	79.996	19.994	100.043	20.208	3.508	0.495
843.500	496.728	79.997	19.995	100.043	20.204	3.847	0.505
844.000	496.964	79.998	19.995	100.042	20.207	3.586	0.487
844.500	497.233	79.997	19.995	100.042	20.211	3.227	0.491
845.000	497.492	79.997	19.994	100.046	20.205	3.751	0.517
845.500	497.764	79.996	19.995	100.048	20.207	3.583	0.529
846.000	498.019	79.997	19.995	100.049	20.204	3.898	0.529
846.500	498.265	79.996	19.994	100.049	20.204	3.844	0.514
847.000	498.525	79.996	19.995	100.051	20.203	3.945	0.503
847.500	498.762	79.999	19.994	100.049	20.200	4.229	0.501
848.000	499.010	79.996	19.995	100.046	20.202	4.079	0.491
848.500	499.289	79.996	19.996	100.046	20.201	4.128	0.506
849.000	499.534	79.996	19.994	100.045	20.201	4.144	0.525
849.500	499.810	79.996	19.995	100.044	20.203	3.919	0.523
850.000	500.068	79.997	19.994	100.044	20.201	4.105	0.528
850.500	500.300	79.997	19.995	100.045	20.204	3.883	0.512
851.000	500.553	79.997	19.995	100.045	20.202	4.009	0.487
851.500	500.825	79.997	19.995	100.047	20.205	3.805	0.505
852.000	501.048	79.995	19.996	100.046	20.207	3.586	0.510
852.500	501.314	79.997	19.996	100.045	20.206	3.697	0.493
853.000	501.564	79.997	19.995	100.043	20.206	3.707	0.503
853.500	501.819	79.996	19.995	100.043	20.208	3.508	0.510
854.000	502.061	79.996	19.995	100.041	20.207	3.537	0.501
854.500	502.319	79.997	19.996	100.041	20.204	3.880	0.499
855.000	502.585	79.998	19.994	100.041	20.205	3.751	0.512
855.500	502.811	79.996	19.996	100.042	20.207	3.570	0.508
856.000	503.073	79.997	19.995	100.041	20.207	3.567	0.490
856.500	503.306	79.996	19.995	100.040	20.204	3.849	0.492
857.000	503.568	79.997	19.995	100.040	20.206	3.642	0.495
857.500	503.855	79.997	19.996	100.041	20.206	3.650	0.522
858.000	504.115	79.997	19.995	100.040	20.212	3.115	0.547
858.500	504.343	79.997	19.996	100.040	20.210	3.332	0.518
859.000	504.600	79.998	19.995	100.041	20.209	3.379	0.487
859.500	504.882	79.998	19.994	100.041	20.207	3.627	0.512
860.000	505.098	79.998	19.994	100.040	20.205	3.743	0.518
860.500	505.379	79.996	19.995	100.040	20.205	3.795	0.497
861.000	505.589	79.997	19.996	100.038	20.202	4.017	0.494
861.500	505.874	79.997	19.994	100.038	20.202	4.051	0.493
862.000	506.130	79.999	19.995	100.040	20.207	3.578	0.518
862.500	506.380	79.996	19.994	100.040	20.205	3.774	0.524
863.000	506.640	79.998	19.995	100.040	20.205	3.803	0.508
863.500	506.877	79.998	19.995	100.042	20.206	3.697	0.503
864.000	507.167	79.997	19.995	100.042	20.202	4.012	0.512
864.500	507.425	79.997	19.995	100.040	20.206	3.699	0.538
865.000	507.669	79.995	19.994	100.039	20.203	3.934	0.525
865.500	507.961	79.997	19.995	100.039	20.203	3.960	0.519
866.000	508.200	80.001	19.995	100.039	20.203	3.999	0.533
866.500	508.459	80.001	19.995	100.039	20.205	3.787	0.514
867.000	508.714	79.997	19.996	100.038	20.205	3.735	0.506
867.500	508.977	80.000	19.994	100.039	20.204	3.828	0.516
868.000	509.207	79.999	19.995	100.038	20.205	3.754	0.506
868.500	509.501	79.998	19.995	100.038	20.207	3.599	0.509
869.000	509.747	79.999	19.995	100.038	20.207	3.601	0.532
869.500	510.009	79.998	19.995	100.038	20.206	3.707	0.524
870.000	510.282	79.999	19.994	100.038	20.207	3.580	0.522
870.500	510.522	79.999	19.996	100.038	20.208	3.475	0.525
871.000	510.762	79.999	19.996	100.038	20.208	3.456	0.496
871.500	511.019	79.999	19.996	100.038	20.203	3.916	0.488
872.000	511.259	79.998	19.996	100.037	20.209	3.376	0.497
872.500	511.542	80.000	19.996	100.038	20.209	3.438	0.510
873.000	511.788	79.999	19.996	100.038	20.204	3.854	0.526
873.500	512.047	79.999	19.996	100.038	20.210	3.289	0.517
874.000	512.263	79.999	19.995	100.038	20.208	3.503	0.490
874.500	512.522	79.996	19.995	100.037	20.203	3.960	0.475
875.000	512.789	79.996	19.996	100.036	20.204	3.860	0.501
875.500	513.028	79.995	19.994	100.035	20.206	3.671	0.516
876.000	513.272	79.997	19.996	100.034	20.205	3.811	0.494
876.500	513.550	79.996	19.996	100.034	20.206	3.645	0.502
877.000	513.781	79.996	19.995	100.034	20.205	3.751	0.516
877.500	514.054	79.997	19.996	100.035	20.205	3.772	0.506
878.000	514.325	79.996	19.995	100.037	20.206	3.705	0.524
878.500	514.591	79.997	19.995	100.039	20.208	3.449	0.541
879.000	514.889	79.995	19.995	100.040	20.207	3.547	0.550
879.500	515.143	79.996	19.996	100.041	20.203	3.940	0.558
880.000	515.367	79.998	19.995	100.041	20.207	3.550	0.515
880.500	515.618	79.994	19.994	100.040	20.203	3.965	0.476
881.000	515.866	79.997	19.996	100.041	20.204	3.888	0.487
881.500	516.169	79.998	19.994	100.041	20.206	3.642	0.525
882.000	516.448	79.997	19.995	100.040	20.211	3.232	0.566
882.500	516.674	79.995	19.994	100.041	20.207	3.549	0.543
883.000	516.958	79.995	19.995	100.042	20.209	3.353	0.508
883.500	517.246	79.996	19.994	100.042	20.208	3.464	0.541
884.000	517.489	79.996	19.996	100.041	20.207	3.555	0.551
884.500	517.743	79.997	19.994	100.042	20.208	3.446	0.514
885.000	518.008	79.994	19.995	100.042	20.211	3.196	0.508
885.500	518.252	79.996	19.995	100.043	20.204	3.829	0.514
886.000	518.520	79.997	19.996	100.042	20.211	3.185	0.510
886.500	518.784	79.999	19.995	100.044	20.210	3.289	0.522
887.000	519.056	79.993	19.994	100.045	20.211	3.234	0.534
887.500	519.332	79.996	19.995	100.044	20.210	3.312	0.542
888.000	519.584	79.997	19.994	100.043	20.210	3.320	0.538
888.500	519.843	79.994	19.994	100.044	20.209	3.410	0.520
889.000	520.074	79.997	19.992	100.044	20.209	3.426	0.501
889.500	520.352	79.994	19.994	100.044	20.209	3.415	0.500
890.000	520.612	79.996	19.994	100.044	20.205	3.730	0.523
890.500	520.902	79.996	19.995	100.044	20.202	4.022	0.544
891.000	521.139	79.999	19.995	100.043	20.212	3.144	0.539
891.500	521.386	79.994	19.995	100.040	20.207	3.568	0.506
892.000	521.669	79.998	19.993	100.037	20.208	3.477	0.506
892.500	521.933	79.997	19.996	100.037	20.211	3.175	0.538
893.000	522.157	79.997	19.994	100.037	20.211	3.237	0.518
893.500	522.466	79.995	19.994	100.037	20.208	3.519	0.511
894.000	522.676	80.000	19.996	100.040	20.209	3.418	0.526
894.500	522.973	79.996	19.994	100.041	20.211	3.183	0.513
895.000	523.222	79.998	19.995	100.041	20.209	3.439	0.527
895.500	523.524	79.997	19.994	100.041	20.207	3.627	0.548
896.000	523.776	79.996	19.995	100.043	20.211	3.232	0.552
896.500	524.081	79.996	19.994	100.044	20.208	3.449	0.556
897.000	524.316	79.996	19.996	100.046	20.210	3.276	0.548
897.500	524.586	79.999	19.995	100.046	20.210	3.320	0.523
898.000	524.862	79.995	19.995	100.046	20.207	3.617	0.526
898.500	525.103	79.997	19.995	100.044	20.208	3.503	0.531
899.000	525.401	79.996	19.995	100.043	20.204	3.849	0.528
899.500	525.611	79.995	19.994	100.042	20.210	3.271	0.524
900.000	525.887	79.996	19.996	100.042	20.208	3.454	0.497
900.500	526.142	79.997	19.995	100.042	20.208	3.526	0.508
901.000	526.432	79.997	19.994	100.041	20.208	3.459	0.538
901.500	526.684	79.998	19.995	100.042	20.213	3.030	0.544
902.000	526.939	79.997	19.995	100.043	20.210	3.283	0.524
902.500	527.228	79.997	19.995	100.044	20.210	3.283	0.526
903.000	527.465	79.996	19.995	100.044	20.210	3.268	0.535
903.500	527.733	79.997	19.995	100.045	20.208	3.524	0.515
904.000	528.016	79.996	19.995	100.045	20.207	3.606	0.528
904.500	528.266	79.997	19.995	100.047	20.206	3.632	0.542
905.000	528.539	79.997	19.995	100.048	20.210	3.335	0.528
905.500	528.805	79.997	19.995	100.048	20.206	3.665	0.531
906.000	529.028	79.996	19.995	100.047	20.207	3.621	0.514
906.500	529.348	79.996	19.994	100.046	20.211	3.164	0.516
907.000	529.607	79.996	19.995	100.044	20.211	3.188	0.561
907.500	529.892	79.996	19.994	100.044	20.211	3.195	0.562
908.000	530.154	79.994	19.994	100.046	20.210	3.322	0.546
908.500	530.400	79.997	19.995	100.048	20.210	3.289	0.527
909.000	530.668	79.994	19.994	100.048	20.211	3.170	0.511
909.500	530.907	79.996	19.994	100.047	20.210	3.343	0.511
910.000	531.198	79.997	19.996	100.046	20.204	3.883	0.519
910.500	531.423	79.996	19.994	100.045	20.205	3.787	0.523
911.000	531.700	79.997	19.996	100.043	20.206	3.653	0.509
911.500	531.953	79.995	19.995	100.043	20.206	3.715	0.516
912.000	532.233	79.997	19.995	100.044	20.211	3.167	0.531
912.500	532.493	79.996	19.993	100.044	20.208	3.474	0.536
913.000	532.729	79.999	19.995	100.043	20.209	3.436	0.518
913.500	533.010	79.998	19.995	100.041	20.207	3.588	0.507
914.000	533.278	79.997	19.994	100.040	20.203	3.960	0.533
914.500	533.539	79.996	19.994	100.040	20.211	3.216	0.539
915.000	533.797	79.997	19.995	100.039	20.207	3.588	0.524
915.500	534.048	79.997	19.995	100.036	20.209	3.415	0.514
916.000	534.313	79.997	19.995	100.035	20.206	3.702	0.513
916.500	534.612	79.997	19.995	100.032	20.205	3.733	0.540
917.000	534.872	79.998	19.993	100.029	20.206	3.692	0.561
917.500	535.108	79.999	19.994	100.029	20.209	3.376	0.527
918.000	535.401	79.998	19.995	100.032	20.204	3.821	0.513
918.500	535.647	79.998	19.995	100.035	20.208	3.524	0.534
919.000	535.884	79.999	19.996	100.037	20.204	3.847	0.511
919.500	536.155	79.999	19.993	100.039	20.208	3.490	0.495
920.000	536.433	79.997	19.994	100.040	20.208	3.498	0.528
920.500	536.687	79.998	19.995	100.040	20.205	3.810	0.540
921.000	536.924	80.000	19.994	100.041	20.207	3.552	0.511
921.500	537.175	79.998	19.995	100.039	20.208	3.449	0.490
922.000	537.436	79.999	19.995	100.039	20.208	3.456	0.501
922.500	537.717	79.998	19.993	100.039	20.206	3.717	0.527
923.000	537.972	79.997	19.995	100.038	20.209	3.351	0.539
923.500	538.228	79.999	19.994	100.038	20.209	3.374	0.523
924.000	538.470	80.001	19.994	100.040	20.208	3.521	0.505
924.500	538.715	79.999	19.994	100.040	20.207	3.624	0.493
925.000	539.005	79.997	19.994	100.041	20.203	3.942	0.511
925.500	539.237	79.999	19.995	100.042	20.209	3.371	0.529
926.000	539.515	79.999	19.995	100.042	20.211	3.193	0.516
926.500	539.747	79.998	19.995	100.041	20.210	3.263	0.510
927.000	540.011	79.999	19.995	100.041	20.209	3.413	0.502
927.500	540.276	79.998	19.995	100.041	20.202	4.056	0.512
928.000	540.535	79.999	19.995	100.040	20.206	3.673	0.527
928.500	540.779	79.997	19.996	100.040	20.208	3.482	0.514
929.000	541.048	79.998	19.995	100.040	20.206	3.689	0.508
929.500	541.323	79.997	19.994	100.041	20.209	3.379	0.528
930.000	541.572	79.996	19.995	100.040	20.209	3.412	0.534
930.500	541.829	79.996	19.995	100.040	20.212	3.090	0.515
931.000	542.076	79.996	19.994	100.041	20.205	3.722	0.505
931.500	542.301	79.998	19.996	100.040	20.208	3.487	0.488
932.000	542.574	79.996	19.995	100.040	20.208	3.462	0.485
932.500	542.820	79.996	19.995	100.040	20.211	3.193	0.508
933.000	543.086	79.998	19.995	100.040	20.207	3.606	0.516
933.500	543.357	79.998	19.996	100.040	20.210	3.291	0.525
934.000	543.621	79.997	19.995	100.039	20.211	3.242	0.536
934.500	543.850	79.997	19.994	100.039	20.209	3.384	0.514
935.000	544.134	79.995	19.995	100.039	20.209	3.410	0.503
935.500	544.356	80.000	19.996	100.039	20.207	3.568	0.509
936.000	544.624	79.996	19.995	100.040	20.208	3.511	0.498
936.500	544.867	79.997	19.996	100.040	20.207	3.601	0.501
937.000	545.099	79.999	19.995	100.041	20.207	3.573	0.493
937.500	545.391	79.996	19.995	100.041	20.208	3.516	0.499
938.000	545.649	80.000	19.995	100.040	20.207	3.578	0.537
938.500	545.875	79.998	19.996	100.039	20.211	3.190	0.517
939.000	546.133	79.998	19.994	100.039	20.208	3.518	0.484
939.500	546.379	79.999	19.996	100.038	20.210	3.312	0.494
940.000	546.627	79.997	19.995	100.037	20.208	3.464	0.499
940.500	546.909	80.000	19.995	100.037	20.209	3.438	0.512
941.000	547.200	79.998	19.996	100.038	20.205	3.730	0.552
941.500	547.411	79.997	19.995	100.038	20.210	3.252	0.538
942.000	547.653	79.998	19.994	100.038	20.212	3.134	0.477
942.500	547.940	79.997	19.995	100.038	20.209	3.438	0.491
943.000	548.167	80.000	19.993	100.038	20.208	3.467	0.522
943.500	548.451	79.999	19.996	100.037	20.210	3.304	0.512
944.000	548.713	80.000	19.995	100.037	20.208	3.485	0.528
944.500	548.946	79.999	19.996	100.038	20.210	3.258	0.521
945.000	549.177	79.998	19.994	100.040	20.206	3.637	0.480
945.500	549.430	79.998	19.994	100.040	20.207	3.550	0.474
946.000	549.723	79.999	19.994	100.040	20.213	2.999	0.515
946.500	549.953	79.998	19.994	100.040	20.206	3.712	0.535
947.000	550.249	80.000	19.996	100.041	20.207	3.570	0.524
947.500	550.501	79.999	19.995	100.040	20.208	3.513	0.537
948.000	550.745	80.000	19.995	100.040	20.209	3.426	0.522
948.500	550.947	79.998	19.996	100.041	20.208	3.516	0.471
949.000	551.233	79.998	19.994	100.041	20.208	3.441	0.467
949.500	551.468	79.999	19.994	100.041	20.211	3.170	0.504
950.000	551.718	79.997	19.995	100.041	20.207	3.542	0.503
950.500	551.954	79.998	19.994	100.040	20.206	3.679	0.486
951.000	552.204	79.997	19.995	100.039	20.208	3.446	0.486
951.500	552.457	79.998	19.996	100.039	20.208	3.457	0.494
952.000	552.747	79.997	19.995	100.039	20.211	3.221	0.522
952.500	553.010	79.998	19.996	100.040	20.203	3.927	0.548
953.000	553.250	79.996	19.995	100.041	20.209	3.345	0.528
953.500	553.545	79.998	19.996	100.042	20.207	3.583	0.519
954.000	553.761	79.998	19.995	100.042	20.210	3.283	0.523
954.500	554.015	79.995	19.995	100.042	20.207	3.586	0.490
955.000	554.291	79.998	19.995	100.043	20.208	3.521	0.500
955.500	554.559	79.996	19.997	100.043	20.208	3.485	0.537
956.000	554.808	79.996	19.997	100.043	20.208	3.487	0.531
956.500	555.069	79.996	19.997	100.043	20.208	3.519	0.514
957.000	555.339	79.997	19.996	100.044	20.211	3.175	0.520
957.500	555.568	79.995	19.997	100.043	20.207	3.570	0.515
958.000	555.836	79.992	19.995	100.042	20.211	3.170	0.498
958.500	556.054	79.993	19.996	100.042	20.208	3.469	0.492
959.000	556.312	79.996	19.996	100.042	20.208	3.524	0.481
959.500	556.581	79.996	19.996	100.042	20.210	3.320	0.501
960.000	556.860	79.995	19.997	100.043	20.208	3.503	0.537
960.500	557.084	79.994	19.996	100.043	20.205	3.754	0.525
961.000	557.351	79.994	19.995	100.043	20.211	3.180	0.497
961.500	557.625	79.996	19.996	100.043	20.203	3.940	0.517
962.000	557.831	79.996	19.996	100.043	20.210	3.312	0.510
962.500	558.081	79.996	19.997	100.042	20.205	3.774	0.468
963.000	558.374	79.996	19.998	100.042	20.205	3.756	0.499
963.500	558.602	79.996	19.997	100.043	20.207	3.609	0.532
964.000	558.860	79.995	19.994	100.043	20.206	3.640	0.504
964.500	559.123	79.995	19.997	100.041	20.206	3.718	0.504
965.000	559.370	79.993	19.995	100.038	20.206	3.663	0.516
965.500	559.615	79.996	19.995	100.038	20.211	3.221	0.501
966.000	559.864	79.996	19.996	100.038	20.206	3.681	0.493
966.500	560.114	79.994	19.994	100.039	20.207	3.599	0.497
967.000	560.369	79.997	19.995	100.040	20.209	3.436	0.502
967.500	560.633	79.995	19.995	100.043	20.209	3.348	0.512
968.000	560.874	79.996	19.996	100.043	20.206	3.632	0.512
968.500	561.138	79.996	19.994	100.044	20.207	3.591	0.505
969.000	561.404	79.995	19.995	100.043	20.205	3.774	0.517
969.500	561.625	79.997	19.994	100.042	20.204	3.821	0.508
970.000	561.929	79.996	19.995	100.043	20.202	4.082	0.506
970.500	562.162	79.995	19.994	100.043	20.204	3.880	0.531
971.000	562.401	79.997	19.995	100.043	20.210	3.333	0.505
971.500	562.642	79.996	19.995	100.045	20.205	3.730	0.476
972.000	562.912	79.995	19.994	100.046	20.207	3.560	0.495
972.500	563.184	79.995	19.994	100.046	20.204	3.903	0.526
973.000	563.403	79.995	19.995	100.045	20.209	3.418	0.516
973.500	563.675	79.997	19.996	100.045	20.208	3.454	0.491
974.000	563.918	79.996	19.995	100.045	20.205	3.797	0.503
974.500	564.171	79.997	19.994	100.045	20.209	3.400	0.506
975.000	564.403	79.997	19.995	100.045	20.210	3.314	0.491
975.500	564.643	79.997	19.995	100.045	20.209	3.415	0.478
976.000	564.914	79.996	19.995	100.042	20.210	3.260	0.491
976.500	565.156	79.998	19.995	100.041	20.207	3.555	0.513
977.000	565.374	79.997	19.996	100.040	20.205	3.735	0.487
977.500	565.655	79.995	19.994	100.040	20.209	3.415	0.479
978.000	565.900	79.997	19.994	100.038	20.215	2.847	0.513
978.500	566.149	79.998	19.994	100.039	20.212	3.128	0.510
979.000	566.431	79.998	19.994	100.038	20.208	3.474	0.512
979.500	566.654	79.997	19.995	100.039	20.211	3.213	0.518
980.000	566.960	79.997	19.995	100.039	20.207	3.557	0.517
980.500	567.155	79.997	19.996	100.040	20.207	3.562	0.515
981.000	567.429	79.996	19.996	100.040	20.209	3.420	0.485
981.500	567.674	79.998	19.996	100.042	20.212	3.131	0.494
982.000	567.903	79.996	19.995	100.042	20.211	3.198	0.497
982.500	568.193	79.998	19.995	100.042	20.210	3.330	0.496
983.000	568.426	79.998	19.994	100.042	20.211	3.170	0.521
983.500	568.675	79.998	19.993	100.041	20.208	3.485	0.503
984.000	568.922	79.996	19.994	100.041	20.211	3.172	0.489
984.500	569.174	79.997	19.995	100.042	20.211	3.216	0.497
985.000	569.433	79.998	19.996	100.040	20.211	3.231	0.505
985.500	569.684	79.995	19.995	100.041	20.210	3.322	0.511
986.000	569.920	79.995	19.995	100.041	20.212	3.092	0.499
986.500	570.236	79.997	19.994	100.041	20.214	2.901	0.519
987.000	570.438	79.995	19.996	100.040	20.213	2.999	0.535
987.500	570.709	79.996	19.995	100.041	20.209	3.379	0.496
988.000	570.969	79.996	19.994	100.041	20.208	3.516	0.502
988.500	571.233	79.998	19.995	100.040	20.210	3.281	0.527
989.000	571.496	79.998	19.996	100.040	20.209	3.415	0.526
989.500	571.735	79.996	19.995	100.040	20.211	3.247	0.514
990.000	571.979	79.996	19.996	100.037	20.211	3.216	0.492
990.500	572.251	79.996	19.995	100.034	20.208	3.495	0.500
991.000	572.506	79.997	19.995	100.033	20.210	3.296	0.522
991.500	572.759	79.997	19.994	100.034	20.213	2.988	0.517
992.000	573.013	79.996	19.996	100.034	20.209	3.412	0.507
992.500	573.275	79.997	19.995	100.038	20.208	3.510	0.511
993.000	573.544	79.998	19.995	100.040	20.211	3.190	0.524
993.500	573.819	79.998	19.995	100.042	20.209	3.345	0.538
994.000	574.093	79.998	19.995	100.041	20.208	3.521	0.546
994.500	574.311	79.996	19.995	100.039	20.206	3.642	0.520
995.000	574.589	79.997	19.994	100.034	20.206	3.720	0.494
995.500	574.858	79.997	19.995	100.031	20.209	3.369	0.522
996.000	575.122	79.998	19.995	100.030	20.211	3.239	0.540
996.500	575.383	79.999	19.996	100.030	20.210	3.307	0.529
997.000	575.623	79.999	19.995	100.033	20.208	3.454	0.513
997.500	575.889	79.998	19.994	100.036	20.208	3.477	0.504
998.000	576.140	79.999	19.994	100.039	20.212	3.139	0.511
998.500	576.377	80.000	19.995	100.040	20.207	3.568	0.502
999.000	576.644	79.999	19.995	100.038	20.211	3.157	0.496
999.500	576.903	79.997	19.993	100.038	20.206	3.692	0.516
1000.000	577.151	79.998	19.995	100.036	20.209	3.387	0.517
1000.500	577.442	79.998	19.996	100.029	20.205	3.790	0.523
1001.000	577.703	80.000	19.995	100.027	20.208	3.441	0.545
1001.500	577.930	79.998	19.994	100.023	20.208	3.485	0.520
1002.000	578.170	79.999	19.994	100.020	20.210	3.278	0.477
1002.500	578.429	79.998	19.994	100.023	20.212	3.097	0.483
1003.000	578.666	79.999	19.994	100.029	20.208	3.477	0.497
1003.500	578.925	79.998	19.994	100.030	20.213	3.051	0.496
1004.000	579.169	80.002	19.996	100.032	20.211	3.219	0.500
1004.500	579.434	79.998	19.994	100.035	20.211	3.198	0.506
1005.000	579.709	79.999	19.995	100.036	20.210	3.268	0.524
1005.500	579.936	80.000	19.996	100.037	20.212	3.110	0.521
1006.000	580.169	79.999	19.995	100.038	20.210	3.343	0.481
1006.500	580.453	80.000	19.994	100.040	20.210	3.309	0.488
1007.000	580.721	79.998	19.994	100.040	20.212	3.139	0.534
1007.500	580.935	79.999	19.996	100.040	20.212	3.136	0.518
1008.000	581.181	79.997	19.994	100.040	20.212	3.144	0.472
1008.500	581.429	79.997	19.994	100.041	20.213	2.971	0.477
1009.000	581.674	79.997	19.994	100.042	20.212	3.100	0.494
1009.500	581.920	79.998	19.996	100.042	20.213	3.028	0.492
1010.000	582.182	79.997	19.995	100.042	20.212	3.131	0.499
1010.500	582.475	79.999	19.994	100.042	20.209	3.358	0.532
1011.000	582.698	79.998	19.995	100.039	20.213	3.023	0.536
1011.500	582.947	79.997	19.994	100.036	20.210	3.309	0.494
1012.000	583.166	79.997	19.995	100.037	20.214	2.937	0.470
1012.500	583.443	79.998	19.993	100.037	20.213	2.994	0.482
1013.000	583.681	79.997	19.995	100.037	20.212	3.152	0.505
1013.500	583.947	79.997	19.995	100.041	20.211	3.180	0.509
1014.000	584.156	79.997	19.994	100.043	20.210	3.252	0.489
1014.500	584.443	79.999	19.995	100.044	20.210	3.332	0.485
1015.000	584.686	79.997	19.995	100.043	20.213	3.028	0.513
1015.500	584.927	79.998	19.994	100.044	20.211	3.165	0.508
1016.000	585.235	79.996	19.996	100.043	20.211	3.183	0.517
1016.500	585.484	79.998	19.995	100.043	20.213	3.030	0.553
1017.000	585.718	79.997	19.993	100.043	20.212	3.121	0.519
1017.500	585.973	79.999	19.995	100.044	20.213	3.041	0.486
1018.000	586.238	79.997	19.996	100.043	20.214	2.927	0.505
1018.500	586.456	79.998	19.995	100.043	20.210	3.257	0.501
1019.000	586.715	80.000	19.996	100.042	20.216	2.764	0.480
1019.500	586.973	79.997	19.995	100.042	20.213	3.022	0.497
1020.000	587.234	79.998	19.994	100.042	20.214	2.875	0.517
1020.500	587.490	79.998	19.995	100.043	20.212	3.087	0.518
1021.000	587.747	79.998	19.995	100.042	20.211	3.175	0.515
1021.500	587.977	79.999	19.996	100.043	20.213	3.028	0.500
1022.000	588.266	79.999	19.995	100.044	20.213	3.017	0.503
1022.500	588.553	80.000	19.996	100.044	20.215	2.787	0.547
1023.000	588.756	80.000	19.996	100.043	20.214	2.909	0.533
1023.500	589.013	80.000	19.995	100.043	20.213	3.030	0.475
1024.000	589.281	80.000	19.995	100.043	20.212	3.085	0.492
1024.499	589.545	79.999	19.995	100.042	20.213	3.017	0.528
1024.999	589.799	79.999	19.995	100.042	20.214	2.966	0.525
1025.500	590.037	79.999	19.995	100.041	20.215	2.862	0.505
1026.000	590.292	79.997	19.995	100.041	20.212	3.128	0.492
1026.500	590.551	80.000	19.995	100.041	20.212	3.147	0.503
1027.000	590.804	80.000	19.995	100.042	20.213	3.041	0.513
1027.499	591.053	79.998	19.995	100.042	20.211	3.185	0.507
1027.999	591.282	79.999	19.995	100.043	20.211	3.170	0.490
1028.499	591.569	79.996	19.995	100.042	20.208	3.518	0.497
1028.999	591.827	79.998	19.995	100.041	20.215	2.854	0.531
1029.499	592.056	79.997	19.993	100.037	20.212	3.123	0.516
1029.999	592.294	80.001	19.994	100.037	20.210	3.309	0.477
1030.500	592.572	79.998	19.994	100.037	20.213	3.040	0.491
1031.000	592.822	79.996	19.995	100.038	20.211	3.183	0.522
1031.499	593.086	79.998	19.994	100.039	20.213	2.997	0.521
1032.000	593.334	79.996	19.996	100.043	20.213	2.979	0.513
1032.500	593.618	79.995	19.996	100.039	20.212	3.084	0.522
1032.999	593.857	79.998	19.995	100.038	20.213	2.981	0.528
1033.499	594.121	79.996	19.995	100.038	20.212	3.113	0.514
1033.999	594.376	79.996	19.996	100.038	20.210	3.320	0.511
1034.499	594.660	79.998	19.995	100.039	20.213	2.981	0.528
1034.999	594.884	79.995	19.995	100.044	20.213	2.976	0.523
1035.499	595.138	79.997	19.995	100.043	20.214	2.963	0.493
1035.999	595.392	79.999	19.995	100.042	20.209	3.407	0.493
1036.499	595.676	79.997	19.996	100.043	20.212	3.082	0.523
1036.999	595.934	79.997	19.995	100.042	20.213	3.020	0.540
1037.499	596.186	79.998	19.995	100.042	20.215	2.865	0.526
1038.000	596.425	79.999	19.996	100.042	20.210	3.252	0.501
1038.501	596.675	79.997	19.995	100.042	20.215	2.795	0.490
1039.000	596.958	79.996	19.995	100.040	20.211	3.177	0.511
1039.500	597.214	79.996	19.995	100.039	20.210	3.268	0.535
1040.000	597.439	79.996	19.995	100.038	20.214	2.896	0.510
1040.500	597.709	79.997	19.995	100.036	20.214	2.937	0.488
1041.000	597.986	79.995	19.996	100.036	20.212	3.115	0.521
1041.500	598.217	79.996	19.996	100.037	20.214	2.947	0.527
1042.000	598.457	79.996	19.995	100.037	20.218	2.576	0.490
1042.500	598.738	79.996	19.996	100.039	20.214	2.953	0.496
1043.000	598.967	79.996	19.996	100.039	20.217	2.599	0.516
1043.499	599.247	79.997	19.996	100.040	20.215	2.811	0.510
1043.999	599.484	79.996	19.996	100.040	20.214	2.888	0.513
1044.499	599.759	79.996	19.997	100.040	20.217	2.681	0.514
1044.999	599.990	79.997	19.997	100.040	20.214	2.953	0.509
1045.499	600.284	79.993	19.996	100.040	20.217	2.656	0.516
1045.999	600.516	79.997	19.996	100.039	20.212	3.090	0.526
1046.499	600.794	79.997	19.996	100.038	20.215	2.803	0.517
1046.999	601.032	79.999	19.997	100.038	20.218	2.565	0.513
1047.499	601.286	79.998	19.996	100.037	20.213	3.056	0.505
1047.999	601.573	79.996	19.995	100.038	20.215	2.805	0.516
1048.500	601.823	79.996	19.997	100.038	20.212	3.077	0.538
1049.000	602.081	79.997	19.996	100.039	20.218	2.568	0.522
1049.500	602.346	79.997	19.996	100.039	20.216	2.723	0.516
1050.000	602.563	79.998	19.996	100.039	20.219	2.457	0.503
1050.500	602.845	79.997	19.996	100.038	20.215	2.842	0.491
1051.000	603.106	79.997	19.996	100.038	20.214	2.893	0.521
1051.500	603.369	79.996	19.995	100.037	20.215	2.790	0.533
1052.000	603.615	79.997	19.996	100.037	20.214	2.901	0.516
1052.499	603.851	79.997	19.996	100.037	20.212	3.110	0.495
1052.999	604.107	79.995	19.995	100.038	20.212	3.087	0.487
1053.499	604.377	79.996	19.994	100.039	20.214	2.886	0.510
1053.999	604.626	79.996	19.995	100.039	20.219	2.449	0.523
1054.500	604.862	79.997	19.995	100.039	20.210	3.314	0.501
1055.000	605.129	79.996	19.995	100.038	20.216	2.744	0.494
1055.499	605.393	79.997	19.994	100.038	20.213	3.030	0.517
1055.999	605.631	79.995	19.995	100.038	20.213	3.004	0.517
1056.500	605.911	79.996	19.996	100.038	20.212	3.144	0.510
1057.000	606.168	79.997	19.996	100.037	20.213	3.035	0.528
1057.499	606.430	79.994	19.994	100.034	20.212	3.082	0.528
1057.999	606.671	79.999	19.995	100.034	20.212	3.064	0.511
1058.500	606.920	79.997	19.995	100.034	20.210	3.291	0.496
1059.000	607.198	79.999	19.995	100.035	20.214	2.883	0.509
1059.499	607.423	79.998	19.995	100.037	20.213	3.043	0.515
1059.999	607.686	79.997	19.994	100.040	20.217	2.609	0.495
1060.500	607.948	79.998	19.995	100.041	20.212	3.079	0.506
1061.000	608.210	79.998	19.995	100.041	20.212	3.146	0.524
1061.499	608.446	79.997	19.996	100.041	20.214	2.891	0.511
1061.999	608.704	79.995	19.994	100.038	20.214	2.919	0.496
1062.499	608.964	79.996	19.995	100.038	20.217	2.650	0.506
1062.999	609.206	79.996	19.995	100.038	20.212	3.064	0.510
1063.499	609.453	79.998	19.996	100.037	20.210	3.273	0.496
1063.999	609.749	79.996	19.995	100.037	20.213	2.984	0.516
1064.500	609.958	79.999	19.995	100.039	20.215	2.793	0.524
1065.000	610.229	79.995	19.994	100.042	20.212	3.074	0.493
1065.500	610.495	79.994	19.994	100.043	20.219	2.488	0.509
1066.000	610.714	79.996	19.995	100.044	20.216	2.744	0.511
1066.500	610.983	79.997	19.995	100.044	20.212	3.116	0.486
1067.000	611.195	79.998	19.995	100.041	20.211	3.214	0.485
1067.499	611.493	79.996	19.995	100.038	20.214	2.893	0.496
1067.999	611.739	79.997	19.996	100.036	20.215	2.780	0.527
1068.500	612.006	79.995	19.994	100.036	20.215	2.816	0.528
1069.000	612.234	79.996	19.995	100.036	20.214	2.901	0.504
1069.500	612.516	79.994	19.994	100.039	20.216	2.707	0.503
1070.001	612.755	79.997	19.995	100.040	20.214	2.919	0.515
1070.500	613.022	79.999	19.996	100.042	20.215	2.798	0.513
1070.999	613.271	79.998	19.996	100.041	20.212	3.079	0.511
1071.500	613.527	79.996	19.993	100.041	20.214	2.875	0.511
1072.000	613.798	79.997	19.994	100.041	20.211	3.175	0.516
1072.499	614.029	79.997	19.995	100.040	20.215	2.836	0.514
1072.999	614.268	79.999	19.995	100.040	20.216	2.733	0.486
1073.499	614.541	79.997	19.995	100.041	20.216	2.743	0.491
1073.999	614.792	79.995	19.994	100.041	20.215	2.823	0.518
1074.499	615.075	79.998	19.996	100.042	20.213	3.017	0.529
1074.999	615.292	79.997	19.994	100.043	20.220	2.322	0.517
1075.500	615.547	79.995	19.995	100.044	20.214	2.937	0.486
1076.000	615.813	79.998	19.994	100.045	20.214	2.935	0.497
1076.499	616.044	80.000	19.995	100.045	20.213	2.978	0.509
1076.999	616.338	79.997	19.995	100.045	20.214	2.942	0.511
1077.500	616.571	79.997	19.994	100.044	20.213	2.991	0.526
1078.000	616.816	79.998	19.994	100.043	20.214	2.875	0.503
1078.500	617.121	79.997	19.994	100.042	20.215	2.852	0.514
1079.000	617.304	80.000	19.994	100.042	20.211	3.162	0.518
1079.499	617.568	79.998	19.995	100.042	20.216	2.754	0.467
1079.999	617.804	79.998	19.994	100.042	20.211	3.185	0.474
1080.499	618.086	79.997	19.995	100.042	20.208	3.503	0.510
1080.999	618.331	79.995	19.994	100.041	20.215	2.808	0.522
1081.499	618.610	79.998	19.995	100.041	20.215	2.795	0.525
1081.999	618.827	79.998	19.994	100.040	20.215	2.790	0.510
1082.500	619.125	79.997	19.995	100.036	20.212	3.069	0.505
1083.000	619.368	79.996	19.994	100.029	20.215	2.792	0.529
1083.500	619.606	79.998	19.996	100.028	20.211	3.193	0.511
1084.000	619.864	79.998	19.995	100.029	20.209	3.395	0.488
1084.500	620.125	79.998	19.995	100.030	20.209	3.348	0.507
1084.999	620.376	79.999	19.994	100.034	20.214	2.950	0.516
1085.499	620.625	79.998	19.994	100.042	20.214	2.937	0.506
1085.999	620.860	79.998	19.994	100.044	20.213	3.028	0.492
1086.499	621.146	79.997	19.994	100.041	20.217	2.676	0.502
1086.999	621.377	79.997	19.994	100.040	20.214	2.901	0.519
1087.500	621.623	79.998	19.995	100.038	20.217	2.653	0.497
1088.000	621.835	79.998	19.994	100.037	20.215	2.837	0.467
1088.500	622.096	79.998	19.994	100.038	20.216	2.749	0.465
1088.999	622.375	79.996	19.995	100.041	20.215	2.829	0.506
1089.499	622.609	79.998	19.995	100.043	20.214	2.906	0.527
1089.999	622.869	79.997	19.993	100.046	20.215	2.852	0.503
1090.499	623.129	79.995	19.994	100.047	20.208	3.516	0.507
1090.999	623.380	79.995	19.994	100.047	20.217	2.601	0.516
1091.499	623.626	79.998	19.994	100.047	20.212	3.128	0.504
1091.999	623.879	79.997	19.994	100.043	20.211	3.157	0.498
1092.500	624.107	79.996	19.994	100.038	20.216	2.741	0.490
1093.000	624.386	79.997	19.994	100.036	20.214	2.937	0.494
1093.499	624.637	79.998	19.994	100.036	20.213	3.056	0.518
1093.999	624.885	79.997	19.995	100.036	20.214	2.885	0.515
1094.499	625.077	79.997	19.994	100.038	20.212	3.095	0.469
1095.000	625.365	79.998	19.995	100.044	20.215	2.823	0.459
1095.500	625.610	79.997	19.994	100.045	20.212	3.128	0.506
1096.000	625.877	79.998	19.995	100.046	20.218	2.498	0.523
1096.500	626.095	80.000	19.994	100.044	20.220	2.384	0.499
1096.999	626.345	79.998	19.993	100.042	20.213	3.058	0.477
1097.499	626.632	79.999	19.994	100.041	20.214	2.934	0.502
1097.999	626.854	79.999	19.995	100.041	20.215	2.854	0.523
1098.499	627.118	79.999	19.993	100.041	20.217	2.671	0.497
1099.000	627.388	79.997	19.994	100.042	20.216	2.774	0.510
1099.500	627.615	79.999	19.995	100.044	20.212	3.113	0.516
1100.000	627.892	79.998	19.995	100.044	20.217	2.671	0.501
1100.500	628.145	79.999	19.994	100.043	20.216	2.707	0.517
1100.999	628.399	79.999	19.994	100.042	20.216	2.738	0.519
1101.499	628.640	79.998	19.995	100.038	20.217	2.637	0.501
1101.999	628.952	80.000	19.995	100.036	20.218	2.524	0.524
1102.499	629.155	79.998	19.995	100.034	20.214	2.896	0.534
1102.999	629.426	79.999	19.995	100.033	20.216	2.702	0.495
1103.499	629.639	80.000	19.994	100.033	20.214	2.921	0.480
1103.999	629.883	79.999	19.996	100.036	20.213	2.978	0.471
1104.500	630.148	80.000	19.995	100.035	20.217	2.635	0.483
1105.000	630.414	80.001	19.995	100.036	20.213	2.986	0.520
1105.499	630.651	79.998	19.995	100.033	20.214	2.947	0.517
1105.999	630.901	80.000	19.996	100.027	20.211	3.206	0.495
1106.500	631.161	79.999	19.995	100.023	20.214	2.940	0.498
1107.000	631.421	79.997	19.995	100.023	20.211	3.164	0.515
1107.499	631.680	79.999	19.996	100.020	20.215	2.818	0.519
1107.999	631.927	79.999	19.996	100.024	20.211	3.162	0.512
1108.499	632.206	79.998	19.996	100.029	20.216	2.699	0.516
1108.999	632.427	79.998	19.995	100.033	20.215	2.862	0.513
1109.499	632.696	79.996	19.995	100.035	20.214	2.896	0.495
1109.999	632.934	79.998	19.996	100.035	20.216	2.702	0.499
1110.499	633.216	79.998	19.995	100.031	20.212	3.108	0.513
1110.999	633.459	79.998	19.995	100.030	20.217	2.604	0.523
1111.499	633.693	79.996	19.995	100.030	20.212	3.149	0.501
1111.999	633.962	79.997	19.995	100.030	20.214	2.937	0.490
1112.500	634.214	79.997	19.996	100.032	20.217	2.679	0.512
1113.000	634.490	79.996	19.996	100.036	20.212	3.095	0.525
1113.499	634.738	79.996	19.995	100.034	20.215	2.785	0.526
1113.999	635.000	79.996	19.994	100.032	20.213	2.989	0.517
1114.500	635.241	79.997	19.996	100.028	20.213	3.012	0.506
1115.000	635.519	79.997	19.995	100.027	20.211	3.190	0.511
1115.499	635.770	79.997	19.996	100.027	20.214	2.880	0.524
1115.999	636.031	79.997	19.996	100.030	20.217	2.656	0.521
1116.499	636.266	79.997	19.995	100.031	20.213	3.051	0.504
1116.999	636.518	79.997	19.996	100.033	20.210	3.268	0.491
1117.499	636.755	79.996	19.995	100.035	20.213	2.999	0.488
1117.999	637.024	79.996	19.996	100.034	20.213	3.012	0.497
1118.500	637.272	79.997	19.997	100.033	20.216	2.751	0.512
1119.000	637.489	79.997	19.995	100.035	20.212	3.128	0.491
1119.500	637.755	79.998	19.996	100.035	20.219	2.485	0.474
1120.000	638.002	79.997	19.996	100.035	20.215	2.847	0.498
1120.500	638.279	79.997	19.995	100.036	20.213	2.989	0.518
1121.000	638.547	79.998	19.995	100.036	20.214	2.906	0.534
1121.499	638.766	79.997	19.996	100.036	20.214	2.929	0.516
1121.999	639.039	79.996	19.995	100.038	20.215	2.803	0.490
1122.500	639.308	79.996	19.995	100.040	20.212	3.074	0.517
1123.000	639.579	79.999	19.995	100.040	20.213	2.968	0.541
1123.500	639.843	79.996	19.996	100.040	20.216	2.718	0.538
1124.000	640.077	79.996	19.995	100.040	20.214	2.917	0.516
1124.499	640.346	79.996	19.995	100.040	20.215	2.852	0.500
1124.999	640.620	79.997	19.996	100.040	20.216	2.743	0.523
1125.500	640.845	79.996	19.995	100.039	20.212	3.089	0.521
1126.000	641.124	79.997	19.995	100.039	20.216	2.769	0.502
1126.500	641.371	79.997	19.997	100.039	20.215	2.818	0.515
1127.000	641.631	79.998	19.996	100.039	20.214	2.903	0.516
1127.500	641.863	79.997	19.997	100.038	20.215	2.860	0.500
1128.000	642.144	79.996	19.997	100.039	20.216	2.754	0.503
1128.499	642.414	79.996	19.995	100.038	20.215	2.798	0.532
1128.999	642.672	79.996	19.997	100.038	20.217	2.656	0.539
1129.500	642.912	79.996	19.996	100.035	20.212	3.108	0.513
1130.000	643.160	79.997	19.997	100.036	20.210	3.317	0.493
1130.500	643.433	79.996	19.996	100.036	20.215	2.834	0.505
1131.000	643.657	79.997	19.996	100.034	20.210	3.307	0.509
1131.499	643.929	79.995	19.997	100.033	20.216	2.730	0.497
1131.999	644.207	79.996	19.996	100.035	20.212	3.151	0.523
1132.499	644.467	79.994	19.996	100.033	20.217	2.637	0.544
1133.000	644.706	79.996	19.996	100.034	20.210	3.252	0.518
1133.500	644.996	79.997	19.996	100.038	20.212	3.123	0.514
1134.000	645.233	79.997	19.997	100.039	20.211	3.219	0.528
1134.500	645.495	79.996	19.996	100.040	20.215	2.826	0.513
1134.999	645.734	79.995	19.996	100.041	20.212	3.102	0.500
1135.499	646.014	79.997	19.996	100.040	20.216	2.764	0.510
1135.999	646.291	79.997	19.997	100.035	20.213	3.007	0.538
1136.499	646.527	79.995	19.996	100.034	20.212	3.121	0.535
1136.999	646.784	79.996	19.995	100.032	20.214	2.914	0.503
1137.499	647.044	79.996	19.996	100.032	20.215	2.865	0.505
1137.999	647.312	79.995	19.995	100.032	20.213	2.994	0.522
1138.499	647.591	79.996	19.995	100.037	20.214	2.960	0.537
1138.999	647.836	79.996	19.996	100.039	20.214	2.942	0.535
1139.499	648.075	79.994	19.995	100.041	20.210	3.325	0.504
1139.999	648.379	79.999	19.997	100.041	20.213	2.989	0.514
1140.499	648.604	79.996	19.995	100.043	20.215	2.839	0.536
1140.999	648.909	79.995	19.996	100.042	20.215	2.844	0.529
1141.499	649.131	79.997	19.996	100.040	20.212	3.123	0.528
1142.000	649.399	79.998	19.997	100.038	20.210	3.262	0.509
1142.500	649.683	79.997	19.995	100.034	20.214	2.965	0.521
1143.000	649.936	79.997	19.995	100.031	20.209	3.363	0.545
1143.500	650.205	79.996	19.995	100.030	20.218	2.573	0.529
1144.000	650.445	79.995	19.995	100.030	20.212	3.118	0.515
1144.500	650.711	79.995	19.995	100.031	20.216	2.751	0.508
1144.999	650.970	79.998	19.994	100.034	20.215	2.831	0.516
1145.499	651.237	79.993	19.995	100.035	20.215	2.792	0.526
1145.999	651.478	79.996	19.994	100.036	20.211	3.164	0.517
1146.499	651.732	79.998	19.996	100.038	20.215	2.782	0.502
1146.999	651.989	79.996	19.996	100.041	20.217	2.606	0.503
1147.499	652.253	79.995	19.995	100.041	20.215	2.844	0.515
1147.999	652.523	79.996	19.995	100.041	20.213	2.971	0.527
1148.500	652.759	79.995	19.995	100.042	20.207	3.549	0.520
1149.000	653.013	79.997	19.995	100.042	20.214	2.878	0.498
1149.500	653.284	79.994	19.996	100.041	20.214	2.950	0.508
1149.999	653.534	79.996	19.994	100.041	20.214	2.880	0.523
1150.500	653.842	79.996	19.994	100.037	20.219	2.485	0.540
1151.000	654.112	79.995	19.995	100.034	20.210	3.278	0.568
1151.499	654.347	79.998	19.996	100.030	20.210	3.275	0.541
1152.000	654.655	79.998	19.995	100.031	20.214	2.953	0.524
1152.500	654.874	79.998	19.995	100.028	20.212	3.110	0.535
1152.999	655.115	79.998	19.995	100.031	20.208	3.518	0.493
1153.499	655.413	79.997	19.995	100.033	20.208	3.492	0.500
1154.000	655.641	79.996	19.995	100.036	20.209	3.404	0.533
1154.500	656.052	79.996	19.994	100.036	20.210	3.268	0.582
1155.000	656.168	79.996	19.994	100.040	20.210	3.335	0.583
1155.500	656.392	79.996	19.995	100.042	20.207	3.555	0.434
1155.999	656.671	79.993	19.994	100.037	20.211	3.234	0.421
1156.499	656.960	79.999	19.994	100.036	20.211	3.190	0.535
1157.000	657.241	79.996	19.994	100.036	20.210	3.258	0.569
1157.500	657.482	79.999	19.995	100.036	20.211	3.162	0.546
1157.999	657.732	79.997	19.995	100.035	20.214	2.916	0.506
1158.499	657.986	79.999	19.994	100.035	20.212	3.077	0.498
1159.000	658.277	79.997	19.994	100.034	20.214	2.960	0.524
1159.500	658.495	79.999	19.994	100.033	20.215	2.849	0.527
1159.999	658.730	79.998	19.994	100.033	20.209	3.358	0.481
1160.499	659.045	80.000	19.995	100.031	20.211	3.193	0.502
1161.000	659.311	80.000	19.995	100.034	20.215	2.805	0.566
1161.500	659.549	79.997	19.995	100.036	20.210	3.299	0.542
1161.999	659.800	79.998	19.995	100.037	20.211	3.245	0.496
1162.499	660.054	79.998	19.996	100.035	20.211	3.203	0.497
1163.000	660.326	79.999	19.995	100.034	20.205	3.769	0.516
1163.500	660.583	79.997	19.995	100.032	20.212	3.082	0.528
1163.999	660.802	80.000	19.995	100.029	20.213	3.053	0.502
1164.499	661.116	79.998	19.996	100.027	20.211	3.169	0.504
1164.999	661.397	79.997	19.995	100.029	20.212	3.125	0.564
1165.499	661.606	79.997	19.996	100.033	20.215	2.833	0.542
1166.000	661.852	79.996	19.996	100.036	20.215	2.844	0.472
1166.500	662.128	79.997	19.995	100.039	20.212	3.133	0.489
1166.999	662.350	79.998	19.995	100.040	20.216	2.738	0.510
1167.500	662.604	79.996	19.995	100.039	20.212	3.120	0.487
1168.000	662.901	79.997	19.994	100.039	20.213	2.994	0.513
1168.499	663.123	79.999	19.995	100.037	20.219	2.446	0.535
1168.999	663.425	79.999	19.995	100.035	20.215	2.872	0.522
1169.499	663.677	79.997	19.994	100.033	20.216	2.769	0.539
1169.999	663.908	79.997	19.995	100.033	20.216	2.746	0.519
1170.499	664.152	79.996	19.993	100.032	20.216	2.733	0.479
1170.999	664.409	79.998	19.994	100.034	20.211	3.174	0.488
1171.499	664.673	79.997	19.992	100.035	20.216	2.725	0.511
1172.000	664.940	79.995	19.994	100.037	20.217	2.632	0.526
1172.500	665.213	79.997	19.994	100.037	20.217	2.658	0.536
1173.000	665.453	79.998	19.995	100.038	20.216	2.717	0.526
1173.500	665.700	79.999	19.996	100.037	20.216	2.772	0.500
1173.999	665.957	79.998	19.994	100.034	20.219	2.420	0.496
1174.499	666.212	79.998	19.994	100.028	20.217	2.596	0.508
1175.000	666.471	79.999	19.995	100.025	20.217	2.617	0.512
1175.500	666.761	79.999	19.994	100.025	20.214	2.955	0.531
1175.999	666.985	79.997	19.994	100.026	20.214	2.955	0.532
1176.499	667.224	79.999	19.993	100.026	20.211	3.175	0.489
1176.999	667.471	79.999	19.994	100.029	20.215	2.867	0.475
1177.499	667.743	80.000	19.995	100.027	20.212	3.064	0.503
1178.000	668.027	80.001	19.995	100.025	20.215	2.816	0.538
1178.500	668.267	79.999	19.994	100.023	20.214	2.891	0.540
1179.000	668.518	80.000	19.994	100.024	20.216	2.741	0.507
1179.501	668.758	79.997	19.994	100.025	20.214	2.939	0.491
1180.000	669.013	80.000	19.996	100.028	20.217	2.668	0.493
1180.500	669.269	79.999	19.994	100.023	20.213	2.996	0.503
1181.001	669.498	79.999	19.995	100.021	20.216	2.704	0.498
1181.500	669.791	79.999	19.994	100.023	20.213	3.014	0.504
1181.999	670.039	80.001	19.993	100.024	20.214	2.890	0.532
1182.499	670.271	79.997	19.995	100.026	20.213	3.060	0.511
1183.000	670.631	79.999	19.994	100.033	20.215	2.818	0.536
1183.501	670.802	79.998	19.994	100.038	20.217	2.601	0.561
1184.000	671.088	79.997	19.994	100.032	20.216	2.740	0.494
1184.499	671.304	79.999	19.995	100.030	20.215	2.797	0.480
1184.999	671.567	80.000	19.994	100.030	20.214	2.929	0.490
1185.499	671.791	79.997	19.995	100.029	20.212	3.066	0.483
1186.000	672.064	79.996	19.994	100.030	20.216	2.689	0.492
1186.500	672.307	79.997	19.995	100.035	20.215	2.818	0.506
1186.999	672.590	80.000	19.995	100.037	20.215	2.867	0.521
1187.500	672.792	79.997	19.995	100.036	20.215	2.854	0.506
1188.000	673.080	79.998	19.996	100.034	20.213	3.037	0.487
1188.500	673.335	79.997	19.995	100.033	20.210	3.267	0.517
1189.000	673.586	79.997	19.995	100.033	20.212	3.099	0.524
1189.499	673.851	79.998	19.996	100.034	20.209	3.353	0.511
1189.999	674.114	79.999	19.997	100.033	20.209	3.353	0.522
1190.499	674.370	79.996	19.995	100.029	20.213	2.983	0.524
1190.999	674.635	79.996	19.995	100.023	20.210	3.260	0.520
1191.499	674.876	79.996	19.995	100.016	20.211	3.211	0.513
1192.000	675.145	79.997	19.996	100.008	20.212	3.138	0.508
1192.500	675.391	79.997	19.995	100.003	20.209	3.347	0.513
1192.999	675.635	79.995	19.997	100.007	20.210	3.319	0.502
1193.499	675.912	79.997	19.997	100.011	20.212	3.117	0.506
1194.000	676.147	79.997	19.996	100.019	20.211	3.213	0.516
1194.500	676.411	79.996	19.996	100.023	20.211	3.164	0.505
1194.999	676.639	79.997	19.996	100.026	20.213	2.993	0.495
1195.499	676.942	79.997	19.996	100.022	20.214	2.919	0.512
1196.000	677.188	79.996	19.996	100.020	20.214	2.952	0.540
1196.500	677.458	79.996	19.995	100.019	20.211	3.203	0.532
1197.000	677.699	79.996	19.996	100.020	20.211	3.156	0.514
1197.500	677.911	79.996	19.996	100.023	20.211	3.231	0.482
1198.000	678.175	79.996	19.996	100.027	20.210	3.281	0.464
1198.500	678.449	79.997	19.995	100.028	20.207	3.562	0.507
1199.000	678.674	79.995	19.995	100.023	20.209	3.438	0.518
1199.500	678.937	79.998	19.995	100.021	20.211	3.224	0.493
1200.000	679.163	79.996	19.995	100.020	20.211	3.169	0.489
1200.500	679.406	79.996	19.994	100.022	20.206	3.686	0.479
1200.999	679.645	79.996	19.994	100.026	20.211	3.200	0.476
1201.499	679.932	79.998	19.995	100.031	20.207	3.606	0.504
1202.000	680.141	79.997	19.994	100.035	20.213	3.017	0.511
1202.500	680.397	79.994	19.995	100.032	20.209	3.373	0.480
1202.999	680.616	79.997	19.994	100.031	20.208	3.459	0.470
1203.499	680.890	79.999	19.994	100.026	20.206	3.657	0.484
1203.999	681.137	79.999	19.995	100.021	20.208	3.518	0.507
1204.499	681.379	79.996	19.996	100.015	20.208	3.518	0.505
1205.000	681.650	79.997	19.995	100.017	20.206	3.632	0.501
1205.500	681.924	79.996	19.995	100.017	20.210	3.306	0.529
1205.999	682.138	79.998	19.995	100.021	20.208	3.508	0.516
1206.499	682.403	79.997	19.996	100.022	20.209	3.389	0.484
1207.000	682.635	79.997	19.995	100.025	20.209	3.394	0.488
1207.500	682.894	79.996	19.996	100.028	20.212	3.115	0.494
1207.999	683.154	79.996	19.996	100.029	20.207	3.614	0.505
1208.500	683.355	79.997	19.996	100.029	20.209	3.360	0.489
1209.000	683.645	79.998	19.995	100.035	20.207	3.624	0.476
1209.499	683.911	79.997	19.996	100.036	20.208	3.512	0.524
1210.000	684.131	79.996	19.994	100.033	20.210	3.257	0.522
1210.500	684.373	79.997	19.996	100.031	20.214	2.929	0.474
1210.999	684.635	79.996	19.995	100.029	20.211	3.249	0.483
1211.499	684.852	79.998	19.996	100.026	20.209	3.420	0.492
1211.999	685.103	79.996	19.995	100.028	20.211	3.180	0.474
1212.499	685.347	79.997	19.996	100.034	20.210	3.273	0.481
1212.999	685.585	79.997	19.996	100.035	20.209	3.381	0.488
1213.499	685.844	79.996	19.998	100.031	20.207	3.562	0.490
1213.999	686.112	79.996	19.997	100.028	20.210	3.260	0.512
1214.499	686.306	79.994	19.996	100.021	20.211	3.164	0.494
1215.000	686.587	79.997	19.996	100.019	20.212	3.105	0.468
1215.500	686.772	79.995	19.996	100.019	20.212	3.063	0.470
1216.000	687.117	79.996	19.997	100.026	20.207	3.557	0.498
1216.500	687.345	79.994	19.997	100.028	20.211	3.213	0.551
1217.000	687.517	79.995	19.996	100.030	20.214	2.885	0.487
1217.500	687.769	79.996	19.998	100.033	20.208	3.449	0.412
1217.999	688.038	79.998	19.998	100.033	20.213	3.015	0.473
1218.500	688.276	79.995	19.995	100.028	20.218	2.557	0.514
1219.000	688.507	79.994	19.996	100.030	20.218	2.581	0.488
1219.500	688.789	79.996	19.997	100.028	20.214	2.888	0.491
1219.999	689.032	79.994	19.996	100.021	20.215	2.826	0.520
1220.499	689.307	79.994	19.996	100.017	20.214	2.914	0.522
1221.000	689.545	79.994	19.995	100.015	20.217	2.650	0.515
1221.500	689.787	79.997	19.997	100.013	20.215	2.787	0.496
1222.000	690.033	79.995	19.996	100.019	20.211	3.200	0.484
1222.500	690.284	79.997	19.996	100.024	20.216	2.777	0.493
1222.999	690.532	79.996	19.995	100.027	20.213	3.009	0.498
1223.499	690.782	79.995	19.996	100.029	20.215	2.856	0.499
1223.999	691.031	79.996	19.996	100.033	20.214	2.949	0.498
1224.499	691.279	79.996	19.997	100.029	20.214	2.954	0.498
1224.999	691.507	79.994	19.995	100.026	20.214	2.921	0.487
1225.499	691.795	79.996	19.995	100.022	20.213	3.058	0.496
1225.999	691.990	79.997	19.996	100.021	20.211	3.231	0.499
1226.500	692.286	79.997	19.997	100.020	20.215	2.828	0.487
1227.000	692.520	79.996	19.994	100.024	20.215	2.792	0.510
1227.499	692.751	79.996	19.995	100.028	20.216	2.702	0.497
1227.999	693.010	79.999	19.996	100.035	20.215	2.808	0.477
1228.499	693.213	79.998	19.995	100.039	20.214	2.942	0.476
1228.999	693.508	79.997	19.995	100.040	20.217	2.590	0.480
1229.500	693.725	79.997	19.995	100.039	20.217	2.622	0.505
1230.000	694.024	79.997	19.995	100.039	20.215	2.852	0.514
1230.500	694.278	79.999	19.994	100.039	20.218	2.526	0.535
1231.000	694.568	80.000	19.996	100.037	20.220	2.361	0.548
1231.500	694.796	79.998	19.995	100.035	20.214	2.916	0.531
1231.999	695.067	79.999	19.994	100.035	20.216	2.715	0.509
1232.499	695.254	79.996	19.995	100.033	20.213	2.983	0.478
1233.000	695.508	79.998	19.996	100.029	20.217	2.640	0.449
1233.500	695.771	79.998	19.995	100.024	20.216	2.743	0.479
1234.000	696.061	79.998	19.995	100.020	20.214	2.880	0.535
1234.500	696.304	80.000	19.995	100.016	20.212	3.143	0.543
1235.000	696.563	79.999	19.996	100.012	20.217	2.614	0.517
1235.500	696.780	79.999	19.995	100.008	20.214	2.921	0.489
1235.999	697.065	79.998	19.995	100.010	20.213	3.009	0.489
1236.499	697.297	80.000	19.994	100.014	20.215	2.821	0.510
1237.000	697.555	79.997	19.995	100.020	20.215	2.831	0.503
1237.500	697.804	79.998	19.995	100.026	20.214	2.906	0.499
1238.000	698.062	79.996	19.995	100.031	20.214	2.965	0.507
1238.500	698.297	79.999	19.994	100.030	20.212	3.066	0.500
1238.999	698.518	79.998	19.995	100.024	20.212	3.113	0.474
1239.499	698.773	79.997	19.995	100.020	20.215	2.831	0.465
1240.000	699.040	79.995	19.996	100.018	20.210	3.332	0.498
1240.500	699.270	79.999	19.996	100.019	20.211	3.166	0.509
1241.000	699.542	79.999	19.994	100.025	20.211	3.187	0.500
1241.500	699.803	79.996	19.994	100.032	20.211	3.164	0.518
1241.999	700.029	79.999	19.994	100.036	20.214	2.944	0.511
1242.499	700.289	79.995	19.994	100.038	20.212	3.074	0.487
1243.000	700.516	79.996	19.996	100.036	20.212	3.120	0.486
1243.500	700.788	79.999	19.995	100.030	20.215	2.865	0.493
1243.999	700.988	79.999	19.996	100.024	20.214	2.914	0.485
1244.499	701.286	79.998	19.996	100.019	20.214	2.963	0.485
1245.000	701.533	79.997	19.996	100.015	20.212	3.079	0.522
1245.500	701.772	79.997	19.995	100.016	20.213	3.009	0.516
1245.999	702.032	79.998	19.996	100.023	20.211	3.213	0.493
1246.499	702.285	79.998	19.995	100.028	20.213	3.030	0.506
1246.999	702.517	79.997	19.996	100.025	20.209	3.423	0.499
1247.499	702.789	79.997	19.995	100.026	20.211	3.172	0.495
1248.000	703.003	79.998	19.995	100.026	20.215	2.862	0.495
1248.500	703.287	79.999	19.994	100.023	20.213	3.061	0.492
1249.000	703.525	79.996	19.995	100.024	20.213	3.020	0.510
1249.500	703.806	79.996	19.995	100.029	20.212	3.113	0.520
1250.000	704.060	79.997	19.995	100.028	20.215	2.862	0.527
1250.499	704.344	80.000	19.996	100.025	20.214	2.906	0.536
1250.999	704.540	79.999	19.996	100.025	20.212	3.110	0.509
1251.500	704.811	79.998	19.995	100.018	20.214	2.906	0.474
1252.000	705.061	79.998	19.995	100.013	20.215	2.803	0.494
1252.499	705.321	79.998	19.996	100.018	20.213	3.004	0.516
1252.999	705.566	80.000	19.995	100.023	20.215	2.839	0.507
1253.499	705.807	79.999	19.996	100.026	20.214	2.901	0.495
1253.999	706.053	79.999	19.995	100.034	20.213	3.040	0.487
1254.499	706.287	79.999	19.994	100.037	20.215	2.818	0.483
1254.999	706.560	79.999	19.994	100.031	20.211	3.203	0.493
1255.500	706.824	79.999	19.995	100.025	20.213	3.038	0.522
1256.000	707.039	79.998	19.995	100.024	20.212	3.095	0.509
1256.500	707.335	79.998	19.995	100.022	20.212	3.144	0.495
1257.000	707.581	80.001	19.995	100.025	20.213	3.030	0.526
1257.500	707.821	80.000	19.994	100.032	20.212	3.134	0.514
1258.000	708.064	79.999	19.994	100.037	20.212	3.149	0.484
1258.500	708.323	79.997	19.994	100.039	20.213	3.041	0.492
1259.000	708.569	79.997	19.995	100.040	20.214	2.891	0.504
1259.500	708.844	79.998	19.994	100.040	20.212	3.103	0.513
1260.000	709.077	80.000	19.995	100.038	20.212	3.113	0.514
1260.499	709.336	79.997	19.993	100.039	20.216	2.746	0.500
1260.999	709.607	79.998	19.994	100.039	20.211	3.244	0.511
1261.499	709.860	80.001	19.994	100.039	20.210	3.278	0.527
1261.999	710.089	80.002	19.996	100.039	20.212	3.094	0.503
1262.500	710.371	80.000	19.995	100.042	20.210	3.273	0.497
1263.000	710.624	79.997	19.993	100.042	20.210	3.296	0.523
1263.499	710.908	79.998	19.994	100.040	20.212	3.144	0.536
1263.999	711.168	79.999	19.995	100.038	20.211	3.170	0.541
1264.500	711.419	79.998	19.994	100.039	20.214	2.888	0.527
1265.000	711.635	79.998	19.994	100.038	20.214	2.950	0.488
1265.499	711.915	79.997	19.995	100.034	20.217	2.663	0.481
1266.000	712.184	79.997	19.995	100.034	20.213	3.007	0.523
1266.501	712.411	79.999	19.995	100.034	20.208	3.449	0.523
1267.000	712.694	79.997	19.995	100.034	20.216	2.692	0.503
1267.500	712.955	79.997	19.995	100.034	20.216	2.707	0.527
1268.000	713.205	79.997	19.995	100.038	20.211	3.165	0.528
1268.499	713.459	79.997	19.996	100.041	20.217	2.591	0.507
1268.999	713.691	79.996	19.995	100.044	20.211	3.242	0.495
1269.500	713.916	79.997	19.994	100.043	20.212	3.074	0.472
1270.001	714.195	79.994	19.994	100.041	20.209	3.420	0.480
1270.500	714.457	79.996	19.995	100.040	20.217	2.611	0.522
1270.999	714.712	79.997	19.995	100.040	20.213	3.035	0.529
1271.499	714.989	79.995	19.994	100.039	20.217	2.658	0.525
1271.999	715.236	79.996	19.994	100.033	20.209	3.368	0.528
1272.500	715.492	79.997	19.995	100.028	20.211	3.203	0.513
1273.000	715.745	79.997	19.996	100.027	20.211	3.208	0.506
1273.499	716.037	79.996	19.995	100.027	20.208	3.464	0.527
1273.999	716.275	79.996	19.995	100.028	20.206	3.645	0.537
1274.499	716.535	79.996	19.995	100.036	20.214	2.960	0.514
1274.999	716.773	79.994	19.995	100.041	20.213	2.996	0.498
1275.500	717.057	79.996	19.996	100.044	20.213	2.970	0.510
1276.000	717.291	79.993	19.995	100.039	20.209	3.407	0.520
1276.500	717.565	79.995	19.996	100.035	20.214	2.901	0.513
1277.000	717.804	79.995	19.995	100.034	20.216	2.766	0.511
1277.499	718.070	79.995	19.995	100.034	20.214	2.957	0.509
1277.999	718.308	79.995	19.996	100.035	20.207	3.564	0.504
1278.499	718.549	79.997	19.996	100.038	20.209	3.430	0.492
1278.999	718.835	79.994	19.997	100.041	20.211	3.179	0.504
1279.500	719.082	79.995	19.996	100.040	20.213	3.050	0.530
1280.000	719.337	79.995	19.996	100.038	20.218	2.588	0.518
1280.500	719.579	79.994	19.994	100.033	20.215	2.818	0.500
1281.000	719.836	79.995	19.995	100.029	20.210	3.304	0.498
1281.499	720.087	79.996	19.995	100.025	20.213	3.001	0.503
1281.999	720.372	79.996	19.996	100.022	20.212	3.141	0.522
1282.499	720.604	79.996	19.997	100.022	20.208	3.479	0.527
1282.999	720.842	79.996	19.995	100.027	20.207	3.556	0.494
1283.500	721.133	79.994	19.995	100.033	20.219	2.441	0.499
1284.000	721.361	79.995	19.995	100.039	20.217	2.606	0.524
1284.499	721.646	79.995	19.994	100.040	20.213	3.030	0.516
1284.999	721.902	79.998	19.994	100.034	20.212	3.066	0.527
1285.499	722.108	79.995	19.995	100.031	20.215	2.841	0.502
1285.999	722.375	79.996	19.995	100.026	20.210	3.304	0.468
1286.500	722.621	79.998	19.995	100.022	20.210	3.285	0.493
1287.000	722.875	79.996	19.996	100.022	20.208	3.479	0.506
1287.499	723.147	79.995	19.995	100.023	20.210	3.314	0.513
1287.999	723.379	79.995	19.994	100.020	20.209	3.407	0.515
1288.499	723.638	79.997	19.996	100.017	20.208	3.523	0.498
1288.999	723.933	79.996	19.995	100.016	20.207	3.603	0.522
1289.500	724.162	79.995	19.995	100.016	20.209	3.347	0.539
1290.000	724.434	79.996	19.995	100.021	20.211	3.197	0.513
1290.499	724.663	79.996	19.996	100.026	20.206	3.688	0.501
1290.999	724.931	79.998	19.996	100.028	20.206	3.686	0.499
1291.500	725.164	79.997	19.995	100.029	20.218	2.549	0.499
1292.000	725.416	79.992	19.994	100.024	20.206	3.699	0.493
1292.500	725.664	79.995	19.996	100.018	20.206	3.642	0.493
1293.001	725.891	79.995	19.996	100.015	20.217	2.658	0.488
1293.500	726.186	79.997	19.996	100.017	20.211	3.221	0.498
1293.999	726.437	79.997	19.997	100.018	20.211	3.234	0.534
1294.500	726.677	79.996	19.995	100.024	20.210	3.262	0.518
1295.000	726.977	79.991	19.994	100.030	20.205	3.769	0.515
1295.499	727.224	79.996	19.996	100.033	20.211	3.164	0.544
1295.999	727.495	79.998	19.995	100.032	20.215	2.800	0.533
1296.499	727.746	79.991	19.994	100.028	20.212	3.146	0.520
1296.999	728.002	79.995	19.995	100.027	20.211	3.201	0.514
1297.500	728.236	79.995	19.995	100.026	20.210	3.263	0.499
1298.000	728.483	79.996	19.996	100.026	20.212	3.113	0.486
1298.499	728.756	79.995	19.996	100.026	20.210	3.332	0.501
1298.999	729.004	79.995	19.998	100.027	20.211	3.239	0.520
1299.500	729.258	79.995	19.996	100.025	20.211	3.170	0.511
1300.000	729.459	79.995	19.996	100.020	20.206	3.640	0.478
1300.500	729.726	79.995	19.996	100.017	20.207	3.570	0.461
1301.000	729.998	79.995	19.995	100.019	20.206	3.640	0.504
1301.500	730.256	79.996	19.997	100.022	20.210	3.319	0.535
1302.000	730.506	79.996	19.996	100.024	20.207	3.591	0.519
1302.499	730.793	79.994	19.995	100.028	20.210	3.263	0.523
1302.999	731.044	79.995	19.997	100.027	20.206	3.689	0.537
1303.500	731.293	79.997	19.996	100.023	20.210	3.306	0.519
1304.000	731.559	79.995	19.996	100.023	20.208	3.449	0.507
1304.499	731.822	79.996	19.996	100.024	20.211	3.219	0.522
1304.999	732.052	79.995	19.996	100.024	20.210	3.260	0.511
1305.500	732.314	79.996	19.996	100.027	20.205	3.805	0.492
1306.000	732.618	79.998	19.996	100.033	20.209	3.399	0.529
1306.499	732.837	79.996	19.995	100.035	20.208	3.482	0.545
1306.999	733.062	79.997	19.997	100.037	20.212	3.089	0.484
1307.499	733.339	79.995	19.997	100.039	20.205	3.766	0.473
1307.999	733.540	79.996	19.996	100.040	20.208	3.475	0.490
1308.499	733.866	79.994	19.995	100.040	20.206	3.707	0.502
1309.000	734.064	79.996	19.997	100.036	20.207	3.596	0.526
1309.501	734.341	79.995	19.996	100.036	20.205	3.730	0.500
1310.000	734.605	79.997	19.996	100.034	20.207	3.588	0.508
1310.499	734.867	79.997	19.996	100.035	20.206	3.655	0.533
1310.999	735.114	80.000	19.996	100.035	20.209	3.366	0.517
1311.499	735.328	79.997	19.997	100.039	20.213	2.999	0.485
1311.999	735.579	79.998	19.995	100.039	20.210	3.306	0.463
1312.500	735.849	79.999	19.997	100.039	20.207	3.601	0.493
1313.000	736.078	79.998	19.997	100.038	20.212	3.079	0.510
1313.499	736.342	79.998	19.996	100.038	20.211	3.208	0.496
1313.999	736.566	79.998	19.995	100.038	20.211	3.180	0.490
1314.499	736.778	79.997	19.996	100.036	20.212	3.097	0.462
1314.999	737.090	79.997	19.994	100.036	20.207	3.624	0.480
1315.499	737.297	80.000	19.996	100.035	20.207	3.552	0.521
1315.999	737.543	79.999	19.996	100.034	20.208	3.495	0.486
1316.499	737.818	79.998	19.995	100.030	20.211	3.185	0.487
1316.999	738.062	79.997	19.995	100.032	20.213	3.061	0.520
1317.499	738.323	79.998	19.995	100.034	20.207	3.542	0.512
1317.999	738.584	79.997	19.995	100.034	20.206	3.702	0.514
1318.500	738.857	79.998	19.995	100.036	20.208	3.518	0.528
1319.000	739.044	79.997	19.995	100.041	20.208	3.490	0.497
1319.500	739.312	79.997	19.995	100.042	20.206	3.681	0.458
1320.000	739.591	79.996	19.995	100.042	20.204	3.887	0.501
1320.499	739.840	79.998	19.994	100.042	20.209	3.360	0.537
1320.999	740.090	79.998	19.995	100.038	20.206	3.660	0.514
1321.499	740.347	79.996	19.995	100.034	20.209	3.415	0.503
1321.999	740.589	79.997	19.996	100.033	20.208	3.477	0.503
1322.499	740.842	79.996	19.995	100.033	20.209	3.420	0.497
1322.999	741.094	79.997	19.994	100.032	20.210	3.312	0.500
1323.500	741.353	79.997	19.995	100.035	20.207	3.536	0.508
1324.000	741.617	79.996	19.996	100.037	20.207	3.557	0.517
1324.500	741.870	79.996	19.995	100.038	20.204	3.870	0.520
1325.000	742.115	79.995	19.995	100.036	20.206	3.637	0.508
1325.499	742.345	79.998	19.995	100.036	20.207	3.562	0.487
1325.999	742.595	79.997	19.995	100.037	20.210	3.291	0.478
1326.500	742.845	79.997	19.995	100.036	20.204	3.821	0.490
1327.000	743.075	79.998	19.996	100.035	20.211	3.242	0.490
1327.499	743.358	79.998	19.995	100.036	20.208	3.505	0.496
1327.999	743.632	79.996	19.994	100.038	20.207	3.549	0.535
