Sample ID:	C:\MCC\MCC Cal\Test\Cotton_Ball\Cotton_Ball_MCC_30K_min_21_07_08_R2.txt
Sample Weight (mg):	3.11
Heating Rate (C/s):	0.5
Combustor Temp (C):	900
N2 Flow Rate (cc/min):	80
O2 Flow Rate (cc/min):	20
Calibration File:	C:\MCC\MCC Cal\Coeff1 JN10440_30_210304.txt.txt
T Correction Coefficients:	0	1.024463	0
Time Shift (s):	14
*
Time (s)	Temperature (C)	N2 flow rate (cc/min)	O2 flow rate (cc/min)	Flow Rate (cc/min)	Oxygen (%)	HRR (W/g)	Heating rate (C/s)
0.000	111.411	79.995	19.995	99.954	20.184	-0.005	0.024
0.500	111.351	79.996	19.996	99.957	20.184	0.016	-0.028
1.000	111.379	79.995	19.996	99.957	20.183	0.091	-0.051
1.500	111.403	79.997	19.996	99.955	20.182	0.201	0.010
2.000	111.383	79.995	19.996	99.952	20.183	0.126	0.028
2.500	111.361	79.997	19.995	99.947	20.184	0.066	-0.019
3.000	111.360	79.997	19.996	99.942	20.182	0.225	-0.033
3.500	111.367	79.996	19.995	99.943	20.185	-0.027	-0.008
4.000	111.356	79.996	19.995	99.946	20.185	-0.025	0.001
4.500	111.305	79.997	19.995	99.950	20.184	0.036	-0.033
5.000	111.357	79.997	19.994	99.954	20.184	0.044	-0.031
5.500	111.323	79.998	19.995	99.956	20.184	-0.005	0.010
6.000	111.361	79.996	19.996	99.950	20.183	0.096	0.011
6.500	111.361	79.996	19.995	99.946	20.182	0.187	0.021
7.000	111.323	79.998	19.996	99.941	20.184	0.049	0.000
7.500	111.329	79.997	19.997	99.937	20.182	0.203	-0.035
8.001	111.341	79.997	19.996	99.934	20.180	0.412	-0.007
8.501	111.360	79.998	19.995	99.936	20.184	0.060	0.024
9.000	111.334	79.997	19.995	99.941	20.182	0.261	0.012
9.500	111.293	79.997	19.995	99.945	20.180	0.431	-0.037
10.001	111.310	79.998	19.995	99.947	20.184	0.060	-0.045
10.501	111.351	79.998	19.994	99.950	20.182	0.236	0.017
11.001	111.308	79.997	19.995	99.953	20.183	0.126	0.028
11.500	111.306	79.998	19.995	99.954	20.183	0.107	-0.023
12.000	111.314	79.998	19.995	99.956	20.180	0.475	-0.019
12.500	111.316	79.998	19.995	99.958	20.181	0.300	0.008
13.000	111.315	79.998	19.995	99.957	20.182	0.267	0.005
13.500	111.336	79.997	19.995	99.954	20.182	0.220	0.010
14.000	111.336	79.998	19.994	99.952	20.184	0.033	0.021
14.500	111.286	79.997	19.995	99.953	20.183	0.104	-0.014
15.000	111.303	79.997	19.995	99.954	20.181	0.330	-0.042
15.500	111.275	79.998	19.995	99.955	20.182	0.253	-0.022
16.000	111.294	79.997	19.995	99.958	20.180	0.462	-0.010
16.500	111.278	79.998	19.995	99.960	20.181	0.360	-0.003
17.000	111.252	79.997	19.996	99.960	20.180	0.418	-0.020
17.500	111.272	79.998	19.995	99.960	20.183	0.170	-0.024
18.000	111.267	79.996	19.994	99.960	20.179	0.545	0.005
18.500	111.254	79.997	19.995	99.961	20.181	0.308	-0.001
19.000	111.278	79.997	19.996	99.962	20.176	0.789	-0.004
19.500	111.245	79.996	19.996	99.965	20.180	0.462	0.001
20.000	111.295	79.997	19.995	99.969	20.180	0.440	0.004
20.500	111.286	79.996	19.995	99.972	20.179	0.526	0.029
21.000	111.279	79.993	19.996	99.974	20.175	0.963	0.013
21.500	111.278	79.994	19.995	99.980	20.180	0.424	-0.012
22.001	111.285	79.995	19.995	99.985	20.178	0.647	-0.001
22.500	111.289	79.994	19.995	99.989	20.178	0.652	0.009
23.000	111.288	79.995	19.995	99.995	20.175	0.889	0.007
23.500	111.291	79.994	19.995	100.001	20.169	1.497	0.002
24.000	111.300	79.995	19.995	100.005	20.171	1.312	0.007
24.500	111.313	79.993	19.996	100.007	20.168	1.587	0.017
25.000	111.309	79.995	19.996	100.010	20.167	1.722	0.016
25.500	111.287	79.994	19.996	100.016	20.165	1.909	-0.009
26.001	111.326	79.994	19.995	100.024	20.171	1.310	-0.004
26.501	111.348	79.995	19.996	100.031	20.168	1.630	0.039
27.001	111.373	79.995	19.997	100.037	20.168	1.641	0.054
27.500	111.341	79.994	19.995	100.044	20.169	1.515	0.020
28.000	111.362	79.994	19.996	100.048	20.164	1.997	-0.009
28.500	111.392	79.994	19.996	100.055	20.164	2.002	0.020
29.000	111.401	79.993	19.997	100.062	20.164	2.065	0.045
29.500	111.452	79.995	19.996	100.069	20.165	1.974	0.049
30.000	111.465	79.993	19.996	100.082	20.161	2.384	0.062
30.500	111.500	79.995	19.996	100.095	20.161	2.351	0.056
31.000	111.515	79.995	19.996	100.103	20.160	2.439	0.049
31.500	111.543	79.994	19.996	100.111	20.158	2.656	0.047
32.000	111.577	79.994	19.997	100.118	20.158	2.614	0.052
32.500	111.624	79.994	19.996	100.126	20.159	2.576	0.071
33.000	111.648	79.995	19.996	100.130	20.153	3.104	0.076
33.500	111.669	79.994	19.996	100.132	20.154	3.022	0.058
34.000	111.761	79.995	19.996	100.133	20.155	2.978	0.080
34.500	111.747	79.994	19.996	100.109	20.152	3.217	0.096
35.001	111.788	79.992	19.995	100.081	20.150	3.399	0.052
35.501	111.872	79.994	19.997	100.070	20.153	3.187	0.076
36.001	111.927	79.994	19.995	100.068	20.152	3.256	0.132
36.501	111.975	79.995	19.995	100.070	20.153	3.093	0.121
37.001	112.002	79.994	19.995	100.102	20.154	3.030	0.089
37.501	112.069	79.996	19.995	100.168	20.153	3.190	0.084
38.000	112.104	79.994	19.995	100.195	20.151	3.319	0.098
38.500	112.167	79.994	19.994	100.200	20.153	3.093	0.100
39.000	112.231	79.997	19.996	100.204	20.152	3.289	0.113
39.500	112.300	79.995	19.995	100.203	20.147	3.771	0.130
40.001	112.351	79.994	19.995	100.167	20.148	3.603	0.126
40.501	112.463	79.995	19.995	100.153	20.149	3.534	0.141
41.001	112.538	79.994	19.994	100.153	20.148	3.644	0.175
41.501	112.596	79.993	19.995	100.150	20.146	3.820	0.160
42.000	112.687	79.994	19.995	100.145	20.150	3.418	0.141
42.500	112.760	79.994	19.994	100.139	20.142	4.216	0.157
43.001	112.812	79.995	19.995	100.133	20.145	3.985	0.145
43.501	112.878	79.994	19.995	100.128	20.147	3.773	0.121
44.000	112.980	79.995	19.994	100.129	20.147	3.770	0.142
44.500	113.056	79.995	19.995	100.131	20.144	4.018	0.173
45.001	113.134	79.994	19.994	100.131	20.145	3.908	0.166
45.501	113.165	79.995	19.994	100.132	20.147	3.796	0.131
46.000	113.325	79.994	19.994	100.134	20.147	3.757	0.150
46.500	113.393	79.994	19.994	100.138	20.148	3.694	0.209
47.000	113.496	79.994	19.995	100.138	20.146	3.848	0.200
47.500	113.572	79.993	19.994	100.140	20.146	3.804	0.175
48.000	113.676	79.993	19.994	100.140	20.147	3.713	0.179
48.500	113.737	79.995	19.994	100.139	20.146	3.843	0.172
49.000	113.845	79.994	19.994	100.137	20.144	4.058	0.167
49.500	113.919	79.994	19.993	100.140	20.150	3.435	0.176
50.000	114.015	79.994	19.995	100.142	20.148	3.675	0.177
50.500	114.131	79.995	19.995	100.142	20.147	3.793	0.191
51.000	114.191	79.994	19.995	100.140	20.144	4.085	0.194
51.500	114.328	79.995	19.995	100.136	20.146	3.895	0.186
52.001	114.440	79.993	19.995	100.131	20.144	4.069	0.223
52.501	114.541	79.995	19.995	100.128	20.144	4.009	0.231
53.000	114.653	79.994	19.996	100.129	20.143	4.111	0.213
53.500	114.725	79.994	19.995	100.131	20.142	4.243	0.199
54.000	114.810	79.996	19.995	100.131	20.143	4.183	0.170
54.500	114.896	79.994	19.995	100.132	20.139	4.584	0.164
55.001	115.017	79.995	19.995	100.134	20.142	4.301	0.189
55.501	115.124	79.995	19.995	100.137	20.140	4.477	0.217
56.001	115.222	79.995	19.995	100.142	20.140	4.477	0.217
56.501	115.308	79.995	19.995	100.148	20.141	4.380	0.195
57.001	115.421	79.994	19.995	100.153	20.141	4.356	0.192
57.501	115.530	79.993	19.995	100.157	20.140	4.471	0.210
58.000	115.663	79.995	19.995	100.159	20.140	4.477	0.232
58.500	115.798	79.996	19.995	100.159	20.142	4.298	0.256
59.000	115.889	79.995	19.996	100.158	20.136	4.826	0.247
59.500	116.001	79.996	19.995	100.159	20.141	4.380	0.214
60.001	116.134	79.995	19.995	100.160	20.141	4.366	0.224
60.501	116.204	79.995	19.996	100.159	20.139	4.545	0.224
61.000	116.353	79.996	19.995	100.159	20.140	4.465	0.211
61.500	116.484	79.996	19.995	100.161	20.137	4.768	0.249
62.000	116.595	79.997	19.995	100.164	20.135	4.969	0.261
62.500	116.728	79.996	19.995	100.164	20.133	5.156	0.243
63.000	116.883	79.995	19.995	100.168	20.137	4.738	0.267
63.500	117.021	79.997	19.994	100.175	20.135	4.930	0.290
64.000	117.121	79.998	19.994	100.179	20.134	5.040	0.265
64.501	117.260	79.998	19.995	100.180	20.134	5.043	0.239
65.001	117.372	79.996	19.994	100.187	20.137	4.773	0.245
65.500	117.551	79.996	19.995	100.184	20.136	4.894	0.271
66.000	117.649	79.997	19.995	100.177	20.135	4.944	0.284
66.500	117.771	79.997	19.995	100.174	20.133	5.183	0.248
67.001	117.884	79.996	19.995	100.175	20.132	5.299	0.228
67.501	118.072	79.996	19.995	100.175	20.134	5.032	0.269
68.001	118.124	79.996	19.995	100.179	20.132	5.288	0.271
68.501	118.298	79.998	19.994	100.180	20.135	4.935	0.233
69.000	118.473	79.997	19.995	100.179	20.134	5.032	0.287
69.500	118.552	79.997	19.995	100.173	20.135	4.927	0.302
70.001	118.688	79.996	19.994	100.166	20.136	4.806	0.235
70.501	118.876	79.997	19.994	100.164	20.135	5.002	0.270
71.001	119.005	79.998	19.994	100.165	20.138	4.702	0.321
71.501	119.220	79.997	19.995	100.163	20.139	4.561	0.330
72.000	119.338	79.997	19.995	100.165	20.134	5.018	0.338
72.500	119.409	79.998	19.994	100.166	20.133	5.156	0.261
73.001	119.606	79.997	19.994	100.165	20.132	5.288	0.229
73.501	119.727	79.996	19.995	100.162	20.134	5.018	0.294
74.001	119.958	79.996	19.994	100.163	20.140	4.492	0.335
74.501	120.081	79.997	19.994	100.162	20.136	4.875	0.353
75.000	120.192	79.995	19.994	100.160	20.136	4.845	0.294
75.500	120.404	79.995	19.994	100.160	20.141	4.369	0.278
76.000	120.542	79.996	19.995	100.161	20.134	5.032	0.337
76.500	120.647	79.997	19.994	100.161	20.140	4.404	0.297
77.001	120.771	79.997	19.995	100.161	20.139	4.575	0.236
77.501	120.953	79.996	19.995	100.160	20.138	4.624	0.267
78.001	121.093	79.998	19.994	100.160	20.136	4.855	0.314
78.501	121.261	79.996	19.995	100.158	20.136	4.847	0.315
79.001	121.442	79.995	19.995	100.158	20.138	4.647	0.328
79.501	121.595	79.997	19.995	100.157	20.134	5.076	0.342
80.000	121.777	79.996	19.994	100.157	20.139	4.589	0.335
80.500	121.972	79.997	19.994	100.158	20.137	4.798	0.356
81.001	122.065	79.997	19.994	100.158	20.142	4.242	0.333
81.501	122.244	79.996	19.995	100.159	20.139	4.528	0.280
82.001	122.436	79.996	19.996	100.159	20.141	4.355	0.321
82.501	122.624	79.998	19.995	100.159	20.140	4.468	0.376
83.000	122.739	79.997	19.995	100.158	20.139	4.550	0.342
83.500	122.943	79.996	19.996	100.159	20.139	4.534	0.311
84.000	123.110	79.996	19.994	100.159	20.142	4.294	0.345
84.500	123.286	79.997	19.996	100.160	20.142	4.228	0.357
85.000	123.459	79.996	19.995	100.160	20.138	4.663	0.346
85.500	123.555	79.998	19.995	100.160	20.139	4.520	0.308
86.000	123.832	79.997	19.995	100.159	20.143	4.121	0.321
86.500	123.960	79.998	19.994	100.159	20.139	4.592	0.389
87.001	124.142	79.997	19.996	100.158	20.141	4.385	0.358
87.501	124.320	79.997	19.996	100.152	20.142	4.231	0.335
88.000	124.494	79.998	19.995	100.149	20.138	4.677	0.356
88.500	124.629	79.997	19.995	100.150	20.141	4.385	0.331
89.000	124.784	79.997	19.995	100.150	20.142	4.212	0.300
89.500	124.999	79.998	19.996	100.152	20.140	4.482	0.330
90.001	125.135	79.998	19.995	100.158	20.142	4.270	0.361
90.501	125.352	79.998	19.995	100.160	20.143	4.138	0.352
91.001	125.543	79.997	19.996	100.160	20.141	4.333	0.380
91.501	125.682	79.998	19.994	100.160	20.145	3.945	0.369
92.001	125.802	79.998	19.996	100.161	20.143	4.171	0.294
92.501	125.968	79.997	19.995	100.161	20.144	4.038	0.273
93.000	126.213	79.999	19.996	100.161	20.143	4.115	0.349
93.500	126.337	79.998	19.996	100.161	20.144	4.022	0.390
94.000	126.624	79.997	19.994	100.162	20.143	4.195	0.390
94.500	126.758	79.998	19.995	100.162	20.145	3.945	0.416
95.001	126.927	79.999	19.995	100.161	20.140	4.432	0.362
95.501	127.082	79.998	19.996	100.161	20.142	4.206	0.313
96.001	127.277	79.998	19.995	100.161	20.145	3.983	0.337
96.501	127.436	79.998	19.996	100.160	20.140	4.402	0.351
97.001	127.654	79.997	19.994	100.159	20.140	4.424	0.365
97.501	127.834	79.998	19.995	100.159	20.141	4.357	0.387
98.001	127.978	79.998	19.995	100.159	20.140	4.407	0.361
98.501	128.181	79.997	19.996	100.162	20.140	4.426	0.336
99.000	128.354	79.995	19.995	100.165	20.140	4.484	0.362
99.500	128.529	79.995	19.996	100.166	20.144	4.088	0.362
100.001	128.710	79.994	19.995	100.168	20.141	4.330	0.352
100.501	128.904	79.996	19.995	100.168	20.141	4.391	0.366
101.001	129.092	79.995	19.995	100.165	20.141	4.382	0.379
101.501	129.280	79.994	19.995	100.165	20.143	4.187	0.379
102.001	129.414	79.995	19.995	100.164	20.144	4.044	0.349
102.501	129.675	79.995	19.996	100.163	20.141	4.322	0.359
103.000	129.824	79.996	19.995	100.164	20.146	3.813	0.403
103.500	130.006	79.994	19.995	100.165	20.144	4.038	0.370
104.000	130.184	79.995	19.995	100.164	20.140	4.404	0.345
104.500	130.400	79.996	19.996	100.164	20.139	4.504	0.377
105.001	130.585	79.996	19.995	100.164	20.143	4.195	0.397
105.501	130.783	79.995	19.995	100.164	20.143	4.154	0.392
106.001	130.902	79.995	19.995	100.164	20.142	4.242	0.350
106.501	131.123	79.994	19.995	100.164	20.140	4.435	0.329
107.001	131.328	79.995	19.996	100.164	20.143	4.126	0.382
107.500	131.514	79.996	19.995	100.164	20.141	4.347	0.409
108.001	131.706	79.994	19.996	100.163	20.138	4.606	0.385
108.501	131.881	79.995	19.996	100.157	20.141	4.322	0.373
109.000	132.053	79.994	19.995	100.156	20.134	5.090	0.357
109.500	132.245	79.996	19.995	100.156	20.137	4.776	0.355
110.000	132.476	79.995	19.996	100.155	20.137	4.740	0.394
110.500	132.591	79.995	19.996	100.156	20.135	4.963	0.385
111.000	132.796	79.995	19.995	100.161	20.140	4.404	0.333
111.500	132.974	79.994	19.996	100.162	20.139	4.592	0.351
112.000	133.213	79.994	19.996	100.164	20.140	4.407	0.400
112.501	133.398	79.996	19.996	100.165	20.137	4.784	0.420
113.001	133.579	79.994	19.996	100.164	20.141	4.388	0.395
113.500	133.787	79.994	19.996	100.165	20.135	4.969	0.378
114.000	133.978	79.995	19.995	100.164	20.134	5.040	0.395
114.500	134.183	79.996	19.996	100.163	20.137	4.732	0.398
115.000	134.357	79.995	19.996	100.163	20.140	4.440	0.387
115.501	134.544	79.994	19.995	100.162	20.139	4.575	0.370
116.001	134.766	79.995	19.997	100.161	20.138	4.683	0.385
116.500	134.976	79.996	19.996	100.161	20.136	4.851	0.420
117.000	135.142	79.994	19.996	100.161	20.135	4.911	0.404
117.500	135.347	79.996	19.996	100.160	20.136	4.850	0.374
118.000	135.531	79.996	19.996	100.162	20.137	4.762	0.380
118.501	135.742	79.995	19.996	100.168	20.136	4.831	0.392
119.001	135.908	79.995	19.996	100.168	20.136	4.859	0.387
119.500	136.122	79.995	19.997	100.169	20.135	4.988	0.379
120.000	136.322	79.995	19.996	100.170	20.137	4.737	0.397
120.501	136.486	79.995	19.996	100.168	20.136	4.837	0.389
121.001	136.679	79.995	19.996	100.162	20.137	4.746	0.360
121.500	136.904	79.996	19.996	100.161	20.138	4.652	0.387
122.000	137.090	79.996	19.995	100.160	20.137	4.757	0.415
122.500	137.294	79.996	19.995	100.159	20.135	4.966	0.401
123.000	137.464	79.995	19.995	100.159	20.135	4.991	0.382
123.501	137.679	79.996	19.996	100.159	20.137	4.768	0.379
124.001	137.874	79.995	19.996	100.160	20.136	4.870	0.398
124.501	138.076	79.997	19.995	100.161	20.136	4.806	0.403
125.001	138.270	79.996	19.995	100.161	20.135	4.933	0.396
125.500	138.468	79.994	19.995	100.162	20.135	4.969	0.394
126.000	138.685	79.996	19.997	100.166	20.135	4.974	0.404
126.501	138.874	79.996	19.995	100.168	20.136	4.903	0.410
127.001	139.045	79.996	19.995	100.168	20.134	5.065	0.383
127.500	139.293	79.997	19.996	100.168	20.134	5.076	0.389
128.000	139.454	79.997	19.995	100.167	20.135	4.905	0.414
128.500	139.686	79.994	19.995	100.163	20.135	4.936	0.401
129.000	139.913	79.994	19.994	100.161	20.135	4.980	0.426
129.500	140.123	79.995	19.994	100.160	20.133	5.189	0.448
130.000	140.289	79.995	19.995	100.159	20.135	4.963	0.406
130.500	140.511	79.994	19.995	100.160	20.134	5.032	0.382
131.000	140.735	79.995	19.995	100.160	20.132	5.230	0.417
131.500	140.946	79.995	19.995	100.160	20.129	5.553	0.441
132.000	141.104	79.996	19.994	100.161	20.133	5.195	0.402
132.500	141.346	79.995	19.996	100.161	20.134	5.098	0.385
133.000	141.545	79.995	19.995	100.161	20.133	5.161	0.420
133.500	141.779	79.994	19.995	100.161	20.130	5.437	0.437
134.000	141.964	79.995	19.996	100.162	20.129	5.572	0.426
134.500	142.166	79.995	19.995	100.163	20.132	5.231	0.403
135.000	142.401	79.996	19.995	100.163	20.133	5.170	0.412
135.500	142.605	79.995	19.995	100.164	20.135	4.997	0.438
136.000	142.811	79.995	19.996	100.164	20.133	5.137	0.425
136.500	143.028	79.996	19.995	100.164	20.132	5.225	0.417
137.000	143.235	79.997	19.995	100.163	20.133	5.123	0.423
137.500	143.421	79.995	19.995	100.163	20.134	5.079	0.408
138.000	143.651	79.997	19.994	100.162	20.132	5.236	0.405
138.500	143.836	79.996	19.995	100.162	20.132	5.277	0.416
139.000	144.051	79.996	19.995	100.162	20.132	5.225	0.407
139.500	144.306	79.995	19.995	100.161	20.135	5.002	0.435
140.000	144.505	79.996	19.995	100.161	20.130	5.503	0.462
140.501	144.729	79.997	19.995	100.161	20.131	5.316	0.438
141.001	144.914	79.995	19.995	100.162	20.131	5.327	0.416
141.500	145.122	79.996	19.995	100.163	20.133	5.182	0.401
142.000	145.351	79.997	19.995	100.164	20.130	5.487	0.415
142.500	145.598	79.997	19.996	100.165	20.125	5.936	0.456
143.000	145.785	79.996	19.996	100.165	20.132	5.214	0.454
143.500	145.994	79.997	19.995	100.164	20.132	5.258	0.415
144.000	146.189	79.996	19.995	100.162	20.129	5.580	0.401
144.500	146.444	79.996	19.996	100.162	20.130	5.476	0.427
145.000	146.605	79.997	19.996	100.164	20.131	5.360	0.433
145.500	146.805	79.998	19.995	100.167	20.131	5.390	0.388
146.000	147.066	79.996	19.995	100.168	20.131	5.393	0.411
146.500	147.329	79.996	19.996	100.168	20.129	5.542	0.493
147.000	147.529	79.998	19.995	100.167	20.129	5.539	0.494
147.500	147.713	79.998	19.994	100.164	20.130	5.437	0.423
148.000	147.929	79.997	19.995	100.161	20.131	5.393	0.392
148.500	148.136	79.997	19.996	100.159	20.132	5.286	0.411
149.000	148.368	79.998	19.994	100.159	20.127	5.790	0.431
149.500	148.608	79.995	19.995	100.159	20.129	5.602	0.456
150.000	148.800	79.998	19.995	100.162	20.127	5.715	0.452
150.500	149.047	79.998	19.995	100.167	20.129	5.528	0.435
151.000	149.285	79.996	19.994	100.171	20.127	5.779	0.462
151.500	149.503	79.996	19.994	100.177	20.130	5.487	0.471
152.000	149.709	79.997	19.995	100.178	20.128	5.690	0.440
152.500	149.911	79.996	19.995	100.178	20.128	5.621	0.416
153.000	150.179	79.996	19.995	100.174	20.128	5.696	0.439
153.500	150.349	79.997	19.995	100.173	20.130	5.492	0.454
154.001	150.557	79.996	19.994	100.169	20.127	5.800	0.408
154.501	150.783	79.996	19.994	100.168	20.124	6.098	0.406
155.001	151.014	79.997	19.995	100.168	20.129	5.542	0.446
155.500	151.220	79.996	19.995	100.167	20.128	5.625	0.447
156.000	151.469	79.997	19.995	100.166	20.127	5.752	0.446
156.501	151.693	79.997	19.994	100.167	20.127	5.719	0.464
157.001	151.864	79.994	19.994	100.168	20.129	5.532	0.434
157.500	152.116	79.997	19.995	100.168	20.128	5.705	0.409
158.000	152.318	79.996	19.995	100.171	20.127	5.749	0.439
158.500	152.593	79.997	19.994	100.171	20.130	5.498	0.466
159.000	152.784	79.997	19.994	100.170	20.127	5.727	0.472
159.500	153.003	79.993	19.994	100.170	20.128	5.691	0.438
160.000	153.244	79.996	19.995	100.171	20.128	5.608	0.435
160.501	153.458	79.996	19.994	100.169	20.126	5.828	0.457
161.001	153.720	79.996	19.994	100.170	20.128	5.619	0.466
161.500	153.866	79.998	19.993	100.171	20.129	5.525	0.442
162.000	154.082	79.996	19.995	100.170	20.127	5.734	0.385
162.500	154.328	79.997	19.995	100.167	20.127	5.797	0.412
163.000	154.540	79.994	19.995	100.165	20.127	5.784	0.460
163.500	154.773	79.996	19.993	100.165	20.129	5.596	0.451
164.000	155.029	79.998	19.994	100.164	20.127	5.778	0.466
164.501	155.239	79.997	19.995	100.164	20.130	5.462	0.477
165.001	155.421	79.997	19.994	100.164	20.128	5.608	0.429
165.500	155.663	79.996	19.994	100.165	20.129	5.583	0.408
166.000	155.892	79.997	19.993	100.169	20.130	5.503	0.448
166.500	156.105	79.996	19.994	100.175	20.127	5.775	0.457
167.000	156.363	79.999	19.995	100.182	20.130	5.434	0.457
167.501	156.557	79.997	19.995	100.187	20.134	5.065	0.461
168.001	156.766	79.998	19.995	100.191	20.130	5.415	0.428
168.500	157.021	79.997	19.994	100.187	20.126	5.874	0.433
169.000	157.264	79.998	19.994	100.184	20.129	5.541	0.481
169.500	157.491	79.998	19.995	100.181	20.129	5.572	0.484
170.000	157.705	79.997	19.995	100.177	20.130	5.442	0.455
170.500	157.947	79.998	19.994	100.172	20.130	5.453	0.448
171.000	158.172	79.998	19.994	100.173	20.127	5.709	0.462
171.500	158.417	79.997	19.995	100.171	20.126	5.841	0.468
172.000	158.643	79.999	19.994	100.166	20.129	5.511	0.470
172.500	158.865	79.999	19.994	100.165	20.128	5.657	0.460
173.000	159.073	79.997	19.995	100.165	20.128	5.679	0.439
173.500	159.265	80.000	19.994	100.163	20.128	5.704	0.415
174.000	159.545	79.997	19.994	100.163	20.129	5.588	0.436
174.500	159.790	79.998	19.994	100.163	20.128	5.629	0.498
175.000	160.031	79.998	19.996	100.163	20.129	5.555	0.505
175.500	160.245	79.997	19.994	100.164	20.129	5.553	0.470
176.000	160.480	79.997	19.994	100.165	20.129	5.553	0.452
176.500	160.711	79.998	19.995	100.165	20.130	5.492	0.458
177.001	160.973	79.998	19.995	100.164	20.131	5.368	0.479
177.500	161.177	79.998	19.995	100.163	20.130	5.437	0.479
178.000	161.375	79.998	19.995	100.161	20.131	5.398	0.434
178.500	161.639	79.997	19.995	100.162	20.130	5.417	0.432
179.000	161.865	79.996	19.995	100.162	20.130	5.494	0.476
179.500	162.079	79.997	19.995	100.162	20.134	5.024	0.465
180.000	162.369	79.995	19.995	100.161	20.132	5.296	0.472
180.500	162.538	79.995	19.995	100.161	20.132	5.222	0.482
181.000	162.785	79.996	19.995	100.159	20.134	5.016	0.437
181.500	163.020	79.994	19.996	100.159	20.134	5.054	0.449
182.000	163.280	79.995	19.995	100.158	20.131	5.379	0.489
182.500	163.511	79.995	19.995	100.159	20.132	5.286	0.493
183.001	163.745	79.996	19.995	100.159	20.132	5.285	0.478
183.501	163.985	79.997	19.995	100.159	20.130	5.497	0.470
184.001	164.226	79.996	19.996	100.159	20.132	5.217	0.478
184.500	164.507	79.995	19.995	100.159	20.132	5.225	0.501
185.000	164.708	79.995	19.995	100.159	20.133	5.203	0.501
185.500	164.987	79.996	19.995	100.160	20.134	5.018	0.481
186.000	165.163	79.996	19.995	100.165	20.134	5.098	0.468
186.500	165.434	79.995	19.996	100.166	20.135	4.961	0.451
187.000	165.687	79.996	19.995	100.165	20.137	4.785	0.485
187.501	165.878	79.996	19.995	100.166	20.133	5.159	0.484
188.001	166.157	79.996	19.995	100.165	20.132	5.239	0.457
188.500	166.384	79.996	19.995	100.160	20.135	4.980	0.488
189.000	166.630	79.995	19.995	100.159	20.134	5.074	0.489
189.500	166.845	79.995	19.995	100.160	20.134	5.062	0.467
190.000	167.115	79.996	19.995	100.160	20.135	4.916	0.473
190.500	167.350	79.994	19.995	100.160	20.131	5.313	0.495
191.000	167.600	79.995	19.995	100.163	20.134	5.004	0.495
191.500	167.832	79.997	19.995	100.165	20.136	4.886	0.483
192.000	168.092	79.996	19.995	100.166	20.135	4.952	0.487
192.500	168.354	79.995	19.995	100.167	20.135	4.960	0.507
193.000	168.565	79.995	19.995	100.169	20.134	5.079	0.497
193.500	168.816	79.995	19.995	100.166	20.135	4.999	0.467
194.000	169.038	79.996	19.995	100.165	20.134	5.098	0.467
194.500	169.312	79.995	19.995	100.163	20.130	5.406	0.484
195.000	169.527	79.996	19.996	100.162	20.133	5.170	0.492
195.500	169.785	79.995	19.996	100.159	20.133	5.192	0.481
196.000	170.014	79.996	19.995	100.160	20.132	5.205	0.480
196.500	170.247	79.997	19.995	100.161	20.136	4.864	0.475
197.000	170.524	79.996	19.995	100.165	20.136	4.834	0.486
197.500	170.719	79.995	19.995	100.167	20.135	4.905	0.490
198.000	170.989	79.995	19.995	100.169	20.133	5.115	0.469
198.500	171.258	79.995	19.995	100.171	20.136	4.881	0.503
199.000	171.469	79.996	19.995	100.171	20.134	5.087	0.509
199.500	171.737	79.993	19.995	100.168	20.133	5.121	0.479
200.000	171.978	79.996	19.995	100.166	20.134	5.099	0.494
200.501	172.210	79.996	19.995	100.163	20.136	4.884	0.491
201.001	172.434	79.995	19.995	100.161	20.136	4.859	0.465
201.500	172.716	79.994	19.997	100.159	20.134	5.032	0.481
202.000	172.941	79.996	19.995	100.158	20.132	5.274	0.507
202.500	173.198	79.995	19.997	100.159	20.135	4.908	0.495
203.000	173.462	79.996	19.997	100.160	20.139	4.567	0.501
203.500	173.706	79.996	19.995	100.160	20.135	4.925	0.514
204.000	173.906	79.996	19.996	100.160	20.136	4.815	0.476
204.500	174.150	79.994	19.996	100.160	20.135	4.939	0.444
205.000	174.427	79.995	19.996	100.159	20.136	4.864	0.482
205.500	174.651	79.996	19.995	100.158	20.137	4.771	0.511
206.000	174.887	79.996	19.995	100.158	20.137	4.768	0.481
206.500	175.150	79.997	19.996	100.158	20.137	4.743	0.479
207.001	175.386	79.997	19.995	100.159	20.138	4.608	0.499
207.500	175.620	79.996	19.996	100.161	20.136	4.818	0.485
208.000	175.820	79.995	19.996	100.160	20.138	4.630	0.452
208.500	176.113	79.994	19.996	100.160	20.136	4.823	0.463
209.000	176.282	79.994	19.996	100.165	20.140	4.468	0.478
209.500	176.549	79.996	19.997	100.164	20.139	4.600	0.449
210.000	176.835	79.994	19.996	100.164	20.137	4.757	0.495
210.500	177.065	79.995	19.997	100.169	20.138	4.663	0.535
211.000	177.321	79.995	19.996	100.171	20.136	4.875	0.501
211.500	177.559	79.994	19.996	100.166	20.135	4.958	0.490
212.000	177.813	79.995	19.996	100.166	20.135	4.980	0.492
212.500	178.048	79.994	19.996	100.165	20.137	4.729	0.490
213.000	178.320	79.994	19.996	100.161	20.137	4.740	0.498
213.500	178.565	79.996	19.996	100.162	20.134	5.016	0.512
214.000	178.824	79.994	19.997	100.164	20.136	4.892	0.511
214.500	179.072	79.997	19.996	100.164	20.136	4.806	0.505
215.000	179.327	79.996	19.995	100.164	20.137	4.724	0.505
215.500	179.611	79.995	19.996	100.164	20.135	4.941	0.521
216.000	179.799	79.996	19.995	100.168	20.136	4.864	0.506
216.500	180.054	79.997	19.995	100.168	20.135	4.949	0.458
217.000	180.326	79.995	19.994	100.169	20.134	5.076	0.485
217.500	180.597	79.996	19.995	100.169	20.138	4.627	0.535
218.000	180.832	79.993	19.994	100.169	20.136	4.889	0.524
218.500	181.065	79.996	19.996	100.167	20.134	5.087	0.487
219.000	181.314	79.996	19.995	100.166	20.136	4.864	0.475
219.500	181.568	79.997	19.996	100.166	20.133	5.115	0.493
220.000	181.814	79.995	19.995	100.166	20.133	5.159	0.502
220.500	182.094	79.997	19.996	100.169	20.138	4.677	0.513
221.000	182.342	79.996	19.995	100.168	20.135	5.002	0.527
221.500	182.653	79.997	19.995	100.168	20.136	4.867	0.543
222.000	182.853	79.995	19.995	100.167	20.136	4.878	0.535
222.500	183.112	79.997	19.995	100.167	20.138	4.647	0.485
223.000	183.363	79.997	19.995	100.164	20.136	4.842	0.485
223.500	183.597	79.996	19.995	100.163	20.135	4.947	0.498
224.000	183.863	79.998	19.996	100.163	20.136	4.881	0.493
224.500	184.114	79.997	19.995	100.161	20.135	4.944	0.508
225.000	184.360	79.998	19.995	100.161	20.138	4.688	0.506
225.500	184.623	79.997	19.994	100.161	20.138	4.611	0.503
226.000	184.867	79.997	19.994	100.161	20.138	4.666	0.508
226.500	185.135	79.998	19.994	100.161	20.133	5.172	0.510
227.000	185.359	79.997	19.995	100.163	20.137	4.737	0.502
227.500	185.637	79.998	19.994	100.160	20.138	4.646	0.497
228.000	185.926	79.997	19.995	100.157	20.134	5.078	0.534
228.500	186.194	79.998	19.995	100.157	20.138	4.679	0.562
229.000	186.406	79.997	19.995	100.157	20.136	4.864	0.519
229.500	186.687	79.997	19.995	100.157	20.134	5.087	0.486
230.000	186.950	79.997	19.994	100.160	20.139	4.567	0.518
230.500	187.192	79.997	19.995	100.162	20.134	5.071	0.524
231.000	187.428	79.998	19.994	100.163	20.138	4.627	0.492
231.500	187.705	79.998	19.994	100.163	20.138	4.652	0.496
232.000	187.929	79.996	19.995	100.163	20.135	4.919	0.507
232.500	188.179	79.996	19.995	100.163	20.136	4.900	0.488
233.001	188.427	79.997	19.993	100.163	20.137	4.724	0.486
233.501	188.688	79.996	19.995	100.163	20.138	4.677	0.503
234.000	188.945	79.996	19.994	100.163	20.135	4.985	0.514
234.500	189.193	79.996	19.994	100.161	20.136	4.809	0.512
235.000	189.427	79.997	19.995	100.161	20.136	4.856	0.493
235.500	189.721	79.997	19.994	100.162	20.138	4.611	0.505
236.000	189.963	79.997	19.996	100.161	20.139	4.542	0.532
236.501	190.218	79.995	19.995	100.160	20.137	4.715	0.516
237.000	190.498	79.997	19.994	100.163	20.137	4.801	0.516
237.500	190.750	79.995	19.994	100.161	20.137	4.704	0.533
238.000	190.987	79.997	19.994	100.157	20.137	4.768	0.511
238.500	191.253	79.997	19.995	100.149	20.140	4.412	0.496
239.000	191.510	79.994	19.995	100.150	20.139	4.545	0.513
239.500	191.785	79.996	19.995	100.149	20.138	4.690	0.527
240.000	192.055	79.996	19.995	100.151	20.143	4.129	0.538
240.500	192.276	79.995	19.994	100.155	20.137	4.778	0.518
241.000	192.476	79.996	19.995	100.162	20.142	4.291	0.456
241.500	192.754	79.996	19.995	100.163	20.141	4.384	0.449
242.000	193.000	79.998	19.994	100.163	20.135	4.935	0.501
242.500	193.251	79.997	19.995	100.162	20.141	4.393	0.511
243.000	193.525	79.998	19.996	100.160	20.136	4.803	0.511
243.500	193.784	79.997	19.995	100.159	20.138	4.627	0.529
244.000	194.029	79.999	19.995	100.158	20.137	4.726	0.519
244.500	194.306	79.996	19.995	100.157	20.139	4.580	0.513
245.000	194.526	79.999	19.995	100.156	20.140	4.417	0.509
245.500	194.793	79.997	19.995	100.155	20.138	4.612	0.492
246.001	195.039	79.997	19.995	100.155	20.139	4.563	0.500
246.500	195.254	79.997	19.996	100.154	20.142	4.224	0.487
247.000	195.560	79.998	19.995	100.154	20.143	4.169	0.491
247.500	195.777	79.998	19.996	100.155	20.143	4.125	0.522
248.000	196.045	79.999	19.995	100.157	20.137	4.753	0.504
248.500	196.300	79.997	19.994	100.157	20.143	4.194	0.504
249.001	196.501	79.998	19.994	100.157	20.140	4.434	0.490
249.501	196.786	79.999	19.994	100.157	20.140	4.426	0.472
250.000	197.042	79.999	19.994	100.156	20.139	4.594	0.514
250.500	197.314	79.998	19.994	100.156	20.140	4.494	0.534
251.000	197.526	79.999	19.994	100.152	20.140	4.478	0.506
251.500	197.764	80.000	19.995	100.146	20.140	4.453	0.467
252.000	198.025	79.998	19.994	100.140	20.140	4.450	0.475
252.500	198.320	79.998	19.994	100.139	20.136	4.805	0.528
253.000	198.569	79.997	19.994	100.139	20.141	4.373	0.550
253.500	198.827	79.999	19.995	100.142	20.137	4.703	0.525
254.000	199.046	79.998	19.994	100.148	20.137	4.736	0.492
254.500	199.285	79.999	19.994	100.148	20.137	4.714	0.468
255.000	199.556	79.999	19.994	100.144	20.137	4.742	0.484
255.500	199.766	79.999	19.994	100.139	20.137	4.731	0.495
256.000	200.034	79.998	19.994	100.133	20.140	4.481	0.479
256.500	200.271	79.998	19.994	100.133	20.137	4.780	0.492
257.000	200.503	79.996	19.994	100.135	20.137	4.728	0.488
257.500	200.776	79.997	19.994	100.137	20.139	4.563	0.487
258.000	201.020	79.997	19.995	100.135	20.139	4.560	0.510
258.500	201.297	79.996	19.994	100.136	20.138	4.687	0.518
259.000	201.544	79.996	19.995	100.135	20.141	4.379	0.523
259.500	201.802	79.997	19.995	100.138	20.140	4.467	0.515
260.000	202.056	79.996	19.994	100.141	20.138	4.626	0.508
260.500	202.278	79.995	19.994	100.147	20.139	4.588	0.494
261.001	202.562	79.996	19.995	100.145	20.138	4.640	0.491
261.501	202.836	79.995	19.994	100.141	20.140	4.486	0.532
262.000	203.070	79.995	19.994	100.139	20.137	4.706	0.533
262.500	203.347	79.996	19.995	100.139	20.139	4.590	0.510
263.000	203.542	79.997	19.995	100.140	20.136	4.810	0.492
263.500	203.793	79.996	19.995	100.143	20.137	4.719	0.459
264.001	204.052	79.995	19.996	100.142	20.139	4.579	0.477
264.500	204.317	79.996	19.994	100.138	20.136	4.838	0.517
265.000	204.544	79.995	19.995	100.138	20.139	4.541	0.509
265.500	204.820	79.995	19.995	100.137	20.141	4.367	0.498
266.000	205.029	79.997	19.996	100.136	20.138	4.667	0.494
266.500	205.296	79.994	19.995	100.139	20.140	4.461	0.480
267.001	205.530	79.997	19.995	100.140	20.137	4.771	0.489
267.501	205.783	79.997	19.996	100.137	20.138	4.609	0.494
268.000	206.030	79.996	19.996	100.134	20.137	4.788	0.493
268.500	206.289	79.996	19.995	100.139	20.136	4.852	0.503
269.000	206.531	79.996	19.995	100.138	20.139	4.569	0.504
269.500	206.792	79.994	19.995	100.141	20.138	4.602	0.502
270.000	207.012	79.994	19.995	100.138	20.141	4.398	0.492
270.501	207.275	79.997	19.995	100.136	20.141	4.310	0.482
271.000	207.538	79.995	19.996	100.135	20.139	4.577	0.505
271.500	207.837	79.997	19.994	100.133	20.139	4.546	0.544
272.001	208.023	79.997	19.995	100.129	20.140	4.433	0.523
272.500	208.293	79.993	19.996	100.130	20.137	4.719	0.471
273.000	208.573	79.997	19.996	100.129	20.139	4.521	0.503
273.500	208.800	79.995	19.995	100.124	20.140	4.486	0.528
274.000	209.053	79.995	19.995	100.125	20.137	4.723	0.493
274.500	209.294	79.996	19.994	100.128	20.139	4.580	0.487
275.000	209.529	79.993	19.995	100.130	20.139	4.538	0.485
275.500	209.806	79.998	19.995	100.130	20.135	4.935	0.494
276.000	210.042	79.996	19.996	100.128	20.141	4.376	0.513
276.500	210.296	79.996	19.995	100.128	20.139	4.530	0.502
277.000	210.529	79.993	19.995	100.125	20.142	4.290	0.489
277.500	210.785	79.994	19.996	100.123	20.143	4.172	0.487
278.000	211.061	79.995	19.996	100.122	20.140	4.447	0.510
278.500	211.296	79.997	19.994	100.124	20.140	4.450	0.522
279.000	211.537	79.996	19.994	100.128	20.141	4.389	0.494
279.500	211.795	79.995	19.995	100.135	20.140	4.472	0.488
280.000	212.065	79.997	19.994	100.139	20.138	4.642	0.514
280.500	212.271	79.995	19.995	100.143	20.140	4.455	0.502
281.000	212.521	79.996	19.994	100.143	20.140	4.499	0.466
281.500	212.743	79.995	19.994	100.139	20.141	4.318	0.464
282.000	213.010	79.996	19.995	100.133	20.140	4.430	0.480
282.500	213.279	79.998	19.995	100.128	20.142	4.271	0.512
283.000	213.539	79.995	19.994	100.124	20.141	4.384	0.533
283.500	213.786	79.996	19.994	100.126	20.138	4.615	0.518
284.000	214.017	79.994	19.995	100.128	20.140	4.491	0.493
284.500	214.266	79.997	19.996	100.135	20.140	4.466	0.479
285.000	214.514	79.996	19.995	100.138	20.143	4.100	0.488
285.500	214.744	79.996	19.995	100.141	20.139	4.524	0.488
286.000	215.001	79.995	19.996	100.140	20.143	4.158	0.483
286.500	215.246	79.996	19.995	100.137	20.138	4.692	0.495
287.000	215.506	79.998	19.995	100.130	20.139	4.505	0.504
287.500	215.734	79.994	19.995	100.130	20.141	4.395	0.496
288.000	215.993	79.998	19.995	100.128	20.139	4.590	0.488
288.500	216.238	79.995	19.996	100.126	20.138	4.626	0.496
289.000	216.516	79.994	19.996	100.126	20.138	4.642	0.513
289.500	216.759	79.995	19.995	100.126	20.137	4.780	0.521
290.000	216.985	79.995	19.995	100.124	20.141	4.315	0.495
290.500	217.247	79.996	19.995	100.123	20.140	4.403	0.479
291.000	217.476	79.993	19.996	100.125	20.140	4.403	0.489
291.500	217.748	79.996	19.997	100.126	20.137	4.727	0.496
292.000	218.016	79.996	19.997	100.127	20.138	4.639	0.521
292.500	218.233	79.995	19.995	100.127	20.142	4.213	0.513
293.000	218.524	79.992	19.996	100.128	20.141	4.356	0.496
293.500	218.780	79.996	19.996	100.127	20.141	4.359	0.527
294.000	218.977	79.995	19.996	100.126	20.140	4.408	0.500
294.500	219.252	79.991	19.996	100.124	20.139	4.587	0.462
295.000	219.476	79.991	19.996	100.125	20.139	4.598	0.485
295.500	219.720	79.993	19.996	100.123	20.139	4.540	0.484
296.000	219.963	79.992	19.995	100.123	20.136	4.821	0.478
296.500	220.217	79.996	19.996	100.124	20.139	4.568	0.492
297.000	220.479	79.994	19.996	100.124	20.139	4.504	0.506
297.500	220.716	79.996	19.996	100.124	20.140	4.411	0.508
298.001	220.968	79.994	19.995	100.124	20.140	4.466	0.494
298.501	221.178	79.995	19.996	100.125	20.141	4.383	0.476
299.000	221.457	79.993	19.996	100.126	20.139	4.590	0.476
299.500	221.680	79.994	19.997	100.128	20.143	4.141	0.495
300.000	221.958	79.995	19.995	100.128	20.139	4.546	0.501
300.500	222.223	79.994	19.995	100.129	20.141	4.331	0.522
301.000	222.433	79.994	19.995	100.126	20.140	4.466	0.509
301.500	222.697	79.994	19.995	100.125	20.142	4.271	0.475
302.000	222.919	79.996	19.996	100.123	20.137	4.744	0.480
302.500	223.193	79.996	19.996	100.123	20.139	4.507	0.491
303.000	223.438	79.993	19.996	100.123	20.140	4.411	0.508
303.500	223.669	79.996	19.995	100.124	20.140	4.458	0.497
304.000	223.913	79.996	19.995	100.124	20.139	4.576	0.476
304.500	224.205	79.997	19.995	100.124	20.139	4.554	0.506
305.000	224.390	79.998	19.994	100.123	20.137	4.747	0.506
305.500	224.650	79.997	19.994	100.123	20.137	4.769	0.461
306.000	224.924	79.995	19.994	100.122	20.137	4.749	0.490
306.500	225.123	79.997	19.994	100.122	20.136	4.868	0.503
307.000	225.394	79.998	19.994	100.122	20.136	4.838	0.471
307.500	225.625	79.998	19.994	100.121	20.135	4.970	0.486
308.000	225.919	79.998	19.995	100.121	20.139	4.593	0.514
308.500	226.143	79.999	19.994	100.121	20.135	4.918	0.522
309.000	226.396	79.997	19.993	100.120	20.138	4.628	0.497
309.501	226.650	79.997	19.994	100.120	20.138	4.650	0.492
310.000	226.878	79.997	19.994	100.121	20.137	4.722	0.495
310.500	227.120	79.999	19.995	100.124	20.138	4.637	0.475
311.000	227.371	79.997	19.994	100.123	20.139	4.521	0.482
311.500	227.648	79.998	19.995	100.124	20.140	4.430	0.511
312.000	227.900	79.994	19.994	100.124	20.138	4.670	0.528
312.501	228.120	79.997	19.995	100.124	20.139	4.540	0.500
313.001	228.354	79.997	19.995	100.123	20.140	4.483	0.463
313.500	228.628	79.998	19.994	100.125	20.139	4.549	0.481
314.000	228.875	79.997	19.995	100.125	20.137	4.730	0.515
314.500	229.127	79.996	19.994	100.126	20.143	4.165	0.510
315.000	229.371	79.996	19.994	100.125	20.139	4.546	0.498
315.500	229.649	79.996	19.994	100.124	20.139	4.565	0.509
316.001	229.849	79.997	19.994	100.122	20.135	4.977	0.500
316.501	230.128	79.997	19.994	100.122	20.136	4.851	0.478
317.000	230.356	79.991	19.995	100.122	20.137	4.744	0.493
317.500	230.627	79.995	19.993	100.125	20.140	4.438	0.503
318.000	230.839	79.994	19.995	100.126	20.138	4.648	0.491
318.500	231.081	79.997	19.995	100.127	20.139	4.599	0.468
319.000	231.334	79.994	19.996	100.128	20.141	4.304	0.475
319.500	231.567	79.995	19.995	100.128	20.139	4.586	0.491
320.000	231.818	79.997	19.995	100.125	20.138	4.626	0.485
320.500	232.045	79.997	19.996	100.124	20.140	4.441	0.481
321.000	232.279	79.996	19.996	100.123	20.140	4.455	0.470
321.500	232.542	79.997	19.995	100.122	20.139	4.548	0.479
322.000	232.789	79.995	19.995	100.121	20.135	4.917	0.504
322.500	233.002	79.993	19.994	100.121	20.138	4.615	0.485
323.001	233.284	79.996	19.996	100.121	20.138	4.601	0.477
323.501	233.504	79.995	19.996	100.123	20.138	4.623	0.499
324.000	233.762	79.996	19.995	100.125	20.138	4.700	0.490
324.500	234.036	79.997	19.994	100.128	20.135	4.917	0.505
325.000	234.274	79.997	19.995	100.124	20.139	4.502	0.522
325.500	234.492	79.997	19.995	100.091	20.134	5.102	0.483
326.000	234.733	79.995	19.995	100.066	20.135	4.978	0.457
326.500	235.004	79.999	19.994	100.057	20.137	4.706	0.485
327.000	235.230	79.999	19.995	100.054	20.137	4.744	0.505
327.500	235.480	79.998	19.996	100.061	20.138	4.665	0.487
328.000	235.752	79.997	19.995	100.128	20.139	4.557	0.499
328.500	235.975	79.997	19.995	100.183	20.134	5.052	0.509
329.000	236.240	79.998	19.994	100.200	20.136	4.862	0.492
329.500	236.493	79.999	19.995	100.203	20.134	5.058	0.503
330.000	236.717	79.997	19.995	100.202	20.137	4.785	0.497
330.500	236.916	79.998	19.995	100.167	20.132	5.253	0.450
331.000	237.209	79.998	19.995	100.135	20.135	4.983	0.457
331.500	237.445	79.997	19.995	100.126	20.135	4.989	0.510
332.000	237.696	79.999	19.995	100.123	20.136	4.882	0.508
332.500	237.949	79.999	19.994	100.120	20.133	5.149	0.496
333.000	238.189	79.999	19.994	100.122	20.137	4.712	0.498
333.500	238.443	80.000	19.994	100.128	20.137	4.731	0.493
334.000	238.718	80.000	19.994	100.130	20.136	4.857	0.512
334.500	238.912	79.999	19.995	100.129	20.136	4.819	0.499
335.000	239.182	79.999	19.994	100.129	20.133	5.138	0.466
335.500	239.415	80.000	19.994	100.126	20.133	5.127	0.483
336.000	239.653	79.999	19.995	100.120	20.135	4.970	0.488
336.500	239.897	79.999	19.996	100.121	20.133	5.193	0.477
337.000	240.099	79.998	19.994	100.125	20.134	5.063	0.464
337.500	240.377	79.996	19.995	100.129	20.134	5.039	0.463
338.000	240.617	79.998	19.994	100.131	20.135	4.959	0.499
338.500	240.838	79.997	19.995	100.133	20.135	4.937	0.490
339.000	241.101	80.000	19.994	100.132	20.134	5.061	0.472
339.500	241.314	79.996	19.994	100.128	20.133	5.157	0.480
340.000	241.570	79.997	19.993	100.125	20.131	5.393	0.472
340.500	241.841	79.997	19.993	100.125	20.134	5.091	0.498
341.000	242.117	79.997	19.994	100.124	20.134	5.047	0.537
341.500	242.368	79.995	19.994	100.124	20.135	4.948	0.537
342.000	242.575	79.997	19.994	100.126	20.133	5.127	0.493
342.500	242.834	79.998	19.994	100.126	20.133	5.179	0.462
343.000	243.087	79.996	19.994	100.129	20.134	5.030	0.489
343.500	243.316	79.995	19.993	100.135	20.134	5.077	0.497
344.000	243.569	79.997	19.995	100.137	20.132	5.231	0.482
344.500	243.778	79.997	19.994	100.138	20.130	5.421	0.472
345.000	244.057	79.994	19.994	100.138	20.134	5.014	0.475
345.500	244.305	79.996	19.994	100.136	20.130	5.413	0.507
346.000	244.568	79.997	19.995	100.131	20.133	5.140	0.519
346.500	244.777	79.994	19.994	100.129	20.133	5.171	0.492
347.000	245.038	79.995	19.994	100.127	20.131	5.306	0.471
347.500	245.312	79.995	19.995	100.128	20.129	5.601	0.502
348.000	245.565	79.995	19.994	100.128	20.135	4.998	0.531
348.500	245.815	79.996	19.995	100.131	20.129	5.521	0.515
349.000	246.048	79.996	19.995	100.130	20.130	5.438	0.493
349.500	246.282	79.995	19.995	100.130	20.127	5.796	0.475
350.000	246.529	79.995	19.996	100.129	20.128	5.626	0.474
350.501	246.756	79.995	19.995	100.127	20.130	5.411	0.477
351.000	247.001	79.996	19.994	100.124	20.128	5.697	0.473
351.500	247.301	79.994	19.995	100.126	20.131	5.339	0.508
352.000	247.524	79.994	19.994	100.126	20.129	5.590	0.534
352.500	247.757	79.996	19.995	100.126	20.129	5.597	0.490
353.000	248.027	79.995	19.995	100.127	20.131	5.319	0.479
353.500	248.296	79.995	19.995	100.129	20.130	5.463	0.521
354.000	248.516	79.995	19.995	100.129	20.126	5.831	0.514
354.500	248.797	79.996	19.995	100.130	20.127	5.713	0.495
355.000	249.039	79.996	19.995	100.131	20.130	5.490	0.512
355.500	249.311	79.997	19.996	100.130	20.129	5.581	0.518
356.000	249.563	79.997	19.995	100.129	20.129	5.584	0.519
356.500	249.820	79.996	19.995	100.126	20.127	5.730	0.517
357.000	250.104	79.997	19.995	100.128	20.129	5.529	0.525
357.500	250.340	79.995	19.995	100.129	20.127	5.711	0.530
358.000	250.563	79.996	19.996	100.134	20.127	5.728	0.489
358.500	250.861	79.995	19.995	100.137	20.130	5.425	0.490
359.000	251.105	79.996	19.996	100.140	20.132	5.221	0.532
359.500	251.342	79.995	19.994	100.141	20.130	5.450	0.511
360.000	251.596	79.993	19.995	100.143	20.130	5.477	0.486
360.500	251.816	79.993	19.996	100.143	20.127	5.728	0.483
361.000	252.083	79.996	19.995	100.146	20.129	5.540	0.481
361.500	252.373	79.995	19.995	100.145	20.128	5.625	0.522
362.000	252.593	79.997	19.995	100.144	20.129	5.595	0.533
362.500	252.847	79.996	19.996	100.142	20.128	5.641	0.492
363.000	253.090	79.996	19.995	100.137	20.129	5.589	0.486
363.500	253.343	79.996	19.996	100.130	20.128	5.631	0.496
364.000	253.618	79.997	19.994	100.128	20.124	6.063	0.511
364.500	253.840	79.997	19.994	100.130	20.126	5.810	0.512
365.000	254.091	79.996	19.995	100.129	20.127	5.711	0.485
365.500	254.378	79.995	19.997	100.129	20.128	5.623	0.506
366.000	254.602	79.997	19.995	100.130	20.126	5.838	0.525
366.500	254.857	79.997	19.995	100.131	20.124	6.033	0.495
367.000	255.117	79.995	19.995	100.131	20.123	6.137	0.497
367.500	255.342	79.995	19.995	100.133	20.123	6.205	0.500
368.000	255.649	79.996	19.994	100.137	20.124	6.018	0.508
368.500	255.886	79.997	19.995	100.144	20.126	5.828	0.538
369.000	256.109	79.996	19.994	100.149	20.126	5.900	0.502
369.500	256.387	79.994	19.995	100.148	20.126	5.881	0.480
370.000	256.627	79.995	19.995	100.150	20.125	5.963	0.510
370.500	256.880	79.995	19.994	100.151	20.127	5.749	0.506
371.000	257.119	79.995	19.995	100.148	20.125	5.925	0.493
371.501	257.413	79.995	19.996	100.145	20.123	6.200	0.512
372.000	257.692	79.994	19.995	100.142	20.121	6.313	0.553
372.500	257.950	79.993	19.995	100.136	20.120	6.445	0.555
373.000	258.189	79.995	19.995	100.130	20.121	6.318	0.517
373.500	258.466	79.994	19.995	100.126	20.122	6.288	0.507
374.000	258.683	79.995	19.996	100.125	20.117	6.728	0.505
374.500	258.948	79.995	19.996	100.133	20.119	6.517	0.488
375.000	259.232	79.996	19.996	100.140	20.116	6.883	0.515
375.500	259.482	79.995	19.995	100.147	20.118	6.682	0.542
376.000	259.717	79.994	19.995	100.152	20.116	6.842	0.510
376.500	259.947	79.996	19.996	100.151	20.115	6.999	0.475
377.000	260.208	79.995	19.995	100.144	20.118	6.679	0.478
377.500	260.481	79.993	19.996	100.138	20.118	6.635	0.512
378.000	260.726	79.992	19.996	100.130	20.116	6.855	0.526
378.501	260.944	79.993	19.996	100.127	20.114	7.032	0.491
379.001	261.238	79.996	19.995	100.126	20.117	6.804	0.488
379.500	261.434	79.996	19.996	100.125	20.116	6.884	0.501
380.000	261.741	79.996	19.996	100.124	20.117	6.766	0.496
380.501	261.983	79.995	19.996	100.129	20.116	6.851	0.525
381.001	262.232	79.993	19.996	100.130	20.115	6.983	0.520
381.501	262.472	79.995	19.997	100.135	20.115	6.983	0.490
382.000	262.732	79.994	19.995	100.137	20.117	6.773	0.495
382.500	262.968	79.996	19.997	100.137	20.115	6.977	0.498
383.000	263.242	79.995	19.997	100.133	20.116	6.836	0.503
383.500	263.479	79.995	19.996	100.132	20.114	7.071	0.511
384.000	263.774	79.997	19.996	100.126	20.115	6.974	0.522
384.501	264.015	79.995	19.995	100.124	20.114	7.035	0.534
385.001	264.251	79.997	19.995	100.125	20.114	7.057	0.506
385.500	264.509	79.995	19.996	100.131	20.117	6.787	0.486
386.000	264.740	79.996	19.996	100.133	20.114	7.103	0.492
386.500	264.970	79.998	19.995	100.134	20.114	7.065	0.475
387.000	265.250	79.996	19.996	100.140	20.113	7.147	0.485
387.500	265.508	79.995	19.996	100.139	20.114	7.015	0.524
388.000	265.724	79.997	19.995	100.135	20.109	7.541	0.506
388.500	266.018	79.997	19.996	100.133	20.108	7.678	0.492
389.000	266.234	79.997	19.995	100.136	20.111	7.359	0.510
389.500	266.499	79.998	19.996	100.137	20.111	7.365	0.495
390.000	266.761	79.995	19.996	100.144	20.112	7.278	0.504
390.500	266.989	79.996	19.995	100.149	20.109	7.548	0.509
391.000	267.248	79.997	19.995	100.155	20.108	7.694	0.488
391.500	267.551	79.998	19.995	100.153	20.107	7.754	0.525
392.000	267.760	79.997	19.995	100.147	20.108	7.713	0.537
392.500	268.038	79.996	19.994	100.143	20.110	7.476	0.499
393.000	268.262	79.996	19.994	100.142	20.110	7.471	0.494
393.500	268.522	79.998	19.995	100.141	20.107	7.774	0.493
394.000	268.791	79.996	19.994	100.139	20.105	7.989	0.507
394.500	269.036	79.997	19.994	100.143	20.102	8.256	0.522
395.000	269.359	79.997	19.995	100.144	20.106	7.826	0.541
395.500	269.558	79.998	19.995	100.142	20.103	8.217	0.545
396.000	269.818	79.996	19.994	100.141	20.105	7.991	0.490
396.500	270.059	79.998	19.995	100.145	20.104	8.052	0.480
397.000	270.347	79.998	19.995	100.141	20.103	8.206	0.515
397.500	270.570	79.997	19.994	100.139	20.101	8.349	0.520
398.000	270.829	79.995	19.995	100.136	20.100	8.487	0.496
398.500	271.095	79.997	19.995	100.135	20.100	8.492	0.503
399.000	271.362	79.997	19.995	100.135	20.102	8.236	0.529
399.501	271.627	79.997	19.995	100.137	20.094	9.095	0.533
400.001	271.876	79.995	19.994	100.142	20.098	8.627	0.523
400.500	272.122	79.996	19.994	100.149	20.098	8.682	0.504
401.000	272.384	79.995	19.994	100.153	20.094	9.106	0.501
401.500	272.611	79.996	19.995	100.155	20.097	8.787	0.498
402.000	272.864	79.997	19.994	100.159	20.095	8.949	0.485
402.500	273.125	79.996	19.995	100.158	20.095	9.021	0.498
403.000	273.353	79.996	19.995	100.159	20.094	9.092	0.502
403.500	273.604	79.998	19.995	100.159	20.090	9.480	0.484
404.000	273.856	79.997	19.995	100.160	20.091	9.390	0.491
404.500	274.100	79.996	19.996	100.160	20.088	9.725	0.499
405.000	274.385	79.997	19.994	100.162	20.092	9.315	0.512
405.500	274.606	79.998	19.994	100.162	20.087	9.764	0.518
406.001	274.907	79.996	19.994	100.162	20.092	9.274	0.514
406.501	275.141	79.999	19.995	100.161	20.085	9.951	0.528
407.000	275.380	79.997	19.994	100.160	20.090	9.497	0.504
407.500	275.625	79.997	19.995	100.160	20.086	9.866	0.479
408.000	275.853	79.998	19.994	100.159	20.088	9.706	0.478
408.500	276.132	79.999	19.993	100.159	20.085	9.992	0.490
409.000	276.387	79.998	19.994	100.160	20.085	10.023	0.521
409.500	276.647	79.997	19.994	100.160	20.086	9.874	0.524
410.000	276.909	80.000	19.994	100.160	20.087	9.797	0.518
410.500	277.145	79.999	19.995	100.159	20.082	10.260	0.510
411.000	277.372	80.000	19.994	100.160	20.088	9.717	0.481
411.500	277.623	80.000	19.995	100.160	20.085	10.009	0.470
412.000	277.913	79.998	19.994	100.161	20.083	10.227	0.509
412.500	278.127	79.998	19.995	100.162	20.077	10.772	0.523
413.000	278.366	80.000	19.995	100.162	20.081	10.414	0.479
413.500	278.635	79.999	19.994	100.162	20.076	10.880	0.481
414.000	278.879	79.997	19.995	100.161	20.079	10.605	0.511
414.500	279.110	79.996	19.993	100.161	20.075	10.955	0.494
415.000	279.365	79.999	19.995	100.161	20.075	10.991	0.480
415.500	279.631	79.998	19.995	100.160	20.078	10.729	0.503
416.000	279.845	79.997	19.994	100.160	20.074	11.114	0.500
416.500	280.144	79.997	19.995	100.160	20.075	11.017	0.497
417.000	280.366	79.999	19.995	100.159	20.074	11.092	0.517
417.501	280.617	79.998	19.995	100.159	20.070	11.491	0.498
418.001	280.847	79.996	19.994	100.159	20.074	11.087	0.477
418.500	281.110	79.996	19.995	100.159	20.071	11.423	0.487
419.000	281.366	80.000	19.994	100.160	20.067	11.814	0.505
419.500	281.599	79.996	19.996	100.161	20.066	11.936	0.504
420.000	281.857	79.994	19.995	100.162	20.063	12.146	0.491
420.500	282.119	79.999	19.994	100.162	20.065	11.978	0.506
421.000	282.333	79.996	19.995	100.162	20.065	11.953	0.498
421.500	282.590	79.994	19.994	100.162	20.065	11.978	0.473
422.000	282.875	79.995	19.994	100.162	20.063	12.214	0.507
422.500	283.077	79.995	19.995	100.162	20.065	12.021	0.515
423.000	283.371	79.996	19.995	100.162	20.058	12.703	0.491
423.500	283.609	79.993	19.995	100.163	20.063	12.223	0.514
424.000	283.869	79.995	19.995	100.166	20.058	12.715	0.515
424.500	284.103	79.993	19.994	100.169	20.062	12.333	0.496
425.000	284.354	79.995	19.994	100.173	20.060	12.521	0.489
425.500	284.593	79.995	19.994	100.175	20.055	12.995	0.488
426.000	284.867	79.995	19.994	100.175	20.053	13.222	0.502
426.500	285.076	79.995	19.995	100.173	20.052	13.251	0.498
427.000	285.365	79.994	19.995	100.171	20.050	13.529	0.491
427.500	285.600	79.996	19.993	100.168	20.050	13.473	0.511
428.000	285.837	79.994	19.995	100.170	20.050	13.486	0.498
428.500	286.119	79.993	19.994	100.172	20.049	13.618	0.495
429.000	286.350	79.995	19.993	100.172	20.047	13.775	0.516
429.500	286.604	79.994	19.994	100.175	20.046	13.911	0.499
430.000	286.863	79.995	19.994	100.181	20.041	14.360	0.499
430.500	287.080	79.997	19.995	100.185	20.047	13.818	0.494
431.000	287.325	79.997	19.996	100.190	20.040	14.523	0.469
431.500	287.591	79.996	19.994	100.191	20.037	14.791	0.487
432.000	287.860	79.995	19.995	100.192	20.040	14.479	0.523
432.500	288.106	79.997	19.995	100.191	20.036	14.950	0.525
433.000	288.328	79.997	19.994	100.187	20.030	15.493	0.492
433.500	288.593	79.998	19.996	100.179	20.032	15.314	0.478
434.000	288.852	79.995	19.995	100.177	20.033	15.187	0.506
434.500	289.062	79.995	19.996	100.171	20.030	15.537	0.497
435.000	289.303	79.996	19.995	100.164	20.028	15.702	0.460
435.501	289.556	79.995	19.995	100.164	20.026	15.950	0.472
436.000	289.805	79.994	19.994	100.172	20.028	15.752	0.498
436.500	290.055	79.995	19.994	100.179	20.023	16.204	0.501
437.000	290.319	79.994	19.995	100.187	20.019	16.609	0.507
437.500	290.573	79.995	19.995	100.194	20.018	16.680	0.516
438.000	290.835	79.997	19.996	100.193	20.019	16.611	0.516
438.500	291.083	79.993	19.996	100.187	20.017	16.859	0.513
439.000	291.326	79.997	19.995	100.184	20.015	17.008	0.500
439.500	291.579	79.994	19.995	100.182	20.012	17.322	0.494
440.000	291.816	79.996	19.997	100.183	20.012	17.270	0.493
440.500	292.070	79.994	19.996	100.188	20.008	17.689	0.491
441.000	292.321	79.996	19.995	100.194	20.008	17.726	0.498
441.500	292.537	79.994	19.996	100.197	20.011	17.398	0.486
442.000	292.842	79.997	19.995	100.199	20.004	18.085	0.494
442.500	293.051	79.995	19.995	100.198	20.005	17.986	0.518
443.000	293.310	79.996	19.996	100.198	20.004	18.079	0.491
443.501	293.551	79.995	19.996	100.199	20.000	18.531	0.484
444.001	293.827	79.995	19.996	100.199	19.997	18.839	0.508
444.500	294.052	79.997	19.997	100.199	19.997	18.869	0.508
445.000	294.339	79.996	19.995	100.199	19.993	19.210	0.506
445.500	294.545	79.997	19.995	100.199	19.996	18.938	0.503
446.000	294.764	79.995	19.996	100.198	19.996	18.938	0.459
446.501	295.041	79.994	19.996	100.200	19.988	19.727	0.460
447.001	295.275	79.996	19.995	100.202	19.985	20.023	0.503
447.500	295.491	79.995	19.996	100.202	19.988	19.746	0.481
448.000	295.740	79.996	19.996	100.203	19.982	20.378	0.458
448.500	296.012	79.997	19.995	100.202	19.979	20.612	0.493
449.000	296.276	79.996	19.995	100.200	19.978	20.763	0.528
449.500	296.527	79.995	19.995	100.199	19.978	20.763	0.525
450.000	296.761	79.995	19.995	100.200	19.976	20.940	0.500
450.500	296.971	79.994	19.996	100.200	19.972	21.345	0.465
451.000	297.234	79.995	19.996	100.203	19.971	21.474	0.459
451.500	297.470	79.994	19.993	100.208	19.968	21.785	0.485
452.000	297.744	79.996	19.996	100.212	19.967	21.895	0.504
452.500	297.978	79.996	19.995	100.214	19.967	21.857	0.509
453.000	298.250	79.997	19.995	100.220	19.962	22.339	0.507
453.500	298.489	79.995	19.995	100.219	19.959	22.636	0.508
454.000	298.741	79.996	19.996	100.217	19.957	22.887	0.501
454.500	298.975	79.995	19.996	100.216	19.955	23.036	0.489
455.000	299.229	79.997	19.996	100.216	19.954	23.138	0.487
455.500	299.491	79.996	19.996	100.211	19.952	23.389	0.502
456.001	299.723	79.995	19.996	100.210	19.947	23.905	0.505
456.500	299.944	79.995	19.995	100.212	19.944	24.144	0.473
457.000	300.190	79.996	19.995	100.217	19.943	24.230	0.460
457.500	300.449	79.998	19.995	100.220	19.941	24.439	0.487
458.000	300.706	79.994	19.995	100.226	19.939	24.650	0.511
458.500	300.947	79.996	19.995	100.233	19.932	25.333	0.507
459.000	301.233	79.995	19.994	100.237	19.933	25.290	0.512
459.500	301.463	79.997	19.995	100.237	19.928	25.765	0.521
460.000	301.691	79.998	19.996	100.238	19.930	25.627	0.487
460.500	301.942	79.995	19.995	100.238	19.927	25.840	0.469
461.000	302.163	79.994	19.996	100.237	19.922	26.353	0.476
461.500	302.417	79.997	19.997	100.237	19.924	26.160	0.473
462.000	302.688	79.996	19.996	100.237	19.920	26.601	0.500
462.500	302.902	79.998	19.995	100.237	19.914	27.185	0.505
463.000	303.175	79.996	19.995	100.237	19.910	27.565	0.486
463.500	303.418	79.997	19.996	100.236	19.906	27.959	0.502
464.000	303.667	79.997	19.995	100.236	19.903	28.342	0.504
464.500	303.936	79.998	19.995	100.236	19.900	28.610	0.505
465.000	304.136	79.996	19.995	100.237	19.899	28.720	0.493
465.500	304.438	79.998	19.996	100.237	19.894	29.169	0.486
466.001	304.654	79.996	19.996	100.237	19.889	29.700	0.510
466.500	304.879	79.998	19.997	100.238	19.884	30.205	0.479
467.000	305.130	79.997	19.996	100.244	19.883	30.316	0.459
467.500	305.377	79.997	19.996	100.251	19.880	30.583	0.487
468.000	305.643	79.997	19.996	100.255	19.876	31.030	0.505
468.500	305.872	79.999	19.996	100.263	19.872	31.424	0.504
469.000	306.172	79.994	19.995	100.268	19.869	31.688	0.513
469.500	306.397	79.996	19.996	100.269	19.867	31.976	0.527
470.000	306.716	79.996	19.993	100.271	19.861	32.530	0.534
470.500	306.912	79.996	19.996	100.275	19.860	32.651	0.530
471.000	307.174	79.997	19.997	100.275	19.851	33.548	0.487
471.500	307.417	79.997	19.996	100.277	19.849	33.780	0.481
472.000	307.657	79.996	19.996	100.278	19.842	34.420	0.494
472.500	307.888	79.997	19.996	100.278	19.840	34.661	0.477
473.000	308.152	79.995	19.996	100.278	19.834	35.232	0.483
473.500	308.428	79.997	19.996	100.278	19.831	35.555	0.517
474.000	308.649	79.996	19.995	100.278	19.825	36.131	0.519
474.500	308.928	79.993	19.997	100.278	19.819	36.803	0.498
475.000	309.161	79.997	19.996	100.278	19.818	36.852	0.506
475.500	309.421	79.997	19.997	100.279	19.814	37.265	0.503
476.000	309.681	79.992	19.996	100.278	19.809	37.734	0.507
476.500	309.914	79.996	19.996	100.279	19.801	38.600	0.507
477.001	310.160	79.996	19.996	100.283	19.801	38.617	0.486
477.500	310.417	79.996	19.996	100.286	19.797	38.956	0.491
478.000	310.665	79.997	19.995	100.287	19.792	39.538	0.504
478.500	310.880	79.996	19.995	100.288	19.788	39.894	0.484
479.000	311.152	79.997	19.996	100.288	19.782	40.486	0.475
479.500	311.381	79.995	19.995	100.289	19.781	40.568	0.493
480.000	311.642	79.998	19.995	100.294	19.776	41.106	0.496
480.500	311.886	79.996	19.995	100.300	19.770	41.757	0.498
481.000	312.175	79.998	19.996	100.307	19.762	42.507	0.519
481.501	312.420	79.997	19.995	100.315	19.761	42.635	0.534
482.001	312.721	79.997	19.995	100.318	19.756	43.149	0.540
482.500	312.950	79.997	19.994	100.319	19.751	43.639	0.538
483.000	313.191	79.996	19.994	100.321	19.744	44.281	0.500
483.500	313.431	79.998	19.995	100.322	19.738	44.934	0.475
484.000	313.688	79.996	19.995	100.324	19.735	45.212	0.489
484.500	313.951	79.995	19.995	100.324	19.728	45.932	0.509
485.000	314.176	79.996	19.994	100.324	19.725	46.239	0.504
485.500	314.475	79.998	19.994	100.330	19.718	46.937	0.506
486.000	314.682	79.997	19.994	100.336	19.709	47.806	0.515
486.500	314.916	79.997	19.995	100.341	19.707	48.033	0.474
487.000	315.193	79.997	19.995	100.348	19.697	49.028	0.476
487.500	315.403	79.998	19.995	100.356	19.697	49.102	0.499
488.000	315.668	79.996	19.994	100.357	19.691	49.676	0.481
488.500	315.944	79.998	19.994	100.358	19.682	50.620	0.507
489.000	316.166	79.999	19.994	100.358	19.676	51.201	0.519
489.500	316.444	80.000	19.994	100.358	19.670	51.782	0.499
490.000	316.682	79.996	19.993	100.356	19.670	51.784	0.508
490.500	316.934	79.998	19.993	100.354	19.659	52.863	0.503
491.000	317.162	79.998	19.993	100.354	19.653	53.498	0.485
491.500	317.455	80.000	19.994	100.355	19.649	53.956	0.501
492.000	317.690	80.000	19.995	100.354	19.643	54.537	0.524
492.501	317.980	79.997	19.993	100.356	19.637	55.087	0.526
493.001	318.203	79.997	19.994	100.357	19.628	55.984	0.519
493.500	318.474	79.999	19.995	100.356	19.626	56.217	0.504
494.000	318.712	79.999	19.996	100.355	19.619	56.955	0.501
494.500	318.971	79.998	19.995	100.354	19.620	56.847	0.503
495.000	319.182	79.998	19.995	100.351	19.613	57.501	0.483
495.500	319.459	79.999	19.994	100.353	19.607	58.129	0.479
496.000	319.704	79.997	19.995	100.355	19.606	58.202	0.505
496.500	319.973	79.997	19.994	100.355	19.597	59.185	0.518
497.000	320.241	79.999	19.995	100.355	19.590	59.836	0.525
497.500	320.454	80.000	19.996	100.358	19.589	59.927	0.509
498.000	320.730	79.997	19.995	100.356	19.584	60.466	0.485
498.500	320.948	79.997	19.995	100.355	19.581	60.751	0.492
499.000	321.202	79.997	19.995	100.356	19.573	61.551	0.483
499.500	321.469	79.995	19.995	100.357	19.567	62.148	0.496
500.000	321.746	79.997	19.994	100.360	19.561	62.726	0.532
500.501	321.969	79.994	19.994	100.364	19.560	62.910	0.522
501.001	322.236	79.997	19.994	100.368	19.556	63.259	0.495
501.500	322.452	79.995	19.995	100.373	19.548	64.092	0.486
502.000	322.711	79.995	19.996	100.380	19.543	64.581	0.478
502.500	322.945	79.995	19.994	100.385	19.540	64.846	0.484
503.000	323.174	79.994	19.994	100.388	19.534	65.491	0.478
503.500	323.430	79.992	19.994	100.390	19.530	65.885	0.474
504.000	323.701	79.995	19.996	100.390	19.526	66.272	0.506
504.500	323.935	79.995	19.996	100.387	19.521	66.810	0.516
505.001	324.203	79.995	19.995	100.385	19.522	66.696	0.503
505.500	324.424	79.994	19.995	100.384	19.514	67.545	0.495
506.000	324.676	79.998	19.995	100.385	19.506	68.317	0.481
506.500	324.909	79.995	19.996	100.383	19.505	68.393	0.479
507.000	325.163	79.996	19.995	100.380	19.499	69.004	0.486
507.500	325.395	79.995	19.994	100.377	19.497	69.174	0.486
508.000	325.709	79.996	19.995	100.377	19.493	69.657	0.516
508.500	325.900	79.995	19.995	100.376	19.491	69.826	0.525
509.000	326.180	79.995	19.995	100.379	19.485	70.454	0.488
509.500	326.393	79.997	19.994	100.385	19.480	70.927	0.482
510.000	326.623	79.997	19.994	100.389	19.475	71.388	0.468
510.500	326.923	79.996	19.994	100.390	19.472	71.669	0.486
511.000	327.177	79.995	19.994	100.388	19.469	72.061	0.542
511.500	327.443	79.996	19.995	100.383	19.463	72.620	0.538
512.000	327.675	79.996	19.995	100.381	19.463	72.661	0.509
512.500	327.948	79.998	19.996	100.381	19.461	72.861	0.501
513.000	328.206	79.998	19.997	100.382	19.455	73.415	0.518
513.500	328.435	79.995	19.995	100.386	19.453	73.667	0.509
514.000	328.701	79.996	19.993	100.394	19.449	74.045	0.491
514.500	328.954	79.999	19.995	100.396	19.444	74.543	0.507
515.000	329.220	79.996	19.995	100.397	19.436	75.282	0.519
515.500	329.464	79.996	19.994	100.398	19.438	75.104	0.514
516.000	329.720	79.998	19.994	100.397	19.436	75.308	0.505
516.500	329.970	79.997	19.995	100.391	19.433	75.630	0.503
517.000	330.243	79.996	19.995	100.390	19.426	76.335	0.514
517.500	330.457	79.997	19.995	100.389	19.427	76.278	0.505
518.001	330.756	79.996	19.995	100.387	19.423	76.594	0.500
518.501	330.966	79.997	19.994	100.381	19.419	77.026	0.511
519.000	331.229	79.997	19.996	100.377	19.424	76.539	0.490
519.500	331.480	79.998	19.995	100.374	19.411	77.816	0.493
520.000	331.761	79.996	19.995	100.368	19.408	78.153	0.523
520.500	332.051	79.996	19.995	100.363	19.410	77.901	0.551
521.000	332.293	79.995	19.995	100.360	19.407	78.202	0.551
521.501	332.546	79.996	19.996	100.359	19.404	78.525	0.514
522.000	332.770	79.996	19.995	100.356	19.409	78.044	0.486
522.500	333.031	79.996	19.996	100.354	19.409	78.065	0.480
523.000	333.236	79.998	19.995	100.354	19.403	78.680	0.475
523.500	333.538	79.996	19.995	100.355	19.410	77.946	0.487
524.000	333.732	79.996	19.996	100.356	19.403	78.596	0.501
524.500	334.058	79.997	19.995	100.356	19.403	78.586	0.508
525.000	334.252	79.997	19.995	100.357	19.401	78.877	0.520
525.500	334.559	79.996	19.995	100.352	19.401	78.806	0.510
526.000	334.815	79.993	19.995	100.348	19.405	78.441	0.532
526.500	335.046	79.996	19.995	100.346	19.399	79.023	0.525
527.000	335.248	79.997	19.996	100.342	19.400	78.907	0.460
527.500	335.556	79.996	19.996	100.341	19.398	79.098	0.471
528.001	335.769	79.995	19.995	100.343	19.401	78.765	0.515
528.500	336.059	79.995	19.995	100.345	19.404	78.517	0.512
529.000	336.265	79.997	19.996	100.347	19.401	78.780	0.500
529.500	336.579	79.997	19.995	100.349	19.400	78.898	0.508
530.000	336.850	79.997	19.996	100.346	19.405	78.349	0.552
530.500	337.049	79.995	19.995	100.344	19.402	78.702	0.527
531.001	337.244	79.994	19.995	100.344	19.404	78.470	0.432
531.501	337.487	79.994	19.996	100.343	19.407	78.145	0.416
532.000	337.850	79.996	19.996	100.340	19.407	78.153	0.522
532.500	338.053	79.995	19.996	100.336	19.411	77.777	0.586
533.000	338.288	79.996	19.995	100.335	19.408	78.116	0.502
533.500	338.275	79.994	19.995	100.330	19.409	77.927	0.330
534.000	338.632	79.993	19.996	100.324	19.412	77.663	0.283
534.500	338.873	79.996	19.997	100.322	19.417	77.201	0.471
535.000	339.016	79.997	19.995	100.322	19.420	76.851	0.492
535.500	339.255	79.994	19.995	100.319	19.422	76.685	0.383
536.000	339.635	79.995	19.996	100.314	19.426	76.298	0.500
536.500	340.261	79.995	19.996	100.308	19.428	76.038	0.812
537.000	340.153	79.996	19.995	100.300	19.433	75.517	0.762
537.500	340.723	79.995	19.995	100.290	19.436	75.249	0.490
538.000	340.737	79.994	19.995	100.279	19.443	74.571	0.523
538.500	341.200	79.996	19.996	100.269	19.448	74.039	0.531
539.000	341.112	79.997	19.996	100.260	19.455	73.384	0.426
539.500	341.716	79.996	19.996	100.253	19.456	73.199	0.445
540.000	341.845	79.997	19.996	100.247	19.461	72.744	0.624
540.500	342.085	79.995	19.996	100.247	19.471	71.777	0.551
541.000	342.287	79.995	19.994	100.246	19.474	71.411	0.406
541.500	342.581	79.996	19.995	100.246	19.480	70.777	0.469
542.000	342.846	79.995	19.995	100.245	19.481	70.774	0.527
542.500	343.074	79.997	19.994	100.245	19.488	70.069	0.527
543.000	343.379	79.997	19.995	100.245	19.495	69.339	0.513
543.500	343.559	79.996	19.995	100.247	19.497	69.091	0.509
544.000	343.863	79.998	19.996	100.251	19.501	68.683	0.484
544.500	344.050	79.999	19.996	100.255	19.507	68.121	0.487
545.000	344.349	79.996	19.995	100.259	19.512	67.628	0.488
545.500	344.630	79.998	19.995	100.257	19.514	67.371	0.533
546.000	344.900	79.998	19.995	100.257	19.519	66.861	0.566
546.500	345.050	79.998	19.994	100.260	19.522	66.559	0.486
547.000	345.378	79.997	19.995	100.262	19.529	65.911	0.449
547.500	345.624	79.997	19.995	100.258	19.534	65.341	0.526
548.000	345.928	79.995	19.995	100.257	19.536	65.128	0.562
548.500	346.171	79.998	19.995	100.255	19.541	64.644	0.549
549.000	346.362	79.997	19.995	100.249	19.544	64.316	0.491
549.500	346.670	79.997	19.994	100.241	19.548	63.926	0.467
550.000	346.895	79.996	19.997	100.241	19.557	63.060	0.516
550.500	347.178	79.996	19.995	100.241	19.558	62.914	0.520
551.000	347.414	79.995	19.995	100.240	19.566	62.154	0.513
551.500	347.642	79.994	19.996	100.240	19.569	61.812	0.491
552.000	347.912	79.996	19.995	100.241	19.575	61.215	0.481
552.500	348.180	79.995	19.993	100.240	19.578	60.883	0.518
553.000	348.400	79.996	19.997	100.240	19.582	60.500	0.513
553.500	348.672	79.997	19.999	100.240	19.585	60.252	0.490
554.000	348.983	79.996	19.997	100.241	19.591	59.644	0.537
554.500	349.208	79.997	19.996	100.240	19.597	59.056	0.560
555.000	349.485	79.994	19.996	100.236	19.603	58.433	0.519
555.500	349.722	79.997	19.996	100.227	19.607	58.036	0.508
556.000	349.979	79.997	19.995	100.219	19.614	57.293	0.504
556.500	350.228	79.996	19.995	100.211	19.621	56.610	0.500
557.001	350.502	79.997	19.996	100.202	19.628	55.925	0.515
557.500	350.730	79.996	19.995	100.194	19.632	55.454	0.513
558.000	350.961	79.996	19.995	100.189	19.634	55.330	0.480
558.500	351.269	79.996	19.996	100.181	19.644	54.280	0.498
559.000	351.498	79.995	19.996	100.174	19.645	54.159	0.538
559.500	351.764	79.996	19.996	100.167	19.650	53.698	0.516
560.000	352.040	79.995	19.997	100.166	19.657	52.996	0.519
560.500	352.305	79.999	19.996	100.163	19.665	52.166	0.542
561.000	352.539	79.996	19.996	100.166	19.666	52.088	0.520
561.501	352.810	79.997	19.996	100.169	19.677	51.001	0.502
562.000	353.042	79.997	19.996	100.169	19.685	50.140	0.504
562.500	353.355	79.998	19.996	100.173	19.685	50.196	0.524
563.000	353.557	79.999	19.996	100.177	19.693	49.357	0.530
563.500	353.872	79.997	19.995	100.176	19.704	48.295	0.516
564.000	354.106	79.998	19.996	100.171	19.704	48.253	0.533
564.500	354.379	79.997	19.996	100.170	19.710	47.658	0.528
565.001	354.589	79.999	19.996	100.165	19.717	46.917	0.495
565.500	354.880	79.998	19.995	100.159	19.724	46.267	0.492
566.000	355.109	79.997	19.995	100.157	19.729	45.721	0.511
566.500	355.398	79.997	19.995	100.157	19.735	45.159	0.519
567.000	355.626	79.998	19.995	100.156	19.742	44.403	0.518
567.500	355.894	80.000	19.995	100.155	19.746	44.028	0.507
568.000	356.124	79.999	19.996	100.155	19.755	43.151	0.497
568.500	356.424	80.000	19.995	100.155	19.762	42.392	0.514
569.000	356.661	80.000	19.995	100.155	19.766	42.052	0.533
569.500	356.898	79.998	19.995	100.153	19.769	41.730	0.505
570.000	357.203	80.000	19.995	100.153	19.778	40.759	0.508
570.500	357.479	79.999	19.995	100.151	19.786	39.966	0.562
571.000	357.731	80.000	19.995	100.150	19.788	39.795	0.554
571.500	357.953	79.999	19.994	100.147	19.795	39.141	0.501
572.000	358.247	79.999	19.995	100.146	19.802	38.348	0.495
572.500	358.479	79.998	19.995	100.141	19.806	37.952	0.521
573.000	358.725	79.997	19.995	100.137	19.817	36.939	0.502
573.500	358.990	80.000	19.994	100.132	19.818	36.807	0.494
574.000	359.238	79.999	19.994	100.129	19.824	36.232	0.512
574.500	359.491	79.999	19.994	100.128	19.831	35.474	0.507
575.000	359.748	79.998	19.994	100.126	19.835	35.088	0.506
575.500	360.006	79.998	19.994	100.125	19.841	34.497	0.513
576.000	360.299	79.998	19.994	100.124	19.844	34.177	0.533
576.500	360.506	79.997	19.996	100.123	19.849	33.670	0.525
577.001	360.779	79.999	19.995	100.119	19.856	32.974	0.490
577.501	361.028	79.998	19.995	100.119	19.857	32.821	0.500
578.000	361.299	79.999	19.994	100.119	19.864	32.139	0.521
578.500	361.565	79.997	19.994	100.119	19.871	31.495	0.529
579.000	361.781	79.997	19.996	100.119	19.875	31.052	0.510
579.500	362.073	79.997	19.996	100.115	19.879	30.648	0.495
580.000	362.249	79.997	19.996	100.112	19.885	30.027	0.488
580.500	362.587	79.997	19.995	100.111	19.892	29.394	0.491
581.000	362.849	79.995	19.995	100.110	19.897	28.885	0.557
581.500	363.076	79.996	19.995	100.110	19.902	28.376	0.544
582.000	363.310	79.995	19.995	100.114	19.906	27.913	0.475
582.500	363.566	79.996	19.997	100.116	19.910	27.495	0.475
583.000	363.842	79.996	19.995	100.117	19.915	27.016	0.511
583.500	364.099	79.997	19.994	100.117	19.923	26.197	0.532
584.000	364.325	79.995	19.995	100.116	19.925	26.045	0.508
584.500	364.612	79.996	19.995	100.115	19.932	25.377	0.498
585.000	364.875	79.996	19.995	100.110	19.939	24.667	0.532
585.500	365.143	79.996	19.995	100.105	19.941	24.400	0.541
586.000	365.336	79.998	19.996	100.103	19.948	23.680	0.496
586.500	365.628	79.997	19.995	100.104	19.953	23.226	0.473
587.000	365.878	79.996	19.996	100.100	19.958	22.703	0.514
587.500	366.114	79.997	19.995	100.099	19.958	22.687	0.514
588.000	366.396	79.995	19.995	100.098	19.964	22.118	0.501
588.500	366.645	79.994	19.995	100.094	19.969	21.631	0.524
589.000	366.876	79.995	19.994	100.087	19.972	21.306	0.506
589.500	367.163	79.996	19.994	100.084	19.979	20.630	0.499
590.000	367.415	79.996	19.995	100.084	19.982	20.308	0.529
590.500	367.682	79.995	19.996	100.086	19.992	19.351	0.530
591.000	367.894	79.995	19.995	100.086	19.991	19.373	0.499
591.500	368.179	79.998	19.996	100.086	19.990	19.472	0.488
592.000	368.419	79.997	19.995	100.087	20.001	18.432	0.511
592.500	368.689	79.995	19.995	100.087	20.003	18.154	0.518
593.000	368.953	79.996	19.994	100.083	20.005	18.036	0.522
593.500	369.212	79.994	19.994	100.082	20.006	17.920	0.529
594.000	369.498	79.996	19.995	100.082	20.017	16.782	0.534
594.500	369.705	79.996	19.995	100.083	20.020	16.520	0.519
595.000	369.999	79.996	19.995	100.083	20.021	16.361	0.497
595.500	370.209	79.995	19.994	100.083	20.021	16.375	0.503
596.000	370.487	79.998	19.996	100.082	20.024	16.061	0.496
596.500	370.722	79.997	19.995	100.081	20.032	15.269	0.501
597.000	370.990	79.996	19.995	100.081	20.033	15.145	0.508
597.500	371.304	79.998	19.995	100.082	20.037	14.826	0.542
598.000	371.537	79.998	19.995	100.082	20.042	14.333	0.564
598.500	371.776	79.998	19.995	100.083	20.043	14.169	0.510
599.000	372.045	79.997	19.995	100.083	20.041	14.380	0.490
599.500	372.326	79.997	19.995	100.084	20.048	13.731	0.529
600.000	372.596	79.996	19.995	100.084	20.047	13.819	0.550
600.500	372.825	79.995	19.995	100.085	20.054	13.038	0.525
601.000	373.119	79.998	19.995	100.085	20.055	12.934	0.511
601.500	373.368	79.996	19.994	100.085	20.059	12.546	0.534
602.000	373.611	79.998	19.994	100.085	20.065	11.941	0.518
602.500	373.884	79.997	19.995	100.085	20.064	12.048	0.504
603.000	374.179	79.995	19.994	100.085	20.068	11.718	0.541
603.500	374.396	79.996	19.994	100.084	20.075	10.950	0.540
604.001	374.694	79.997	19.994	100.083	20.076	10.898	0.513
604.501	374.944	79.998	19.995	100.084	20.074	11.107	0.532
605.000	375.228	79.998	19.995	100.084	20.073	11.151	0.542
605.500	375.433	79.997	19.995	100.083	20.083	10.133	0.512
606.000	375.702	79.997	19.995	100.084	20.085	10.001	0.481
606.500	375.963	79.998	19.996	100.084	20.082	10.281	0.501
607.000	376.248	79.996	19.995	100.084	20.085	9.953	0.538
607.500	376.468	79.995	19.994	100.084	20.088	9.667	0.526
608.000	376.769	79.998	19.994	100.083	20.085	9.992	0.513
608.500	376.996	79.998	19.995	100.083	20.087	9.761	0.525
609.000	377.276	79.995	19.995	100.083	20.090	9.464	0.518
609.500	377.545	79.996	19.994	100.084	20.095	9.003	0.528
610.000	377.785	79.997	19.995	100.084	20.094	9.017	0.529
610.500	378.090	79.996	19.996	100.085	20.097	8.796	0.527
611.000	378.323	79.995	19.994	100.085	20.097	8.739	0.542
611.500	378.554	79.993	19.995	100.086	20.096	8.824	0.501
612.000	378.824	79.994	19.994	100.088	20.097	8.741	0.483
612.500	379.080	79.996	19.995	100.088	20.092	9.253	0.514
613.000	379.344	79.995	19.995	100.089	20.100	8.464	0.523
613.500	379.598	79.994	19.994	100.087	20.103	8.128	0.519
614.000	379.833	79.995	19.995	100.087	20.100	8.425	0.503
614.500	380.088	79.994	19.995	100.083	20.104	8.037	0.490
615.000	380.376	79.996	19.995	100.081	20.106	7.877	0.517
615.500	380.617	79.994	19.995	100.080	20.103	8.210	0.536
616.001	380.903	79.998	19.996	100.081	20.105	7.927	0.528
616.500	381.165	79.994	19.995	100.080	20.103	8.188	0.538
617.000	381.441	79.996	19.996	100.079	20.104	8.051	0.543
617.500	381.681	79.994	19.995	100.075	20.109	7.586	0.527
618.000	381.922	79.995	19.996	100.070	20.109	7.522	0.499
618.500	382.203	79.995	19.995	100.070	20.110	7.432	0.502
619.001	382.446	79.995	19.995	100.072	20.112	7.291	0.523
619.501	382.698	79.996	19.996	100.073	20.113	7.126	0.509
620.001	382.962	79.996	19.996	100.078	20.113	7.157	0.505
620.500	383.214	79.995	19.996	100.084	20.115	6.992	0.516
621.000	383.447	79.996	19.995	100.083	20.109	7.602	0.500
621.500	383.729	79.998	19.997	100.083	20.110	7.473	0.500
622.000	383.969	79.996	19.995	100.084	20.116	6.887	0.518
622.500	384.223	79.998	19.995	100.084	20.114	7.022	0.508
623.000	384.515	79.998	19.996	100.083	20.112	7.239	0.520
623.500	384.747	79.999	19.996	100.084	20.115	6.975	0.536
624.000	385.035	79.997	19.996	100.083	20.114	7.108	0.522
624.500	385.242	79.998	19.995	100.082	20.113	7.150	0.507
625.000	385.493	79.999	19.996	100.082	20.111	7.315	0.476
625.500	385.701	79.998	19.996	100.081	20.116	6.814	0.458
626.000	386.028	79.999	19.995	100.080	20.112	7.309	0.497
626.500	386.227	79.997	19.994	100.080	20.116	6.891	0.531
627.000	386.510	79.999	19.996	100.080	20.113	7.147	0.504
627.500	386.710	79.998	19.996	100.080	20.115	6.954	0.483
628.000	387.020	79.999	19.994	100.079	20.114	7.064	0.497
628.500	387.293	79.998	19.995	100.079	20.115	6.965	0.546
629.000	387.523	79.997	19.995	100.076	20.116	6.864	0.543
629.500	387.810	79.998	19.995	100.075	20.116	6.905	0.511
630.000	388.082	79.996	19.994	100.075	20.114	7.053	0.538
630.500	388.334	79.997	19.993	100.075	20.117	6.726	0.541
631.000	388.567	79.996	19.994	100.076	20.113	7.144	0.504
631.500	388.848	79.998	19.994	100.078	20.116	6.899	0.499
632.000	389.070	79.998	19.995	100.080	20.114	7.052	0.508
632.500	389.346	79.996	19.995	100.079	20.118	6.647	0.500
633.000	389.590	79.998	19.995	100.079	20.119	6.569	0.509
633.501	389.839	79.997	19.995	100.080	20.118	6.616	0.507
634.001	390.108	79.995	19.995	100.081	20.118	6.621	0.506
634.500	390.381	79.997	19.996	100.081	20.118	6.687	0.530
635.000	390.620	79.996	19.995	100.088	20.115	6.957	0.527
635.500	390.867	79.997	19.994	100.095	20.119	6.509	0.499
636.000	391.101	79.997	19.995	100.098	20.117	6.724	0.484
636.500	391.380	79.998	19.996	100.097	20.118	6.614	0.497
637.000	391.634	79.996	19.994	100.097	20.113	7.140	0.523
637.500	391.880	79.997	19.996	100.094	20.118	6.606	0.516
638.000	392.133	79.997	19.997	100.095	20.122	6.238	0.500
638.500	392.390	79.998	19.995	100.094	20.122	6.233	0.504
639.000	392.629	79.997	19.994	100.095	20.121	6.379	0.503
639.500	392.896	79.997	19.996	100.097	20.115	6.959	0.501
640.000	393.139	79.998	19.996	100.096	20.119	6.510	0.508
640.500	393.400	79.997	19.996	100.092	20.114	7.028	0.507
641.000	393.670	79.997	19.995	100.092	20.115	6.926	0.518
641.500	393.953	79.998	19.997	100.091	20.119	6.546	0.542
642.000	394.193	79.998	19.996	100.090	20.117	6.747	0.538
642.500	394.459	79.996	19.995	100.086	20.113	7.193	0.514
643.000	394.680	79.998	19.996	100.075	20.117	6.747	0.496
643.500	394.949	79.996	19.996	100.064	20.115	6.942	0.488
644.000	395.152	79.997	19.996	100.057	20.118	6.675	0.481
644.500	395.436	79.996	19.996	100.050	20.112	7.286	0.480
645.000	395.743	79.998	19.997	100.048	20.114	7.041	0.539
645.500	395.949	79.999	19.997	100.047	20.115	6.983	0.552
646.000	396.236	79.997	19.996	100.051	20.115	6.950	0.503
646.500	396.472	80.000	19.997	100.058	20.116	6.830	0.508
647.000	396.763	79.998	19.997	100.060	20.113	7.149	0.525
647.500	396.977	79.998	19.996	100.061	20.113	7.166	0.516
648.000	397.256	79.998	19.997	100.068	20.115	6.932	0.499
648.500	397.502	79.998	19.997	100.072	20.113	7.144	0.509
649.000	397.730	79.998	19.995	100.073	20.117	6.720	0.500
649.500	397.992	79.998	19.996	100.080	20.112	7.221	0.482
650.000	398.269	79.998	19.995	100.083	20.115	6.934	0.514
650.500	398.446	79.998	19.996	100.082	20.119	6.535	0.496
651.000	398.733	79.999	19.995	100.079	20.115	6.970	0.459
651.500	398.990	80.000	19.996	100.079	20.118	6.621	0.504
652.000	399.272	80.000	19.997	100.076	20.117	6.714	0.541
652.500	399.522	80.000	19.996	100.076	20.118	6.688	0.535
653.000	399.770	79.999	19.995	100.079	20.119	6.515	0.515
653.500	400.010	79.998	19.996	100.081	20.118	6.641	0.493
654.000	400.241	80.001	19.996	100.080	20.119	6.541	0.480
654.500	400.463	79.999	19.994	100.081	20.121	6.338	0.462
655.000	400.703	79.999	19.996	100.079	20.123	6.179	0.457
655.500	400.947	79.999	19.995	100.077	20.120	6.501	0.473
656.000	401.227	80.000	19.994	100.077	20.118	6.636	0.504
656.500	401.465	79.996	19.995	100.077	20.120	6.410	0.521
657.000	401.737	79.998	19.995	100.075	20.117	6.740	0.514
657.500	401.957	79.999	19.996	100.080	20.119	6.518	0.501
658.000	402.208	79.997	19.995	100.089	20.121	6.400	0.481
658.500	402.495	79.996	19.995	100.093	20.118	6.639	0.504
659.000	402.759	79.996	19.994	100.096	20.123	6.180	0.545
659.500	403.006	79.996	19.994	100.097	20.120	6.491	0.532
660.000	403.261	79.997	19.995	100.094	20.124	6.059	0.507
660.500	403.459	79.996	19.995	100.087	20.120	6.493	0.477
661.000	403.725	79.997	19.995	100.083	20.120	6.485	0.458
661.500	403.966	79.997	19.995	100.079	20.123	6.177	0.485
662.000	404.207	79.996	19.994	100.080	20.121	6.400	0.494
662.500	404.484	79.997	19.996	100.080	20.120	6.464	0.500
663.000	404.729	79.997	19.995	100.074	20.116	6.882	0.520
663.500	404.995	79.996	19.995	100.067	20.120	6.412	0.517
664.000	405.239	79.996	19.995	100.061	20.117	6.736	0.511
664.500	405.474	79.996	19.995	100.053	20.114	7.033	0.494
665.000	405.765	79.996	19.994	100.046	20.120	6.501	0.503
665.500	405.981	79.995	19.994	100.047	20.119	6.550	0.517
666.000	406.247	79.997	19.995	100.049	20.116	6.822	0.494
666.500	406.531	79.996	19.994	100.054	20.117	6.756	0.516
667.000	406.749	79.995	19.994	100.062	20.115	6.926	0.526
667.500	407.020	79.994	19.993	100.063	20.116	6.875	0.495
668.000	407.265	79.997	19.995	100.061	20.120	6.411	0.502
668.500	407.540	79.996	19.995	100.066	20.119	6.574	0.518
669.000	407.771	79.997	19.995	100.065	20.115	6.993	0.513
669.500	408.018	79.996	19.995	100.069	20.115	6.989	0.492
670.000	408.264	79.996	19.994	100.076	20.118	6.656	0.486
670.500	408.536	79.996	19.995	100.078	20.114	7.099	0.506
671.000	408.801	79.997	19.994	100.070	20.112	7.245	0.527
671.500	409.047	79.995	19.994	100.066	20.116	6.814	0.524
672.000	409.281	79.997	19.994	100.063	20.116	6.864	0.496
672.500	409.492	79.996	19.994	100.063	20.116	6.898	0.463
673.000	409.798	79.996	19.995	100.070	20.117	6.774	0.481
673.500	410.041	79.996	19.995	100.080	20.115	6.930	0.533
674.000	410.320	79.996	19.995	100.087	20.114	7.083	0.535
674.500	410.537	79.996	19.994	100.088	20.117	6.734	0.509
675.000	410.811	79.996	19.994	100.083	20.114	7.080	0.494
675.500	411.034	79.996	19.995	100.073	20.119	6.548	0.494
676.000	411.310	79.996	19.994	100.063	20.119	6.559	0.498
676.500	411.587	79.997	19.994	100.055	20.117	6.729	0.526
677.000	411.824	79.996	19.995	100.048	20.118	6.632	0.533
677.500	412.031	79.997	19.995	100.045	20.120	6.407	0.479
678.000	412.310	79.995	19.995	100.046	20.116	6.838	0.465
678.500	412.559	79.996	19.995	100.056	20.117	6.783	0.507
679.000	412.839	79.997	19.995	100.071	20.117	6.739	0.529
679.500	413.072	79.996	19.995	100.087	20.118	6.651	0.521
680.000	413.332	79.996	19.994	100.099	20.116	6.857	0.503
680.500	413.569	79.997	19.995	100.111	20.121	6.387	0.494
681.000	413.821	79.995	19.994	100.118	20.116	6.841	0.493
681.500	414.079	79.995	19.995	100.121	20.120	6.481	0.500
682.000	414.336	79.997	19.995	100.126	20.118	6.699	0.512
682.500	414.575	79.996	19.994	100.137	20.119	6.543	0.505
683.000	414.794	79.996	19.994	100.146	20.119	6.576	0.478
683.500	415.089	79.997	19.996	100.152	20.120	6.502	0.486
684.000	415.309	79.996	19.995	100.147	20.123	6.169	0.514
684.500	415.574	79.997	19.994	100.134	20.113	7.131	0.500
685.000	415.809	79.996	19.994	100.118	20.118	6.608	0.492
685.500	416.062	79.996	19.995	100.097	20.120	6.492	0.494
686.000	416.325	79.997	19.995	100.077	20.117	6.747	0.502
686.501	416.577	79.994	19.993	100.070	20.117	6.780	0.516
687.001	416.864	79.997	19.995	100.063	20.117	6.755	0.527
687.500	417.137	79.998	19.994	100.051	20.121	6.321	0.549
688.000	417.359	79.994	19.994	100.049	20.122	6.299	0.527
688.500	417.605	79.997	19.995	100.050	20.118	6.678	0.481
689.000	417.894	79.996	19.994	100.043	20.120	6.461	0.502
689.500	418.145	79.996	19.995	100.041	20.119	6.517	0.538
690.000	418.409	79.998	19.995	100.045	20.116	6.880	0.528
690.500	418.649	79.995	19.994	100.041	20.118	6.677	0.509
691.000	418.890	79.996	19.995	100.036	20.117	6.801	0.493
691.500	419.144	79.997	19.996	100.036	20.112	7.233	0.488
692.000	419.369	79.996	19.994	100.041	20.118	6.667	0.487
692.500	419.634	79.996	19.994	100.046	20.121	6.370	0.484
693.000	419.871	79.996	19.994	100.058	20.118	6.606	0.496
693.500	420.124	79.995	19.994	100.067	20.119	6.510	0.496
694.000	420.412	79.996	19.994	100.074	20.116	6.835	0.516
694.500	420.690	79.996	19.994	100.071	20.115	6.979	0.554
695.000	420.930	79.996	19.995	100.067	20.115	6.987	0.542
695.500	421.169	79.996	19.995	100.059	20.112	7.298	0.498
696.000	421.432	79.995	19.996	100.050	20.115	6.962	0.490
696.500	421.690	79.998	19.995	100.042	20.117	6.723	0.511
697.000	421.924	79.997	19.995	100.040	20.116	6.876	0.506
697.500	422.180	79.996	19.994	100.039	20.114	7.035	0.491
698.000	422.441	79.995	19.995	100.040	20.115	6.928	0.504
698.500	422.654	79.997	19.995	100.040	20.116	6.867	0.495
699.000	422.940	79.997	19.994	100.039	20.113	7.205	0.486
699.500	423.207	79.997	19.994	100.038	20.113	7.191	0.526
700.000	423.463	79.996	19.995	100.042	20.113	7.141	0.538
700.500	423.708	79.995	19.994	100.049	20.119	6.555	0.512
701.000	424.009	79.998	19.996	100.056	20.118	6.635	0.523
701.500	424.236	79.998	19.995	100.062	20.118	6.668	0.537
702.000	424.488	79.998	19.996	100.067	20.118	6.619	0.504
702.500	424.738	79.998	19.995	100.070	20.118	6.638	0.491
703.000	424.999	79.998	19.997	100.070	20.117	6.715	0.507
703.500	425.258	79.997	19.995	100.071	20.119	6.558	0.515
704.000	425.532	79.998	19.995	100.075	20.117	6.717	0.526
704.500	425.790	79.996	19.995	100.078	20.121	6.335	0.532
705.000	426.012	79.998	19.995	100.084	20.121	6.362	0.506
705.500	426.298	79.998	19.995	100.090	20.119	6.591	0.494
706.000	426.534	79.998	19.996	100.089	20.119	6.547	0.515
706.500	426.782	79.997	19.995	100.089	20.120	6.456	0.503
707.000	427.086	79.999	19.995	100.089	20.121	6.385	0.519
707.500	427.306	79.997	19.995	100.083	20.118	6.605	0.538
708.000	427.528	79.997	19.995	100.073	20.118	6.649	0.483
708.500	427.820	79.997	19.995	100.070	20.118	6.674	0.478
709.000	428.067	79.998	19.996	100.070	20.120	6.493	0.527
709.500	428.332	79.998	19.995	100.066	20.119	6.571	0.525
710.000	428.558	79.998	19.995	100.059	20.121	6.329	0.501
710.500	428.833	79.999	19.997	100.056	20.120	6.450	0.496
711.000	429.079	79.997	19.996	100.050	20.121	6.370	0.511
711.500	429.340	79.996	19.995	100.048	20.119	6.557	0.514
712.000	429.575	79.997	19.995	100.045	20.120	6.435	0.502
712.500	429.863	79.997	19.995	100.049	20.120	6.460	0.509
713.000	430.128	79.996	19.995	100.055	20.117	6.726	0.538
713.501	430.347	79.997	19.996	100.058	20.118	6.663	0.518
714.000	430.614	79.996	19.995	100.053	20.118	6.699	0.485
714.500	430.855	79.999	19.995	100.053	20.118	6.612	0.497
715.000	431.106	79.995	19.995	100.048	20.118	6.637	0.499
715.500	431.369	79.997	19.995	100.044	20.117	6.741	0.503
716.000	431.636	79.997	19.995	100.042	20.117	6.727	0.523
716.500	431.888	79.996	19.996	100.043	20.115	6.908	0.525
717.000	432.135	79.996	19.996	100.043	20.115	6.957	0.509
717.500	432.404	79.998	19.996	100.045	20.119	6.575	0.508
718.000	432.677	79.997	19.995	100.045	20.122	6.228	0.529
718.500	432.912	79.996	19.995	100.046	20.119	6.574	0.525
719.000	433.138	79.997	19.996	100.052	20.118	6.700	0.484
719.500	433.456	79.995	19.996	100.060	20.121	6.364	0.502
720.000	433.693	79.996	19.995	100.068	20.117	6.765	0.550
720.500	433.939	79.997	19.996	100.075	20.125	5.951	0.519
721.000	434.228	79.996	19.994	100.082	20.123	6.179	0.509
721.500	434.486	79.997	19.994	100.083	20.122	6.223	0.541
722.000	434.717	79.997	19.995	100.079	20.125	5.924	0.518
722.500	435.005	79.995	19.996	100.072	20.121	6.336	0.504
723.000	435.248	79.997	19.995	100.066	20.114	7.014	0.525
723.500	435.482	79.996	19.995	100.060	20.119	6.542	0.504
724.000	435.777	79.996	19.995	100.056	20.116	6.853	0.503
724.500	436.012	79.997	19.994	100.060	20.121	6.323	0.529
725.000	436.297	79.997	19.995	100.067	20.118	6.695	0.525
725.500	436.561	79.997	19.995	100.073	20.119	6.535	0.534
726.001	436.795	79.997	19.995	100.077	20.121	6.321	0.523
726.501	437.051	79.998	19.995	100.074	20.119	6.522	0.494
727.000	437.305	79.999	19.994	100.067	20.118	6.657	0.500
727.500	437.552	79.997	19.995	100.061	20.117	6.786	0.505
728.000	437.797	79.999	19.996	100.055	20.112	7.275	0.496
728.500	438.059	79.998	19.995	100.050	20.112	7.288	0.500
729.000	438.328	79.997	19.994	100.048	20.113	7.117	0.519
729.500	438.576	79.999	19.996	100.047	20.116	6.901	0.524
730.000	438.850	79.997	19.995	100.038	20.113	7.152	0.520
730.500	439.040	79.998	19.995	100.028	20.112	7.278	0.493
731.000	439.298	79.998	19.994	100.019	20.116	6.846	0.456
731.500	439.569	79.997	19.995	100.014	20.116	6.882	0.489
732.000	439.832	79.998	19.996	100.009	20.115	6.978	0.531
732.500	440.083	79.997	19.996	100.012	20.117	6.732	0.523
733.000	440.312	79.998	19.996	100.016	20.117	6.761	0.497
733.500	440.566	79.998	19.996	100.025	20.115	6.987	0.481
734.000	440.852	79.995	19.994	100.038	20.118	6.615	0.512
734.500	441.109	79.997	19.996	100.050	20.117	6.709	0.542
735.000	441.360	79.997	19.996	100.062	20.117	6.746	0.525
735.500	441.614	79.998	19.995	100.074	20.116	6.841	0.506
736.000	441.859	79.997	19.995	100.081	20.120	6.443	0.502
736.500	442.056	79.996	19.995	100.080	20.122	6.275	0.471
737.000	442.307	79.997	19.995	100.086	20.121	6.325	0.445
737.500	442.571	79.994	19.995	100.089	20.123	6.185	0.481
738.000	442.821	79.994	19.995	100.089	20.120	6.463	0.514
738.500	443.069	79.995	19.995	100.082	20.117	6.724	0.506
739.000	443.324	79.995	19.995	100.079	20.116	6.825	0.501
739.500	443.591	79.994	19.996	100.066	20.118	6.630	0.512
740.000	443.829	79.994	19.996	100.054	20.120	6.479	0.514
740.500	444.079	79.995	19.996	100.046	20.118	6.699	0.497
741.000	444.325	79.995	19.995	100.045	20.117	6.723	0.492
741.500	444.567	79.994	19.996	100.041	20.119	6.588	0.492
742.000	444.781	79.993	19.996	100.042	20.118	6.659	0.472
742.500	445.049	79.995	19.996	100.043	20.117	6.772	0.469
743.000	445.335	79.995	19.996	100.046	20.119	6.527	0.518
743.500	445.569	79.995	19.995	100.060	20.118	6.618	0.537
744.000	445.820	79.995	19.995	100.080	20.122	6.274	0.502
744.500	446.070	79.995	19.995	100.088	20.121	6.399	0.494
745.000	446.340	79.995	19.995	100.087	20.118	6.699	0.510
745.500	446.582	79.996	19.995	100.085	20.116	6.851	0.516
746.000	446.810	79.996	19.995	100.072	20.121	6.340	0.491
746.500	447.064	79.995	19.995	100.052	20.118	6.659	0.476
747.000	447.341	79.995	19.995	100.049	20.118	6.639	0.506
747.500	447.581	79.996	19.995	100.059	20.120	6.466	0.524
748.000	447.845	79.996	19.995	100.066	20.121	6.314	0.511
748.501	448.067	79.995	19.994	100.068	20.121	6.319	0.495
749.001	448.356	79.996	19.995	100.068	20.122	6.211	0.499
749.500	448.594	79.996	19.995	100.065	20.120	6.412	0.519
750.000	448.868	79.997	19.996	100.060	20.122	6.296	0.519
750.500	449.116	79.995	19.996	100.054	20.125	5.969	0.517
751.000	449.340	79.997	19.994	100.054	20.125	5.950	0.497
751.500	449.632	79.995	19.995	100.058	20.124	6.068	0.494
752.000	449.878	79.997	19.995	100.055	20.124	6.019	0.526
752.500	450.107	79.995	19.995	100.049	20.125	5.939	0.506
753.000	450.312	79.996	19.995	100.045	20.125	5.972	0.455
753.500	450.619	79.995	19.995	100.043	20.122	6.302	0.474
754.000	450.837	79.995	19.995	100.038	20.122	6.294	0.519
754.500	451.097	79.997	19.995	100.037	20.121	6.319	0.501
755.000	451.327	79.997	19.996	100.041	20.124	6.044	0.484
755.500	451.626	79.996	19.995	100.050	20.124	6.025	0.509
756.000	451.887	79.995	19.995	100.058	20.127	5.756	0.545
756.500	452.105	79.996	19.994	100.067	20.125	5.930	0.520
757.001	452.360	79.996	19.995	100.074	20.125	5.971	0.476
757.501	452.629	79.996	19.995	100.077	20.122	6.276	0.498
758.000	452.894	79.996	19.995	100.073	20.120	6.435	0.529
758.500	453.149	79.997	19.995	100.068	20.125	5.931	0.527
759.000	453.365	79.996	19.995	100.059	20.123	6.172	0.496
759.500	453.623	79.998	19.995	100.051	20.122	6.231	0.473
760.000	453.878	79.997	19.995	100.046	20.122	6.234	0.494
760.500	454.138	79.997	19.995	100.040	20.124	6.012	0.514
761.000	454.410	79.997	19.995	100.037	20.127	5.798	0.524
761.500	454.641	79.996	19.995	100.037	20.124	6.089	0.517
762.000	454.921	79.996	19.994	100.037	20.125	5.935	0.507
762.500	455.166	79.997	19.995	100.038	20.123	6.184	0.518
763.000	455.458	79.996	19.995	100.040	20.123	6.192	0.531
763.500	455.682	79.995	19.995	100.041	20.125	5.996	0.526
764.001	455.957	79.996	19.996	100.045	20.124	6.065	0.507
764.501	456.247	79.996	19.995	100.049	20.124	6.076	0.532
765.000	456.489	79.995	19.995	100.053	20.123	6.181	0.548
765.500	456.728	79.995	19.995	100.056	20.126	5.848	0.506
766.000	456.988	79.997	19.995	100.060	20.124	6.085	0.490
766.500	457.253	79.996	19.995	100.065	20.124	6.050	0.512
767.000	457.503	79.996	19.996	100.068	20.127	5.704	0.520
767.500	457.758	79.996	19.995	100.071	20.123	6.138	0.510
768.000	457.985	79.995	19.996	100.070	20.127	5.753	0.493
768.500	458.242	79.996	19.994	100.065	20.126	5.863	0.483
769.000	458.504	79.995	19.995	100.055	20.124	6.011	0.502
769.500	458.775	79.995	19.995	100.046	20.125	5.942	0.526
770.001	459.039	79.995	19.996	100.040	20.126	5.865	0.534
770.501	459.264	79.995	19.995	100.046	20.124	6.080	0.511
771.001	459.498	79.996	19.996	100.055	20.124	6.102	0.474
771.500	459.767	79.996	19.996	100.064	20.127	5.703	0.482
772.000	460.041	79.994	19.994	100.072	20.123	6.192	0.523
772.500	460.295	79.996	19.995	100.076	20.127	5.796	0.535
773.001	460.538	79.994	19.995	100.071	20.126	5.824	0.512
773.501	460.794	79.995	19.995	100.057	20.129	5.502	0.498
774.000	461.082	79.997	19.996	100.045	20.127	5.763	0.521
774.500	461.325	79.995	19.996	100.036	20.128	5.675	0.537
775.000	461.570	79.997	19.996	100.032	20.129	5.516	0.509
775.500	461.834	79.996	19.995	100.032	20.129	5.595	0.498
776.000	462.097	79.996	19.995	100.040	20.128	5.678	0.518
776.500	462.339	79.997	19.995	100.046	20.131	5.375	0.517
777.000	462.600	79.998	19.996	100.053	20.133	5.188	0.504
777.500	462.868	79.997	19.994	100.060	20.131	5.356	0.516
778.000	463.135	79.996	19.996	100.061	20.131	5.320	0.532
778.500	463.366	79.997	19.995	100.061	20.130	5.463	0.517
779.000	463.633	79.997	19.995	100.060	20.129	5.598	0.498
779.500	463.908	79.996	19.994	100.053	20.132	5.205	0.520
780.000	464.144	79.997	19.994	100.047	20.131	5.334	0.526
780.500	464.395	79.996	19.994	100.053	20.132	5.276	0.499
781.000	464.647	79.997	19.994	100.053	20.132	5.298	0.495
781.500	464.915	79.998	19.995	100.053	20.133	5.153	0.511
782.000	465.149	79.996	19.995	100.053	20.133	5.134	0.511
782.500	465.404	79.997	19.995	100.052	20.131	5.312	0.496
783.000	465.654	79.996	19.994	100.045	20.136	4.878	0.497
783.500	465.912	79.997	19.994	100.044	20.134	5.034	0.506
784.000	466.159	79.996	19.996	100.045	20.133	5.114	0.506
784.500	466.433	79.997	19.994	100.046	20.131	5.331	0.513
785.000	466.692	79.997	19.994	100.046	20.136	4.897	0.527
785.500	466.952	79.996	19.995	100.049	20.133	5.183	0.526
786.000	467.190	79.998	19.994	100.050	20.129	5.502	0.509
786.500	467.457	79.998	19.995	100.046	20.132	5.269	0.502
787.000	467.735	79.997	19.994	100.042	20.132	5.271	0.525
787.500	468.011	79.997	19.995	100.041	20.134	5.043	0.549
788.000	468.215	79.997	19.995	100.039	20.134	5.070	0.517
788.501	468.511	79.997	19.995	100.038	20.134	5.073	0.490
789.001	468.756	79.998	19.994	100.042	20.132	5.224	0.520
789.500	468.988	79.996	19.994	100.045	20.132	5.241	0.509
790.000	469.267	79.997	19.994	100.044	20.136	4.858	0.494
790.500	469.535	79.998	19.995	100.043	20.132	5.263	0.529
791.000	469.826	79.997	19.995	100.043	20.137	4.754	0.553
791.500	470.040	79.996	19.996	100.043	20.131	5.312	0.532
792.000	470.323	79.997	19.995	100.045	20.132	5.213	0.501
792.500	470.572	79.996	19.995	100.046	20.133	5.166	0.514
793.000	470.837	79.995	19.996	100.046	20.136	4.886	0.523
793.500	471.091	79.996	19.996	100.046	20.133	5.180	0.517
794.000	471.353	79.996	19.996	100.042	20.133	5.139	0.518
794.500	471.612	79.995	19.995	100.041	20.131	5.373	0.519
795.000	471.866	79.997	19.995	100.041	20.132	5.210	0.517
795.500	472.096	79.996	19.997	100.043	20.138	4.625	0.499
796.001	472.357	79.996	19.997	100.048	20.138	4.633	0.488
796.501	472.644	79.997	19.996	100.055	20.139	4.518	0.519
797.000	472.899	79.996	19.995	100.056	20.136	4.891	0.545
797.500	473.149	79.996	19.995	100.055	20.139	4.586	0.524
798.000	473.419	79.996	19.995	100.054	20.136	4.847	0.512
798.500	473.671	79.995	19.996	100.049	20.140	4.432	0.521
799.000	473.927	79.997	19.996	100.046	20.138	4.603	0.515
799.500	474.185	79.997	19.995	100.046	20.136	4.845	0.511
800.000	474.458	79.996	19.995	100.046	20.136	4.867	0.523
800.500	474.730	79.996	19.995	100.046	20.137	4.779	0.538
801.000	474.994	79.996	19.995	100.044	20.136	4.864	0.540
801.500	475.246	79.996	19.996	100.043	20.133	5.189	0.526
802.000	475.530	79.995	19.996	100.043	20.134	5.007	0.526
802.500	475.748	79.996	19.995	100.043	20.130	5.436	0.519
803.000	476.012	79.996	19.995	100.042	20.133	5.144	0.492
803.501	476.304	79.996	19.995	100.043	20.135	4.933	0.519
804.000	476.534	79.997	19.995	100.043	20.134	5.012	0.539
804.500	476.769	79.997	19.994	100.043	20.135	4.963	0.494
805.000	477.000	79.998	19.996	100.042	20.131	5.323	0.466
805.500	477.302	79.995	19.995	100.042	20.134	5.015	0.499
806.000	477.556	79.997	19.994	100.044	20.137	4.699	0.545
806.500	477.822	79.997	19.995	100.045	20.135	4.980	0.538
807.000	478.064	79.999	19.995	100.045	20.136	4.853	0.514
807.500	478.317	79.998	19.995	100.046	20.133	5.117	0.502
808.000	478.575	79.997	19.994	100.045	20.136	4.818	0.503
808.500	478.808	79.999	19.994	100.044	20.137	4.729	0.501
809.000	479.103	79.997	19.994	100.043	20.134	5.002	0.509
809.500	479.349	79.998	19.995	100.043	20.134	5.021	0.534
810.000	479.617	79.999	19.995	100.043	20.136	4.869	0.528
810.501	479.856	79.999	19.995	100.044	20.137	4.770	0.511
811.000	480.133	80.000	19.996	100.045	20.136	4.812	0.512
811.500	480.378	80.000	19.995	100.045	20.138	4.630	0.519
812.000	480.628	79.997	19.995	100.048	20.138	4.630	0.509
812.500	480.861	79.999	19.996	100.047	20.137	4.748	0.489
813.000	481.105	79.999	19.994	100.046	20.136	4.889	0.480
813.500	481.365	79.998	19.995	100.045	20.140	4.473	0.491
814.000	481.639	79.997	19.996	100.045	20.137	4.737	0.519
814.500	481.882	79.997	19.995	100.043	20.140	4.476	0.525
815.000	482.147	79.998	19.995	100.043	20.140	4.440	0.512
815.500	482.373	79.998	19.995	100.043	20.138	4.596	0.499
816.000	482.629	79.998	19.995	100.043	20.139	4.525	0.486
816.500	482.881	79.997	19.995	100.043	20.139	4.533	0.495
817.000	483.119	79.997	19.996	100.045	20.138	4.632	0.499
817.500	483.378	79.997	19.996	100.048	20.138	4.673	0.493
818.000	483.595	79.996	19.995	100.052	20.141	4.366	0.487
818.500	483.885	79.995	19.996	100.053	20.139	4.509	0.492
819.000	484.147	79.996	19.995	100.052	20.143	4.160	0.529
819.500	484.364	79.996	19.996	100.049	20.144	4.039	0.515
820.000	484.619	79.996	19.998	100.047	20.139	4.512	0.475
820.500	484.897	79.995	19.996	100.043	20.142	4.281	0.503
821.000	485.150	79.995	19.997	100.043	20.144	4.091	0.532
821.500	485.367	79.994	19.996	100.043	20.144	4.044	0.501
822.000	485.633	79.995	19.995	100.043	20.144	4.042	0.477
822.500	485.912	79.995	19.996	100.042	20.143	4.138	0.514
823.000	486.151	79.994	19.997	100.042	20.142	4.284	0.532
823.500	486.403	79.996	19.996	100.040	20.142	4.231	0.504
824.000	486.670	79.995	19.996	100.041	20.143	4.149	0.505
824.500	486.948	79.994	19.996	100.040	20.138	4.668	0.532
825.000	487.170	79.994	19.997	100.041	20.144	4.014	0.522
825.500	487.454	79.996	19.996	100.040	20.140	4.465	0.503
826.000	487.687	79.995	19.997	100.034	20.139	4.589	0.512
826.500	487.965	79.996	19.996	100.027	20.143	4.149	0.514
827.000	488.194	79.996	19.995	100.022	20.138	4.680	0.509
827.500	488.437	79.995	19.996	100.022	20.142	4.279	0.489
828.000	488.684	79.994	19.996	100.023	20.138	4.680	0.481
828.500	488.960	79.994	19.996	100.024	20.141	4.323	0.506
829.000	489.209	79.995	19.995	100.028	20.148	3.608	0.524
829.500	489.456	79.994	19.996	100.033	20.140	4.427	0.511
830.000	489.709	79.995	19.996	100.033	20.142	4.232	0.499
830.501	489.956	79.997	19.995	100.034	20.139	4.537	0.500
831.001	490.221	79.997	19.996	100.039	20.140	4.416	0.506
831.501	490.474	79.996	19.996	100.040	20.139	4.539	0.515
832.000	490.736	79.995	19.995	100.037	20.139	4.561	0.517
832.500	490.962	79.996	19.995	100.037	20.140	4.445	0.501
833.000	491.197	79.997	19.996	100.036	20.140	4.412	0.475
833.500	491.492	79.996	19.996	100.036	20.140	4.431	0.496
834.000	491.721	79.996	19.996	100.039	20.140	4.451	0.527
834.500	491.970	79.996	19.995	100.041	20.142	4.212	0.501
835.000	492.236	79.996	19.995	100.039	20.139	4.567	0.496
835.500	492.512	79.996	19.996	100.039	20.143	4.188	0.529
836.000	492.800	79.996	19.996	100.039	20.139	4.537	0.553
836.500	493.036	79.996	19.996	100.039	20.141	4.311	0.544
837.000	493.286	79.996	19.995	100.040	20.142	4.207	0.505
837.500	493.529	79.995	19.995	100.047	20.143	4.190	0.490
838.001	493.771	79.998	19.995	100.053	20.143	4.138	0.489
838.501	494.076	79.995	19.995	100.060	20.143	4.105	0.516
839.000	494.353	79.997	19.995	100.059	20.144	4.012	0.564
839.500	494.585	79.996	19.994	100.059	20.144	4.089	0.545
840.000	494.837	79.996	19.995	100.058	20.143	4.100	0.497
840.500	495.108	79.995	19.995	100.059	20.141	4.372	0.504
841.000	495.327	79.996	19.995	100.054	20.147	3.701	0.506
841.500	495.616	79.997	19.995	100.050	20.144	4.092	0.499
842.000	495.828	79.995	19.994	100.045	20.143	4.141	0.504
842.500	496.098	79.996	19.995	100.036	20.143	4.138	0.491
843.000	496.357	79.995	19.995	100.023	20.143	4.182	0.506
843.501	496.630	79.996	19.996	100.018	20.145	3.981	0.531
844.000	496.853	79.996	19.996	100.020	20.143	4.179	0.514
844.500	497.113	79.995	19.995	100.026	20.141	4.339	0.489
845.000	497.388	79.994	19.995	100.032	20.142	4.215	0.509
845.500	497.628	79.995	19.994	100.038	20.143	4.157	0.525
846.000	497.863	79.996	19.995	100.043	20.146	3.819	0.495
846.500	498.112	79.995	19.995	100.048	20.142	4.204	0.480
847.000	498.366	79.993	19.995	100.048	20.149	3.544	0.494
847.500	498.567	79.995	19.996	100.048	20.147	3.753	0.479
848.000	498.888	79.997	19.995	100.049	20.143	4.113	0.488
848.500	499.153	79.996	19.995	100.047	20.146	3.849	0.553
849.000	499.410	79.994	19.995	100.044	20.146	3.885	0.554
849.501	499.665	79.995	19.996	100.047	20.145	3.957	0.517
850.000	499.930	79.995	19.995	100.047	20.144	4.001	0.516
850.500	500.173	79.995	19.995	100.047	20.146	3.869	0.514
851.000	500.419	79.995	19.995	100.051	20.150	3.459	0.498
851.500	500.704	79.994	19.995	100.055	20.150	3.453	0.510
852.000	500.947	79.996	19.996	100.054	20.147	3.756	0.530
852.500	501.197	79.994	19.996	100.054	20.144	4.083	0.511
853.000	501.458	79.994	19.995	100.054	20.145	3.934	0.502
853.500	501.729	79.993	19.995	100.051	20.147	3.764	0.521
854.000	501.988	79.995	19.996	100.046	20.146	3.863	0.531
854.500	502.233	79.995	19.995	100.044	20.150	3.475	0.517
855.000	502.468	79.995	19.995	100.043	20.146	3.797	0.492
855.500	502.696	79.994	19.995	100.043	20.151	3.332	0.471
856.000	503.008	79.993	19.995	100.042	20.148	3.602	0.501
856.500	503.261	79.995	19.995	100.042	20.148	3.649	0.553
857.000	503.531	79.994	19.996	100.044	20.149	3.519	0.544
857.500	503.801	79.996	19.996	100.045	20.147	3.761	0.532
858.000	504.013	79.996	19.995	100.045	20.149	3.580	0.511
858.500	504.254	79.995	19.995	100.043	20.151	3.359	0.467
859.000	504.543	79.996	19.994	100.043	20.151	3.354	0.492
859.500	504.785	79.997	19.995	100.042	20.151	3.373	0.530
860.000	505.059	79.996	19.996	100.042	20.153	3.136	0.524
860.500	505.292	79.996	19.996	100.042	20.146	3.849	0.511
861.000	505.564	79.997	19.996	100.044	20.148	3.673	0.506
861.500	505.795	79.997	19.994	100.045	20.150	3.442	0.504
862.000	506.083	79.996	19.994	100.043	20.152	3.260	0.511
862.500	506.330	79.997	19.995	100.042	20.150	3.414	0.527
863.000	506.588	79.996	19.996	100.041	20.150	3.488	0.521
863.501	506.856	79.995	19.995	100.041	20.149	3.497	0.516
864.000	507.101	79.997	19.995	100.042	20.151	3.365	0.519
864.500	507.373	79.996	19.994	100.042	20.147	3.700	0.515
865.000	507.622	79.996	19.995	100.043	20.152	3.239	0.519
865.500	507.872	79.997	19.994	100.042	20.149	3.563	0.510
866.000	508.092	79.997	19.994	100.042	20.148	3.626	0.485
866.500	508.378	79.997	19.995	100.042	20.149	3.546	0.488
867.000	508.634	79.996	19.994	100.043	20.153	3.150	0.524
867.500	508.892	79.998	19.994	100.043	20.153	3.186	0.528
868.000	509.123	79.996	19.994	100.046	20.149	3.570	0.501
868.500	509.405	79.996	19.996	100.043	20.152	3.265	0.501
869.000	509.676	79.997	19.995	100.037	20.151	3.293	0.533
869.500	509.956	79.997	19.995	100.029	20.155	2.983	0.552
870.000	510.205	79.996	19.994	100.024	20.149	3.502	0.540
870.501	510.436	79.995	19.995	100.021	20.152	3.230	0.504
871.001	510.743	79.994	19.994	100.020	20.148	3.621	0.509
871.500	510.972	79.996	19.996	100.024	20.146	3.868	0.537
872.000	511.223	79.997	19.995	100.029	20.153	3.156	0.507
872.500	511.467	79.997	19.996	100.029	20.154	3.019	0.487
873.000	511.746	79.997	19.995	100.027	20.149	3.500	0.509
873.501	511.985	79.996	19.995	100.022	20.150	3.440	0.520
874.001	512.220	79.996	19.995	100.018	20.151	3.376	0.496
874.500	512.463	79.996	19.995	100.020	20.149	3.536	0.476
875.000	512.730	79.997	19.995	100.022	20.148	3.646	0.495
875.500	512.981	79.997	19.996	100.026	20.147	3.750	0.514
876.001	513.233	79.997	19.995	100.033	20.152	3.197	0.510
876.501	513.483	79.997	19.995	100.033	20.155	2.958	0.502
877.000	513.730	79.996	19.995	100.026	20.151	3.299	0.499
877.500	513.971	79.996	19.996	100.022	20.151	3.337	0.493
878.000	514.231	79.997	19.996	100.015	20.155	2.942	0.495
878.500	514.502	79.997	19.995	100.007	20.153	3.151	0.516
879.000	514.786	79.997	19.996	100.006	20.151	3.293	0.543
879.500	515.056	79.998	19.996	100.009	20.154	3.053	0.555
880.000	515.293	79.997	19.995	100.015	20.155	2.960	0.530
880.500	515.576	79.997	19.995	100.019	20.149	3.537	0.513
881.000	515.805	79.998	19.996	100.021	20.154	3.064	0.516
881.500	516.043	79.996	19.995	100.023	20.156	2.823	0.490
882.000	516.312	79.998	19.996	100.027	20.153	3.141	0.487
882.500	516.618	79.997	19.995	100.027	20.153	3.153	0.541
883.000	516.829	79.998	19.995	100.031	20.150	3.412	0.546
883.500	517.074	79.999	19.996	100.037	20.152	3.244	0.487
884.000	517.335	79.997	19.995	100.042	20.154	3.089	0.481
884.501	517.610	79.997	19.996	100.043	20.153	3.127	0.521
885.000	517.844	79.997	19.995	100.042	20.152	3.228	0.523
885.500	518.103	79.997	19.995	100.041	20.151	3.324	0.501
886.000	518.327	79.999	19.997	100.034	20.154	2.994	0.487
886.500	518.617	80.000	19.996	100.027	20.154	3.016	0.499
887.000	518.881	79.999	19.995	100.024	20.152	3.192	0.534
887.500	519.103	79.998	19.996	100.024	20.153	3.165	0.520
888.000	519.395	79.997	19.995	100.018	20.154	3.000	0.500
888.500	519.610	79.998	19.995	100.021	20.154	3.080	0.510
889.000	519.866	79.999	19.996	100.028	20.153	3.091	0.489
889.500	520.159	79.997	19.996	100.032	20.150	3.448	0.510
890.000	520.441	79.999	19.995	100.010	20.154	3.063	0.562
890.500	520.670	79.997	19.995	99.994	20.155	2.975	0.543
891.000	520.917	79.999	19.995	99.987	20.153	3.129	0.494
891.500	521.222	79.999	19.995	99.986	20.155	2.978	0.514
892.000	521.438	79.998	19.995	99.989	20.161	2.334	0.536
892.500	521.688	80.000	19.996	100.023	20.156	2.876	0.493
893.000	521.923	79.998	19.995	100.074	20.156	2.807	0.476
893.501	522.201	79.999	19.996	100.096	20.157	2.719	0.499
894.000	522.450	79.998	19.996	100.105	20.156	2.879	0.520
894.500	522.724	79.998	19.996	100.102	20.159	2.496	0.525
895.000	523.005	79.998	19.995	100.091	20.157	2.722	0.539
895.500	523.206	79.997	19.996	100.062	20.161	2.323	0.518
896.000	523.470	79.996	19.996	100.049	20.158	2.600	0.474
896.500	523.725	79.996	19.995	100.043	20.159	2.510	0.492
897.000	524.005	79.996	19.996	100.047	20.160	2.441	0.527
897.500	524.226	79.995	19.994	100.051	20.158	2.595	0.518
898.000	524.505	79.996	19.996	100.052	20.160	2.463	0.500
898.500	524.760	79.996	19.995	100.055	20.158	2.663	0.517
899.000	525.034	79.996	19.996	100.057	20.159	2.493	0.531
899.500	525.275	79.995	19.995	100.052	20.162	2.188	0.522
900.000	525.547	79.996	19.995	100.052	20.162	2.270	0.515
900.500	525.776	79.996	19.996	100.053	20.161	2.331	0.507
901.000	526.064	79.995	19.996	100.051	20.163	2.163	0.508
901.500	526.302	79.995	19.995	100.047	20.160	2.463	0.521
902.000	526.563	79.995	19.995	100.047	20.159	2.523	0.513
902.500	526.819	79.996	19.996	100.039	20.162	2.238	0.508
903.000	527.054	79.995	19.995	100.033	20.163	2.138	0.504
903.500	527.299	79.994	19.995	100.032	20.163	2.155	0.485
904.000	527.582	79.995	19.996	100.032	20.157	2.782	0.504
904.500	527.833	79.994	19.996	100.033	20.159	2.529	0.531
905.000	528.108	79.994	19.996	100.037	20.156	2.801	0.530
905.500	528.372	79.995	19.996	100.038	20.163	2.169	0.532
906.000	528.621	79.995	19.997	100.034	20.164	2.007	0.526
906.500	528.879	79.994	19.995	100.029	20.160	2.433	0.510
907.000	529.157	79.995	19.997	100.022	20.160	2.454	0.521
907.500	529.399	79.996	19.996	100.016	20.165	1.971	0.528
908.000	529.636	79.995	19.996	100.013	20.164	2.023	0.500
908.500	529.919	79.995	19.997	100.010	20.166	1.877	0.499
909.000	530.170	79.995	19.996	100.007	20.159	2.565	0.527
909.500	530.461	79.996	19.997	100.005	20.163	2.155	0.538
910.000	530.678	79.993	19.996	100.004	20.158	2.590	0.525
910.500	530.963	79.994	19.996	100.005	20.163	2.183	0.505
911.000	531.209	79.995	19.996	100.008	20.161	2.386	0.517
911.500	531.445	79.996	19.997	100.013	20.163	2.136	0.506
912.000	531.695	79.996	19.997	100.014	20.161	2.334	0.484
912.500	531.979	79.993	19.996	100.015	20.160	2.476	0.510
913.000	532.274	79.995	19.997	100.019	20.158	2.641	0.556
913.500	532.492	79.994	19.996	100.017	20.156	2.823	0.546
914.000	532.744	79.995	19.996	100.013	20.158	2.644	0.492
914.500	532.995	79.995	19.996	100.014	20.164	2.040	0.487
915.000	533.299	79.995	19.997	100.014	20.163	2.166	0.529
915.500	533.514	79.994	19.996	100.013	20.160	2.452	0.537
916.000	533.793	79.995	19.996	100.015	20.156	2.835	0.506
916.500	534.048	79.994	19.997	100.015	20.161	2.375	0.514
917.000	534.320	79.996	19.997	100.014	20.159	2.494	0.531
917.500	534.595	79.994	19.995	100.012	20.160	2.449	0.537
918.000	534.792	79.995	19.995	100.009	20.157	2.724	0.509
918.500	535.096	79.995	19.995	100.007	20.164	2.020	0.487
919.000	535.369	79.995	19.995	100.008	20.159	2.576	0.539
919.500	535.627	79.995	19.996	100.009	20.158	2.683	0.554
920.000	535.882	79.994	19.995	100.017	20.162	2.191	0.523
920.500	536.149	79.996	19.995	100.023	20.158	2.590	0.518
921.000	536.409	79.996	19.995	100.028	20.161	2.323	0.524
921.500	536.665	79.995	19.994	100.029	20.160	2.458	0.521
922.000	536.943	79.995	19.995	100.027	20.160	2.430	0.525
922.500	537.170	79.996	19.996	100.020	20.161	2.361	0.520
923.000	537.426	79.997	19.996	100.013	20.162	2.196	0.494
923.500	537.719	79.996	19.994	100.009	20.159	2.565	0.516
924.000	537.961	79.995	19.995	100.009	20.161	2.295	0.542
924.500	538.232	79.995	19.994	100.009	20.163	2.114	0.524
925.000	538.485	79.996	19.996	100.013	20.161	2.372	0.518
925.500	538.757	79.997	19.995	100.020	20.169	1.578	0.525
926.000	539.004	79.996	19.995	100.026	20.159	2.556	0.522
926.500	539.241	79.994	19.995	100.031	20.162	2.221	0.501
927.000	539.471	79.994	19.996	100.036	20.162	2.240	0.476
927.500	539.706	79.995	19.996	100.036	20.169	1.583	0.466
928.000	539.998	79.994	19.995	100.031	20.163	2.097	0.496
928.500	540.271	79.994	19.996	100.029	20.164	2.067	0.546
929.001	540.512	79.995	19.996	100.024	20.164	2.075	0.539
929.500	540.780	79.994	19.994	100.022	20.166	1.828	0.511
930.000	541.024	79.995	19.995	100.021	20.165	1.930	0.511
930.500	541.303	79.994	19.995	100.022	20.163	2.114	0.518
931.000	541.551	79.995	19.994	100.026	20.168	1.677	0.525
931.500	541.825	79.995	19.995	100.030	20.166	1.801	0.525
932.000	542.077	79.993	19.995	100.033	20.160	2.400	0.524
932.500	542.328	79.995	19.995	100.031	20.160	2.469	0.514
933.000	542.570	79.994	19.995	100.029	20.165	1.941	0.498
933.501	542.837	79.996	19.995	100.023	20.161	2.323	0.502
934.000	543.113	79.995	19.995	100.018	20.169	1.487	0.526
934.500	543.374	79.996	19.995	100.013	20.167	1.712	0.540
935.000	543.629	79.997	19.997	100.013	20.167	1.765	0.527
935.500	543.874	79.996	19.995	100.012	20.165	1.965	0.508
936.000	544.105	79.996	19.995	100.016	20.169	1.556	0.487
936.500	544.388	79.996	19.995	100.019	20.162	2.188	0.495
937.000	544.647	79.996	19.997	100.021	20.166	1.844	0.528
937.500	544.897	79.997	19.996	100.020	20.165	1.941	0.526
938.000	545.159	79.996	19.996	100.024	20.164	2.061	0.510
938.500	545.401	79.996	19.995	100.023	20.165	1.899	0.508
939.000	545.664	79.997	19.995	100.023	20.163	2.170	0.505
939.500	545.887	79.999	19.996	100.022	20.162	2.186	0.495
940.000	546.207	79.996	19.994	100.023	20.161	2.291	0.515
940.500	546.423	79.997	19.994	100.017	20.170	1.462	0.540
941.000	546.721	79.999	19.994	100.014	20.161	2.359	0.525
941.500	546.934	79.998	19.996	100.015	20.166	1.884	0.513
942.000	547.198	79.999	19.995	100.016	20.168	1.595	0.494
942.500	547.479	79.998	19.996	100.020	20.163	2.157	0.511
943.000	547.733	79.998	19.995	100.021	20.162	2.193	0.540
943.500	548.008	79.997	19.996	100.023	20.163	2.176	0.532
944.000	548.281	79.997	19.995	100.018	20.163	2.087	0.538
944.500	548.511	79.998	19.995	100.014	20.170	1.427	0.526
945.000	548.779	79.997	19.995	100.008	20.165	1.979	0.501
945.500	549.037	79.998	19.995	100.015	20.164	2.023	0.512
946.000	549.305	79.997	19.995	100.014	20.166	1.798	0.526
946.500	549.535	79.998	19.995	100.014	20.165	1.913	0.512
947.000	549.814	79.997	19.994	100.015	20.161	2.372	0.503
947.500	550.078	79.998	19.995	100.021	20.164	2.001	0.525
948.000	550.316	79.998	19.995	100.018	20.162	2.224	0.522
948.500	550.594	79.997	19.994	100.018	20.162	2.270	0.510
949.000	550.834	79.998	19.995	99.997	20.163	2.116	0.517
949.500	551.074	79.997	19.995	99.970	20.164	2.009	0.499
950.000	551.330	79.997	19.996	99.952	20.162	2.237	0.488
950.500	551.570	79.998	19.996	99.945	20.170	1.424	0.496
951.000	551.873	79.997	19.994	99.943	20.165	1.908	0.519
951.500	552.106	79.998	19.994	99.969	20.160	2.485	0.539
952.000	552.340	79.998	19.995	100.023	20.165	1.896	0.502
952.500	552.614	79.998	19.995	100.071	20.166	1.800	0.488
953.000	552.890	79.996	19.994	100.086	20.169	1.528	0.529
953.500	553.124	79.997	19.994	100.094	20.162	2.199	0.530
954.000	553.385	79.997	19.995	100.096	20.164	2.042	0.503
954.500	553.672	79.998	19.996	100.072	20.166	1.861	0.522
955.000	553.921	79.998	19.994	100.042	20.166	1.847	0.542
955.500	554.204	79.997	19.995	100.032	20.165	1.886	0.534
956.000	554.453	79.998	19.995	100.024	20.168	1.682	0.532
956.500	554.719	79.998	19.995	100.017	20.170	1.405	0.523
957.000	554.956	79.999	19.994	100.013	20.164	2.061	0.509
957.500	555.248	79.997	19.995	100.012	20.168	1.622	0.516
958.000	555.495	79.997	19.994	100.012	20.174	1.067	0.534
958.500	555.772	79.997	19.995	100.012	20.164	2.062	0.531
959.000	556.004	79.998	19.995	100.011	20.165	1.913	0.517
959.500	556.268	79.997	19.995	100.011	20.167	1.718	0.502
960.000	556.559	79.997	19.994	100.007	20.171	1.350	0.525
960.500	556.806	79.999	19.996	100.008	20.167	1.757	0.547
961.000	557.069	79.998	19.994	100.011	20.170	1.397	0.524
961.500	557.324	79.998	19.995	100.011	20.168	1.674	0.514
962.000	557.586	79.999	19.996	100.010	20.170	1.468	0.517
962.500	557.822	79.999	19.994	100.009	20.168	1.655	0.508
963.000	558.116	79.999	19.994	100.007	20.168	1.630	0.514
963.500	558.354	79.997	19.995	100.008	20.169	1.490	0.531
964.000	558.628	79.999	19.995	100.015	20.167	1.696	0.522
964.500	558.902	79.998	19.996	100.020	20.164	2.015	0.530
965.000	559.146	79.999	19.995	100.021	20.170	1.435	0.533
965.500	559.400	79.998	19.994	100.020	20.170	1.462	0.508
966.000	559.653	79.998	19.995	100.016	20.169	1.523	0.502
966.500	559.935	79.999	19.995	100.010	20.166	1.847	0.521
967.000	560.179	79.999	19.995	100.009	20.171	1.350	0.531
967.500	560.440	79.998	19.997	100.008	20.170	1.438	0.516
968.000	560.667	79.999	19.996	100.009	20.166	1.787	0.497
968.500	560.965	79.998	19.995	100.013	20.169	1.485	0.506
969.000	561.246	79.997	19.995	100.017	20.169	1.523	0.551
969.500	561.511	79.996	19.995	100.020	20.168	1.680	0.562
970.000	561.765	79.999	19.995	100.026	20.171	1.364	0.533
970.500	562.026	79.998	19.997	100.032	20.171	1.339	0.517
971.000	562.264	79.997	19.995	100.032	20.165	1.905	0.507
971.500	562.554	79.997	19.995	100.028	20.169	1.564	0.514
972.000	562.817	79.997	19.996	100.027	20.167	1.779	0.541
972.500	563.062	79.998	19.996	100.025	20.164	2.084	0.531
973.000	563.315	79.999	19.996	100.017	20.164	2.081	0.503
973.500	563.569	79.995	19.996	100.014	20.167	1.721	0.502
974.000	563.872	79.996	19.996	100.012	20.164	1.990	0.532
974.500	564.137	79.997	19.996	100.007	20.166	1.801	0.562
975.000	564.348	79.997	19.995	100.004	20.164	2.012	0.522
975.500	564.621	79.996	19.995	100.006	20.165	1.922	0.480
976.000	564.868	79.996	19.996	100.007	20.170	1.468	0.502
976.500	565.120	79.996	19.996	100.007	20.167	1.729	0.510
977.000	565.396	79.997	19.996	100.008	20.167	1.699	0.514
977.500	565.622	79.995	19.996	100.010	20.162	2.240	0.515
978.000	565.893	79.996	19.995	100.010	20.168	1.655	0.499
978.500	566.168	79.995	19.995	100.014	20.169	1.512	0.521
979.000	566.422	79.995	19.996	100.021	20.167	1.762	0.538
979.500	566.687	79.996	19.995	100.029	20.165	1.963	0.524
980.000	566.932	79.996	19.996	100.035	20.169	1.553	0.515
980.500	567.194	79.997	19.995	100.042	20.168	1.677	0.509
981.000	567.452	79.995	19.995	100.043	20.169	1.507	0.513
981.500	567.740	79.994	19.995	100.042	20.165	1.946	0.533
982.000	567.957	79.996	19.996	100.041	20.169	1.534	0.526
982.500	568.283	79.996	19.996	100.041	20.168	1.594	0.524
983.000	568.522	79.995	19.996	100.041	20.172	1.199	0.554
983.500	568.780	79.994	19.995	100.042	20.166	1.842	0.531
984.000	569.025	79.995	19.996	100.039	20.169	1.501	0.500
984.500	569.272	79.995	19.994	100.033	20.164	2.037	0.497
985.000	569.527	79.996	19.995	100.032	20.168	1.672	0.497
985.500	569.813	79.996	19.996	100.026	20.165	1.949	0.522
986.000	570.042	79.993	19.995	100.023	20.169	1.515	0.529
986.500	570.331	79.995	19.995	100.026	20.169	1.523	0.516
987.000	570.560	79.995	19.996	100.026	20.168	1.660	0.517
987.500	570.803	79.995	19.995	100.026	20.169	1.567	0.495
988.000	571.095	79.996	19.996	100.026	20.170	1.405	0.504
988.500	571.330	79.995	19.995	100.023	20.169	1.493	0.531
989.000	571.554	79.994	19.995	100.020	20.170	1.438	0.493
989.500	571.854	79.995	19.995	100.019	20.168	1.597	0.491
990.000	572.124	79.996	19.996	100.013	20.168	1.619	0.547
990.500	572.366	79.994	19.996	100.019	20.164	2.032	0.541
991.000	572.605	79.996	19.996	100.023	20.167	1.773	0.496
991.500	572.890	79.996	19.995	100.027	20.165	1.974	0.502
992.000	573.184	79.994	19.995	100.030	20.168	1.638	0.551
992.500	573.425	79.995	19.996	100.031	20.165	1.930	0.557
993.000	573.653	79.996	19.996	100.027	20.169	1.507	0.502
993.500	573.940	79.995	19.994	100.027	20.166	1.812	0.492
994.000	574.194	79.994	19.995	100.027	20.169	1.531	0.529
994.500	574.474	79.995	19.996	100.028	20.169	1.553	0.538
995.000	574.785	79.996	19.996	100.035	20.162	2.274	0.562
995.500	575.007	79.994	19.995	100.039	20.164	2.026	0.562
996.000	575.263	79.994	19.996	100.037	20.161	2.290	0.505
996.500	575.550	79.994	19.996	100.036	20.167	1.771	0.511
997.000	575.807	79.996	19.996	100.034	20.165	1.905	0.543
997.500	576.061	79.996	19.996	100.030	20.166	1.815	0.527
998.000	576.302	79.995	19.996	100.026	20.163	2.156	0.503
998.501	576.519	79.995	19.996	100.026	20.165	1.958	0.477
999.000	576.807	79.994	19.996	100.023	20.169	1.567	0.481
999.500	577.058	79.996	19.997	100.025	20.161	2.307	0.522
1000.000	577.325	79.995	19.996	100.027	20.171	1.336	0.528
1000.501	577.552	79.995	19.997	100.031	20.165	1.952	0.506
1001.000	577.802	79.995	19.997	100.034	20.170	1.435	0.486
1001.500	578.078	79.995	19.996	100.033	20.168	1.641	0.501
1002.000	578.313	79.996	19.996	100.033	20.165	1.957	0.518
1002.500	578.573	79.995	19.998	100.030	20.172	1.265	0.503
1003.000	578.838	79.996	19.996	100.028	20.168	1.594	0.510
1003.500	579.078	79.997	19.996	100.027	20.163	2.153	0.515
1004.000	579.336	79.996	19.996	100.030	20.168	1.641	0.502
1004.500	579.608	79.995	19.996	100.033	20.165	1.949	0.514
1005.000	579.838	79.994	19.995	100.036	20.170	1.482	0.516
1005.500	580.132	79.995	19.995	100.039	20.168	1.663	0.513
1006.000	580.336	79.995	19.996	100.038	20.172	1.221	0.511
1006.500	580.612	79.995	19.995	100.038	20.169	1.553	0.489
1007.000	580.882	79.995	19.996	100.038	20.168	1.677	0.513
1007.500	581.123	79.995	19.996	100.039	20.166	1.834	0.528
1008.000	581.356	79.995	19.995	100.039	20.168	1.641	0.492
1008.500	581.614	79.996	19.996	100.043	20.166	1.875	0.482
1009.000	581.875	79.995	19.995	100.043	20.165	1.922	0.505
1009.500	582.121	79.996	19.996	100.042	20.169	1.490	0.513
1010.000	582.366	79.996	19.995	100.042	20.169	1.581	0.498
1010.500	582.600	79.996	19.995	100.040	20.166	1.795	0.485
1011.000	582.865	79.995	19.995	100.037	20.171	1.325	0.489
1011.500	583.115	79.997	19.995	100.030	20.167	1.716	0.507
1012.000	583.369	79.996	19.995	100.025	20.170	1.465	0.510
1012.500	583.603	79.996	19.995	100.019	20.166	1.820	0.496
1013.000	583.875	79.997	19.995	100.021	20.165	1.916	0.496
1013.500	584.104	79.998	19.995	100.023	20.166	1.825	0.504
1014.000	584.378	79.995	19.994	100.029	20.166	1.853	0.502
1014.500	584.629	79.994	19.994	100.035	20.167	1.696	0.514
1015.000	584.884	79.997	19.995	100.041	20.167	1.713	0.515
1015.500	585.125	79.995	19.995	100.039	20.167	1.715	0.500
1016.000	585.370	79.997	19.995	100.038	20.167	1.718	0.491
1016.501	585.618	79.997	19.996	100.040	20.162	2.197	0.490
1017.000	585.861	79.997	19.995	100.037	20.163	2.111	0.492
1017.500	586.103	79.997	19.994	100.033	20.166	1.801	0.488
1018.000	586.373	79.996	19.995	100.028	20.170	1.471	0.499
1018.500	586.603	79.996	19.994	100.029	20.166	1.787	0.506
1019.000	586.880	79.997	19.994	100.029	20.165	1.916	0.503
1019.500	587.175	79.997	19.995	100.031	20.162	2.240	0.540
1020.000	587.370	79.997	19.994	100.034	20.169	1.537	0.531
1020.500	587.627	79.998	19.995	100.040	20.165	1.938	0.471
1021.000	587.869	79.997	19.994	100.040	20.169	1.485	0.476
1021.500	588.102	79.996	19.995	100.040	20.166	1.812	0.487
1022.000	588.358	79.998	19.994	100.040	20.170	1.397	0.482
1022.500	588.585	79.996	19.995	100.038	20.166	1.872	0.486
1023.000	588.842	79.997	19.995	100.035	20.161	2.312	0.484
1023.500	589.143	79.996	19.993	100.034	20.169	1.581	0.521
1024.000	589.362	79.997	19.995	100.032	20.162	2.210	0.539
1024.500	589.618	79.998	19.995	100.029	20.166	1.823	0.498
1025.000	589.876	79.998	19.995	100.024	20.167	1.704	0.495
1025.500	590.100	79.998	19.996	100.021	20.169	1.545	0.498
1026.000	590.362	79.997	19.995	100.022	20.167	1.715	0.483
1026.500	590.625	79.997	19.995	100.022	20.170	1.394	0.506
1027.000	590.847	79.997	19.995	100.023	20.172	1.270	0.505
1027.501	591.120	79.997	19.995	100.029	20.168	1.661	0.490
1028.001	591.348	79.996	19.994	100.033	20.165	1.963	0.498
1028.501	591.584	79.997	19.996	100.029	20.171	1.369	0.482
1029.001	591.831	79.996	19.994	100.028	20.169	1.490	0.473
1029.501	592.108	79.997	19.995	100.023	20.170	1.407	0.504
1030.001	592.361	79.997	19.995	100.022	20.168	1.619	0.527
1030.501	592.620	79.996	19.994	100.023	20.166	1.853	0.521
1031.001	592.860	79.997	19.994	100.024	20.168	1.655	0.506
1031.501	593.117	79.995	19.994	100.028	20.169	1.553	0.498
1032.001	593.342	79.996	19.995	100.033	20.168	1.660	0.489
1032.501	593.618	79.998	19.996	100.037	20.167	1.699	0.492
1033.001	593.845	79.995	19.995	100.034	20.171	1.320	0.502
1033.501	594.166	79.995	19.994	100.034	20.173	1.108	0.525
1034.001	594.423	79.994	19.995	100.032	20.170	1.435	0.563
1034.500	594.647	79.996	19.995	100.030	20.172	1.251	0.530
1035.001	594.893	79.995	19.995	100.029	20.171	1.361	0.475
1035.501	595.159	79.996	19.994	100.028	20.168	1.614	0.491
1036.000	595.415	79.997	19.995	100.027	20.166	1.817	0.517
1036.500	595.642	79.997	19.994	100.026	20.167	1.715	0.503
1037.000	595.949	79.995	19.993	100.030	20.167	1.685	0.509
1037.500	596.189	79.997	19.995	100.030	20.172	1.215	0.540
1038.001	596.400	79.997	19.993	100.033	20.169	1.559	0.499
1038.501	596.634	79.996	19.994	100.032	20.168	1.677	0.448
1039.001	596.892	79.995	19.995	100.028	20.170	1.399	0.469
1039.501	597.178	79.997	19.995	100.022	20.171	1.292	0.518
1040.000	597.392	79.997	19.995	100.021	20.169	1.548	0.522
1040.500	597.682	79.997	19.994	100.024	20.171	1.355	0.502
1041.000	597.951	79.999	19.995	100.030	20.171	1.377	0.532
1041.500	598.206	79.997	19.993	100.034	20.173	1.130	0.542
1042.001	598.474	79.999	19.994	100.035	20.171	1.366	0.523
1042.501	598.698	79.997	19.995	100.032	20.168	1.616	0.507
1043.001	598.970	79.998	19.994	100.029	20.169	1.520	0.494
1043.500	599.207	79.999	19.995	100.025	20.172	1.264	0.503
1044.000	599.482	80.000	19.993	100.027	20.170	1.440	0.511
1044.500	599.717	79.999	19.994	100.030	20.169	1.526	0.511
1045.000	599.996	80.000	19.995	100.030	20.166	1.845	0.512
1045.500	600.255	79.998	19.994	100.029	20.170	1.460	0.526
1046.001	600.544	79.998	19.995	100.028	20.168	1.586	0.543
1046.501	600.787	79.998	19.994	100.028	20.171	1.322	0.541
1047.001	601.059	79.998	19.994	100.027	20.162	2.249	0.524
1047.501	601.286	79.998	19.994	100.031	20.172	1.185	0.506
1048.000	601.547	79.998	19.993	100.034	20.169	1.518	0.493
1048.500	601.809	79.998	19.993	100.033	20.169	1.551	0.506
1049.000	602.064	79.997	19.994	100.028	20.170	1.454	0.520
1049.500	602.312	79.998	19.994	100.028	20.168	1.660	0.510
1050.000	602.541	79.997	19.994	100.028	20.170	1.416	0.489
1050.500	602.792	79.998	19.994	100.029	20.171	1.347	0.478
1051.000	603.055	79.998	19.995	100.031	20.170	1.465	0.497
1051.501	603.304	79.995	19.994	100.037	20.172	1.256	0.513
1052.001	603.566	79.997	19.995	100.037	20.170	1.479	0.511
1052.500	603.840	79.995	19.994	100.031	20.171	1.289	0.524
1053.000	604.067	79.997	19.995	100.026	20.169	1.580	0.519
1053.500	604.340	79.995	19.995	100.023	20.172	1.187	0.501
1054.000	604.591	79.996	19.995	100.016	20.169	1.493	0.512
1054.500	604.854	79.996	19.994	100.018	20.166	1.828	0.519
1055.001	605.115	79.995	19.995	100.023	20.164	2.056	0.519
1055.501	605.368	79.997	19.996	100.023	20.171	1.317	0.519
1056.000	605.614	79.996	19.995	100.023	20.169	1.537	0.507
1056.500	605.873	79.996	19.996	100.028	20.167	1.759	0.502
1057.000	606.145	79.995	19.996	100.023	20.170	1.482	0.518
1057.500	606.364	79.995	19.995	100.023	20.169	1.520	0.511
1058.000	606.625	79.995	19.995	100.029	20.169	1.487	0.485
1058.500	606.919	79.997	19.995	100.033	20.172	1.243	0.517
1059.000	607.134	79.997	19.996	100.032	20.167	1.765	0.532
1059.500	607.389	79.996	19.996	100.032	20.173	1.130	0.489
1060.000	607.679	79.995	19.996	100.031	20.167	1.729	0.507
1060.500	607.907	79.995	19.996	100.028	20.169	1.569	0.532
1061.000	608.178	79.996	19.994	100.025	20.166	1.880	0.508
1061.500	608.421	79.996	19.996	100.024	20.170	1.435	0.506
1062.001	608.704	79.995	19.995	100.022	20.167	1.781	0.520
1062.501	608.980	79.996	19.996	100.019	20.165	1.897	0.542
1063.001	609.226	79.997	19.994	100.015	20.169	1.520	0.540
1063.501	609.478	79.996	19.995	100.013	20.165	1.935	0.510
1064.001	609.735	79.996	19.995	100.011	20.168	1.627	0.504
1064.501	609.979	79.997	19.996	100.012	20.166	1.864	0.505
1065.001	610.238	79.996	19.996	100.014	20.164	2.023	0.502
1065.501	610.508	79.995	19.996	100.018	20.167	1.754	0.516
1066.000	610.757	79.995	19.995	100.023	20.171	1.377	0.524
1066.500	610.992	79.996	19.996	100.025	20.168	1.641	0.502
1067.000	611.258	79.996	19.995	100.026	20.171	1.284	0.493
1067.500	611.504	79.996	19.996	100.028	20.172	1.223	0.506
1068.001	611.758	79.997	19.996	100.027	20.171	1.330	0.506
1068.501	611.984	79.996	19.995	100.028	20.168	1.649	0.489
1069.000	612.264	79.995	19.994	100.031	20.169	1.512	0.493
1069.500	612.517	79.996	19.995	100.032	20.168	1.649	0.520
1070.000	612.783	79.996	19.995	100.030	20.170	1.421	0.526
1070.500	613.033	79.996	19.994	100.026	20.168	1.594	0.517
1071.000	613.281	79.997	19.996	100.020	20.170	1.482	0.507
1071.500	613.522	79.997	19.996	100.013	20.169	1.484	0.494
1072.000	613.807	79.997	19.996	100.009	20.171	1.311	0.507
1072.500	614.045	79.997	19.995	100.006	20.173	1.179	0.525
1073.000	614.287	79.997	19.996	100.010	20.170	1.438	0.501
1073.500	614.544	79.998	19.996	100.015	20.168	1.636	0.489
1074.000	614.800	79.995	19.995	100.019	20.171	1.380	0.506
1074.500	615.042	79.996	19.996	100.019	20.167	1.729	0.506
1075.000	615.319	79.996	19.995	100.018	20.172	1.273	0.509
1075.500	615.544	79.995	19.995	100.014	20.171	1.306	0.511
1076.000	615.833	79.996	19.996	100.010	20.174	1.031	0.508
1076.500	616.048	79.996	19.995	100.006	20.172	1.193	0.509
1077.000	616.291	79.997	19.997	100.008	20.173	1.133	0.481
1077.501	616.609	79.996	19.996	100.014	20.172	1.262	0.509
1078.000	616.802	79.995	19.996	100.016	20.174	1.072	0.536
1078.500	617.083	79.997	19.996	100.017	20.173	1.171	0.492
1079.000	617.276	79.995	19.995	100.018	20.171	1.342	0.474
1079.500	617.567	79.995	19.997	100.017	20.170	1.427	0.479
1080.000	617.822	79.996	19.996	100.013	20.171	1.303	0.515
1080.500	618.054	79.995	19.996	100.014	20.175	0.915	0.517
1081.000	618.311	79.995	19.996	100.019	20.167	1.726	0.488
1081.500	618.571	79.995	19.995	100.021	20.174	1.078	0.503
1082.000	618.802	79.995	19.996	100.020	20.173	1.122	0.504
1082.500	619.095	79.995	19.996	100.020	20.175	0.981	0.508
1083.001	619.298	79.995	19.996	100.018	20.171	1.352	0.510
1083.500	619.605	79.995	19.997	100.016	20.173	1.100	0.503
1084.000	619.849	79.994	19.997	100.021	20.172	1.204	0.531
1084.500	620.092	79.993	19.996	100.027	20.172	1.281	0.519
1085.000	620.388	79.996	19.997	100.027	20.173	1.155	0.512
1085.500	620.573	79.995	19.997	100.030	20.170	1.413	0.510
1086.000	620.843	79.994	19.996	100.031	20.176	0.866	0.468
1086.500	621.138	79.994	19.997	100.030	20.171	1.289	0.510
1087.000	621.379	79.994	19.997	100.027	20.172	1.196	0.550
1087.500	621.636	79.994	19.997	100.032	20.173	1.133	0.517
1088.000	621.877	79.995	19.996	100.035	20.173	1.122	0.498
1088.500	622.148	79.994	19.997	100.034	20.177	0.712	0.505
1089.000	622.394	79.996	19.996	100.030	20.172	1.229	0.515
1089.500	622.650	79.995	19.997	100.028	20.172	1.270	0.510
1090.000	622.894	79.996	19.997	100.025	20.176	0.808	0.501
1090.500	623.170	79.996	19.996	100.022	20.172	1.273	0.509
1091.000	623.434	79.996	19.997	100.021	20.171	1.314	0.530
1091.500	623.699	79.996	19.996	100.023	20.174	1.036	0.535
1092.000	623.931	79.994	19.996	100.023	20.173	1.089	0.513
1092.500	624.236	79.995	19.996	100.025	20.172	1.251	0.517
1093.000	624.469	79.998	19.996	100.025	20.176	0.874	0.537
1093.500	624.703	79.995	19.997	100.020	20.172	1.267	0.503
1094.000	624.969	79.996	19.995	100.021	20.174	1.055	0.484
1094.500	625.243	79.995	19.997	100.024	20.173	1.163	0.520
1095.000	625.484	79.997	19.996	100.023	20.169	1.567	0.527
1095.500	625.726	79.997	19.995	100.020	20.173	1.091	0.499
1096.000	625.960	79.997	19.996	100.022	20.169	1.504	0.479
1096.500	626.223	79.998	19.995	100.019	20.175	0.904	0.486
1097.000	626.485	79.997	19.996	100.016	20.173	1.152	0.511
1097.500	626.771	79.996	19.995	100.015	20.171	1.369	0.537
1098.000	626.996	79.997	19.995	100.020	20.167	1.784	0.530
1098.500	627.251	79.996	19.995	100.020	20.170	1.429	0.495
1099.000	627.538	79.997	19.995	100.018	20.171	1.289	0.511
1099.500	627.771	79.996	19.995	100.017	20.171	1.344	0.531
1100.000	628.028	79.997	19.996	100.017	20.173	1.149	0.505
1100.500	628.312	79.996	19.994	100.016	20.167	1.685	0.515
1101.000	628.557	79.997	19.994	100.017	20.170	1.473	0.535
1101.500	628.768	79.996	19.995	100.020	20.171	1.325	0.493
1102.000	629.064	79.997	19.994	100.022	20.170	1.473	0.482
1102.500	629.307	79.997	19.995	100.020	20.169	1.495	0.523
1103.000	629.594	79.998	19.994	100.017	20.170	1.388	0.535
1103.500	629.810	79.998	19.994	100.016	20.169	1.547	0.517
1104.000	630.061	79.998	19.996	100.014	20.176	0.816	0.485
1104.500	630.330	79.996	19.993	100.013	20.171	1.297	0.494
1105.000	630.551	79.996	19.994	100.013	20.172	1.201	0.505
1105.500	630.833	79.996	19.996	100.011	20.178	0.618	0.496
1106.000	631.102	79.997	19.996	100.015	20.173	1.163	0.526
1106.500	631.322	79.997	19.996	100.017	20.171	1.330	0.520
1107.000	631.617	79.997	19.996	100.019	20.175	0.907	0.502
1107.500	631.851	79.995	19.994	100.023	20.179	0.541	0.522
1108.000	632.094	79.995	19.995	100.024	20.176	0.797	0.503
1108.500	632.338	79.996	19.994	100.021	20.174	1.058	0.482
1109.000	632.629	79.996	19.996	100.018	20.178	0.665	0.511
1109.500	632.868	79.996	19.995	100.014	20.169	1.578	0.532
1110.001	633.127	79.994	19.995	100.010	20.173	1.094	0.514
1110.501	633.356	79.996	19.996	100.008	20.174	1.012	0.493
1111.000	633.625	79.996	19.995	100.008	20.170	1.454	0.493
1111.500	633.879	79.996	19.994	100.010	20.171	1.361	0.511
1112.000	634.152	79.996	19.994	100.009	20.171	1.298	0.525
1112.500	634.397	79.995	19.994	100.009	20.179	0.533	0.522
1113.001	634.679	79.996	19.994	100.009	20.175	0.918	0.522
1113.501	634.904	79.996	19.995	100.008	20.177	0.687	0.517
1114.000	635.166	79.995	19.995	100.007	20.179	0.544	0.497
1114.500	635.452	79.994	19.994	100.007	20.176	0.819	0.517
1115.000	635.653	79.997	19.995	100.007	20.176	0.847	0.518
1115.500	635.952	79.996	19.996	100.008	20.174	1.006	0.494
1116.000	636.179	79.995	19.994	100.009	20.173	1.094	0.513
1116.500	636.423	79.995	19.995	100.011	20.173	1.091	0.499
1117.000	636.704	79.996	19.994	100.013	20.178	0.668	0.498
1117.500	636.945	79.996	19.995	100.014	20.179	0.574	0.523
1118.001	637.218	79.997	19.996	100.014	20.176	0.866	0.517
1118.500	637.452	79.996	19.995	100.014	20.171	1.350	0.510
1119.000	637.713	79.997	19.996	100.016	20.173	1.146	0.501
1119.500	637.973	79.996	19.996	100.014	20.172	1.218	0.508
1120.000	638.233	79.997	19.995	100.014	20.175	0.885	0.520
1120.500	638.465	79.998	19.995	100.015	20.175	0.981	0.506
1121.000	638.748	79.998	19.995	100.015	20.179	0.541	0.504
1121.500	639.010	79.998	19.995	100.014	20.180	0.399	0.530
1122.000	639.252	79.998	19.995	100.018	20.183	0.102	0.525
1122.500	639.513	79.998	19.995	100.023	20.174	0.992	0.504
1123.000	639.742	79.998	19.995	100.024	20.178	0.668	0.496
1123.501	640.004	79.998	19.995	100.024	20.179	0.555	0.490
1124.001	640.260	79.999	19.994	100.020	20.171	1.314	0.505
1124.501	640.527	80.000	19.995	100.016	20.177	0.753	0.521
1125.000	640.754	79.999	19.995	100.012	20.179	0.506	0.508
1125.500	640.965	80.000	19.994	100.010	20.176	0.849	0.466
1126.000	641.223	80.000	19.994	100.009	20.178	0.624	0.453
1126.500	641.519	79.999	19.995	100.010	20.174	1.020	0.511
1127.000	641.738	79.998	19.994	100.009	20.175	0.937	0.535
1127.501	641.996	79.999	19.995	100.007	20.178	0.599	0.496
1128.001	642.265	80.000	19.995	100.007	20.174	0.992	0.502
1128.500	642.523	79.998	19.994	100.007	20.175	0.891	0.527
1129.000	642.760	79.997	19.995	100.006	20.180	0.410	0.511
1129.500	643.031	79.997	19.994	100.008	20.176	0.855	0.501
1130.000	643.249	79.997	19.995	100.008	20.177	0.764	0.499
1130.500	643.477	79.996	19.993	100.008	20.180	0.467	0.468
1131.000	643.743	79.995	19.994	100.007	20.179	0.566	0.470
1131.500	643.969	79.997	19.995	100.007	20.177	0.723	0.493
1132.000	644.240	79.996	19.995	100.005	20.178	0.613	0.495
1132.500	644.492	79.996	19.995	100.005	20.178	0.676	0.510
1133.000	644.701	79.994	19.994	100.006	20.173	1.116	0.492
1133.500	644.965	79.995	19.996	100.004	20.175	0.904	0.467
1134.000	645.223	79.996	19.996	100.003	20.173	1.174	0.498
1134.500	645.482	79.995	19.994	100.003	20.171	1.297	0.520
1135.000	645.768	79.996	19.994	100.006	20.175	0.896	0.531
1135.500	645.986	79.996	19.996	100.008	20.177	0.745	0.524
1136.000	646.232	79.997	19.996	100.010	20.177	0.739	0.484
1136.500	646.518	79.995	19.995	100.011	20.177	0.739	0.498
1137.000	646.741	79.995	19.995	100.011	20.168	1.616	0.521
1137.500	647.007	79.995	19.996	100.008	20.170	1.465	0.499
1138.000	647.250	79.995	19.994	100.005	20.172	1.187	0.499
1138.500	647.529	79.996	19.995	100.005	20.174	1.055	0.516
1139.000	647.743	79.996	19.995	100.006	20.178	0.605	0.507
1139.500	647.997	79.995	19.995	100.006	20.175	0.945	0.480
1140.000	648.257	79.996	19.994	100.005	20.169	1.583	0.491
1140.500	648.515	79.994	19.995	100.007	20.174	1.006	0.516
1141.000	648.745	79.994	19.995	100.013	20.178	0.643	0.503
1141.500	649.019	79.994	19.995	100.015	20.175	0.973	0.496
1142.000	649.243	79.996	19.995	100.020	20.176	0.792	0.501
1142.500	649.492	79.996	19.996	100.025	20.175	0.907	0.486
1143.000	649.724	79.997	19.996	100.025	20.171	1.314	0.477
1143.500	649.989	79.995	19.995	100.018	20.175	0.910	0.489
1144.000	650.284	79.994	19.995	100.015	20.174	1.000	0.529
1144.501	650.497	79.994	19.996	100.009	20.177	0.715	0.534
1145.001	650.778	79.994	19.996	100.007	20.177	0.781	0.500
1145.500	651.017	79.994	19.995	100.008	20.179	0.481	0.507
1146.000	651.290	79.995	19.995	100.008	20.181	0.346	0.516
1146.500	651.528	79.997	19.996	100.009	20.185	-0.107	0.512
1147.000	651.789	79.995	19.995	100.016	20.176	0.803	0.505
1147.500	652.012	79.996	19.996	100.017	20.177	0.750	0.492
1148.000	652.245	79.995	19.996	100.013	20.181	0.322	0.470
1148.500	652.508	79.996	19.996	100.013	20.177	0.695	0.476
1149.000	652.772	79.995	19.994	100.010	20.180	0.462	0.511
1149.500	653.019	79.995	19.996	99.999	20.178	0.643	0.519
1150.000	653.271	79.997	19.996	99.996	20.178	0.621	0.505
1150.500	653.497	79.996	19.995	99.997	20.181	0.368	0.489
1151.000	653.756	79.997	19.996	99.996	20.175	0.959	0.482
1151.500	653.994	79.996	19.996	100.000	20.182	0.223	0.491
1152.000	654.250	79.995	19.995	100.006	20.181	0.341	0.495
1152.501	654.533	79.996	19.994	100.006	20.178	0.640	0.516
1153.001	654.791	79.994	19.995	100.006	20.175	0.882	0.540
1153.501	655.018	79.995	19.996	100.007	20.179	0.528	0.513
1154.000	655.308	79.995	19.994	100.004	20.176	0.880	0.501
1154.500	655.564	79.996	19.995	100.002	20.174	1.072	0.532
1155.000	655.810	79.997	19.996	100.003	20.179	0.566	0.524
1155.500	656.071	79.995	19.995	100.004	20.174	0.995	0.505
1156.000	656.304	79.996	19.995	100.004	20.179	0.555	0.500
1156.500	656.524	79.995	19.995	100.005	20.171	1.369	0.473
1157.000	656.806	79.996	19.995	100.006	20.176	0.783	0.478
1157.500	657.062	79.995	19.995	100.005	20.174	1.044	0.520
1158.000	657.344	79.997	19.996	100.005	20.175	0.926	0.538
1158.500	657.575	79.994	19.994	100.005	20.173	1.097	0.526
1159.000	657.803	79.995	19.995	100.005	20.179	0.500	0.486
1159.500	658.015	79.994	19.995	100.005	20.181	0.377	0.449
1160.000	658.351	79.995	19.996	100.005	20.174	1.072	0.494
1160.500	658.571	79.997	19.996	100.005	20.176	0.794	0.552
1161.000	658.845	79.995	19.994	100.006	20.176	0.858	0.525
1161.500	659.137	79.995	19.995	100.007	20.175	0.929	0.530
1162.000	659.332	79.995	19.996	100.008	20.180	0.451	0.526
1162.500	659.618	79.995	19.996	100.009	20.175	0.954	0.483
1163.000	659.880	79.994	19.995	100.009	20.180	0.462	0.514
1163.500	660.152	79.995	19.996	100.008	20.177	0.695	0.541
1164.000	660.378	79.995	19.996	100.009	20.177	0.756	0.516
1164.500	660.623	79.994	19.996	100.008	20.174	0.998	0.485
1165.000	660.905	79.993	19.995	100.008	20.181	0.355	0.499
1165.500	661.170	79.995	19.996	100.007	20.182	0.190	0.537
1166.000	661.367	79.995	19.996	100.007	20.178	0.651	0.505
1166.500	661.668	79.993	19.995	100.007	20.172	1.264	0.480
1167.000	661.914	79.993	19.994	100.008	20.178	0.616	0.523
1167.500	662.125	79.994	19.996	100.008	20.178	0.676	0.502
1168.000	662.389	79.993	19.996	100.009	20.174	0.995	0.466
1168.500	662.674	79.994	19.996	100.012	20.171	1.292	0.512
1169.000	662.924	79.995	19.995	100.012	20.179	0.541	0.541
1169.500	663.177	79.995	19.996	100.010	20.176	0.786	0.519
1170.000	663.411	79.995	19.995	100.014	20.178	0.583	0.495
1170.500	663.660	79.994	19.995	100.017	20.179	0.500	0.485
1171.000	663.903	79.993	19.996	100.019	20.175	0.915	0.487
1171.500	664.158	79.995	19.996	100.024	20.176	0.786	0.495
1172.000	664.460	79.995	19.996	100.026	20.177	0.778	0.528
1172.500	664.682	79.995	19.995	100.023	20.178	0.616	0.541
1173.000	664.939	79.995	19.996	100.018	20.176	0.871	0.502
1173.500	665.200	79.994	19.998	100.013	20.177	0.781	0.499
1174.000	665.410	79.995	19.996	100.011	20.181	0.308	0.495
1174.501	665.696	79.995	19.995	100.010	20.176	0.789	0.483
1175.001	665.966	79.995	19.995	100.011	20.178	0.638	0.526
1175.500	666.224	79.996	19.997	100.011	20.178	0.638	0.542
1176.000	666.462	79.995	19.996	100.012	20.177	0.750	0.512
1176.500	666.719	79.997	19.995	100.008	20.176	0.783	0.495
1177.000	666.952	79.996	19.996	100.010	20.174	1.009	0.492
1177.500	667.239	79.996	19.996	100.009	20.176	0.844	0.505
1178.000	667.498	79.996	19.996	100.010	20.181	0.305	0.533
1178.500	667.737	79.995	19.994	100.011	20.179	0.558	0.522
1179.000	667.982	79.996	19.996	100.010	20.180	0.443	0.492
1179.500	668.232	79.997	19.995	100.008	20.179	0.563	0.489
1180.000	668.475	79.997	19.995	100.009	20.175	0.940	0.494
1180.500	668.735	79.998	19.995	100.009	20.179	0.580	0.498
1181.000	668.987	79.998	19.994	100.008	20.176	0.841	0.507
1181.500	669.185	79.998	19.994	100.007	20.176	0.827	0.481
1182.000	669.429	79.998	19.995	100.006	20.179	0.497	0.446
1182.500	669.698	79.996	19.994	100.009	20.172	1.267	0.478
1183.000	670.013	79.996	19.995	100.009	20.177	0.767	0.549
1183.500	670.289	79.998	19.994	100.010	20.179	0.517	0.587
1184.000	670.508	79.995	19.993	100.017	20.173	1.138	0.542
1184.500	670.767	79.995	19.995	100.018	20.178	0.638	0.486
1185.000	670.991	79.996	19.994	100.016	20.172	1.201	0.480
1185.500	671.244	79.996	19.995	100.014	20.177	0.764	0.480
1186.000	671.505	79.997	19.995	100.013	20.177	0.687	0.496
1186.500	671.750	79.996	19.995	100.007	20.176	0.816	0.510
1187.000	671.995	79.996	19.995	100.007	20.178	0.596	0.498
1187.500	672.266	79.997	19.995	100.006	20.178	0.635	0.503
1188.000	672.512	79.998	19.996	100.009	20.176	0.833	0.517
1188.500	672.752	79.995	19.994	100.009	20.179	0.497	0.502
1189.000	673.016	79.997	19.996	100.009	20.178	0.624	0.495
1189.500	673.300	79.995	19.995	100.009	20.174	1.003	0.526
1190.000	673.534	79.997	19.995	100.009	20.177	0.764	0.533
1190.500	673.782	79.996	19.994	100.007	20.180	0.451	0.500
1191.000	674.057	79.996	19.994	100.006	20.179	0.574	0.502
1191.500	674.301	79.996	19.996	100.006	20.179	0.514	0.520
1192.000	674.559	79.996	19.996	100.005	20.176	0.836	0.510
1192.500	674.828	79.996	19.994	100.004	20.180	0.415	0.515
1193.000	675.035	79.997	19.996	100.004	20.180	0.407	0.502
1193.500	675.305	79.997	19.995	100.006	20.178	0.651	0.477
1194.000	675.577	79.996	19.996	100.007	20.180	0.470	0.509
1194.500	675.867	79.996	19.994	100.008	20.177	0.706	0.552
1195.000	676.120	79.997	19.996	100.007	20.179	0.577	0.552
1195.500	676.354	79.998	19.995	100.007	20.177	0.764	0.515
1196.000	676.592	79.999	19.995	100.006	20.175	0.907	0.479
1196.500	676.846	80.000	19.995	100.005	20.180	0.385	0.482
1197.000	677.093	79.997	19.994	100.005	20.179	0.574	0.497
1197.500	677.364	79.996	19.994	100.006	20.177	0.682	0.510
1198.000	677.613	79.998	19.995	100.007	20.177	0.750	0.519
1198.501	677.875	79.999	19.994	100.006	20.179	0.500	0.516
1199.001	678.121	79.998	19.995	100.006	20.173	1.110	0.509
1199.500	678.374	79.999	19.994	100.006	20.181	0.289	0.503
1200.000	678.620	79.999	19.994	100.006	20.183	0.154	0.499
1200.500	678.897	79.998	19.994	100.003	20.178	0.627	0.511
1201.000	679.119	79.998	19.995	100.004	20.180	0.467	0.511
1201.500	679.404	79.997	19.994	100.003	20.181	0.338	0.503
1202.000	679.678	79.998	19.995	100.006	20.181	0.319	0.533
1202.500	679.879	79.999	19.996	100.010	20.178	0.583	0.516
1203.000	680.168	79.999	19.995	100.011	20.179	0.514	0.482
1203.500	680.413	79.998	19.995	100.011	20.180	0.454	0.512
1204.000	680.679	79.998	19.994	100.010	20.178	0.583	0.523
1204.500	680.945	79.998	19.995	100.007	20.178	0.583	0.521
1205.000	681.201	79.999	19.995	100.003	20.176	0.808	0.527
1205.500	681.436	79.997	19.994	100.002	20.177	0.709	0.506
1206.000	681.745	79.999	19.995	100.002	20.183	0.115	0.517
1206.500	681.969	79.997	19.995	100.003	20.185	-0.041	0.539
1207.000	682.194	79.999	19.995	100.003	20.180	0.453	0.492
1207.500	682.481	79.999	19.995	100.004	20.181	0.305	0.481
1208.000	682.753	79.997	19.995	100.005	20.178	0.585	0.535
1208.500	683.020	79.997	19.993	100.006	20.179	0.519	0.549
1209.000	683.282	79.997	19.995	100.007	20.184	0.055	0.534
1209.500	683.515	79.997	19.995	100.008	20.181	0.313	0.512
1210.001	683.795	79.997	19.995	100.008	20.180	0.451	0.504
1210.500	684.049	79.996	19.994	100.006	20.182	0.264	0.523
1211.000	684.309	79.995	19.995	100.006	20.178	0.583	0.524
1211.500	684.586	79.994	19.994	100.005	20.182	0.217	0.526
1212.000	684.830	79.995	19.995	100.004	20.179	0.539	0.529
1212.500	685.063	79.996	19.995	100.002	20.180	0.440	0.499
1213.000	685.324	79.995	19.995	100.005	20.178	0.583	0.485
1213.500	685.577	79.996	19.995	100.008	20.181	0.291	0.504
1214.000	685.852	79.996	19.994	100.008	20.186	-0.140	0.521
1214.500	686.146	79.995	19.995	100.009	20.179	0.522	0.548
1215.000	686.381	79.997	19.994	100.009	20.183	0.091	0.549
1215.500	686.642	79.995	19.994	100.008	20.183	0.093	0.512
1216.000	686.956	79.995	19.994	100.005	20.181	0.322	0.536
1216.500	687.142	79.996	19.994	100.005	20.182	0.206	0.538
1217.000	687.351	79.995	19.995	100.004	20.181	0.360	0.448
1217.500	687.704	79.995	19.995	100.004	20.182	0.206	0.478
1218.000	687.909	79.996	19.995	100.003	20.179	0.511	0.560
1218.500	688.163	79.997	19.994	100.004	20.181	0.302	0.509
1219.000	688.405	79.996	19.995	100.004	20.180	0.440	0.478
1219.500	688.699	79.996	19.994	100.004	20.182	0.190	0.516
1220.000	688.979	79.995	19.995	100.004	20.181	0.324	0.555
1220.500	689.218	79.996	19.995	100.005	20.179	0.484	0.546
1221.000	689.509	79.995	19.994	100.005	20.179	0.530	0.524
1221.500	689.743	79.996	19.995	100.008	20.179	0.558	0.527
1222.000	690.016	79.995	19.994	100.009	20.180	0.443	0.516
1222.500	690.233	79.995	19.994	100.009	20.177	0.695	0.499
1223.000	690.533	79.995	19.994	100.009	20.189	-0.443	0.504
1223.500	690.788	79.994	19.995	100.010	20.181	0.289	0.536
1224.000	691.008	79.994	19.994	100.010	20.175	0.929	0.515
1224.500	691.277	79.994	19.994	100.009	20.183	0.085	0.482
1225.000	691.580	79.995	19.995	100.009	20.176	0.880	0.530
1225.500	691.793	79.996	19.995	100.010	20.184	0.077	0.544
1226.000	692.050	79.995	19.995	100.009	20.184	0.063	0.493
1226.500	692.328	79.994	19.994	100.006	20.180	0.382	0.503
1227.001	692.587	79.994	19.995	100.008	20.180	0.407	0.536
1227.501	692.847	79.995	19.996	100.010	20.182	0.190	0.528
1228.000	693.072	79.996	19.996	100.013	20.183	0.118	0.503
1228.500	693.368	79.996	19.995	100.015	20.181	0.352	0.503
1229.000	693.614	79.995	19.996	100.019	20.179	0.508	0.531
1229.500	693.877	79.995	19.995	100.023	20.179	0.555	0.526
1230.000	694.150	79.996	19.995	100.023	20.180	0.423	0.523
1230.500	694.416	79.994	19.995	100.020	20.182	0.206	0.538
1231.000	694.632	79.996	19.995	100.019	20.181	0.311	0.510
1231.500	694.891	79.994	19.995	100.016	20.185	-0.041	0.479
1232.000	695.155	79.994	19.995	100.011	20.178	0.654	0.499
1232.500	695.443	79.995	19.995	100.009	20.177	0.761	0.537
1233.000	695.697	79.996	19.996	100.009	20.182	0.231	0.547
1233.500	695.913	79.996	19.996	100.009	20.182	0.201	0.506
1234.000	696.175	79.996	19.995	100.008	20.180	0.423	0.474
1234.500	696.437	79.995	19.996	100.012	20.183	0.179	0.502
1235.000	696.698	79.997	19.995	100.017	20.183	0.168	0.524
1235.500	696.948	79.994	19.996	100.017	20.175	0.954	0.517
1236.000	697.190	79.996	19.996	100.017	20.180	0.421	0.502
1236.500	697.432	79.995	19.995	100.022	20.185	-0.041	0.488
1237.000	697.725	79.993	19.995	100.025	20.180	0.426	0.509
1237.500	698.012	79.994	19.995	100.022	20.179	0.536	0.558
1238.000	698.221	79.994	19.995	100.022	20.178	0.588	0.538
1238.500	698.503	79.995	19.995	100.022	20.183	0.159	0.493
1239.000	698.756	79.993	19.995	100.016	20.177	0.704	0.513
1239.500	698.981	79.995	19.995	100.013	20.179	0.572	0.507
1240.000	699.233	79.996	19.995	100.011	20.178	0.618	0.477
1240.500	699.503	79.993	19.994	100.015	20.177	0.737	0.499
1241.000	699.733	79.994	19.995	100.017	20.178	0.646	0.511
1241.500	699.994	79.994	19.996	100.018	20.178	0.679	0.495
1242.001	700.255	79.993	19.995	100.019	20.184	-0.019	0.507
1242.500	700.502	79.995	19.995	100.019	20.180	0.393	0.515
1243.000	700.767	79.993	19.994	100.017	20.175	0.951	0.511
1243.500	700.985	79.994	19.995	100.017	20.183	0.121	0.498
1244.000	701.263	79.994	19.994	100.016	20.175	0.885	0.489
1244.500	701.507	79.994	19.995	100.013	20.172	1.231	0.508
1245.000	701.723	79.995	19.996	100.010	20.176	0.800	0.491
1245.501	702.019	79.994	19.994	100.009	20.179	0.520	0.487
1246.001	702.262	79.993	19.995	100.008	20.179	0.572	0.526
1246.500	702.480	79.994	19.995	100.009	20.174	0.998	0.500
1247.000	702.739	79.995	19.995	100.012	20.180	0.473	0.469
1247.500	702.993	79.996	19.996	100.018	20.179	0.566	0.495
1248.000	703.248	79.996	19.996	100.022	20.184	0.049	0.511
1248.500	703.546	79.996	19.995	100.023	20.178	0.621	0.531
1249.000	703.770	79.996	19.995	100.021	20.180	0.401	0.537
1249.500	704.039	79.997	19.996	100.018	20.178	0.651	0.507
1250.000	704.290	79.997	19.995	100.016	20.176	0.811	0.506
1250.500	704.557	79.996	19.997	100.013	20.180	0.396	0.519
1251.000	704.796	79.995	19.995	100.012	20.179	0.489	0.512
1251.501	705.027	79.996	19.995	100.011	20.173	1.127	0.488
1252.001	705.257	79.996	19.996	100.011	20.177	0.775	0.466
1252.500	705.513	79.995	19.996	100.007	20.177	0.728	0.474
1253.000	705.798	79.997	19.996	100.007	20.178	0.632	0.514
1253.501	706.016	79.996	19.996	100.006	20.178	0.621	0.522
1254.000	706.280	79.997	19.996	100.008	20.176	0.847	0.492
1254.500	706.494	79.996	19.995	100.012	20.178	0.657	0.480
1255.000	706.766	79.996	19.996	100.015	20.183	0.102	0.482
1255.500	707.057	79.995	19.996	100.016	20.180	0.401	0.525
1256.001	707.323	79.995	19.995	100.020	20.178	0.676	0.560
1256.500	707.540	79.997	19.995	100.020	20.179	0.539	0.520
1257.000	707.764	79.998	19.995	100.016	20.176	0.869	0.462
1257.500	708.022	79.997	19.998	100.012	20.177	0.748	0.462
1258.000	708.256	79.997	19.996	100.012	20.179	0.506	0.487
1258.500	708.531	79.996	19.997	100.008	20.179	0.558	0.500
1259.001	708.787	79.997	19.995	100.006	20.175	0.965	0.520
1259.501	709.042	79.996	19.995	100.006	20.178	0.668	0.521
1260.000	709.273	79.996	19.996	100.007	20.177	0.739	0.499
1260.500	709.510	79.996	19.994	100.009	20.172	1.209	0.477
1261.000	709.798	79.997	19.996	100.010	20.176	0.844	0.496
1261.500	710.053	79.997	19.996	100.013	20.172	1.256	0.533
1262.000	710.313	79.998	19.996	100.017	20.177	0.778	0.529
1262.500	710.513	79.997	19.996	100.018	20.174	1.000	0.487
1263.000	710.777	79.996	19.995	100.016	20.181	0.333	0.462
1263.500	711.053	79.994	19.996	100.016	20.175	0.932	0.503
1264.000	711.280	79.996	19.995	100.012	20.175	0.899	0.522
1264.500	711.530	79.997	19.996	100.008	20.175	0.954	0.489
1265.000	711.783	79.997	19.995	100.006	20.176	0.819	0.489
1265.500	712.063	79.996	19.995	100.004	20.175	0.921	0.518
1266.000	712.331	79.996	19.996	100.003	20.175	0.902	0.541
1266.500	712.551	79.996	19.995	100.003	20.176	0.805	0.518
1267.001	712.803	79.995	19.996	100.003	20.176	0.830	0.480
1267.501	713.080	79.995	19.995	100.003	20.173	1.091	0.501
1268.000	713.348	79.996	19.994	100.008	20.180	0.448	0.537
1268.500	713.581	79.996	19.995	100.013	20.176	0.803	0.522
1269.000	713.827	79.997	19.996	100.014	20.172	1.242	0.490
1269.500	714.110	79.996	19.995	100.018	20.172	1.240	0.504
1270.001	714.357	79.997	19.995	100.017	20.179	0.555	0.530
1270.500	714.580	79.997	19.995	100.012	20.180	0.396	0.500
1271.000	714.840	79.996	19.994	100.010	20.174	1.058	0.477
1271.500	715.089	79.996	19.994	100.011	20.173	1.154	0.496
1272.000	715.362	79.996	19.996	100.008	20.183	0.115	0.515
1272.500	715.621	79.996	19.995	100.008	20.180	0.432	0.527
1273.000	715.850	79.996	19.994	100.008	20.173	1.132	0.510
1273.500	716.092	79.997	19.995	100.005	20.174	1.058	0.480
1274.000	716.344	79.996	19.995	100.005	20.174	1.039	0.483
1274.500	716.611	79.997	19.995	100.008	20.179	0.489	0.507
1275.000	716.861	79.997	19.995	100.010	20.182	0.261	0.518
1275.500	717.097	79.998	19.994	100.013	20.179	0.555	0.502
1276.000	717.380	79.998	19.994	100.018	20.175	0.973	0.503
1276.500	717.619	79.998	19.995	100.019	20.177	0.778	0.520
1277.000	717.875	79.998	19.994	100.017	20.178	0.674	0.508
1277.500	718.136	79.998	19.994	100.015	20.177	0.723	0.506
1278.000	718.392	79.998	19.995	100.012	20.180	0.445	0.517
1278.501	718.622	79.999	19.995	100.010	20.177	0.742	0.502
1279.001	718.890	79.998	19.996	100.011	20.175	0.896	0.492
1279.500	719.130	79.998	19.994	100.012	20.178	0.608	0.503
1280.000	719.381	79.999	19.995	100.012	20.177	0.745	0.499
1280.500	719.653	79.999	19.996	100.012	20.173	1.166	0.507
1281.000	719.911	79.998	19.995	100.013	20.175	0.907	0.527
1281.500	720.156	79.997	19.994	100.011	20.178	0.618	0.517
1282.000	720.410	80.000	19.995	100.011	20.179	0.558	0.500
1282.500	720.662	79.998	19.995	100.013	20.180	0.385	0.502
1283.000	720.905	79.997	19.995	100.014	20.179	0.487	0.501
1283.500	721.113	79.997	19.995	100.011	20.182	0.225	0.473
1284.000	721.373	79.999	19.994	100.012	20.183	0.093	0.460
1284.500	721.644	79.998	19.995	100.018	20.180	0.382	0.500
1285.000	721.933	79.997	19.995	100.021	20.179	0.547	0.546
1285.500	722.160	79.997	19.995	100.024	20.177	0.748	0.538
1286.000	722.432	79.999	19.996	100.028	20.178	0.594	0.507
1286.500	722.685	79.997	19.995	100.031	20.176	0.866	0.512
1287.000	722.914	79.996	19.995	100.028	20.176	0.880	0.504
1287.500	723.185	79.996	19.993	100.026	20.177	0.767	0.491
1288.000	723.445	79.997	19.994	100.025	20.178	0.663	0.516
1288.500	723.675	79.995	19.995	100.023	20.177	0.734	0.511
1289.000	723.948	79.995	19.996	100.022	20.174	1.080	0.496
1289.500	724.194	79.995	19.995	100.026	20.176	0.833	0.511
1290.000	724.451	79.995	19.995	100.025	20.179	0.522	0.511
1290.500	724.706	79.997	19.994	100.029	20.177	0.773	0.508
1291.000	724.989	79.994	19.995	100.028	20.175	0.968	0.525
1291.500	725.193	79.994	19.994	100.023	20.173	1.119	0.512
1292.000	725.462	79.996	19.995	100.019	20.176	0.822	0.480
1292.501	725.723	79.995	19.994	100.016	20.176	0.869	0.502
1293.000	725.952	79.996	19.995	100.015	20.177	0.770	0.510
1293.500	726.213	79.996	19.997	100.020	20.178	0.640	0.490
1294.000	726.464	79.995	19.994	100.025	20.177	0.772	0.501
1294.500	726.700	79.994	19.994	100.024	20.176	0.808	0.500
1295.000	726.952	79.996	19.995	100.024	20.176	0.814	0.487
1295.500	727.265	79.995	19.994	100.023	20.175	0.882	0.526
1296.000	727.477	79.996	19.994	100.017	20.178	0.630	0.545
1296.500	727.740	79.997	19.994	100.012	20.171	1.328	0.500
1297.000	728.016	79.994	19.994	100.012	20.174	1.009	0.507
1297.500	728.256	79.995	19.994	100.015	20.173	1.152	0.528
1298.000	728.550	79.994	19.996	100.019	20.173	1.152	0.525
1298.500	728.724	79.995	19.995	100.023	20.175	0.932	0.501
1299.000	729.011	79.995	19.994	100.029	20.178	0.657	0.464
1299.500	729.272	79.996	19.994	100.035	20.173	1.176	0.505
1300.000	729.530	79.996	19.994	100.034	20.180	0.401	0.534
1300.500	729.803	79.997	19.995	100.033	20.174	1.006	0.525
1301.000	730.039	79.994	19.994	100.034	20.178	0.613	0.520
1301.500	730.297	79.994	19.997	100.034	20.177	0.761	0.501
1302.000	730.544	79.992	19.994	100.032	20.171	1.314	0.499
1302.500	730.827	79.998	19.994	100.029	20.174	1.020	0.518
1303.000	731.045	79.995	19.994	100.024	20.175	0.891	0.516
1303.500	731.368	79.996	19.994	100.019	20.178	0.671	0.521
1304.000	731.612	79.995	19.995	100.013	20.174	1.061	0.554
1304.500	731.865	79.996	19.994	100.011	20.172	1.212	0.532
1305.000	732.086	79.996	19.995	100.010	20.173	1.099	0.486
1305.500	732.310	79.997	19.995	100.013	20.176	0.863	0.459
1306.000	732.576	79.996	19.995	100.014	20.173	1.097	0.467
1306.500	732.872	79.995	19.994	100.018	20.176	0.869	0.526
1307.000	733.152	79.994	19.994	100.024	20.178	0.594	0.569
1307.500	733.430	79.995	19.994	100.026	20.174	1.044	0.567
1308.000	733.626	79.997	19.995	100.024	20.176	0.863	0.516
1308.500	733.918	79.995	19.996	100.022	20.177	0.687	0.481
1309.000	734.208	79.996	19.994	100.019	20.174	1.053	0.535
1309.500	734.423	79.995	19.994	100.013	20.176	0.877	0.544
1310.000	734.702	79.995	19.994	100.012	20.176	0.830	0.500
1310.500	734.932	79.995	19.994	100.012	20.178	0.605	0.501
1311.001	735.196	79.996	19.995	100.011	20.174	1.003	0.501
1311.500	735.465	79.995	19.994	100.010	20.177	0.748	0.514
1312.000	735.692	79.995	19.994	100.011	20.175	0.943	0.514
1312.500	735.969	79.995	19.995	100.010	20.177	0.709	0.500
1313.000	736.256	79.995	19.995	100.009	20.175	0.904	0.534
1313.500	736.503	79.996	19.995	100.009	20.172	1.275	0.549
1314.000	736.775	79.994	19.995	100.010	20.174	1.003	0.527
1314.500	736.981	79.996	19.996	100.008	20.179	0.495	0.498
1315.000	737.311	79.996	19.996	100.008	20.170	1.418	0.507
1315.500	737.559	79.995	19.995	100.008	20.175	0.926	0.557
1316.001	737.796	79.995	19.996	100.008	20.175	0.973	0.532
1316.501	738.077	79.994	19.996	100.006	20.179	0.563	0.502
1317.000	738.351	79.996	19.996	100.006	20.176	0.880	0.537
1317.500	738.578	79.996	19.997	100.005	20.175	0.981	0.528
1318.000	738.858	79.994	19.997	100.009	20.173	1.165	0.504
1318.500	739.111	79.995	19.996	100.009	20.173	1.091	0.520
1319.000	739.366	79.997	19.997	100.010	20.178	0.635	0.521
1319.500	739.637	79.997	19.995	100.010	20.173	1.135	0.517
1320.000	739.880	79.995	19.996	100.010	20.172	1.253	0.520
1320.500	740.139	79.995	19.996	100.008	20.176	0.797	0.508
1321.000	740.436	79.996	19.995	100.010	20.176	0.803	0.529
1321.500	740.673	79.993	19.995	100.010	20.176	0.830	0.546
1322.000	740.914	79.994	19.995	100.011	20.178	0.594	0.506
1322.500	741.213	79.995	19.995	100.012	20.175	0.888	0.509
1323.000	741.490	79.994	19.996	100.013	20.177	0.709	0.558
1323.500	741.725	79.994	19.997	100.011	20.174	1.022	0.544
1324.000	741.990	79.995	19.996	100.010	20.174	1.047	0.506
1324.500	742.245	79.995	19.996	100.011	20.173	1.154	0.510
1325.000	742.512	79.995	19.995	100.012	20.176	0.858	0.521
1325.500	742.804	79.995	19.995	100.010	20.173	1.182	0.541
1326.000	743.026	79.996	19.995	100.010	20.175	0.965	0.536
1326.500	743.297	79.994	19.996	100.010	20.176	0.816	0.503
