Sample ID:	C:\MCC\MCC Cal\Countertop_Plastic_LaminateA_MCC_30K_min_211103_R3.txt
Sample Weight (mg):	4.62
Heating Rate (C/s):	0.5
Combustor Temp (C):	900
N2 Flow Rate (cc/min):	80
O2 Flow Rate (cc/min):	20
Calibration File:	C:\MCC\MCC Cal\Coeff1 JN10440_30_210304.txt.txt
T Correction Coefficients:	0	1.024463	0
Time Shift (s):	14
*
Time (s)	Temperature (C)	N2 flow rate (cc/min)	O2 flow rate (cc/min)	Flow Rate (cc/min)	Oxygen (%)	HRR (W/g)	Heating rate (C/s)
0.000	107.596	80.008	19.996	103.052	20.133	0.142	0.014
0.500	107.627	80.007	19.995	103.052	20.133	0.096	-0.016
1.000	107.630	80.008	19.995	103.054	20.134	0.011	0.009
1.500	107.593	80.007	19.994	103.057	20.133	0.125	0.000
2.000	107.591	80.008	19.995	103.058	20.133	0.083	-0.036
2.500	107.628	80.008	19.994	103.058	20.134	0.053	-0.002
3.000	107.632	80.008	19.995	103.057	20.133	0.091	0.038
3.500	107.611	80.008	19.994	103.055	20.134	0.011	0.012
4.000	107.612	80.009	19.995	103.054	20.135	-0.009	-0.019
4.500	107.623	80.008	19.995	103.054	20.135	-0.017	-0.004
5.000	107.586	80.008	19.995	103.054	20.136	-0.115	-0.007
5.500	107.632	80.008	19.995	103.055	20.132	0.168	-0.009
6.000	107.605	80.010	19.995	103.057	20.135	-0.017	0.014
6.500	107.612	80.009	19.994	103.056	20.130	0.310	-0.000
7.000	107.580	80.009	19.995	103.056	20.134	0.013	-0.022
7.500	107.613	80.009	19.995	103.056	20.134	0.040	-0.012
8.000	107.606	80.009	19.994	103.057	20.133	0.127	0.014
8.500	107.675	80.010	19.997	103.056	20.136	-0.083	0.044
9.000	107.604	80.010	19.995	103.054	20.136	-0.110	0.030
9.500	107.635	80.009	19.997	103.053	20.133	0.115	-0.021
10.000	107.619	80.009	19.996	103.054	20.131	0.255	-0.012
10.500	107.620	80.010	19.996	103.058	20.134	0.053	-0.000
11.001	107.635	80.010	19.996	103.064	20.133	0.106	0.000
11.501	107.616	80.010	19.994	103.068	20.131	0.234	0.006
12.000	107.616	80.009	19.995	103.068	20.130	0.287	-0.011
12.500	107.620	80.008	19.995	103.070	20.130	0.295	-0.008
13.000	107.584	80.009	19.995	103.067	20.130	0.285	-0.014
13.500	107.601	80.009	19.995	103.065	20.134	0.074	-0.025
14.000	107.617	80.008	19.995	103.064	20.129	0.410	0.007
14.500	107.582	80.009	19.995	103.069	20.127	0.503	0.007
15.000	107.609	80.008	19.994	103.076	20.131	0.280	-0.014
15.501	107.599	80.009	19.994	103.083	20.128	0.473	0.004
16.001	107.568	80.007	19.995	103.096	20.128	0.459	-0.012
16.500	107.610	80.008	19.995	103.111	20.126	0.597	-0.015
17.000	107.648	80.008	19.995	103.121	20.125	0.692	0.046
17.501	107.638	80.008	19.994	103.128	20.122	0.849	0.054
18.001	107.665	80.007	19.995	103.140	20.126	0.599	0.023
18.500	107.666	80.008	19.995	103.148	20.121	0.958	0.022
19.000	107.658	80.005	19.995	103.156	20.122	0.864	0.010
19.500	107.659	80.006	19.995	103.164	20.120	0.983	-0.007
20.000	107.710	80.006	19.995	103.174	20.120	0.989	0.023
20.500	107.727	80.006	19.995	103.181	20.114	1.412	0.060
21.000	107.733	80.006	19.996	103.189	20.115	1.393	0.045
21.501	107.745	80.006	19.995	103.201	20.114	1.437	0.021
22.001	107.804	80.006	19.996	103.211	20.110	1.694	0.045
22.500	107.832	80.006	19.995	103.217	20.111	1.667	0.079
23.000	107.848	80.005	19.996	103.225	20.111	1.652	0.065
23.500	107.879	80.006	19.995	103.229	20.108	1.870	0.045
24.000	107.926	80.005	19.996	103.234	20.108	1.866	0.062
24.500	107.933	80.006	19.995	103.237	20.104	2.142	0.066
25.000	107.965	80.006	19.996	103.243	20.102	2.290	0.047
25.500	107.987	80.006	19.996	103.245	20.103	2.182	0.047
26.000	108.059	80.004	19.996	103.249	20.103	2.201	0.074
26.501	108.103	80.005	19.995	103.250	20.104	2.120	0.105
27.001	108.167	80.004	19.996	103.252	20.102	2.245	0.112
27.500	108.200	80.004	19.995	103.251	20.101	2.326	0.103
28.000	108.261	80.005	19.996	103.252	20.100	2.390	0.095
28.500	108.289	80.004	19.996	103.251	20.101	2.339	0.091
29.000	108.365	80.006	19.995	103.249	20.101	2.327	0.097
29.500	108.415	80.005	19.997	103.249	20.102	2.290	0.115
30.000	108.463	80.006	19.995	103.251	20.099	2.479	0.112
30.500	108.526	80.006	19.995	103.251	20.104	2.144	0.104
31.000	108.614	80.005	19.995	103.253	20.100	2.388	0.131
31.500	108.646	80.007	19.995	103.260	20.101	2.358	0.136
32.000	108.741	80.007	19.995	103.261	20.100	2.409	0.124
32.500	108.792	80.006	19.995	103.253	20.100	2.394	0.136
33.000	108.836	80.006	19.995	103.248	20.099	2.502	0.120
33.500	108.895	80.006	19.995	103.247	20.098	2.581	0.099
34.000	108.976	80.005	19.996	103.242	20.097	2.588	0.122
34.500	109.052	80.006	19.995	103.242	20.098	2.520	0.149
35.001	109.144	80.007	19.995	103.254	20.098	2.573	0.162
35.501	109.231	80.007	19.995	103.263	20.095	2.736	0.173
36.000	109.338	80.006	19.996	103.268	20.094	2.823	0.187
36.500	109.349	80.006	19.994	103.273	20.095	2.787	0.156
37.000	109.480	80.006	19.994	103.277	20.098	2.555	0.130
37.500	109.558	80.007	19.994	103.280	20.098	2.583	0.176
38.000	109.639	80.006	19.995	103.281	20.093	2.870	0.184
38.500	109.705	80.006	19.995	103.277	20.096	2.690	0.153
39.000	109.764	80.006	19.994	103.273	20.096	2.713	0.136
39.500	109.856	80.007	19.994	103.270	20.095	2.777	0.138
40.000	109.969	80.006	19.995	103.264	20.094	2.809	0.178
40.501	110.047	80.006	19.994	103.264	20.095	2.758	0.197
41.001	110.204	80.008	19.994	103.271	20.096	2.719	0.213
41.500	110.244	80.006	19.994	103.278	20.093	2.868	0.216
42.000	110.346	80.006	19.995	103.285	20.092	2.959	0.170
42.500	110.425	80.006	19.994	103.287	20.095	2.764	0.161
43.000	110.551	80.006	19.994	103.284	20.095	2.789	0.193
43.500	110.634	80.008	19.994	103.278	20.093	2.912	0.207
44.000	110.741	80.006	19.994	103.275	20.098	2.560	0.200
44.500	110.893	80.007	19.995	103.269	20.092	2.986	0.225
45.000	110.974	80.006	19.994	103.267	20.095	2.766	0.246
45.500	111.077	80.006	19.994	103.269	20.096	2.717	0.209
46.000	111.184	80.007	19.994	103.270	20.096	2.723	0.198
46.500	111.309	80.006	19.994	103.269	20.097	2.630	0.221
47.001	111.427	80.006	19.995	103.274	20.094	2.838	0.238
47.501	111.511	80.005	19.994	103.278	20.097	2.609	0.222
48.000	111.570	80.006	19.994	103.274	20.097	2.651	0.172
48.500	111.724	80.006	19.995	103.270	20.095	2.760	0.178
49.000	111.835	80.005	19.994	103.267	20.096	2.717	0.239
49.500	111.942	80.006	19.994	103.263	20.097	2.645	0.242
50.000	112.035	80.007	19.994	103.259	20.096	2.657	0.209
50.500	112.156	80.006	19.994	103.258	20.096	2.658	0.207
51.000	112.317	80.007	19.994	103.259	20.098	2.562	0.248
51.500	112.410	80.007	19.995	103.258	20.094	2.846	0.268
52.000	112.560	80.007	19.994	103.257	20.095	2.755	0.248
52.500	112.632	80.007	19.994	103.260	20.095	2.733	0.232
53.000	112.751	80.006	19.995	103.264	20.095	2.742	0.206
53.500	112.895	80.007	19.994	103.264	20.097	2.612	0.227
54.000	112.979	80.007	19.993	103.263	20.094	2.806	0.246
54.500	113.097	80.006	19.994	103.264	20.095	2.736	0.215
55.000	113.255	80.006	19.995	103.264	20.093	2.890	0.239
55.500	113.347	80.006	19.995	103.266	20.095	2.750	0.263
56.000	113.509	80.008	19.994	103.273	20.095	2.778	0.252
56.500	113.591	80.004	19.993	103.280	20.095	2.793	0.249
57.000	113.729	80.007	19.994	103.281	20.094	2.833	0.232
57.500	113.882	80.007	19.995	103.277	20.094	2.848	0.255
58.000	114.041	80.007	19.995	103.272	20.094	2.863	0.301
58.500	114.138	80.007	19.994	103.266	20.094	2.825	0.284
59.000	114.281	80.006	19.994	103.263	20.091	3.047	0.249
59.500	114.418	80.006	19.995	103.264	20.095	2.735	0.260
60.000	114.520	80.006	19.996	103.265	20.093	2.907	0.259
60.500	114.707	80.008	19.994	103.265	20.096	2.676	0.264
61.000	114.824	80.008	19.995	103.266	20.092	2.941	0.296
61.500	114.958	80.008	19.995	103.265	20.094	2.861	0.277
62.000	115.094	80.008	19.995	103.269	20.093	2.892	0.261
62.500	115.229	80.008	19.994	103.276	20.093	2.926	0.271
63.000	115.376	80.008	19.995	103.282	20.091	3.041	0.277
63.500	115.518	80.008	19.995	103.288	20.090	3.117	0.285
64.000	115.627	80.008	19.994	103.291	20.088	3.225	0.270
64.500	115.810	80.007	19.994	103.288	20.090	3.085	0.272
65.001	115.927	80.007	19.994	103.283	20.089	3.193	0.296
65.501	116.095	80.008	19.995	103.280	20.092	2.998	0.292
66.000	116.206	80.008	19.994	103.281	20.090	3.080	0.282
66.500	116.344	80.008	19.994	103.281	20.088	3.218	0.264
67.000	116.481	80.009	19.995	103.284	20.087	3.341	0.262
67.500	116.661	80.009	19.994	103.289	20.088	3.220	0.296
68.000	116.793	80.008	19.995	103.291	20.089	3.195	0.314
68.500	116.971	80.009	19.995	103.290	20.086	3.371	0.311
69.001	117.124	80.008	19.994	103.291	20.088	3.232	0.320
69.501	117.243	80.009	19.993	103.291	20.089	3.159	0.302
70.001	117.431	80.009	19.993	103.289	20.088	3.266	0.290
70.501	117.543	80.009	19.994	103.283	20.087	3.295	0.303
71.000	117.696	80.008	19.994	103.281	20.087	3.310	0.282
71.500	117.840	80.009	19.994	103.281	20.086	3.390	0.281
72.000	118.053	80.009	19.993	103.281	20.086	3.394	0.327
72.500	118.188	80.009	19.994	103.283	20.087	3.309	0.353
73.000	118.341	80.008	19.994	103.292	20.085	3.473	0.318
73.501	118.522	80.008	19.994	103.295	20.089	3.199	0.311
74.001	118.663	80.007	19.994	103.295	20.089	3.163	0.328
74.500	118.821	80.008	19.994	103.295	20.085	3.458	0.311
75.000	118.985	80.009	19.994	103.294	20.088	3.284	0.311
75.500	119.138	80.009	19.993	103.293	20.086	3.418	0.319
76.001	119.289	80.006	19.994	103.299	20.088	3.270	0.310
76.501	119.472	80.008	19.994	103.307	20.085	3.442	0.319
77.000	119.607	80.008	19.994	103.313	20.088	3.238	0.326
77.500	119.798	80.007	19.995	103.318	20.085	3.435	0.322
78.000	119.939	80.008	19.994	103.318	20.086	3.382	0.329
78.500	120.131	80.008	19.993	103.314	20.085	3.429	0.333
79.000	120.292	80.009	19.994	103.309	20.086	3.386	0.343
79.500	120.463	80.008	19.994	103.307	20.087	3.300	0.343
80.000	120.641	80.007	19.994	103.304	20.085	3.433	0.341
80.501	120.799	80.007	19.995	103.304	20.086	3.403	0.343
81.001	120.950	80.007	19.994	103.302	20.085	3.486	0.322
81.500	121.168	80.008	19.994	103.305	20.087	3.348	0.339
82.000	121.323	80.007	19.994	103.308	20.084	3.550	0.371
82.500	121.507	80.008	19.994	103.315	20.086	3.406	0.356
83.000	121.667	80.008	19.995	103.322	20.082	3.675	0.342
83.500	121.875	80.009	19.994	103.328	20.087	3.293	0.356
84.000	122.044	80.007	19.994	103.324	20.090	3.142	0.372
84.500	122.215	80.007	19.994	103.320	20.088	3.234	0.358
85.000	122.399	80.007	19.994	103.318	20.085	3.439	0.347
85.500	122.564	80.007	19.995	103.314	20.085	3.437	0.352
86.000	122.789	80.008	19.995	103.307	20.084	3.493	0.370
86.500	122.972	80.008	19.994	103.307	20.083	3.609	0.399
87.000	123.139	80.007	19.994	103.307	20.086	3.355	0.379
87.500	123.334	80.007	19.995	103.301	20.085	3.457	0.356
88.000	123.522	80.008	19.995	103.298	20.084	3.546	0.373
88.500	123.727	80.009	19.995	103.299	20.086	3.375	0.388
89.000	123.888	80.007	19.995	103.302	20.084	3.539	0.379
89.500	124.088	80.008	19.994	103.301	20.085	3.488	0.364
90.001	124.285	80.009	19.994	103.301	20.087	3.351	0.379
90.501	124.488	80.008	19.995	103.300	20.087	3.335	0.398
91.000	124.661	80.008	19.995	103.302	20.087	3.286	0.388
91.500	124.854	80.008	19.995	103.297	20.084	3.500	0.371
92.000	125.048	80.008	19.995	103.296	20.086	3.409	0.377
92.500	125.210	80.010	19.996	103.296	20.084	3.545	0.372
93.001	125.439	80.009	19.995	103.298	20.084	3.536	0.373
93.501	125.609	80.009	19.994	103.302	20.084	3.508	0.395
94.000	125.808	80.009	19.996	103.307	20.083	3.597	0.384
94.500	126.004	80.010	19.994	103.308	20.083	3.616	0.382
95.000	126.215	80.007	19.995	103.308	20.084	3.538	0.401
95.500	126.419	80.009	19.995	103.308	20.083	3.625	0.411
96.000	126.563	80.008	19.994	103.302	20.083	3.624	0.381
96.500	126.777	80.008	19.995	103.296	20.084	3.516	0.353
97.000	127.015	80.008	19.995	103.295	20.085	3.468	0.405
97.500	127.207	80.008	19.994	103.296	20.086	3.421	0.441
98.000	127.385	80.009	19.994	103.297	20.084	3.559	0.400
98.500	127.591	80.008	19.995	103.299	20.086	3.354	0.377
99.000	127.804	80.008	19.994	103.303	20.082	3.672	0.402
99.501	128.013	80.008	19.995	103.309	20.082	3.634	0.421
100.001	128.191	80.008	19.994	103.315	20.083	3.629	0.405
100.501	128.383	80.008	19.996	103.320	20.081	3.723	0.379
101.000	128.581	80.007	19.995	103.327	20.085	3.457	0.380
101.501	128.820	80.006	19.995	103.330	20.083	3.583	0.413
102.001	129.000	80.007	19.995	103.330	20.082	3.702	0.428
102.500	129.196	80.007	19.994	103.329	20.084	3.521	0.398
103.000	129.416	80.006	19.994	103.329	20.084	3.494	0.397
103.500	129.622	80.007	19.994	103.329	20.085	3.489	0.422
104.000	129.798	80.005	19.993	103.330	20.081	3.755	0.404
104.500	129.995	80.006	19.995	103.332	20.083	3.576	0.377
105.000	130.254	80.005	19.995	103.334	20.084	3.504	0.414
105.500	130.448	80.006	19.994	103.334	20.080	3.787	0.454
106.000	130.660	80.007	19.994	103.337	20.082	3.698	0.429
106.501	130.867	80.006	19.995	103.344	20.085	3.469	0.412
107.001	131.038	80.006	19.994	103.345	20.082	3.695	0.399
107.500	131.264	80.006	19.995	103.346	20.083	3.593	0.388
108.000	131.506	80.006	19.994	103.346	20.083	3.619	0.433
108.501	131.707	80.006	19.994	103.342	20.083	3.576	0.455
109.001	131.929	80.006	19.994	103.330	20.083	3.587	0.433
109.500	132.148	80.006	19.995	103.326	20.084	3.555	0.432
110.000	132.355	80.006	19.994	103.326	20.084	3.519	0.434
110.500	132.594	80.006	19.994	103.326	20.083	3.607	0.436
111.000	132.827	80.006	19.994	103.327	20.082	3.634	0.459
111.500	133.043	80.007	19.995	103.330	20.081	3.753	0.461
112.000	133.277	80.006	19.995	103.332	20.083	3.596	0.450
112.500	133.444	80.006	19.995	103.330	20.085	3.445	0.425
113.000	133.679	80.006	19.996	103.330	20.085	3.443	0.401
113.500	133.918	80.006	19.995	103.329	20.086	3.375	0.438
114.000	134.117	80.007	19.995	103.331	20.084	3.503	0.456
114.500	134.384	80.007	19.995	103.331	20.083	3.594	0.452
115.000	134.599	80.008	19.994	103.330	20.086	3.376	0.474
115.500	134.799	80.007	19.994	103.325	20.085	3.454	0.448
116.000	135.034	80.006	19.995	103.321	20.086	3.386	0.425
116.500	135.268	80.005	19.994	103.314	20.085	3.424	0.452
117.000	135.481	80.006	19.996	103.313	20.085	3.479	0.458
117.501	135.689	80.007	19.996	103.315	20.085	3.433	0.434
118.001	135.920	80.006	19.996	103.318	20.087	3.314	0.430
118.501	136.151	80.007	19.996	103.322	20.084	3.505	0.450
119.001	136.355	80.007	19.996	103.328	20.087	3.348	0.449
119.501	136.599	80.006	19.996	103.331	20.088	3.243	0.442
120.000	136.837	80.007	19.995	103.329	20.082	3.645	0.465
120.500	137.037	80.006	19.996	103.325	20.088	3.263	0.460
121.000	137.283	80.006	19.996	103.317	20.086	3.407	0.442
121.500	137.565	80.006	19.995	103.310	20.086	3.386	0.487
122.000	137.766	80.006	19.996	103.307	20.086	3.395	0.506
122.500	138.006	80.007	19.995	103.306	20.086	3.377	0.462
123.000	138.233	80.008	19.996	103.308	20.088	3.282	0.454
123.501	138.468	80.008	19.996	103.315	20.085	3.441	0.465
124.001	138.701	80.008	19.995	103.320	20.082	3.696	0.465
124.500	138.909	80.007	19.996	103.317	20.084	3.509	0.454
125.000	139.152	80.007	19.995	103.311	20.085	3.462	0.446
125.500	139.372	80.006	19.996	103.308	20.085	3.490	0.457
126.001	139.624	80.007	19.996	103.308	20.085	3.479	0.468
126.501	139.879	80.007	19.996	103.307	20.088	3.273	0.489
127.000	140.080	80.007	19.995	103.313	20.086	3.390	0.482
127.500	140.359	80.007	19.996	103.316	20.085	3.471	0.468
128.000	140.588	80.008	19.995	103.318	20.085	3.430	0.494
128.500	140.811	80.006	19.996	103.319	20.087	3.307	0.480
129.000	141.049	80.006	19.996	103.321	20.083	3.564	0.457
129.500	141.266	80.006	19.996	103.322	20.084	3.500	0.458
130.000	141.497	80.007	19.996	103.323	20.084	3.515	0.451
130.500	141.722	80.008	19.995	103.323	20.085	3.443	0.452
131.000	141.996	80.006	19.996	103.320	20.085	3.460	0.477
131.500	142.237	80.008	19.995	103.315	20.085	3.424	0.507
132.000	142.419	80.007	19.994	103.311	20.088	3.270	0.469
132.500	142.691	80.006	19.995	103.311	20.086	3.376	0.439
133.000	142.944	80.007	19.994	103.312	20.086	3.372	0.490
133.500	143.165	80.006	19.995	103.316	20.087	3.331	0.499
134.000	143.425	80.006	19.995	103.320	20.087	3.329	0.477
134.500	143.634	80.006	19.994	103.317	20.088	3.282	0.475
135.000	143.895	80.006	19.995	103.319	20.086	3.365	0.470
135.500	144.120	80.006	19.993	103.321	20.084	3.522	0.478
136.000	144.369	80.007	19.995	103.321	20.083	3.607	0.480
136.500	144.624	80.006	19.995	103.320	20.083	3.578	0.490
137.000	144.854	80.006	19.995	103.319	20.083	3.599	0.495
137.500	145.097	80.006	19.996	103.317	20.087	3.344	0.479
138.000	145.307	80.007	19.995	103.312	20.088	3.278	0.462
138.500	145.587	80.007	19.995	103.313	20.087	3.295	0.471
139.000	145.841	80.007	19.995	103.315	20.084	3.518	0.512
139.500	146.089	80.006	19.995	103.321	20.085	3.423	0.518
140.000	146.309	80.007	19.995	103.323	20.091	3.074	0.485
140.500	146.555	80.005	19.995	103.326	20.089	3.178	0.467
141.000	146.824	80.007	19.995	103.325	20.087	3.293	0.491
141.500	147.052	80.007	19.995	103.320	20.089	3.180	0.506
142.000	147.298	80.007	19.995	103.313	20.089	3.206	0.485
142.500	147.535	80.006	19.994	103.309	20.088	3.259	0.478
143.000	147.766	80.007	19.995	103.308	20.085	3.435	0.476
143.500	148.007	80.007	19.995	103.304	20.086	3.406	0.470
144.000	148.251	80.007	19.994	103.303	20.086	3.418	0.479
144.500	148.504	80.007	19.995	103.305	20.087	3.309	0.492
145.000	148.741	80.007	19.995	103.309	20.085	3.451	0.494
145.500	149.017	80.007	19.995	103.307	20.088	3.267	0.501
146.000	149.257	80.008	19.994	103.306	20.085	3.475	0.514
146.500	149.503	80.007	19.994	103.307	20.084	3.512	0.501
147.000	149.757	80.007	19.994	103.304	20.087	3.352	0.493
147.500	150.000	80.008	19.994	103.298	20.085	3.437	0.499
148.000	150.250	80.008	19.996	103.299	20.085	3.461	0.495
148.500	150.484	80.008	19.995	103.300	20.086	3.380	0.488
149.000	150.736	80.008	19.995	103.298	20.086	3.420	0.485
149.500	150.978	80.007	19.995	103.299	20.089	3.212	0.490
150.000	151.185	80.008	19.994	103.300	20.089	3.213	0.472
150.500	151.461	80.007	19.994	103.301	20.084	3.527	0.467
151.000	151.692	80.008	19.994	103.302	20.085	3.433	0.495
151.500	151.951	80.008	19.994	103.306	20.085	3.457	0.498
152.000	152.197	80.009	19.995	103.307	20.087	3.316	0.497
152.500	152.476	80.009	19.994	103.306	20.085	3.435	0.515
153.000	152.719	80.007	19.994	103.303	20.084	3.505	0.524
153.500	152.961	80.008	19.994	103.299	20.087	3.300	0.503
154.000	153.191	80.007	19.995	103.297	20.086	3.414	0.478
154.500	153.451	80.007	19.994	103.304	20.086	3.402	0.481
155.000	153.696	80.008	19.995	103.311	20.083	3.576	0.497
155.500	153.953	80.008	19.994	103.318	20.085	3.463	0.503
156.000	154.197	80.009	19.994	103.319	20.084	3.512	0.501
156.500	154.441	80.008	19.995	103.317	20.084	3.524	0.495
157.000	154.668	80.009	19.995	103.310	20.083	3.607	0.480
157.500	154.931	80.008	19.994	103.302	20.079	3.847	0.481
158.000	155.158	80.006	19.995	103.300	20.081	3.713	0.490
158.500	155.410	80.008	19.993	103.301	20.084	3.531	0.484
159.000	155.674	80.008	19.994	103.302	20.079	3.852	0.497
159.501	155.884	80.009	19.994	103.303	20.081	3.712	0.495
160.000	156.113	80.007	19.995	103.303	20.079	3.888	0.456
160.500	156.394	80.007	19.995	103.300	20.078	3.966	0.474
161.000	156.618	80.008	19.994	103.300	20.082	3.690	0.508
161.500	156.860	80.008	19.994	103.301	20.080	3.813	0.486
162.000	157.128	80.008	19.995	103.301	20.083	3.624	0.488
162.500	157.375	80.009	19.995	103.301	20.081	3.756	0.513
163.000	157.683	80.008	19.994	103.300	20.079	3.872	0.535
163.500	157.918	80.007	19.995	103.297	20.079	3.849	0.548
164.000	158.126	80.007	19.995	103.296	20.081	3.715	0.493
164.500	158.402	80.008	19.994	103.296	20.081	3.728	0.464
165.000	158.590	80.006	19.994	103.296	20.083	3.628	0.474
165.500	158.881	80.008	19.994	103.296	20.082	3.698	0.471
166.000	159.112	80.006	19.995	103.296	20.081	3.758	0.501
166.500	159.352	80.008	19.994	103.297	20.080	3.808	0.496
167.000	159.620	80.007	19.994	103.297	20.079	3.866	0.489
167.500	159.871	80.009	19.994	103.297	20.080	3.813	0.513
168.000	160.091	80.008	19.995	103.298	20.082	3.689	0.495
168.500	160.377	80.008	19.994	103.298	20.084	3.556	0.489
169.000	160.618	80.008	19.993	103.296	20.082	3.658	0.516
169.500	160.868	80.009	19.994	103.296	20.079	3.843	0.509
170.000	161.131	80.007	19.994	103.292	20.080	3.775	0.502
170.500	161.335	80.008	19.995	103.286	20.081	3.716	0.490
171.000	161.615	80.008	19.994	103.287	20.080	3.822	0.475
171.500	161.837	80.008	19.994	103.288	20.084	3.561	0.493
172.000	162.080	80.007	19.995	103.290	20.080	3.775	0.483
172.500	162.324	80.009	19.993	103.295	20.083	3.580	0.476
173.000	162.563	80.007	19.994	103.301	20.084	3.516	0.485
173.500	162.778	80.009	19.994	103.300	20.081	3.731	0.469
174.000	163.067	80.008	19.994	103.300	20.083	3.603	0.479
174.500	163.322	80.010	19.994	103.298	20.086	3.415	0.524
175.000	163.548	80.009	19.994	103.298	20.083	3.618	0.513
175.500	163.828	80.008	19.994	103.299	20.083	3.574	0.494
176.000	164.090	80.009	19.994	103.299	20.084	3.523	0.524
176.500	164.342	80.008	19.994	103.299	20.083	3.580	0.527
177.000	164.592	80.008	19.994	103.304	20.082	3.693	0.508
177.500	164.838	80.009	19.994	103.307	20.082	3.641	0.499
178.000	165.079	80.009	19.994	103.310	20.081	3.748	0.491
178.500	165.344	80.009	19.994	103.309	20.084	3.503	0.497
179.000	165.613	80.008	19.994	103.316	20.082	3.658	0.520
179.500	165.863	80.009	19.994	103.312	20.080	3.788	0.527
180.000	166.094	80.010	19.995	103.306	20.084	3.550	0.500
180.500	166.317	80.009	19.995	103.302	20.082	3.689	0.467
181.000	166.590	80.008	19.993	103.302	20.083	3.581	0.475
181.500	166.884	80.009	19.994	103.295	20.084	3.560	0.532
182.000	167.138	80.009	19.994	103.294	20.083	3.566	0.557
182.500	167.372	80.010	19.994	103.293	20.084	3.526	0.518
183.000	167.589	80.008	19.994	103.293	20.084	3.526	0.470
183.500	167.834	80.009	19.995	103.292	20.086	3.406	0.457
184.000	168.060	80.009	19.994	103.292	20.082	3.643	0.466
184.500	168.319	80.009	19.994	103.288	20.084	3.562	0.478
185.000	168.571	80.007	19.994	103.287	20.087	3.342	0.499
185.500	168.829	80.009	19.995	103.285	20.086	3.407	0.511
186.000	169.086	80.009	19.995	103.283	20.086	3.378	0.512
186.500	169.335	80.007	19.995	103.283	20.085	3.450	0.510
187.000	169.565	80.007	19.995	103.286	20.085	3.490	0.493
187.500	169.835	80.008	19.995	103.288	20.085	3.478	0.489
188.000	170.075	80.008	19.995	103.289	20.084	3.499	0.505
188.500	170.344	80.007	19.994	103.291	20.083	3.595	0.510
189.000	170.599	80.007	19.996	103.292	20.083	3.573	0.517
189.500	170.845	80.008	19.994	103.293	20.082	3.643	0.513
190.000	171.070	80.006	19.995	103.297	20.083	3.571	0.486
190.500	171.358	80.006	19.995	103.300	20.083	3.605	0.492
191.000	171.601	80.007	19.995	103.306	20.084	3.522	0.522
191.500	171.855	80.008	19.995	103.311	20.083	3.565	0.514
192.000	172.097	80.008	19.995	103.315	20.083	3.594	0.496
192.500	172.326	80.006	19.995	103.317	20.085	3.454	0.483
193.000	172.590	80.008	19.996	103.315	20.080	3.815	0.482
193.500	172.861	80.009	19.995	103.313	20.082	3.637	0.514
194.000	173.099	80.007	19.995	103.308	20.086	3.421	0.522
194.500	173.354	80.008	19.995	103.303	20.082	3.696	0.501
195.000	173.620	80.007	19.995	103.300	20.082	3.684	0.507
195.500	173.920	80.006	19.995	103.301	20.080	3.800	0.543
196.000	174.091	80.008	19.994	103.303	20.084	3.557	0.519
196.500	174.395	80.007	19.994	103.309	20.083	3.576	0.473
197.000	174.649	80.008	19.995	103.311	20.079	3.877	0.516
197.500	174.921	80.008	19.995	103.309	20.082	3.644	0.542
198.000	175.160	80.007	19.994	103.307	20.082	3.692	0.519
198.500	175.395	80.007	19.996	103.303	20.082	3.663	0.493
199.000	175.662	80.006	19.995	103.297	20.083	3.597	0.488
199.500	175.940	80.006	19.995	103.294	20.085	3.429	0.523
200.000	176.200	80.006	19.995	103.294	20.084	3.535	0.541
200.500	176.457	80.005	19.995	103.294	20.084	3.503	0.528
201.000	176.706	80.008	19.994	103.293	20.082	3.637	0.512
201.500	176.945	80.007	19.995	103.294	20.085	3.488	0.497
202.000	177.226	80.007	19.995	103.298	20.084	3.555	0.504
202.500	177.513	80.006	19.995	103.298	20.081	3.731	0.544
203.000	177.758	80.008	19.995	103.300	20.084	3.521	0.550
203.500	178.011	80.008	19.996	103.300	20.084	3.534	0.515
204.000	178.291	80.007	19.995	103.299	20.082	3.682	0.516
204.500	178.533	80.007	19.995	103.295	20.086	3.372	0.528
205.000	178.787	80.008	19.995	103.295	20.084	3.493	0.510
205.500	179.027	80.008	19.995	103.294	20.081	3.756	0.495
206.000	179.336	80.007	19.995	103.294	20.085	3.429	0.521
206.500	179.563	80.006	19.994	103.292	20.081	3.705	0.542
207.000	179.819	80.006	19.994	103.292	20.081	3.771	0.510
207.500	180.085	80.007	19.995	103.292	20.083	3.608	0.503
208.000	180.347	80.007	19.995	103.290	20.082	3.663	0.525
208.500	180.574	80.007	19.995	103.289	20.083	3.627	0.508
209.000	180.864	80.008	19.995	103.290	20.083	3.610	0.503
209.500	181.146	80.006	19.995	103.292	20.084	3.495	0.545
210.000	181.410	80.007	19.995	103.296	20.085	3.482	0.559
210.500	181.637	80.008	19.995	103.303	20.083	3.595	0.518
211.000	181.925	80.008	19.996	103.308	20.084	3.512	0.503
211.500	182.167	80.007	19.995	103.308	20.086	3.415	0.523
212.000	182.427	80.007	19.996	103.305	20.085	3.476	0.516
212.500	182.701	80.007	19.995	103.298	20.085	3.459	0.518
213.000	182.967	80.008	19.996	103.290	20.085	3.453	0.537
213.500	183.218	80.006	19.996	103.285	20.084	3.550	0.528
214.000	183.507	80.008	19.995	103.284	20.082	3.644	0.528
214.500	183.770	80.005	19.996	103.285	20.083	3.605	0.546
215.000	184.021	80.006	19.996	103.288	20.082	3.697	0.533
215.500	184.284	80.006	19.996	103.290	20.082	3.675	0.514
216.000	184.564	80.006	19.995	103.291	20.084	3.516	0.529
216.500	184.784	80.005	19.995	103.291	20.086	3.406	0.522
217.000	185.071	80.007	19.996	103.291	20.084	3.537	0.503
217.500	185.336	80.005	19.996	103.292	20.085	3.423	0.530
218.000	185.645	80.006	19.996	103.292	20.078	3.926	0.563
218.500	185.851	80.006	19.996	103.292	20.087	3.336	0.544
219.000	186.149	80.007	19.996	103.292	20.086	3.375	0.509
219.500	186.414	80.006	19.995	103.289	20.084	3.514	0.533
220.000	186.667	80.006	19.996	103.289	20.082	3.657	0.541
220.500	186.978	80.006	19.996	103.289	20.082	3.633	0.541
221.000	187.229	80.006	19.996	103.289	20.082	3.669	0.563
221.500	187.446	80.005	19.997	103.286	20.083	3.601	0.515
222.000	187.763	80.005	19.996	103.287	20.084	3.512	0.501
222.500	188.022	80.007	19.997	103.287	20.083	3.567	0.555
223.000	188.204	80.006	19.996	103.287	20.084	3.561	0.508
223.500	188.540	80.006	19.995	103.288	20.084	3.495	0.480
224.000	188.779	80.006	19.995	103.292	20.082	3.691	0.546
224.500	189.031	80.005	19.995	103.293	20.085	3.473	0.533
225.000	189.287	80.005	19.995	103.295	20.084	3.496	0.500
225.500	189.575	80.007	19.996	103.295	20.085	3.432	0.526
226.000	189.835	80.008	19.996	103.294	20.083	3.585	0.546
226.500	190.078	80.006	19.996	103.292	20.083	3.606	0.525
227.000	190.356	80.007	19.995	103.292	20.084	3.535	0.511
227.500	190.643	80.007	19.995	103.292	20.083	3.588	0.543
228.000	190.849	80.007	19.995	103.290	20.084	3.540	0.529
228.500	191.118	80.007	19.996	103.287	20.080	3.776	0.484
229.000	191.402	80.007	19.995	103.288	20.083	3.619	0.514
229.500	191.629	80.008	19.995	103.285	20.082	3.664	0.532
230.000	191.889	80.007	19.995	103.280	20.079	3.853	0.499
230.500	192.184	80.008	19.995	103.281	20.082	3.649	0.521
231.000	192.473	80.008	19.995	103.284	20.080	3.840	0.569
231.500	192.718	80.008	19.995	103.282	20.081	3.746	0.559
232.000	192.971	80.008	19.995	103.284	20.082	3.648	0.516
232.500	193.211	80.009	19.994	103.288	20.081	3.705	0.495
233.000	193.492	80.009	19.995	103.288	20.081	3.712	0.506
233.501	193.784	80.008	19.994	103.290	20.082	3.689	0.547
234.000	194.015	80.009	19.994	103.286	20.082	3.644	0.548
234.500	194.270	80.008	19.994	103.280	20.083	3.606	0.504
235.000	194.539	80.007	19.994	103.274	20.082	3.662	0.505
235.500	194.794	80.007	19.995	103.266	20.079	3.872	0.524
236.000	195.036	80.007	19.994	103.260	20.082	3.677	0.511
236.500	195.288	80.007	19.993	103.266	20.079	3.847	0.496
237.000	195.527	80.009	19.995	103.274	20.080	3.808	0.492
237.500	195.822	80.008	19.996	103.280	20.084	3.528	0.512
238.000	196.058	80.007	19.995	103.289	20.083	3.585	0.533
238.500	196.287	80.008	19.995	103.291	20.083	3.619	0.499
239.000	196.586	80.009	19.994	103.285	20.082	3.641	0.497
239.500	196.854	80.009	19.994	103.277	20.085	3.454	0.547
240.000	197.107	80.008	19.994	103.270	20.085	3.426	0.543
240.500	197.381	80.008	19.995	103.263	20.084	3.511	0.524
241.000	197.619	80.007	19.994	103.260	20.082	3.643	0.520
241.500	197.886	80.008	19.994	103.265	20.084	3.554	0.509
242.000	198.126	80.006	19.994	103.273	20.085	3.426	0.506
242.500	198.367	80.007	19.995	103.280	20.083	3.620	0.494
243.000	198.626	80.008	19.994	103.285	20.083	3.617	0.491
243.500	198.855	80.008	19.994	103.286	20.084	3.522	0.494
244.000	199.120	80.007	19.994	103.282	20.082	3.666	0.491
244.500	199.376	80.007	19.993	103.278	20.083	3.587	0.507
245.000	199.650	80.007	19.994	103.273	20.082	3.691	0.526
245.500	199.918	80.008	19.994	103.270	20.082	3.643	0.536
246.000	200.187	80.006	19.994	103.266	20.082	3.672	0.539
246.500	200.431	80.007	19.994	103.265	20.083	3.600	0.525
247.000	200.687	80.006	19.995	103.262	20.082	3.657	0.507
247.500	200.927	80.008	19.994	103.259	20.081	3.725	0.498
248.000	201.190	80.008	19.995	103.257	20.081	3.738	0.499
248.500	201.462	80.008	19.995	103.258	20.079	3.853	0.519
249.000	201.662	80.007	19.995	103.257	20.079	3.859	0.504
249.500	201.926	80.007	19.995	103.258	20.080	3.794	0.468
250.000	202.189	80.008	19.994	103.260	20.079	3.883	0.495
250.500	202.429	80.008	19.995	103.260	20.075	4.146	0.515
251.000	202.739	80.007	19.994	103.258	20.078	3.916	0.526
251.500	202.970	80.008	19.995	103.258	20.078	3.922	0.545
252.000	203.241	80.008	19.995	103.256	20.080	3.788	0.522
252.500	203.509	80.008	19.995	103.255	20.079	3.905	0.521
253.000	203.751	80.007	19.994	103.255	20.077	4.001	0.524
253.500	204.026	80.008	19.995	103.255	20.080	3.840	0.513
254.000	204.274	80.009	19.996	103.255	20.076	4.054	0.520
254.500	204.516	80.009	19.994	103.258	20.078	3.919	0.507
255.000	204.754	80.009	19.994	103.259	20.077	3.987	0.485
255.500	205.010	80.009	19.994	103.259	20.078	3.957	0.487
256.000	205.297	80.009	19.995	103.261	20.080	3.819	0.519
256.500	205.561	80.009	19.995	103.265	20.079	3.878	0.548
257.000	205.818	80.010	19.995	103.264	20.078	3.918	0.536
257.500	206.069	80.009	19.994	103.261	20.079	3.853	0.514
258.000	206.294	80.009	19.994	103.261	20.082	3.683	0.492
258.500	206.600	80.009	19.995	103.259	20.082	3.696	0.503
259.000	206.801	80.011	19.995	103.255	20.082	3.700	0.519
259.500	207.055	80.009	19.995	103.253	20.078	3.917	0.481
260.000	207.321	80.009	19.993	103.253	20.079	3.904	0.488
260.500	207.581	80.010	19.994	103.253	20.080	3.802	0.523
261.000	207.790	80.010	19.994	103.259	20.081	3.751	0.497
261.500	208.088	80.010	19.994	103.264	20.084	3.551	0.488
262.001	208.366	80.011	19.994	103.269	20.080	3.785	0.541
262.500	208.611	80.009	19.994	103.276	20.078	3.931	0.550
263.000	208.821	80.010	19.994	103.279	20.079	3.887	0.489
263.500	209.100	80.010	19.994	103.276	20.079	3.870	0.472
264.000	209.344	80.012	19.995	103.273	20.081	3.770	0.506
264.500	209.567	80.010	19.994	103.267	20.080	3.826	0.495
265.000	209.831	80.010	19.994	103.260	20.081	3.768	0.477
265.500	210.063	80.010	19.994	103.259	20.081	3.730	0.491
266.000	210.350	80.009	19.994	103.257	20.082	3.649	0.508
266.500	210.570	80.009	19.994	103.256	20.082	3.660	0.514
267.000	210.863	80.011	19.994	103.262	20.079	3.897	0.510
267.500	211.104	80.008	19.994	103.265	20.079	3.870	0.523
268.000	211.361	80.009	19.994	103.266	20.079	3.881	0.516
268.500	211.594	80.009	19.995	103.265	20.078	3.951	0.494
269.000	211.846	80.009	19.994	103.264	20.076	4.050	0.487
269.500	212.094	80.009	19.994	103.258	20.081	3.725	0.492
270.000	212.333	80.008	19.995	103.254	20.078	3.976	0.493
270.500	212.579	80.007	19.994	103.252	20.080	3.800	0.486
271.000	212.847	80.009	19.994	103.252	20.079	3.880	0.500
271.500	213.117	80.007	19.995	103.252	20.081	3.745	0.526
272.000	213.329	80.008	19.994	103.253	20.082	3.692	0.510
272.500	213.615	80.008	19.995	103.258	20.078	3.910	0.490
273.000	213.864	80.009	19.995	103.262	20.080	3.813	0.516
273.500	214.111	80.009	19.994	103.262	20.076	4.099	0.516
274.000	214.360	80.008	19.994	103.262	20.077	3.993	0.496
274.500	214.650	80.009	19.994	103.260	20.082	3.674	0.517
275.000	214.849	80.008	19.995	103.257	20.079	3.849	0.514
275.500	215.094	80.009	19.994	103.253	20.080	3.785	0.467
276.000	215.335	80.007	19.994	103.253	20.078	3.978	0.465
276.500	215.580	80.009	19.994	103.254	20.075	4.122	0.485
277.000	215.828	80.009	19.995	103.254	20.079	3.900	0.490
277.500	216.070	80.008	19.995	103.256	20.080	3.813	0.492
278.000	216.323	80.008	19.995	103.258	20.079	3.881	0.492
278.500	216.581	80.008	19.995	103.259	20.078	3.927	0.503
279.000	216.819	80.008	19.995	103.258	20.078	3.976	0.504
279.500	217.115	80.007	19.995	103.258	20.078	3.938	0.515
280.000	217.315	80.007	19.995	103.256	20.079	3.853	0.515
280.500	217.588	80.007	19.994	103.259	20.079	3.847	0.484
281.000	217.775	80.006	19.995	103.263	20.077	4.029	0.466
281.500	218.071	80.008	19.995	103.265	20.076	4.067	0.471
282.000	218.312	80.008	19.995	103.266	20.080	3.829	0.510
282.500	218.540	80.008	19.994	103.263	20.080	3.814	0.503
283.000	218.776	80.006	19.995	103.259	20.078	3.938	0.466
283.500	219.062	80.010	19.995	103.254	20.079	3.859	0.493
284.000	219.281	80.007	19.995	103.255	20.080	3.806	0.513
284.500	219.574	80.009	19.995	103.255	20.082	3.698	0.509
285.000	219.818	80.007	19.995	103.259	20.080	3.827	0.525
285.500	220.042	80.006	19.995	103.260	20.076	4.057	0.503
286.000	220.290	80.009	19.995	103.261	20.080	3.806	0.470
286.500	220.505	80.007	19.995	103.260	20.079	3.853	0.467
287.000	220.788	80.006	19.994	103.259	20.078	3.965	0.481
287.500	221.019	80.009	19.996	103.259	20.076	4.097	0.506
288.000	221.256	80.007	19.996	103.258	20.078	3.940	0.491
288.500	221.529	80.006	19.996	103.257	20.080	3.836	0.489
289.000	221.728	80.007	19.994	103.255	20.081	3.724	0.491
289.500	222.005	80.007	19.996	103.255	20.079	3.853	0.474
290.000	222.236	80.006	19.995	103.257	20.078	3.953	0.492
290.500	222.495	80.007	19.995	103.257	20.079	3.896	0.499
291.000	222.783	80.006	19.995	103.257	20.077	4.019	0.519
291.500	222.968	80.007	19.995	103.256	20.078	3.919	0.510
292.000	223.228	80.007	19.994	103.256	20.077	4.048	0.459
292.500	223.469	80.008	19.995	103.261	20.079	3.885	0.473
293.000	223.744	80.007	19.995	103.263	20.077	4.038	0.509
293.500	224.006	80.006	19.996	103.264	20.079	3.895	0.527
294.000	224.228	80.007	19.995	103.263	20.077	4.047	0.511
294.500	224.516	80.008	19.995	103.264	20.080	3.788	0.497
295.000	224.692	80.008	19.995	103.257	20.077	4.036	0.487
295.500	224.957	80.006	19.995	103.256	20.078	3.955	0.453
296.000	225.200	80.008	19.995	103.255	20.076	4.064	0.475
296.500	225.472	80.006	19.994	103.255	20.074	4.214	0.512
297.000	225.702	80.008	19.995	103.255	20.076	4.110	0.508
297.501	225.929	80.006	19.994	103.255	20.077	3.989	0.479
298.000	226.191	80.007	19.995	103.255	20.077	4.017	0.473
298.500	226.419	80.007	19.995	103.255	20.076	4.097	0.490
299.000	226.684	80.007	19.995	103.254	20.078	3.953	0.491
299.500	226.929	80.006	19.995	103.254	20.073	4.316	0.502
300.000	227.175	80.007	19.995	103.253	20.078	3.964	0.501
300.500	227.428	80.006	19.995	103.253	20.077	4.033	0.495
301.000	227.659	80.007	19.996	103.252	20.074	4.241	0.491
301.500	227.892	80.006	19.995	103.254	20.077	4.023	0.473
302.000	228.148	80.007	19.996	103.253	20.076	4.091	0.476
302.500	228.408	80.006	19.995	103.254	20.076	4.068	0.503
303.000	228.686	80.007	19.995	103.254	20.079	3.908	0.528
303.500	228.898	80.007	19.996	103.255	20.077	4.046	0.514
304.000	229.174	80.006	19.995	103.255	20.075	4.161	0.489
304.500	229.400	80.006	19.995	103.257	20.075	4.159	0.495
305.000	229.652	80.006	19.995	103.250	20.075	4.154	0.490
305.500	229.863	80.005	19.995	103.247	20.076	4.067	0.470
306.000	230.096	80.005	19.996	103.246	20.075	4.184	0.453
306.500	230.338	80.005	19.995	103.246	20.075	4.176	0.460
307.000	230.575	80.004	19.995	103.246	20.074	4.222	0.477
307.500	230.847	80.006	19.995	103.254	20.075	4.120	0.494
308.000	231.074	80.006	19.996	103.256	20.074	4.244	0.504
308.500	231.334	80.005	19.997	103.254	20.072	4.356	0.494
309.000	231.538	80.006	19.995	103.253	20.073	4.267	0.476
309.500	231.770	80.005	19.995	103.253	20.073	4.269	0.450
310.000	232.002	80.006	19.995	103.253	20.072	4.345	0.450
310.500	232.304	80.006	19.995	103.254	20.072	4.356	0.499
311.000	232.514	80.008	19.996	103.255	20.074	4.190	0.523
311.500	232.776	80.007	19.995	103.255	20.075	4.155	0.492
312.000	233.032	80.007	19.995	103.255	20.072	4.384	0.495
312.500	233.247	80.007	19.996	103.254	20.073	4.305	0.494
313.000	233.472	80.007	19.997	103.253	20.073	4.259	0.455
313.500	233.724	80.006	19.996	103.254	20.071	4.422	0.459
314.000	233.938	80.007	19.996	103.255	20.073	4.312	0.472
314.500	234.214	80.007	19.996	103.254	20.075	4.150	0.478
315.000	234.407	80.006	19.997	103.255	20.072	4.365	0.479
315.500	234.694	80.007	19.996	103.255	20.072	4.331	0.474
316.000	234.921	80.007	19.997	103.255	20.071	4.450	0.497
316.500	235.139	80.008	19.997	103.254	20.074	4.235	0.480
317.000	235.360	80.006	19.996	103.254	20.072	4.388	0.442
317.500	235.602	80.009	19.996	103.254	20.072	4.363	0.451
318.000	235.862	80.008	19.997	103.253	20.071	4.448	0.483
318.500	236.097	80.008	19.996	103.254	20.069	4.537	0.499
319.000	236.311	80.009	19.996	103.254	20.070	4.494	0.472
319.500	236.599	80.008	19.996	103.260	20.071	4.416	0.475
320.000	236.780	80.009	19.996	103.265	20.072	4.365	0.486
320.500	237.063	80.009	19.996	103.269	20.072	4.382	0.467
321.000	237.319	80.008	19.995	103.268	20.072	4.337	0.501
321.500	237.543	80.009	19.995	103.267	20.074	4.257	0.509
322.000	237.749	80.008	19.996	103.260	20.071	4.435	0.455
322.500	237.986	80.008	19.995	103.255	20.075	4.150	0.437
323.000	238.217	80.007	19.995	103.251	20.071	4.456	0.455
323.500	238.445	80.008	19.995	103.250	20.073	4.322	0.463
324.001	238.688	80.007	19.995	103.251	20.072	4.396	0.465
324.501	238.939	80.008	19.996	103.251	20.071	4.443	0.483
325.000	239.187	80.008	19.995	103.252	20.071	4.437	0.496
325.500	239.424	80.010	19.996	103.252	20.072	4.363	0.492
326.000	239.665	80.009	19.995	103.252	20.072	4.384	0.481
326.500	239.864	80.009	19.995	103.252	20.066	4.770	0.459
327.000	240.092	80.008	19.995	103.252	20.068	4.630	0.434
327.500	240.331	80.009	19.995	103.251	20.072	4.343	0.447
328.000	240.565	80.009	19.994	103.254	20.068	4.673	0.469
328.500	240.816	80.008	19.995	103.254	20.069	4.577	0.479
329.000	241.025	80.009	19.994	103.253	20.069	4.562	0.473
329.500	241.258	80.008	19.994	103.249	20.064	4.910	0.451
330.000	241.518	80.009	19.994	103.248	20.067	4.732	0.468
330.500	241.762	80.008	19.994	103.246	20.067	4.728	0.498
331.000	241.985	80.008	19.994	103.247	20.069	4.583	0.485
331.500	242.210	80.009	19.995	103.249	20.065	4.825	0.458
332.000	242.488	80.009	19.995	103.253	20.066	4.813	0.476
332.500	242.735	80.007	19.995	103.252	20.067	4.711	0.514
333.000	242.960	80.007	19.994	103.252	20.066	4.806	0.498
333.500	243.203	80.008	19.995	103.252	20.065	4.817	0.470
334.000	243.440	80.008	19.995	103.252	20.064	4.902	0.474
334.500	243.671	80.008	19.994	103.253	20.065	4.823	0.474
335.000	243.938	80.009	19.995	103.254	20.063	4.974	0.483
335.500	244.154	80.008	19.994	103.255	20.062	5.078	0.490
336.000	244.398	80.008	19.995	103.254	20.065	4.874	0.471
336.500	244.655	80.008	19.994	103.254	20.065	4.853	0.480
337.000	244.850	80.009	19.995	103.252	20.064	4.933	0.477
337.500	245.116	80.007	19.995	103.251	20.065	4.867	0.457
338.000	245.361	80.008	19.994	103.254	20.066	4.780	0.485
338.500	245.541	80.010	19.995	103.254	20.067	4.721	0.468
339.000	245.786	80.009	19.995	103.253	20.064	4.889	0.426
339.500	246.015	80.009	19.995	103.254	20.063	4.973	0.449
340.000	246.285	80.009	19.994	103.255	20.064	4.916	0.486
340.500	246.530	80.009	19.994	103.254	20.062	5.088	0.507
341.000	246.750	80.010	19.995	103.254	20.061	5.120	0.490
341.500	247.000	80.011	19.994	103.254	20.060	5.224	0.468
342.000	247.227	80.010	19.995	103.254	20.060	5.222	0.474
342.500	247.430	80.009	19.995	103.253	20.061	5.154	0.453
343.000	247.709	80.009	19.995	103.254	20.058	5.328	0.456
343.500	247.890	80.008	19.994	103.254	20.059	5.299	0.471
344.000	248.159	80.010	19.994	103.255	20.057	5.430	0.455
344.500	248.395	80.011	19.995	103.254	20.054	5.642	0.478
345.000	248.621	80.009	19.994	103.254	20.056	5.506	0.484
345.500	248.836	80.010	19.994	103.252	20.054	5.607	0.452
346.000	249.091	80.010	19.994	103.250	20.056	5.467	0.455
346.500	249.356	80.009	19.994	103.251	20.055	5.536	0.495
347.000	249.601	80.010	19.994	103.256	20.056	5.472	0.515
347.500	249.846	80.009	19.994	103.260	20.055	5.570	0.500
348.000	250.082	80.011	19.995	103.263	20.056	5.511	0.485
348.500	250.349	80.012	19.994	103.267	20.055	5.523	0.492
349.000	250.576	80.011	19.996	103.267	20.054	5.610	0.499
349.500	250.836	80.010	19.995	103.267	20.057	5.428	0.491
350.000	251.069	80.010	19.995	103.265	20.054	5.602	0.490
350.500	251.286	80.013	19.995	103.263	20.057	5.406	0.471
351.000	251.509	80.012	19.994	103.261	20.057	5.430	0.445
351.500	251.787	80.010	19.995	103.261	20.055	5.548	0.471
352.000	252.047	80.009	19.995	103.257	20.056	5.504	0.519
352.500	252.271	80.008	19.994	103.255	20.057	5.429	0.511
353.000	252.492	80.009	19.994	103.255	20.055	5.551	0.465
353.500	252.728	80.008	19.995	103.257	20.054	5.625	0.451
354.000	252.941	80.009	19.994	103.257	20.052	5.782	0.453
354.500	253.196	80.009	19.994	103.260	20.053	5.699	0.458
355.000	253.427	80.009	19.994	103.265	20.052	5.776	0.477
355.500	253.654	80.007	19.995	103.269	20.052	5.790	0.472
356.000	253.894	80.009	19.995	103.274	20.049	5.989	0.462
356.500	254.118	80.005	19.994	103.276	20.049	5.942	0.466
357.000	254.358	80.005	19.995	103.276	20.051	5.800	0.464
357.500	254.564	80.008	19.995	103.272	20.050	5.870	0.455
358.000	254.804	80.008	19.994	103.268	20.049	5.995	0.446
358.500	255.089	80.009	19.995	103.263	20.048	6.062	0.485
359.000	255.270	80.007	19.995	103.264	20.050	5.898	0.495
359.500	255.547	80.008	19.995	103.262	20.045	6.246	0.462
360.000	255.783	80.009	19.995	103.263	20.047	6.100	0.485
360.500	256.026	80.005	19.995	103.265	20.043	6.420	0.496
361.000	256.251	80.006	19.995	103.265	20.044	6.308	0.474
361.500	256.462	80.009	19.995	103.265	20.045	6.231	0.452
362.000	256.738	80.009	19.994	103.269	20.043	6.360	0.461
362.500	256.973	80.006	19.995	103.267	20.043	6.358	0.499
363.000	257.215	80.007	19.994	103.271	20.044	6.289	0.494
363.500	257.484	80.007	19.994	103.274	20.046	6.195	0.494
364.000	257.711	80.008	19.995	103.270	20.038	6.737	0.504
364.500	257.963	80.007	19.996	103.267	20.042	6.490	0.488
365.000	258.215	80.009	19.994	103.266	20.042	6.478	0.492
365.500	258.443	80.008	19.995	103.263	20.041	6.509	0.492
366.000	258.695	80.007	19.994	103.264	20.041	6.526	0.479
366.500	258.939	80.005	19.994	103.272	20.040	6.604	0.488
367.000	259.187	80.008	19.995	103.279	20.041	6.560	0.494
367.501	259.442	80.007	19.994	103.285	20.039	6.640	0.498
368.001	259.621	80.008	19.994	103.286	20.039	6.653	0.469
368.500	259.883	80.004	19.995	103.283	20.038	6.755	0.438
369.000	260.150	80.009	19.994	103.280	20.041	6.519	0.485
369.500	260.384	80.007	19.994	103.274	20.039	6.683	0.515
370.000	260.591	80.008	19.995	103.273	20.038	6.715	0.471
370.500	260.861	80.007	19.994	103.273	20.036	6.850	0.459
371.000	261.084	80.007	19.994	103.276	20.039	6.678	0.485
371.500	261.275	80.008	19.995	103.278	20.038	6.770	0.453
372.000	261.550	80.007	19.995	103.280	20.034	7.008	0.440
372.500	261.802	80.006	19.994	103.279	20.036	6.895	0.497
373.000	262.059	80.006	19.994	103.281	20.035	6.938	0.518
373.500	262.312	80.008	19.994	103.283	20.035	6.942	0.509
374.000	262.507	80.008	19.995	103.280	20.034	7.004	0.479
374.500	262.723	80.007	19.994	103.279	20.034	7.036	0.430
375.000	262.983	80.009	19.994	103.277	20.034	7.002	0.444
375.500	263.215	80.007	19.994	103.275	20.034	7.011	0.484
376.000	263.440	80.007	19.994	103.273	20.035	6.974	0.474
376.500	263.739	80.007	19.994	103.278	20.030	7.311	0.490
377.000	263.996	80.006	19.995	103.281	20.027	7.487	0.540
377.500	264.224	80.008	19.995	103.284	20.026	7.565	0.520
378.000	264.490	80.007	19.994	103.288	20.026	7.574	0.490
378.500	264.742	80.008	19.993	103.289	20.027	7.531	0.507
379.000	264.894	80.008	19.995	103.287	20.025	7.675	0.461
379.500	265.177	80.006	19.995	103.287	20.026	7.548	0.419
380.000	265.437	80.008	19.995	103.288	20.021	7.913	0.489
380.500	265.650	80.009	19.994	103.286	20.022	7.837	0.508
381.000	265.924	80.007	19.995	103.286	20.023	7.757	0.480
381.500	266.173	80.008	19.995	103.286	20.025	7.670	0.505
382.000	266.436	80.008	19.996	103.288	20.024	7.701	0.517
382.500	266.660	80.007	19.995	103.288	20.020	8.010	0.500
383.000	266.926	80.007	19.996	103.284	20.019	8.093	0.489
383.500	267.165	80.007	19.995	103.281	20.017	8.199	0.497
384.000	267.408	80.007	19.995	103.278	20.019	8.095	0.493
384.500	267.640	80.008	19.995	103.275	20.021	7.915	0.478
385.000	267.901	80.007	19.995	103.269	20.017	8.221	0.484
385.500	268.139	80.008	19.997	103.267	20.016	8.291	0.496
386.000	268.411	80.006	19.995	103.270	20.015	8.365	0.505
386.500	268.602	80.008	19.996	103.272	20.014	8.382	0.487
387.000	268.854	80.006	19.995	103.276	20.016	8.238	0.453
387.500	269.132	80.010	19.995	103.282	20.014	8.424	0.486
388.000	269.400	80.009	19.995	103.290	20.012	8.537	0.538
388.500	269.641	80.008	19.996	103.291	20.013	8.478	0.528
389.000	269.910	80.007	19.996	103.292	20.011	8.624	0.510
389.500	270.196	80.007	19.996	103.291	20.010	8.675	0.532
390.000	270.385	80.008	19.995	103.291	20.013	8.509	0.514
390.500	270.635	80.007	19.995	103.291	20.012	8.554	0.457
391.000	270.867	80.007	19.995	103.289	20.011	8.643	0.461
391.500	271.125	80.007	19.995	103.286	20.011	8.637	0.486
392.000	271.398	80.009	19.995	103.284	20.008	8.838	0.510
392.500	271.616	80.008	19.996	103.284	20.009	8.779	0.511
393.000	271.869	80.010	19.996	103.288	20.010	8.722	0.482
393.500	272.115	80.007	19.995	103.296	20.009	8.751	0.485
394.000	272.345	80.009	19.994	103.300	20.009	8.766	0.487
394.500	272.612	80.007	19.996	103.303	20.006	9.002	0.486
395.000	272.876	80.008	19.995	103.303	20.003	9.187	0.514
395.500	273.073	80.008	19.994	103.300	20.004	9.138	0.496
396.000	273.348	80.009	19.995	103.293	20.003	9.190	0.467
396.500	273.561	80.006	19.995	103.291	20.004	9.116	0.480
397.000	273.833	80.008	19.995	103.292	20.002	9.255	0.487
397.500	274.093	80.008	19.994	103.292	20.003	9.145	0.508
398.000	274.370	80.010	19.994	103.291	20.000	9.391	0.534
398.500	274.590	80.010	19.994	103.292	19.998	9.503	0.517
399.000	274.827	80.010	19.995	103.291	19.997	9.580	0.477
399.500	275.114	80.010	19.996	103.291	19.998	9.498	0.491
400.000	275.334	80.009	19.995	103.290	19.998	9.525	0.516
400.500	275.612	80.009	19.994	103.291	19.997	9.567	0.503
401.000	275.884	80.008	19.995	103.292	19.995	9.750	0.524
401.500	276.099	80.010	19.995	103.292	19.997	9.590	0.518
402.000	276.336	80.009	19.995	103.292	19.994	9.819	0.470
402.500	276.610	80.009	19.996	103.294	19.996	9.682	0.481
403.000	276.837	80.008	19.995	103.295	19.993	9.854	0.506
403.500	277.099	80.010	19.995	103.294	19.993	9.861	0.496
404.000	277.363	80.008	19.995	103.292	19.991	10.041	0.508
404.500	277.629	80.009	19.995	103.293	19.990	10.077	0.528
405.000	277.846	80.009	19.995	103.291	19.987	10.318	0.506
405.500	278.104	80.009	19.995	103.290	19.985	10.414	0.479
406.000	278.366	80.010	19.996	103.289	19.987	10.328	0.498
406.500	278.596	80.009	19.995	103.291	19.986	10.372	0.506
407.000	278.870	80.009	19.996	103.292	19.985	10.449	0.498
407.500	279.097	80.009	19.996	103.299	19.981	10.687	0.503
408.000	279.358	80.009	19.995	103.305	19.981	10.686	0.494
408.500	279.620	80.010	19.996	103.306	19.978	10.948	0.505
409.000	279.861	80.009	19.996	103.300	19.977	11.021	0.513
409.500	280.101	80.009	19.995	103.291	19.980	10.811	0.493
410.000	280.299	80.008	19.996	103.282	19.978	10.951	0.459
410.500	280.581	80.008	19.997	103.276	19.975	11.121	0.458
411.000	280.825	80.007	19.996	103.277	19.974	11.181	0.503
411.500	281.079	80.008	19.996	103.288	19.975	11.144	0.512
412.000	281.283	80.009	19.996	103.303	19.973	11.242	0.478
412.500	281.557	80.007	19.996	103.308	19.974	11.230	0.468
413.000	281.806	80.008	19.995	103.313	19.972	11.343	0.501
413.500	282.049	80.007	19.996	103.318	19.970	11.467	0.508
414.000	282.324	80.007	19.996	103.321	19.971	11.405	0.505
414.500	282.552	80.006	19.996	103.317	19.970	11.516	0.510
415.000	282.791	80.009	19.996	103.317	19.967	11.683	0.485
415.500	283.042	80.008	19.997	103.312	19.968	11.628	0.478
416.000	283.308	80.008	19.996	103.305	19.968	11.600	0.503
416.500	283.566	80.005	19.995	103.297	19.966	11.762	0.521
417.000	283.799	80.008	19.997	103.296	19.964	11.887	0.508
417.500	284.089	80.007	19.997	103.299	19.963	11.979	0.507
418.000	284.340	80.007	19.995	103.307	19.962	12.013	0.531
418.500	284.565	80.008	19.996	103.311	19.961	12.129	0.509
419.000	284.768	80.007	19.996	103.319	19.961	12.106	0.452
419.500	285.042	80.007	19.996	103.323	19.960	12.205	0.452
420.000	285.303	80.008	19.995	103.318	19.958	12.337	0.506
420.500	285.563	80.008	19.995	103.318	19.959	12.242	0.528
421.000	285.820	80.008	19.996	103.317	19.954	12.599	0.519
421.500	286.041	80.008	19.995	103.314	19.955	12.507	0.498
422.000	286.297	80.010	19.995	103.309	19.954	12.632	0.477
422.500	286.536	80.009	19.995	103.315	19.955	12.554	0.486
423.000	286.765	80.009	19.995	103.316	19.951	12.813	0.482
423.500	287.029	80.009	19.996	103.321	19.952	12.772	0.480
424.000	287.321	80.009	19.995	103.325	19.950	12.854	0.524
424.500	287.559	80.009	19.995	103.330	19.947	13.077	0.543
425.000	287.797	80.009	19.995	103.330	19.946	13.186	0.503
425.500	288.045	80.010	19.994	103.327	19.946	13.161	0.480
426.000	288.297	80.009	19.994	103.320	19.945	13.203	0.493
426.500	288.600	80.009	19.994	103.317	19.942	13.404	0.528
427.000	288.824	80.010	19.994	103.314	19.942	13.412	0.541
427.500	289.082	80.010	19.994	103.309	19.939	13.636	0.505
428.000	289.327	80.010	19.995	103.313	19.940	13.547	0.492
428.500	289.560	80.010	19.994	103.321	19.938	13.721	0.491
429.000	289.828	80.010	19.994	103.324	19.937	13.785	0.490
429.500	290.053	80.007	19.994	103.325	19.936	13.861	0.497
430.000	290.324	80.012	19.994	103.328	19.934	14.027	0.494
430.500	290.624	80.010	19.993	103.328	19.933	14.080	0.533
431.000	290.847	80.012	19.995	103.327	19.931	14.237	0.547
431.500	291.109	80.010	19.994	103.327	19.929	14.313	0.504
432.000	291.339	80.010	19.994	103.323	19.927	14.451	0.489
432.500	291.616	80.009	19.994	103.325	19.928	14.430	0.500
433.000	291.865	80.009	19.994	103.325	19.927	14.487	0.517
433.500	292.088	80.008	19.994	103.322	19.926	14.580	0.499
434.000	292.399	80.007	19.995	103.322	19.923	14.761	0.503
434.500	292.631	80.008	19.995	103.325	19.922	14.836	0.538
435.000	292.873	80.008	19.994	103.319	19.921	14.917	0.508
435.500	293.156	80.007	19.995	103.318	19.920	14.959	0.500
436.000	293.387	80.008	19.994	103.321	19.920	14.942	0.520
436.501	293.653	80.008	19.994	103.322	19.916	15.220	0.505
437.000	293.857	80.007	19.995	103.324	19.913	15.494	0.483
437.500	294.125	80.007	19.995	103.331	19.913	15.463	0.471
438.000	294.418	80.006	19.994	103.333	19.911	15.625	0.517
438.500	294.680	80.007	19.994	103.333	19.910	15.696	0.558
439.000	294.921	80.007	19.994	103.333	19.908	15.835	0.529
439.500	295.138	80.006	19.994	103.333	19.909	15.779	0.480
440.000	295.417	80.006	19.995	103.333	19.908	15.823	0.477
440.500	295.668	80.007	19.995	103.333	19.904	16.078	0.513
441.001	295.911	80.008	19.995	103.334	19.904	16.098	0.512
441.501	296.175	80.007	19.995	103.334	19.900	16.356	0.500
442.000	296.423	80.005	19.995	103.334	19.901	16.276	0.509
442.500	296.656	80.005	19.994	103.333	19.901	16.324	0.497
443.000	296.923	80.006	19.994	103.334	19.897	16.571	0.491
443.500	297.165	80.008	19.995	103.334	19.900	16.391	0.505
444.000	297.435	80.009	19.995	103.334	19.898	16.509	0.511
444.500	297.652	80.005	19.995	103.334	19.896	16.653	0.499
445.000	297.948	80.006	19.996	103.334	19.892	16.949	0.499
445.500	298.184	80.006	19.994	103.337	19.893	16.846	0.522
446.000	298.403	80.007	19.994	103.338	19.887	17.279	0.494
446.500	298.706	80.010	19.995	103.337	19.884	17.492	0.488
447.000	298.962	80.008	19.994	103.338	19.885	17.390	0.540
447.500	299.188	80.007	19.995	103.339	19.883	17.566	0.520
448.000	299.431	80.006	19.994	103.338	19.882	17.617	0.476
448.500	299.679	80.005	19.995	103.342	19.881	17.693	0.480
449.000	299.941	80.005	19.995	103.349	19.878	17.914	0.500
449.500	300.202	80.006	19.994	103.357	19.877	17.997	0.516
450.000	300.462	80.007	19.995	103.363	19.874	18.166	0.522
450.500	300.707	80.009	19.995	103.368	19.873	18.247	0.513
451.000	300.949	80.008	19.994	103.370	19.872	18.327	0.496
451.500	301.181	80.006	19.994	103.367	19.869	18.542	0.481
452.000	301.430	80.008	19.995	103.364	19.868	18.605	0.478
452.500	301.694	80.009	19.995	103.357	19.864	18.911	0.497
453.000	301.936	80.008	19.995	103.352	19.864	18.915	0.510
453.500	302.220	80.006	19.995	103.345	19.861	19.105	0.516
454.000	302.448	80.009	19.994	103.339	19.857	19.406	0.518
454.500	302.707	80.008	19.995	103.337	19.854	19.563	0.499
455.000	302.921	80.008	19.994	103.339	19.856	19.451	0.480
455.500	303.214	80.011	19.994	103.343	19.852	19.727	0.490
456.000	303.480	80.008	19.994	103.350	19.851	19.818	0.533
456.500	303.698	80.010	19.994	103.357	19.846	20.114	0.522
457.000	303.972	80.009	19.995	103.363	19.842	20.429	0.487
457.500	304.234	80.011	19.995	103.367	19.847	20.089	0.513
458.000	304.491	80.009	19.994	103.369	19.842	20.399	0.527
458.500	304.708	80.006	19.995	103.369	19.841	20.465	0.497
459.000	304.954	80.008	19.994	103.369	19.842	20.444	0.469
459.500	305.179	80.008	19.994	103.370	19.841	20.523	0.467
460.000	305.456	80.009	19.995	103.370	19.835	20.909	0.486
460.500	305.712	80.008	19.995	103.370	19.837	20.765	0.518
461.000	305.928	80.007	19.995	103.370	19.835	20.933	0.503
461.500	306.169	80.011	19.995	103.370	19.829	21.332	0.465
462.000	306.448	80.007	19.994	103.370	19.828	21.370	0.489
462.500	306.716	80.008	19.994	103.370	19.822	21.799	0.533
463.000	306.984	80.008	19.995	103.370	19.821	21.910	0.541
463.501	307.182	80.006	19.995	103.370	19.819	22.057	0.501
464.000	307.428	80.009	19.995	103.371	19.816	22.254	0.455
464.500	307.656	80.007	19.995	103.371	19.818	22.106	0.459
465.000	307.970	80.008	19.994	103.371	19.814	22.365	0.508
465.500	308.173	80.009	19.995	103.371	19.812	22.521	0.529
466.000	308.426	80.008	19.994	103.371	19.809	22.748	0.486
466.500	308.697	80.008	19.995	103.371	19.807	22.877	0.490
467.000	308.938	80.007	19.995	103.371	19.805	23.038	0.519
467.500	309.196	80.007	19.995	103.373	19.802	23.222	0.506
468.000	309.413	80.007	19.995	103.375	19.803	23.179	0.487
468.500	309.676	80.007	19.994	103.382	19.797	23.561	0.477
469.000	309.916	80.007	19.995	103.389	19.793	23.853	0.491
469.500	310.148	80.006	19.995	103.396	19.793	23.819	0.488
470.000	310.429	80.006	19.995	103.398	19.790	24.031	0.493
470.500	310.665	80.006	19.995	103.400	19.791	23.969	0.515
471.000	310.928	80.008	19.994	103.401	19.788	24.208	0.508
471.500	311.173	80.006	19.995	103.394	19.788	24.222	0.504
472.000	311.402	80.007	19.995	103.389	19.783	24.529	0.491
472.500	311.678	80.007	19.995	103.389	19.780	24.748	0.489
473.000	311.941	80.007	19.995	103.390	19.776	25.036	0.522
473.500	312.237	80.007	19.995	103.392	19.773	25.231	0.549
474.000	312.424	80.007	19.995	103.401	19.774	25.166	0.521
474.500	312.706	80.008	19.996	103.405	19.773	25.270	0.476
475.000	312.957	80.007	19.995	103.407	19.768	25.623	0.501
475.500	313.188	80.006	19.996	103.406	19.764	25.882	0.507
476.000	313.454	80.007	19.996	103.402	19.764	25.892	0.489
476.500	313.676	80.007	19.996	103.397	19.760	26.181	0.492
477.000	313.930	80.008	19.995	103.397	19.759	26.244	0.482
477.500	314.167	80.007	19.996	103.397	19.754	26.582	0.483
478.000	314.458	80.009	19.996	103.397	19.752	26.711	0.510
478.500	314.665	80.009	19.995	103.399	19.751	26.771	0.513
479.000	314.896	80.007	19.996	103.400	19.750	26.854	0.468
479.500	315.184	80.008	19.995	103.401	19.747	27.044	0.478
480.000	315.417	80.007	19.996	103.400	19.744	27.305	0.520
480.500	315.694	80.006	19.996	103.403	19.741	27.500	0.516
481.000	315.944	80.007	19.996	103.404	19.740	27.543	0.519
481.500	316.189	80.008	19.996	103.404	19.737	27.742	0.511
482.000	316.375	80.010	19.995	103.405	19.737	27.751	0.463
482.500	316.613	80.006	19.996	103.407	19.733	28.030	0.427
483.000	316.872	80.008	19.996	103.410	19.730	28.244	0.460
483.500	317.098	80.006	19.996	103.410	19.731	28.228	0.491
484.000	317.375	80.010	19.995	103.410	19.727	28.506	0.494
484.500	317.646	80.011	19.997	103.410	19.722	28.797	0.525
485.000	317.896	80.010	19.995	103.412	19.719	29.004	0.534
485.500	318.172	80.008	19.995	103.413	19.721	28.896	0.524
486.000	318.402	80.007	19.995	103.415	19.713	29.429	0.516
486.500	318.634	80.008	19.995	103.416	19.712	29.521	0.483
487.000	318.889	80.008	19.994	103.417	19.712	29.525	0.474
487.500	319.106	80.007	19.995	103.420	19.707	29.866	0.480
488.000	319.414	80.006	19.994	103.422	19.703	30.135	0.499
488.500	319.640	80.012	19.994	103.427	19.701	30.291	0.529
489.000	319.870	80.009	19.994	103.429	19.701	30.305	0.495
489.501	320.124	80.008	19.995	103.435	19.696	30.622	0.470
490.001	320.387	80.007	19.995	103.437	19.691	31.006	0.500
490.500	320.615	80.007	19.994	103.441	19.692	30.893	0.504
491.000	320.888	80.009	19.995	103.441	19.688	31.230	0.496
491.500	321.134	80.007	19.996	103.446	19.684	31.501	0.510
492.000	321.407	80.009	19.995	103.446	19.681	31.687	0.519
492.500	321.666	80.007	19.996	103.445	19.679	31.853	0.525
493.000	321.892	80.011	19.996	103.445	19.676	32.069	0.508
493.500	322.157	80.006	19.994	103.446	19.676	32.012	0.488
494.000	322.379	80.010	19.995	103.446	19.672	32.321	0.489
494.500	322.667	80.008	19.994	103.449	19.666	32.757	0.499
495.000	322.896	80.009	19.994	103.454	19.666	32.730	0.513
495.500	323.159	80.008	19.995	103.453	19.663	32.919	0.504
496.000	323.428	80.007	19.995	103.453	19.659	33.238	0.512
496.500	323.673	80.006	19.995	103.452	19.657	33.388	0.523
497.000	323.921	80.006	19.996	103.451	19.653	33.622	0.504
497.500	324.211	80.008	19.996	103.448	19.653	33.623	0.516
498.000	324.392	80.006	19.995	103.449	19.645	34.237	0.504
498.500	324.680	80.006	19.995	103.448	19.644	34.244	0.470
499.000	324.908	80.009	19.995	103.449	19.643	34.357	0.493
499.500	325.181	80.007	19.995	103.450	19.637	34.745	0.509
500.000	325.432	80.008	19.995	103.452	19.635	34.921	0.512
500.500	325.682	80.008	19.995	103.455	19.633	35.053	0.513
501.000	325.940	80.006	19.995	103.459	19.631	35.165	0.505
501.500	326.171	80.009	19.994	103.462	19.629	35.296	0.499
502.000	326.396	80.005	19.995	103.468	19.627	35.462	0.473
502.500	326.674	80.006	19.995	103.474	19.622	35.797	0.480
503.000	326.915	80.009	19.996	103.476	19.619	36.053	0.511
503.500	327.194	80.008	19.995	103.474	19.617	36.186	0.520
504.000	327.464	80.006	19.996	103.472	19.615	36.324	0.535
504.500	327.710	80.009	19.996	103.466	19.610	36.674	0.533
505.000	327.950	80.008	19.995	103.459	19.606	36.969	0.501
505.500	328.177	80.007	19.995	103.457	19.604	37.108	0.476
506.000	328.448	80.009	19.995	103.456	19.600	37.325	0.482
506.500	328.685	80.005	19.995	103.458	19.598	37.496	0.503
507.000	328.968	80.007	19.995	103.460	19.595	37.725	0.514
507.500	329.189	80.007	19.995	103.462	19.591	37.960	0.512
508.000	329.520	80.010	19.994	103.459	19.589	38.127	0.528
508.500	329.730	80.008	19.995	103.462	19.585	38.397	0.546
509.000	329.997	80.010	19.996	103.465	19.584	38.509	0.509
509.500	330.221	80.010	19.995	103.467	19.578	38.904	0.484
510.001	330.500	80.007	19.995	103.466	19.574	39.154	0.497
510.500	330.733	80.008	19.995	103.471	19.572	39.295	0.508
511.000	330.987	80.006	19.996	103.475	19.570	39.486	0.500
511.500	331.261	80.007	19.996	103.478	19.564	39.841	0.507
512.000	331.471	80.008	19.995	103.480	19.559	40.192	0.506
512.500	331.730	80.007	19.996	103.480	19.556	40.394	0.476
513.000	331.993	80.008	19.996	103.479	19.553	40.637	0.495
513.500	332.247	80.009	19.996	103.478	19.551	40.742	0.520
514.000	332.549	80.009	19.995	103.477	19.547	41.083	0.536
514.500	332.782	80.009	19.996	103.474	19.546	41.145	0.545
515.000	332.997	80.011	19.995	103.478	19.541	41.497	0.492
515.500	333.310	80.008	19.994	103.482	19.542	41.433	0.488
516.000	333.542	80.009	19.995	103.481	19.536	41.854	0.536
516.500	333.792	80.008	19.996	103.481	19.533	42.015	0.514
517.000	334.080	80.009	19.995	103.484	19.530	42.241	0.510
517.500	334.338	80.009	19.995	103.481	19.528	42.406	0.542
518.000	334.578	80.007	19.995	103.480	19.528	42.395	0.522
518.500	334.850	80.009	19.995	103.480	19.526	42.550	0.505
519.000	335.077	80.009	19.996	103.480	19.521	42.846	0.506
519.500	335.311	80.007	19.995	103.479	19.520	42.917	0.480
520.000	335.580	80.009	19.995	103.480	19.519	42.998	0.482
520.500	335.847	80.010	19.996	103.481	19.514	43.325	0.520
521.000	336.049	80.008	19.995	103.481	19.515	43.283	0.502
521.500	336.354	80.007	19.996	103.478	19.510	43.661	0.488
522.000	336.616	80.008	19.995	103.477	19.507	43.818	0.538
522.500	336.868	80.008	19.995	103.475	19.508	43.788	0.540
523.000	337.096	80.008	19.995	103.471	19.502	44.200	0.497
523.500	337.356	80.008	19.995	103.470	19.503	44.124	0.484
524.000	337.620	80.008	19.995	103.466	19.499	44.376	0.506
524.500	337.833	80.007	19.995	103.468	19.502	44.162	0.501
525.000	338.135	80.007	19.995	103.472	19.497	44.516	0.496
525.500	338.387	80.007	19.995	103.471	19.496	44.585	0.535
526.000	338.565	80.007	19.995	103.469	19.496	44.588	0.492
526.500	338.864	80.008	19.995	103.475	19.494	44.736	0.453
527.000	339.119	80.007	19.995	103.473	19.492	44.849	0.515
527.500	339.375	80.008	19.994	103.468	19.493	44.810	0.533
528.000	339.589	80.007	19.994	103.470	19.490	45.038	0.491
528.500	339.885	80.007	19.995	103.468	19.491	44.936	0.490
529.000	340.128	80.007	19.996	103.462	19.488	45.176	0.524
529.500	340.361	80.006	19.995	103.459	19.487	45.227	0.508
530.000	340.607	80.007	19.994	103.458	19.486	45.258	0.478
530.500	340.928	80.008	19.995	103.455	19.485	45.331	0.523
531.000	341.137	80.009	19.995	103.452	19.487	45.206	0.548
531.500	341.406	80.006	19.994	103.451	19.487	45.209	0.504
532.000	341.652	80.007	19.994	103.451	19.483	45.466	0.496
532.500	341.877	80.010	19.995	103.454	19.488	45.141	0.493
533.000	342.131	80.005	19.994	103.454	19.486	45.314	0.475
533.500	342.383	80.006	19.994	103.454	19.485	45.385	0.492
534.001	342.644	80.007	19.995	103.452	19.486	45.308	0.510
534.501	342.898	80.008	19.995	103.451	19.485	45.322	0.514
535.001	343.150	80.007	19.995	103.446	19.491	44.920	0.511
535.500	343.395	80.009	19.996	103.446	19.488	45.138	0.501
536.000	343.625	80.009	19.995	103.446	19.490	44.968	0.485
536.500	343.867	80.007	19.994	103.445	19.492	44.851	0.473
537.000	344.129	80.009	19.995	103.437	19.492	44.851	0.488
537.500	344.372	80.008	19.995	103.430	19.495	44.660	0.505
538.000	344.616	80.007	19.995	103.422	19.496	44.581	0.496
538.500	344.872	80.009	19.995	103.420	19.499	44.332	0.494
539.000	345.127	80.008	19.995	103.418	19.499	44.333	0.506
539.500	345.394	80.009	19.995	103.418	19.497	44.479	0.517
540.000	345.604	80.010	19.996	103.418	19.506	43.878	0.499
540.500	345.874	80.009	19.994	103.417	19.506	43.873	0.478
541.000	346.131	80.009	19.995	103.411	19.508	43.721	0.503
541.500	346.392	80.009	19.994	103.408	19.512	43.457	0.523
542.000	346.673	80.010	19.994	103.407	19.515	43.262	0.531
542.500	346.931	80.007	19.996	103.407	19.516	43.155	0.541
543.000	347.164	80.007	19.996	103.406	19.519	42.920	0.515
543.500	347.391	80.010	19.995	103.403	19.521	42.819	0.475
544.000	347.637	80.007	19.995	103.401	19.525	42.505	0.467
544.500	347.901	80.009	19.996	103.394	19.526	42.439	0.492
545.000	348.121	80.008	19.995	103.386	19.533	41.996	0.497
545.500	348.406	80.002	19.996	103.379	19.532	42.040	0.494
546.000	348.608	80.007	19.995	103.374	19.538	41.608	0.496
546.500	348.886	80.007	19.995	103.369	19.541	41.396	0.484
547.000	349.137	80.009	19.995	103.367	19.547	40.967	0.504
547.500	349.374	80.008	19.994	103.367	19.552	40.609	0.508
548.000	349.632	80.007	19.994	103.366	19.555	40.447	0.492
548.500	349.868	80.007	19.995	103.362	19.559	40.123	0.495
549.000	350.164	80.008	19.996	103.359	19.564	39.788	0.513
549.500	350.437	80.008	19.995	103.356	19.568	39.532	0.550
550.000	350.651	80.008	19.994	103.350	19.571	39.307	0.527
550.500	350.904	80.011	19.995	103.343	19.576	38.991	0.477
551.000	351.169	80.008	19.995	103.339	19.583	38.503	0.493
551.500	351.417	80.007	19.995	103.333	19.590	37.973	0.516
552.000	351.649	80.008	19.995	103.330	19.593	37.767	0.496
552.500	351.905	80.006	19.996	103.329	19.597	37.465	0.484
553.000	352.144	80.007	19.995	103.329	19.606	36.875	0.491
553.500	352.427	80.007	19.995	103.326	19.610	36.616	0.509
554.000	352.699	80.004	19.995	103.324	19.616	36.180	0.539
554.500	352.925	80.007	19.995	103.324	19.619	35.964	0.527
555.000	353.198	80.006	19.995	103.324	19.626	35.480	0.498
555.500	353.466	80.008	19.995	103.319	19.632	35.028	0.520
556.000	353.738	80.007	19.994	103.318	19.634	34.887	0.540
556.500	353.947	80.007	19.995	103.315	19.644	34.176	0.511
557.000	354.195	80.009	19.994	103.307	19.649	33.870	0.469
557.500	354.458	80.008	19.994	103.299	19.655	33.462	0.484
558.000	354.692	80.007	19.995	103.295	19.660	33.112	0.504
558.500	354.930	80.007	19.994	103.287	19.666	32.673	0.484
559.000	355.211	80.004	19.995	103.286	19.674	32.129	0.496
559.500	355.452	80.007	19.994	103.283	19.676	31.947	0.521
560.001	355.679	80.005	19.995	103.278	19.683	31.514	0.496
560.501	355.931	80.008	19.994	103.275	19.690	30.970	0.474
561.001	356.197	80.006	19.995	103.281	19.695	30.645	0.498
561.500	356.426	80.010	19.994	103.281	19.704	30.036	0.506
562.000	356.697	80.005	19.994	103.280	19.706	29.852	0.497
562.500	356.947	80.008	19.995	103.283	19.714	29.338	0.510
563.000	357.193	80.006	19.995	103.279	19.719	28.987	0.509
563.500	357.438	80.003	19.993	103.271	19.723	28.697	0.494
564.000	357.686	80.006	19.994	103.269	19.730	28.240	0.492
564.500	357.953	80.009	19.994	103.269	19.734	27.956	0.504
565.000	358.201	80.007	19.995	103.266	19.741	27.435	0.515
565.500	358.413	80.010	19.994	103.265	19.744	27.205	0.487
566.000	358.680	80.011	19.995	103.265	19.749	26.863	0.469
566.500	358.959	80.009	19.995	103.259	19.758	26.288	0.512
567.000	359.214	80.006	19.994	103.256	19.762	26.011	0.540
567.500	359.456	80.011	19.995	103.256	19.766	25.692	0.516
568.000	359.721	80.008	19.994	103.257	19.772	25.307	0.501
568.500	359.967	80.008	19.995	103.257	19.776	25.026	0.509
569.000	360.183	80.009	19.995	103.258	19.781	24.621	0.487
569.500	360.464	80.004	19.995	103.257	19.784	24.440	0.479
570.000	360.733	80.010	19.994	103.256	19.792	23.878	0.523
570.500	360.981	80.009	19.995	103.256	19.796	23.634	0.534
571.000	361.188	80.008	19.995	103.256	19.802	23.202	0.486
571.500	361.486	80.009	19.995	103.257	19.807	22.861	0.480
572.000	361.704	80.006	19.995	103.257	19.812	22.521	0.511
572.500	361.940	80.009	19.995	103.256	19.814	22.339	0.486
573.000	362.244	80.009	19.995	103.250	19.818	22.089	0.497
573.500	362.486	80.010	19.994	103.244	19.822	21.818	0.542
574.000	362.730	80.011	19.994	103.238	19.825	21.567	0.516
574.500	362.967	80.008	19.994	103.236	19.828	21.365	0.484
575.000	363.225	80.008	19.994	103.236	19.836	20.845	0.489
575.500	363.494	80.008	19.995	103.241	19.840	20.510	0.512
576.000	363.763	80.009	19.995	103.246	19.843	20.303	0.533
576.500	363.966	80.007	19.995	103.253	19.846	20.135	0.505
577.000	364.251	80.007	19.995	103.254	19.853	19.662	0.480
577.500	364.483	80.005	19.995	103.253	19.855	19.485	0.502
578.000	364.724	80.008	19.995	103.250	19.858	19.295	0.494
578.500	364.973	80.008	19.996	103.244	19.863	18.948	0.481
579.000	365.230	80.007	19.996	103.241	19.866	18.701	0.498
579.500	365.477	80.007	19.995	103.241	19.869	18.530	0.505
580.000	365.747	80.006	19.995	103.242	19.875	18.126	0.510
580.500	365.985	80.006	19.995	103.244	19.878	17.874	0.513
581.000	366.287	80.008	19.995	103.249	19.879	17.828	0.524
581.500	366.506	80.007	19.996	103.247	19.880	17.754	0.531
582.000	366.742	80.009	19.996	103.245	19.889	17.124	0.488
582.500	367.003	80.009	19.996	103.239	19.891	16.993	0.476
583.000	367.280	80.009	19.995	103.239	19.895	16.720	0.517
583.500	367.527	80.011	19.995	103.236	19.896	16.604	0.531
584.000	367.754	80.009	19.995	103.238	19.902	16.244	0.499
584.500	368.008	80.010	19.995	103.240	19.904	16.091	0.477
585.000	368.257	80.009	19.996	103.245	19.904	16.042	0.491
585.500	368.529	80.008	19.996	103.244	19.906	15.916	0.512
586.000	368.775	80.007	19.995	103.245	19.908	15.780	0.520
586.500	369.031	80.008	19.995	103.243	19.913	15.442	0.511
587.000	369.291	80.008	19.994	103.237	19.917	15.142	0.509
587.500	369.481	80.005	19.995	103.230	19.918	15.130	0.483
588.000	369.739	80.005	19.995	103.226	19.921	14.898	0.449
588.500	369.987	80.011	19.994	103.221	19.920	14.937	0.477
589.000	370.260	80.009	19.996	103.223	19.923	14.716	0.514
589.500	370.504	80.010	19.995	103.227	19.930	14.287	0.519
590.000	370.753	80.010	19.994	103.232	19.929	14.317	0.505
590.500	371.063	80.010	19.994	103.237	19.932	14.104	0.526
591.000	371.269	80.012	19.994	103.239	19.933	14.028	0.538
591.500	371.521	80.009	19.995	103.234	19.934	13.947	0.487
592.000	371.781	80.009	19.994	103.234	19.938	13.667	0.485
592.500	372.042	80.010	19.995	103.234	19.939	13.666	0.517
593.000	372.315	80.010	19.994	103.230	19.942	13.405	0.527
593.500	372.559	80.010	19.995	103.227	19.941	13.487	0.525
594.000	372.818	80.009	19.994	103.231	19.945	13.233	0.510
594.500	373.065	80.011	19.994	103.227	19.945	13.182	0.505
595.000	373.313	80.011	19.994	103.223	19.949	12.969	0.501
595.500	373.584	80.006	19.994	103.221	19.950	12.855	0.507
596.000	373.854	80.009	19.995	103.220	19.952	12.730	0.530
596.500	374.108	80.011	19.994	103.217	19.953	12.656	0.533
597.001	374.370	80.007	19.996	103.216	19.956	12.435	0.520
597.500	374.611	80.012	19.995	103.215	19.957	12.384	0.510
598.000	374.878	80.010	19.995	103.217	19.956	12.427	0.505
598.500	375.120	80.010	19.995	103.217	19.956	12.465	0.508
599.000	375.348	80.007	19.995	103.216	19.957	12.355	0.489
599.500	375.619	80.008	19.995	103.215	19.959	12.204	0.485
600.000	375.903	80.008	19.996	103.215	19.958	12.272	0.528
600.500	376.120	80.008	19.996	103.214	19.959	12.214	0.528
601.000	376.430	80.007	19.994	103.214	19.962	12.048	0.513
601.500	376.629	80.007	19.994	103.213	19.962	12.046	0.518
602.000	376.928	80.010	19.995	103.215	19.961	12.101	0.504
602.500	377.119	80.006	19.995	103.216	19.962	11.997	0.495
603.000	377.374	80.011	19.996	103.216	19.966	11.762	0.468
603.500	377.658	80.005	19.997	103.216	19.969	11.569	0.492
604.001	377.915	80.007	19.996	103.220	19.966	11.764	0.540
604.500	378.133	80.004	19.996	103.222	19.969	11.545	0.508
605.000	378.371	80.008	19.995	103.222	19.973	11.268	0.465
605.500	378.641	80.005	19.996	103.222	19.971	11.434	0.482
606.000	378.910	80.008	19.996	103.221	19.971	11.376	0.523
606.500	379.160	80.006	19.996	103.218	19.973	11.261	0.529
607.000	379.427	80.008	19.995	103.213	19.975	11.113	0.518
607.500	379.648	80.009	19.996	103.213	19.975	11.091	0.503
608.000	379.928	80.008	19.996	103.213	19.975	11.156	0.494
608.500	380.181	80.007	19.996	103.213	19.975	11.104	0.517
609.000	380.456	80.006	19.996	103.213	19.976	11.019	0.531
609.500	380.709	80.007	19.995	103.213	19.978	10.938	0.528
610.000	380.936	80.009	19.995	103.212	19.978	10.923	0.504
610.500	381.184	80.007	19.996	103.213	19.977	11.012	0.478
611.000	381.425	80.005	19.996	103.213	19.981	10.706	0.482
611.500	381.698	80.006	19.995	103.213	19.978	10.893	0.501
612.000	381.937	80.007	19.996	103.215	19.981	10.712	0.513
612.500	382.205	80.007	19.995	103.216	19.980	10.784	0.510
613.000	382.463	80.007	19.995	103.216	19.981	10.736	0.516
613.500	382.709	80.006	19.995	103.217	19.983	10.595	0.515
614.000	382.969	80.006	19.996	103.216	19.981	10.702	0.505
614.500	383.205	80.008	19.995	103.213	19.984	10.501	0.500
615.000	383.442	80.005	19.995	103.212	19.984	10.475	0.484
615.500	383.711	80.006	19.995	103.213	19.983	10.564	0.490
616.000	383.967	80.007	19.995	103.219	19.983	10.551	0.516
616.500	384.236	80.008	19.995	103.221	19.984	10.473	0.525
617.000	384.488	80.008	19.996	103.223	19.986	10.345	0.523
617.500	384.755	80.004	19.995	103.224	19.986	10.335	0.520
618.000	384.991	80.008	19.995	103.222	19.987	10.294	0.511
618.500	385.224	80.006	19.995	103.215	19.988	10.248	0.486
619.000	385.500	80.008	19.995	103.215	19.988	10.194	0.489
619.500	385.730	80.007	19.995	103.214	19.986	10.322	0.507
620.000	386.013	80.006	19.995	103.213	19.987	10.284	0.509
620.500	386.264	80.006	19.994	103.213	19.985	10.401	0.524
621.000	386.527	80.006	19.994	103.213	19.985	10.405	0.524
621.500	386.767	80.005	19.995	103.213	19.986	10.348	0.509
622.000	387.010	80.007	19.994	103.215	19.988	10.220	0.494
622.500	387.266	80.009	19.994	103.217	19.987	10.320	0.491
623.000	387.507	80.009	19.994	103.217	19.986	10.369	0.497
623.500	387.790	80.007	19.994	103.217	19.986	10.341	0.510
624.000	388.019	80.010	19.994	103.217	19.985	10.396	0.518
624.500	388.306	80.006	19.995	103.217	19.988	10.220	0.514
625.000	388.555	80.008	19.994	103.217	19.986	10.364	0.526
625.500	388.804	80.007	19.994	103.224	19.987	10.298	0.517
626.000	389.047	80.006	19.995	103.230	19.984	10.475	0.495
626.500	389.284	80.008	19.994	103.231	19.985	10.407	0.486
627.000	389.547	80.008	19.994	103.231	19.986	10.341	0.491
627.500	389.801	80.010	19.995	103.228	19.985	10.453	0.509
628.000	390.019	80.005	19.994	103.221	19.985	10.415	0.494
628.500	390.316	80.008	19.994	103.214	19.985	10.393	0.493
629.000	390.557	80.006	19.994	103.213	19.985	10.404	0.526
629.500	390.804	80.007	19.994	103.213	19.985	10.455	0.513
630.000	391.045	80.008	19.995	103.215	19.985	10.449	0.488
630.500	391.293	80.008	19.994	103.215	19.985	10.408	0.489
631.000	391.560	80.005	19.995	103.213	19.984	10.462	0.502
631.500	391.817	80.006	19.995	103.210	19.988	10.194	0.519
632.000	392.085	80.007	19.994	103.210	19.986	10.387	0.524
632.500	392.317	80.008	19.995	103.210	19.985	10.445	0.512
633.000	392.626	80.008	19.994	103.211	19.985	10.434	0.521
633.500	392.827	80.006	19.996	103.213	19.987	10.273	0.526
634.001	393.098	80.006	19.995	103.215	19.985	10.426	0.491
634.501	393.314	80.007	19.995	103.214	19.986	10.323	0.479
635.001	393.591	80.008	19.994	103.216	19.985	10.400	0.490
635.500	393.847	80.005	19.995	103.217	19.987	10.300	0.513
636.000	394.105	80.010	19.993	103.217	19.986	10.366	0.524
636.500	394.360	80.003	19.995	103.216	19.983	10.566	0.514
637.000	394.596	80.008	19.994	103.216	19.986	10.370	0.502
637.500	394.863	80.008	19.995	103.214	19.985	10.398	0.497
638.000	395.119	80.008	19.994	103.214	19.985	10.435	0.513
638.500	395.363	80.005	19.995	103.215	19.984	10.505	0.511
639.000	395.600	80.005	19.995	103.217	19.982	10.640	0.490
639.500	395.835	80.007	19.994	103.220	19.984	10.507	0.476
640.000	396.096	80.006	19.994	103.220	19.980	10.761	0.484
640.500	396.349	80.007	19.995	103.221	19.982	10.662	0.506
641.001	396.618	80.008	19.994	103.219	19.982	10.632	0.519
641.500	396.869	80.008	19.994	103.219	19.980	10.764	0.521
642.000	397.127	80.007	19.994	103.217	19.982	10.658	0.514
642.500	397.406	80.008	19.994	103.217	19.983	10.579	0.522
643.000	397.585	80.006	19.994	103.217	19.984	10.487	0.497
643.500	397.864	80.007	19.994	103.219	19.981	10.672	0.459
644.000	398.118	80.008	19.994	103.218	19.981	10.738	0.496
644.500	398.404	80.008	19.995	103.218	19.983	10.530	0.536
645.000	398.641	80.007	19.995	103.218	19.978	10.891	0.531
645.500	398.884	80.008	19.995	103.218	19.981	10.702	0.501
646.000	399.164	80.007	19.994	103.219	19.981	10.723	0.501
646.500	399.401	80.009	19.994	103.220	19.980	10.751	0.520
647.000	399.620	80.009	19.994	103.220	19.980	10.761	0.486
647.500	399.905	80.007	19.994	103.219	19.981	10.670	0.480
648.000	400.139	80.006	19.995	103.218	19.981	10.698	0.512
648.500	400.392	80.006	19.994	103.215	19.980	10.781	0.503
649.000	400.670	80.008	19.995	103.214	19.983	10.575	0.510
649.500	400.920	80.009	19.995	103.214	19.983	10.564	0.530
650.000	401.136	80.009	19.994	103.215	19.982	10.615	0.497
650.500	401.399	80.008	19.995	103.213	19.982	10.654	0.472
651.000	401.649	80.008	19.995	103.214	19.984	10.524	0.496
651.501	401.916	80.007	19.995	103.214	19.980	10.758	0.515
652.000	402.145	80.009	19.995	103.214	19.978	10.943	0.507
652.500	402.382	80.012	19.994	103.212	19.984	10.526	0.481
653.001	402.616	80.011	19.995	103.214	19.978	10.885	0.468
653.500	402.877	80.007	19.994	103.214	19.978	10.940	0.483
654.000	403.130	80.010	19.995	103.216	19.980	10.789	0.505
654.500	403.372	80.007	19.995	103.218	19.977	10.961	0.505
655.000	403.655	80.010	19.994	103.218	19.979	10.876	0.510
655.500	403.891	80.009	19.994	103.218	19.976	11.025	0.522
656.000	404.123	80.009	19.995	103.218	19.976	11.023	0.494
656.500	404.406	80.009	19.993	103.217	19.976	11.031	0.492
657.000	404.652	80.007	19.994	103.215	19.977	10.963	0.522
657.500	404.931	80.008	19.994	103.215	19.978	10.934	0.526
658.001	405.155	80.010	19.995	103.216	19.975	11.127	0.514
658.500	405.398	80.010	19.994	103.215	19.976	11.085	0.485
659.000	405.636	80.004	19.995	103.214	19.973	11.288	0.474
659.500	405.896	80.008	19.994	103.214	19.975	11.121	0.489
660.000	406.165	80.007	19.995	103.213	19.976	11.063	0.514
660.500	406.423	80.008	19.994	103.211	19.971	11.378	0.529
661.000	406.654	80.010	19.995	103.211	19.973	11.237	0.508
661.500	406.914	80.010	19.994	103.211	19.975	11.138	0.490
662.000	407.156	80.009	19.995	103.210	19.975	11.142	0.496
662.500	407.438	80.009	19.995	103.208	19.974	11.197	0.513
663.000	407.672	80.008	19.994	103.210	19.976	11.065	0.520
663.500	407.948	80.007	19.994	103.212	19.973	11.256	0.513
664.000	408.212	80.007	19.995	103.212	19.972	11.335	0.525
664.500	408.441	80.012	19.995	103.213	19.972	11.345	0.517
665.000	408.683	80.005	19.995	103.214	19.975	11.141	0.482
665.500	408.942	80.009	19.994	103.214	19.970	11.442	0.486
666.000	409.202	80.005	19.995	103.215	19.970	11.453	0.510
666.500	409.455	80.004	19.995	103.215	19.970	11.438	0.516
667.000	409.669	80.005	19.995	103.216	19.970	11.504	0.490
667.500	409.955	80.005	19.995	103.215	19.968	11.626	0.484
668.000	410.194	80.007	19.995	103.215	19.969	11.549	0.513
668.500	410.446	80.007	19.995	103.214	19.969	11.536	0.508
669.000	410.707	80.008	19.995	103.213	19.969	11.571	0.502
669.500	410.954	80.010	19.994	103.213	19.969	11.560	0.511
670.000	411.221	80.010	19.995	103.213	19.970	11.475	0.511
670.500	411.498	80.006	19.995	103.213	19.968	11.639	0.529
671.000	411.726	80.008	19.994	103.213	19.969	11.551	0.525
671.500	411.957	80.006	19.995	103.213	19.968	11.618	0.482
672.000	412.232	80.012	19.995	103.213	19.966	11.777	0.482
672.500	412.526	80.007	19.996	103.213	19.968	11.611	0.537
673.000	412.739	80.008	19.994	103.212	19.967	11.671	0.538
673.500	412.993	80.009	19.995	103.211	19.968	11.643	0.487
674.000	413.271	80.006	19.996	103.213	19.967	11.656	0.500
674.500	413.497	80.011	19.995	103.213	19.970	11.477	0.518
675.000	413.750	80.008	19.996	103.214	19.969	11.545	0.491
675.500	414.033	80.008	19.995	103.218	19.967	11.655	0.507
676.000	414.294	80.010	19.995	103.220	19.966	11.725	0.540
676.500	414.541	80.009	19.995	103.222	19.964	11.897	0.526
677.000	414.774	80.010	19.995	103.223	19.968	11.629	0.494
677.500	414.983	80.010	19.995	103.221	19.968	11.616	0.461
678.000	415.245	80.012	19.995	103.218	19.967	11.689	0.457
678.500	415.497	80.008	19.995	103.217	19.966	11.723	0.493
679.000	415.761	80.011	19.995	103.216	19.968	11.630	0.515
679.500	416.021	80.010	19.995	103.223	19.965	11.825	0.520
680.000	416.274	80.011	19.995	103.230	19.965	11.842	0.519
680.500	416.541	80.011	19.994	103.233	19.966	11.776	0.517
681.000	416.794	80.011	19.995	103.232	19.964	11.921	0.520
681.500	417.056	80.011	19.995	103.228	19.967	11.690	0.518
682.000	417.273	80.010	19.995	103.221	19.964	11.919	0.497
682.500	417.562	80.009	19.995	103.213	19.964	11.883	0.492
683.000	417.801	80.011	19.995	103.210	19.962	12.055	0.517
683.500	418.049	80.008	19.995	103.210	19.962	12.029	0.508
684.000	418.323	80.011	19.994	103.212	19.961	12.070	0.505
684.500	418.558	80.009	19.995	103.212	19.962	12.036	0.516
685.000	418.853	80.009	19.994	103.213	19.960	12.150	0.520
685.500	419.087	80.009	19.995	103.214	19.958	12.331	0.530
686.000	419.351	80.009	19.994	103.214	19.961	12.105	0.513
686.500	419.592	80.009	19.995	103.219	19.960	12.137	0.502
687.000	419.844	80.006	19.994	103.220	19.960	12.192	0.500
687.500	420.122	80.008	19.994	103.220	19.960	12.139	0.512
688.000	420.383	80.008	19.995	103.221	19.962	12.044	0.534
688.500	420.647	80.007	19.994	103.221	19.959	12.269	0.532
689.000	420.900	80.009	19.995	103.216	19.958	12.314	0.521
689.500	421.169	80.007	19.994	103.216	19.956	12.452	0.520
690.000	421.440	80.007	19.995	103.217	19.958	12.328	0.531
690.500	421.683	80.009	19.995	103.217	19.957	12.370	0.527
691.000	421.885	80.005	19.996	103.218	19.959	12.216	0.480
691.500	422.184	80.005	19.995	103.216	19.956	12.460	0.473
692.000	422.408	80.005	19.995	103.216	19.957	12.360	0.512
692.500	422.667	80.008	19.995	103.215	19.956	12.435	0.503
693.000	422.939	80.006	19.995	103.215	19.957	12.372	0.507
693.500	423.182	80.007	19.995	103.213	19.958	12.312	0.523
694.000	423.442	80.007	19.994	103.215	19.958	12.315	0.508
694.500	423.683	80.008	19.994	103.216	19.957	12.391	0.502
695.000	423.927	80.007	19.994	103.216	19.956	12.419	0.493
695.500	424.195	80.007	19.995	103.216	19.954	12.554	0.498
696.000	424.450	80.006	19.995	103.217	19.955	12.530	0.518
696.500	424.697	80.007	19.995	103.215	19.956	12.426	0.513
697.000	424.954	80.007	19.996	103.216	19.953	12.674	0.503
697.500	425.178	80.007	19.997	103.217	19.956	12.471	0.493
698.000	425.460	80.006	19.995	103.217	19.958	12.337	0.493
698.501	425.687	80.008	19.996	103.217	19.957	12.381	0.507
699.000	425.940	80.003	19.995	103.220	19.955	12.494	0.494
699.500	426.204	80.006	19.995	103.219	19.958	12.292	0.499
700.000	426.476	80.006	19.995	103.218	19.957	12.356	0.527
700.500	426.728	80.004	19.995	103.218	19.957	12.400	0.530
701.000	426.992	80.007	19.996	103.223	19.954	12.589	0.520
701.500	427.221	80.007	19.996	103.221	19.954	12.553	0.504
702.000	427.487	80.004	19.995	103.220	19.956	12.454	0.494
702.500	427.698	80.007	19.995	103.220	19.953	12.645	0.486
703.000	427.993	80.009	19.995	103.219	19.954	12.620	0.492
703.500	428.217	80.007	19.996	103.215	19.952	12.702	0.512
704.000	428.495	80.008	19.996	103.213	19.954	12.558	0.510
704.500	428.784	80.006	19.996	103.210	19.956	12.435	0.534
705.000	428.979	80.005	19.995	103.211	19.955	12.492	0.525
705.500	429.256	80.006	19.995	103.211	19.954	12.560	0.478
706.000	429.490	80.008	19.995	103.211	19.954	12.585	0.492
706.500	429.693	80.006	19.996	103.213	19.956	12.464	0.474
707.000	430.018	80.008	19.995	103.218	19.957	12.396	0.482
707.500	430.287	80.008	19.996	103.218	19.955	12.520	0.561
708.000	430.521	80.005	19.996	103.218	19.956	12.456	0.549
708.500	430.758	80.007	19.996	103.218	19.958	12.312	0.487
709.000	431.002	80.007	19.996	103.218	19.957	12.356	0.476
709.500	431.243	80.006	19.994	103.218	19.958	12.297	0.483
710.000	431.498	80.005	19.995	103.217	19.956	12.444	0.491
710.500	431.765	80.009	19.995	103.217	19.957	12.400	0.510
711.000	432.022	80.009	19.995	103.218	19.957	12.408	0.523
711.500	432.258	80.007	19.996	103.218	19.958	12.298	0.508
712.000	432.517	80.007	19.995	103.219	19.955	12.489	0.494
712.500	432.819	80.007	19.995	103.220	19.956	12.435	0.528
713.000	433.072	80.005	19.995	103.219	19.954	12.587	0.558
713.500	433.333	80.007	19.995	103.217	19.951	12.761	0.534
714.000	433.540	80.006	19.996	103.216	19.953	12.668	0.491
714.500	433.821	80.007	19.995	103.216	19.957	12.351	0.478
715.000	434.082	80.009	19.996	103.215	19.957	12.345	0.516
715.500	434.362	80.007	19.996	103.217	19.956	12.450	0.542
716.000	434.582	80.009	19.995	103.218	19.957	12.342	0.520
716.500	434.844	80.006	19.994	103.219	19.956	12.466	0.491
717.000	435.084	80.010	19.995	103.219	19.952	12.700	0.492
717.500	435.345	80.007	19.994	103.220	19.954	12.551	0.501
718.000	435.636	80.008	19.995	103.218	19.956	12.448	0.527
718.500	435.884	80.007	19.995	103.218	19.954	12.579	0.546
719.000	436.122	80.007	19.996	103.218	19.955	12.522	0.512
719.500	436.373	80.007	19.995	103.217	19.952	12.753	0.488
720.000	436.619	80.008	19.995	103.214	19.955	12.523	0.493
720.500	436.911	80.005	19.995	103.212	19.953	12.631	0.517
721.000	437.131	80.003	19.996	103.211	19.953	12.678	0.525
721.500	437.369	80.007	19.995	103.210	19.955	12.531	0.485
722.000	437.625	80.008	19.995	103.209	19.956	12.437	0.476
722.500	437.931	80.006	19.995	103.210	19.956	12.469	0.528
723.000	438.138	80.007	19.995	103.211	19.953	12.648	0.537
723.500	438.446	80.006	19.995	103.211	19.955	12.491	0.514
724.000	438.684	80.006	19.995	103.207	19.955	12.506	0.531
724.500	438.925	80.011	19.994	103.207	19.956	12.464	0.513
725.000	439.175	80.007	19.995	103.204	19.956	12.468	0.485
725.500	439.438	80.008	19.996	103.204	19.958	12.321	0.502
726.000	439.673	80.006	19.995	103.205	19.954	12.588	0.505
726.500	439.920	80.007	19.996	103.210	19.955	12.508	0.490
727.000	440.162	80.008	19.995	103.209	19.951	12.766	0.486
727.500	440.416	80.009	19.995	103.209	19.955	12.492	0.493
728.000	440.638	80.010	19.995	103.206	19.955	12.548	0.486
728.500	440.898	80.011	19.995	103.202	19.958	12.309	0.479
729.000	441.145	80.010	19.994	103.194	19.955	12.524	0.495
729.500	441.403	80.007	19.995	103.189	19.956	12.411	0.506
730.000	441.644	80.009	19.994	103.186	19.952	12.728	0.502
730.500	441.890	80.008	19.995	103.188	19.956	12.424	0.492
731.000	442.131	80.008	19.994	103.192	19.954	12.616	0.487
731.500	442.368	80.011	19.995	103.199	19.959	12.259	0.482
732.000	442.685	80.009	19.995	103.206	19.955	12.496	0.516
732.500	442.930	80.010	19.995	103.212	19.955	12.521	0.558
733.000	443.162	80.008	19.995	103.214	19.954	12.617	0.520
733.500	443.413	80.009	19.994	103.214	19.954	12.575	0.480
734.000	443.670	80.008	19.995	103.211	19.957	12.364	0.496
734.500	443.907	80.010	19.994	103.208	19.956	12.450	0.501
735.000	444.181	80.009	19.994	103.208	19.954	12.558	0.502
735.500	444.434	80.009	19.995	103.206	19.960	12.144	0.519
736.000	444.646	80.011	19.994	103.206	19.957	12.362	0.496
736.500	444.899	80.008	19.995	103.208	19.957	12.342	0.465
737.000	445.171	80.009	19.994	103.210	19.957	12.367	0.495
737.500	445.421	80.009	19.995	103.209	19.958	12.303	0.524
738.000	445.652	80.009	19.995	103.205	19.957	12.389	0.502
738.500	445.918	80.009	19.995	103.198	19.962	12.052	0.489
739.000	446.144	80.007	19.995	103.193	19.959	12.237	0.494
739.500	446.445	80.011	19.995	103.188	19.960	12.197	0.509
740.000	446.711	80.010	19.995	103.186	19.959	12.204	0.547
740.500	446.914	80.011	19.996	103.191	19.959	12.225	0.518
741.000	447.161	80.010	19.995	103.198	19.959	12.217	0.460
741.500	447.434	80.011	19.995	103.203	19.962	12.003	0.485
742.000	447.691	80.012	19.994	103.208	19.959	12.219	0.525
742.500	447.952	80.007	19.994	103.210	19.959	12.248	0.524
743.000	448.180	80.011	19.995	103.207	19.960	12.161	0.504
743.500	448.416	80.010	19.995	103.205	19.958	12.304	0.477
744.000	448.712	80.009	19.995	103.204	19.961	12.083	0.498
744.501	448.975	80.010	19.995	103.204	19.961	12.111	0.545
745.000	449.198	80.010	19.995	103.202	19.963	11.947	0.522
745.500	449.435	80.011	19.995	103.199	19.964	11.890	0.473
746.000	449.675	80.012	19.995	103.197	19.965	11.792	0.468
746.500	449.888	80.010	19.995	103.195	19.964	11.873	0.465
747.000	450.192	80.009	19.995	103.189	19.968	11.595	0.485
747.500	450.430	80.009	19.994	103.192	19.965	11.848	0.529
748.000	450.697	80.010	19.994	103.198	19.968	11.634	0.523
748.500	450.978	80.007	19.994	103.199	19.964	11.907	0.526
749.001	451.257	80.009	19.995	103.195	19.965	11.815	0.554
749.500	451.461	80.008	19.994	103.200	19.965	11.799	0.522
750.000	451.739	80.008	19.994	103.202	19.966	11.749	0.483
750.500	451.949	80.010	19.995	103.199	19.965	11.819	0.485
751.000	452.200	80.009	19.994	103.195	19.965	11.798	0.475
751.500	452.467	80.010	19.994	103.196	19.967	11.675	0.490
752.000	452.750	80.009	19.994	103.192	19.971	11.401	0.534
752.500	453.039	80.009	19.995	103.191	19.969	11.533	0.560
753.000	453.263	80.008	19.995	103.193	19.968	11.633	0.543
753.500	453.506	80.011	19.994	103.198	19.968	11.632	0.491
754.000	453.756	80.008	19.995	103.203	19.970	11.449	0.480
754.500	454.029	80.010	19.994	103.209	19.970	11.479	0.508
755.000	454.263	80.009	19.994	103.209	19.970	11.470	0.515
755.500	454.537	80.008	19.995	103.210	19.971	11.423	0.507
756.000	454.792	80.012	19.994	103.210	19.971	11.429	0.519
756.500	455.001	80.008	19.994	103.209	19.971	11.379	0.497
757.000	455.260	80.010	19.994	103.209	19.970	11.492	0.466
757.500	455.541	80.010	19.994	103.211	19.973	11.288	0.503
758.000	455.789	80.009	19.994	103.210	19.972	11.307	0.534
758.500	456.063	80.008	19.994	103.205	19.969	11.522	0.526
759.000	456.315	80.011	19.994	103.200	19.971	11.412	0.524
759.500	456.572	80.010	19.995	103.196	19.971	11.381	0.517
760.000	456.829	80.010	19.995	103.193	19.974	11.217	0.511
760.500	457.076	80.011	19.995	103.190	19.970	11.459	0.509
761.000	457.355	80.009	19.993	103.194	19.976	11.070	0.515
761.500	457.607	80.009	19.994	103.197	19.974	11.174	0.528
762.000	457.872	80.010	19.994	103.199	19.973	11.242	0.524
762.500	458.099	80.010	19.994	103.196	19.975	11.152	0.505
763.000	458.347	80.011	19.994	103.193	19.977	10.978	0.483
763.500	458.632	80.010	19.994	103.189	19.974	11.193	0.504
764.000	458.836	80.010	19.994	103.191	19.974	11.202	0.511
764.500	459.128	80.012	19.993	103.186	19.975	11.086	0.492
765.000	459.377	80.010	19.994	103.183	19.974	11.171	0.518
765.500	459.612	80.010	19.994	103.187	19.977	10.988	0.513
766.000	459.929	80.010	19.994	103.188	19.975	11.122	0.519
766.500	460.175	80.010	19.994	103.187	19.979	10.818	0.557
767.000	460.438	80.010	19.994	103.191	19.979	10.852	0.536
767.500	460.684	80.009	19.995	103.198	19.981	10.728	0.509
768.000	460.943	80.008	19.995	103.199	19.980	10.773	0.507
768.500	461.227	80.008	19.994	103.199	19.983	10.545	0.524
769.000	461.452	80.008	19.996	103.195	19.983	10.557	0.526
769.500	461.683	80.008	19.995	103.193	19.982	10.610	0.483
770.000	461.918	80.008	19.995	103.190	19.983	10.597	0.461
770.500	462.201	80.008	19.994	103.187	19.984	10.496	0.492
771.000	462.456	80.007	19.994	103.186	19.985	10.430	0.528
771.500	462.686	80.006	19.995	103.187	19.980	10.775	0.511
772.000	462.998	80.007	19.995	103.192	19.984	10.490	0.513
772.500	463.226	80.006	19.994	103.192	19.984	10.528	0.541
773.000	463.474	80.007	19.995	103.194	19.982	10.639	0.508
773.500	463.718	80.006	19.995	103.196	19.983	10.540	0.484
774.000	464.008	80.006	19.995	103.195	19.983	10.570	0.513
774.500	464.230	80.006	19.995	103.189	19.984	10.502	0.523
775.000	464.461	80.007	19.994	103.185	19.985	10.430	0.482
775.500	464.767	80.006	19.995	103.183	19.987	10.256	0.495
776.000	465.021	80.006	19.995	103.183	19.986	10.345	0.549
776.500	465.260	80.006	19.994	103.183	19.988	10.212	0.527
777.000	465.516	80.007	19.995	103.184	19.987	10.252	0.494
777.500	465.780	80.007	19.995	103.184	19.989	10.119	0.507
778.000	466.039	80.006	19.995	103.187	19.990	10.050	0.521
778.500	466.256	80.007	19.995	103.191	19.989	10.128	0.499
779.000	466.538	80.006	19.995	103.192	19.988	10.209	0.487
779.500	466.847	80.007	19.995	103.195	19.987	10.291	0.545
780.000	467.098	80.006	19.995	103.202	19.987	10.259	0.576
780.500	467.355	80.006	19.995	103.204	19.989	10.134	0.534
781.000	467.623	80.006	19.995	103.206	19.990	10.046	0.517
781.501	467.884	80.007	19.996	103.209	19.989	10.170	0.527
782.000	468.174	80.007	19.996	103.212	19.992	9.952	0.540
782.500	468.408	80.008	19.995	103.211	19.991	9.986	0.537
783.000	468.645	80.008	19.996	103.211	19.992	9.946	0.497
783.500	468.916	80.008	19.995	103.208	19.993	9.861	0.489
784.000	469.205	80.007	19.995	103.205	19.993	9.872	0.534
784.500	469.467	80.006	19.995	103.199	19.991	10.015	0.556
785.000	469.729	80.007	19.996	103.197	19.993	9.894	0.538
785.500	469.976	80.008	19.995	103.198	19.993	9.861	0.517
786.000	470.221	80.007	19.994	103.196	19.997	9.606	0.501
786.500	470.468	80.007	19.995	103.195	19.996	9.687	0.492
787.000	470.754	80.006	19.995	103.193	19.994	9.774	0.512
787.500	471.036	80.007	19.995	103.192	19.996	9.681	0.551
788.000	471.281	80.008	19.996	103.190	19.993	9.857	0.548
788.500	471.514	80.009	19.996	103.189	19.992	9.916	0.503
789.000	471.808	80.008	19.995	103.192	19.995	9.738	0.503
789.500	472.069	80.008	19.995	103.199	19.992	9.938	0.541
790.000	472.306	80.008	19.995	103.203	19.993	9.892	0.527
790.500	472.600	80.008	19.995	103.202	19.994	9.769	0.514
791.000	472.833	80.008	19.995	103.205	19.994	9.811	0.529
791.500	473.084	80.008	19.996	103.208	19.995	9.738	0.505
792.000	473.385	80.007	19.995	103.208	19.995	9.751	0.518
792.500	473.612	80.010	19.996	103.205	19.996	9.676	0.540
793.000	473.889	80.007	19.995	103.201	19.996	9.669	0.516
793.500	474.158	80.008	19.996	103.199	19.993	9.834	0.525
794.000	474.398	80.008	19.995	103.194	19.997	9.561	0.528
794.500	474.676	80.006	19.995	103.190	19.992	9.945	0.514
795.000	474.979	80.007	19.996	103.193	19.994	9.799	0.549
795.500	475.225	80.007	19.994	103.199	19.995	9.751	0.565
796.000	475.461	80.007	19.995	103.201	19.997	9.577	0.516
796.500	475.739	80.006	19.996	103.198	19.996	9.684	0.498
797.000	475.991	80.008	19.996	103.196	19.995	9.736	0.522
797.500	476.272	80.004	19.996	103.194	19.997	9.608	0.532
798.000	476.526	80.006	19.995	103.189	19.999	9.452	0.534
798.500	476.736	80.006	19.995	103.188	19.995	9.692	0.499
799.001	477.028	80.007	19.996	103.195	19.995	9.715	0.482
799.500	477.302	80.006	19.996	103.198	19.996	9.623	0.534
800.000	477.571	80.008	19.995	103.193	19.993	9.863	0.555
800.500	477.858	80.007	19.996	103.192	19.997	9.611	0.549
801.000	478.080	80.008	19.996	103.187	19.995	9.723	0.532
801.500	478.339	80.005	19.996	103.182	19.994	9.815	0.495
802.000	478.581	80.006	19.996	103.182	19.996	9.654	0.491
802.500	478.814	80.006	19.995	103.189	19.998	9.516	0.488
803.000	479.095	80.008	19.996	103.194	19.999	9.437	0.495
803.500	479.365	80.007	19.995	103.198	19.997	9.567	0.532
804.000	479.601	80.008	19.996	103.201	19.999	9.440	0.528
804.500	479.872	80.005	19.996	103.203	20.000	9.362	0.507
805.000	480.144	80.007	19.996	103.202	19.996	9.647	0.525
805.500	480.338	80.006	19.996	103.201	19.999	9.450	0.505
806.000	480.631	80.007	19.996	103.197	20.000	9.350	0.476
806.500	480.903	80.006	19.996	103.192	20.001	9.321	0.526
807.000	481.169	80.006	19.996	103.185	20.000	9.402	0.552
807.500	481.468	80.008	19.995	103.179	20.003	9.145	0.551
808.000	481.683	80.006	19.996	103.174	20.002	9.238	0.540
808.500	481.913	80.006	19.996	103.175	20.003	9.172	0.480
809.000	482.175	80.006	19.995	103.181	20.002	9.235	0.468
809.500	482.447	80.007	19.995	103.187	20.002	9.207	0.513
810.000	482.694	80.006	19.995	103.192	20.005	9.001	0.527
810.500	482.942	80.008	19.996	103.194	20.003	9.171	0.507
811.000	483.213	80.007	19.995	103.197	20.006	8.948	0.506
811.500	483.449	80.008	19.995	103.193	20.004	9.116	0.512
812.000	483.691	80.007	19.995	103.189	20.003	9.193	0.492
812.500	483.953	80.008	19.996	103.188	20.005	9.023	0.491
813.000	484.216	80.009	19.994	103.187	20.005	8.998	0.515
813.500	484.484	80.009	19.994	103.184	20.005	9.036	0.528
814.000	484.725	80.009	19.995	103.182	20.003	9.172	0.520
814.500	484.997	80.008	19.993	103.180	20.007	8.921	0.511
815.000	485.260	80.009	19.994	103.181	20.004	9.104	0.524
815.500	485.503	80.009	19.995	103.187	20.005	9.055	0.520
816.000	485.760	80.008	19.995	103.188	20.006	8.970	0.503
816.500	486.016	80.010	19.994	103.188	20.007	8.889	0.506
817.000	486.297	80.010	19.994	103.188	20.007	8.890	0.525
817.500	486.529	80.008	19.994	103.183	20.007	8.875	0.525
818.000	486.800	80.010	19.994	103.177	20.007	8.897	0.508
818.500	487.042	80.008	19.994	103.177	20.009	8.769	0.508
819.000	487.295	80.008	19.994	103.178	20.006	8.931	0.504
819.500	487.560	80.009	19.995	103.179	20.011	8.642	0.507
820.000	487.833	80.009	19.994	103.187	20.010	8.682	0.528
820.500	488.110	80.008	19.993	103.190	20.010	8.682	0.544
821.000	488.368	80.009	19.994	103.191	20.009	8.719	0.542
821.500	488.632	80.010	19.994	103.192	20.010	8.674	0.529
822.000	488.860	80.008	19.994	103.191	20.008	8.831	0.507
822.500	489.126	80.010	19.994	103.183	20.009	8.737	0.493
823.000	489.366	80.008	19.994	103.182	20.011	8.610	0.500
823.500	489.620	80.009	19.994	103.181	20.011	8.586	0.500
824.000	489.854	80.009	19.994	103.179	20.015	8.354	0.491
824.500	490.162	80.009	19.994	103.180	20.012	8.565	0.515
825.000	490.402	80.009	19.994	103.180	20.015	8.367	0.545
825.500	490.659	80.010	19.994	103.179	20.014	8.406	0.523
826.000	490.902	80.009	19.994	103.181	20.011	8.599	0.498
826.500	491.136	80.008	19.994	103.186	20.012	8.530	0.489
827.000	491.395	80.008	19.994	103.187	20.009	8.730	0.486
827.500	491.620	80.009	19.995	103.188	20.009	8.783	0.489
828.000	491.862	80.009	19.993	103.193	20.008	8.832	0.475
828.500	492.163	80.008	19.995	103.194	20.011	8.603	0.505
829.000	492.436	80.009	19.995	103.189	20.011	8.611	0.559
829.500	492.659	80.008	19.995	103.190	20.014	8.429	0.535
830.000	492.919	80.009	19.995	103.190	20.012	8.550	0.489
830.500	493.189	80.009	19.995	103.187	20.013	8.465	0.506
831.000	493.450	80.008	19.994	103.188	20.013	8.492	0.530
831.500	493.686	80.007	19.996	103.189	20.015	8.299	0.514
832.000	493.957	80.008	19.995	103.186	20.017	8.218	0.502
832.500	494.214	80.009	19.995	103.185	20.017	8.201	0.517
833.000	494.487	80.008	19.995	103.188	20.015	8.352	0.529
833.501	494.756	80.008	19.994	103.192	20.016	8.282	0.536
834.000	494.973	80.008	19.994	103.194	20.014	8.409	0.514
834.500	495.281	80.007	19.994	103.197	20.013	8.441	0.506
835.000	495.523	80.009	19.994	103.201	20.018	8.103	0.538
835.500	495.752	80.007	19.994	103.200	20.017	8.198	0.510
836.000	496.031	80.008	19.994	103.197	20.019	8.056	0.490
836.500	496.249	80.007	19.993	103.194	20.017	8.213	0.502
837.000	496.541	80.007	19.995	103.190	20.018	8.124	0.503
837.500	496.775	80.006	19.995	103.188	20.016	8.229	0.518
838.000	497.050	80.008	19.994	103.185	20.018	8.125	0.518
838.500	497.334	80.008	19.994	103.181	20.019	8.036	0.534
839.000	497.533	80.009	19.994	103.181	20.017	8.200	0.521
839.500	497.785	80.008	19.994	103.181	20.020	7.957	0.467
840.000	498.033	80.009	19.995	103.179	20.020	8.004	0.476
840.500	498.277	80.010	19.994	103.179	20.021	7.934	0.497
841.000	498.551	80.009	19.995	103.179	20.018	8.131	0.505
841.500	498.762	80.009	19.993	103.179	20.020	7.979	0.501
842.000	498.999	80.009	19.995	103.179	20.019	8.042	0.466
842.500	499.294	80.008	19.995	103.182	20.023	7.798	0.490
843.000	499.549	80.008	19.994	103.182	20.023	7.792	0.541
843.500	499.791	80.009	19.995	103.182	20.021	7.917	0.524
844.000	500.065	80.009	19.994	103.182	20.019	8.084	0.507
844.500	500.298	80.010	19.994	103.181	20.018	8.097	0.511
845.000	500.548	80.010	19.994	103.179	20.019	8.086	0.494
845.500	500.792	80.009	19.994	103.180	20.017	8.209	0.488
846.000	501.089	80.010	19.994	103.184	20.019	8.044	0.518
846.500	501.356	80.010	19.994	103.185	20.022	7.846	0.552
847.000	501.541	80.010	19.994	103.185	20.016	8.274	0.508
847.500	501.790	80.009	19.994	103.183	20.020	8.000	0.443
848.000	502.064	80.008	19.995	103.182	20.019	8.040	0.479
848.500	502.321	80.010	19.994	103.176	20.019	8.054	0.527
849.000	502.583	80.009	19.995	103.175	20.020	8.006	0.525
849.500	502.804	80.010	19.995	103.174	20.018	8.131	0.501
850.000	503.076	80.009	19.994	103.174	20.020	7.974	0.488
850.500	503.345	80.010	19.994	103.174	20.021	7.897	0.517
851.000	503.567	80.010	19.995	103.174	20.020	7.993	0.516
851.500	503.867	80.009	19.995	103.174	20.020	7.949	0.506
852.000	504.093	80.010	19.994	103.174	20.018	8.106	0.524
852.500	504.344	80.009	19.994	103.174	20.016	8.236	0.501
853.000	504.573	80.009	19.994	103.173	20.020	8.008	0.478
853.500	504.854	80.009	19.995	103.174	20.020	7.953	0.495
854.000	505.084	80.008	19.994	103.174	20.021	7.893	0.510
854.500	505.360	80.007	19.994	103.175	20.024	7.710	0.509
855.000	505.605	80.008	19.994	103.178	20.025	7.655	0.514
855.500	505.806	80.007	19.994	103.179	20.022	7.825	0.484
856.000	506.119	80.008	19.994	103.180	20.025	7.611	0.480
856.500	506.377	80.007	19.995	103.182	20.025	7.622	0.542
857.000	506.604	80.006	19.994	103.180	20.022	7.859	0.528
857.500	506.879	80.008	19.994	103.176	20.025	7.621	0.494
858.000	507.083	80.008	19.994	103.175	20.024	7.706	0.490
858.500	507.372	80.006	19.995	103.175	20.020	7.953	0.486
859.000	507.616	80.008	19.994	103.175	20.021	7.908	0.513
859.500	507.861	80.007	19.994	103.180	20.023	7.788	0.511
860.000	508.129	80.007	19.994	103.181	20.024	7.736	0.501
860.500	508.368	80.006	19.994	103.181	20.024	7.728	0.510
861.000	508.613	80.007	19.996	103.181	20.024	7.707	0.496
861.500	508.852	80.010	19.995	103.179	20.024	7.690	0.484
862.000	509.093	80.008	19.994	103.174	20.025	7.664	0.482
862.500	509.370	80.006	19.994	103.171	20.024	7.732	0.500
863.000	509.604	80.007	19.996	103.170	20.024	7.738	0.515
863.500	509.871	80.006	19.995	103.170	20.026	7.543	0.505
864.000	510.128	80.007	19.996	103.171	20.028	7.454	0.512
864.500	510.361	80.008	19.995	103.171	20.026	7.594	0.507
865.000	510.641	80.006	19.995	103.174	20.028	7.407	0.502
865.500	510.811	80.008	19.996	103.177	20.025	7.667	0.482
866.000	511.089	80.007	19.996	103.176	20.026	7.569	0.449
866.500	511.301	80.008	19.994	103.176	20.024	7.681	0.469
867.000	511.555	80.009	19.995	103.176	20.025	7.604	0.478
867.500	511.814	80.007	19.996	103.175	20.024	7.730	0.490
868.000	512.084	80.008	19.995	103.175	20.026	7.571	0.521
868.500	512.338	80.008	19.995	103.175	20.024	7.698	0.526
869.000	512.562	80.006	19.995	103.175	20.025	7.620	0.501
869.500	512.838	80.008	19.995	103.175	20.026	7.592	0.490
870.000	513.080	80.007	19.996	103.173	20.025	7.626	0.509
870.500	513.322	80.007	19.996	103.171	20.025	7.643	0.500
871.000	513.590	80.009	19.996	103.171	20.025	7.658	0.497
871.500	513.813	80.006	19.996	103.171	20.026	7.558	0.501
872.001	514.065	80.010	19.995	103.171	20.028	7.460	0.483
872.500	514.321	80.008	19.995	103.174	20.025	7.609	0.491
873.000	514.600	80.008	19.995	103.175	20.029	7.349	0.521
873.500	514.831	80.008	19.995	103.179	20.029	7.371	0.522
874.000	515.080	80.007	19.994	103.179	20.026	7.545	0.495
874.500	515.328	80.008	19.996	103.179	20.030	7.271	0.489
875.000	515.630	80.008	19.994	103.175	20.029	7.350	0.524
875.500	515.878	80.009	19.995	103.172	20.028	7.411	0.550
876.000	516.107	80.007	19.994	103.169	20.027	7.468	0.513
876.500	516.375	80.008	19.995	103.169	20.024	7.695	0.487
877.000	516.625	80.008	19.995	103.168	20.029	7.391	0.508
877.500	516.835	80.008	19.994	103.172	20.027	7.500	0.489
878.000	517.166	80.009	19.995	103.174	20.029	7.341	0.500
878.500	517.371	80.007	19.995	103.173	20.028	7.455	0.538
879.000	517.649	80.008	19.995	103.173	20.028	7.417	0.509
879.500	517.900	80.006	19.995	103.174	20.028	7.451	0.506
880.000	518.138	80.008	19.995	103.174	20.030	7.275	0.509
880.500	518.365	80.007	19.996	103.173	20.029	7.324	0.477
881.001	518.669	80.008	19.995	103.172	20.029	7.387	0.498
881.500	518.925	80.007	19.994	103.173	20.028	7.423	0.545
882.000	519.150	80.007	19.994	103.172	20.031	7.228	0.520
882.500	519.443	80.007	19.995	103.173	20.030	7.260	0.499
883.000	519.689	80.007	19.994	103.174	20.031	7.250	0.528
883.500	519.924	80.007	19.995	103.176	20.030	7.263	0.510
884.000	520.163	80.008	19.995	103.176	20.029	7.390	0.478
884.501	520.434	80.007	19.995	103.177	20.028	7.437	0.492
885.000	520.733	80.006	19.995	103.176	20.031	7.229	0.540
885.500	520.959	80.006	19.994	103.175	20.033	7.043	0.548
886.000	521.244	80.007	19.996	103.175	20.032	7.167	0.519
886.500	521.477	80.007	19.996	103.176	20.034	7.001	0.515
887.000	521.730	80.006	19.994	103.178	20.034	7.027	0.502
887.500	521.986	80.006	19.994	103.179	20.033	7.069	0.497
888.000	522.278	80.006	19.995	103.180	20.035	6.954	0.528
888.501	522.518	80.006	19.996	103.180	20.035	6.959	0.540
889.001	522.779	80.006	19.995	103.180	20.034	6.986	0.516
889.500	523.013	80.006	19.995	103.177	20.036	6.882	0.498
890.000	523.274	80.006	19.996	103.178	20.036	6.901	0.495
890.500	523.477	80.007	19.995	103.179	20.037	6.821	0.479
891.000	523.792	80.007	19.995	103.180	20.034	7.027	0.492
891.500	524.018	80.007	19.995	103.180	20.035	6.905	0.530
892.000	524.284	80.006	19.996	103.180	20.034	7.020	0.516
892.500	524.538	80.007	19.996	103.180	20.030	7.254	0.505
893.000	524.812	80.006	19.995	103.178	20.034	6.982	0.523
893.500	525.076	80.006	19.995	103.176	20.034	6.995	0.533
894.000	525.308	80.007	19.995	103.172	20.036	6.865	0.518
894.500	525.561	80.007	19.995	103.171	20.038	6.755	0.490
895.000	525.837	80.008	19.996	103.171	20.038	6.706	0.507
895.500	526.113	80.007	19.995	103.170	20.036	6.842	0.541
896.000	526.341	80.008	19.996	103.171	20.038	6.703	0.528
896.500	526.599	80.007	19.995	103.175	20.036	6.886	0.495
897.000	526.864	80.006	19.996	103.177	20.037	6.820	0.504
897.500	527.133	80.007	19.996	103.177	20.038	6.752	0.528
898.000	527.356	80.008	19.995	103.175	20.040	6.601	0.513
898.500	527.640	80.007	19.995	103.174	20.040	6.620	0.500
899.000	527.888	80.008	19.995	103.172	20.042	6.444	0.520
899.500	528.171	80.008	19.995	103.172	20.038	6.703	0.532
900.000	528.416	80.007	19.996	103.170	20.041	6.550	0.529
900.500	528.637	80.007	19.996	103.173	20.042	6.444	0.497
901.000	528.960	80.008	19.996	103.173	20.039	6.636	0.505
901.500	529.171	80.007	19.996	103.174	20.041	6.504	0.539
902.000	529.458	80.008	19.996	103.174	20.042	6.466	0.516
902.500	529.699	80.007	19.995	103.176	20.042	6.468	0.513
903.000	529.994	80.008	19.995	103.174	20.042	6.446	0.532
903.500	530.225	80.008	19.995	103.173	20.041	6.485	0.531
904.000	530.471	80.007	19.995	103.172	20.041	6.553	0.502
904.500	530.716	80.009	19.995	103.172	20.042	6.457	0.484
905.000	530.980	80.007	19.995	103.172	20.038	6.716	0.500
905.500	531.224	80.009	19.995	103.174	20.042	6.470	0.508
906.000	531.514	80.008	19.994	103.176	20.042	6.457	0.522
906.500	531.741	80.008	19.995	103.176	20.043	6.372	0.525
907.000	532.010	80.008	19.995	103.176	20.044	6.287	0.506
907.500	532.268	80.009	19.993	103.176	20.043	6.372	0.512
908.000	532.549	80.008	19.994	103.175	20.042	6.462	0.533
908.500	532.801	80.010	19.994	103.176	20.043	6.360	0.536
909.000	533.070	80.008	19.995	103.177	20.045	6.235	0.527
909.500	533.289	80.008	19.994	103.177	20.044	6.313	0.504
910.000	533.592	80.008	19.993	103.178	20.043	6.351	0.505
910.500	533.786	80.008	19.995	103.177	20.045	6.238	0.510
911.000	534.089	80.009	19.994	103.177	20.046	6.153	0.497
911.500	534.365	80.009	19.994	103.175	20.044	6.342	0.538
912.000	534.646	80.010	19.994	103.175	20.044	6.302	0.568
912.500	534.855	80.008	19.994	103.175	20.047	6.130	0.524
913.000	535.133	80.010	19.993	103.177	20.046	6.187	0.489
913.500	535.359	80.009	19.994	103.176	20.047	6.100	0.495
914.000	535.603	80.008	19.994	103.177	20.047	6.107	0.487
914.500	535.872	80.009	19.995	103.176	20.048	6.024	0.492
915.000	536.168	80.010	19.995	103.177	20.048	6.041	0.540
915.500	536.390	80.008	19.994	103.176	20.046	6.188	0.541
916.000	536.658	80.008	19.994	103.176	20.048	6.026	0.504
916.500	536.902	80.009	19.994	103.177	20.047	6.069	0.501
917.000	537.136	80.009	19.995	103.177	20.049	5.986	0.495
917.500	537.413	80.008	19.994	103.175	20.048	6.056	0.495
918.000	537.667	80.009	19.994	103.175	20.047	6.115	0.521
918.500	537.906	80.010	19.994	103.172	20.050	5.917	0.512
919.000	538.165	80.010	19.994	103.168	20.049	5.981	0.496
919.500	538.416	80.010	19.994	103.166	20.050	5.926	0.504
920.000	538.641	80.009	19.995	103.165	20.051	5.839	0.493
920.500	538.938	80.008	19.993	103.165	20.049	5.933	0.499
921.000	539.159	80.008	19.995	103.168	20.053	5.663	0.520
921.500	539.417	80.009	19.995	103.171	20.053	5.708	0.499
922.000	539.684	80.010	19.995	103.174	20.054	5.612	0.502
922.500	539.951	80.010	19.995	103.176	20.055	5.548	0.530
923.000	540.209	80.011	19.994	103.176	20.054	5.635	0.529
923.501	540.448	80.009	19.995	103.176	20.054	5.599	0.511
924.000	540.697	80.010	19.994	103.176	20.052	5.757	0.493
924.500	540.961	80.009	19.994	103.175	20.052	5.782	0.501
925.000	541.213	80.010	19.994	103.174	20.051	5.797	0.514
925.500	541.427	80.011	19.994	103.170	20.054	5.634	0.491
926.000	541.695	80.011	19.995	103.169	20.050	5.873	0.474
926.500	541.968	80.009	19.995	103.169	20.053	5.674	0.512
927.000	542.226	80.011	19.995	103.167	20.055	5.557	0.536
927.500	542.499	80.012	19.995	103.168	20.056	5.459	0.531
928.000	542.701	80.009	19.994	103.171	20.051	5.805	0.503
928.500	542.972	80.010	19.995	103.172	20.052	5.732	0.474
929.000	543.236	80.010	19.994	103.173	20.054	5.635	0.504
929.500	543.457	80.010	19.994	103.173	20.053	5.716	0.510
930.000	543.733	80.010	19.994	103.172	20.053	5.650	0.491
930.500	543.984	80.010	19.995	103.171	20.051	5.843	0.512
931.000	544.220	80.011	19.995	103.170	20.052	5.724	0.507
931.500	544.490	80.011	19.995	103.168	20.055	5.518	0.497
932.000	544.733	80.010	19.994	103.168	20.055	5.556	0.510
932.500	544.960	80.010	19.996	103.168	20.055	5.539	0.491
933.000	545.200	80.008	19.995	103.170	20.056	5.499	0.468
933.500	545.452	80.010	19.995	103.171	20.056	5.446	0.480
934.000	545.747	80.009	19.995	103.172	20.056	5.501	0.520
934.500	545.965	80.009	19.994	103.169	20.056	5.504	0.530
935.000	546.242	80.009	19.995	103.165	20.054	5.599	0.504
935.500	546.494	80.008	19.994	103.163	20.052	5.746	0.512
936.000	546.760	80.008	19.996	103.160	20.057	5.438	0.524
936.500	546.989	80.009	19.995	103.159	20.053	5.680	0.507
937.000	547.228	80.009	19.995	103.163	20.054	5.638	0.482
937.500	547.516	80.008	19.995	103.167	20.056	5.506	0.498
938.000	547.722	80.007	19.994	103.170	20.056	5.499	0.510
938.500	547.973	80.007	19.995	103.174	20.054	5.610	0.475
939.001	548.241	80.009	19.995	103.176	20.057	5.418	0.488
939.501	548.500	80.009	19.995	103.176	20.057	5.435	0.523
940.000	548.735	80.009	19.996	103.177	20.058	5.325	0.510
940.500	549.003	80.010	19.995	103.177	20.059	5.289	0.498
941.000	549.235	80.009	19.995	103.173	20.057	5.439	0.502
941.500	549.518	80.008	19.995	103.172	20.057	5.371	0.507
942.000	549.744	80.009	19.995	103.171	20.060	5.210	0.512
942.500	549.991	80.008	19.995	103.172	20.062	5.084	0.492
943.000	550.285	80.008	19.994	103.170	20.060	5.208	0.507
943.500	550.476	80.008	19.994	103.171	20.060	5.225	0.513
944.000	550.744	80.008	19.994	103.168	20.059	5.291	0.472
944.500	550.980	80.009	19.994	103.168	20.058	5.361	0.482
945.000	551.231	80.009	19.994	103.167	20.059	5.261	0.495
945.500	551.464	80.008	19.994	103.167	20.060	5.212	0.485
946.000	551.741	80.008	19.994	103.169	20.058	5.327	0.497
946.500	551.982	80.009	19.995	103.171	20.056	5.482	0.514
947.000	552.244	80.010	19.994	103.168	20.060	5.212	0.510
947.500	552.530	80.008	19.994	103.167	20.062	5.086	0.525
948.000	552.757	80.009	19.995	103.166	20.060	5.174	0.530
948.501	552.987	80.009	19.994	103.166	20.061	5.097	0.485
949.000	553.223	80.008	19.995	103.168	20.060	5.197	0.462
949.500	553.481	80.008	19.994	103.171	20.061	5.153	0.480
950.000	553.736	80.008	19.993	103.174	20.060	5.177	0.504
950.500	554.023	80.008	19.994	103.176	20.061	5.141	0.528
951.000	554.245	80.009	19.994	103.174	20.066	4.752	0.526
951.500	554.538	80.008	19.995	103.173	20.061	5.111	0.512
952.000	554.757	80.009	19.995	103.173	20.064	4.885	0.513
952.500	555.047	80.008	19.994	103.173	20.062	5.078	0.510
953.000	555.308	80.009	19.995	103.173	20.063	5.016	0.530
953.500	555.545	80.009	19.994	103.176	20.062	5.078	0.525
954.000	555.834	80.008	19.995	103.176	20.063	5.015	0.512
954.500	556.065	80.008	19.994	103.176	20.064	4.938	0.523
955.000	556.367	80.008	19.994	103.174	20.064	4.915	0.526
955.500	556.609	80.008	19.994	103.174	20.063	5.021	0.538
956.000	556.870	80.009	19.995	103.175	20.063	5.017	0.524
956.500	557.101	80.008	19.993	103.177	20.061	5.105	0.498
957.000	557.366	80.007	19.993	103.178	20.063	4.999	0.494
957.500	557.632	80.008	19.994	103.180	20.062	5.067	0.513
958.000	557.902	80.007	19.995	103.180	20.062	5.088	0.534
958.500	558.148	80.008	19.995	103.179	20.060	5.216	0.526
959.000	558.429	80.007	19.995	103.177	20.063	4.995	0.521
959.500	558.656	80.007	19.994	103.176	20.062	5.029	0.517
960.000	558.934	80.007	19.994	103.174	20.063	5.006	0.507
960.500	559.219	80.008	19.994	103.168	20.061	5.101	0.534
961.000	559.448	80.008	19.995	103.165	20.062	5.053	0.539
961.500	559.688	80.008	19.995	103.162	20.059	5.267	0.492
962.000	559.940	80.007	19.996	103.163	20.063	5.006	0.481
962.500	560.212	80.007	19.995	103.165	20.061	5.099	0.508
963.000	560.485	80.008	19.995	103.171	20.065	4.881	0.534
963.500	560.750	80.007	19.994	103.176	20.063	4.957	0.541
964.000	561.012	80.006	19.996	103.180	20.061	5.130	0.532
964.500	561.296	80.007	19.994	103.178	20.061	5.123	0.537
965.000	561.586	80.007	19.995	103.174	20.064	4.906	0.560
965.500	561.835	80.008	19.995	103.168	20.062	5.059	0.556
966.000	562.123	80.006	19.995	103.167	20.065	4.872	0.538
966.500	562.327	80.006	19.994	103.168	20.063	5.004	0.515
967.000	562.585	80.007	19.995	103.170	20.061	5.154	0.478
967.500	562.896	80.007	19.995	103.179	20.060	5.167	0.515
968.000	563.163	80.007	19.996	103.185	20.063	4.991	0.573
968.500	563.384	80.006	19.996	103.185	20.063	5.003	0.533
969.000	563.662	80.007	19.995	103.183	20.063	4.980	0.493
969.500	563.923	80.006	19.995	103.181	20.061	5.133	0.519
970.000	564.173	80.005	19.995	103.176	20.064	4.929	0.525
970.500	564.444	80.006	19.995	103.173	20.064	4.923	0.516
971.000	564.713	80.006	19.995	103.173	20.064	4.919	0.531
971.500	564.964	80.006	19.994	103.174	20.065	4.858	0.530
972.000	565.217	80.006	19.994	103.176	20.064	4.937	0.512
972.500	565.468	80.005	19.995	103.177	20.062	5.024	0.504
973.000	565.757	80.007	19.996	103.179	20.066	4.795	0.522
973.500	566.026	80.007	19.995	103.180	20.063	4.982	0.549
974.000	566.274	80.007	19.995	103.176	20.063	4.985	0.537
974.500	566.555	80.007	19.995	103.169	20.062	5.022	0.523
975.000	566.859	80.007	19.995	103.167	20.062	5.064	0.557
975.500	567.081	80.007	19.995	103.167	20.064	4.923	0.556
976.000	567.359	80.007	19.995	103.167	20.061	5.155	0.513
976.500	567.611	80.007	19.995	103.170	20.065	4.849	0.515
977.000	567.883	80.007	19.995	103.176	20.062	5.030	0.527
977.500	568.126	80.007	19.995	103.178	20.062	5.032	0.519
978.000	568.387	80.007	19.995	103.178	20.062	5.060	0.510
978.500	568.674	80.008	19.995	103.178	20.061	5.143	0.526
979.000	568.927	80.008	19.996	103.180	20.059	5.268	0.544
979.500	569.225	80.007	19.994	103.181	20.063	4.988	0.546
980.000	569.441	80.008	19.995	103.181	20.063	5.016	0.533
980.500	569.756	80.008	19.994	103.178	20.060	5.218	0.522
981.000	569.988	80.009	19.994	103.173	20.064	4.912	0.539
981.500	570.242	80.009	19.995	103.171	20.063	4.979	0.517
982.000	570.520	80.008	19.995	103.166	20.064	4.948	0.509
982.500	570.775	80.009	19.996	103.162	20.064	4.937	0.532
983.000	571.073	80.009	19.995	103.159	20.062	5.089	0.543
983.500	571.345	80.008	19.995	103.156	20.063	4.956	0.562
984.000	571.604	80.007	19.995	103.152	20.059	5.242	0.551
984.500	571.870	80.011	19.996	103.156	20.063	5.007	0.528
985.000	572.102	80.010	19.995	103.160	20.064	4.911	0.512
985.500	572.369	80.010	19.995	103.161	20.064	4.907	0.499
986.000	572.652	80.010	19.995	103.166	20.066	4.758	0.524
986.500	572.953	80.009	19.996	103.165	20.061	5.136	0.567
987.000	573.212	80.010	19.995	103.163	20.062	5.047	0.572
987.500	573.462	80.010	19.995	103.161	20.062	5.079	0.534
988.000	573.748	80.008	19.996	103.162	20.062	5.023	0.523
988.500	573.995	80.009	19.996	103.163	20.063	5.000	0.535
989.000	574.242	80.009	19.996	103.167	20.066	4.757	0.513
989.500	574.523	80.010	19.995	103.162	20.064	4.929	0.511
990.000	574.810	80.009	19.996	103.161	20.062	5.023	0.547
990.500	575.078	80.009	19.995	103.159	20.068	4.607	0.561
991.000	575.316	80.010	19.995	103.155	20.067	4.690	0.531
991.500	575.596	80.009	19.996	103.149	20.066	4.760	0.513
992.000	575.851	80.008	19.995	103.153	20.068	4.665	0.527
992.500	576.098	80.007	19.995	103.153	20.067	4.724	0.518
993.000	576.382	80.008	19.996	103.156	20.066	4.792	0.517
993.500	576.649	80.008	19.995	103.159	20.063	4.973	0.541
994.000	576.919	80.007	19.996	103.161	20.068	4.603	0.544
994.500	577.169	80.008	19.996	103.161	20.066	4.745	0.529
995.000	577.469	80.009	19.995	103.163	20.070	4.503	0.535
995.500	577.723	80.008	19.997	103.163	20.073	4.305	0.552
996.001	577.981	80.008	19.995	103.162	20.067	4.675	0.533
996.500	578.259	80.008	19.996	103.159	20.069	4.552	0.523
997.000	578.496	80.008	19.997	103.161	20.069	4.543	0.525
997.500	578.764	80.008	19.996	103.159	20.070	4.507	0.510
998.000	579.023	80.007	19.996	103.158	20.069	4.561	0.516
998.500	579.274	80.008	19.996	103.162	20.071	4.438	0.518
999.000	579.524	80.008	19.995	103.170	20.069	4.565	0.506
999.500	579.823	80.008	19.996	103.172	20.070	4.506	0.525
1000.000	580.075	80.008	19.996	103.173	20.071	4.408	0.550
1000.500	580.321	80.008	19.996	103.172	20.070	4.492	0.524
1001.000	580.589	80.008	19.995	103.172	20.071	4.399	0.506
1001.501	580.822	80.009	19.995	103.171	20.067	4.677	0.508
1002.000	581.073	80.007	19.995	103.166	20.066	4.747	0.493
1002.500	581.341	80.008	19.995	103.165	20.068	4.620	0.502
1003.000	581.606	80.009	19.996	103.161	20.068	4.635	0.526
1003.500	581.871	80.010	19.995	103.156	20.068	4.648	0.531
1004.000	582.121	80.008	19.995	103.155	20.067	4.675	0.522
1004.500	582.421	80.010	19.995	103.159	20.065	4.865	0.533
1005.000	582.650	80.009	19.995	103.159	20.068	4.650	0.540
1005.500	582.938	80.010	19.994	103.159	20.070	4.469	0.523
1006.000	583.156	80.010	19.994	103.164	20.071	4.422	0.511
1006.500	583.413	80.010	19.994	103.166	20.069	4.562	0.490
1007.000	583.674	80.009	19.994	103.167	20.072	4.368	0.497
1007.500	583.903	80.011	19.994	103.168	20.071	4.398	0.504
1008.000	584.190	80.011	19.994	103.170	20.073	4.318	0.503
1008.500	584.436	80.010	19.994	103.164	20.070	4.530	0.524
1009.000	584.723	80.011	19.994	103.156	20.070	4.469	0.533
1009.500	584.980	80.009	19.995	103.149	20.069	4.582	0.539
1010.000	585.223	80.009	19.995	103.147	20.070	4.493	0.522
1010.500	585.459	80.010	19.994	103.149	20.074	4.227	0.489
1011.000	585.714	80.010	19.995	103.155	20.067	4.698	0.485
1011.500	585.955	80.010	19.994	103.160	20.070	4.469	0.494
1012.000	586.238	80.011	19.994	103.164	20.074	4.218	0.510
1012.500	586.472	80.011	19.995	103.161	20.075	4.131	0.520
1013.000	586.767	80.010	19.995	103.159	20.073	4.322	0.523
1013.500	587.019	80.011	19.995	103.158	20.073	4.312	0.538
1014.000	587.261	80.010	19.995	103.157	20.074	4.229	0.521
1014.500	587.458	80.009	19.996	103.153	20.075	4.178	0.467
1015.000	587.730	80.011	19.995	103.155	20.074	4.218	0.454
1015.501	587.965	80.009	19.995	103.153	20.074	4.248	0.487
1016.000	588.228	80.010	19.994	103.154	20.074	4.190	0.502
1016.500	588.458	80.007	19.993	103.158	20.076	4.062	0.496
1017.000	588.705	80.009	19.995	103.164	20.074	4.239	0.485
1017.500	588.980	80.010	19.995	103.170	20.075	4.184	0.500
1018.000	589.244	80.010	19.995	103.174	20.074	4.201	0.531
1018.500	589.482	80.008	19.996	103.174	20.075	4.124	0.521
1019.000	589.717	80.009	19.995	103.170	20.076	4.056	0.487
1019.500	589.997	80.008	19.995	103.163	20.072	4.362	0.494
1020.000	590.240	80.008	19.995	103.157	20.075	4.169	0.519
1020.500	590.481	80.008	19.995	103.151	20.073	4.290	0.504
1021.000	590.759	80.008	19.996	103.150	20.075	4.154	0.502
1021.500	591.001	80.008	19.996	103.154	20.074	4.251	0.519
1022.000	591.246	80.008	19.995	103.162	20.074	4.209	0.504
1022.500	591.488	80.007	19.994	103.168	20.074	4.215	0.487
1023.000	591.760	80.007	19.995	103.173	20.072	4.334	0.500
1023.500	591.998	80.007	19.995	103.171	20.074	4.239	0.512
1024.000	592.231	80.008	19.995	103.168	20.074	4.203	0.490
1024.500	592.483	80.008	19.995	103.164	20.077	3.992	0.478
1025.000	592.738	80.008	19.995	103.163	20.075	4.141	0.496
1025.500	592.984	80.007	19.995	103.164	20.076	4.092	0.504
1026.000	593.241	80.007	19.997	103.167	20.075	4.184	0.502
1026.500	593.509	80.007	19.995	103.170	20.076	4.101	0.514
1027.000	593.777	80.007	19.993	103.174	20.077	3.997	0.530
1027.500	594.017	80.007	19.995	103.175	20.076	4.092	0.522
1028.000	594.267	80.008	19.995	103.175	20.075	4.171	0.499
1028.500	594.479	80.008	19.994	103.168	20.076	4.084	0.476
1029.000	594.816	80.008	19.995	103.168	20.073	4.277	0.505
1029.500	595.033	80.009	19.995	103.167	20.073	4.292	0.552
1030.000	595.288	80.007	19.995	103.166	20.074	4.230	0.513
1030.500	595.565	80.007	19.994	103.166	20.075	4.182	0.502
1031.000	595.791	80.006	19.995	103.173	20.076	4.076	0.517
1031.500	596.043	80.008	19.996	103.175	20.078	3.971	0.490
1032.000	596.320	80.008	19.996	103.176	20.078	3.948	0.503
1032.500	596.565	80.009	19.995	103.178	20.076	4.084	0.525
1033.000	596.803	80.007	19.995	103.177	20.076	4.065	0.503
1033.500	597.065	80.008	19.994	103.176	20.078	3.956	0.492
1034.001	597.327	80.007	19.994	103.175	20.076	4.075	0.512
1034.501	597.537	80.006	19.994	103.173	20.079	3.897	0.498
1035.000	597.834	80.007	19.994	103.173	20.076	4.103	0.490
1035.500	598.044	80.007	19.994	103.172	20.076	4.067	0.507
1036.000	598.281	80.008	19.995	103.172	20.075	4.145	0.477
1036.501	598.543	80.007	19.995	103.171	20.077	4.007	0.473
1037.001	598.811	80.008	19.994	103.173	20.077	4.007	0.515
1037.500	599.024	80.007	19.993	103.173	20.079	3.897	0.505
1038.000	599.294	80.006	19.995	103.176	20.079	3.867	0.482
1038.501	599.539	80.008	19.994	103.176	20.081	3.754	0.499
1039.001	599.770	80.008	19.995	103.178	20.077	4.040	0.496
1039.500	600.027	80.007	19.994	103.178	20.078	3.950	0.482
1040.000	600.306	80.007	19.994	103.178	20.079	3.850	0.512
1040.500	600.556	80.006	19.994	103.176	20.081	3.738	0.533
1041.000	600.809	80.007	19.994	103.175	20.081	3.742	0.516
1041.500	601.031	80.008	19.994	103.171	20.079	3.844	0.489
1042.000	601.292	80.008	19.993	103.169	20.082	3.655	0.479
1042.500	601.514	80.008	19.995	103.170	20.080	3.806	0.483
1043.000	601.760	80.008	19.995	103.171	20.081	3.715	0.475
1043.500	601.993	80.007	19.994	103.168	20.082	3.645	0.473
1044.000	602.239	80.008	19.994	103.171	20.078	3.910	0.479
1044.500	602.534	80.008	19.994	103.171	20.080	3.818	0.510
1045.000	602.753	80.008	19.994	103.171	20.078	3.961	0.528
1045.500	602.999	80.008	19.994	103.171	20.080	3.771	0.490
1046.000	603.248	80.007	19.994	103.174	20.078	3.937	0.480
1046.500	603.511	80.009	19.994	103.176	20.080	3.822	0.504
1047.000	603.761	80.009	19.994	103.178	20.076	4.050	0.513
1047.500	603.973	80.008	19.994	103.178	20.076	4.061	0.488
1048.000	604.282	80.008	19.995	103.180	20.079	3.889	0.492
1048.500	604.486	80.009	19.994	103.177	20.082	3.685	0.517
1049.000	604.731	80.009	19.995	103.174	20.079	3.878	0.481
1049.500	604.994	80.008	19.995	103.173	20.079	3.895	0.478
1050.000	605.261	80.008	19.995	103.168	20.079	3.852	0.519
1050.500	605.489	80.009	19.995	103.166	20.079	3.901	0.512
1051.000	605.740	80.009	19.994	103.166	20.081	3.766	0.487
1051.500	605.993	80.009	19.994	103.167	20.080	3.798	0.492
1052.000	606.271	80.008	19.995	103.167	20.081	3.753	0.517
1052.500	606.487	80.009	19.995	103.167	20.078	3.966	0.513
1053.000	606.701	80.008	19.996	103.163	20.078	3.959	0.462
1053.500	606.962	80.008	19.996	103.160	20.080	3.816	0.452
1054.000	607.261	80.008	19.995	103.159	20.078	3.918	0.517
1054.500	607.512	80.008	19.995	103.160	20.081	3.712	0.555
1055.000	607.760	80.007	19.995	103.163	20.081	3.718	0.525
1055.500	608.020	80.008	19.995	103.167	20.081	3.725	0.503
1056.000	608.292	80.006	19.995	103.170	20.080	3.821	0.520
1056.500	608.517	80.007	19.996	103.172	20.082	3.687	0.515
1057.000	608.781	80.008	19.995	103.172	20.082	3.666	0.493
1057.500	609.039	80.007	19.995	103.173	20.081	3.733	0.506
1058.000	609.295	80.007	19.995	103.173	20.083	3.598	0.518
1058.500	609.542	80.007	19.996	103.172	20.080	3.806	0.508
1059.000	609.745	80.007	19.995	103.168	20.080	3.833	0.476
1059.501	610.006	80.008	19.995	103.167	20.084	3.536	0.457
1060.001	610.244	80.008	19.995	103.167	20.081	3.702	0.482
1060.501	610.521	80.007	19.996	103.168	20.081	3.706	0.507
1061.001	610.743	80.008	19.995	103.167	20.079	3.891	0.507
1061.500	611.016	80.008	19.995	103.167	20.081	3.710	0.497
1062.000	611.310	80.010	19.996	103.161	20.084	3.519	0.531
1062.500	611.553	80.008	19.995	103.156	20.080	3.774	0.552
1063.001	611.795	80.009	19.995	103.154	20.082	3.678	0.511
1063.501	612.021	80.008	19.995	103.157	20.083	3.575	0.476
1064.001	612.345	80.009	19.996	103.163	20.079	3.845	0.509
1064.501	612.557	80.009	19.995	103.169	20.081	3.708	0.543
1065.001	612.790	80.009	19.995	103.174	20.080	3.821	0.491
1065.501	613.062	80.008	19.995	103.173	20.080	3.791	0.475
1066.000	613.340	80.009	19.995	103.172	20.080	3.818	0.528
1066.500	613.552	80.009	19.994	103.172	20.080	3.780	0.520
1067.000	613.823	80.010	19.994	103.171	20.083	3.604	0.486
1067.500	614.075	80.010	19.995	103.168	20.079	3.882	0.503
1068.000	614.340	80.009	19.995	103.167	20.078	3.921	0.520
1068.500	614.609	80.010	19.995	103.166	20.081	3.736	0.526
1069.000	614.832	80.009	19.995	103.166	20.081	3.706	0.514
1069.501	615.107	80.009	19.995	103.166	20.082	3.668	0.495
1070.001	615.362	80.012	19.995	103.167	20.080	3.833	0.514
1070.500	615.612	80.010	19.995	103.169	20.080	3.827	0.518
1071.000	615.904	80.010	19.995	103.171	20.080	3.801	0.523
1071.500	616.135	80.009	19.994	103.168	20.080	3.808	0.532
1072.000	616.395	80.010	19.995	103.169	20.078	3.916	0.507
1072.500	616.621	80.010	19.995	103.171	20.079	3.885	0.489
1073.000	616.886	80.009	19.994	103.170	20.079	3.867	0.489
1073.500	617.146	80.011	19.994	103.166	20.079	3.869	0.508
1074.000	617.379	80.010	19.994	103.163	20.083	3.591	0.509
1074.500	617.653	80.010	19.994	103.158	20.082	3.657	0.500
1075.000	617.898	80.009	19.995	103.154	20.081	3.733	0.513
1075.500	618.152	80.010	19.994	103.154	20.080	3.791	0.509
1076.000	618.427	80.010	19.995	103.158	20.084	3.542	0.514
1076.500	618.664	80.009	19.994	103.164	20.082	3.674	0.521
1077.000	618.933	80.009	19.996	103.169	20.082	3.640	0.510
1077.500	619.179	80.009	19.995	103.173	20.085	3.478	0.511
1078.001	619.419	80.009	19.996	103.171	20.081	3.757	0.500
1078.501	619.698	80.009	19.995	103.166	20.083	3.574	0.502
1079.001	619.975	80.009	19.996	103.161	20.081	3.757	0.538
1079.501	620.200	80.009	19.995	103.159	20.081	3.734	0.529
1080.000	620.456	80.009	19.995	103.156	20.082	3.647	0.491
1080.500	620.708	80.009	19.996	103.158	20.080	3.825	0.494
1081.000	620.918	80.009	19.995	103.164	20.081	3.698	0.485
1081.500	621.198	80.008	19.996	103.168	20.081	3.713	0.476
1082.000	621.455	80.010	19.996	103.170	20.081	3.749	0.514
1082.501	621.765	80.009	19.995	103.170	20.083	3.570	0.553
1083.001	622.009	80.009	19.995	103.167	20.083	3.581	0.561
1083.501	622.276	80.009	19.995	103.165	20.082	3.661	0.532
1084.001	622.478	80.009	19.994	103.164	20.084	3.517	0.490
1084.500	622.772	80.008	19.996	103.166	20.084	3.556	0.482
1085.000	623.018	80.010	19.995	103.169	20.082	3.638	0.518
1085.500	623.284	80.007	19.995	103.173	20.081	3.706	0.527
1086.001	623.563	80.009	19.995	103.176	20.086	3.411	0.529
1086.501	623.790	80.008	19.995	103.176	20.084	3.507	0.525
1087.000	624.069	80.009	19.995	103.174	20.086	3.360	0.506
1087.500	624.318	80.010	19.995	103.172	20.088	3.273	0.517
1088.000	624.610	80.009	19.996	103.172	20.087	3.324	0.534
1088.500	624.834	80.009	19.994	103.171	20.084	3.545	0.529
1089.000	625.108	80.010	19.995	103.172	20.084	3.500	0.507
1089.500	625.403	80.010	19.995	103.174	20.084	3.553	0.533
1090.000	625.614	80.008	19.995	103.171	20.084	3.515	0.538
1090.500	625.883	80.008	19.995	103.165	20.084	3.544	0.493
1091.000	626.120	80.010	19.996	103.159	20.085	3.426	0.493
1091.500	626.404	80.009	19.995	103.156	20.083	3.600	0.514
1092.000	626.669	80.010	19.995	103.154	20.088	3.224	0.536
1092.500	626.934	80.010	19.996	103.154	20.083	3.578	0.540
1093.000	627.170	80.010	19.995	103.158	20.087	3.336	0.515
1093.500	627.441	80.012	19.996	103.164	20.088	3.262	0.504
1094.000	627.719	80.012	19.995	103.166	20.087	3.327	0.527
1094.500	627.968	80.010	19.995	103.161	20.087	3.291	0.538
1095.000	628.222	80.010	19.995	103.159	20.083	3.572	0.515
1095.501	628.479	80.011	19.996	103.155	20.088	3.266	0.507
1096.001	628.712	80.011	19.995	103.153	20.088	3.240	0.501
1096.501	628.995	80.010	19.995	103.152	20.087	3.291	0.503
1097.001	629.241	80.010	19.995	103.157	20.085	3.445	0.522
1097.500	629.502	80.010	19.995	103.155	20.084	3.536	0.518
1098.000	629.751	80.010	19.995	103.155	20.085	3.428	0.508
1098.500	630.022	80.010	19.996	103.149	20.085	3.474	0.515
1099.000	630.275	80.008	19.995	103.145	20.088	3.266	0.523
1099.501	630.508	80.010	19.993	103.142	20.087	3.298	0.505
1100.001	630.766	80.010	19.994	103.148	20.088	3.219	0.488
1100.501	631.054	80.009	19.993	103.154	20.087	3.325	0.519
1101.001	631.287	80.009	19.994	103.161	20.085	3.447	0.533
1101.500	631.582	80.009	19.995	103.164	20.087	3.334	0.524
1102.000	631.859	80.010	19.994	103.165	20.088	3.236	0.550
1102.500	632.103	80.009	19.995	103.165	20.085	3.483	0.547
1103.000	632.354	80.008	19.994	103.167	20.089	3.194	0.509
1103.500	632.635	80.007	19.995	103.166	20.084	3.493	0.514
1104.000	632.842	80.008	19.994	103.169	20.087	3.325	0.510
1104.500	633.085	80.007	19.994	103.171	20.084	3.508	0.469
1105.000	633.357	80.007	19.995	103.170	20.084	3.542	0.482
1105.500	633.623	80.007	19.994	103.172	20.084	3.542	0.526
1106.000	633.889	80.007	19.994	103.172	20.084	3.506	0.535
1106.500	634.169	80.007	19.994	103.173	20.086	3.383	0.540
1107.000	634.412	80.007	19.994	103.169	20.087	3.343	0.534
1107.500	634.686	80.007	19.994	103.168	20.083	3.565	0.520
1108.000	634.945	80.009	19.994	103.166	20.083	3.561	0.525
1108.500	635.228	80.006	19.994	103.166	20.083	3.568	0.538
1109.000	635.489	80.007	19.995	103.169	20.087	3.310	0.543
1109.500	635.747	80.008	19.995	103.173	20.085	3.449	0.531
1110.001	636.045	80.009	19.995	103.177	20.086	3.376	0.537
1110.501	636.285	80.007	19.994	103.178	20.087	3.313	0.547
1111.000	636.508	80.007	19.994	103.172	20.086	3.408	0.501
1111.500	636.819	80.007	19.994	103.170	20.086	3.409	0.499
1112.000	637.017	80.007	19.994	103.169	20.088	3.264	0.522
1112.500	637.268	80.007	19.995	103.169	20.086	3.379	0.479
1113.000	637.521	80.008	19.996	103.170	20.087	3.285	0.476
1113.500	637.784	80.008	19.995	103.173	20.085	3.451	0.510
1114.000	638.061	80.009	19.994	103.174	20.088	3.262	0.529
1114.500	638.291	80.008	19.995	103.175	20.088	3.261	0.523
1115.000	638.578	80.010	19.995	103.175	20.090	3.108	0.511
1115.500	638.844	80.010	19.995	103.173	20.088	3.215	0.535
1116.000	639.066	80.008	19.995	103.169	20.088	3.245	0.521
1116.500	639.345	80.009	19.995	103.167	20.087	3.285	0.494
1117.000	639.606	80.009	19.995	103.167	20.088	3.255	0.520
1117.500	639.843	80.009	19.995	103.167	20.089	3.143	0.519
1118.000	640.087	80.011	19.995	103.168	20.087	3.334	0.490
1118.500	640.315	80.009	19.994	103.173	20.087	3.317	0.477
1119.000	640.594	80.008	19.994	103.173	20.087	3.347	0.489
1119.500	640.838	80.009	19.994	103.173	20.087	3.323	0.515
1120.000	641.061	80.009	19.995	103.173	20.091	3.060	0.495
1120.500	641.317	80.008	19.995	103.172	20.091	3.066	0.473
1121.000	641.576	80.008	19.995	103.171	20.087	3.332	0.497
1121.500	641.859	80.008	19.994	103.170	20.090	3.130	0.528
1122.000	642.063	80.009	19.995	103.168	20.088	3.213	0.515
1122.500	642.323	80.008	19.994	103.164	20.089	3.172	0.476
1123.000	642.620	80.007	19.996	103.161	20.089	3.172	0.510
1123.500	642.874	80.010	19.995	103.162	20.092	2.977	0.554
1124.000	643.122	80.009	19.995	103.165	20.092	2.996	0.526
1124.500	643.327	80.009	19.995	103.166	20.091	3.036	0.477
1125.000	643.622	80.008	19.995	103.171	20.090	3.072	0.477
1125.500	643.834	80.010	19.995	103.174	20.089	3.149	0.504
1126.001	644.085	80.008	19.995	103.174	20.088	3.240	0.486
1126.501	644.353	80.009	19.994	103.174	20.091	3.040	0.491
1127.000	644.561	80.008	19.995	103.173	20.088	3.232	0.497
1127.500	644.851	80.008	19.995	103.173	20.090	3.100	0.487
1128.000	645.108	80.009	19.994	103.173	20.088	3.255	0.522
1128.500	645.355	80.008	19.994	103.174	20.089	3.187	0.525
1129.000	645.585	80.009	19.994	103.175	20.090	3.125	0.491
1129.500	645.867	80.008	19.994	103.176	20.090	3.117	0.495
1130.000	646.096	80.008	19.994	103.175	20.088	3.230	0.511
1130.500	646.343	80.008	19.994	103.175	20.088	3.275	0.494
1131.000	646.582	80.009	19.994	103.175	20.091	3.065	0.481
1131.500	646.879	80.009	19.995	103.173	20.090	3.133	0.511
1132.000	647.133	80.008	19.995	103.173	20.091	3.028	0.543
1132.501	647.381	80.008	19.994	103.173	20.091	3.062	0.526
1133.001	647.632	80.008	19.995	103.173	20.087	3.296	0.500
1133.500	647.868	80.010	19.995	103.174	20.089	3.143	0.493
1134.000	648.131	80.008	19.995	103.175	20.090	3.129	0.493
1134.500	648.379	80.008	19.994	103.175	20.087	3.299	0.505
1135.000	648.631	80.009	19.994	103.175	20.089	3.152	0.506
1135.500	648.886	80.008	19.994	103.176	20.089	3.152	0.504
1136.000	649.107	80.008	19.995	103.176	20.088	3.211	0.491
1136.500	649.379	80.008	19.993	103.177	20.087	3.319	0.484
1137.000	649.615	80.008	19.995	103.177	20.091	3.067	0.501
1137.500	649.901	80.007	19.995	103.177	20.086	3.384	0.515
1138.001	650.151	80.007	19.995	103.176	20.090	3.090	0.529
1138.501	650.400	80.008	19.995	103.175	20.089	3.148	0.518
1139.001	650.653	80.009	19.994	103.175	20.087	3.290	0.501
1139.501	650.878	80.009	19.994	103.174	20.091	3.039	0.490
1140.000	651.140	80.008	19.995	103.174	20.088	3.216	0.482
1140.500	651.393	80.009	19.995	103.171	20.088	3.212	0.501
1141.001	651.625	80.008	19.995	103.164	20.090	3.110	0.500
1141.501	651.867	80.009	19.994	103.157	20.089	3.152	0.479
1142.001	652.095	80.008	19.995	103.153	20.090	3.107	0.472
1142.501	652.362	80.009	19.994	103.153	20.091	3.067	0.483
1143.001	652.620	80.010	19.994	103.156	20.090	3.073	0.510
1143.500	652.828	80.009	19.995	103.156	20.089	3.171	0.495
1144.000	653.088	80.009	19.995	103.156	20.091	3.001	0.467
1144.500	653.326	80.010	19.995	103.154	20.094	2.811	0.483
1145.000	653.578	80.009	19.994	103.149	20.092	2.992	0.494
1145.501	653.869	80.010	19.995	103.148	20.092	2.937	0.516
1146.001	654.093	80.008	19.994	103.152	20.093	2.899	0.529
1146.500	654.341	80.009	19.995	103.157	20.090	3.099	0.493
1147.000	654.597	80.009	19.996	103.161	20.092	2.991	0.488
1147.500	654.857	80.009	19.994	103.159	20.092	2.986	0.510
1148.001	655.092	80.009	19.995	103.154	20.093	2.865	0.505
1148.501	655.319	80.010	19.995	103.150	20.090	3.088	0.479
1149.000	655.545	80.010	19.994	103.144	20.092	2.960	0.457
1149.500	655.817	80.009	19.995	103.141	20.090	3.135	0.475
1150.000	656.095	80.009	19.995	103.140	20.090	3.100	0.524
1150.500	656.315	80.011	19.994	103.143	20.090	3.079	0.524
1151.000	656.541	80.009	19.994	103.144	20.090	3.088	0.472
1151.500	656.770	80.010	19.995	103.145	20.091	3.037	0.451
1152.000	657.013	80.011	19.994	103.147	20.091	3.012	0.464
1152.500	657.232	80.009	19.996	103.152	20.089	3.167	0.467
1153.000	657.495	80.010	19.994	103.150	20.092	2.971	0.472
1153.500	657.759	80.010	19.994	103.155	20.092	2.957	0.504
1154.000	657.984	80.010	19.995	103.161	20.089	3.169	0.508
1154.500	658.220	80.010	19.995	103.162	20.092	2.935	0.475
1155.000	658.483	80.010	19.995	103.162	20.091	3.065	0.480
1155.501	658.762	80.009	19.995	103.166	20.091	3.003	0.521
1156.001	658.995	80.009	19.995	103.160	20.092	2.937	0.527
1156.500	659.201	80.008	19.995	103.154	20.090	3.129	0.475
1157.000	659.486	80.009	19.995	103.149	20.093	2.886	0.465
1157.500	659.718	80.010	19.995	103.145	20.094	2.822	0.504
1158.000	659.931	80.010	19.995	103.141	20.097	2.597	0.481
1158.500	660.221	80.010	19.995	103.143	20.093	2.909	0.474
1159.000	660.477	80.010	19.996	103.147	20.093	2.899	0.525
1159.500	660.705	80.009	19.995	103.154	20.093	2.883	0.515
1160.000	660.951	80.009	19.994	103.157	20.090	3.115	0.478
1160.500	661.201	80.008	19.995	103.161	20.093	2.907	0.485
1161.000	661.463	80.009	19.995	103.161	20.092	2.956	0.504
1161.500	661.690	80.009	19.996	103.157	20.092	2.966	0.501
1162.000	661.948	80.008	19.995	103.152	20.093	2.911	0.487
1162.500	662.192	80.009	19.995	103.147	20.092	2.998	0.493
1163.000	662.430	80.008	19.994	103.142	20.092	2.994	0.492
1163.500	662.649	80.009	19.994	103.141	20.090	3.071	0.470
1164.001	662.921	80.009	19.996	103.140	20.092	2.971	0.474
1164.501	663.192	80.009	19.995	103.140	20.090	3.105	0.516
1165.001	663.445	80.008	19.994	103.143	20.088	3.256	0.534
1165.500	663.706	80.009	19.995	103.149	20.091	3.007	0.519
1166.000	663.949	80.008	19.995	103.151	20.089	3.168	0.509
1166.500	664.178	80.009	19.994	103.150	20.093	2.879	0.488
1167.001	664.435	80.009	19.994	103.149	20.092	2.973	0.479
1167.501	664.707	80.008	19.994	103.149	20.092	2.992	0.508
1168.000	664.955	80.008	19.995	103.143	20.094	2.805	0.524
1168.500	665.182	80.009	19.994	103.147	20.092	2.941	0.497
1169.000	665.503	80.010	19.995	103.153	20.094	2.843	0.512
1169.500	665.699	80.011	19.994	103.159	20.094	2.807	0.533
1170.000	665.939	80.009	19.995	103.161	20.094	2.797	0.476
1170.500	666.227	80.009	19.994	103.167	20.095	2.727	0.482
1171.000	666.507	80.009	19.994	103.170	20.094	2.803	0.548
1171.500	666.767	80.009	19.995	103.171	20.098	2.540	0.554
1172.000	667.006	80.010	19.994	103.168	20.092	2.950	0.519
1172.500	667.260	80.009	19.994	103.171	20.095	2.786	0.496
1173.000	667.524	80.009	19.994	103.170	20.096	2.680	0.506
1173.500	667.747	80.010	19.994	103.170	20.094	2.829	0.503
1174.000	668.010	80.009	19.995	103.169	20.097	2.646	0.487
1174.500	668.277	80.009	19.995	103.169	20.093	2.882	0.508
1175.000	668.530	80.010	19.995	103.166	20.092	2.946	0.525
1175.501	668.778	80.010	19.994	103.166	20.095	2.740	0.511
1176.001	669.043	80.010	19.995	103.164	20.094	2.806	0.507
1176.500	669.304	80.009	19.995	103.166	20.096	2.708	0.519
1177.000	669.544	80.009	19.995	103.171	20.095	2.723	0.514
1177.500	669.801	80.009	19.995	103.173	20.096	2.661	0.499
1178.000	670.080	80.010	19.994	103.173	20.097	2.589	0.516
1178.500	670.318	80.009	19.995	103.175	20.097	2.619	0.526
1179.000	670.536	80.010	19.995	103.174	20.096	2.666	0.487
1179.501	670.829	80.011	19.995	103.173	20.096	2.672	0.483
1180.001	671.104	80.010	19.994	103.168	20.096	2.678	0.540
1180.500	671.326	80.011	19.995	103.160	20.092	2.952	0.533
1181.000	671.612	80.010	19.995	103.156	20.098	2.527	0.502
1181.500	671.849	80.010	19.995	103.156	20.098	2.533	0.516
1182.000	672.122	80.011	19.995	103.151	20.094	2.801	0.517
1182.500	672.364	80.010	19.995	103.148	20.096	2.674	0.512
1183.000	672.667	80.009	19.995	103.147	20.097	2.627	0.530
1183.501	672.928	80.009	19.994	103.144	20.097	2.642	0.555
1184.001	673.194	80.009	19.995	103.139	20.095	2.771	0.546
1184.500	673.424	80.009	19.996	103.143	20.096	2.663	0.511
1185.000	673.686	80.007	19.995	103.147	20.096	2.670	0.494
1185.500	673.955	80.009	19.995	103.147	20.094	2.803	0.512
1186.000	674.254	80.008	19.996	103.147	20.096	2.665	0.550
1186.500	674.487	80.008	19.996	103.145	20.093	2.861	0.550
1187.000	674.762	80.008	19.997	103.140	20.095	2.729	0.520
1187.500	675.001	80.008	19.996	103.136	20.095	2.782	0.511
1188.000	675.228	80.007	19.996	103.136	20.095	2.775	0.490
1188.500	675.515	80.007	19.995	103.135	20.096	2.693	0.490
1189.000	675.724	80.006	19.996	103.135	20.094	2.822	0.505
1189.500	676.021	80.008	19.995	103.134	20.094	2.816	0.501
1190.000	676.286	80.007	19.996	103.134	20.096	2.691	0.534
1190.500	676.592	80.006	19.996	103.136	20.096	2.684	0.567
1191.001	676.786	80.007	19.996	103.139	20.096	2.654	0.535
1191.501	677.120	80.007	19.996	103.142	20.094	2.811	0.514
1192.001	677.354	80.008	19.996	103.143	20.094	2.792	0.548
1192.500	677.608	80.007	19.997	103.145	20.097	2.633	0.528
1193.000	677.870	80.007	19.996	103.150	20.094	2.824	0.502
1193.500	678.130	80.008	19.996	103.147	20.093	2.865	0.519
1194.000	678.381	80.007	19.995	103.145	20.094	2.803	0.516
1194.500	678.633	80.008	19.996	103.145	20.093	2.895	0.507
1195.000	678.915	80.007	19.995	103.145	20.094	2.807	0.519
1195.500	679.172	80.008	19.995	103.143	20.095	2.744	0.537
1196.000	679.385	80.007	19.995	103.145	20.096	2.706	0.504
1196.500	679.662	80.007	19.994	103.146	20.093	2.861	0.480
1197.000	679.958	80.008	19.995	103.148	20.097	2.603	0.532
1197.500	680.202	80.008	19.995	103.152	20.094	2.820	0.557
1198.001	680.500	80.008	19.994	103.152	20.097	2.637	0.541
1198.501	680.731	80.008	19.995	103.155	20.096	2.707	0.535
1199.000	680.950	80.008	19.994	103.154	20.094	2.793	0.490
1199.500	681.229	80.008	19.994	103.152	20.095	2.754	0.474
1200.000	681.471	80.008	19.995	103.146	20.096	2.680	0.510
1200.500	681.709	80.009	19.995	103.145	20.095	2.769	0.500
1201.000	681.997	80.008	19.995	103.146	20.096	2.665	0.502
1201.500	682.298	80.008	19.995	103.153	20.094	2.838	0.557
1202.000	682.521	80.009	19.993	103.160	20.098	2.550	0.557
1202.500	682.785	80.008	19.993	103.166	20.096	2.690	0.505
1203.000	683.036	80.008	19.994	103.168	20.097	2.646	0.501
1203.500	683.281	80.008	19.994	103.166	20.097	2.601	0.506
1204.000	683.559	80.009	19.995	103.162	20.098	2.554	0.510
1204.500	683.839	80.009	19.995	103.159	20.098	2.533	0.540
1205.000	684.066	80.008	19.994	103.155	20.095	2.725	0.532
1205.500	684.296	80.008	19.995	103.155	20.098	2.531	0.482
1206.000	684.575	80.009	19.994	103.152	20.098	2.544	0.483
1206.500	684.861	80.009	19.995	103.148	20.100	2.412	0.537
1207.000	685.083	80.009	19.994	103.149	20.099	2.489	0.536
1207.501	685.336	80.009	19.995	103.151	20.100	2.420	0.491
1208.001	685.610	80.010	19.995	103.149	20.098	2.544	0.501
1208.500	685.849	80.009	19.995	103.148	20.097	2.605	0.520
1209.000	686.139	80.009	19.995	103.153	20.097	2.590	0.521
1209.500	686.378	80.009	19.995	103.154	20.097	2.643	0.529
1210.000	686.624	80.009	19.994	103.152	20.094	2.831	0.507
1210.500	686.913	80.009	19.995	103.152	20.096	2.678	0.510
1211.000	687.170	80.009	19.996	103.151	20.096	2.682	0.541
1211.500	687.408	80.009	19.994	103.152	20.097	2.584	0.520
1212.000	687.688	80.008	19.995	103.147	20.097	2.635	0.506
1212.500	687.916	80.009	19.995	103.144	20.098	2.542	0.513
1213.000	688.173	80.009	19.995	103.149	20.097	2.586	0.497
1213.500	688.428	80.009	19.995	103.154	20.095	2.737	0.498
1214.000	688.682	80.008	19.995	103.151	20.097	2.644	0.510
1214.500	688.972	80.008	19.995	103.153	20.100	2.405	0.527
1215.000	689.206	80.010	19.994	103.154	20.098	2.531	0.534
1215.500	689.473	80.008	19.994	103.154	20.100	2.410	0.513
1216.000	689.746	80.009	19.995	103.149	20.096	2.712	0.520
1216.501	689.973	80.009	19.995	103.151	20.103	2.210	0.520
1217.001	690.232	80.008	19.995	103.151	20.101	2.310	0.493
1217.500	690.499	80.007	19.994	103.156	20.100	2.412	0.506
1218.000	690.762	80.008	19.995	103.159	20.101	2.352	0.528
1218.500	691.018	80.008	19.995	103.165	20.105	2.080	0.525
1219.000	691.245	80.007	19.994	103.170	20.102	2.303	0.501
1219.501	691.524	80.007	19.994	103.169	20.104	2.097	0.494
1220.001	691.808	80.006	19.995	103.165	20.103	2.183	0.535
1220.500	692.042	80.006	19.995	103.164	20.103	2.210	0.540
1221.000	692.304	80.008	19.994	103.165	20.104	2.140	0.507
1221.501	692.572	80.007	19.995	103.162	20.105	2.081	0.513
1222.001	692.814	80.009	19.995	103.164	20.104	2.119	0.521
1222.500	693.076	80.008	19.994	103.164	20.104	2.125	0.507
1223.000	693.349	80.008	19.995	103.160	20.102	2.242	0.519
1223.500	693.594	80.007	19.995	103.155	20.102	2.242	0.526
1224.000	693.838	80.008	19.994	103.157	20.102	2.257	0.503
1224.500	694.097	80.007	19.994	103.160	20.102	2.291	0.496
1225.000	694.368	80.008	19.994	103.164	20.101	2.319	0.517
1225.500	694.608	80.007	19.994	103.169	20.102	2.282	0.520
1226.000	694.903	80.007	19.995	103.168	20.102	2.235	0.522
1226.500	695.134	80.008	19.994	103.162	20.103	2.216	0.530
1227.000	695.440	80.009	19.995	103.157	20.102	2.255	0.532
1227.500	695.637	80.008	19.994	103.150	20.103	2.176	0.521
1228.000	695.929	80.008	19.995	103.151	20.102	2.246	0.496
1228.500	696.195	80.007	19.994	103.156	20.104	2.132	0.523
1229.000	696.484	80.008	19.995	103.159	20.104	2.144	0.557
1229.500	696.722	80.009	19.995	103.160	20.102	2.242	0.542
1230.000	696.976	80.009	19.993	103.163	20.099	2.468	0.510
1230.500	697.248	80.008	19.994	103.158	20.103	2.213	0.509
1231.000	697.504	80.010	19.994	103.152	20.105	2.041	0.527
1231.501	697.762	80.008	19.994	103.153	20.102	2.262	0.521
1232.001	698.047	80.009	19.994	103.155	20.103	2.215	0.528
1232.500	698.285	80.009	19.994	103.157	20.106	1.990	0.533
1233.000	698.575	80.010	19.994	103.157	20.101	2.349	0.526
1233.500	698.812	80.009	19.994	103.159	20.107	1.936	0.527
1234.001	699.058	80.009	19.994	103.158	20.101	2.357	0.504
1234.501	699.318	80.010	19.994	103.156	20.104	2.153	0.494
1235.000	699.581	80.009	19.994	103.157	20.102	2.240	0.515
1235.500	699.851	80.011	19.993	103.160	20.099	2.444	0.528
1236.000	700.107	80.009	19.994	103.161	20.104	2.096	0.529
1236.501	700.345	80.009	19.994	103.163	20.102	2.291	0.510
1237.001	700.610	80.010	19.993	103.166	20.102	2.279	0.499
1237.500	700.809	80.009	19.994	103.164	20.103	2.166	0.484
1238.000	701.126	80.009	19.994	103.159	20.103	2.208	0.489
1238.500	701.326	80.009	19.994	103.158	20.101	2.328	0.516
1239.000	701.574	80.009	19.994	103.158	20.102	2.281	0.483
1239.500	701.860	80.010	19.995	103.157	20.101	2.370	0.491
1240.000	702.112	80.009	19.994	103.153	20.101	2.357	0.536
1240.500	702.370	80.009	19.994	103.153	20.100	2.391	0.524
1241.000	702.629	80.008	19.994	103.151	20.101	2.317	0.514
1241.500	702.914	80.009	19.994	103.145	20.101	2.357	0.531
1242.000	703.140	80.010	19.993	103.140	20.101	2.306	0.527
1242.500	703.392	80.009	19.993	103.141	20.102	2.255	0.494
1243.000	703.657	80.008	19.995	103.141	20.101	2.355	0.498
1243.501	703.882	80.009	19.994	103.142	20.101	2.342	0.504
1244.001	704.104	80.008	19.994	103.144	20.100	2.425	0.468
1244.500	704.372	80.008	19.994	103.144	20.100	2.425	0.469
1245.001	704.678	80.008	19.994	103.145	20.101	2.325	0.532
1245.501	704.888	80.009	19.994	103.144	20.099	2.502	0.545
1246.000	705.144	80.010	19.994	103.143	20.101	2.353	0.491
1246.500	705.377	80.008	19.994	103.142	20.098	2.570	0.477
1247.001	705.663	80.009	19.993	103.141	20.102	2.260	0.504
1247.501	705.895	80.008	19.995	103.139	20.098	2.532	0.519
1248.000	706.141	80.010	19.996	103.139	20.097	2.642	0.498
1248.500	706.385	80.009	19.995	103.138	20.097	2.634	0.484
1249.000	706.636	80.009	19.994	103.137	20.099	2.478	0.493
1249.500	706.855	80.008	19.994	103.137	20.096	2.702	0.482
1250.000	707.146	80.009	19.995	103.138	20.098	2.513	0.490
1250.500	707.369	80.010	19.994	103.139	20.097	2.595	0.512
1251.001	707.603	80.010	19.994	103.140	20.096	2.698	0.486
1251.501	707.874	80.009	19.994	103.140	20.098	2.574	0.481
1252.000	708.144	80.010	19.995	103.143	20.097	2.631	0.522
1252.500	708.350	80.008	19.995	103.146	20.096	2.672	0.508
1253.000	708.603	80.009	19.996	103.148	20.099	2.451	0.467
1253.500	708.851	80.010	19.995	103.146	20.099	2.470	0.480
1254.001	709.131	80.011	19.995	103.151	20.096	2.676	0.515
1254.501	709.413	80.010	19.995	103.151	20.099	2.481	0.545
1255.000	709.610	80.010	19.995	103.150	20.101	2.343	0.520
1255.500	709.874	80.008	19.995	103.146	20.095	2.744	0.471
1256.000	710.110	80.009	19.995	103.146	20.098	2.559	0.481
1256.500	710.361	80.010	19.995	103.140	20.100	2.387	0.493
1257.000	710.627	80.010	19.996	103.136	20.097	2.593	0.502
1257.500	710.837	80.009	19.995	103.135	20.098	2.561	0.497
1258.000	711.090	80.010	19.994	103.135	20.095	2.751	0.470
1258.500	711.350	80.011	19.995	103.135	20.094	2.853	0.488
1259.000	711.595	80.011	19.995	103.139	20.096	2.674	0.509
1259.500	711.834	80.010	19.995	103.139	20.097	2.606	0.494
1260.000	712.069	80.010	19.994	103.140	20.095	2.740	0.479
1260.500	712.303	80.011	19.995	103.140	20.098	2.542	0.471
1261.000	712.564	80.010	19.995	103.139	20.099	2.506	0.482
1261.500	712.806	80.010	19.995	103.135	20.102	2.291	0.499
1262.000	713.047	80.010	19.995	103.135	20.101	2.372	0.493
1262.500	713.281	80.012	19.994	103.135	20.098	2.532	0.479
1263.001	713.533	80.010	19.994	103.136	20.096	2.666	0.480
1263.501	713.771	80.009	19.995	103.136	20.097	2.600	0.488
1264.000	714.041	80.008	19.993	103.137	20.096	2.706	0.500
1264.500	714.260	80.010	19.995	103.136	20.097	2.602	0.499
1265.000	714.555	80.009	19.994	103.134	20.095	2.755	0.502
1265.500	714.792	80.011	19.995	103.134	20.099	2.447	0.523
1266.001	715.039	80.010	19.995	103.134	20.098	2.521	0.508
1266.501	715.288	80.010	19.995	103.134	20.098	2.570	0.489
1267.001	715.524	80.008	19.995	103.134	20.099	2.498	0.491
1267.501	715.800	80.009	19.995	103.134	20.098	2.527	0.499
1268.000	716.026	80.009	19.994	103.134	20.097	2.625	0.507
1268.501	716.323	80.008	19.995	103.134	20.100	2.410	0.512
1269.001	716.548	80.007	19.994	103.134	20.097	2.629	0.523
1269.500	716.815	80.007	19.995	103.135	20.095	2.734	0.508
1270.000	717.081	80.009	19.995	103.138	20.097	2.619	0.512
1270.500	717.341	80.007	19.995	103.139	20.100	2.393	0.529
1271.001	717.581	80.008	19.994	103.139	20.096	2.665	0.513
1271.501	717.813	80.009	19.995	103.140	20.098	2.523	0.486
1272.000	718.085	80.008	19.995	103.140	20.099	2.480	0.488
1272.500	718.326	80.008	19.994	103.137	20.098	2.529	0.508
1273.000	718.596	80.009	19.995	103.138	20.099	2.498	0.512
1273.500	718.833	80.007	19.996	103.140	20.098	2.562	0.510
1274.000	719.072	80.007	19.995	103.140	20.096	2.661	0.492
1274.500	719.335	80.006	19.995	103.140	20.098	2.523	0.489
1275.000	719.576	80.007	19.995	103.139	20.098	2.538	0.503
1275.500	719.869	80.007	19.995	103.137	20.096	2.657	0.520
1276.000	720.106	80.007	19.995	103.136	20.098	2.563	0.532
1276.501	720.352	80.007	19.995	103.136	20.099	2.493	0.506
1277.001	720.602	80.008	19.996	103.137	20.100	2.438	0.489
1277.500	720.878	80.007	19.995	103.137	20.099	2.499	0.511
1278.000	721.088	80.006	19.995	103.136	20.101	2.361	0.506
1278.500	721.352	80.006	19.995	103.136	20.100	2.434	0.480
1279.000	721.638	80.006	19.995	103.136	20.103	2.230	0.512
1279.500	721.881	80.006	19.995	103.135	20.102	2.236	0.539
1280.000	722.164	80.007	19.996	103.135	20.100	2.389	0.527
1280.500	722.438	80.008	19.996	103.137	20.103	2.226	0.542
1281.000	722.677	80.007	19.995	103.140	20.102	2.289	0.535
1281.500	722.920	80.007	19.996	103.145	20.104	2.147	0.498
1282.000	723.172	80.006	19.995	103.147	20.101	2.306	0.489
1282.500	723.472	80.007	19.995	103.147	20.101	2.344	0.524
1283.000	723.709	80.006	19.995	103.142	20.101	2.328	0.544
1283.500	723.980	80.007	19.995	103.139	20.099	2.468	0.523
1284.000	724.192	80.006	19.996	103.134	20.100	2.440	0.495
1284.501	724.470	80.007	19.995	103.133	20.101	2.347	0.486
1285.001	724.725	80.007	19.996	103.133	20.100	2.442	0.512
1285.500	724.973	80.007	19.996	103.136	20.102	2.276	0.518
1286.001	725.244	80.007	19.996	103.137	20.103	2.181	0.511
1286.501	725.507	80.006	19.997	103.138	20.102	2.246	0.527
1287.000	725.745	80.008	19.996	103.138	20.103	2.174	0.518
1287.500	726.003	80.007	19.996	103.142	20.103	2.217	0.498
1288.000	726.246	80.008	19.996	103.143	20.102	2.251	0.498
1288.500	726.515	80.008	19.996	103.143	20.106	1.991	0.506
1289.000	726.782	80.007	19.995	103.141	20.106	2.002	0.524
1289.500	726.985	80.007	19.995	103.136	20.105	2.043	0.503
1290.000	727.262	80.007	19.995	103.132	20.105	2.057	0.475
1290.500	727.525	80.008	19.995	103.131	20.107	1.904	0.510
1291.000	727.807	80.008	19.995	103.131	20.105	2.032	0.543
1291.501	728.050	80.008	19.995	103.133	20.108	1.866	0.535
1292.001	728.306	80.008	19.995	103.138	20.103	2.202	0.512
1292.501	728.570	80.008	19.995	103.138	20.104	2.102	0.510
1293.000	728.840	80.008	19.994	103.138	20.105	2.036	0.527
1293.500	729.038	80.008	19.995	103.138	20.104	2.132	0.501
1294.000	729.332	80.007	19.996	103.138	20.106	1.992	0.480
1294.500	729.589	80.008	19.995	103.138	20.107	1.941	0.522
1295.000	729.815	80.008	19.994	103.140	20.105	2.075	0.517
1295.500	730.066	80.007	19.996	103.146	20.102	2.236	0.480
1296.000	730.324	80.009	19.995	103.146	20.106	2.024	0.493
1296.500	730.597	80.006	19.994	103.147	20.105	2.039	0.520
1297.000	730.827	80.008	19.994	103.149	20.104	2.162	0.517
1297.501	731.092	80.008	19.994	103.148	20.104	2.115	0.499
1298.001	731.317	80.006	19.995	103.147	20.106	2.009	0.493
1298.500	731.562	80.007	19.994	103.150	20.107	1.922	0.480
1299.000	731.846	80.008	19.995	103.151	20.105	2.075	0.499
1299.501	732.093	80.009	19.995	103.148	20.106	1.998	0.530
1300.001	732.400	80.007	19.995	103.147	20.106	2.017	0.543
1300.500	732.599	80.006	19.995	103.143	20.103	2.198	0.530
1301.000	732.839	80.007	19.994	103.140	20.103	2.200	0.472
1301.500	733.096	80.007	19.995	103.139	20.104	2.132	0.468
1302.000	733.356	80.007	19.994	103.140	20.103	2.206	0.507
1302.500	733.618	80.007	19.995	103.139	20.105	2.030	0.519
1303.000	733.887	80.008	19.994	103.139	20.108	1.883	0.526
1303.500	734.125	80.008	19.994	103.140	20.105	2.087	0.519
1304.000	734.359	80.006	19.994	103.140	20.104	2.132	0.489
1304.500	734.631	80.007	19.994	103.139	20.106	2.022	0.489
1305.000	734.893	80.006	19.995	103.136	20.105	2.039	0.520
1305.500	735.120	80.006	19.994	103.135	20.105	2.075	0.511
1306.000	735.371	80.007	19.994	103.135	20.105	2.036	0.483
1306.500	735.643	80.007	19.994	103.135	20.105	2.054	0.501
1307.000	735.873	80.005	19.993	103.135	20.104	2.126	0.513
1307.500	736.132	80.007	19.994	103.138	20.103	2.221	0.496
1308.000	736.371	80.007	19.994	103.140	20.102	2.272	0.494
1308.500	736.622	80.007	19.995	103.140	20.103	2.204	0.494
1309.000	736.867	80.007	19.994	103.140	20.104	2.155	0.493
1309.501	737.080	80.008	19.994	103.141	20.102	2.289	0.477
1310.001	737.360	80.008	19.995	103.141	20.103	2.232	0.476
1310.500	737.587	80.007	19.994	103.137	20.105	2.092	0.500
1311.000	737.808	80.008	19.994	103.136	20.100	2.408	0.477
1311.500	738.113	80.009	19.994	103.136	20.101	2.349	0.487
1312.000	738.347	80.009	19.994	103.132	20.101	2.321	0.533
1312.500	738.628	80.009	19.995	103.132	20.103	2.175	0.527
1313.000	738.845	80.009	19.995	103.135	20.104	2.117	0.507
1313.500	739.104	80.009	19.995	103.135	20.102	2.283	0.487
1314.000	739.348	80.009	19.994	103.135	20.107	1.947	0.489
1314.500	739.567	80.009	19.994	103.138	20.102	2.262	0.483
1315.000	739.830	80.009	19.994	103.138	20.102	2.300	0.473
1315.500	740.091	80.011	19.994	103.135	20.102	2.270	0.503
1316.000	740.340	80.009	19.995	103.135	20.101	2.326	0.517
1316.500	740.598	80.010	19.994	103.133	20.102	2.289	0.509
1317.000	740.853	80.008	19.995	103.132	20.102	2.240	0.510
1317.500	741.081	80.011	19.995	103.132	20.103	2.189	0.498
1318.000	741.359	80.010	19.995	103.134	20.104	2.151	0.495
1318.500	741.630	80.010	19.995	103.134	20.105	2.045	0.528
1319.000	741.862	80.010	19.995	103.136	20.104	2.117	0.526
1319.500	742.098	80.011	19.994	103.136	20.102	2.283	0.485
1320.000	742.354	80.009	19.995	103.136	20.102	2.278	0.480
1320.500	742.589	80.009	19.995	103.136	20.100	2.393	0.492
1321.001	742.843	80.010	19.995	103.136	20.103	2.174	0.490
1321.501	743.106	80.009	19.995	103.135	20.103	2.183	0.502
1322.000	743.358	80.009	19.995	103.135	20.104	2.119	0.516
