Sample ID:	C:\MCC\MCC Cal\Test\PEX_Pipe_MCC_30K_min_220128_R2.txt
Sample Weight (mg):	4.46
Heating Rate (C/s):	0.5
Combustor Temp (C):	900
N2 Flow Rate (cc/min):	80
O2 Flow Rate (cc/min):	20
Calibration File:	C:\MCC\MCC Cal\Coeff1 JN10440_30_210304.txt.txt
T Correction Coefficients:	0	1.024463	0
Time Shift (s):	14
*
Time (s)	Temperature (C)	N2 flow rate (cc/min)	O2 flow rate (cc/min)	Flow Rate (cc/min)	Oxygen (%)	HRR (W/g)	Heating rate (C/s)
0.000	110.455	80.005	19.991	103.733	19.978	0.473	-0.011
0.500	110.417	80.008	19.996	103.734	19.981	0.279	-0.017
1.000	110.442	80.008	19.995	103.734	19.982	0.237	-0.017
1.500	110.444	80.007	19.996	103.738	19.981	0.267	0.008
2.000	110.433	80.007	19.995	103.738	19.982	0.226	0.009
2.500	110.438	80.006	19.995	103.740	19.982	0.233	-0.008
3.000	110.439	80.006	19.995	103.743	19.980	0.351	-0.000
3.500	110.457	80.007	19.996	103.742	19.983	0.166	0.012
4.000	110.447	80.007	19.994	103.742	19.984	0.066	0.013
4.501	110.437	80.005	19.995	103.741	19.980	0.359	-0.006
5.001	110.434	80.006	19.994	103.738	19.978	0.501	-0.017
5.500	110.439	80.006	19.994	103.733	19.982	0.239	-0.006
6.000	110.422	80.005	19.994	103.732	19.980	0.353	-0.005
6.501	110.450	80.006	19.994	103.732	19.981	0.291	-0.000
7.001	110.401	80.006	19.994	103.732	19.979	0.427	-0.005
7.501	110.433	80.006	19.993	103.734	19.981	0.321	-0.019
8.000	110.457	80.006	19.995	103.741	19.981	0.323	0.020
8.500	110.445	80.006	19.993	103.742	19.980	0.369	0.034
9.000	110.431	80.005	19.992	103.742	19.977	0.561	-0.007
9.500	110.466	80.006	19.995	103.744	19.977	0.545	-0.002
10.000	110.437	80.005	19.992	103.746	19.978	0.487	0.013
10.500	110.437	80.004	19.994	103.753	19.974	0.769	-0.012
11.000	110.430	80.006	19.995	103.761	19.977	0.551	-0.018
11.500	110.452	80.006	19.993	103.768	19.974	0.795	0.004
12.000	110.451	80.006	19.994	103.776	19.977	0.607	0.018
12.500	110.449	80.005	19.993	103.783	19.973	0.887	0.009
13.000	110.458	80.006	19.992	103.781	19.974	0.797	0.002
13.500	110.459	80.006	19.993	103.774	19.976	0.635	0.009
14.000	110.451	80.005	19.994	103.774	19.973	0.892	0.002
14.500	110.450	80.005	19.993	103.775	19.973	0.874	-0.008
15.000	110.477	80.006	19.996	103.775	19.973	0.839	0.009
15.500	110.467	80.007	19.996	103.779	19.975	0.723	0.022
16.000	110.462	80.008	19.996	103.786	19.973	0.900	0.001
16.500	110.466	80.007	19.995	103.787	19.972	0.913	-0.008
17.000	110.508	80.006	19.993	103.787	19.970	1.108	0.022
17.500	110.499	80.007	19.994	103.789	19.971	1.003	0.039
18.000	110.535	80.009	19.995	103.797	19.969	1.144	0.030
18.500	110.501	80.007	19.993	103.803	19.971	0.993	0.015
19.000	110.520	80.007	19.994	103.806	19.970	1.102	-0.006
19.500	110.529	80.008	19.993	103.814	19.972	0.945	0.007
20.000	110.537	80.008	19.993	103.819	19.970	1.065	0.023
20.500	110.585	80.007	19.994	103.819	19.970	1.059	0.036
21.000	110.545	80.007	19.993	103.820	19.969	1.175	0.032
21.500	110.587	80.008	19.993	103.824	19.966	1.371	0.005
22.000	110.601	80.009	19.993	103.825	19.968	1.235	0.029
22.500	110.651	80.009	19.995	103.826	19.965	1.439	0.060
23.000	110.646	80.007	19.993	103.832	19.967	1.323	0.055
23.500	110.665	80.009	19.993	103.832	19.965	1.433	0.029
24.000	110.681	80.009	19.993	103.831	19.968	1.263	0.024
24.500	110.712	80.008	19.994	103.830	19.966	1.403	0.041
25.000	110.728	80.009	19.993	103.828	19.966	1.367	0.048
25.501	110.711	80.008	19.994	103.822	19.962	1.690	0.023
26.002	110.761	80.008	19.994	103.822	19.964	1.495	0.016
26.500	110.806	80.008	19.994	103.822	19.961	1.744	0.063
27.000	110.834	80.008	19.994	103.828	19.961	1.736	0.084
27.500	110.854	80.008	19.993	103.835	19.962	1.640	0.061
28.000	110.904	80.008	19.995	103.842	19.961	1.752	0.059
28.500	110.926	80.009	19.995	103.850	19.960	1.796	0.071
29.000	110.952	80.008	19.994	103.856	19.958	1.976	0.060
29.500	111.000	80.006	19.995	103.858	19.959	1.859	0.061
30.000	111.017	80.008	19.994	103.860	19.956	2.087	0.070
30.500	111.055	80.009	19.993	103.865	19.956	2.081	0.060
31.000	111.110	80.009	19.994	103.871	19.955	2.181	0.074
31.500	111.176	80.007	19.995	103.879	19.952	2.368	0.107
32.000	111.212	80.008	19.993	103.887	19.953	2.341	0.112
32.500	111.243	80.007	19.995	103.892	19.953	2.295	0.085
33.000	111.289	80.008	19.993	103.895	19.951	2.453	0.072
33.500	111.350	80.008	19.994	103.897	19.948	2.658	0.091
34.000	111.404	80.007	19.995	103.902	19.951	2.496	0.111
34.500	111.453	80.008	19.994	103.904	19.953	2.331	0.109
35.001	111.514	80.007	19.994	103.906	19.952	2.432	0.107
35.501	111.567	80.007	19.994	103.907	19.950	2.524	0.112
36.000	111.616	80.008	19.995	103.908	19.948	2.720	0.108
36.500	111.702	80.008	19.994	103.907	19.947	2.784	0.119
37.000	111.764	80.006	19.994	103.907	19.947	2.782	0.142
37.501	111.798	80.008	19.995	103.906	19.948	2.676	0.122
38.001	111.894	80.007	19.994	103.905	19.949	2.622	0.113
38.500	111.924	80.007	19.995	103.909	19.947	2.766	0.128
39.000	112.020	80.009	19.995	103.911	19.947	2.795	0.126
39.500	112.090	80.008	19.995	103.916	19.949	2.651	0.146
40.000	112.122	80.008	19.994	103.923	19.947	2.791	0.134
40.501	112.206	80.007	19.993	103.929	19.949	2.633	0.109
41.001	112.278	80.007	19.993	103.932	19.946	2.862	0.136
41.500	112.368	80.009	19.994	103.933	19.947	2.778	0.158
42.000	112.437	80.009	19.994	103.935	19.948	2.680	0.160
42.500	112.527	80.008	19.995	103.936	19.946	2.856	0.159
43.000	112.562	80.008	19.994	103.939	19.945	2.924	0.142
43.501	112.667	80.010	19.994	103.939	19.946	2.860	0.132
44.001	112.753	80.007	19.992	103.941	19.945	2.914	0.165
44.500	112.812	80.009	19.994	103.941	19.945	2.880	0.168
45.000	112.870	80.011	19.993	103.941	19.942	3.088	0.131
45.500	112.972	80.009	19.995	103.940	19.946	2.856	0.139
46.000	113.055	80.009	19.994	103.939	19.942	3.088	0.173
46.500	113.151	80.009	19.993	103.938	19.945	2.888	0.182
47.000	113.255	80.010	19.994	103.938	19.941	3.164	0.189
47.500	113.364	80.010	19.993	103.939	19.944	2.998	0.207
48.000	113.439	80.008	19.993	103.942	19.943	3.048	0.199
48.500	113.558	80.010	19.993	103.942	19.943	3.024	0.189
49.000	113.664	80.010	19.993	103.942	19.944	2.969	0.210
49.500	113.762	80.009	19.995	103.945	19.941	3.199	0.215
50.001	113.837	80.009	19.993	103.950	19.941	3.161	0.189
50.501	113.946	80.009	19.994	103.949	19.942	3.137	0.179
51.001	114.051	80.011	19.992	103.949	19.942	3.143	0.199
51.500	114.202	80.009	19.995	103.949	19.941	3.165	0.235
52.000	114.299	80.008	19.994	103.946	19.942	3.127	0.252
52.501	114.380	80.008	19.994	103.939	19.940	3.283	0.213
53.001	114.539	80.009	19.994	103.936	19.939	3.357	0.209
53.500	114.639	80.011	19.993	103.936	19.937	3.453	0.249
54.000	114.721	80.010	19.993	103.938	19.938	3.421	0.221
54.500	114.857	80.008	19.994	103.940	19.942	3.133	0.201
55.000	114.964	80.008	19.994	103.944	19.937	3.463	0.230
55.501	115.094	80.007	19.995	103.945	19.941	3.219	0.239
56.001	115.199	80.007	19.995	103.948	19.940	3.243	0.236
56.500	115.326	80.007	19.994	103.946	19.937	3.461	0.234
57.000	115.430	80.008	19.995	103.945	19.941	3.231	0.232
57.500	115.531	80.008	19.995	103.944	19.941	3.195	0.218
58.000	115.673	80.007	19.994	103.944	19.940	3.303	0.224
58.501	115.802	80.005	19.994	103.942	19.937	3.497	0.257
59.001	115.920	80.007	19.994	103.945	19.937	3.457	0.259
59.500	116.074	80.005	19.994	103.948	19.938	3.383	0.260
60.001	116.165	80.006	19.995	103.953	19.939	3.325	0.258
60.501	116.309	80.007	19.995	103.961	19.935	3.601	0.240
61.000	116.411	80.006	19.995	103.966	19.938	3.407	0.241
61.501	116.568	80.006	19.994	103.970	19.936	3.567	0.253
62.001	116.718	80.007	19.995	103.970	19.935	3.665	0.283
62.500	116.835	80.007	19.995	103.967	19.936	3.591	0.287
63.000	116.959	80.005	19.995	103.966	19.932	3.855	0.254
63.500	117.109	80.007	19.995	103.967	19.934	3.711	0.258
64.000	117.221	80.006	19.995	103.969	19.934	3.693	0.268
64.500	117.391	80.004	19.995	103.973	19.935	3.607	0.271
65.000	117.492	80.007	19.995	103.977	19.937	3.491	0.276
65.500	117.645	80.008	19.995	103.979	19.938	3.422	0.263
66.000	117.804	80.005	19.994	103.979	19.936	3.580	0.283
66.500	117.951	80.005	19.994	103.979	19.935	3.658	0.308
67.001	118.096	80.006	19.995	103.978	19.937	3.473	0.299
67.501	118.221	80.006	19.994	103.979	19.934	3.671	0.282
68.001	118.368	80.007	19.995	103.978	19.936	3.539	0.271
68.501	118.527	80.007	19.993	103.977	19.937	3.503	0.289
69.001	118.642	80.006	19.995	103.978	19.934	3.687	0.290
69.500	118.801	80.007	19.994	103.977	19.934	3.733	0.274
70.000	118.991	80.007	19.995	103.977	19.933	3.751	0.312
70.501	119.133	80.007	19.995	103.977	19.932	3.859	0.340
71.001	119.265	80.006	19.995	103.978	19.936	3.569	0.303
71.500	119.437	80.005	19.994	103.977	19.933	3.793	0.289
72.000	119.562	80.009	19.993	103.978	19.935	3.642	0.301
72.500	119.742	80.005	19.993	103.979	19.933	3.794	0.301
73.000	119.913	80.007	19.995	103.979	19.935	3.620	0.328
73.501	120.030	80.008	19.993	103.980	19.933	3.802	0.320
74.001	120.230	80.007	19.994	103.981	19.934	3.672	0.303
74.500	120.354	80.007	19.993	103.981	19.934	3.732	0.320
75.000	120.515	80.007	19.995	103.982	19.932	3.850	0.304
75.501	120.703	80.006	19.994	103.987	19.933	3.776	0.317
76.001	120.879	80.006	19.994	103.987	19.933	3.764	0.357
76.500	121.061	80.007	19.994	103.990	19.935	3.634	0.361
77.000	121.220	80.006	19.993	103.992	19.934	3.736	0.350
77.501	121.396	80.008	19.993	103.991	19.932	3.862	0.338
78.001	121.551	80.006	19.993	103.988	19.932	3.854	0.332
78.501	121.731	80.007	19.994	103.988	19.931	3.910	0.333
79.001	121.896	80.008	19.994	103.985	19.932	3.886	0.340
79.500	122.051	80.006	19.995	103.983	19.929	4.084	0.332
80.000	122.269	80.008	19.994	103.982	19.932	3.852	0.346
80.500	122.440	80.007	19.994	103.981	19.932	3.874	0.381
81.000	122.596	80.006	19.995	103.982	19.930	4.000	0.358
81.500	122.784	80.005	19.995	103.982	19.929	4.040	0.336
82.000	122.937	80.007	19.993	103.986	19.929	4.040	0.343
82.501	123.087	80.007	19.994	103.989	19.929	4.098	0.322
83.001	123.299	80.006	19.994	103.992	19.928	4.122	0.332
83.501	123.511	80.006	19.994	103.996	19.930	3.964	0.393
84.001	123.635	80.007	19.993	104.002	19.926	4.264	0.380
84.501	123.847	80.006	19.993	104.000	19.930	3.996	0.336
85.000	124.029	80.007	19.993	104.001	19.927	4.232	0.365
85.501	124.217	80.008	19.993	103.999	19.928	4.146	0.382
86.001	124.406	80.005	19.994	103.995	19.931	3.919	0.373
86.501	124.598	80.006	19.994	103.992	19.931	3.945	0.379
87.001	124.790	80.005	19.995	103.991	19.926	4.317	0.383
87.500	124.987	80.007	19.993	103.991	19.928	4.145	0.386
88.000	125.179	80.006	19.994	103.994	19.926	4.307	0.389
88.500	125.346	80.006	19.993	103.998	19.929	4.085	0.374
89.001	125.542	80.008	19.993	104.003	19.927	4.219	0.361
89.501	125.746	80.007	19.994	104.003	19.927	4.189	0.381
90.000	125.922	80.006	19.994	104.001	19.929	4.086	0.389
90.500	126.132	80.007	19.994	103.999	19.928	4.116	0.383
91.000	126.344	80.006	19.994	103.999	19.928	4.142	0.405
91.501	126.529	80.007	19.993	103.997	19.929	4.104	0.409
92.001	126.693	80.004	19.994	104.000	19.928	4.122	0.373
92.500	126.902	80.005	19.994	104.000	19.927	4.225	0.361
93.000	127.077	80.006	19.994	103.997	19.925	4.370	0.378
93.500	127.321	80.007	19.993	103.993	19.928	4.180	0.402
94.000	127.499	80.008	19.995	103.994	19.928	4.138	0.421
94.500	127.672	80.006	19.994	103.996	19.930	3.986	0.386
95.000	127.921	80.006	19.993	103.997	19.930	3.980	0.386
95.501	128.079	80.006	19.994	103.999	19.928	4.130	0.414
96.001	128.285	80.007	19.994	103.999	19.926	4.270	0.385
96.500	128.467	80.006	19.994	103.993	19.929	4.102	0.376
97.000	128.662	80.005	19.993	103.986	19.929	4.076	0.383
97.500	128.883	80.008	19.993	103.984	19.931	3.958	0.397
98.000	129.099	80.007	19.994	103.982	19.928	4.112	0.427
98.500	129.284	80.008	19.994	103.981	19.927	4.234	0.419
99.000	129.478	80.008	19.994	103.981	19.927	4.234	0.390
99.500	129.688	80.007	19.994	103.983	19.927	4.203	0.391
100.000	129.915	80.008	19.994	103.983	19.929	4.071	0.420
100.500	130.119	80.007	19.993	103.990	19.930	4.019	0.434
101.000	130.285	80.008	19.994	103.994	19.926	4.291	0.401
101.500	130.522	80.007	19.995	103.997	19.930	4.021	0.386
102.000	130.762	80.009	19.993	103.998	19.931	3.893	0.439
102.500	130.932	80.008	19.994	104.000	19.931	3.889	0.443
103.000	131.117	80.008	19.993	103.994	19.930	4.017	0.383
103.501	131.333	80.008	19.994	103.991	19.928	4.143	0.379
104.001	131.589	80.008	19.994	103.995	19.928	4.155	0.437
104.500	131.771	80.009	19.994	103.994	19.930	4.031	0.455
105.000	132.017	80.009	19.993	103.995	19.928	4.159	0.433
105.500	132.223	80.008	19.993	103.998	19.930	4.014	0.440
106.000	132.369	80.009	19.993	103.999	19.930	4.032	0.402
106.501	132.618	80.008	19.994	103.995	19.930	4.032	0.373
107.001	132.801	80.008	19.995	103.999	19.931	3.902	0.413
107.500	133.063	80.009	19.995	104.002	19.930	4.001	0.438
108.000	133.261	80.011	19.994	104.002	19.928	4.175	0.453
108.500	133.484	80.010	19.994	104.003	19.931	3.951	0.441
109.000	133.717	80.010	19.993	104.003	19.929	4.105	0.438
109.501	133.932	80.009	19.994	104.000	19.929	4.047	0.452
110.001	134.103	80.009	19.993	103.993	19.929	4.085	0.417
110.501	134.327	80.009	19.993	103.988	19.929	4.043	0.391
111.001	134.564	80.007	19.993	103.983	19.926	4.279	0.428
111.501	134.791	80.010	19.992	103.981	19.927	4.233	0.462
112.000	135.002	80.009	19.993	103.980	19.929	4.097	0.451
112.500	135.220	80.008	19.994	103.984	19.928	4.165	0.434
113.000	135.396	80.007	19.994	103.985	19.929	4.095	0.412
113.501	135.663	80.009	19.993	103.986	19.929	4.091	0.418
114.001	135.884	80.009	19.994	103.984	19.929	4.071	0.465
114.500	136.085	80.009	19.994	103.985	19.928	4.177	0.455
115.000	136.289	80.008	19.994	103.980	19.928	4.127	0.414
115.500	136.541	80.008	19.994	103.983	19.928	4.175	0.430
116.000	136.769	80.009	19.994	103.987	19.929	4.065	0.467
116.500	136.989	80.006	19.994	103.995	19.927	4.199	0.464
117.000	137.205	80.010	19.992	103.998	19.929	4.057	0.442
117.500	137.422	80.009	19.993	103.999	19.926	4.287	0.434
118.001	137.647	80.008	19.993	103.995	19.928	4.125	0.438
118.501	137.898	80.008	19.993	103.990	19.925	4.351	0.459
119.000	138.119	80.009	19.994	103.984	19.926	4.287	0.474
119.501	138.369	80.009	19.994	103.980	19.928	4.151	0.471
120.001	138.560	80.008	19.994	103.982	19.928	4.117	0.456
120.500	138.789	80.009	19.993	103.983	19.928	4.129	0.431
121.000	139.014	80.006	19.994	103.985	19.928	4.171	0.437
121.500	139.210	80.009	19.994	103.985	19.927	4.249	0.438
122.000	139.455	80.008	19.994	103.986	19.930	3.977	0.431
122.500	139.688	80.009	19.993	103.984	19.929	4.081	0.459
123.000	139.943	80.008	19.992	103.984	19.930	3.981	0.482
123.500	140.151	80.009	19.993	103.981	19.927	4.205	0.475
124.001	140.366	80.008	19.994	103.979	19.929	4.085	0.443
124.501	140.605	80.006	19.994	103.982	19.927	4.217	0.439
125.000	140.826	80.008	19.994	103.984	19.928	4.125	0.457
125.500	141.034	80.010	19.993	103.983	19.926	4.277	0.444
126.000	141.264	80.009	19.993	103.984	19.928	4.145	0.434
126.501	141.483	80.008	19.993	103.987	19.931	3.917	0.444
127.001	141.707	80.009	19.995	103.983	19.933	3.809	0.446
127.501	141.961	80.009	19.995	103.981	19.929	4.039	0.460
128.000	142.197	80.009	19.994	103.981	19.932	3.871	0.484
128.500	142.411	80.008	19.995	103.982	19.930	3.987	0.470
129.000	142.651	80.009	19.994	103.984	19.930	3.971	0.452
129.500	142.899	80.007	19.994	103.986	19.929	4.059	0.470
130.000	143.111	80.010	19.993	103.988	19.930	4.025	0.474
130.500	143.385	80.009	19.993	103.989	19.931	3.957	0.473
131.000	143.592	80.008	19.994	103.987	19.931	3.921	0.484
131.500	143.816	80.009	19.993	103.981	19.934	3.682	0.456
132.001	144.074	80.010	19.993	103.979	19.931	3.910	0.456
132.500	144.280	80.008	19.994	103.977	19.932	3.866	0.473
133.000	144.491	80.008	19.994	103.977	19.930	3.966	0.440
133.500	144.763	80.008	19.993	103.977	19.928	4.166	0.450
134.000	144.975	80.009	19.993	103.977	19.930	4.021	0.484
134.500	145.178	80.007	19.992	103.977	19.930	4.009	0.450
135.000	145.435	80.009	19.996	103.977	19.929	4.065	0.438
135.500	145.703	80.008	19.994	103.978	19.928	4.121	0.492
136.000	145.897	80.008	19.996	103.983	19.930	4.029	0.494
136.500	146.111	80.009	19.995	103.987	19.930	3.991	0.435
137.000	146.396	80.006	19.995	103.989	19.929	4.093	0.453
137.500	146.642	80.008	19.994	103.989	19.931	3.947	0.514
138.000	146.832	80.008	19.994	103.989	19.929	4.079	0.483
138.500	147.092	80.008	19.994	103.985	19.931	3.912	0.443
139.000	147.323	80.006	19.993	103.981	19.927	4.202	0.470
139.500	147.545	80.007	19.993	103.979	19.930	3.990	0.472
140.000	147.796	80.006	19.994	103.979	19.928	4.110	0.463
140.500	148.045	80.006	19.994	103.978	19.929	4.101	0.487
141.000	148.266	80.006	19.994	103.978	19.933	3.765	0.486
141.500	148.555	80.007	19.993	103.982	19.931	3.911	0.490
142.000	148.757	80.006	19.993	103.989	19.927	4.215	0.500
142.500	149.013	80.007	19.992	103.993	19.925	4.325	0.474
143.000	149.239	80.006	19.993	103.997	19.925	4.329	0.470
143.500	149.502	80.008	19.993	104.001	19.927	4.215	0.486
144.000	149.747	80.007	19.994	103.999	19.929	4.051	0.498
144.500	149.933	80.006	19.993	103.993	19.928	4.127	0.469
145.000	150.200	80.007	19.994	103.990	19.929	4.077	0.442
145.500	150.413	80.006	19.995	103.988	19.928	4.119	0.467
146.000	150.647	80.007	19.994	103.985	19.928	4.175	0.464
146.500	150.892	80.006	19.993	103.984	19.927	4.227	0.463
147.001	151.151	80.006	19.994	103.985	19.928	4.175	0.491
147.501	151.381	80.006	19.994	103.985	19.930	3.985	0.497
148.001	151.614	80.007	19.993	103.983	19.929	4.075	0.476
148.500	151.819	80.007	19.995	103.985	19.929	4.037	0.451
149.000	152.089	80.006	19.994	103.987	19.927	4.217	0.456
149.500	152.282	80.006	19.994	103.992	19.929	4.057	0.469
150.000	152.528	80.007	19.993	103.994	19.932	3.835	0.451
150.500	152.790	80.007	19.994	103.994	19.929	4.103	0.474
151.000	153.052	80.005	19.995	103.993	19.930	4.025	0.516
151.500	153.270	80.006	19.995	103.989	19.932	3.821	0.501
152.000	153.480	80.007	19.994	103.986	19.929	4.063	0.454
152.500	153.752	80.006	19.995	103.987	19.929	4.061	0.455
153.000	153.983	80.007	19.995	103.988	19.931	3.923	0.492
153.500	154.242	80.008	19.996	103.987	19.931	3.957	0.497
154.000	154.487	80.007	19.996	103.987	19.930	4.009	0.497
154.500	154.735	80.006	19.995	103.985	19.928	4.151	0.498
155.000	154.951	80.006	19.994	103.983	19.930	4.015	0.479
155.500	155.152	80.007	19.996	103.981	19.928	4.155	0.441
156.000	155.464	80.008	19.996	103.981	19.929	4.035	0.465
156.500	155.677	80.007	19.996	103.980	19.931	3.921	0.519
157.000	155.908	80.006	19.995	103.980	19.928	4.175	0.485
157.500	156.148	80.008	19.996	103.978	19.927	4.187	0.458
158.000	156.415	80.006	19.997	103.978	19.926	4.261	0.489
158.500	156.643	80.008	19.995	103.982	19.928	4.171	0.501
159.000	156.868	80.009	19.996	103.982	19.929	4.067	0.473
159.500	157.143	80.007	19.995	103.982	19.927	4.209	0.477
160.000	157.384	80.005	19.996	103.982	19.930	3.991	0.508
160.500	157.625	80.008	19.996	103.980	19.931	3.909	0.499
161.000	157.870	80.008	19.995	103.976	19.931	3.929	0.484
161.500	158.143	80.008	19.994	103.975	19.930	4.029	0.502
162.000	158.361	80.007	19.996	103.976	19.927	4.189	0.504
162.500	158.599	80.007	19.995	103.976	19.928	4.145	0.473
163.000	158.858	80.008	19.995	103.976	19.927	4.241	0.476
163.500	159.097	80.008	19.994	103.976	19.927	4.209	0.497
164.000	159.358	80.007	19.994	103.976	19.928	4.107	0.499
164.500	159.614	80.008	19.994	103.975	19.929	4.043	0.508
165.000	159.841	80.007	19.995	103.975	19.929	4.061	0.500
165.500	160.109	80.008	19.996	103.976	19.933	3.797	0.489
166.000	160.368	80.008	19.994	103.977	19.929	4.083	0.511
166.500	160.610	80.008	19.994	103.980	19.933	3.781	0.514
167.000	160.882	80.007	19.995	103.984	19.933	3.815	0.507
167.500	161.059	80.006	19.994	103.984	19.931	3.949	0.482
168.000	161.324	80.007	19.993	103.983	19.934	3.679	0.445
168.500	161.566	80.007	19.994	103.983	19.933	3.775	0.474
169.000	161.816	80.008	19.993	103.979	19.932	3.855	0.500
169.500	162.077	80.007	19.993	103.976	19.934	3.681	0.501
170.000	162.336	80.008	19.994	103.976	19.933	3.789	0.515
170.500	162.567	80.007	19.994	103.976	19.933	3.789	0.505
171.000	162.811	80.007	19.994	103.975	19.934	3.701	0.483
171.500	163.011	80.007	19.995	103.976	19.934	3.693	0.459
172.000	163.290	80.006	19.995	103.978	19.931	3.921	0.461
172.500	163.552	80.007	19.994	103.979	19.931	3.921	0.510
173.000	163.814	80.006	19.994	103.980	19.932	3.869	0.533
173.500	164.033	80.006	19.993	103.981	19.932	3.883	0.502
174.000	164.324	80.005	19.994	103.979	19.933	3.785	0.495
174.500	164.554	80.006	19.994	103.977	19.932	3.819	0.515
175.000	164.819	80.008	19.993	103.977	19.934	3.701	0.508
175.500	165.033	80.007	19.993	103.977	19.927	4.223	0.487
176.000	165.293	80.008	19.993	103.977	19.930	3.995	0.477
176.501	165.532	80.006	19.993	103.977	19.932	3.829	0.487
177.000	165.800	80.007	19.993	103.979	19.932	3.817	0.503
177.500	166.051	80.007	19.993	103.979	19.933	3.799	0.513
178.000	166.305	80.008	19.993	103.978	19.931	3.927	0.512
178.500	166.542	80.006	19.995	103.978	19.932	3.845	0.498
179.000	166.831	80.006	19.995	103.977	19.933	3.773	0.508
179.501	167.102	80.008	19.994	103.975	19.934	3.733	0.543
180.000	167.307	80.007	19.994	103.975	19.935	3.666	0.518
180.500	167.584	80.008	19.994	103.975	19.933	3.810	0.479
181.001	167.812	80.008	19.994	103.975	19.935	3.668	0.493
181.501	168.070	80.008	19.994	103.975	19.932	3.840	0.496
182.000	168.338	80.008	19.994	103.976	19.931	3.912	0.507
182.500	168.538	80.009	19.995	103.977	19.934	3.719	0.497
183.000	168.773	80.008	19.993	103.977	19.933	3.775	0.451
183.500	169.038	80.008	19.993	103.978	19.935	3.625	0.467
184.000	169.306	80.009	19.994	103.977	19.932	3.885	0.517
184.500	169.548	80.009	19.993	103.977	19.930	4.005	0.522
185.000	169.812	80.007	19.993	103.975	19.933	3.767	0.508
185.500	170.041	80.008	19.993	103.974	19.931	3.911	0.500
186.000	170.312	80.009	19.993	103.971	19.932	3.887	0.496
186.500	170.512	80.009	19.992	103.968	19.934	3.727	0.485
187.000	170.753	80.008	19.993	103.965	19.929	4.043	0.456
187.500	171.020	80.008	19.994	103.965	19.933	3.787	0.475
188.000	171.247	80.008	19.993	103.966	19.934	3.735	0.501
188.500	171.487	80.008	19.994	103.968	19.932	3.875	0.481
189.000	171.699	80.008	19.991	103.971	19.933	3.791	0.460
189.500	171.981	80.009	19.993	103.971	19.931	3.913	0.473
190.000	172.218	80.008	19.993	103.968	19.930	3.973	0.506
190.500	172.437	80.007	19.993	103.963	19.931	3.901	0.488
191.000	172.700	80.009	19.993	103.958	19.933	3.757	0.469
191.500	172.972	80.010	19.994	103.952	19.932	3.863	0.509
192.000	173.206	80.008	19.993	103.953	19.933	3.761	0.521
192.500	173.448	80.008	19.993	103.956	19.933	3.759	0.491
193.000	173.688	80.009	19.993	103.960	19.934	3.703	0.479
193.501	173.947	80.007	19.993	103.965	19.933	3.793	0.490
194.000	174.198	80.008	19.993	103.973	19.931	3.961	0.504
194.501	174.423	80.007	19.992	103.974	19.933	3.757	0.493
195.001	174.722	80.007	19.994	103.976	19.930	3.965	0.500
195.500	174.933	80.009	19.995	103.978	19.930	3.981	0.517
196.000	175.179	80.008	19.994	103.977	19.931	3.921	0.483
196.500	175.445	80.007	19.995	103.971	19.932	3.831	0.484
197.000	175.673	80.007	19.994	103.968	19.934	3.687	0.504
197.500	175.894	80.007	19.995	103.967	19.934	3.691	0.471
198.000	176.151	80.009	19.994	103.967	19.933	3.751	0.463
198.500	176.384	80.009	19.994	103.968	19.934	3.723	0.484
199.000	176.647	80.009	19.993	103.974	19.933	3.780	0.494
199.500	176.890	80.007	19.994	103.979	19.931	3.922	0.501
200.000	177.128	80.008	19.994	103.979	19.934	3.684	0.493
200.500	177.362	80.008	19.992	103.979	19.935	3.630	0.476
201.000	177.614	80.008	19.993	103.979	19.933	3.782	0.479
201.500	177.879	80.008	19.992	103.979	19.933	3.742	0.502
202.000	178.131	80.008	19.994	103.979	19.932	3.881	0.517
202.500	178.346	80.008	19.993	103.978	19.931	3.923	0.492
203.000	178.625	80.007	19.993	103.976	19.933	3.771	0.481
203.500	178.855	80.008	19.993	103.973	19.933	3.743	0.502
204.000	179.093	80.007	19.993	103.971	19.930	4.015	0.488
204.500	179.369	80.008	19.993	103.969	19.932	3.877	0.491
205.000	179.628	80.009	19.994	103.970	19.935	3.650	0.525
205.500	179.870	80.008	19.993	103.970	19.934	3.702	0.518
206.000	180.114	80.009	19.993	103.973	19.932	3.880	0.493
206.500	180.373	80.008	19.992	103.976	19.930	4.010	0.494
207.000	180.603	80.009	19.993	103.977	19.931	3.918	0.496
207.500	180.848	80.008	19.992	103.975	19.931	3.930	0.482
208.000	181.122	80.010	19.994	103.974	19.934	3.728	0.497
208.500	181.363	80.009	19.991	103.971	19.930	4.014	0.517
209.000	181.565	80.010	19.993	103.968	19.931	3.920	0.479
209.500	181.821	80.009	19.992	103.964	19.930	3.966	0.450
210.000	182.103	80.010	19.994	103.961	19.933	3.786	0.498
210.500	182.311	80.009	19.994	103.957	19.930	3.992	0.514
211.000	182.603	80.009	19.994	103.957	19.935	3.634	0.495
211.500	182.841	80.009	19.993	103.959	19.933	3.814	0.515
212.000	183.063	80.009	19.993	103.960	19.932	3.850	0.495
212.500	183.306	80.010	19.993	103.962	19.931	3.930	0.463
213.000	183.610	80.009	19.993	103.965	19.933	3.764	0.506
213.500	183.803	80.009	19.993	103.969	19.935	3.616	0.522
214.000	184.109	80.010	19.993	103.968	19.935	3.654	0.498
214.500	184.323	80.009	19.992	103.967	19.931	3.910	0.510
215.000	184.562	80.009	19.993	103.965	19.933	3.804	0.487
215.500	184.836	80.009	19.994	103.964	19.935	3.658	0.483
216.000	185.060	80.009	19.993	103.959	19.932	3.842	0.505
216.500	185.344	80.009	19.993	103.954	19.934	3.734	0.503
217.000	185.581	80.010	19.993	103.953	19.932	3.884	0.515
217.500	185.840	80.009	19.994	103.951	19.934	3.674	0.509
218.000	186.100	80.008	19.993	103.946	19.935	3.608	0.508
218.500	186.333	80.009	19.993	103.945	19.933	3.812	0.506
219.000	186.600	80.008	19.994	103.944	19.934	3.698	0.497
219.500	186.829	80.010	19.994	103.942	19.935	3.620	0.498
220.000	187.126	80.009	19.993	103.944	19.935	3.598	0.511
220.500	187.371	80.008	19.994	103.944	19.936	3.558	0.533
221.000	187.595	80.008	19.993	103.944	19.936	3.552	0.505
221.500	187.868	80.007	19.993	103.944	19.938	3.398	0.483
222.000	188.101	80.006	19.994	103.941	19.936	3.558	0.502
222.500	188.309	80.006	19.995	103.939	19.940	3.262	0.474
223.000	188.554	80.006	19.993	103.938	19.938	3.394	0.447
223.500	188.809	80.007	19.994	103.940	19.937	3.480	0.476
224.000	189.087	80.008	19.994	103.941	19.937	3.502	0.516
224.500	189.311	80.006	19.994	103.943	19.935	3.598	0.518
225.000	189.519	80.008	19.994	103.943	19.939	3.342	0.467
225.500	189.806	80.007	19.995	103.943	19.940	3.248	0.463
226.000	190.056	80.007	19.994	103.942	19.938	3.386	0.516
226.500	190.357	80.007	19.993	103.940	19.938	3.450	0.544
227.000	190.549	80.006	19.995	103.939	19.935	3.656	0.522
227.500	190.845	80.007	19.994	103.940	19.938	3.390	0.490
228.000	191.048	80.006	19.993	103.941	19.937	3.492	0.494
228.500	191.278	80.006	19.994	103.941	19.938	3.450	0.466
229.000	191.526	80.007	19.994	103.940	19.939	3.342	0.456
229.500	191.799	80.008	19.994	103.939	19.939	3.318	0.500
230.001	192.025	80.007	19.994	103.937	19.936	3.578	0.510
230.500	192.279	80.007	19.994	103.939	19.940	3.300	0.489
231.000	192.530	80.007	19.993	103.939	19.940	3.294	0.493
231.500	192.770	80.009	19.993	103.940	19.941	3.220	0.498
232.000	193.032	80.007	19.994	103.940	19.940	3.250	0.496
232.500	193.267	80.007	19.993	103.940	19.940	3.266	0.499
233.000	193.518	80.007	19.993	103.939	19.941	3.186	0.492
233.500	193.769	80.008	19.994	103.939	19.938	3.394	0.494
234.000	194.012	80.006	19.994	103.940	19.940	3.280	0.498
234.500	194.284	80.007	19.993	103.940	19.939	3.360	0.505
235.000	194.518	80.007	19.994	103.940	19.941	3.206	0.511
235.500	194.760	80.008	19.994	103.939	19.939	3.322	0.491
236.000	195.003	80.008	19.994	103.938	19.938	3.426	0.480
236.500	195.257	80.008	19.993	103.937	19.937	3.516	0.491
237.000	195.501	80.008	19.995	103.937	19.940	3.296	0.498
237.500	195.766	80.007	19.993	103.937	19.939	3.372	0.503
238.000	195.981	80.006	19.994	103.938	19.941	3.192	0.494
238.500	196.228	80.008	19.993	103.938	19.938	3.410	0.471
239.000	196.445	80.007	19.995	103.938	19.936	3.586	0.463
239.500	196.730	80.008	19.994	103.939	19.936	3.594	0.483
240.000	197.002	80.008	19.994	103.939	19.938	3.398	0.530
240.500	197.197	80.008	19.993	103.940	19.938	3.398	0.512
241.000	197.452	80.007	19.993	103.942	19.938	3.400	0.458
241.500	197.710	80.009	19.994	103.943	19.936	3.574	0.482
242.000	197.930	80.006	19.995	103.944	19.934	3.672	0.495
242.500	198.207	80.008	19.994	103.944	19.935	3.602	0.487
243.000	198.436	80.007	19.994	103.943	19.939	3.352	0.502
243.500	198.691	80.007	19.994	103.941	19.939	3.374	0.495
244.000	198.943	80.007	19.995	103.940	19.936	3.596	0.496
244.500	199.200	80.008	19.994	103.939	19.936	3.556	0.508
245.001	199.434	80.008	19.995	103.938	19.937	3.488	0.500
245.501	199.687	80.007	19.994	103.938	19.935	3.598	0.489
246.000	199.949	80.008	19.994	103.938	19.937	3.452	0.501
246.500	200.195	80.008	19.994	103.938	19.938	3.430	0.512
247.000	200.414	80.006	19.995	103.938	19.938	3.438	0.487
247.500	200.663	80.008	19.995	103.938	19.937	3.464	0.467
248.000	200.916	80.008	19.995	103.938	19.937	3.520	0.485
248.500	201.155	80.007	19.995	103.943	19.939	3.306	0.496
249.000	201.421	80.007	19.995	103.946	19.938	3.440	0.498
249.500	201.664	80.007	19.994	103.950	19.936	3.530	0.507
250.000	201.888	80.006	19.994	103.954	19.941	3.180	0.488
250.500	202.148	80.007	19.995	103.955	19.936	3.582	0.476
251.000	202.392	80.008	19.994	103.950	19.936	3.574	0.494
251.500	202.620	80.006	19.995	103.946	19.938	3.402	0.488
252.000	202.901	80.006	19.995	103.942	19.939	3.328	0.490
252.500	203.113	80.005	19.994	103.939	19.940	3.300	0.501
253.000	203.326	80.005	19.996	103.937	19.938	3.396	0.459
253.500	203.622	80.007	19.995	103.938	19.938	3.398	0.467
254.000	203.845	80.007	19.995	103.940	19.937	3.510	0.514
254.500	204.098	80.007	19.993	103.940	19.939	3.334	0.497
255.000	204.337	80.006	19.998	103.944	19.937	3.506	0.484
255.500	204.565	80.007	19.997	103.946	19.937	3.504	0.480
256.000	204.808	80.006	19.996	103.947	19.939	3.368	0.469
256.500	205.061	80.006	19.996	103.946	19.941	3.206	0.483
257.000	205.334	80.007	19.995	103.947	19.938	3.396	0.511
257.500	205.559	80.006	19.996	103.944	19.937	3.514	0.512
258.000	205.780	80.006	19.995	103.941	19.936	3.552	0.472
258.500	206.074	80.007	19.996	103.940	19.938	3.436	0.481
259.000	206.333	80.006	19.996	103.940	19.938	3.414	0.534
259.500	206.535	80.007	19.996	103.940	19.937	3.488	0.507
260.000	206.817	80.008	19.996	103.940	19.939	3.366	0.473
260.500	207.084	80.007	19.992	103.940	19.939	3.374	0.517
261.000	207.287	80.007	19.995	103.941	19.940	3.300	0.509
261.500	207.546	80.007	19.995	103.942	19.938	3.386	0.466
262.000	207.822	80.007	19.994	103.942	19.937	3.452	0.499
262.500	208.051	80.007	19.994	103.942	19.934	3.708	0.520
263.000	208.283	80.007	19.994	103.943	19.936	3.594	0.483
263.500	208.554	80.007	19.994	103.942	19.937	3.490	0.482
264.000	208.788	80.008	19.994	103.941	19.938	3.436	0.504
264.500	209.042	80.008	19.994	103.941	19.935	3.630	0.497
265.000	209.306	80.008	19.994	103.941	19.936	3.580	0.503
265.500	209.550	80.007	19.994	103.941	19.939	3.372	0.513
266.000	209.771	80.008	19.993	103.941	19.934	3.694	0.487
266.500	209.998	80.007	19.993	103.941	19.939	3.376	0.457
267.000	210.258	80.008	19.993	103.941	19.938	3.414	0.468
267.500	210.496	80.007	19.993	103.941	19.937	3.474	0.492
268.000	210.788	80.009	19.993	103.941	19.937	3.504	0.514
268.500	211.029	80.009	19.993	103.940	19.938	3.384	0.532
269.000	211.281	80.008	19.994	103.944	19.938	3.396	0.513
269.500	211.501	80.009	19.993	103.944	19.938	3.448	0.482
270.000	211.757	80.008	19.993	103.944	19.936	3.548	0.474
270.500	212.006	80.008	19.994	103.944	19.938	3.432	0.491
271.000	212.239	80.008	19.994	103.943	19.938	3.436	0.493
271.500	212.502	80.007	19.992	103.940	19.937	3.468	0.489
272.000	212.706	80.011	19.992	103.940	19.936	3.588	0.482
272.500	212.987	80.008	19.993	103.939	19.938	3.408	0.476
273.000	213.228	80.009	19.994	103.939	19.937	3.488	0.503
273.500	213.494	80.009	19.994	103.940	19.936	3.590	0.514
274.000	213.729	80.009	19.993	103.940	19.939	3.372	0.504
274.500	213.950	80.008	19.993	103.939	19.938	3.406	0.479
275.000	214.264	80.008	19.993	103.939	19.938	3.446	0.495
275.500	214.474	80.009	19.993	103.938	19.939	3.360	0.529
276.000	214.731	80.009	19.993	103.939	19.937	3.522	0.496
276.500	214.935	80.008	19.993	103.939	19.939	3.350	0.464
277.000	215.191	80.008	19.993	103.939	19.937	3.458	0.460
277.501	215.433	80.009	19.994	103.939	19.936	3.534	0.479
278.000	215.674	80.005	19.994	103.939	19.936	3.558	0.491
278.500	215.896	80.008	19.993	103.939	19.938	3.400	0.473
279.001	216.156	80.007	19.993	103.938	19.940	3.242	0.472
279.501	216.420	80.006	19.993	103.939	19.941	3.232	0.503
280.000	216.661	80.008	19.994	103.940	19.939	3.318	0.515
280.500	216.928	80.007	19.994	103.941	19.943	3.056	0.506
281.000	217.148	80.008	19.994	103.941	19.941	3.222	0.497
281.500	217.396	80.008	19.994	103.943	19.943	3.070	0.478
282.000	217.658	80.007	19.993	103.942	19.938	3.438	0.489
282.500	217.895	80.008	19.992	103.938	19.943	3.026	0.504
283.000	218.167	80.007	19.993	103.932	19.942	3.144	0.505
283.501	218.395	80.008	19.994	103.931	19.937	3.519	0.505
284.000	218.604	80.008	19.993	103.931	19.942	3.102	0.468
284.500	218.865	80.008	19.993	103.931	19.941	3.205	0.453
285.000	219.135	80.009	19.994	103.935	19.940	3.277	0.501
285.500	219.396	80.008	19.994	103.940	19.940	3.255	0.531
286.000	219.643	80.007	19.993	103.940	19.943	3.068	0.519
286.500	219.877	80.008	19.994	103.938	19.939	3.306	0.494
287.000	220.090	80.009	19.993	103.938	19.943	3.042	0.464
287.500	220.373	80.009	19.994	103.937	19.943	3.060	0.472
288.000	220.590	80.008	19.992	103.937	19.945	2.936	0.498
288.500	220.829	80.009	19.993	103.933	19.944	3.004	0.478
289.000	221.101	80.008	19.994	103.934	19.940	3.238	0.483
289.500	221.306	80.008	19.994	103.933	19.939	3.340	0.494
290.000	221.605	80.009	19.992	103.933	19.941	3.222	0.491
290.500	221.855	80.010	19.994	103.933	19.938	3.414	0.526
291.000	222.103	80.010	19.994	103.937	19.943	3.044	0.524
291.500	222.329	80.010	19.993	103.937	19.941	3.184	0.486
292.000	222.566	80.009	19.994	103.933	19.940	3.294	0.468
292.500	222.846	80.010	19.994	103.932	19.941	3.180	0.490
293.000	223.072	80.011	19.992	103.932	19.939	3.324	0.511
293.500	223.351	80.008	19.992	103.929	19.940	3.254	0.506
294.000	223.587	80.010	19.994	103.923	19.941	3.178	0.510
294.500	223.843	80.009	19.993	103.920	19.941	3.164	0.503
295.000	224.082	80.010	19.993	103.921	19.940	3.270	0.493
295.500	224.322	80.012	19.993	103.920	19.940	3.278	0.487
296.000	224.585	80.011	19.994	103.919	19.939	3.344	0.491
296.500	224.802	80.010	19.992	103.923	19.939	3.316	0.492
297.000	225.042	80.010	19.994	103.930	19.940	3.238	0.469
297.500	225.300	80.011	19.993	103.929	19.939	3.342	0.477
298.000	225.532	80.011	19.993	103.930	19.939	3.336	0.494
298.500	225.779	80.011	19.993	103.932	19.942	3.090	0.484
299.000	226.048	80.010	19.993	103.932	19.940	3.272	0.497
299.500	226.235	80.010	19.992	103.931	19.942	3.144	0.486
300.000	226.502	80.009	19.992	103.932	19.939	3.374	0.455
300.500	226.764	80.010	19.994	103.933	19.940	3.284	0.492
301.000	226.989	80.010	19.993	103.934	19.938	3.406	0.508
301.500	227.229	80.010	19.993	103.936	19.939	3.360	0.476
302.000	227.463	80.008	19.993	103.937	19.936	3.526	0.469
302.500	227.770	80.009	19.993	103.936	19.938	3.382	0.508
303.000	227.995	80.008	19.994	103.937	19.939	3.336	0.537
303.500	228.229	80.008	19.993	103.935	19.936	3.560	0.495
304.000	228.509	80.008	19.992	103.935	19.938	3.428	0.486
304.500	228.737	80.008	19.993	103.935	19.935	3.636	0.511
305.000	228.981	80.008	19.994	103.936	19.937	3.456	0.490
305.500	229.243	80.008	19.993	103.936	19.936	3.564	0.489
306.000	229.500	80.008	19.994	103.938	19.934	3.682	0.512
306.500	229.724	80.008	19.993	103.938	19.936	3.532	0.500
307.000	229.994	80.008	19.992	103.938	19.936	3.540	0.488
307.500	230.270	80.007	19.994	103.939	19.935	3.620	0.520
308.000	230.488	80.008	19.992	103.939	19.938	3.450	0.520
308.500	230.762	80.008	19.994	103.939	19.936	3.580	0.493
309.000	231.003	80.006	19.994	103.939	19.935	3.616	0.504
309.500	231.253	80.008	19.994	103.938	19.937	3.514	0.503
310.000	231.497	80.006	19.993	103.938	19.934	3.682	0.493
310.500	231.751	80.007	19.996	103.938	19.937	3.518	0.496
311.000	232.004	80.007	19.995	103.939	19.936	3.558	0.502
311.500	232.232	80.008	19.995	103.939	19.938	3.402	0.494
312.000	232.499	80.006	19.994	103.939	19.936	3.570	0.488
312.500	232.761	80.007	19.994	103.938	19.934	3.690	0.512
313.000	232.992	80.008	19.994	103.938	19.937	3.472	0.511
313.500	233.226	80.007	19.995	103.937	19.936	3.576	0.479
314.000	233.468	80.007	19.994	103.936	19.939	3.376	0.471
314.500	233.775	80.006	19.994	103.937	19.940	3.274	0.513
315.000	233.986	80.008	19.997	103.938	19.937	3.480	0.533
315.500	234.222	80.007	19.997	103.939	19.937	3.512	0.482
316.000	234.478	80.008	19.996	103.939	19.939	3.358	0.469
316.500	234.735	80.007	19.995	103.940	19.938	3.440	0.502
317.000	234.978	80.005	19.996	103.940	19.940	3.274	0.507
317.500	235.204	80.008	19.995	103.940	19.939	3.366	0.485
318.000	235.460	80.007	19.995	103.939	19.940	3.302	0.475
318.500	235.737	80.008	19.995	103.938	19.941	3.184	0.507
319.000	235.929	80.009	19.994	103.937	19.944	3.008	0.501
319.500	236.195	80.008	19.994	103.936	19.938	3.403	0.464
320.000	236.507	80.008	19.994	103.936	19.941	3.232	0.518
320.500	236.748	80.008	19.995	103.937	19.940	3.282	0.565
321.000	237.023	80.007	19.993	103.937	19.938	3.442	0.534
321.500	237.245	80.008	19.994	103.938	19.940	3.250	0.506
322.000	237.531	80.008	19.995	103.938	19.938	3.384	0.503
322.500	237.734	80.008	19.994	103.937	19.938	3.442	0.499
323.000	237.967	80.008	19.994	103.935	19.938	3.410	0.463
323.500	238.246	80.009	19.995	103.935	19.938	3.450	0.474
324.000	238.505	80.007	19.994	103.936	19.937	3.470	0.525
324.500	238.742	80.008	19.993	103.937	19.940	3.266	0.517
325.000	239.008	80.008	19.994	103.938	19.940	3.284	0.500
325.500	239.280	80.007	19.993	103.940	19.937	3.502	0.520
326.000	239.512	80.008	19.994	103.939	19.940	3.244	0.521
326.500	239.731	80.007	19.994	103.938	19.937	3.473	0.478
327.000	240.029	80.008	19.994	103.938	19.941	3.190	0.484
327.500	240.238	80.008	19.994	103.938	19.938	3.415	0.512
328.000	240.526	80.008	19.994	103.938	19.939	3.329	0.502
328.500	240.764	80.007	19.994	103.940	19.936	3.593	0.512
329.000	241.040	80.007	19.994	103.938	19.937	3.505	0.521
329.500	241.253	80.007	19.994	103.934	19.939	3.359	0.502
330.000	241.552	80.006	19.994	103.931	19.938	3.406	0.500
330.500	241.805	80.008	19.995	103.927	19.938	3.418	0.532
331.000	242.063	80.006	19.994	103.926	19.939	3.355	0.531
331.501	242.333	80.008	19.994	103.927	19.935	3.617	0.519
332.000	242.592	80.007	19.994	103.929	19.939	3.373	0.528
332.500	242.844	80.007	19.994	103.929	19.937	3.455	0.520
333.000	243.094	80.007	19.995	103.933	19.940	3.301	0.507
333.500	243.316	80.007	19.994	103.933	19.936	3.547	0.487
334.000	243.581	80.008	19.994	103.933	19.938	3.439	0.480
334.500	243.826	80.007	19.993	103.936	19.939	3.373	0.499
335.000	244.087	80.008	19.994	103.938	19.936	3.543	0.507
335.500	244.332	80.007	19.994	103.938	19.938	3.443	0.506
336.000	244.567	80.006	19.994	103.939	19.935	3.647	0.493
336.500	244.878	80.008	19.994	103.939	19.941	3.161	0.513
337.000	245.111	80.006	19.994	103.934	19.938	3.419	0.545
337.500	245.342	80.006	19.995	103.928	19.937	3.487	0.504
338.000	245.577	80.006	19.994	103.922	19.938	3.445	0.465
338.500	245.868	80.005	19.995	103.920	19.937	3.453	0.496
339.000	246.103	80.006	19.995	103.917	19.938	3.423	0.525
339.500	246.376	80.006	19.995	103.921	19.939	3.309	0.517
340.000	246.655	80.007	19.994	103.923	19.939	3.323	0.530
340.500	246.859	80.006	19.995	103.925	19.938	3.441	0.517
341.000	247.126	80.005	19.995	103.928	19.937	3.455	0.477
341.500	247.364	80.006	19.996	103.930	19.936	3.547	0.488
342.000	247.655	80.006	19.995	103.926	19.938	3.441	0.517
342.500	247.898	80.007	19.996	103.926	19.935	3.637	0.531
343.000	248.144	80.005	19.995	103.923	19.936	3.587	0.512
343.500	248.402	80.008	19.994	103.921	19.937	3.481	0.497
344.000	248.644	80.005	19.994	103.919	19.939	3.355	0.502
344.500	248.929	80.006	19.996	103.918	19.938	3.401	0.514
345.000	249.160	80.005	19.994	103.918	19.937	3.451	0.522
345.500	249.413	80.007	19.995	103.922	19.939	3.367	0.500
346.000	249.699	80.007	19.995	103.922	19.938	3.449	0.511
346.500	249.948	80.007	19.995	103.921	19.937	3.509	0.537
347.000	250.192	80.007	19.994	103.920	19.940	3.269	0.514
347.500	250.462	80.007	19.996	103.920	19.938	3.387	0.504
348.000	250.700	80.007	19.995	103.916	19.940	3.245	0.511
348.500	250.942	80.007	19.995	103.911	19.939	3.309	0.494
349.000	251.222	80.007	19.994	103.909	19.941	3.175	0.501
349.500	251.491	80.008	19.994	103.912	19.938	3.393	0.535
350.000	251.765	80.008	19.994	103.911	19.939	3.373	0.546
350.500	252.002	80.010	19.995	103.909	19.939	3.377	0.527
351.000	252.238	80.008	19.994	103.910	19.938	3.389	0.492
351.500	252.510	80.008	19.996	103.911	19.935	3.625	0.491
352.000	252.755	80.009	19.994	103.908	19.935	3.663	0.513
352.500	253.024	80.009	19.994	103.909	19.939	3.347	0.515
353.001	253.262	80.009	19.994	103.908	19.938	3.405	0.510
353.500	253.506	80.007	19.995	103.907	19.936	3.551	0.494
354.000	253.752	80.008	19.994	103.904	19.935	3.609	0.486
354.500	254.016	80.009	19.994	103.904	19.936	3.553	0.500
355.000	254.243	80.008	19.995	103.902	19.939	3.371	0.501
355.500	254.514	80.009	19.995	103.903	19.937	3.497	0.495
356.000	254.753	80.008	19.994	103.905	19.938	3.425	0.504
356.500	255.017	80.008	19.994	103.908	19.939	3.353	0.506
357.000	255.279	80.008	19.994	103.908	19.937	3.473	0.515
357.500	255.540	80.009	19.995	103.906	19.938	3.395	0.525
358.000	255.803	80.008	19.994	103.906	19.940	3.297	0.523
358.500	256.055	80.009	19.993	103.905	19.937	3.465	0.519
359.000	256.264	80.010	19.994	103.903	19.937	3.505	0.488
359.500	256.542	80.008	19.994	103.905	19.941	3.181	0.474
360.000	256.773	80.009	19.994	103.905	19.941	3.199	0.498
360.500	257.024	80.007	19.995	103.905	19.941	3.163	0.496
361.000	257.301	80.009	19.994	103.905	19.938	3.383	0.505
361.500	257.561	80.007	19.993	103.906	19.936	3.577	0.532
362.000	257.810	80.008	19.994	103.904	19.937	3.515	0.523
362.500	258.095	80.009	19.994	103.905	19.936	3.539	0.522
363.000	258.328	80.010	19.992	103.909	19.937	3.521	0.526
363.500	258.536	80.008	19.994	103.912	19.938	3.419	0.480
364.000	258.829	80.009	19.993	103.913	19.939	3.355	0.471
364.500	259.095	80.008	19.994	103.912	19.938	3.425	0.530
365.000	259.328	80.009	19.994	103.910	19.938	3.395	0.528
365.500	259.585	80.009	19.995	103.906	19.936	3.595	0.494
366.000	259.811	80.008	19.993	103.902	19.937	3.489	0.486
366.500	260.085	80.008	19.994	103.903	19.937	3.473	0.492
367.001	260.283	80.009	19.993	103.903	19.935	3.611	0.487
367.501	260.527	80.007	19.994	103.903	19.936	3.590	0.457
368.000	260.809	80.008	19.993	103.903	19.937	3.510	0.483
368.500	261.034	80.009	19.993	103.904	19.934	3.672	0.516
369.000	261.294	80.010	19.994	103.902	19.938	3.449	0.497
369.500	261.551	80.009	19.993	103.902	19.938	3.397	0.501
370.000	261.815	80.008	19.994	103.902	19.939	3.369	0.518
370.500	262.075	80.009	19.993	103.903	19.938	3.379	0.522
371.000	262.330	80.009	19.992	103.903	19.938	3.383	0.519
371.500	262.584	80.010	19.993	103.904	19.939	3.305	0.512
372.000	262.850	80.010	19.994	103.907	19.939	3.331	0.515
372.500	263.056	80.010	19.994	103.907	19.938	3.381	0.496
373.000	263.300	80.010	19.993	103.906	19.940	3.291	0.461
373.500	263.570	80.009	19.994	103.905	19.938	3.427	0.482
374.000	263.830	80.010	19.992	103.904	19.939	3.327	0.522
374.500	264.061	80.009	19.993	103.903	19.938	3.409	0.510
375.001	264.332	80.009	19.995	103.902	19.939	3.341	0.496
375.501	264.600	80.011	19.994	103.907	19.940	3.299	0.521
376.000	264.810	80.010	19.994	103.909	19.941	3.213	0.508
376.500	265.077	80.010	19.995	103.910	19.941	3.179	0.478
377.000	265.307	80.010	19.994	103.909	19.937	3.509	0.487
377.500	265.618	80.012	19.995	103.909	19.938	3.383	0.519
378.000	265.853	80.011	19.995	103.904	19.936	3.537	0.544
378.500	266.066	80.011	19.993	103.901	19.939	3.357	0.497
379.000	266.293	80.010	19.994	103.899	19.938	3.403	0.444
379.500	266.577	80.011	19.993	103.898	19.937	3.455	0.476
380.000	266.795	80.010	19.994	103.899	19.941	3.203	0.507
380.500	267.041	80.011	19.994	103.899	19.940	3.259	0.483
381.001	267.310	80.010	19.993	103.899	19.940	3.277	0.490
381.500	267.576	80.010	19.993	103.899	19.943	3.049	0.525
382.000	267.822	80.010	19.993	103.898	19.940	3.269	0.523
382.500	268.045	80.010	19.993	103.899	19.941	3.161	0.491
383.000	268.282	80.010	19.993	103.900	19.940	3.289	0.464
383.500	268.564	80.009	19.993	103.900	19.940	3.269	0.489
384.000	268.818	80.008	19.993	103.900	19.939	3.357	0.527
384.500	269.057	80.009	19.993	103.901	19.943	3.027	0.515
385.000	269.312	80.009	19.994	103.902	19.942	3.093	0.494
385.500	269.532	80.007	19.993	103.901	19.939	3.377	0.485
386.000	269.823	80.007	19.995	103.902	19.941	3.175	0.493
386.500	270.067	80.009	19.992	103.903	19.940	3.273	0.523
387.000	270.337	80.008	19.992	103.904	19.941	3.213	0.524
387.500	270.595	80.007	19.994	103.903	19.939	3.367	0.521
388.000	270.845	80.009	19.994	103.905	19.935	3.609	0.518
388.500	271.095	80.008	19.993	103.904	19.938	3.417	0.504
389.000	271.393	80.005	19.993	103.904	19.939	3.333	0.523
389.501	271.643	80.007	19.993	103.904	19.937	3.451	0.548
390.000	271.890	80.006	19.992	103.905	19.939	3.375	0.523
390.500	272.166	80.008	19.992	103.904	19.938	3.395	0.511
391.000	272.375	80.006	19.993	103.905	19.938	3.387	0.504
391.500	272.597	80.008	19.994	103.908	19.937	3.459	0.458
392.000	272.876	80.007	19.992	103.908	19.940	3.251	0.466
392.500	273.121	80.006	19.994	103.907	19.939	3.333	0.512
393.000	273.358	80.008	19.992	103.908	19.939	3.373	0.503
393.500	273.605	80.007	19.993	103.907	19.937	3.505	0.483
394.000	273.856	80.007	19.996	103.905	19.935	3.636	0.491
394.500	274.104	80.008	19.995	103.904	19.937	3.463	0.499
395.000	274.365	80.007	19.996	103.905	19.938	3.397	0.504
395.500	274.621	80.009	19.994	103.905	19.937	3.505	0.513
396.000	274.855	80.008	19.995	103.907	19.937	3.479	0.504
396.500	275.099	80.008	19.994	103.906	19.935	3.615	0.484
397.000	275.361	80.008	19.995	103.906	19.938	3.385	0.492
397.500	275.602	80.008	19.994	103.905	19.939	3.375	0.505
398.000	275.863	80.008	19.994	103.905	19.936	3.555	0.503
398.500	276.131	80.008	19.994	103.903	19.938	3.415	0.516
399.000	276.345	80.007	19.993	103.903	19.939	3.313	0.505
399.500	276.599	80.007	19.993	103.903	19.941	3.215	0.474
400.000	276.857	80.008	19.993	103.903	19.937	3.521	0.490
400.500	277.110	80.007	19.993	103.903	19.939	3.333	0.511
401.000	277.351	80.007	19.993	103.903	19.937	3.487	0.502
401.500	277.573	80.007	19.993	103.905	19.937	3.481	0.479
402.000	277.837	80.007	19.993	103.906	19.938	3.407	0.475
402.500	278.083	80.007	19.994	103.907	19.936	3.528	0.498
403.000	278.300	80.008	19.994	103.906	19.937	3.496	0.487
403.500	278.561	80.008	19.994	103.906	19.936	3.564	0.471
404.000	278.831	80.008	19.993	103.905	19.936	3.570	0.504
404.500	279.056	80.007	19.994	103.904	19.940	3.255	0.513
405.000	279.316	80.007	19.993	103.904	19.938	3.403	0.490
405.500	279.564	80.007	19.994	103.904	19.937	3.514	0.496
406.000	279.827	80.007	19.994	103.905	19.936	3.529	0.509
406.500	280.091	80.007	19.993	103.904	19.934	3.692	0.519
407.000	280.339	80.008	19.993	103.904	19.934	3.718	0.520
407.500	280.593	80.008	19.994	103.904	19.940	3.279	0.507
408.000	280.813	80.006	19.994	103.903	19.936	3.582	0.488
408.500	281.046	80.007	19.994	103.903	19.935	3.608	0.463
409.000	281.294	80.008	19.995	103.903	19.934	3.732	0.467
409.500	281.584	80.007	19.995	103.903	19.934	3.682	0.510
410.000	281.807	80.007	19.994	103.902	19.936	3.570	0.526
410.500	282.042	80.006	19.993	103.903	19.933	3.780	0.485
411.000	282.292	80.006	19.993	103.905	19.932	3.850	0.471
411.500	282.547	80.006	19.994	103.906	19.937	3.516	0.495
412.000	282.796	80.007	19.993	103.905	19.936	3.560	0.505
412.500	283.044	80.007	19.994	103.904	19.937	3.461	0.501
413.000	283.291	80.008	19.994	103.903	19.937	3.455	0.495
413.500	283.547	80.005	19.994	103.898	19.937	3.510	0.498
414.000	283.761	80.009	19.995	103.897	19.937	3.502	0.487
414.500	284.063	80.006	19.994	103.893	19.938	3.415	0.493
415.000	284.302	80.008	19.994	103.892	19.939	3.309	0.528
415.500	284.503	80.007	19.993	103.894	19.938	3.441	0.491
416.000	284.768	80.007	19.996	103.899	19.940	3.287	0.453
416.500	285.029	80.008	19.995	103.899	19.936	3.540	0.496
417.000	285.250	80.006	19.995	103.904	19.939	3.343	0.503
417.500	285.524	80.007	19.995	103.904	19.938	3.415	0.488
418.000	285.722	80.006	19.993	103.903	19.940	3.237	0.484
418.500	286.018	80.008	19.994	103.900	19.938	3.383	0.483
419.000	286.255	80.008	19.994	103.899	19.939	3.309	0.513
419.500	286.514	80.007	19.995	103.899	19.937	3.468	0.514
420.000	286.767	80.006	19.994	103.899	19.941	3.207	0.504
420.501	287.017	80.009	19.995	103.899	19.938	3.399	0.508
421.001	287.306	80.007	19.994	103.899	19.941	3.199	0.521
421.500	287.526	80.007	19.994	103.899	19.941	3.187	0.524
422.000	287.791	80.007	19.995	103.899	19.938	3.401	0.497
422.500	288.001	80.006	19.995	103.900	19.939	3.343	0.480
423.001	288.250	80.008	19.996	103.900	19.940	3.275	0.467
423.500	288.534	80.007	19.995	103.900	19.940	3.237	0.496
424.000	288.750	80.007	19.993	103.900	19.941	3.195	0.517
424.500	288.992	80.007	19.995	103.900	19.940	3.299	0.479
425.000	289.259	80.006	19.994	103.899	19.941	3.229	0.484
425.500	289.527	80.008	19.994	103.899	19.940	3.269	0.522
426.000	289.777	80.006	19.994	103.899	19.936	3.532	0.526
426.500	290.001	80.009	19.994	103.899	19.938	3.437	0.496
427.000	290.240	80.008	19.993	103.899	19.938	3.385	0.468
427.500	290.529	80.007	19.996	103.899	19.939	3.305	0.496
428.000	290.798	80.009	19.994	103.899	19.938	3.442	0.543
428.500	291.011	80.009	19.994	103.899	19.937	3.500	0.520
429.000	291.285	80.009	19.994	103.899	19.936	3.580	0.485
429.500	291.568	80.009	19.994	103.898	19.935	3.600	0.522
430.000	291.778	80.009	19.995	103.898	19.937	3.494	0.525
430.500	292.046	80.010	19.994	103.898	19.936	3.530	0.485
431.000	292.271	80.008	19.995	103.898	19.933	3.740	0.485
431.500	292.560	80.008	19.995	103.899	19.935	3.598	0.504
432.000	292.824	80.008	19.993	103.899	19.935	3.606	0.534
432.500	293.066	80.008	19.996	103.899	19.933	3.776	0.529
433.000	293.269	80.008	19.994	103.899	19.937	3.460	0.475
433.500	293.540	80.008	19.994	103.899	19.936	3.584	0.459
434.001	293.795	80.009	19.994	103.897	19.938	3.420	0.500
434.500	294.056	80.007	19.993	103.897	19.938	3.440	0.521
435.000	294.307	80.008	19.995	103.896	19.937	3.512	0.514
435.500	294.557	80.010	19.996	103.896	19.939	3.369	0.506
436.000	294.831	80.009	19.996	103.896	19.940	3.293	0.513
436.500	295.054	80.008	19.996	103.897	19.938	3.418	0.510
437.000	295.301	80.009	19.996	103.897	19.938	3.387	0.483
437.500	295.577	80.010	19.994	103.898	19.938	3.415	0.497
438.000	295.814	80.009	19.994	103.898	19.939	3.351	0.518
438.500	296.058	80.008	19.997	103.898	19.941	3.211	0.497
439.000	296.323	80.008	19.997	103.898	19.939	3.329	0.494
439.500	296.545	80.008	19.995	103.898	19.937	3.461	0.497
440.000	296.783	80.009	19.995	103.898	19.938	3.413	0.474
440.500	297.057	80.007	19.994	103.898	19.942	3.133	0.486
441.000	297.280	80.009	19.996	103.898	19.939	3.327	0.505
441.500	297.534	80.007	19.995	103.898	19.940	3.273	0.487
442.000	297.758	80.007	19.995	103.898	19.941	3.171	0.478
442.500	298.013	80.007	19.995	103.898	19.940	3.265	0.479
443.000	298.270	80.008	19.995	103.897	19.940	3.257	0.495
443.500	298.541	80.007	19.995	103.897	19.941	3.173	0.520
444.000	298.768	80.008	19.995	103.897	19.941	3.207	0.513
444.501	298.987	80.007	19.996	103.896	19.938	3.381	0.472
445.000	299.264	80.005	19.995	103.896	19.938	3.379	0.471
445.500	299.556	80.008	19.995	103.896	19.938	3.421	0.533
446.000	299.761	80.007	19.995	103.897	19.936	3.529	0.533
446.500	300.026	80.008	19.994	103.896	19.937	3.475	0.483
447.000	300.272	80.009	19.995	103.896	19.938	3.381	0.491
447.500	300.470	80.006	19.996	103.897	19.938	3.440	0.478
448.000	300.766	80.009	19.995	103.898	19.937	3.492	0.469
448.500	301.017	80.007	19.994	103.898	19.936	3.568	0.520
449.000	301.253	80.008	19.995	103.898	19.937	3.482	0.517
449.500	301.498	80.010	19.994	103.899	19.937	3.499	0.484
450.000	301.804	80.009	19.993	103.900	19.936	3.566	0.516
450.500	302.032	80.009	19.994	103.899	19.937	3.512	0.543
451.000	302.287	80.009	19.994	103.900	19.936	3.538	0.509
451.500	302.518	80.008	19.994	103.900	19.938	3.439	0.485
452.000	302.769	80.010	19.993	103.900	19.936	3.584	0.484
452.500	303.058	80.009	19.995	103.900	19.936	3.582	0.511
453.000	303.261	80.008	19.994	103.901	19.935	3.608	0.516
453.500	303.512	80.008	19.994	103.901	19.938	3.433	0.473
454.000	303.743	80.010	19.993	103.898	19.940	3.239	0.468
454.500	304.034	80.009	19.994	103.898	19.938	3.391	0.502
455.000	304.247	80.009	19.993	103.899	19.936	3.556	0.512
455.500	304.517	80.010	19.994	103.899	19.938	3.403	0.493
456.000	304.794	80.011	19.995	103.900	19.936	3.526	0.515
456.500	305.016	80.010	19.994	103.902	19.937	3.485	0.523
457.000	305.259	80.010	19.992	103.902	19.938	3.429	0.482
457.500	305.531	80.010	19.993	103.901	19.935	3.666	0.490
458.000	305.766	80.010	19.994	103.898	19.934	3.728	0.511
458.500	305.998	80.012	19.993	103.898	19.936	3.538	0.487
459.000	306.263	80.009	19.993	103.898	19.937	3.478	0.482
459.500	306.497	80.010	19.993	103.899	19.939	3.321	0.498
460.000	306.771	80.011	19.993	103.899	19.936	3.566	0.504
460.500	307.013	80.011	19.993	103.901	19.937	3.519	0.512
461.000	307.250	80.011	19.994	103.901	19.934	3.732	0.497
461.500	307.513	80.010	19.993	103.900	19.935	3.664	0.490
462.000	307.745	80.010	19.994	103.900	19.934	3.694	0.498
462.500	308.017	80.009	19.993	103.900	19.935	3.607	0.500
463.000	308.269	80.010	19.993	103.900	19.935	3.626	0.514
463.500	308.507	80.010	19.992	103.900	19.934	3.700	0.506
464.000	308.747	80.009	19.993	103.900	19.936	3.547	0.484
464.500	309.000	80.008	19.993	103.900	19.934	3.672	0.486
465.000	309.253	80.008	19.993	103.900	19.938	3.395	0.500
465.500	309.494	80.009	19.994	103.900	19.936	3.555	0.500
466.000	309.761	80.009	19.993	103.899	19.937	3.469	0.501
466.500	309.992	80.008	19.993	103.899	19.936	3.545	0.502
467.000	310.234	80.008	19.993	103.899	19.938	3.437	0.485
467.500	310.503	80.008	19.994	103.900	19.935	3.646	0.492
468.000	310.770	80.008	19.994	103.900	19.934	3.714	0.523
468.500	311.011	80.007	19.993	103.899	19.941	3.215	0.522
469.000	311.261	80.007	19.993	103.897	19.933	3.776	0.500
469.500	311.539	80.006	19.994	103.897	19.936	3.529	0.510
470.000	311.810	80.007	19.993	103.897	19.940	3.243	0.539
470.500	312.029	80.006	19.993	103.898	19.934	3.714	0.520
471.000	312.277	80.006	19.993	103.901	19.943	3.049	0.479
471.500	312.555	80.007	19.993	103.903	19.941	3.177	0.496
472.000	312.832	80.007	19.995	103.904	19.939	3.313	0.540
472.500	313.083	80.007	19.993	103.904	19.932	3.826	0.541
473.000	313.327	80.006	19.993	103.903	19.935	3.644	0.512
473.500	313.546	80.007	19.992	103.903	19.934	3.706	0.479
474.000	313.795	80.007	19.994	103.903	19.934	3.718	0.465
474.500	314.081	80.007	19.995	103.903	19.936	3.546	0.502
475.000	314.310	80.007	19.994	103.903	19.937	3.508	0.525
475.500	314.573	80.007	19.993	103.903	19.945	2.909	0.503
476.000	314.813	80.007	19.994	103.903	19.939	3.357	0.497
476.500	315.081	80.007	19.993	103.903	19.936	3.574	0.505
477.000	315.317	80.007	19.995	103.903	19.938	3.403	0.506
477.500	315.566	80.008	19.994	103.903	19.936	3.586	0.494
478.000	315.828	80.006	19.995	103.902	19.936	3.568	0.498
478.500	316.097	80.007	19.994	103.902	19.936	3.524	0.522
479.000	316.354	80.009	19.994	103.902	19.940	3.260	0.528
479.500	316.564	80.007	19.993	103.902	19.940	3.242	0.496
480.000	316.850	80.006	19.995	103.901	19.937	3.474	0.482
480.500	317.059	80.007	19.993	103.901	19.935	3.608	0.496
481.000	317.363	80.008	19.993	103.901	19.941	3.179	0.504
481.500	317.595	80.007	19.993	103.900	19.940	3.281	0.525
482.000	317.853	80.008	19.995	103.899	19.941	3.225	0.513
482.500	318.112	80.009	19.994	103.899	19.936	3.584	0.503
483.000	318.333	80.008	19.994	103.899	19.937	3.482	0.498
483.500	318.604	80.009	19.992	103.899	19.937	3.512	0.486
484.000	318.838	80.008	19.993	103.898	19.935	3.596	0.499
484.500	319.105	80.008	19.993	103.898	19.939	3.373	0.503
485.000	319.354	80.009	19.994	103.898	19.936	3.546	0.508
485.500	319.655	80.009	19.994	103.898	19.937	3.486	0.533
486.000	319.884	80.008	19.993	103.898	19.934	3.738	0.540
486.500	320.113	80.008	19.995	103.898	19.934	3.718	0.494
487.000	320.392	80.008	19.994	103.900	19.934	3.676	0.483
487.500	320.617	80.008	19.994	103.900	19.936	3.560	0.506
488.000	320.865	80.009	19.994	103.900	19.933	3.764	0.489
488.500	321.113	80.008	19.995	103.899	19.936	3.556	0.484
489.000	321.384	80.007	19.994	103.895	19.933	3.762	0.507
489.500	321.679	80.009	19.993	103.892	19.932	3.872	0.543
490.000	321.930	80.009	19.993	103.891	19.933	3.802	0.556
490.500	322.125	80.009	19.994	103.891	19.931	3.904	0.496
491.000	322.402	80.007	19.994	103.894	19.931	3.949	0.459
491.500	322.675	80.008	19.994	103.898	19.933	3.768	0.511
492.000	322.944	80.008	19.994	103.899	19.934	3.712	0.546
492.500	323.135	80.008	19.994	103.898	19.932	3.820	0.501
493.000	323.424	80.008	19.993	103.896	19.930	4.000	0.470
493.500	323.731	80.007	19.995	103.895	19.937	3.492	0.538
494.000	324.014	80.008	19.993	103.894	19.929	4.057	0.593
494.500	324.156	80.008	19.992	103.894	19.937	3.506	0.508
495.000	324.425	80.007	19.995	103.895	19.937	3.502	0.418
495.500	324.671	80.007	19.996	103.897	19.937	3.516	0.463
496.000	325.023	80.007	19.996	103.899	19.934	3.726	0.557
496.500	325.149	80.007	19.995	103.899	19.936	3.558	0.538
497.000	325.457	80.007	19.994	103.898	19.936	3.576	0.456
497.500	325.718	80.007	19.994	103.897	19.935	3.636	0.502
498.000	325.949	80.007	19.994	103.896	19.935	3.640	0.530
498.500	326.200	80.007	19.994	103.896	19.933	3.766	0.486
499.000	326.468	80.009	19.994	103.894	19.937	3.492	0.501
499.500	326.700	80.007	19.995	103.894	19.938	3.414	0.510
500.000	326.973	80.007	19.994	103.892	19.942	3.110	0.503
500.500	327.219	80.007	19.994	103.886	19.935	3.608	0.512
501.000	327.466	80.006	19.993	103.886	19.939	3.350	0.506
501.500	327.714	80.007	19.994	103.885	19.934	3.684	0.494
502.000	327.958	80.006	19.995	103.883	19.934	3.678	0.494
502.500	328.234	80.006	19.995	103.886	19.935	3.644	0.506
503.000	328.472	80.006	19.994	103.892	19.932	3.856	0.517
503.500	328.749	80.008	19.995	103.892	19.933	3.788	0.514
504.000	328.984	80.006	19.996	103.895	19.932	3.875	0.513
504.500	329.256	80.008	19.994	103.892	19.932	3.874	0.510
505.000	329.467	80.007	19.995	103.886	19.932	3.852	0.495
505.500	329.751	80.006	19.995	103.885	19.930	3.960	0.489
506.000	329.989	80.007	19.995	103.884	19.933	3.770	0.508
506.500	330.265	80.006	19.995	103.883	19.931	3.924	0.518
507.000	330.539	80.008	19.995	103.888	19.932	3.828	0.532
507.500	330.784	80.007	19.995	103.894	19.931	3.888	0.534
508.000	331.004	80.008	19.996	103.893	19.933	3.772	0.492
508.500	331.263	80.007	19.995	103.892	19.932	3.856	0.472
509.000	331.527	80.008	19.996	103.887	19.932	3.876	0.501
509.500	331.766	80.009	19.995	103.885	19.931	3.912	0.513
510.001	332.034	80.009	19.994	103.879	19.933	3.792	0.505
510.501	332.304	80.009	19.996	103.876	19.930	4.012	0.522
511.000	332.538	80.010	19.995	103.875	19.930	3.980	0.521
511.500	332.783	80.008	19.994	103.878	19.931	3.950	0.492
512.000	333.065	80.009	19.994	103.879	19.928	4.110	0.503
512.500	333.315	80.008	19.995	103.885	19.932	3.884	0.530
513.000	333.598	80.008	19.994	103.887	19.931	3.928	0.533
513.500	333.822	80.008	19.995	103.886	19.934	3.738	0.520
514.000	334.135	80.009	19.995	103.885	19.933	3.758	0.521
514.500	334.337	80.009	19.994	103.884	19.932	3.868	0.526
515.000	334.576	80.009	19.994	103.882	19.934	3.736	0.478
515.501	334.852	80.009	19.994	103.887	19.930	3.998	0.478
516.000	335.097	80.009	19.993	103.889	19.931	3.896	0.518
516.500	335.328	80.010	19.995	103.889	19.931	3.892	0.499
517.000	335.594	80.009	19.994	103.888	19.930	3.990	0.486
517.500	335.841	80.010	19.994	103.889	19.930	4.008	0.505
518.000	336.113	80.008	19.994	103.889	19.928	4.120	0.516
518.500	336.328	80.010	19.995	103.888	19.930	3.984	0.503
519.000	336.607	80.009	19.994	103.890	19.929	4.084	0.491
519.500	336.849	80.009	19.992	103.893	19.928	4.175	0.507
520.000	337.108	80.008	19.994	103.892	19.929	4.034	0.511
520.500	337.356	80.009	19.994	103.893	19.930	3.990	0.504
521.000	337.632	80.009	19.995	103.895	19.929	4.046	0.515
521.500	337.853	80.009	19.994	103.896	19.926	4.300	0.510
522.000	338.102	80.009	19.993	103.897	19.932	3.860	0.484
522.500	338.389	80.010	19.994	103.897	19.932	3.858	0.504
523.000	338.616	80.009	19.994	103.895	19.932	3.828	0.525
523.500	338.871	80.010	19.994	103.894	19.928	4.112	0.498
524.000	339.128	80.008	19.995	103.895	19.929	4.066	0.497
524.500	339.371	80.009	19.994	103.896	19.929	4.032	0.506
525.000	339.606	80.008	19.994	103.897	19.930	4.002	0.489
525.500	339.851	80.009	19.993	103.897	19.929	4.076	0.479
526.001	340.110	80.008	19.994	103.898	19.927	4.224	0.492
526.500	340.395	80.008	19.994	103.896	19.926	4.280	0.524
527.000	340.638	80.009	19.996	103.895	19.927	4.220	0.536
527.500	340.912	80.008	19.996	103.895	19.926	4.252	0.523
528.000	341.155	80.008	19.994	103.895	19.926	4.266	0.517
528.500	341.392	80.009	19.993	103.891	19.926	4.294	0.499
529.000	341.627	80.008	19.995	103.892	19.928	4.174	0.476
529.500	341.901	80.009	19.995	103.889	19.924	4.409	0.490
530.000	342.171	80.007	19.994	103.890	19.926	4.259	0.527
530.500	342.427	80.008	19.995	103.891	19.928	4.150	0.535
531.000	342.654	80.008	19.994	103.895	19.927	4.181	0.504
531.500	342.902	80.008	19.994	103.896	19.930	4.006	0.479
532.000	343.169	80.009	19.995	103.901	19.926	4.264	0.495
532.500	343.403	80.008	19.995	103.900	19.925	4.332	0.508
533.000	343.667	80.008	19.996	103.901	19.926	4.280	0.500
533.500	343.894	80.009	19.994	103.901	19.928	4.164	0.494
534.000	344.171	80.007	19.995	103.901	19.929	4.080	0.497
534.500	344.406	80.008	19.994	103.900	19.929	4.066	0.508
535.000	344.681	80.008	19.995	103.900	19.927	4.198	0.511
535.500	344.926	80.010	19.995	103.898	19.922	4.585	0.515
536.000	345.192	80.009	19.995	103.898	19.925	4.393	0.515
536.500	345.446	80.010	19.995	103.898	19.924	4.453	0.515
537.000	345.720	80.009	19.995	103.898	19.926	4.276	0.524
537.500	345.938	80.009	19.993	103.898	19.926	4.251	0.510
538.000	346.218	80.010	19.994	103.900	19.926	4.301	0.495
538.500	346.458	80.008	19.995	103.900	19.928	4.155	0.509
539.000	346.724	80.010	19.993	103.900	19.926	4.257	0.513
539.500	346.990	80.010	19.993	103.901	19.926	4.273	0.519
540.000	347.214	80.010	19.994	103.900	19.925	4.327	0.511
540.500	347.469	80.011	19.993	103.896	19.922	4.551	0.484
541.000	347.718	80.010	19.995	103.893	19.924	4.445	0.492
541.500	347.989	80.012	19.992	103.891	19.926	4.277	0.512
542.000	348.254	80.010	19.992	103.890	19.923	4.502	0.528
542.500	348.508	80.010	19.993	103.892	19.921	4.629	0.527
543.000	348.779	80.011	19.994	103.895	19.924	4.449	0.522
543.500	349.002	80.010	19.994	103.898	19.924	4.407	0.509
544.000	349.281	80.011	19.994	103.899	19.923	4.501	0.498
544.500	349.587	80.011	19.993	103.899	19.923	4.471	0.544
545.000	349.807	80.011	19.993	103.896	19.922	4.553	0.556
545.500	350.049	80.010	19.993	103.895	19.921	4.665	0.494
546.000	350.339	80.010	19.993	103.895	19.918	4.845	0.497
546.500	350.584	80.010	19.994	103.894	19.918	4.839	0.533
547.000	350.814	80.010	19.994	103.894	19.921	4.643	0.505
547.500	351.086	80.010	19.993	103.896	19.923	4.481	0.489
548.000	351.346	80.009	19.994	103.896	19.920	4.707	0.517
548.500	351.615	80.009	19.994	103.893	19.921	4.615	0.531
549.000	351.874	80.009	19.994	103.890	19.919	4.763	0.528
549.500	352.096	80.010	19.993	103.889	19.919	4.795	0.504
550.000	352.374	80.009	19.992	103.890	19.919	4.787	0.490
550.500	352.655	80.009	19.994	103.888	19.920	4.687	0.530
551.000	352.921	80.008	19.992	103.886	19.920	4.741	0.553
551.500	353.170	80.010	19.994	103.883	19.919	4.759	0.531
552.000	353.417	80.009	19.993	103.879	19.920	4.713	0.506
552.500	353.701	80.008	19.993	103.877	19.920	4.717	0.514
553.000	353.963	80.009	19.994	103.876	19.917	4.923	0.538
553.500	354.215	80.008	19.993	103.882	19.917	4.975	0.530
554.000	354.463	80.010	19.994	103.887	19.916	5.027	0.507
554.500	354.751	80.009	19.993	103.892	19.917	4.930	0.518
555.000	354.998	80.008	19.995	103.888	19.918	4.868	0.536
555.500	355.252	80.008	19.995	103.888	19.916	5.014	0.518
556.000	355.455	80.008	19.994	103.887	19.917	4.908	0.479
556.500	355.771	80.008	19.995	103.887	19.915	5.082	0.488
557.000	356.025	80.007	19.995	103.888	19.918	4.856	0.544
557.500	356.251	80.010	19.993	103.892	19.917	4.960	0.525
558.000	356.555	80.008	19.995	103.890	19.917	4.946	0.505
558.500	356.779	80.008	19.993	103.890	19.914	5.156	0.529
559.000	357.036	80.007	19.994	103.889	19.914	5.138	0.504
559.500	357.289	80.008	19.995	103.887	19.913	5.197	0.495
560.000	357.537	80.008	19.993	103.886	19.915	5.055	0.505
560.500	357.797	80.008	19.995	103.890	19.916	4.986	0.504
561.000	358.060	80.006	19.994	103.888	19.915	5.104	0.515
561.500	358.329	80.010	19.993	103.884	19.913	5.244	0.528
562.000	358.584	80.008	19.994	103.884	19.916	4.980	0.528
562.500	358.837	80.008	19.994	103.885	19.914	5.192	0.516
563.000	359.100	80.008	19.994	103.885	19.911	5.372	0.512
563.500	359.357	80.008	19.995	103.886	19.914	5.176	0.518
564.000	359.628	80.008	19.994	103.890	19.913	5.264	0.524
564.500	359.862	80.008	19.994	103.892	19.907	5.635	0.517
565.000	360.121	80.007	19.995	103.892	19.910	5.477	0.499
565.500	360.380	80.007	19.994	103.886	19.911	5.377	0.506
566.000	360.643	80.007	19.994	103.884	19.910	5.437	0.520
566.500	360.914	80.007	19.995	103.881	19.910	5.449	0.528
567.000	361.169	80.009	19.994	103.881	19.907	5.651	0.530
567.500	361.419	80.008	19.995	103.879	19.907	5.635	0.516
568.000	361.687	80.008	19.995	103.883	19.907	5.630	0.511
568.500	361.958	80.009	19.994	103.885	19.909	5.556	0.528
569.000	362.197	80.007	19.993	103.883	19.907	5.661	0.524
569.500	362.446	80.007	19.994	103.877	19.906	5.755	0.499
570.000	362.706	80.009	19.994	103.874	19.904	5.899	0.499
570.500	362.953	80.008	19.995	103.870	19.909	5.541	0.508
571.000	363.214	80.008	19.994	103.866	19.905	5.774	0.508
571.500	363.489	80.006	19.993	103.869	19.905	5.825	0.522
572.000	363.762	80.009	19.995	103.875	19.903	5.929	0.542
572.500	363.993	80.006	19.994	103.877	19.904	5.847	0.526
573.001	364.250	80.010	19.994	103.881	19.901	6.098	0.496
573.500	364.553	80.008	19.995	103.884	19.905	5.831	0.524
574.000	364.782	80.008	19.994	103.883	19.903	5.948	0.546
574.500	365.052	80.010	19.993	103.882	19.900	6.156	0.516
575.000	365.319	80.008	19.995	103.883	19.903	5.937	0.518
575.500	365.578	80.009	19.994	103.882	19.900	6.157	0.532
576.000	365.813	80.008	19.994	103.879	19.900	6.189	0.510
576.500	366.072	80.008	19.995	103.877	19.903	5.991	0.494
577.000	366.350	80.007	19.996	103.877	19.900	6.145	0.516
577.500	366.586	80.008	19.994	103.878	19.902	6.037	0.526
578.000	366.814	80.007	19.994	103.879	19.900	6.138	0.489
578.500	367.077	80.007	19.995	103.883	19.901	6.136	0.477
579.000	367.349	80.008	19.993	103.887	19.901	6.070	0.513
579.500	367.610	80.008	19.994	103.885	19.898	6.320	0.534
580.000	367.889	80.008	19.995	103.880	19.896	6.431	0.537
580.500	368.113	80.008	19.993	103.875	19.900	6.162	0.521
581.000	368.376	80.008	19.994	103.872	19.896	6.459	0.495
581.501	368.638	80.007	19.995	103.867	19.898	6.330	0.506
582.000	368.932	80.008	19.994	103.867	19.899	6.274	0.540
582.500	369.182	80.007	19.994	103.873	19.897	6.392	0.550
583.000	369.415	80.008	19.993	103.874	19.893	6.652	0.514
583.500	369.681	80.006	19.995	103.874	19.896	6.454	0.491
584.000	369.922	80.008	19.994	103.875	19.894	6.610	0.503
584.500	370.151	80.008	19.992	103.875	19.896	6.430	0.488
585.000	370.421	80.008	19.994	103.871	19.893	6.678	0.485
585.500	370.726	80.008	19.994	103.871	19.894	6.642	0.537
586.000	370.962	80.007	19.992	103.877	19.895	6.550	0.558
586.500	371.224	80.007	19.993	103.880	19.893	6.659	0.520
587.001	371.471	80.007	19.995	103.881	19.894	6.617	0.504
587.500	371.715	80.008	19.993	103.884	19.891	6.829	0.500
588.000	371.996	80.007	19.994	103.883	19.891	6.803	0.508
588.500	372.251	80.008	19.994	103.878	19.891	6.803	0.530
589.001	372.515	80.008	19.995	103.875	19.891	6.849	0.527
589.500	372.768	80.007	19.994	103.873	19.888	7.010	0.518
590.000	373.041	80.008	19.994	103.870	19.892	6.787	0.521
590.500	373.291	80.008	19.994	103.868	19.889	6.981	0.525
591.000	373.532	80.008	19.993	103.866	19.889	6.997	0.508
591.500	373.797	80.008	19.994	103.867	19.890	6.907	0.499
592.000	374.058	80.008	19.994	103.866	19.886	7.201	0.516
592.500	374.313	80.008	19.993	103.867	19.886	7.163	0.521
593.000	374.572	80.010	19.994	103.868	19.883	7.372	0.515
593.500	374.824	80.009	19.994	103.872	19.884	7.341	0.513
594.000	375.071	80.008	19.995	103.871	19.882	7.448	0.505
594.500	375.328	80.009	19.995	103.872	19.884	7.307	0.501
595.000	375.607	80.008	19.995	103.873	19.883	7.377	0.520
595.500	375.839	80.007	19.995	103.876	19.882	7.504	0.523
596.000	376.097	80.008	19.994	103.875	19.883	7.396	0.500
596.500	376.364	80.008	19.994	103.874	19.883	7.428	0.508
597.000	376.640	80.007	19.995	103.872	19.880	7.642	0.534
597.500	376.855	80.008	19.994	103.870	19.881	7.586	0.517
598.000	377.113	80.010	19.993	103.866	19.882	7.484	0.482
598.500	377.329	80.008	19.995	103.863	19.883	7.416	0.473
599.000	377.645	80.009	19.994	103.862	19.879	7.665	0.503
599.500	377.889	80.010	19.993	103.862	19.882	7.498	0.546
600.000	378.116	80.008	19.993	103.862	19.878	7.789	0.515
600.501	378.402	80.008	19.993	103.862	19.878	7.749	0.492
601.000	378.661	80.010	19.994	103.867	19.877	7.827	0.529
601.500	378.885	80.006	19.995	103.873	19.878	7.800	0.514
602.000	379.125	80.008	19.994	103.875	19.877	7.867	0.473
602.500	379.400	80.010	19.993	103.876	19.874	8.033	0.489
603.000	379.666	80.007	19.994	103.875	19.875	7.977	0.528
603.500	379.940	80.008	19.994	103.870	19.875	7.959	0.541
604.000	380.192	80.008	19.995	103.868	19.875	8.019	0.533
604.500	380.473	80.008	19.994	103.870	19.874	8.039	0.530
605.000	380.709	80.008	19.994	103.871	19.874	8.045	0.525
605.500	380.965	80.008	19.994	103.872	19.875	8.021	0.505
606.000	381.208	80.008	19.995	103.872	19.873	8.147	0.496
606.500	381.472	80.007	19.994	103.871	19.870	8.339	0.503
607.000	381.700	80.009	19.995	103.869	19.868	8.513	0.499
607.500	381.951	80.009	19.994	103.868	19.870	8.381	0.486
608.001	382.188	80.009	19.994	103.867	19.869	8.391	0.484
608.500	382.456	80.008	19.994	103.865	19.869	8.456	0.497
609.000	382.747	80.008	19.993	103.863	19.867	8.572	0.532
609.501	382.938	80.008	19.994	103.861	19.865	8.724	0.521
610.000	383.212	80.009	19.993	103.861	19.869	8.443	0.474
610.500	383.462	80.010	19.994	103.861	19.865	8.698	0.494
611.000	383.746	80.009	19.995	103.862	19.867	8.579	0.529
611.500	383.988	80.011	19.994	103.862	19.865	8.728	0.530
612.000	384.276	80.009	19.995	103.864	19.864	8.788	0.528
612.500	384.511	80.008	19.993	103.864	19.868	8.504	0.526
613.000	384.789	80.008	19.995	103.864	19.865	8.692	0.518
613.500	385.025	80.011	19.995	103.864	19.861	8.998	0.514
614.000	385.288	80.008	19.994	103.864	19.862	8.962	0.506
614.500	385.521	80.007	19.993	103.862	19.861	8.992	0.497
615.000	385.788	80.010	19.996	103.863	19.859	9.175	0.498
615.500	386.029	80.010	19.996	103.862	19.862	8.953	0.504
616.000	386.310	80.011	19.995	103.861	19.862	8.907	0.515
616.500	386.525	80.010	19.995	103.861	19.858	9.229	0.509
617.000	386.781	80.010	19.994	103.865	19.861	8.999	0.484
617.500	387.027	80.011	19.994	103.866	19.858	9.223	0.486
618.000	387.291	80.011	19.994	103.865	19.861	9.031	0.506
618.500	387.571	80.010	19.994	103.865	19.859	9.173	0.527
619.000	387.800	80.011	19.994	103.865	19.861	8.971	0.526
619.500	388.075	80.010	19.995	103.861	19.858	9.207	0.506
620.000	388.321	80.011	19.994	103.859	19.857	9.327	0.513
620.500	388.600	80.011	19.993	103.863	19.857	9.283	0.523
621.000	388.851	80.009	19.994	103.865	19.858	9.257	0.528
621.500	389.099	80.009	19.993	103.865	19.855	9.467	0.515
622.000	389.338	80.010	19.995	103.865	19.856	9.363	0.493
622.500	389.591	80.011	19.994	103.864	19.850	9.794	0.489
623.000	389.836	80.009	19.994	103.860	19.857	9.297	0.494
623.500	390.095	80.009	19.995	103.858	19.853	9.575	0.501
624.000	390.350	80.010	19.995	103.860	19.853	9.555	0.509
624.501	390.630	80.011	19.994	103.860	19.853	9.603	0.525
625.001	390.866	80.009	19.994	103.860	19.853	9.563	0.526
625.500	391.123	80.010	19.993	103.860	19.852	9.633	0.504
626.000	391.370	80.010	19.994	103.860	19.851	9.744	0.498
626.500	391.653	80.009	19.994	103.858	19.852	9.683	0.517
627.000	391.892	80.010	19.994	103.858	19.853	9.583	0.526
627.500	392.143	80.009	19.994	103.857	19.850	9.838	0.506
628.000	392.397	80.009	19.994	103.858	19.850	9.800	0.497
628.500	392.632	80.010	19.995	103.857	19.850	9.826	0.496
629.000	392.899	80.008	19.994	103.857	19.848	9.970	0.495
629.500	393.165	80.010	19.994	103.857	19.848	9.986	0.518
630.000	393.416	80.009	19.994	103.857	19.851	9.729	0.525
630.500	393.692	80.007	19.995	103.857	19.848	9.922	0.522
631.000	393.946	80.007	19.995	103.857	19.852	9.645	0.529
631.500	394.192	80.009	19.994	103.857	19.852	9.625	0.515
632.000	394.468	80.007	19.996	103.858	19.847	10.030	0.511
632.500	394.735	80.007	19.994	103.858	19.849	9.880	0.532
633.000	394.968	80.009	19.994	103.858	19.849	9.884	0.522
633.500	395.233	80.007	19.995	103.859	19.848	9.952	0.499
634.000	395.481	80.008	19.995	103.859	19.849	9.914	0.505
634.500	395.751	80.008	19.995	103.859	19.852	9.695	0.515
635.000	396.005	80.007	19.995	103.860	19.849	9.905	0.521
635.500	396.239	80.008	19.996	103.860	19.849	9.867	0.506
636.000	396.531	80.008	19.996	103.860	19.847	10.032	0.506
636.500	396.785	80.008	19.996	103.859	19.846	10.070	0.536
637.000	397.030	80.007	19.994	103.859	19.843	10.314	0.523
637.501	397.282	80.008	19.995	103.859	19.844	10.236	0.498
638.001	397.536	80.007	19.995	103.859	19.842	10.360	0.501
638.500	397.791	80.010	19.995	103.858	19.842	10.368	0.507
639.000	398.043	80.009	19.994	103.859	19.841	10.456	0.508
639.500	398.296	80.009	19.994	103.859	19.844	10.270	0.506
640.000	398.540	80.009	19.994	103.859	19.842	10.368	0.501
640.500	398.821	80.009	19.993	103.858	19.844	10.230	0.511
641.000	399.067	80.009	19.993	103.860	19.842	10.406	0.526
641.500	399.337	80.009	19.993	103.860	19.840	10.532	0.521
642.000	399.518	80.007	19.994	103.860	19.840	10.524	0.483
642.500	399.783	80.009	19.994	103.859	19.838	10.665	0.449
643.000	400.090	80.008	19.993	103.860	19.838	10.683	0.509
643.500	400.299	80.008	19.994	103.858	19.839	10.637	0.544
644.000	400.577	80.008	19.995	103.858	19.837	10.749	0.501
644.500	400.832	80.009	19.995	103.859	19.837	10.775	0.510
645.000	401.102	80.007	19.994	103.861	19.835	10.909	0.530
645.500	401.350	80.009	19.993	103.861	19.836	10.807	0.522
646.000	401.598	80.008	19.995	103.863	19.837	10.755	0.507
646.500	401.866	80.008	19.994	103.863	19.839	10.637	0.506
647.000	402.087	80.010	19.993	103.863	19.836	10.813	0.503
647.500	402.329	80.008	19.994	103.863	19.833	11.046	0.476
648.000	402.640	80.009	19.993	103.863	19.834	10.959	0.508
648.500	402.867	80.007	19.994	103.861	19.835	10.925	0.546
649.000	403.114	80.007	19.994	103.861	19.834	10.941	0.506
649.500	403.376	80.009	19.994	103.861	19.835	10.893	0.491
650.000	403.644	80.008	19.993	103.861	19.835	10.909	0.519
650.500	403.900	80.008	19.994	103.863	19.830	11.267	0.527
651.000	404.086	80.008	19.994	103.865	19.830	11.289	0.483
651.500	404.338	80.009	19.994	103.864	19.833	11.033	0.440
652.000	404.634	80.009	19.994	103.865	19.829	11.309	0.493
652.500	404.862	80.009	19.994	103.864	19.831	11.171	0.536
653.000	405.116	80.008	19.993	103.863	19.831	11.189	0.503
653.500	405.340	80.008	19.993	103.861	19.829	11.343	0.480
654.000	405.620	80.009	19.992	103.861	19.828	11.379	0.491
654.500	405.906	80.008	19.994	103.861	19.827	11.473	0.535
655.000	406.139	80.009	19.995	103.860	19.830	11.261	0.543
655.500	406.411	80.009	19.994	103.861	19.833	11.043	0.513
656.000	406.667	80.009	19.993	103.859	19.836	10.810	0.517
656.500	406.885	80.008	19.994	103.857	19.831	11.217	0.501
657.000	407.136	80.008	19.993	103.857	19.829	11.315	0.471
657.500	407.441	80.009	19.993	103.856	19.833	11.077	0.513
658.000	407.669	80.009	19.994	103.856	19.832	11.145	0.544
658.500	407.936	80.009	19.995	103.858	19.833	11.057	0.514
659.000	408.195	80.008	19.994	103.860	19.832	11.111	0.511
659.500	408.450	80.008	19.994	103.860	19.833	11.041	0.519
660.000	408.678	80.008	19.996	103.861	19.832	11.089	0.498
660.500	408.956	80.008	19.994	103.862	19.836	10.809	0.495
661.000	409.192	80.008	19.994	103.862	19.834	10.981	0.510
661.500	409.443	80.008	19.995	103.862	19.836	10.789	0.500
662.001	409.721	80.007	19.994	103.863	19.834	10.943	0.508
662.500	409.957	80.007	19.994	103.863	19.837	10.739	0.522
663.000	410.215	80.009	19.994	103.863	19.833	11.035	0.504
663.500	410.454	80.009	19.994	103.862	19.836	10.829	0.496
664.000	410.684	80.009	19.993	103.863	19.835	10.925	0.483
664.500	410.944	80.008	19.995	103.863	19.837	10.779	0.479
665.000	411.221	80.008	19.993	103.863	19.833	11.069	0.513
665.500	411.466	80.007	19.994	103.864	19.834	10.943	0.530
666.000	411.724	80.008	19.994	103.864	19.835	10.863	0.513
666.500	411.974	80.007	19.994	103.864	19.834	10.991	0.506
667.000	412.228	80.007	19.993	103.864	19.835	10.911	0.506
667.500	412.460	80.006	19.993	103.863	19.832	11.134	0.495
668.000	412.726	80.007	19.995	103.864	19.833	11.031	0.492
668.500	412.950	80.006	19.994	103.864	19.831	11.152	0.494
669.000	413.229	80.008	19.994	103.864	19.829	11.304	0.497
669.500	413.488	80.007	19.994	103.864	19.829	11.352	0.521
670.000	413.710	80.008	19.994	103.865	19.829	11.308	0.509
670.500	413.968	80.009	19.993	103.864	19.832	11.118	0.480
671.000	414.201	80.008	19.993	103.863	19.826	11.573	0.486
671.500	414.431	80.009	19.993	103.862	19.824	11.699	0.477
672.000	414.669	80.008	19.994	103.862	19.824	11.721	0.466
672.500	414.944	80.009	19.993	103.862	19.825	11.638	0.490
673.000	415.193	80.009	19.992	103.862	19.822	11.857	0.518
673.500	415.433	80.008	19.994	103.863	19.824	11.713	0.506
674.000	415.685	80.009	19.994	103.863	19.820	12.003	0.491
674.500	415.963	80.008	19.992	103.863	19.819	12.035	0.511
675.000	416.201	80.011	19.994	103.862	19.817	12.228	0.523
675.500	416.429	80.010	19.993	103.863	19.815	12.358	0.491
676.000	416.703	80.008	19.995	103.862	19.814	12.420	0.484
676.500	416.953	80.009	19.993	103.862	19.812	12.598	0.513
677.000	417.207	80.009	19.995	103.861	19.815	12.365	0.514
677.500	417.482	80.010	19.993	103.861	19.811	12.628	0.516
678.000	417.731	80.010	19.994	103.860	19.811	12.634	0.527
678.500	417.986	80.011	19.993	103.858	19.815	12.361	0.514
679.000	418.257	80.008	19.994	103.858	19.812	12.555	0.515
679.500	418.514	80.010	19.995	103.858	19.812	12.557	0.527
680.000	418.769	80.010	19.995	103.858	19.809	12.777	0.520
680.500	419.038	80.009	19.994	103.856	19.809	12.765	0.518
681.000	419.273	80.010	19.993	103.855	19.812	12.594	0.514
681.500	419.539	80.009	19.994	103.855	19.806	12.988	0.503
682.000	419.796	80.010	19.994	103.855	19.805	13.052	0.512
682.500	420.046	80.009	19.993	103.855	19.804	13.161	0.515
683.000	420.291	80.009	19.993	103.856	19.804	13.113	0.501
683.500	420.569	80.009	19.994	103.856	19.806	12.967	0.509
684.000	420.822	80.009	19.994	103.855	19.802	13.291	0.527
684.500	421.087	80.009	19.993	103.854	19.803	13.251	0.524
685.001	421.374	80.008	19.994	103.852	19.800	13.445	0.535
685.500	421.614	80.009	19.994	103.853	19.799	13.505	0.540
686.000	421.856	80.009	19.992	103.854	19.798	13.580	0.505
686.500	422.094	80.009	19.995	103.856	19.797	13.663	0.481
687.000	422.382	80.010	19.995	103.856	19.798	13.612	0.503
687.500	422.604	80.010	19.993	103.859	19.798	13.600	0.518
688.000	422.878	80.008	19.994	103.859	19.798	13.584	0.503
688.500	423.126	80.007	19.994	103.857	19.796	13.722	0.509
689.000	423.358	80.008	19.995	103.852	19.791	14.104	0.501
689.500	423.643	80.009	19.994	103.845	19.789	14.206	0.499
690.001	423.889	80.006	19.995	103.844	19.790	14.156	0.524
690.500	424.149	80.008	19.994	103.844	19.785	14.554	0.518
691.000	424.365	80.008	19.993	103.846	19.787	14.410	0.491
691.500	424.675	80.009	19.996	103.850	19.783	14.658	0.501
692.000	424.891	80.007	19.995	103.858	19.782	14.757	0.526
692.500	425.160	80.008	19.995	103.859	19.783	14.649	0.505
693.000	425.475	80.007	19.994	103.858	19.778	15.032	0.535
693.500	425.696	80.008	19.994	103.856	19.777	15.090	0.560
694.001	425.925	80.009	19.994	103.855	19.775	15.271	0.493
694.501	426.197	80.009	19.994	103.855	19.772	15.481	0.476
695.000	426.485	80.009	19.995	103.853	19.772	15.462	0.531
695.500	426.714	80.009	19.994	103.853	19.769	15.661	0.538
696.000	426.960	80.007	19.994	103.854	19.769	15.717	0.496
696.500	427.197	80.009	19.995	103.854	19.767	15.865	0.479
697.000	427.450	80.009	19.995	103.849	19.763	16.097	0.486
697.500	427.760	80.009	19.994	103.843	19.763	16.156	0.526
698.000	428.002	80.008	19.994	103.838	19.765	16.003	0.558
698.500	428.219	80.009	19.994	103.838	19.761	16.261	0.506
699.000	428.472	80.010	19.995	103.839	19.757	16.539	0.465
699.500	428.746	80.010	19.995	103.841	19.758	16.495	0.498
700.001	428.982	80.008	19.994	103.843	19.755	16.685	0.519
700.500	429.214	80.010	19.993	103.844	19.757	16.596	0.489
701.000	429.527	80.009	19.995	103.843	19.751	16.991	0.506
701.500	429.771	80.009	19.994	103.843	19.750	17.092	0.551
702.000	429.998	80.010	19.995	103.846	19.747	17.318	0.514
702.500	430.260	80.009	19.995	103.850	19.745	17.444	0.480
703.000	430.498	80.010	19.994	103.852	19.744	17.509	0.494
703.500	430.757	80.010	19.994	103.852	19.744	17.508	0.499
704.000	430.987	80.011	19.995	103.851	19.742	17.660	0.494
704.500	431.252	80.010	19.994	103.849	19.737	17.986	0.492
705.000	431.513	80.009	19.994	103.849	19.735	18.172	0.511
705.500	431.769	80.010	19.995	103.852	19.734	18.220	0.521
706.000	432.002	80.010	19.994	103.853	19.731	18.458	0.502
706.500	432.281	80.011	19.993	103.854	19.730	18.504	0.501
707.000	432.532	80.009	19.994	103.854	19.724	18.954	0.522
707.500	432.752	80.010	19.995	103.855	19.723	19.041	0.500
708.000	433.008	80.011	19.993	103.853	19.721	19.202	0.473
708.500	433.245	80.009	19.993	103.850	19.716	19.528	0.485
709.000	433.547	80.009	19.994	103.844	19.714	19.706	0.516
709.500	433.779	80.010	19.994	103.845	19.710	20.008	0.536
710.000	434.062	80.008	19.993	103.846	19.706	20.288	0.524
710.500	434.306	80.009	19.994	103.847	19.706	20.282	0.521
711.000	434.563	80.008	19.994	103.848	19.701	20.595	0.514
711.500	434.831	80.008	19.993	103.853	19.700	20.704	0.513
712.000	435.056	80.007	19.995	103.850	19.696	21.016	0.509
712.500	435.305	80.008	19.993	103.845	19.695	21.081	0.484
713.000	435.576	80.008	19.994	103.838	19.694	21.152	0.497
713.500	435.821	80.007	19.994	103.834	19.690	21.391	0.518
714.000	436.056	80.007	19.994	103.829	19.686	21.734	0.498
714.500	436.300	80.008	19.994	103.827	19.685	21.771	0.480
715.001	436.547	80.007	19.994	103.826	19.683	21.960	0.485
715.501	436.810	80.007	19.995	103.830	19.679	22.210	0.500
716.000	437.101	80.007	19.993	103.831	19.676	22.470	0.532
716.500	437.319	80.008	19.995	103.831	19.675	22.524	0.531
717.000	437.565	80.007	19.993	103.834	19.672	22.760	0.487
717.500	437.811	80.007	19.994	103.838	19.669	22.977	0.479
718.000	438.116	80.005	19.995	103.840	19.664	23.346	0.522
718.500	438.333	80.007	19.996	103.845	19.656	23.873	0.536
719.000	438.592	80.007	19.994	103.852	19.655	23.982	0.499
719.500	438.789	80.007	19.994	103.856	19.647	24.537	0.466
720.000	439.083	80.007	19.994	103.858	19.640	25.058	0.473
720.500	439.343	80.006	19.995	103.858	19.636	25.352	0.523
721.000	439.597	80.006	19.996	103.860	19.629	25.883	0.534
721.500	439.868	80.007	19.994	103.860	19.626	26.040	0.519
722.000	440.117	80.005	19.994	103.857	19.623	26.293	0.522
722.500	440.354	80.008	19.996	103.852	19.615	26.874	0.503
723.000	440.609	80.006	19.995	103.848	19.610	27.201	0.489
723.500	440.881	80.007	19.994	103.843	19.601	27.888	0.510
724.000	441.135	80.006	19.994	103.838	19.600	27.983	0.526
724.500	441.348	80.007	19.995	103.833	19.587	28.884	0.496
725.000	441.637	80.007	19.995	103.831	19.584	29.116	0.485
725.500	441.841	80.005	19.995	103.827	19.579	29.482	0.498
726.000	442.125	80.005	19.994	103.825	19.572	30.003	0.491
726.500	442.367	80.006	19.995	103.827	19.565	30.524	0.507
727.000	442.608	80.006	19.995	103.828	19.557	31.076	0.504
727.500	442.868	80.007	19.995	103.829	19.548	31.769	0.492
728.000	443.098	80.007	19.994	103.830	19.540	32.300	0.496
728.500	443.349	80.007	19.995	103.829	19.536	32.596	0.486
729.000	443.631	80.006	19.994	103.826	19.527	33.260	0.507
729.500	443.871	80.007	19.994	103.825	19.520	33.733	0.527
730.000	444.157	80.008	19.994	103.828	19.511	34.450	0.524
730.500	444.381	80.007	19.996	103.831	19.504	34.965	0.518
731.000	444.609	80.007	19.994	103.836	19.495	35.554	0.481
731.500	444.871	80.008	19.994	103.838	19.486	36.230	0.471
732.001	445.167	80.008	19.994	103.838	19.480	36.669	0.524
732.500	445.385	80.008	19.993	103.838	19.470	37.382	0.536
733.000	445.620	80.007	19.994	103.835	19.463	37.897	0.483
733.500	445.881	80.008	19.993	103.833	19.456	38.419	0.475
734.000	446.133	80.009	19.994	103.830	19.447	39.035	0.504
734.500	446.372	80.006	19.993	103.826	19.438	39.725	0.502
735.000	446.630	80.007	19.996	103.823	19.425	40.656	0.494
735.500	446.879	80.007	19.996	103.822	19.417	41.258	0.502
736.000	447.125	80.008	19.996	103.819	19.408	41.884	0.501
736.500	447.373	80.009	19.994	103.819	19.399	42.552	0.495
737.000	447.638	80.009	19.994	103.821	19.390	43.189	0.504
737.500	447.866	80.008	19.994	103.821	19.379	43.969	0.503
738.000	448.133	80.009	19.995	103.822	19.367	44.862	0.494
738.500	448.359	80.007	19.994	103.823	19.360	45.355	0.493
739.000	448.614	80.008	19.995	103.823	19.346	46.359	0.487
739.500	448.883	80.009	19.994	103.824	19.337	47.063	0.503
740.000	449.091	80.009	19.994	103.824	19.324	47.981	0.501
740.500	449.359	80.009	19.994	103.823	19.315	48.647	0.477
741.000	449.594	80.008	19.994	103.822	19.303	49.553	0.489
741.500	449.854	80.007	19.995	103.822	19.290	50.461	0.499
742.000	450.086	80.008	19.993	103.821	19.275	51.570	0.494
742.500	450.353	80.008	19.994	103.821	19.263	52.435	0.495
743.000	450.566	80.009	19.994	103.821	19.251	53.327	0.489
743.500	450.843	80.008	19.994	103.821	19.237	54.347	0.485
744.000	451.109	80.008	19.994	103.820	19.225	55.203	0.516
744.500	451.381	80.008	19.994	103.817	19.213	56.070	0.540
745.000	451.598	80.008	19.995	103.811	19.200	56.996	0.514
745.500	451.872	80.008	19.996	103.808	19.189	57.769	0.491
746.000	452.117	80.008	19.994	103.800	19.177	58.638	0.505
746.500	452.395	80.008	19.994	103.792	19.164	59.612	0.521
747.000	452.641	80.008	19.993	103.787	19.154	60.303	0.523
747.500	452.872	80.008	19.994	103.785	19.138	61.495	0.500
748.000	453.174	80.008	19.994	103.780	19.124	62.517	0.505
748.500	453.396	80.006	19.994	103.780	19.107	63.694	0.528
749.000	453.641	80.007	19.994	103.781	19.090	64.936	0.495
749.500	453.876	80.007	19.994	103.781	19.073	66.180	0.474
750.000	454.174	80.007	19.995	103.782	19.054	67.547	0.507
750.500	454.430	80.008	19.994	103.782	19.034	68.999	0.543
751.000	454.700	80.007	19.994	103.785	19.019	70.118	0.540
751.500	454.943	80.007	19.994	103.793	19.002	71.334	0.519
752.000	455.214	80.007	19.995	103.801	18.983	72.773	0.513
752.500	455.454	80.007	19.994	103.808	18.960	74.390	0.513
753.000	455.716	80.007	19.994	103.815	18.945	75.506	0.507
753.500	455.970	80.008	19.994	103.820	18.927	76.826	0.509
754.000	456.194	80.007	19.993	103.815	18.910	78.088	0.497
754.500	456.476	80.007	19.994	103.807	18.892	79.401	0.492
755.000	456.747	80.008	19.994	103.799	18.872	80.786	0.530
755.500	457.015	80.008	19.994	103.789	18.858	81.821	0.546
756.000	457.220	80.007	19.996	103.775	18.832	83.694	0.506
756.501	457.514	80.007	19.994	103.765	18.815	84.877	0.486
757.000	457.748	80.008	19.994	103.756	18.793	86.415	0.513
757.500	458.008	80.007	19.995	103.749	18.770	88.053	0.511
758.000	458.272	80.008	19.994	103.743	18.752	89.379	0.509
758.500	458.486	80.008	19.994	103.742	18.727	91.173	0.501
759.000	458.736	80.010	19.993	103.742	18.703	92.889	0.471
759.500	459.015	80.010	19.994	103.746	18.674	95.009	0.497
760.000	459.309	80.010	19.995	103.752	18.647	96.963	0.551
760.500	459.533	80.010	19.994	103.759	18.613	99.401	0.546
761.001	459.794	80.009	19.994	103.766	18.584	101.539	0.502
761.501	460.030	80.010	19.994	103.774	18.549	104.058	0.491
762.000	460.282	80.009	19.995	103.779	18.515	106.537	0.492
762.500	460.542	80.010	19.994	103.782	18.477	109.354	0.500
763.000	460.795	80.011	19.993	103.788	18.439	112.140	0.513
763.500	461.042	80.010	19.995	103.799	18.402	114.793	0.507
764.000	461.280	80.010	19.994	103.811	18.364	117.538	0.493
764.500	461.537	80.010	19.993	103.818	18.328	120.176	0.490
765.000	461.851	80.009	19.993	103.818	18.294	122.610	0.533
765.500	462.106	80.010	19.994	103.812	18.264	124.820	0.570
766.000	462.398	80.010	19.994	103.799	18.235	126.831	0.558
766.500	462.607	80.010	19.994	103.779	18.210	128.637	0.524
767.000	462.873	80.009	19.994	103.751	18.177	131.049	0.488
767.500	463.112	80.009	19.995	103.717	18.149	133.049	0.490
768.000	463.383	80.011	19.992	103.678	18.117	135.384	0.507
768.500	463.621	80.010	19.994	103.636	18.082	137.857	0.509
769.000	463.915	80.009	19.992	103.602	18.049	140.273	0.521
769.500	464.097	80.008	19.994	103.582	18.014	142.814	0.504
770.000	464.388	80.009	19.993	103.577	17.982	145.133	0.474
770.500	464.641	80.009	19.993	103.577	17.947	147.663	0.508
771.000	464.875	80.010	19.993	103.588	17.913	150.148	0.516
771.500	465.123	80.008	19.994	103.598	17.877	152.751	0.485
772.000	465.429	80.009	19.993	103.608	17.842	155.345	0.518
772.501	465.646	80.008	19.992	103.621	17.805	158.016	0.539
773.001	465.920	80.010	19.995	103.637	17.769	160.603	0.507
773.500	466.212	80.009	19.994	103.653	17.735	163.057	0.529
774.000	466.473	80.010	19.993	103.665	17.701	165.572	0.560
774.501	466.756	80.009	19.993	103.681	17.665	168.164	0.549
775.000	466.947	80.009	19.993	103.686	17.627	170.890	0.509
775.500	467.208	80.008	19.994	103.684	17.593	173.386	0.462
776.000	467.489	80.009	19.994	103.672	17.558	175.857	0.497
776.500	467.768	80.009	19.995	103.655	17.519	178.636	0.551
777.000	467.970	80.009	19.993	103.632	17.483	181.199	0.520
777.500	468.228	80.009	19.993	103.611	17.448	183.738	0.470
778.000	468.520	80.009	19.995	103.592	17.406	186.728	0.505
778.500	468.781	80.009	19.993	103.584	17.370	189.301	0.552
779.000	469.055	80.009	19.993	103.581	17.329	192.273	0.544
779.500	469.315	80.010	19.993	103.584	17.291	195.026	0.535
780.000	469.604	80.010	19.994	103.586	17.245	198.283	0.541
780.500	469.823	80.009	19.994	103.590	17.201	201.469	0.528
781.000	470.084	80.009	19.996	103.590	17.155	204.830	0.494
781.500	470.312	80.009	19.994	103.592	17.107	208.296	0.485
782.000	470.555	80.008	19.994	103.593	17.058	211.846	0.480
782.500	470.888	80.011	19.994	103.596	17.006	215.534	0.523
783.000	471.082	80.010	19.994	103.601	16.955	219.248	0.551
783.500	471.341	80.010	19.994	103.605	16.896	223.466	0.490
784.000	471.544	80.011	19.993	103.608	16.846	227.115	0.458
784.500	471.812	80.010	19.995	103.616	16.792	230.986	0.467
785.000	472.087	80.010	19.994	103.618	16.735	235.023	0.507
785.500	472.346	80.011	19.994	103.612	16.682	238.841	0.538
786.000	472.624	80.010	19.994	103.611	16.623	243.033	0.535
786.500	472.856	80.010	19.993	103.602	16.571	246.764	0.523
787.000	473.131	80.009	19.993	103.579	16.514	250.893	0.509
787.500	473.408	80.010	19.994	103.562	16.459	254.792	0.530
788.000	473.640	80.011	19.994	103.541	16.401	258.934	0.530
788.500	473.898	80.011	19.995	103.524	16.340	263.337	0.499
789.000	474.139	80.009	19.995	103.503	16.281	267.609	0.495
789.500	474.418	80.010	19.995	103.493	16.220	271.959	0.509
790.000	474.676	80.011	19.994	103.480	16.158	276.427	0.528
790.500	474.954	80.010	19.995	103.474	16.095	281.029	0.537
791.000	475.191	80.010	19.994	103.464	16.030	285.712	0.526
791.500	475.436	80.010	19.993	103.464	15.962	290.578	0.499
792.000	475.703	80.009	19.994	103.459	15.898	295.162	0.497
792.500	475.965	80.009	19.994	103.453	15.832	299.839	0.520
793.000	476.195	80.009	19.995	103.452	15.767	304.432	0.511
793.500	476.469	80.009	19.994	103.444	15.698	309.292	0.498
794.000	476.719	80.009	19.993	103.433	15.631	314.058	0.514
794.500	476.957	80.008	19.993	103.423	15.561	319.082	0.506
795.000	477.229	80.008	19.995	103.413	15.493	323.984	0.499
795.500	477.494	80.006	19.995	103.399	15.420	329.178	0.523
796.000	477.744	80.008	19.996	103.384	15.344	334.647	0.526
796.500	477.966	80.007	19.994	103.364	15.272	339.785	0.494
797.000	478.240	80.007	19.995	103.343	15.199	345.013	0.484
797.500	478.503	80.007	19.994	103.329	15.122	350.491	0.517
798.000	478.769	80.007	19.995	103.315	15.046	355.889	0.533
798.500	479.028	80.007	19.994	103.300	14.973	361.087	0.527
799.000	479.271	80.007	19.994	103.289	14.899	366.391	0.513
799.500	479.555	80.007	19.995	103.280	14.823	371.770	0.515
800.000	479.774	80.007	19.993	103.268	14.748	377.119	0.515
800.500	480.045	80.007	19.994	103.252	14.673	382.450	0.497
801.000	480.270	80.008	19.994	103.252	14.594	388.020	0.493
801.500	480.551	80.009	19.994	103.269	14.515	393.611	0.501
802.000	480.841	80.008	19.995	103.265	14.437	399.162	0.539
802.500	481.069	80.009	19.995	103.251	14.355	405.021	0.544
803.000	481.330	80.008	19.993	103.236	14.278	410.469	0.504
803.500	481.606	80.009	19.995	103.206	14.193	416.549	0.513
804.000	481.839	80.008	19.995	103.162	14.111	422.332	0.523
804.500	482.101	80.008	19.994	103.135	14.031	428.008	0.502
805.000	482.352	80.008	19.994	103.117	13.948	433.908	0.504
805.500	482.581	80.009	19.994	103.104	13.863	439.904	0.496
806.000	482.879	80.007	19.996	103.095	13.777	446.000	0.504
806.500	483.104	80.007	19.994	103.080	13.694	451.887	0.525
807.000	483.385	80.007	19.995	103.068	13.604	458.296	0.515
807.500	483.585	80.008	19.995	103.056	13.519	464.344	0.493
808.000	483.874	80.009	19.993	103.041	13.431	470.607	0.485
808.500	484.103	80.007	19.994	103.026	13.343	476.837	0.503
809.000	484.358	80.008	19.994	103.010	13.252	483.337	0.501
809.500	484.622	80.008	19.995	102.994	13.164	489.602	0.502
810.000	484.861	80.008	19.995	102.971	13.074	496.033	0.511
810.500	485.100	80.007	19.993	102.954	12.986	502.304	0.490
811.000	485.374	80.008	19.996	102.932	12.900	508.391	0.495
811.500	485.642	80.009	19.995	102.914	12.809	514.871	0.528
812.000	485.872	80.007	19.995	102.890	12.719	521.267	0.520
812.500	486.149	80.008	19.995	102.873	12.635	527.205	0.502
813.000	486.418	80.008	19.994	102.856	12.551	533.170	0.526
813.500	486.665	80.007	19.995	102.839	12.468	539.064	0.531
814.000	486.901	80.008	19.995	102.820	12.386	544.904	0.500
814.500	487.136	80.007	19.996	102.803	12.299	551.066	0.477
815.000	487.410	80.008	19.995	102.781	12.219	556.771	0.490
815.500	487.679	80.008	19.997	102.760	12.137	562.652	0.526
816.000	487.901	80.008	19.995	102.740	12.056	568.425	0.517
816.500	488.149	80.007	19.995	102.720	11.976	574.078	0.480
817.001	488.396	80.008	19.995	102.705	11.900	579.452	0.482
817.500	488.640	80.009	19.994	102.688	11.825	584.801	0.493
818.000	488.920	80.007	19.995	102.676	11.752	589.942	0.507
818.500	489.165	80.007	19.995	102.662	11.680	595.077	0.524
819.000	489.409	80.009	19.995	102.648	11.606	600.339	0.507
819.500	489.667	80.008	19.995	102.633	11.538	605.203	0.495
820.000	489.905	80.008	19.995	102.623	11.475	609.719	0.499
820.500	490.159	80.007	19.994	102.608	11.408	614.514	0.494
821.000	490.407	80.008	19.995	102.596	11.352	618.576	0.497
821.501	490.656	80.009	19.995	102.586	11.291	622.971	0.499
822.000	490.919	80.007	19.993	102.575	11.237	626.942	0.504
822.500	491.206	80.008	19.995	102.563	11.187	630.591	0.531
823.000	491.441	80.007	19.994	102.554	11.140	634.017	0.536
823.500	491.700	80.008	19.994	102.542	11.094	637.426	0.509
824.000	491.949	80.008	19.994	102.527	11.055	640.335	0.501
824.500	492.176	80.008	19.994	102.516	11.015	643.260	0.492
825.000	492.418	80.009	19.994	102.505	10.982	645.678	0.473
825.500	492.662	80.008	19.994	102.495	10.951	647.923	0.478
826.000	492.950	80.008	19.994	102.488	10.926	649.784	0.509
826.500	493.173	80.008	19.994	102.483	10.907	651.147	0.521
827.000	493.458	80.008	19.994	102.476	10.891	652.274	0.509
827.500	493.674	80.008	19.994	102.465	10.878	653.245	0.505
828.000	493.957	80.007	19.994	102.458	10.873	653.679	0.500
828.500	494.196	80.008	19.994	102.448	10.869	654.024	0.510
829.000	494.459	80.007	19.994	102.437	10.868	654.159	0.512
829.500	494.740	80.008	19.994	102.429	10.873	653.911	0.523
830.000	494.987	80.007	19.993	102.425	10.882	653.430	0.536
830.500	495.248	80.008	19.994	102.417	10.899	652.296	0.518
831.000	495.498	80.007	19.994	102.415	10.913	651.380	0.510
831.500	495.717	80.007	19.994	102.421	10.935	649.982	0.490
832.000	496.007	80.009	19.995	102.429	10.955	648.623	0.489
832.500	496.244	80.007	19.994	102.436	10.985	646.606	0.518
833.001	496.513	80.008	19.994	102.445	11.022	644.046	0.516
833.501	496.706	80.008	19.995	102.459	11.059	641.519	0.484
834.000	497.042	80.007	19.994	102.469	11.101	638.542	0.496
834.500	497.190	80.007	19.994	102.484	11.148	635.260	0.507
835.000	497.510	80.007	19.994	102.500	11.208	631.091	0.476
835.500	497.712	80.008	19.994	102.513	11.265	627.085	0.495
836.000	498.014	80.009	19.994	102.522	11.326	622.845	0.513
836.500	498.208	80.008	19.993	102.530	11.397	617.841	0.500
837.000	498.547	80.008	19.994	102.532	11.470	612.680	0.514
837.500	498.784	80.008	19.995	102.532	11.544	607.423	0.554
838.000	499.023	80.009	19.995	102.534	11.627	601.603	0.526
838.500	499.241	80.009	19.994	102.537	11.712	595.478	0.466
839.000	499.526	80.009	19.993	102.545	11.803	588.964	0.480
839.500	499.784	80.009	19.993	102.556	11.895	582.507	0.523
840.000	499.997	80.009	19.995	102.570	11.990	575.783	0.507
840.500	500.261	80.009	19.993	102.590	12.096	568.380	0.474
841.000	500.560	80.008	19.993	102.609	12.200	561.140	0.520
841.500	500.763	80.009	19.994	102.626	12.314	553.155	0.532
842.000	500.989	80.009	19.993	102.645	12.427	545.255	0.466
842.500	501.281	80.009	19.995	102.666	12.552	536.410	0.474
843.000	501.523	80.010	19.993	102.685	12.670	528.080	0.526
843.500	501.812	80.010	19.993	102.702	12.801	518.817	0.532
844.000	502.037	80.008	19.994	102.720	12.930	509.648	0.523
844.500	502.255	80.010	19.994	102.736	13.068	499.850	0.478
845.000	502.604	80.009	19.994	102.750	13.207	489.976	0.505
845.501	502.797	80.009	19.993	102.765	13.355	479.441	0.555
846.001	503.053	80.010	19.994	102.784	13.507	468.634	0.496
846.501	503.335	80.009	19.993	102.803	13.657	457.966	0.494
847.000	503.527	80.009	19.994	102.821	13.817	446.540	0.506
847.500	503.845	80.009	19.994	102.840	13.961	436.255	0.492
848.000	504.032	80.009	19.993	102.857	14.131	424.027	0.508
848.500	504.292	80.010	19.994	102.874	14.295	412.281	0.476
849.000	504.553	80.009	19.993	102.891	14.445	401.511	0.484
849.500	504.890	80.008	19.995	102.895	14.608	389.818	0.559
850.000	505.010	80.009	19.995	102.903	14.773	378.006	0.527
850.500	505.331	80.010	19.994	102.925	14.953	364.996	0.449
851.000	505.577	80.009	19.994	102.953	15.122	352.887	0.504
851.500	505.879	80.010	19.993	102.986	15.278	341.603	0.558
852.000	506.117	80.009	19.995	103.039	15.448	329.384	0.544
852.500	506.280	80.009	19.993	103.086	15.618	317.104	0.471
853.000	506.609	80.008	19.993	103.129	15.771	306.092	0.447
853.500	506.856	80.010	19.992	103.165	15.942	293.724	0.533
854.000	507.116	80.009	19.993	103.200	16.101	282.206	0.541
854.500	507.330	80.009	19.993	103.235	16.261	270.630	0.491
855.001	507.635	80.009	19.996	103.271	16.412	259.674	0.496
855.501	507.994	80.007	19.994	103.305	16.570	248.240	0.591
856.000	508.073	80.008	19.994	103.343	16.720	237.312	0.551
856.500	508.461	80.009	19.995	103.381	16.868	226.632	0.453
857.000	508.585	80.009	19.994	103.419	17.014	216.002	0.490
857.500	508.936	80.009	19.995	103.454	17.159	205.452	0.493
858.000	509.199	80.009	19.993	103.486	17.294	195.647	0.544
858.500	509.501	80.009	19.995	103.516	17.428	185.928	0.589
859.000	509.770	80.008	19.993	103.545	17.556	176.578	0.568
859.500	509.910	80.009	19.994	103.575	17.685	167.207	0.490
860.000	510.252	80.009	19.993	103.605	17.805	158.510	0.446
860.500	510.480	80.009	19.994	103.637	17.923	149.913	0.526
861.000	511.004	80.010	19.993	103.669	18.033	141.934	0.661
861.500	510.841	80.008	19.993	103.699	18.142	134.036	0.556
862.000	511.744	80.008	19.993	103.728	18.246	126.461	0.550
862.500	511.602	80.010	19.993	103.752	18.345	119.279	0.750
863.000	511.258	80.009	19.993	103.776	18.439	112.381	0.138
863.501	511.793	80.011	19.992	103.803	18.528	105.943	-0.148
864.000	512.295	80.010	19.993	103.825	18.616	99.529	0.613
864.500	513.001	80.011	19.995	103.844	18.702	93.249	1.122
865.000	513.252	80.009	19.994	103.864	18.780	87.637	1.083
865.500	513.240	80.010	19.993	103.879	18.855	82.155	0.599
866.001	513.119	80.012	19.992	103.888	18.923	77.188	0.053
866.501	513.983	80.011	19.993	103.901	18.989	72.396	0.305
867.000	513.546	80.011	19.992	103.911	19.051	67.871	0.585
867.500	514.107	80.012	19.992	103.921	19.110	63.620	0.276
868.000	514.316	80.012	19.993	103.930	19.166	59.569	0.447
868.500	514.645	80.011	19.993	103.937	19.216	55.916	0.654
869.000	514.907	80.012	19.993	103.939	19.261	52.596	0.564
869.500	515.157	80.011	19.992	103.940	19.306	49.377	0.551
870.000	515.289	80.010	19.994	103.939	19.356	45.735	0.447
870.500	515.560	80.010	19.994	103.938	19.394	42.967	0.393
871.000	515.876	80.011	19.994	103.941	19.433	40.142	0.495
871.500	516.074	80.011	19.994	103.946	19.467	37.683	0.551
872.000	516.494	80.011	19.994	103.946	19.501	35.195	0.566
872.500	516.595	80.010	19.995	103.946	19.528	33.184	0.569
873.000	516.992	80.011	19.994	103.945	19.557	31.083	0.510
873.500	517.149	80.010	19.993	103.942	19.582	29.319	0.526
874.000	517.399	80.010	19.996	103.936	19.606	27.516	0.480
874.500	517.700	80.010	19.993	103.936	19.629	25.908	0.479
875.000	517.967	80.011	19.994	103.936	19.650	24.339	0.560
875.500	518.176	80.011	19.994	103.936	19.671	22.853	0.522
876.000	518.497	80.008	19.995	103.936	19.687	21.634	0.503
876.500	518.748	80.008	19.994	103.936	19.703	20.501	0.551
877.000	519.037	80.008	19.993	103.936	19.718	19.378	0.556
877.500	519.187	80.008	19.994	103.932	19.731	18.427	0.489
878.000	519.610	80.009	19.994	103.926	19.745	17.428	0.506
878.500	519.828	80.009	19.995	103.921	19.755	16.695	0.607
879.000	520.093	80.009	19.994	103.918	19.766	15.891	0.562
879.500	520.354	80.009	19.994	103.911	19.779	14.947	0.504
880.000	520.537	80.008	19.996	103.908	19.787	14.388	0.485
880.500	520.938	80.008	19.993	103.908	19.795	13.784	0.514
881.000	521.112	80.008	19.994	103.907	19.807	12.951	0.579
881.500	521.403	80.008	19.994	103.905	19.816	12.248	0.520
882.000	521.674	80.007	19.994	103.905	19.818	12.143	0.514
882.500	521.905	80.009	19.994	103.906	19.825	11.603	0.532
883.000	522.163	80.008	19.994	103.905	19.834	10.942	0.495
883.500	522.432	80.008	19.995	103.904	19.840	10.554	0.508
884.000	522.705	80.008	19.995	103.902	19.843	10.300	0.535
884.500	523.004	80.009	19.994	103.901	19.846	10.062	0.557
885.000	523.283	80.008	19.996	103.900	19.852	9.695	0.575
885.500	523.483	80.008	19.994	103.898	19.856	9.341	0.529
886.000	523.840	80.008	19.994	103.898	19.860	9.069	0.518
886.500	524.105	80.007	19.993	103.898	19.866	8.633	0.589
887.000	524.352	80.008	19.995	103.899	19.865	8.693	0.567
887.500	524.587	80.008	19.995	103.898	19.869	8.436	0.497
888.000	524.852	80.008	19.995	103.898	19.872	8.244	0.491
888.500	525.178	80.009	19.995	103.898	19.878	7.807	0.545
889.000	525.387	80.010	19.995	103.898	19.881	7.539	0.563
889.500	525.699	80.009	19.994	103.898	19.883	7.405	0.528
890.000	525.956	80.008	19.994	103.891	19.884	7.311	0.545
890.500	526.217	80.009	19.995	103.887	19.886	7.177	0.544
891.000	526.467	80.009	19.993	103.885	19.885	7.248	0.514
891.500	526.733	80.010	19.996	103.884	19.888	7.010	0.513
892.000	527.001	80.010	19.996	103.882	19.887	7.096	0.525
892.500	527.288	80.009	19.994	103.886	19.891	6.806	0.544
893.000	527.528	80.009	19.995	103.889	19.892	6.743	0.541
893.500	527.829	80.010	19.994	103.885	19.895	6.513	0.534
894.000	528.095	80.008	19.994	103.885	19.893	6.656	0.554
894.500	528.349	80.008	19.994	103.885	19.899	6.206	0.544
895.000	528.624	80.008	19.995	103.887	19.901	6.075	0.524
895.500	528.922	80.009	19.994	103.885	19.902	6.058	0.551
896.000	529.150	80.009	19.994	103.883	19.904	5.902	0.550
896.500	529.474	80.009	19.994	103.877	19.903	5.976	0.539
897.000	529.724	80.010	19.994	103.877	19.906	5.698	0.563
897.500	529.982	80.009	19.993	103.873	19.906	5.753	0.541
898.000	530.251	80.009	19.994	103.871	19.909	5.544	0.518
898.500	530.561	80.008	19.995	103.875	19.908	5.551	0.554
899.000	530.805	80.009	19.994	103.880	19.910	5.405	0.566
899.500	531.059	80.008	19.995	103.879	19.911	5.373	0.526
900.000	531.321	80.009	19.995	103.878	19.915	5.068	0.507
900.500	531.587	80.009	19.994	103.880	19.912	5.253	0.522
901.000	531.871	80.008	19.994	103.875	19.914	5.152	0.539
901.500	532.089	80.010	19.996	103.870	19.914	5.137	0.526
902.000	532.387	80.008	19.995	103.865	19.911	5.380	0.509
902.500	532.682	80.008	19.994	103.862	19.915	5.083	0.555
903.000	532.948	80.008	19.995	103.855	19.914	5.138	0.577
903.500	533.199	80.007	19.995	103.850	19.914	5.169	0.539
904.000	533.462	80.009	19.996	103.841	19.915	5.105	0.515
904.500	533.753	80.008	19.994	103.830	19.916	4.984	0.534
905.000	534.007	80.006	19.996	103.817	19.913	5.230	0.550
905.500	534.309	80.008	19.995	103.802	19.918	4.889	0.550
906.000	534.535	80.008	19.994	103.785	19.918	4.880	0.542
906.500	534.810	80.008	19.994	103.769	19.915	5.054	0.515
907.000	535.110	80.007	19.995	103.750	19.916	5.044	0.538
907.500	535.339	80.007	19.994	103.732	19.920	4.695	0.552
908.000	535.646	80.008	19.995	103.711	19.918	4.861	0.532
908.500	535.922	80.008	19.996	103.690	19.920	4.722	0.559
909.000	536.214	80.008	19.995	103.669	19.919	4.792	0.576
909.501	536.454	80.008	19.995	103.653	19.919	4.778	0.551
910.001	536.732	80.007	19.996	103.639	19.919	4.793	0.525
910.500	536.998	80.006	19.995	103.631	19.918	4.831	0.531
911.000	537.263	80.007	19.995	103.631	19.921	4.683	0.537
911.500	537.568	80.008	19.996	103.637	19.919	4.767	0.550
912.000	537.809	80.008	19.994	103.649	19.917	4.909	0.558
912.500	538.056	80.007	19.994	103.665	19.923	4.467	0.517
913.000	538.359	80.008	19.995	103.686	19.919	4.773	0.519
913.500	538.631	80.007	19.996	103.708	19.920	4.707	0.563
914.000	538.919	80.007	19.996	103.731	19.919	4.829	0.567
914.500	539.181	80.006	19.995	103.751	19.922	4.609	0.555
915.001	539.457	80.008	19.997	103.770	19.920	4.695	0.544
915.500	539.731	80.008	19.997	103.787	19.922	4.550	0.544
916.000	539.966	80.007	19.996	103.802	19.922	4.550	0.529
916.501	540.259	80.008	19.995	103.810	19.922	4.546	0.519
917.000	540.495	80.007	19.995	103.824	19.920	4.696	0.529
917.500	540.769	80.009	19.995	103.834	19.923	4.526	0.519
918.000	541.014	80.009	19.995	103.843	19.921	4.629	0.514
918.500	541.327	80.007	19.995	103.851	19.924	4.458	0.539
919.000	541.565	80.009	19.993	103.859	19.925	4.368	0.555
919.500	541.872	80.009	19.994	103.865	19.923	4.480	0.548
920.000	542.087	80.010	19.995	103.872	19.926	4.300	0.533
920.500	542.352	80.010	19.993	103.880	19.927	4.204	0.501
921.000	542.661	80.008	19.994	103.885	19.925	4.360	0.527
921.500	542.933	80.009	19.995	103.888	19.928	4.134	0.578
922.000	543.153	80.009	19.994	103.891	19.922	4.545	0.537
922.500	543.460	80.010	19.994	103.891	19.923	4.474	0.509
923.000	543.696	80.009	19.995	103.892	19.925	4.368	0.535
923.500	544.021	80.010	19.994	103.895	19.926	4.282	0.552
924.000	544.224	80.009	19.994	103.899	19.926	4.284	0.545
924.500	544.503	80.011	19.993	103.899	19.923	4.498	0.505
925.000	544.777	80.009	19.993	103.900	19.925	4.370	0.517
925.500	545.035	80.009	19.994	103.900	19.925	4.358	0.542
926.000	545.278	80.009	19.994	103.900	19.926	4.306	0.516
926.500	545.584	80.011	19.993	103.903	19.927	4.202	0.525
927.000	545.809	80.009	19.993	103.904	19.927	4.214	0.541
927.500	546.123	80.009	19.995	103.905	19.926	4.292	0.535
928.000	546.361	80.009	19.993	103.905	19.925	4.334	0.545
928.500	546.603	80.011	19.994	103.905	19.926	4.258	0.516
929.000	546.892	80.010	19.994	103.902	19.927	4.242	0.505
929.500	547.218	80.009	19.995	103.902	19.931	3.956	0.573
930.001	547.431	80.011	19.994	103.900	19.924	4.419	0.577
930.500	547.675	80.009	19.994	103.900	19.930	3.976	0.498
931.000	547.971	80.010	19.993	103.900	19.925	4.336	0.499
931.500	548.253	80.009	19.993	103.900	19.926	4.292	0.559
932.000	548.499	80.010	19.993	103.900	19.927	4.222	0.553
932.500	548.813	80.010	19.993	103.901	19.929	4.072	0.544
933.000	549.011	80.009	19.994	103.900	19.927	4.234	0.536
933.500	549.311	80.010	19.993	103.901	19.928	4.128	0.505
934.000	549.579	80.009	19.994	103.901	19.928	4.140	0.533
934.500	549.845	80.009	19.994	103.901	19.928	4.118	0.551
935.000	550.082	80.008	19.994	103.901	19.927	4.182	0.519
935.500	550.401	80.009	19.993	103.901	19.927	4.220	0.529
936.000	550.649	80.009	19.995	103.900	19.928	4.124	0.562
936.500	550.928	80.009	19.994	103.900	19.927	4.230	0.547
937.000	551.166	80.009	19.994	103.899	19.930	3.996	0.522
937.500	551.428	80.010	19.995	103.899	19.929	4.060	0.508
938.000	551.679	80.009	19.994	103.898	19.926	4.296	0.506
938.500	551.962	80.010	19.994	103.898	19.925	4.357	0.524
939.000	552.196	80.009	19.993	103.896	19.927	4.195	0.526
939.500	552.495	80.009	19.994	103.895	19.925	4.355	0.525
940.000	552.726	80.010	19.995	103.895	19.927	4.199	0.531
940.500	553.002	80.010	19.993	103.895	19.928	4.159	0.519
941.000	553.276	80.009	19.993	103.895	19.927	4.201	0.529
941.500	553.527	80.009	19.995	103.896	19.927	4.180	0.537
942.000	553.818	80.009	19.994	103.897	19.930	3.992	0.533
942.500	554.080	80.010	19.994	103.897	19.931	3.956	0.547
943.000	554.333	80.010	19.995	103.897	19.931	3.948	0.535
943.500	554.626	80.010	19.994	103.897	19.932	3.884	0.531
944.000	554.876	80.010	19.994	103.897	19.929	4.056	0.544
944.500	555.114	80.010	19.994	103.896	19.929	4.040	0.515
945.000	555.398	80.010	19.995	103.896	19.931	3.952	0.505
945.500	555.644	80.011	19.994	103.896	19.931	3.928	0.526
946.000	555.888	80.011	19.994	103.896	19.931	3.931	0.510
946.500	556.162	80.012	19.994	103.895	19.931	3.905	0.504
947.000	556.408	80.010	19.994	103.896	19.927	4.193	0.519
947.500	556.684	80.011	19.994	103.896	19.927	4.221	0.521
948.000	556.942	80.011	19.993	103.896	19.928	4.127	0.528
948.500	557.178	80.011	19.993	103.895	19.929	4.099	0.514
949.001	557.436	80.012	19.993	103.895	19.928	4.108	0.493
949.501	557.710	80.012	19.995	103.894	19.930	4.006	0.513
950.000	557.987	80.012	19.994	103.890	19.931	3.935	0.542
950.500	558.234	80.010	19.993	103.887	19.930	4.005	0.537
951.000	558.516	80.012	19.994	103.889	19.930	3.963	0.527
951.500	558.754	80.012	19.994	103.890	19.930	4.019	0.525
952.000	559.023	80.012	19.993	103.891	19.928	4.160	0.513
952.500	559.263	80.011	19.993	103.893	19.928	4.143	0.508
953.000	559.519	80.009	19.993	103.893	19.928	4.135	0.503
953.500	559.789	80.011	19.995	103.891	19.932	3.863	0.511
954.000	560.021	80.011	19.994	103.891	19.930	4.021	0.514
954.500	560.311	80.011	19.994	103.891	19.930	3.997	0.512
955.000	560.563	80.011	19.992	103.891	19.930	4.025	0.532
955.500	560.829	80.011	19.993	103.889	19.929	4.071	0.530
956.000	561.072	80.010	19.993	103.890	19.928	4.134	0.513
956.500	561.346	80.010	19.994	103.888	19.925	4.346	0.513
957.000	561.635	80.011	19.993	103.883	19.929	4.073	0.540
957.500	561.850	80.008	19.993	103.880	19.930	4.009	0.533
958.000	562.124	80.009	19.995	103.883	19.928	4.152	0.497
958.500	562.410	80.009	19.994	103.884	19.930	3.981	0.525
959.000	562.673	80.008	19.994	103.885	19.928	4.145	0.554
959.500	562.919	80.009	19.994	103.888	19.931	3.929	0.529
960.000	563.177	80.008	19.995	103.893	19.926	4.276	0.506
960.500	563.440	80.008	19.995	103.890	19.927	4.180	0.513
961.000	563.692	80.008	19.995	103.884	19.928	4.140	0.519
961.500	563.892	80.009	19.994	103.878	19.929	4.057	0.484
962.000	564.173	80.009	19.994	103.874	19.928	4.154	0.466
962.501	564.432	80.008	19.994	103.868	19.929	4.061	0.510
963.000	564.681	80.010	19.995	103.865	19.929	4.075	0.524
963.500	564.917	80.008	19.994	103.866	19.931	3.915	0.496
964.000	565.211	80.009	19.994	103.869	19.935	3.663	0.507
964.500	565.500	80.008	19.995	103.872	19.930	4.015	0.557
965.000	565.721	80.008	19.994	103.873	19.931	3.911	0.546
965.500	565.991	80.008	19.995	103.872	19.931	3.895	0.500
966.000	566.237	80.007	19.994	103.872	19.931	3.937	0.504
966.500	566.467	80.008	19.995	103.869	19.931	3.907	0.496
967.000	566.757	80.008	19.995	103.865	19.931	3.895	0.498
967.500	566.999	80.009	19.994	103.863	19.932	3.871	0.526
968.000	567.307	80.009	19.996	103.864	19.930	3.996	0.541
968.500	567.535	80.008	19.996	103.865	19.930	3.986	0.543
969.000	567.764	80.009	19.996	103.865	19.932	3.864	0.497
969.501	568.023	80.008	19.995	103.867	19.930	4.003	0.473
970.001	568.244	80.007	19.996	103.868	19.930	3.965	0.484
970.500	568.531	80.009	19.994	103.867	19.931	3.933	0.494
971.000	568.777	80.009	19.994	103.865	19.932	3.824	0.521
971.501	569.063	80.008	19.995	103.866	19.934	3.718	0.533
972.000	569.294	80.009	19.996	103.863	19.932	3.861	0.525
972.500	569.567	80.009	19.994	103.865	19.933	3.786	0.511
973.000	569.795	80.009	19.996	103.864	19.935	3.658	0.503
973.500	570.058	80.009	19.995	103.866	19.932	3.853	0.496
974.000	570.320	80.009	19.994	103.866	19.930	3.969	0.508
974.500	570.572	80.006	19.993	103.867	19.934	3.722	0.520
975.001	570.833	80.008	19.996	103.865	19.930	4.003	0.514
975.501	571.109	80.009	19.995	103.868	19.932	3.833	0.525
976.000	571.351	80.009	19.995	103.868	19.932	3.871	0.527
976.500	571.613	80.009	19.996	103.869	19.933	3.788	0.511
977.000	571.878	80.009	19.996	103.870	19.934	3.724	0.515
977.500	572.162	80.010	19.996	103.873	19.934	3.698	0.538
978.000	572.407	80.009	19.996	103.876	19.933	3.766	0.539
978.500	572.679	80.010	19.996	103.882	19.933	3.804	0.523
979.000	572.915	80.009	19.996	103.888	19.933	3.750	0.512
979.500	573.175	80.009	19.996	103.888	19.931	3.942	0.502
980.000	573.456	80.010	19.996	103.888	19.932	3.820	0.519
980.500	573.729	80.008	19.994	103.886	19.931	3.936	0.548
981.000	573.942	80.009	19.995	103.884	19.932	3.858	0.520
981.500	574.251	80.009	19.995	103.879	19.931	3.948	0.504
982.000	574.463	80.009	19.995	103.885	19.932	3.870	0.521
982.500	574.749	80.009	19.994	103.884	19.931	3.940	0.510
983.000	574.988	80.009	19.995	103.882	19.932	3.828	0.512
983.500	575.260	80.008	19.994	103.881	19.932	3.822	0.517
984.000	575.506	80.008	19.994	103.881	19.931	3.900	0.514
984.500	575.782	80.010	19.995	103.879	19.932	3.866	0.520
985.000	576.027	80.007	19.993	103.881	19.931	3.892	0.522
985.500	576.303	80.009	19.994	103.880	19.936	3.580	0.520
986.000	576.541	80.008	19.993	103.878	19.935	3.642	0.517
986.500	576.808	80.007	19.994	103.880	19.932	3.846	0.510
987.000	577.081	80.009	19.993	103.881	19.934	3.732	0.523
987.500	577.310	80.009	19.995	103.883	19.934	3.736	0.521
988.001	577.563	80.008	19.994	103.887	19.933	3.806	0.492
988.501	577.802	80.008	19.996	103.891	19.935	3.636	0.487
989.000	578.072	80.009	19.995	103.892	19.933	3.796	0.501
989.500	578.363	80.007	19.994	103.894	19.936	3.524	0.535
990.000	578.580	80.007	19.994	103.895	19.932	3.830	0.534
990.500	578.871	80.007	19.994	103.897	19.930	3.990	0.508
991.000	579.106	80.007	19.993	103.897	19.931	3.958	0.517
991.500	579.349	80.008	19.995	103.894	19.932	3.862	0.502
992.001	579.586	80.006	19.995	103.892	19.934	3.700	0.479
992.500	579.826	80.006	19.994	103.892	19.933	3.794	0.479
993.000	580.090	80.007	19.994	103.892	19.933	3.746	0.490
993.500	580.350	80.007	19.995	103.893	19.932	3.868	0.514
994.000	580.597	80.008	19.995	103.893	19.933	3.808	0.515
994.500	580.864	80.007	19.996	103.893	19.929	4.078	0.511
995.000	581.127	80.007	19.995	103.892	19.931	3.922	0.522
995.500	581.365	80.007	19.995	103.892	19.935	3.644	0.515
996.000	581.634	80.007	19.995	103.890	19.932	3.836	0.504
996.500	581.859	80.008	19.995	103.889	19.932	3.860	0.500
997.000	582.117	80.008	19.995	103.888	19.934	3.678	0.489
997.500	582.392	80.008	19.995	103.888	19.932	3.830	0.508
998.000	582.631	80.008	19.995	103.890	19.931	3.898	0.523
998.500	582.911	80.007	19.995	103.891	19.933	3.802	0.517
999.000	583.125	80.008	19.995	103.897	19.934	3.716	0.507
999.500	583.394	80.009	19.995	103.894	19.933	3.746	0.488
1000.000	583.662	80.009	19.994	103.891	19.933	3.790	0.510
1000.500	583.891	80.009	19.995	103.889	19.934	3.722	0.517
1001.000	584.145	80.008	19.994	103.890	19.931	3.890	0.490
1001.500	584.396	80.009	19.995	103.887	19.933	3.764	0.494
1002.000	584.681	80.008	19.996	103.890	19.931	3.932	0.521
1002.500	584.951	80.009	19.995	103.889	19.931	3.920	0.545
1003.000	585.176	80.008	19.995	103.885	19.931	3.890	0.525
1003.500	585.443	80.009	19.995	103.882	19.932	3.870	0.494
1004.000	585.639	80.008	19.994	103.884	19.933	3.782	0.477
1004.500	585.910	80.009	19.997	103.886	19.933	3.798	0.465
1005.000	586.168	80.010	19.995	103.889	19.930	4.026	0.498
1005.500	586.453	80.011	19.996	103.892	19.933	3.752	0.536
1006.000	586.680	80.011	19.996	103.894	19.932	3.836	0.528
1006.500	586.923	80.010	19.994	103.893	19.932	3.854	0.491
1007.000	587.192	80.011	19.994	103.893	19.932	3.884	0.491
1007.500	587.441	80.009	19.995	103.892	19.932	3.858	0.515
1008.000	587.713	80.009	19.995	103.886	19.931	3.942	0.520
1008.500	587.931	80.010	19.994	103.883	19.932	3.826	0.506
1009.000	588.197	80.010	19.994	103.885	19.937	3.486	0.487
1009.500	588.488	80.009	19.994	103.886	19.933	3.752	0.520
1010.000	588.692	80.009	19.994	103.886	19.932	3.834	0.526
1010.500	588.956	80.009	19.994	103.889	19.931	3.890	0.482
1011.000	589.240	80.010	19.995	103.891	19.932	3.830	0.508
1011.500	589.504	80.009	19.994	103.892	19.932	3.862	0.548
1012.000	589.778	80.010	19.994	103.889	19.932	3.870	0.543
1012.500	590.000	80.009	19.993	103.890	19.933	3.778	0.517
1013.000	590.289	80.009	19.995	103.893	19.928	4.119	0.504
1013.500	590.501	80.009	19.994	103.893	19.933	3.782	0.506
1014.000	590.781	80.009	19.994	103.893	19.930	3.994	0.496
1014.500	591.012	80.009	19.994	103.892	19.932	3.846	0.501
1015.000	591.234	80.009	19.994	103.890	19.929	4.036	0.482
1015.500	591.506	80.009	19.994	103.891	19.930	3.968	0.474
1016.000	591.772	80.010	19.993	103.890	19.932	3.848	0.517
1016.500	591.996	80.011	19.993	103.885	19.931	3.910	0.514
1017.000	592.271	80.008	19.994	103.886	19.932	3.876	0.494
1017.500	592.537	80.009	19.994	103.886	19.933	3.778	0.520
1018.000	592.792	80.009	19.994	103.885	19.934	3.704	0.531
1018.500	593.076	80.009	19.993	103.886	19.932	3.864	0.530
1019.000	593.315	80.009	19.994	103.891	19.936	3.548	0.531
1019.500	593.573	80.009	19.994	103.891	19.934	3.680	0.510
1020.000	593.834	80.009	19.994	103.891	19.934	3.690	0.508
1020.500	594.083	80.010	19.994	103.890	19.935	3.611	0.515
1021.000	594.364	80.009	19.995	103.889	19.934	3.719	0.520
1021.500	594.624	80.009	19.994	103.887	19.935	3.653	0.535
1022.000	594.829	80.008	19.994	103.884	19.933	3.759	0.503
1022.500	595.113	80.010	19.993	103.885	19.935	3.617	0.477
1023.000	595.395	80.010	19.995	103.885	19.933	3.765	0.528
1023.500	595.638	80.010	19.994	103.886	19.932	3.847	0.546
1024.000	595.884	80.009	19.994	103.889	19.934	3.698	0.507
1024.500	596.154	80.010	19.994	103.894	19.935	3.622	0.502
1025.000	596.390	80.010	19.994	103.895	19.934	3.724	0.511
1025.500	596.667	80.011	19.993	103.897	19.936	3.584	0.510
1026.000	596.907	80.010	19.995	103.894	19.934	3.700	0.515
1026.500	597.195	80.010	19.993	103.892	19.933	3.794	0.523
1027.000	597.436	80.010	19.995	103.890	19.934	3.704	0.528
1027.501	597.688	80.012	19.994	103.888	19.935	3.608	0.510
1028.001	597.905	80.011	19.994	103.884	19.938	3.442	0.481
1028.500	598.231	80.011	19.995	103.885	19.935	3.654	0.506
1029.001	598.454	80.011	19.994	103.887	19.937	3.478	0.546
1029.501	598.693	80.012	19.996	103.887	19.931	3.896	0.505
1030.001	598.984	80.011	19.994	103.885	19.933	3.750	0.496
1030.501	599.214	80.010	19.994	103.882	19.934	3.716	0.526
1031.000	599.498	80.012	19.993	103.877	19.934	3.734	0.518
1031.501	599.764	80.011	19.994	103.873	19.933	3.742	0.532
1032.001	599.987	80.011	19.995	103.869	19.935	3.664	0.520
1032.500	600.248	80.011	19.994	103.869	19.933	3.740	0.486
1033.000	600.527	80.013	19.994	103.871	19.933	3.789	0.512
1033.500	600.781	80.011	19.993	103.872	19.932	3.869	0.537
1034.000	601.080	80.011	19.994	103.876	19.929	4.093	0.543
1034.500	601.312	80.010	19.991	103.880	19.931	3.945	0.542
1035.000	601.530	80.009	19.994	103.884	19.932	3.823	0.490
1035.500	601.819	80.011	19.994	103.890	19.934	3.735	0.478
1036.000	602.079	80.010	19.994	103.895	19.932	3.849	0.528
1036.500	602.340	80.011	19.994	103.895	19.934	3.701	0.535
1037.000	602.615	80.009	19.994	103.891	19.933	3.763	0.528
1037.500	602.862	80.009	19.995	103.888	19.932	3.883	0.530
1038.001	603.086	80.009	19.994	103.887	19.932	3.849	0.497
1038.501	603.328	80.009	19.994	103.885	19.935	3.665	0.468
1039.000	603.604	80.009	19.993	103.884	19.934	3.738	0.492
1039.501	603.830	80.010	19.993	103.883	19.934	3.728	0.510
1040.001	604.123	80.008	19.993	103.883	19.935	3.610	0.511
1040.500	604.371	80.008	19.995	103.884	19.934	3.672	0.530
1041.000	604.599	80.009	19.993	103.884	19.937	3.466	0.509
1041.501	604.886	80.009	19.994	103.885	19.931	3.897	0.495
1042.001	605.139	80.010	19.995	103.890	19.935	3.649	0.528
1042.501	605.390	80.008	19.994	103.891	19.936	3.539	0.522
1043.001	605.645	80.010	19.995	103.885	19.936	3.593	0.505
1043.501	605.888	80.009	19.994	103.880	19.936	3.534	0.502
1044.000	606.180	80.009	19.995	103.874	19.933	3.765	0.516
1044.500	606.416	80.008	19.994	103.870	19.934	3.689	0.532
1045.000	606.648	80.008	19.994	103.872	19.933	3.769	0.498
1045.500	606.932	80.008	19.995	103.875	19.935	3.661	0.492
1046.000	607.153	80.009	19.995	103.877	19.933	3.771	0.510
1046.500	607.430	80.010	19.995	103.877	19.932	3.815	0.501
1047.000	607.731	80.010	19.994	103.878	19.936	3.594	0.538
1047.500	607.948	80.009	19.995	103.872	19.935	3.608	0.548
1048.000	608.183	80.008	19.994	103.869	19.933	3.770	0.485
1048.500	608.471	80.009	19.994	103.868	19.931	3.893	0.488
1049.000	608.719	80.008	19.992	103.869	19.935	3.631	0.530
1049.500	608.975	80.009	19.994	103.875	19.931	3.895	0.520
1050.000	609.224	80.009	19.994	103.879	19.934	3.669	0.505
1050.500	609.474	80.008	19.995	103.882	19.935	3.619	0.502
1051.001	609.739	80.008	19.994	103.882	19.933	3.799	0.507
1051.501	610.011	80.009	19.995	103.881	19.936	3.541	0.527
1052.000	610.269	80.010	19.994	103.875	19.935	3.631	0.533
1052.500	610.513	80.009	19.994	103.871	19.940	3.296	0.515
1053.000	610.780	80.008	19.995	103.870	19.936	3.529	0.507
1053.500	611.040	80.008	19.995	103.870	19.932	3.871	0.519
1054.000	611.298	80.009	19.994	103.872	19.934	3.701	0.522
1054.500	611.575	80.008	19.994	103.872	19.935	3.607	0.527
1055.000	611.840	80.008	19.993	103.872	19.936	3.523	0.539
1055.501	612.057	80.008	19.994	103.871	19.935	3.597	0.512
1056.001	612.328	80.009	19.995	103.870	19.938	3.438	0.485
1056.500	612.553	80.008	19.993	103.869	19.937	3.490	0.492
1057.000	612.843	80.009	19.993	103.874	19.938	3.439	0.506
1057.500	613.088	80.009	19.994	103.880	19.936	3.555	0.525
1058.000	613.352	80.009	19.994	103.884	19.936	3.525	0.522
1058.500	613.628	80.009	19.995	103.884	19.935	3.639	0.525
1059.001	613.862	80.008	19.995	103.882	19.934	3.687	0.525
1059.501	614.072	80.009	19.995	103.877	19.937	3.473	0.477
1060.000	614.399	80.009	19.994	103.871	19.939	3.368	0.491
1060.500	614.624	80.010	19.994	103.868	19.938	3.448	0.545
1061.001	614.874	80.009	19.994	103.871	19.938	3.398	0.514
1061.501	615.131	80.009	19.994	103.871	19.938	3.444	0.491
1062.000	615.376	80.009	19.994	103.869	19.937	3.490	0.504
1062.500	615.655	80.009	19.995	103.869	19.937	3.516	0.513
1063.000	615.895	80.009	19.994	103.869	19.938	3.416	0.522
1063.500	616.150	80.010	19.994	103.867	19.937	3.451	0.507
1064.000	616.430	80.010	19.994	103.868	19.935	3.595	0.515
1064.500	616.675	80.009	19.996	103.870	19.938	3.387	0.530
1065.000	616.916	80.008	19.995	103.868	19.935	3.643	0.505
1065.500	617.182	80.009	19.996	103.870	19.937	3.505	0.497
1066.000	617.426	80.008	19.996	103.869	19.940	3.266	0.509
1066.500	617.659	80.009	19.995	103.869	19.939	3.318	0.493
1067.000	617.938	80.008	19.996	103.869	19.939	3.349	0.495
1067.500	618.153	80.009	19.995	103.871	19.939	3.356	0.503
1068.000	618.447	80.009	19.995	103.866	19.939	3.318	0.502
1068.500	618.693	80.009	19.995	103.865	19.940	3.264	0.525
1069.000	618.986	80.009	19.995	103.866	19.938	3.418	0.539
1069.500	619.203	80.009	19.996	103.864	19.937	3.475	0.524
1070.000	619.466	80.010	19.995	103.865	19.935	3.647	0.495
1070.500	619.744	80.010	19.995	103.865	19.939	3.359	0.511
1071.000	619.962	80.009	19.995	103.868	19.937	3.485	0.519
1071.501	620.231	80.010	19.995	103.875	19.938	3.409	0.491
1072.001	620.501	80.009	19.995	103.878	19.936	3.535	0.513
1072.500	620.739	80.010	19.995	103.875	19.937	3.505	0.524
1073.000	620.984	80.009	19.995	103.878	19.936	3.543	0.496
1073.500	621.243	80.009	19.995	103.875	19.933	3.747	0.493
1074.000	621.494	80.008	19.995	103.867	19.935	3.649	0.507
1074.500	621.720	80.009	19.994	103.864	19.940	3.285	0.494
1075.000	622.013	80.009	19.996	103.864	19.935	3.619	0.498
1075.500	622.249	80.008	19.994	103.861	19.937	3.465	0.524
1076.000	622.506	80.008	19.996	103.860	19.936	3.533	0.511
1076.500	622.752	80.008	19.995	103.862	19.936	3.521	0.498
1077.000	623.011	80.009	19.993	103.864	19.934	3.729	0.504
1077.500	623.241	80.009	19.995	103.863	19.936	3.535	0.497
1078.000	623.500	80.009	19.995	103.863	19.935	3.605	0.489
1078.500	623.742	80.008	19.996	103.866	19.938	3.439	0.495
1079.000	624.024	80.008	19.994	103.867	19.934	3.709	0.513
1079.500	624.263	80.009	19.995	103.866	19.934	3.701	0.523
1080.000	624.521	80.010	19.995	103.867	19.936	3.583	0.509
1080.500	624.776	80.009	19.995	103.867	19.936	3.549	0.505
1081.000	625.013	80.010	19.994	103.864	19.937	3.485	0.502
1081.500	625.277	80.008	19.994	103.861	19.934	3.733	0.496
1082.000	625.544	80.009	19.995	103.861	19.936	3.575	0.516
1082.500	625.776	80.009	19.994	103.863	19.937	3.503	0.515
1083.000	626.009	80.009	19.995	103.867	19.937	3.515	0.482
1083.500	626.255	80.009	19.995	103.868	19.938	3.409	0.472
1084.000	626.546	80.009	19.994	103.868	19.937	3.479	0.509
1084.500	626.789	80.010	19.996	103.866	19.939	3.333	0.535
1085.000	626.998	80.009	19.995	103.864	19.935	3.653	0.493
1085.500	627.257	80.010	19.995	103.860	19.936	3.565	0.460
1086.000	627.503	80.009	19.995	103.861	19.935	3.659	0.486
1086.501	627.752	80.009	19.995	103.862	19.936	3.579	0.500
1087.000	627.983	80.011	19.995	103.864	19.937	3.505	0.487
1087.500	628.252	80.010	19.994	103.864	19.937	3.487	0.490
1088.000	628.480	80.010	19.996	103.863	19.935	3.633	0.499
1088.500	628.761	80.010	19.993	103.862	19.935	3.609	0.503
1089.000	629.015	80.010	19.993	103.865	19.938	3.395	0.522
1089.501	629.276	80.010	19.996	103.864	19.938	3.414	0.525
1090.000	629.526	80.009	19.994	103.865	19.936	3.527	0.513
1090.500	629.764	80.010	19.994	103.865	19.937	3.517	0.499
1091.000	630.007	80.009	19.995	103.864	19.940	3.256	0.484
1091.500	630.242	80.007	19.994	103.859	19.937	3.479	0.480
1092.000	630.521	80.009	19.995	103.859	19.935	3.621	0.497
1092.500	630.770	80.008	19.995	103.862	19.937	3.469	0.521
1093.000	631.004	80.009	19.995	103.864	19.937	3.511	0.505
1093.500	631.252	80.010	19.994	103.864	19.937	3.491	0.483
1094.000	631.485	80.009	19.995	103.864	19.936	3.555	0.482
1094.500	631.773	80.009	19.993	103.864	19.936	3.553	0.501
1095.000	632.035	80.010	19.996	103.861	19.939	3.330	0.535
1095.500	632.245	80.008	19.997	103.859	19.938	3.413	0.511
1096.000	632.526	80.008	19.999	103.865	19.936	3.535	0.482
1096.500	632.784	80.009	19.996	103.871	19.939	3.311	0.515
1097.000	633.054	80.008	19.997	103.870	19.940	3.282	0.533
1097.500	633.303	80.008	19.995	103.869	19.936	3.535	0.524
1098.000	633.537	80.009	19.995	103.869	19.937	3.471	0.501
1098.500	633.797	80.008	19.997	103.864	19.937	3.474	0.488
1099.000	634.037	80.007	19.994	103.859	19.935	3.641	0.497
1099.500	634.254	80.007	19.996	103.860	19.937	3.464	0.478
1100.000	634.544	80.007	19.995	103.863	19.939	3.324	0.482
1100.500	634.839	80.008	19.995	103.867	19.938	3.405	0.546
1101.000	635.034	80.008	19.995	103.867	19.938	3.391	0.538
1101.500	635.316	80.009	19.995	103.867	19.936	3.541	0.483
1102.000	635.565	80.009	19.994	103.866	19.938	3.386	0.504
1102.500	635.803	80.009	19.995	103.864	19.937	3.476	0.509
1103.000	636.102	80.008	19.994	103.862	19.941	3.218	0.512
1103.500	636.320	80.008	19.995	103.862	19.938	3.394	0.527
1104.000	636.588	80.008	19.995	103.863	19.938	3.382	0.501
1104.500	636.865	80.009	19.996	103.864	19.939	3.318	0.516
1105.000	637.094	80.010	19.993	103.864	19.941	3.222	0.525
1105.500	637.373	80.010	19.995	103.864	19.936	3.562	0.507
1106.000	637.639	80.010	19.994	103.864	19.940	3.272	0.527
1106.501	637.845	80.010	19.994	103.864	19.939	3.354	0.508
1107.002	638.103	80.010	19.993	103.863	19.938	3.426	0.468
1107.501	638.367	80.010	19.994	103.862	19.938	3.388	0.493
1108.000	638.620	80.010	19.993	103.862	19.937	3.460	0.519
1108.501	638.866	80.010	19.994	103.867	19.939	3.318	0.508
1109.001	639.118	80.009	19.995	103.869	19.936	3.532	0.499
1109.500	639.331	80.010	19.994	103.870	19.939	3.350	0.481
1110.000	639.606	80.011	19.993	103.870	19.939	3.344	0.476
1110.500	639.909	80.011	19.994	103.869	19.940	3.284	0.533
1111.000	640.155	80.011	19.995	103.864	19.937	3.454	0.564
1111.500	640.366	80.010	19.992	103.863	19.939	3.344	0.503
1112.001	640.655	80.009	19.995	103.865	19.939	3.328	0.479
1112.501	640.834	80.010	19.993	103.870	19.938	3.408	0.484
1113.000	641.162	80.011	19.994	103.872	19.940	3.270	0.487
1113.500	641.323	80.010	19.995	103.874	19.938	3.408	0.498
1114.000	641.626	80.012	19.994	103.877	19.935	3.602	0.477
1114.500	641.851	80.011	19.994	103.878	19.939	3.364	0.496
1115.000	642.130	80.011	19.993	103.878	19.940	3.236	0.516
1115.500	642.405	80.011	19.995	103.880	19.938	3.412	0.529
1116.000	642.622	80.010	19.995	103.882	19.940	3.234	0.523
1116.500	642.908	80.009	19.994	103.881	19.937	3.484	0.497
1117.000	643.122	80.010	19.994	103.881	19.937	3.468	0.501
1117.500	643.401	80.008	19.994	103.879	19.938	3.442	0.496
1118.000	643.667	80.010	19.993	103.876	19.939	3.332	0.519
1118.500	643.912	80.010	19.994	103.875	19.940	3.254	0.528
1119.001	644.141	80.010	19.993	103.876	19.940	3.300	0.493
1119.501	644.345	80.010	19.993	103.877	19.936	3.522	0.453
1120.000	644.623	80.009	19.993	103.882	19.939	3.308	0.457
1120.500	644.874	80.009	19.994	103.887	19.941	3.214	0.506
1121.000	645.161	80.008	19.994	103.889	19.940	3.266	0.534
1121.500	645.381	80.007	19.995	103.891	19.938	3.400	0.522
1122.000	645.628	80.009	19.995	103.892	19.938	3.414	0.487
1122.500	645.870	80.008	19.994	103.890	19.939	3.304	0.478
1123.000	646.117	80.008	19.995	103.888	19.941	3.200	0.489
1123.501	646.378	80.008	19.994	103.886	19.939	3.346	0.498
1124.001	646.666	80.008	19.994	103.888	19.936	3.586	0.528
1124.501	646.873	80.008	19.994	103.890	19.937	3.514	0.522
1125.001	647.129	80.009	19.994	103.891	19.940	3.290	0.479
1125.500	647.388	80.008	19.994	103.891	19.942	3.132	0.489
1126.000	647.657	80.008	19.994	103.891	19.938	3.438	0.522
1126.500	647.887	80.009	19.995	103.886	19.939	3.376	0.513
1127.000	648.138	80.008	19.994	103.880	19.940	3.268	0.490
1127.500	648.399	80.008	19.993	103.875	19.938	3.446	0.497
1128.000	648.636	80.009	19.994	103.873	19.939	3.304	0.505
1128.501	648.893	80.008	19.994	103.873	19.941	3.210	0.496
1129.001	649.139	80.008	19.994	103.872	19.940	3.250	0.498
1129.500	649.352	80.009	19.994	103.874	19.941	3.192	0.480
1130.000	649.658	80.008	19.994	103.880	19.937	3.470	0.489
1130.500	649.885	80.008	19.995	103.885	19.941	3.230	0.526
1131.000	650.149	80.010	19.995	103.888	19.938	3.400	0.512
1131.500	650.450	80.008	19.995	103.887	19.939	3.336	0.528
1132.000	650.641	80.008	19.993	103.884	19.939	3.334	0.529
1132.500	650.944	80.008	19.996	103.879	19.938	3.416	0.493
1133.000	651.193	80.009	19.993	103.878	19.939	3.340	0.523
1133.500	651.421	80.006	19.997	103.876	19.936	3.542	0.515
1134.000	651.697	80.007	19.995	103.879	19.938	3.386	0.491
1134.500	651.939	80.009	19.994	103.880	19.939	3.362	0.511
1135.000	652.173	80.009	19.995	103.880	19.937	3.510	0.497
1135.501	652.409	80.009	19.992	103.879	19.936	3.528	0.473
1136.001	652.657	80.009	19.994	103.879	19.935	3.650	0.477
1136.501	652.935	80.010	19.995	103.877	19.940	3.260	0.505
1137.000	653.166	80.010	19.994	103.876	19.939	3.372	0.517
1137.500	653.387	80.010	19.994	103.877	19.936	3.582	0.481
1138.000	653.632	80.008	19.995	103.877	19.936	3.568	0.459
1138.500	653.917	80.010	19.994	103.873	19.938	3.398	0.498
1139.000	654.178	80.008	19.994	103.873	19.937	3.506	0.538
1139.500	654.425	80.010	19.994	103.878	19.937	3.498	0.527
1140.001	654.682	80.010	19.995	103.879	19.939	3.352	0.506
1140.501	654.903	80.009	19.994	103.880	19.940	3.302	0.491
1141.001	655.184	80.010	19.993	103.882	19.932	3.820	0.490
1141.501	655.431	80.009	19.994	103.885	19.934	3.676	0.515
1142.000	655.726	80.010	19.994	103.880	19.938	3.416	0.535
1142.500	655.960	80.009	19.995	103.881	19.938	3.418	0.536
1143.000	656.158	80.008	19.994	103.880	19.936	3.584	0.481
1143.500	656.462	80.009	19.993	103.879	19.940	3.290	0.467
1144.000	656.655	80.010	19.993	103.877	19.935	3.613	0.499
1144.500	656.944	80.009	19.993	103.877	19.937	3.461	0.489
1145.000	657.178	80.009	19.993	103.874	19.942	3.154	0.503
1145.500	657.441	80.011	19.993	103.874	19.936	3.521	0.511
1146.000	657.658	80.010	19.992	103.875	19.937	3.501	0.488
1146.500	657.939	80.010	19.994	103.877	19.938	3.446	0.488
1147.000	658.159	80.009	19.995	103.879	19.936	3.575	0.499
1147.500	658.429	80.010	19.996	103.886	19.936	3.584	0.496
1148.000	658.670	80.009	19.995	103.888	19.937	3.510	0.501
1148.500	658.928	80.010	19.994	103.890	19.934	3.685	0.505
1149.000	659.171	80.009	19.995	103.888	19.936	3.551	0.500
1149.500	659.415	80.009	19.995	103.886	19.936	3.536	0.494
1150.000	659.622	80.010	19.994	103.884	19.939	3.354	0.469
1150.500	659.910	80.010	19.994	103.883	19.936	3.591	0.473
1151.001	660.112	80.009	19.995	103.885	19.935	3.633	0.492
1151.501	660.377	80.009	19.995	103.890	19.936	3.583	0.479
1152.000	660.657	80.010	19.996	103.895	19.939	3.361	0.506
1152.500	660.909	80.010	19.994	103.894	19.938	3.400	0.538
1153.000	661.163	80.009	19.993	103.892	19.937	3.472	0.519
1153.500	661.391	80.008	19.994	103.887	19.938	3.438	0.494
1154.000	661.616	80.009	19.994	103.881	19.937	3.458	0.467
1154.500	661.919	80.008	19.993	103.874	19.937	3.500	0.491
1155.000	662.084	80.007	19.996	103.870	19.935	3.630	0.498
1155.500	662.390	80.008	19.998	103.867	19.940	3.302	0.470
1156.000	662.619	80.009	19.996	103.865	19.936	3.578	0.503
1156.500	662.881	80.007	19.995	103.866	19.937	3.472	0.513
1157.000	663.126	80.007	19.996	103.869	19.937	3.496	0.499
1157.500	663.400	80.008	19.995	103.872	19.941	3.212	0.513
1158.000	663.599	80.007	19.995	103.872	19.937	3.514	0.496
1158.500	663.844	80.007	19.995	103.874	19.937	3.460	0.458
1159.000	664.129	80.008	19.994	103.872	19.939	3.318	0.487
1159.500	664.384	80.007	19.995	103.873	19.933	3.802	0.535
1160.000	664.588	80.008	19.996	103.871	19.935	3.616	0.499
1160.500	664.848	80.008	19.995	103.872	19.934	3.676	0.461
1161.000	665.118	80.009	19.993	103.870	19.935	3.616	0.497
1161.500	665.347	80.008	19.995	103.871	19.938	3.430	0.514
1162.000	665.606	80.007	19.995	103.867	19.935	3.656	0.493
1162.501	665.827	80.008	19.995	103.866	19.937	3.512	0.484
1163.001	666.079	80.007	19.995	103.864	19.935	3.638	0.477
1163.500	666.348	80.008	19.995	103.868	19.937	3.478	0.497
1164.000	666.549	80.009	19.995	103.870	19.936	3.528	0.495
1164.500	666.836	80.008	19.994	103.874	19.935	3.648	0.480
1165.000	667.082	80.009	19.993	103.882	19.937	3.498	0.510
1165.500	667.338	80.009	19.994	103.887	19.935	3.632	0.517
1166.001	667.614	80.009	19.995	103.886	19.934	3.696	0.517
1166.501	667.847	80.008	19.995	103.885	19.933	3.748	0.520
1167.000	668.126	80.010	19.995	103.887	19.935	3.596	0.510
1167.500	668.375	80.009	19.994	103.887	19.933	3.794	0.520
1168.000	668.622	80.009	19.995	103.888	19.937	3.464	0.512
1168.500	668.879	80.009	19.993	103.888	19.936	3.562	0.500
1169.001	669.118	80.010	19.993	103.892	19.935	3.654	0.500
1169.501	669.387	80.009	19.995	103.892	19.936	3.588	0.502
1170.000	669.651	80.010	19.995	103.890	19.936	3.534	0.520
1170.500	669.907	80.010	19.994	103.885	19.937	3.490	0.527
1171.000	670.180	80.010	19.994	103.885	19.932	3.822	0.525
1171.500	670.481	80.010	19.994	103.886	19.937	3.512	0.551
1172.001	670.720	80.010	19.994	103.886	19.935	3.624	0.557
1172.501	671.000	80.009	19.994	103.888	19.937	3.478	0.529
1173.001	671.266	80.010	19.993	103.894	19.931	3.900	0.532
1173.501	671.519	80.010	19.995	103.899	19.937	3.484	0.532
1174.000	671.798	80.009	19.994	103.895	19.935	3.612	0.526
1174.501	672.021	80.009	19.995	103.895	19.934	3.714	0.517
1175.001	672.324	80.009	19.995	103.894	19.935	3.650	0.513
1175.501	672.595	80.010	19.994	103.894	19.932	3.828	0.550
1176.000	672.916	80.008	19.994	103.894	19.932	3.842	0.584
1176.501	673.145	80.007	19.994	103.899	19.930	3.968	0.571
1177.001	673.424	80.009	19.994	103.898	19.933	3.790	0.529
1177.500	673.691	80.008	19.994	103.899	19.934	3.718	0.527
1178.000	674.009	80.008	19.994	103.899	19.933	3.740	0.565
1178.500	674.307	80.008	19.994	103.899	19.932	3.846	0.600
1179.000	674.554	80.009	19.994	103.899	19.932	3.828	0.580
1179.500	674.873	80.008	19.993	103.899	19.932	3.856	0.556
1180.000	675.113	80.007	19.996	103.898	19.931	3.908	0.563
1180.500	675.368	80.008	19.994	103.893	19.934	3.686	0.527
1181.000	675.695	80.007	19.995	103.893	19.934	3.738	0.539
1181.500	675.961	80.008	19.995	103.893	19.934	3.728	0.588
1182.001	676.272	80.008	19.995	103.894	19.936	3.588	0.585
1182.501	676.501	80.007	19.993	103.896	19.932	3.865	0.558
1183.001	676.797	80.007	19.995	103.900	19.934	3.686	0.533
1183.501	677.130	80.006	19.993	103.898	19.933	3.756	0.577
1184.000	677.360	80.008	19.995	103.896	19.934	3.699	0.596
1184.500	677.645	80.009	19.994	103.896	19.934	3.674	0.539
1185.000	677.925	80.008	19.996	103.895	19.935	3.642	0.540
1185.500	678.201	80.007	19.994	103.897	19.932	3.817	0.560
1186.000	678.459	80.007	19.996	103.899	19.935	3.612	0.545
1186.500	678.715	80.008	19.996	103.899	19.934	3.674	0.524
1187.000	679.020	80.008	19.994	103.897	19.933	3.754	0.537
1187.500	679.332	80.008	19.995	103.896	19.935	3.634	0.589
1188.000	679.586	80.007	19.995	103.897	19.932	3.850	0.592
1188.500	679.873	80.008	19.995	103.897	19.932	3.814	0.554
1189.000	680.196	80.007	19.995	103.900	19.933	3.796	0.575
1189.501	680.431	80.008	19.996	103.902	19.932	3.818	0.584
1190.001	680.700	80.009	19.996	103.902	19.935	3.600	0.531
1190.501	680.979	80.009	19.996	103.898	19.934	3.670	0.526
1191.001	681.269	80.010	19.994	103.896	19.933	3.742	0.558
1191.500	681.562	80.010	19.994	103.895	19.934	3.668	0.576
1192.000	681.826	80.009	19.996	103.889	19.935	3.644	0.570
1192.500	682.139	80.011	19.994	103.885	19.936	3.572	0.567
1193.000	682.387	80.010	19.995	103.882	19.935	3.606	0.569
1193.500	682.682	80.009	19.994	103.880	19.934	3.674	0.552
1194.001	682.944	80.011	19.995	103.878	19.934	3.688	0.550
1194.501	683.244	80.011	19.995	103.880	19.936	3.558	0.560
1195.000	683.501	80.011	19.994	103.877	19.935	3.640	0.559
1195.500	683.792	80.011	19.995	103.877	19.933	3.752	0.552
1196.000	684.093	80.011	19.995	103.879	19.934	3.678	0.570
1196.500	684.368	80.009	19.994	103.880	19.933	3.784	0.584
1197.000	684.631	80.009	19.996	103.881	19.935	3.648	0.557
1197.500	684.916	80.009	19.995	103.884	19.933	3.792	0.543
1198.000	685.242	80.010	19.994	103.886	19.934	3.714	0.580
1198.500	685.512	80.009	19.995	103.885	19.938	3.392	0.604
1199.000	685.785	80.010	19.994	103.884	19.935	3.638	0.570
1199.500	686.077	80.010	19.995	103.885	19.933	3.792	0.554
1200.000	686.375	80.009	19.993	103.886	19.934	3.670	0.577
1200.500	686.672	80.010	19.994	103.889	19.934	3.699	0.592
1201.001	686.913	80.010	19.994	103.887	19.936	3.579	0.567
1201.501	687.229	80.008	19.994	103.888	19.933	3.757	0.547
1202.000	687.485	80.009	19.993	103.885	19.933	3.779	0.564
1202.501	687.788	80.008	19.995	103.886	19.935	3.660	0.566
1203.001	688.056	80.008	19.994	103.882	19.932	3.857	0.565
1203.500	688.327	80.009	19.994	103.883	19.934	3.686	0.555
1204.000	688.634	80.008	19.993	103.880	19.934	3.678	0.558
1204.500	688.918	80.008	19.993	103.881	19.932	3.824	0.585
1205.000	689.217	80.009	19.994	103.880	19.932	3.844	0.587
1205.500	689.510	80.008	19.994	103.878	19.931	3.924	0.587
1206.000	689.769	80.009	19.994	103.879	19.931	3.888	0.572
1206.500	690.076	80.007	19.993	103.879	19.930	3.994	0.559
1207.000	690.384	80.008	19.994	103.879	19.934	3.690	0.591
1207.501	690.621	80.008	19.994	103.881	19.930	3.993	0.579
1208.001	690.901	80.007	19.993	103.884	19.934	3.728	0.531
1208.501	691.160	80.007	19.994	103.885	19.931	3.923	0.528
1209.001	691.463	80.008	19.993	103.888	19.933	3.769	0.550
1209.500	691.722	80.008	19.994	103.889	19.932	3.839	0.562
1210.000	692.014	80.007	19.994	103.885	19.936	3.562	0.557
1210.501	692.291	80.008	19.993	103.882	19.932	3.848	0.559
1211.001	692.569	80.009	19.994	103.877	19.930	3.990	0.562
1211.501	692.882	80.007	19.994	103.870	19.933	3.800	0.574
1212.000	693.136	80.008	19.993	103.864	19.931	3.898	0.579
1212.500	693.453	80.007	19.994	103.867	19.932	3.854	0.568
1213.000	693.713	80.007	19.993	103.873	19.932	3.828	0.574
1213.501	694.003	80.007	19.993	103.879	19.931	3.940	0.564
1214.001	694.284	80.009	19.993	103.880	19.935	3.662	0.560
1214.501	694.553	80.006	19.993	103.882	19.931	3.918	0.560
1215.001	694.876	80.008	19.997	103.883	19.932	3.878	0.571
1215.501	695.107	80.008	19.995	103.882	19.932	3.870	0.573
1216.000	695.375	80.008	19.994	103.883	19.934	3.702	0.527
1216.500	695.684	80.007	19.994	103.889	19.932	3.869	0.538
1217.000	695.958	80.008	19.994	103.895	19.932	3.863	0.580
1217.500	696.228	80.008	19.995	103.890	19.934	3.695	0.563
1218.000	696.491	80.007	19.994	103.886	19.932	3.823	0.538
1218.500	696.774	80.008	19.995	103.883	19.933	3.771	0.540
1219.000	697.048	80.008	19.994	103.880	19.933	3.811	0.552
1219.501	697.331	80.009	19.993	103.878	19.931	3.887	0.557
1220.001	697.592	80.008	19.995	103.879	19.934	3.674	0.550
1220.501	697.863	80.007	19.993	103.880	19.933	3.750	0.538
1221.000	698.153	80.006	19.996	103.883	19.934	3.722	0.547
1221.500	698.379	80.008	19.993	103.886	19.931	3.911	0.538
1222.001	698.664	80.006	19.996	103.888	19.933	3.785	0.513
1222.501	698.958	80.009	19.995	103.893	19.932	3.879	0.545
1223.001	699.192	80.008	19.993	103.895	19.933	3.757	0.554
1223.501	699.571	80.009	19.994	103.894	19.935	3.607	0.571
1224.000	699.782	80.008	19.993	103.890	19.934	3.677	0.601
1224.500	700.034	80.008	19.994	103.890	19.931	3.889	0.526
1225.000	700.274	80.008	19.994	103.891	19.933	3.810	0.478
1225.501	700.588	80.009	19.994	103.893	19.931	3.942	0.523
1226.001	700.824	80.007	19.994	103.890	19.934	3.708	0.552
1226.500	701.077	80.008	19.993	103.891	19.933	3.800	0.520
1227.000	701.361	80.007	19.993	103.885	19.929	4.035	0.513
1227.501	701.634	80.008	19.994	103.878	19.931	3.891	0.547
1228.001	701.932	80.007	19.994	103.873	19.934	3.688	0.564
1228.500	702.157	80.007	19.994	103.870	19.932	3.843	0.547
1229.001	702.409	80.008	19.995	103.869	19.930	3.975	0.500
1229.501	702.669	80.008	19.993	103.875	19.932	3.837	0.495
1230.001	702.965	80.008	19.994	103.880	19.933	3.811	0.534
1230.501	703.169	80.007	19.995	103.880	19.930	4.013	0.528
1231.001	703.493	80.009	19.993	103.885	19.931	3.903	0.513
1231.501	703.720	80.007	19.993	103.887	19.936	3.584	0.539
1232.000	704.034	80.008	19.994	103.884	19.931	3.887	0.546
1232.500	704.294	80.009	19.995	103.879	19.931	3.923	0.558
1233.000	704.520	80.008	19.992	103.880	19.932	3.849	0.530
1233.500	704.808	80.008	19.994	103.875	19.933	3.753	0.500
1234.000	705.052	80.007	19.993	103.871	19.931	3.905	0.523
1234.500	705.294	80.008	19.994	103.870	19.933	3.811	0.509
1235.000	705.574	80.008	19.994	103.874	19.934	3.719	0.504
1235.501	705.819	80.007	19.994	103.877	19.934	3.729	0.524
1236.001	706.078	80.007	19.994	103.885	19.933	3.775	0.515
1236.500	706.346	80.008	19.994	103.889	19.935	3.651	0.515
1237.000	706.605	80.008	19.994	103.891	19.934	3.731	0.527
1237.500	706.840	80.006	19.994	103.887	19.938	3.435	0.510
1238.000	707.130	80.008	19.994	103.887	19.935	3.631	0.510
1238.500	707.348	80.008	19.993	103.883	19.937	3.508	0.517
1239.000	707.619	80.008	19.995	103.877	19.935	3.656	0.498
1239.501	707.877	80.007	19.994	103.875	19.935	3.622	0.509
1240.001	708.122	80.008	19.994	103.875	19.932	3.825	0.516
1240.500	708.347	80.007	19.992	103.873	19.936	3.546	0.487
1241.001	708.588	80.008	19.994	103.872	19.934	3.715	0.468
1241.501	708.881	80.008	19.993	103.876	19.936	3.558	0.500
1242.001	709.147	80.009	19.993	103.877	19.936	3.554	0.546
1242.501	709.389	80.008	19.994	103.876	19.936	3.538	0.534
1243.000	709.646	80.008	19.994	103.875	19.936	3.561	0.504
1243.500	709.897	80.007	19.994	103.872	19.934	3.685	0.504
1244.000	710.154	80.008	19.993	103.870	19.937	3.495	0.508
1244.500	710.422	80.008	19.993	103.867	19.934	3.711	0.516
1245.000	710.641	80.008	19.993	103.867	19.934	3.737	0.506
1245.500	710.917	80.009	19.993	103.867	19.934	3.721	0.491
1246.000	711.187	80.008	19.994	103.866	19.934	3.675	0.520
1246.500	711.429	80.008	19.995	103.865	19.932	3.857	0.529
1247.000	711.681	80.009	19.993	103.865	19.932	3.819	0.503
1247.500	711.954	80.009	19.993	103.865	19.933	3.801	0.510
1248.000	712.187	80.010	19.994	103.865	19.932	3.819	0.516
1248.501	712.465	80.008	19.993	103.865	19.934	3.713	0.509
1249.001	712.702	80.009	19.993	103.869	19.932	3.883	0.513
1249.500	712.940	80.009	19.993	103.875	19.933	3.803	0.494
1250.000	713.197	80.009	19.994	103.877	19.932	3.819	0.485
1250.500	713.452	80.010	19.993	103.878	19.932	3.831	0.504
1251.000	713.720	80.008	19.993	103.879	19.930	3.978	0.518
1251.500	713.966	80.008	19.993	103.877	19.932	3.853	0.518
1252.000	714.182	80.009	19.995	103.877	19.931	3.925	0.488
1252.500	714.477	80.010	19.993	103.876	19.930	3.997	0.487
1253.000	714.740	80.008	19.994	103.875	19.931	3.895	0.535
1253.500	714.965	80.009	19.996	103.874	19.932	3.839	0.523
1254.000	715.237	80.010	19.994	103.872	19.932	3.853	0.492
1254.500	715.521	80.009	19.994	103.865	19.931	3.949	0.527
1255.000	715.759	80.009	19.994	103.863	19.933	3.745	0.539
1255.500	715.983	80.009	19.994	103.864	19.933	3.787	0.492
1256.001	716.307	80.009	19.993	103.864	19.931	3.955	0.505
1256.501	716.483	80.009	19.995	103.871	19.933	3.793	0.523
1257.001	716.771	80.008	19.995	103.876	19.932	3.855	0.481
1257.501	717.018	80.009	19.993	103.880	19.932	3.859	0.500
1258.001	717.215	80.008	19.993	103.880	19.933	3.785	0.490
1258.500	717.479	80.008	19.995	103.879	19.931	3.939	0.453
1259.000	717.737	80.008	19.995	103.872	19.931	3.905	0.492
1259.500	717.979	80.009	19.994	103.866	19.930	4.010	0.511
1260.000	718.215	80.008	19.994	103.862	19.933	3.777	0.489
1260.501	718.454	80.008	19.994	103.861	19.934	3.711	0.476
1261.001	718.727	80.008	19.994	103.861	19.933	3.755	0.493
1261.500	718.952	80.008	19.994	103.860	19.933	3.793	0.506
1262.000	719.194	80.008	19.993	103.860	19.933	3.809	0.483
1262.500	719.464	80.009	19.995	103.860	19.934	3.693	0.489
1263.000	719.676	80.009	19.995	103.861	19.931	3.889	0.497
1263.500	719.950	80.009	19.996	103.863	19.935	3.659	0.484
1264.000	720.185	80.009	19.994	103.863	19.932	3.817	0.497
1264.500	720.399	80.010	19.994	103.863	19.932	3.841	0.479
1265.000	720.658	80.010	19.994	103.863	19.933	3.779	0.461
1265.500	720.902	80.010	19.996	103.862	19.931	3.925	0.488
1266.001	721.149	80.010	19.993	103.864	19.931	3.935	0.497
1266.501	721.411	80.008	19.995	103.865	19.931	3.907	0.500
1267.001	721.629	80.009	19.993	103.867	19.935	3.627	0.494
1267.500	721.883	80.009	19.993	103.871	19.934	3.675	0.476
1268.000	722.128	80.009	19.993	103.872	19.934	3.731	0.486
1268.500	722.386	80.009	19.994	103.869	19.929	4.044	0.501
1269.000	722.600	80.010	19.993	103.866	19.930	3.971	0.488
1269.500	722.882	80.009	19.994	103.866	19.929	4.095	0.484
1270.000	723.084	80.009	19.993	103.862	19.931	3.925	0.490
1270.500	723.344	80.009	19.995	103.861	19.930	3.963	0.473
1271.001	723.567	80.009	19.994	103.860	19.930	4.011	0.473
1271.501	723.802	80.009	19.994	103.860	19.933	3.769	0.470
1272.000	724.048	80.010	19.993	103.859	19.933	3.793	0.470
1272.500	724.282	80.010	19.993	103.859	19.930	4.003	0.481
1273.000	724.569	80.010	19.994	103.860	19.932	3.871	0.500
1273.500	724.789	80.010	19.993	103.861	19.929	4.067	0.514
1274.000	725.029	80.010	19.993	103.862	19.933	3.788	0.483
1274.500	725.273	80.009	19.992	103.864	19.929	4.087	0.472
1275.000	725.505	80.010	19.995	103.863	19.929	4.053	0.480
1275.501	725.765	80.012	19.995	103.864	19.931	3.907	0.485
1276.001	725.985	80.011	19.994	103.869	19.930	3.971	0.487
1276.500	726.280	80.011	19.995	103.869	19.933	3.785	0.498
1277.000	726.481	80.010	19.995	103.868	19.934	3.669	0.505
1277.500	726.743	80.011	19.994	103.868	19.933	3.759	0.479
1278.000	726.983	80.011	19.994	103.866	19.930	3.985	0.483
1278.501	727.203	80.010	19.995	103.861	19.932	3.869	0.481
1279.001	727.455	80.010	19.995	103.860	19.932	3.842	0.466
1279.500	727.707	80.009	19.994	103.862	19.933	3.744	0.488
1280.000	727.935	80.009	19.995	103.868	19.931	3.923	0.492
1280.500	728.210	80.009	19.995	103.873	19.931	3.917	0.492
1281.000	728.427	80.009	19.995	103.872	19.933	3.805	0.497
1281.500	728.678	80.010	19.994	103.872	19.936	3.577	0.480
1282.000	728.955	80.009	19.994	103.870	19.933	3.811	0.498
1282.500	729.171	80.009	19.994	103.866	19.934	3.735	0.511
1283.000	729.394	80.008	19.994	103.861	19.934	3.695	0.466
1283.500	729.605	80.008	19.996	103.867	19.934	3.707	0.436
1284.000	729.884	80.009	19.995	103.874	19.932	3.823	0.462
1284.500	730.131	80.007	19.994	103.880	19.933	3.803	0.508
1285.000	730.376	80.008	19.995	103.884	19.932	3.825	0.509
1285.500	730.633	80.008	19.994	103.888	19.933	3.743	0.497
1286.001	730.896	80.007	19.995	103.882	19.932	3.825	0.511
1286.501	731.101	80.007	19.996	103.875	19.933	3.771	0.494
1287.001	731.405	80.007	19.995	103.871	19.932	3.875	0.489
1287.501	731.627	80.007	19.995	103.870	19.932	3.875	0.518
1288.000	731.919	80.007	19.995	103.867	19.932	3.855	0.520
1288.500	732.128	80.008	19.996	103.873	19.930	3.985	0.507
1289.000	732.400	80.008	19.995	103.880	19.930	4.027	0.491
1289.500	732.639	80.008	19.994	103.882	19.930	3.979	0.496
1290.000	732.890	80.007	19.994	103.882	19.930	4.013	0.501
1290.501	733.173	80.007	19.995	103.886	19.931	3.915	0.512
1291.001	733.403	80.007	19.995	103.882	19.931	3.939	0.524
1291.501	733.640	80.008	19.994	103.875	19.930	3.993	0.490
1292.000	733.901	80.007	19.995	103.872	19.930	3.991	0.483
1292.500	734.159	80.007	19.993	103.871	19.930	3.981	0.509
1293.000	734.435	80.007	19.994	103.872	19.927	4.236	0.526
1293.500	734.726	80.008	19.993	103.872	19.931	3.935	0.550
1294.000	734.927	80.008	19.993	103.873	19.933	3.751	0.529
1294.500	735.175	80.008	19.993	103.873	19.930	3.959	0.470
1295.000	735.447	80.008	19.993	103.872	19.931	3.885	0.485
1295.501	735.705	80.007	19.994	103.871	19.932	3.855	0.526
1296.001	735.932	80.008	19.994	103.873	19.931	3.893	0.507
1296.500	736.211	80.008	19.995	103.874	19.930	4.029	0.495
1297.000	736.456	80.008	19.993	103.875	19.930	4.029	0.515
1297.500	736.661	80.009	19.993	103.878	19.931	3.939	0.488
1298.001	736.960	80.008	19.994	103.875	19.929	4.061	0.477
1298.501	737.190	80.007	19.993	103.876	19.931	3.947	0.516
1299.000	737.485	80.008	19.995	103.876	19.932	3.821	0.527
1299.500	737.714	80.008	19.994	103.878	19.929	4.093	0.525
1300.000	737.964	80.009	19.995	103.873	19.934	3.683	0.502
1300.500	738.245	80.008	19.995	103.872	19.930	3.967	0.505
1301.000	738.493	80.009	19.994	103.869	19.930	3.999	0.530
1301.500	738.703	80.008	19.993	103.869	19.931	3.889	0.493
1302.000	738.977	80.009	19.993	103.867	19.931	3.905	0.471
1302.500	739.228	80.009	19.994	103.869	19.930	4.005	0.505
1303.000	739.484	80.010	19.993	103.871	19.931	3.955	0.516
1303.500	739.727	80.009	19.994	103.870	19.932	3.881	0.503
1304.000	739.957	80.008	19.993	103.868	19.931	3.891	0.486
1304.500	740.219	80.009	19.993	103.870	19.929	4.065	0.482
1305.001	740.476	80.010	19.993	103.867	19.932	3.847	0.506
1305.501	740.734	80.009	19.994	103.864	19.933	3.758	0.517
1306.001	741.001	80.009	19.993	103.864	19.932	3.870	0.519
1306.501	741.245	80.009	19.993	103.865	19.929	4.053	0.518
1307.000	741.505	80.010	19.992	103.864	19.928	4.103	0.508
1307.501	741.752	80.008	19.994	103.864	19.929	4.053	0.505
1308.001	742.004	80.008	19.993	103.864	19.930	4.013	0.503
1308.500	742.272	80.009	19.994	103.865	19.930	3.963	0.510
1309.000	742.502	80.009	19.994	103.866	19.932	3.871	0.509
1309.500	742.752	80.009	19.993	103.866	19.929	4.069	0.489
1310.000	743.003	80.009	19.993	103.866	19.932	3.841	0.490
1310.500	743.304	80.009	19.993	103.868	19.931	3.907	0.526
1311.000	743.519	80.009	19.994	103.872	19.935	3.640	0.534
