Sample ID:	C:\MCC\MCC Cal\Test\PEX_Pipe_MCC_30K_min_220131_R3.txt
Sample Weight (mg):	4.86
Heating Rate (C/s):	0.5
Combustor Temp (C):	900
N2 Flow Rate (cc/min):	80
O2 Flow Rate (cc/min):	20
Calibration File:	C:\MCC\MCC Cal\Coeff1 JN10440_30_210304.txt.txt
T Correction Coefficients:	0	1.024463	0
Time Shift (s):	14
*
Time (s)	Temperature (C)	N2 flow rate (cc/min)	O2 flow rate (cc/min)	Flow Rate (cc/min)	Oxygen (%)	HRR (W/g)	Heating rate (C/s)
0.000	114.302	80.000	19.996	103.772	20.116	0.024	-0.020
0.500	114.326	80.005	19.996	103.781	20.115	0.088	0.010
1.000	114.303	80.009	19.993	103.781	20.115	0.055	0.017
1.500	114.316	79.999	19.999	103.783	20.112	0.260	-0.004
2.000	114.314	80.008	19.988	103.782	20.114	0.150	0.001
2.500	114.305	80.003	19.990	103.781	20.114	0.154	-0.000
3.000	114.283	80.001	19.996	103.777	20.118	-0.128	-0.021
3.500	114.328	79.997	19.992	103.778	20.115	0.038	-0.004
4.000	114.260	80.006	19.993	103.780	20.117	-0.038	0.000
4.500	114.291	80.005	19.992	103.780	20.118	-0.101	-0.030
5.000	114.267	80.004	19.991	103.780	20.113	0.218	-0.015
5.500	114.277	80.000	19.993	103.784	20.115	0.042	-0.003
6.000	114.297	80.004	19.992	103.787	20.115	0.046	0.008
6.500	114.237	80.002	19.992	103.784	20.110	0.392	-0.005
7.000	114.274	80.003	19.995	103.780	20.111	0.341	-0.032
7.500	114.253	80.020	19.990	103.774	20.114	0.161	-0.004
8.000	114.244	80.007	19.996	103.771	20.112	0.267	-0.007
8.501	114.240	80.009	19.993	103.770	20.112	0.291	-0.021
9.001	114.229	80.003	19.996	103.771	20.113	0.172	-0.014
9.500	114.189	80.007	19.993	103.775	20.114	0.125	-0.033
10.000	114.283	80.021	19.993	103.776	20.110	0.390	0.002
10.500	114.240	80.009	19.989	103.775	20.114	0.148	0.052
11.000	114.238	79.991	19.994	103.776	20.110	0.427	0.003
11.500	114.272	80.014	19.991	103.772	20.108	0.555	-0.006
12.000	114.215	79.988	19.991	103.776	20.110	0.385	0.005
12.500	114.225	80.014	19.994	103.782	20.110	0.420	-0.035
13.000	114.218	80.001	19.994	103.785	20.109	0.500	-0.022
13.500	114.217	80.005	19.993	103.785	20.107	0.606	-0.002
14.000	114.233	80.006	19.997	103.789	20.107	0.617	0.004
14.500	114.267	80.006	19.994	103.786	20.108	0.555	0.033
15.000	114.268	79.996	19.996	103.790	20.105	0.728	0.042
15.500	114.276	80.007	19.992	103.791	20.107	0.599	0.022
16.000	114.231	80.006	19.992	103.800	20.105	0.763	-0.014
16.500	114.252	80.007	19.991	103.794	20.105	0.724	-0.030
17.000	114.222	80.004	19.996	103.777	20.107	0.572	-0.017
17.500	114.264	80.006	19.990	103.759	20.104	0.832	0.001
18.000	114.256	80.003	19.996	103.751	20.108	0.541	0.023
18.500	114.272	80.007	19.993	103.736	20.108	0.524	0.022
19.000	114.258	80.007	19.992	103.741	20.105	0.711	0.005
19.500	114.267	80.012	19.992	103.772	20.106	0.693	-0.001
20.000	114.267	80.004	19.994	103.824	20.106	0.662	0.002
20.500	114.275	80.005	19.991	103.852	20.106	0.662	0.008
21.000	114.285	80.009	19.992	103.870	20.107	0.635	0.013
21.500	114.272	80.002	19.993	103.880	20.107	0.605	0.008
22.000	114.278	80.005	19.992	103.870	20.105	0.750	-0.005
22.500	114.266	80.001	19.997	103.836	20.106	0.675	-0.007
23.000	114.317	80.011	19.989	103.820	20.102	0.958	0.017
23.500	114.340	80.008	19.994	103.815	20.101	1.014	0.057
24.000	114.321	79.999	19.999	103.815	20.101	0.972	0.039
24.500	114.319	80.007	19.994	103.816	20.102	0.904	-0.009
25.000	114.342	80.006	19.994	103.827	20.100	1.075	0.000
25.500	114.328	80.005	19.987	103.836	20.096	1.311	0.015
26.000	114.359	80.015	19.992	103.845	20.095	1.409	0.013
26.500	114.398	80.005	19.989	103.856	20.096	1.344	0.044
27.000	114.400	80.008	19.992	103.873	20.094	1.458	0.056
27.500	114.378	80.001	19.997	103.884	20.092	1.570	0.011
28.000	114.426	80.006	19.993	103.894	20.093	1.568	0.003
28.500	114.474	80.008	19.992	103.900	20.093	1.539	0.061
29.000	114.466	80.004	19.990	103.908	20.088	1.867	0.068
29.500	114.485	79.994	19.994	103.910	20.087	1.933	0.026
30.000	114.546	80.009	19.992	103.908	20.088	1.891	0.046
30.500	114.550	80.000	19.997	103.908	20.086	2.016	0.072
31.000	114.603	80.009	19.992	103.911	20.087	1.933	0.061
31.500	114.637	80.007	19.992	103.913	20.086	2.031	0.072
32.000	114.693	80.008	19.990	103.919	20.083	2.196	0.088
32.500	114.707	80.003	19.997	103.929	20.082	2.297	0.080
33.001	114.726	80.004	19.994	103.936	20.083	2.205	0.052
33.501	114.774	80.004	19.993	103.941	20.085	2.084	0.049
34.000	114.802	80.007	19.994	103.944	20.082	2.282	0.072
34.500	114.872	80.007	19.991	103.942	20.080	2.424	0.088
35.000	114.897	80.003	19.993	103.939	20.082	2.248	0.096
35.500	114.930	80.006	19.994	103.938	20.080	2.413	0.076
36.000	115.006	80.007	19.994	103.933	20.080	2.372	0.084
36.500	115.022	80.006	19.999	103.930	20.081	2.371	0.101
37.000	115.059	80.006	19.997	103.929	20.078	2.508	0.072
37.500	115.131	80.010	19.991	103.932	20.079	2.455	0.081
38.000	115.197	80.005	19.994	103.936	20.078	2.545	0.123
38.500	115.248	80.010	19.994	103.942	20.078	2.509	0.128
39.000	115.288	80.005	19.994	103.945	20.080	2.426	0.104
39.500	115.363	80.007	19.993	103.948	20.082	2.263	0.103
40.000	115.372	80.015	19.992	103.949	20.078	2.545	0.100
40.500	115.455	80.013	19.992	103.949	20.081	2.365	0.088
41.000	115.517	80.004	19.993	103.950	20.076	2.679	0.118
41.500	115.632	80.011	19.993	103.950	20.078	2.534	0.161
42.000	115.653	80.004	19.995	103.950	20.075	2.714	0.156
42.500	115.709	80.010	19.997	103.950	20.076	2.648	0.106
43.000	115.797	80.001	19.995	103.948	20.075	2.716	0.111
43.500	115.886	80.006	19.995	103.948	20.080	2.433	0.161
44.000	115.936	80.007	19.995	103.954	20.075	2.731	0.158
44.501	115.992	80.009	19.994	103.957	20.077	2.628	0.123
45.001	116.089	80.004	19.995	103.959	20.071	2.986	0.129
45.501	116.184	80.008	19.995	103.961	20.072	2.921	0.172
46.001	116.236	80.007	19.995	103.965	20.074	2.828	0.169
46.500	116.342	80.009	19.997	103.965	20.070	3.068	0.153
47.000	116.391	80.009	19.994	103.970	20.073	2.881	0.157
47.500	116.541	80.006	19.993	103.975	20.071	2.986	0.177
48.000	116.556	80.007	19.996	103.982	20.073	2.859	0.182
48.500	116.661	80.010	19.993	103.985	20.071	2.975	0.142
49.000	116.751	80.006	19.993	103.989	20.071	3.031	0.157
49.500	116.875	80.005	19.994	103.988	20.068	3.180	0.204
50.000	116.972	80.009	19.989	103.989	20.067	3.243	0.217
50.500	117.038	80.011	19.994	103.990	20.070	3.048	0.192
51.000	117.133	80.009	19.992	103.990	20.069	3.162	0.162
51.500	117.216	80.000	19.995	103.989	20.065	3.386	0.169
52.000	117.343	80.003	19.994	103.986	20.072	2.968	0.194
52.500	117.469	80.010	19.989	103.986	20.069	3.107	0.232
53.000	117.570	80.000	19.995	103.984	20.066	3.339	0.240
53.500	117.688	80.009	19.992	103.983	20.069	3.122	0.223
54.000	117.804	80.011	19.994	103.983	20.067	3.280	0.226
54.500	117.910	80.011	19.994	103.986	20.067	3.278	0.228
55.000	117.999	80.006	19.992	103.985	20.066	3.344	0.209
55.501	118.088	80.008	19.994	103.986	20.064	3.466	0.186
56.001	118.184	80.008	19.992	103.988	20.066	3.319	0.181
56.500	118.328	80.009	19.995	103.988	20.067	3.273	0.212
57.000	118.430	80.005	19.995	103.987	20.066	3.363	0.243
57.500	118.585	80.006	19.997	103.987	20.064	3.444	0.252
58.000	118.667	80.006	19.994	103.986	20.063	3.521	0.247
58.500	118.788	80.004	19.993	103.984	20.064	3.484	0.220
59.000	118.923	80.005	19.995	103.983	20.060	3.741	0.230
59.500	119.055	80.005	19.993	103.983	20.061	3.691	0.262
60.000	119.155	80.007	19.994	103.984	20.063	3.565	0.250
60.500	119.263	80.006	19.995	103.985	20.061	3.697	0.220
61.000	119.384	80.008	19.995	103.985	20.060	3.758	0.219
61.500	119.534	80.005	19.995	103.987	20.064	3.499	0.250
62.000	119.632	80.006	19.993	103.986	20.062	3.640	0.260
62.500	119.769	80.007	19.994	103.991	20.063	3.552	0.242
63.001	119.896	80.006	19.994	103.999	20.061	3.655	0.249
63.501	120.041	80.001	19.995	104.002	20.061	3.664	0.268
64.000	120.190	80.005	19.994	104.003	20.061	3.673	0.283
64.500	120.252	80.004	19.995	104.010	20.063	3.552	0.252
65.000	120.449	80.004	19.993	104.011	20.060	3.737	0.235
65.500	120.593	80.006	19.991	104.009	20.062	3.618	0.300
66.000	120.733	80.007	19.994	104.012	20.063	3.541	0.313
66.500	120.856	80.012	19.990	104.016	20.062	3.603	0.274
67.000	121.011	80.005	19.989	104.014	20.062	3.603	0.271
67.500	121.139	80.007	19.999	104.014	20.064	3.499	0.280
68.000	121.264	80.010	19.991	104.014	20.062	3.581	0.268
68.500	121.445	80.005	19.994	104.016	20.062	3.609	0.280
69.000	121.544	80.005	19.995	104.017	20.063	3.532	0.293
69.500	121.738	80.007	19.994	104.016	20.061	3.704	0.286
70.000	121.850	80.008	19.993	104.011	20.062	3.633	0.299
70.500	122.024	80.008	19.994	104.014	20.059	3.822	0.296
71.000	122.132	80.008	19.995	104.013	20.060	3.712	0.284
71.500	122.270	80.008	19.995	104.014	20.059	3.807	0.264
72.000	122.446	80.006	19.989	104.017	20.058	3.893	0.281
72.500	122.588	80.008	19.993	104.024	20.062	3.620	0.316
73.000	122.738	80.009	19.992	104.024	20.060	3.772	0.305
73.500	122.882	80.006	19.991	104.022	20.058	3.844	0.293
74.001	123.042	80.008	19.995	104.022	20.057	3.960	0.299
74.501	123.199	80.005	19.994	104.020	20.061	3.677	0.310
75.000	123.382	80.010	19.996	104.018	20.056	4.002	0.328
75.500	123.515	80.010	19.995	104.017	20.059	3.833	0.328
76.000	123.679	80.007	19.995	104.018	20.059	3.815	0.306
76.500	123.832	80.006	19.999	104.017	20.057	3.961	0.307
77.000	124.010	80.010	19.998	104.017	20.058	3.884	0.324
77.500	124.168	80.002	19.997	104.016	20.056	4.011	0.333
78.001	124.336	80.003	19.998	104.016	20.054	4.130	0.331
78.501	124.543	80.014	19.988	104.014	20.059	3.813	0.350
79.000	124.701	80.002	19.997	104.016	20.058	3.871	0.370
79.500	124.846	80.003	19.996	104.016	20.056	4.005	0.334
80.000	125.018	80.011	19.995	104.017	20.058	3.886	0.310
80.500	125.208	80.010	19.993	104.018	20.055	4.048	0.339
81.001	125.379	80.004	19.996	104.019	20.057	3.950	0.361
81.501	125.577	80.008	19.991	104.017	20.057	3.974	0.365
82.000	125.702	80.008	19.995	104.018	20.056	4.022	0.346
82.500	125.903	80.009	19.991	104.019	20.056	4.026	0.325
83.000	126.092	80.004	19.995	104.020	20.055	4.086	0.358
83.500	126.247	80.008	19.994	104.020	20.055	4.096	0.367
84.000	126.390	80.008	19.998	104.020	20.055	4.107	0.321
84.500	126.635	80.008	19.992	104.019	20.056	3.978	0.342
85.000	126.814	80.007	19.996	104.020	20.055	4.051	0.406
85.500	126.954	80.005	19.993	104.019	20.055	4.095	0.372
86.000	127.140	80.004	19.996	104.019	20.056	4.009	0.322
86.500	127.362	80.006	19.992	104.019	20.053	4.211	0.367
87.000	127.523	80.008	19.992	104.020	20.052	4.275	0.396
87.500	127.704	80.007	19.995	104.019	20.056	4.039	0.362
88.000	127.889	80.008	19.993	104.020	20.055	4.092	0.354
88.500	128.099	80.008	19.993	104.021	20.054	4.174	0.381
89.000	128.242	80.009	19.994	104.021	20.055	4.081	0.374
89.500	128.439	80.007	19.997	104.020	20.056	3.989	0.346
90.000	128.625	80.006	19.995	104.019	20.054	4.124	0.361
90.500	128.827	80.005	19.997	104.019	20.054	4.145	0.386
91.000	128.990	80.005	19.992	104.018	20.053	4.179	0.377
91.500	129.194	80.004	19.996	104.019	20.056	4.036	0.366
92.000	129.387	80.005	19.994	104.020	20.053	4.202	0.382
92.500	129.593	80.006	19.993	104.021	20.056	4.014	0.398
93.000	129.811	80.005	19.992	104.021	20.053	4.203	0.412
93.500	129.996	80.005	19.993	104.023	20.055	4.092	0.414
94.001	130.189	80.006	19.995	104.023	20.051	4.311	0.391
94.501	130.362	80.005	19.996	104.023	20.054	4.117	0.372
95.000	130.546	80.006	19.995	104.022	20.056	4.021	0.361
95.500	130.754	80.007	19.996	104.022	20.053	4.169	0.374
96.000	130.964	80.003	19.995	104.021	20.054	4.149	0.405
96.500	131.119	80.007	19.995	104.021	20.054	4.160	0.392
97.000	131.330	80.003	19.996	104.021	20.052	4.230	0.366
97.500	131.529	80.005	19.994	104.020	20.056	4.004	0.388
98.000	131.724	80.005	19.995	104.020	20.056	4.004	0.402
98.500	131.948	80.005	19.993	104.020	20.055	4.054	0.407
99.000	132.129	80.008	19.992	104.021	20.057	3.927	0.412
99.500	132.308	80.006	19.994	104.021	20.058	3.860	0.382
100.000	132.554	80.006	19.993	104.019	20.062	3.614	0.392
100.501	132.752	80.007	19.994	104.017	20.062	3.576	0.434
101.001	132.931	80.006	19.997	104.009	20.066	3.333	0.411
101.500	133.115	80.006	19.995	103.983	20.069	3.118	0.370
102.000	133.337	80.007	19.993	103.944	20.076	2.684	0.385
102.500	133.529	80.007	19.994	103.899	20.078	2.547	0.410
103.000	133.711	80.007	19.995	103.849	20.080	2.373	0.394
103.500	133.952	80.007	19.993	103.802	20.082	2.263	0.399
104.000	134.085	80.009	19.993	103.771	20.085	2.071	0.398
104.500	134.253	80.008	19.994	103.749	20.086	1.991	0.337
105.000	134.462	80.006	19.993	103.738	20.091	1.650	0.339
105.500	134.598	80.005	19.992	103.729	20.095	1.409	0.361
106.001	134.807	80.005	19.994	103.722	20.099	1.149	0.345
106.501	134.920	80.006	19.993	103.716	20.101	0.990	0.333
107.000	135.055	80.006	19.995	103.715	20.100	1.059	0.285
107.500	135.203	80.007	19.993	103.711	20.099	1.151	0.266
108.000	135.410	80.008	19.992	103.710	20.106	0.670	0.319
108.500	135.513	80.004	19.994	103.709	20.102	0.935	0.332
109.000	135.655	80.004	19.995	103.705	20.105	0.737	0.277
109.500	135.777	80.009	19.990	103.703	20.107	0.593	0.254
110.000	135.905	80.005	19.994	103.704	20.105	0.739	0.257
110.500	136.011	80.006	19.994	103.704	20.110	0.381	0.242
111.000	136.163	80.006	19.992	103.704	20.110	0.370	0.246
111.500	136.281	80.006	19.993	103.706	20.110	0.408	0.264
112.000	136.414	80.007	19.993	103.706	20.112	0.276	0.260
112.500	136.535	80.007	19.993	103.698	20.110	0.373	0.253
113.000	136.651	80.006	19.991	103.691	20.115	0.064	0.246
113.500	136.759	80.007	19.993	103.685	20.113	0.225	0.230
114.000	136.866	80.005	19.994	103.682	20.116	-0.002	0.219
114.500	136.966	80.006	19.993	103.678	20.113	0.214	0.212
115.000	137.054	80.005	19.992	103.679	20.114	0.157	0.198
115.500	137.189	80.006	19.994	103.682	20.113	0.194	0.205
116.000	137.283	80.004	19.995	103.680	20.116	0.027	0.226
116.500	137.383	80.003	19.993	103.678	20.114	0.110	0.211
117.000	137.437	80.005	19.995	103.679	20.117	-0.064	0.174
117.500	137.511	80.004	19.993	103.679	20.117	-0.068	0.141
118.000	137.594	80.006	19.994	103.678	20.116	-0.005	0.142
118.500	137.634	80.002	19.994	103.680	20.118	-0.161	0.139
119.000	137.760	80.006	19.993	103.682	20.119	-0.165	0.144
119.500	137.832	80.006	19.995	103.680	20.119	-0.168	0.182
120.000	137.928	80.004	19.994	103.679	20.118	-0.156	0.183
120.500	138.024	80.004	19.993	103.679	20.117	-0.077	0.180
121.000	138.029	80.002	19.995	103.678	20.117	-0.040	0.146
121.501	138.082	80.004	19.994	103.676	20.118	-0.148	0.079
122.001	138.140	80.005	19.994	103.679	20.117	-0.070	0.085
122.500	138.211	80.005	19.993	103.684	20.116	-0.013	0.121
123.000	138.300	80.005	19.994	103.686	20.119	-0.172	0.145
123.500	138.322	80.005	19.993	103.686	20.115	0.079	0.135
124.000	138.327	80.006	19.992	103.688	20.117	-0.079	0.069
124.500	138.404	80.006	19.993	103.685	20.119	-0.177	0.055
125.000	138.475	80.005	19.993	103.681	20.118	-0.146	0.115
125.500	138.519	80.007	19.994	103.677	20.117	-0.088	0.131
126.000	138.535	80.007	19.993	103.676	20.118	-0.112	0.087
126.500	138.563	80.006	19.994	103.675	20.120	-0.251	0.051
127.000	138.624	80.006	19.993	103.677	20.118	-0.113	0.066
127.500	138.669	80.007	19.993	103.678	20.116	-0.024	0.097
128.000	138.658	80.007	19.994	103.678	20.121	-0.302	0.070
128.500	138.696	80.006	19.995	103.679	20.118	-0.154	0.031
129.000	138.716	80.007	19.993	103.680	20.119	-0.231	0.043
129.500	138.768	80.005	19.994	103.678	20.116	-0.027	0.065
130.000	138.791	80.006	19.993	103.676	20.121	-0.346	0.073
130.500	138.796	80.006	19.994	103.676	20.119	-0.166	0.052
131.000	138.806	80.006	19.993	103.678	20.118	-0.159	0.022
131.500	138.868	80.006	19.993	103.682	20.120	-0.240	0.044
132.000	138.847	80.007	19.993	103.683	20.119	-0.221	0.056
132.500	138.870	80.005	19.994	103.683	20.118	-0.161	0.022
133.000	138.889	80.006	19.994	103.683	20.117	-0.035	0.022
133.500	138.889	80.007	19.993	103.680	20.120	-0.256	0.031
134.000	138.937	80.007	19.994	103.674	20.118	-0.126	0.034
134.500	138.935	80.007	19.994	103.673	20.119	-0.216	0.047
135.000	138.941	80.006	19.994	103.673	20.121	-0.359	0.025
135.500	138.935	80.007	19.994	103.674	20.117	-0.088	0.002
136.000	138.937	80.006	19.993	103.676	20.119	-0.225	-0.002
136.500	138.945	80.007	19.993	103.682	20.121	-0.324	0.003
137.000	138.958	80.006	19.994	103.685	20.117	-0.097	0.016
137.500	138.947	80.007	19.994	103.689	20.119	-0.223	0.012
138.000	138.910	80.006	19.994	103.689	20.119	-0.220	-0.023
138.500	138.929	80.006	19.994	103.688	20.120	-0.291	-0.033
139.000	138.937	80.007	19.993	103.683	20.121	-0.353	0.005
139.500	138.930	80.006	19.994	103.680	20.120	-0.295	0.014
140.000	138.924	80.007	19.994	103.676	20.122	-0.392	-0.007
140.500	138.902	80.007	19.994	103.675	20.121	-0.309	-0.021
141.000	138.914	80.006	19.995	103.672	20.119	-0.210	-0.019
141.500	138.855	80.005	19.994	103.671	20.119	-0.201	-0.028
142.000	138.882	80.006	19.994	103.670	20.121	-0.309	-0.039
142.500	138.883	80.007	19.994	103.669	20.121	-0.306	-0.002
143.000	138.865	80.007	19.994	103.668	20.121	-0.349	0.005
143.500	138.829	80.007	19.994	103.667	20.118	-0.128	-0.035
144.000	138.839	80.007	19.993	103.668	20.119	-0.216	-0.039
144.500	138.804	80.005	19.993	103.671	20.119	-0.201	-0.026
145.000	138.802	80.006	19.994	103.676	20.117	-0.040	-0.032
145.500	138.793	80.007	19.993	103.677	20.121	-0.315	-0.024
146.000	138.777	80.007	19.993	103.677	20.121	-0.307	-0.018
146.500	138.744	80.006	19.993	103.677	20.122	-0.386	-0.037
147.000	138.724	80.005	19.994	103.674	20.122	-0.399	-0.051
147.500	138.699	80.006	19.993	103.669	20.122	-0.395	-0.049
148.000	138.643	80.006	19.994	103.669	20.121	-0.313	-0.063
148.500	138.623	80.006	19.995	103.667	20.123	-0.468	-0.078
149.000	138.602	80.006	19.994	103.667	20.120	-0.238	-0.058
149.500	138.581	80.006	19.994	103.670	20.119	-0.188	-0.041
150.000	138.544	80.006	19.994	103.670	20.119	-0.181	-0.050
150.500	138.541	80.004	19.994	103.671	20.118	-0.161	-0.049
151.000	138.472	80.006	19.994	103.672	20.119	-0.201	-0.056
151.500	138.500	80.006	19.993	103.672	20.122	-0.403	-0.056
152.000	138.434	80.007	19.994	103.669	20.121	-0.357	-0.039
152.500	138.415	80.007	19.995	103.668	20.120	-0.289	-0.062
153.000	138.400	80.006	19.994	103.668	20.120	-0.240	-0.059
153.500	138.354	80.006	19.994	103.668	20.121	-0.346	-0.047
154.000	138.303	80.006	19.994	103.667	20.120	-0.282	-0.079
154.500	138.278	80.008	19.994	103.669	20.120	-0.287	-0.087
155.000	138.244	80.007	19.995	103.668	20.120	-0.232	-0.068
155.500	138.223	80.007	19.994	103.669	20.122	-0.395	-0.057
156.000	138.158	80.007	19.993	103.669	20.119	-0.192	-0.070
156.500	138.142	80.006	19.995	103.672	20.119	-0.227	-0.083
157.000	138.099	80.008	19.995	103.673	20.122	-0.373	-0.070
157.500	138.050	80.007	19.995	103.674	20.120	-0.247	-0.076
158.000	137.994	80.008	19.994	103.673	20.120	-0.249	-0.098
158.500	137.965	80.009	19.995	103.673	20.120	-0.271	-0.095
159.000	137.885	80.007	19.993	103.673	20.121	-0.348	-0.097
159.500	137.900	80.005	19.994	103.675	20.119	-0.218	-0.087
160.000	137.838	80.007	19.994	103.678	20.121	-0.346	-0.056
160.500	137.786	80.007	19.995	103.683	20.119	-0.181	-0.080
161.000	137.718	80.007	19.994	103.686	20.122	-0.430	-0.117
161.500	137.724	80.008	19.994	103.685	20.121	-0.306	-0.092
162.000	137.655	80.007	19.995	103.682	20.120	-0.247	-0.063
162.500	137.628	80.008	19.995	103.678	20.116	-0.015	-0.080
163.000	137.576	80.006	19.998	103.673	20.116	-0.018	-0.087
163.500	137.514	80.007	19.996	103.670	20.122	-0.397	-0.096
164.000	137.512	80.009	19.995	103.668	20.124	-0.531	-0.089
164.500	137.407	80.006	19.996	103.667	20.120	-0.247	-0.085
165.000	137.397	80.007	19.994	103.669	20.121	-0.355	-0.111
165.500	137.333	80.006	19.996	103.670	20.120	-0.262	-0.094
166.000	137.309	80.006	19.994	103.670	20.122	-0.386	-0.081
166.500	137.255	80.004	19.993	103.673	20.118	-0.117	-0.083
167.000	137.200	80.005	19.995	103.674	20.116	-0.029	-0.094
167.500	137.136	80.007	19.995	103.674	20.119	-0.170	-0.114
168.000	137.120	80.005	19.995	103.673	20.118	-0.154	-0.099
168.500	137.048	80.006	19.995	103.673	20.119	-0.231	-0.084
169.000	137.009	80.004	19.995	103.672	20.119	-0.166	-0.100
169.500	136.953	80.005	19.996	103.670	20.121	-0.302	-0.104
170.000	136.924	80.005	19.994	103.669	20.121	-0.298	-0.090
170.500	136.841	80.006	19.995	103.669	20.122	-0.377	-0.098
171.000	136.822	80.005	19.995	103.669	20.117	-0.070	-0.107
171.500	136.755	80.005	19.994	103.670	20.119	-0.183	-0.094
172.000	136.696	80.006	19.995	103.672	20.118	-0.119	-0.106
172.500	136.675	80.006	19.994	103.674	20.119	-0.214	-0.103
173.000	136.596	80.007	19.995	103.674	20.119	-0.192	-0.090
173.500	136.543	80.005	19.994	103.675	20.119	-0.210	-0.116
174.000	136.501	80.006	19.994	103.675	20.119	-0.185	-0.114
174.500	136.424	80.005	19.993	103.675	20.113	0.179	-0.107
175.000	136.373	80.007	19.993	103.674	20.117	-0.075	-0.123
175.500	136.274	80.004	19.993	103.675	20.116	0.018	-0.139
176.000	136.255	80.006	19.993	103.675	20.118	-0.154	-0.135
176.500	136.192	80.006	19.994	103.678	20.118	-0.119	-0.100
177.000	136.171	80.006	19.994	103.680	20.119	-0.227	-0.083
177.500	136.084	80.005	19.994	103.680	20.119	-0.170	-0.095
178.000	136.036	80.005	19.994	103.678	20.121	-0.335	-0.122
178.500	136.005	80.004	19.994	103.677	20.118	-0.128	-0.108
179.000	135.940	80.006	19.993	103.674	20.119	-0.229	-0.087
179.500	135.863	80.006	19.993	103.673	20.120	-0.273	-0.119
180.000	135.834	80.005	19.993	103.675	20.120	-0.263	-0.124
180.500	135.759	80.005	19.992	103.677	20.119	-0.190	-0.105
181.000	135.711	80.006	19.993	103.678	20.119	-0.225	-0.114
181.500	135.637	80.006	19.994	103.678	20.118	-0.137	-0.123
182.000	135.607	80.004	19.994	103.681	20.115	0.037	-0.113
182.500	135.500	80.005	19.993	103.684	20.117	-0.077	-0.120
183.000	135.453	80.005	19.995	103.683	20.122	-0.384	-0.145
183.500	135.387	80.006	19.994	103.682	20.119	-0.165	-0.134
184.000	135.358	80.006	19.993	103.686	20.118	-0.112	-0.104
184.500	135.320	80.005	19.994	103.685	20.119	-0.172	-0.081
185.000	135.228	80.008	19.994	103.682	20.119	-0.176	-0.098
185.500	135.181	80.007	19.993	103.685	20.115	0.059	-0.134
186.000	135.112	80.004	19.993	103.687	20.119	-0.188	-0.128
186.500	135.054	80.005	19.992	103.684	20.117	-0.086	-0.122
187.000	135.010	80.005	19.993	103.688	20.117	-0.082	-0.114
187.500	134.924	80.006	19.994	103.689	20.116	-0.005	-0.115
188.000	134.891	80.005	19.993	103.691	20.117	-0.097	-0.125
188.500	134.841	80.005	19.993	103.689	20.116	0.024	-0.102
189.000	134.750	80.004	19.993	103.688	20.120	-0.274	-0.112
189.500	134.731	80.005	19.993	103.682	20.118	-0.113	-0.125
190.000	134.653	80.007	19.993	103.680	20.115	0.075	-0.103
190.500	134.556	80.006	19.993	103.675	20.115	0.071	-0.136
191.000	134.571	80.007	19.993	103.675	20.115	0.055	-0.129
191.500	134.472	80.006	19.993	103.674	20.121	-0.313	-0.083
192.000	134.413	80.006	19.994	103.676	20.118	-0.157	-0.121
192.500	134.371	80.006	19.994	103.679	20.115	0.084	-0.130
193.000	134.290	80.007	19.994	103.685	20.114	0.119	-0.112
193.500	134.198	80.004	19.994	103.688	20.118	-0.112	-0.148
194.000	134.209	80.006	19.994	103.692	20.116	-0.015	-0.127
194.500	134.133	80.006	19.994	103.692	20.116	-0.004	-0.073
195.000	134.077	80.006	19.994	103.688	20.117	-0.033	-0.099
195.500	133.987	80.005	19.995	103.682	20.117	-0.095	-0.139
196.000	133.899	80.006	19.995	103.679	20.117	-0.066	-0.162
196.500	133.873	80.005	19.993	103.679	20.117	-0.042	-0.146
197.000	133.808	80.006	19.994	103.683	20.117	-0.059	-0.102
197.500	133.748	80.005	19.994	103.683	20.116	0.022	-0.108
198.000	133.679	80.005	19.993	103.684	20.118	-0.124	-0.127
198.500	133.615	80.005	19.993	103.683	20.118	-0.126	-0.131
199.000	133.562	80.005	19.994	103.680	20.116	0.005	-0.125
199.500	133.506	80.005	19.992	103.675	20.117	-0.086	-0.113
200.000	133.412	80.004	19.994	103.678	20.117	-0.046	-0.129
200.500	133.356	80.004	19.993	103.684	20.119	-0.194	-0.150
201.000	133.308	80.004	19.993	103.690	20.115	0.048	-0.128
201.500	133.221	80.006	19.993	103.690	20.113	0.179	-0.120
202.000	133.176	80.005	19.992	103.691	20.119	-0.165	-0.133
202.500	133.101	80.004	19.993	103.688	20.114	0.145	-0.126
203.000	133.074	80.005	19.994	103.682	20.115	0.101	-0.111
203.500	133.031	80.005	19.993	103.679	20.116	-0.007	-0.086
204.000	132.921	80.005	19.994	103.684	20.115	0.099	-0.111
204.500	132.883	80.006	19.993	103.687	20.114	0.152	-0.151
205.000	132.839	80.005	19.994	103.689	20.114	0.106	-0.115
205.500	132.774	80.004	19.994	103.691	20.114	0.141	-0.095
206.000	132.711	80.005	19.994	103.690	20.116	0.000	-0.118
206.500	132.631	80.004	19.994	103.691	20.115	0.099	-0.136
207.000	132.589	80.006	19.994	103.692	20.116	0.002	-0.133
207.500	132.551	80.006	19.993	103.690	20.116	0.018	-0.101
208.000	132.481	80.006	19.994	103.687	20.116	-0.018	-0.094
208.500	132.435	80.006	19.993	103.684	20.116	-0.026	-0.112
209.000	132.348	80.007	19.992	103.682	20.116	0.035	-0.125
209.500	132.307	80.006	19.994	103.679	20.114	0.154	-0.130
210.000	132.251	80.006	19.994	103.686	20.117	-0.073	-0.112
210.500	132.210	80.007	19.993	103.691	20.113	0.205	-0.097
211.000	132.106	80.006	19.993	103.697	20.115	0.068	-0.121
211.500	132.070	80.007	19.993	103.700	20.114	0.156	-0.143
212.000	132.010	80.007	19.993	103.704	20.115	0.060	-0.118
212.500	131.963	80.008	19.993	103.701	20.117	-0.079	-0.102
213.000	131.874	80.006	19.993	103.695	20.114	0.110	-0.122
213.500	131.832	80.008	19.993	103.691	20.113	0.172	-0.133
214.000	131.805	80.008	19.994	103.686	20.113	0.210	-0.100
214.500	131.721	80.008	19.993	103.681	20.118	-0.130	-0.090
215.000	131.651	80.007	19.994	103.683	20.117	-0.093	-0.133
215.500	131.589	80.008	19.993	103.690	20.117	-0.075	-0.143
216.000	131.543	80.006	19.993	103.697	20.113	0.196	-0.120
216.500	131.498	80.008	19.994	103.700	20.115	0.071	-0.099
217.000	131.427	80.007	19.994	103.700	20.116	0.016	-0.103
217.500	131.366	80.009	19.993	103.697	20.113	0.201	-0.124
218.000	131.302	80.007	19.994	103.693	20.115	0.099	-0.129
218.500	131.227	80.009	19.994	103.691	20.112	0.238	-0.132
219.000	131.180	80.007	19.994	103.692	20.116	0.026	-0.131
219.500	131.141	80.007	19.993	103.692	20.112	0.282	-0.104
220.000	131.066	80.007	19.992	103.693	20.117	-0.091	-0.100
220.500	131.026	80.006	19.996	103.694	20.115	0.077	-0.114
221.000	130.952	80.007	19.995	103.695	20.115	0.057	-0.115
221.500	130.911	80.006	19.995	103.694	20.115	0.077	-0.114
222.000	130.845	80.007	19.996	103.695	20.112	0.245	-0.111
222.500	130.789	80.006	19.995	103.696	20.115	0.088	-0.114
223.000	130.755	80.006	19.995	103.699	20.113	0.232	-0.106
223.500	130.641	80.007	19.995	103.697	20.115	0.077	-0.119
224.000	130.592	80.007	19.994	103.696	20.112	0.284	-0.156
224.500	130.536	80.006	19.995	103.698	20.112	0.300	-0.134
225.000	130.499	80.007	19.995	103.698	20.113	0.192	-0.099
225.500	130.483	80.007	19.995	103.698	20.113	0.210	-0.073
226.000	130.404	80.006	19.994	103.700	20.112	0.264	-0.074
226.500	130.348	80.007	19.995	103.701	20.111	0.315	-0.115
227.000	130.240	80.005	19.994	103.702	20.116	0.029	-0.150
227.500	130.209	80.006	19.993	103.697	20.113	0.220	-0.152
228.000	130.163	80.005	19.994	103.691	20.113	0.210	-0.108
228.500	130.107	80.007	19.994	103.687	20.110	0.401	-0.089
229.000	130.049	80.006	19.995	103.682	20.114	0.115	-0.108
229.500	129.998	80.006	19.994	103.678	20.113	0.189	-0.111
230.000	129.969	80.007	19.994	103.681	20.113	0.215	-0.095
230.500	129.853	80.006	19.993	103.687	20.115	0.079	-0.113
231.000	129.816	80.006	19.995	103.692	20.113	0.218	-0.149
231.500	129.763	80.006	19.994	103.692	20.115	0.070	-0.121
232.000	129.685	80.006	19.994	103.693	20.113	0.212	-0.110
232.500	129.674	80.006	19.994	103.688	20.114	0.138	-0.110
233.000	129.618	80.007	19.994	103.682	20.115	0.085	-0.078
233.500	129.562	80.007	19.994	103.680	20.113	0.198	-0.089
234.000	129.487	80.006	19.994	103.686	20.116	-0.007	-0.121
234.500	129.441	80.008	19.994	103.690	20.114	0.146	-0.126
235.000	129.349	80.007	19.994	103.698	20.111	0.316	-0.130
235.500	129.332	80.008	19.994	103.703	20.111	0.366	-0.123
236.000	129.256	80.008	19.993	103.703	20.110	0.403	-0.101
236.500	129.223	80.008	19.994	103.704	20.106	0.696	-0.101
237.000	129.164	80.007	19.994	103.702	20.103	0.871	-0.100
237.500	129.087	80.007	19.992	103.700	20.098	1.200	-0.114
238.000	129.017	80.007	19.995	103.698	20.091	1.663	-0.142
238.500	128.963	80.007	19.993	103.698	20.082	2.285	-0.135
239.000	128.909	80.009	19.995	103.706	20.074	2.809	-0.116
239.501	128.872	80.009	19.993	103.765	20.064	3.516	-0.099
240.000	128.842	80.008	19.995	103.876	20.052	4.298	-0.079
240.500	128.794	80.009	19.995	104.022	20.043	4.929	-0.073
241.000	128.790	80.006	19.994	104.186	20.034	5.532	-0.065
241.500	128.756	80.008	19.993	104.354	20.023	6.267	-0.045
242.000	128.783	80.007	19.995	104.478	20.016	6.728	-0.022
242.500	128.786	80.009	19.994	104.555	20.007	7.327	0.012
243.000	128.841	80.006	19.993	104.600	20.000	7.792	0.044
243.500	128.857	80.008	19.993	104.625	19.996	8.076	0.064
244.000	128.986	80.008	19.994	104.638	19.989	8.554	0.107
244.500	129.062	80.008	19.994	104.645	19.980	9.101	0.175
245.000	129.177	80.006	19.993	104.647	19.979	9.208	0.198
245.500	129.254	80.006	19.993	104.647	19.973	9.619	0.191
246.000	129.404	80.007	19.995	104.647	19.968	9.940	0.209
246.500	129.489	80.008	19.994	104.644	19.967	9.996	0.231
247.000	129.670	80.007	19.994	104.641	19.966	10.075	0.251
247.500	129.766	80.007	19.993	104.635	19.960	10.480	0.272
248.000	129.996	80.005	19.993	104.627	19.960	10.481	0.302
248.500	130.160	80.004	19.994	104.619	19.958	10.603	0.360
249.000	130.330	80.004	19.994	104.611	19.958	10.570	0.364
249.500	130.578	80.005	19.994	104.604	19.957	10.671	0.376
250.000	130.783	80.004	19.994	104.596	19.955	10.824	0.436
250.500	131.006	80.004	19.994	104.588	19.956	10.736	0.440
251.000	131.273	80.004	19.995	104.578	19.952	10.986	0.459
251.500	131.455	80.006	19.995	104.570	19.953	10.936	0.469
252.000	131.708	80.005	19.995	104.557	19.956	10.708	0.441
252.500	132.015	80.004	19.994	104.548	19.956	10.746	0.498
253.000	132.302	80.005	19.996	104.541	19.953	10.909	0.578
253.500	132.538	80.005	19.995	104.535	19.952	11.012	0.559
254.000	132.841	80.006	19.994	104.532	19.953	10.901	0.531
254.500	133.151	80.005	19.995	104.530	19.956	10.700	0.576
255.000	133.492	80.004	19.994	104.529	19.954	10.871	0.632
255.500	133.797	80.004	19.994	104.525	19.953	10.898	0.648
256.000	134.134	80.004	19.996	104.524	19.954	10.862	0.644
256.500	134.458	80.004	19.995	104.523	19.954	10.854	0.652
257.000	134.762	80.003	19.995	104.516	19.954	10.846	0.645
257.500	135.171	80.004	19.994	104.510	19.960	10.477	0.671
258.000	135.509	80.003	19.995	104.506	19.955	10.819	0.730
258.500	135.857	80.005	19.996	104.499	19.958	10.589	0.716
259.000	136.239	80.006	19.994	104.493	19.960	10.445	0.708
259.500	136.611	80.004	19.995	104.492	19.959	10.503	0.742
260.000	136.994	80.005	19.993	104.491	19.958	10.569	0.755
260.500	137.398	80.002	19.993	104.492	19.959	10.524	0.771
261.000	137.797	80.004	19.994	104.492	19.962	10.353	0.795
261.500	138.193	80.003	19.996	104.490	19.962	10.333	0.799
262.000	138.609	80.006	19.995	104.487	19.963	10.251	0.803
262.500	139.010	80.005	19.994	104.480	19.963	10.252	0.815
263.000	139.444	80.004	19.995	104.472	19.962	10.338	0.826
263.500	139.874	80.005	19.995	104.464	19.966	10.075	0.849
264.000	140.344	80.004	19.995	104.456	19.965	10.095	0.882
264.500	140.777	80.003	19.994	104.451	19.966	10.061	0.902
265.000	141.185	80.005	19.995	104.449	19.966	10.079	0.872
265.500	141.668	80.005	19.994	104.445	19.968	9.913	0.866
266.000	142.113	80.006	19.993	104.440	19.967	9.979	0.909
266.501	142.570	80.006	19.993	104.436	19.969	9.814	0.915
267.000	143.047	80.005	19.994	104.430	19.972	9.668	0.918
267.500	143.492	80.007	19.993	104.424	19.972	9.670	0.928
268.000	143.989	80.005	19.994	104.420	19.970	9.755	0.932
268.500	144.471	80.005	19.993	104.415	19.976	9.403	0.961
269.000	144.940	80.005	19.992	104.409	19.973	9.552	0.965
269.500	145.434	80.006	19.993	104.405	19.978	9.263	0.957
270.000	145.932	80.006	19.993	104.402	19.977	9.322	0.978
270.500	146.428	80.006	19.993	104.394	19.977	9.314	0.993
271.000	146.892	80.006	19.993	104.388	19.979	9.202	0.977
271.500	147.389	80.004	19.994	104.380	19.979	9.168	0.961
272.000	147.915	80.006	19.993	104.367	19.980	9.121	0.992
272.500	148.406	80.005	19.994	104.354	19.982	8.942	1.020
273.000	148.937	80.005	19.993	104.345	19.981	9.026	1.020
273.500	149.438	80.006	19.993	104.338	19.980	9.089	1.027
274.000	149.958	80.005	19.993	104.332	19.987	8.623	1.027
274.500	150.470	80.007	19.993	104.329	19.984	8.806	1.027
275.000	151.006	80.005	19.994	104.327	19.989	8.528	1.040
275.500	151.477	80.006	19.993	104.324	19.988	8.597	1.027
276.000	152.026	80.006	19.994	104.316	19.991	8.349	1.014
276.500	152.518	80.005	19.994	104.310	19.990	8.455	1.030
277.000	153.040	80.004	19.994	104.305	19.991	8.334	1.027
277.500	153.557	80.005	19.994	104.300	19.992	8.328	1.027
278.000	154.062	80.006	19.992	104.295	19.991	8.342	1.031
278.500	154.563	80.005	19.993	104.294	19.991	8.333	1.014
279.000	155.069	80.006	19.994	104.294	19.992	8.300	1.006
279.500	155.597	80.005	19.994	104.294	19.995	8.108	1.020
280.000	156.142	80.004	19.994	104.293	19.993	8.213	1.053
280.500	156.675	80.004	19.996	104.293	19.997	7.973	1.076
281.000	157.193	80.006	19.994	104.292	20.000	7.752	1.065
281.500	157.749	80.004	19.994	104.289	20.003	7.569	1.063
282.000	158.238	80.005	19.994	104.283	19.997	7.939	1.060
282.500	158.789	80.006	19.995	104.276	20.002	7.652	1.043
283.000	159.303	80.004	19.994	104.268	19.999	7.859	1.052
283.500	159.845	80.006	19.994	104.261	20.000	7.777	1.061
284.000	160.379	80.005	19.993	104.256	19.999	7.830	1.066
284.500	160.917	80.004	19.995	104.255	20.001	7.681	1.074
285.000	161.434	80.005	19.994	104.249	20.004	7.481	1.063
285.500	161.983	80.007	19.994	104.243	20.001	7.666	1.060
286.000	162.488	80.005	19.993	104.238	20.004	7.466	1.060
286.500	163.007	80.004	19.994	104.231	20.006	7.338	1.039
287.000	163.576	80.005	19.994	104.224	20.006	7.327	1.056
287.500	164.099	80.004	19.994	104.223	20.007	7.295	1.090
288.000	164.699	80.006	19.994	104.221	20.007	7.299	1.108
288.500	165.195	80.005	19.994	104.217	20.006	7.376	1.109
289.000	165.753	80.004	19.994	104.214	20.006	7.388	1.075
289.500	166.263	80.006	19.995	104.213	20.009	7.131	1.062
290.000	166.809	80.005	19.994	104.212	20.011	7.006	1.062
290.500	167.345	80.005	19.994	104.210	20.006	7.368	1.068
291.000	167.891	80.006	19.994	104.204	20.011	7.022	1.082
291.500	168.400	80.007	19.994	104.198	20.012	6.928	1.068
292.000	168.918	80.005	19.994	104.191	20.012	6.965	1.041
292.500	169.488	80.007	19.993	104.184	20.013	6.855	1.058
293.000	170.035	80.007	19.994	104.178	20.011	7.053	1.103
293.500	170.559	80.007	19.994	104.178	20.014	6.825	1.094
294.000	171.077	80.007	19.994	104.176	20.015	6.735	1.056
294.500	171.637	80.006	19.995	104.177	20.016	6.704	1.060
295.000	172.152	80.007	19.994	104.176	20.017	6.601	1.077
295.500	172.677	80.006	19.994	104.177	20.017	6.639	1.058
296.000	173.213	80.007	19.994	104.176	20.017	6.606	1.050
296.500	173.762	80.008	19.994	104.175	20.019	6.488	1.073
297.000	174.255	80.008	19.993	104.171	20.020	6.429	1.064
297.500	174.770	80.008	19.994	104.166	20.022	6.291	1.025
298.000	175.296	80.007	19.993	104.163	20.020	6.396	1.024
298.500	175.817	80.008	19.994	104.157	20.017	6.600	1.044
299.000	176.345	80.007	19.994	104.151	20.022	6.286	1.048
299.500	176.874	80.007	19.994	104.147	20.019	6.477	1.053
300.000	177.414	80.007	19.994	104.145	20.024	6.161	1.063
300.500	177.923	80.008	19.993	104.140	20.023	6.208	1.059
301.000	178.424	80.009	19.993	104.139	20.026	6.006	1.029
301.500	178.964	80.007	19.992	104.138	20.023	6.197	1.025
302.000	179.470	80.008	19.993	104.138	20.026	6.030	1.044
302.500	179.970	80.007	19.993	104.137	20.025	6.111	1.026
303.000	180.484	80.007	19.994	104.137	20.027	5.949	1.010
303.500	181.048	80.006	19.993	104.135	20.025	6.085	1.046
304.000	181.527	80.007	19.994	104.133	20.025	6.072	1.060
304.500	182.069	80.006	19.994	104.133	20.022	6.280	1.032
305.000	182.565	80.006	19.994	104.131	20.024	6.118	1.029
305.500	183.088	80.006	19.993	104.129	20.025	6.102	1.028
306.000	183.613	80.007	19.993	104.129	20.025	6.063	1.034
306.500	184.092	80.006	19.993	104.128	20.023	6.225	1.026
307.000	184.597	80.006	19.993	104.124	20.027	5.944	0.994
307.500	185.137	80.006	19.992	104.121	20.025	6.074	1.014
308.000	185.650	80.006	19.994	104.117	20.026	5.998	1.049
308.500	186.163	80.006	19.994	104.114	20.025	6.085	1.040
309.000	186.684	80.007	19.993	104.112	20.028	5.906	1.030
309.500	187.138	80.007	19.993	104.116	20.027	5.976	1.004
310.000	187.660	80.007	19.993	104.116	20.028	5.860	0.975
310.500	188.177	80.007	19.993	104.115	20.027	5.958	1.008
311.000	188.696	80.008	19.994	104.115	20.029	5.807	1.038
311.500	189.146	80.006	19.994	104.115	20.028	5.893	1.002
312.000	189.649	80.007	19.993	104.112	20.032	5.614	0.961
312.500	190.199	80.007	19.993	104.113	20.029	5.849	1.003
313.000	190.654	80.007	19.993	104.113	20.028	5.869	1.029
313.500	191.149	80.007	19.994	104.112	20.029	5.832	0.978
314.000	191.679	80.007	19.994	104.114	20.028	5.864	0.988
314.500	192.155	80.008	19.994	104.112	20.027	5.961	1.015
315.000	192.646	80.007	19.995	104.109	20.029	5.844	0.986
315.500	193.152	80.007	19.995	104.109	20.030	5.743	0.982
316.000	193.655	80.007	19.994	104.114	20.030	5.763	1.003
316.500	194.130	80.008	19.993	104.113	20.027	5.932	0.994
317.000	194.631	80.008	19.994	104.114	20.030	5.721	0.977
317.500	195.105	80.009	19.993	104.116	20.031	5.682	0.975
318.000	195.583	80.006	19.994	104.116	20.031	5.713	0.963
318.500	196.075	80.008	19.994	104.111	20.031	5.711	0.961
319.000	196.521	80.008	19.994	104.106	20.030	5.746	0.954
319.500	197.029	80.007	19.994	104.104	20.033	5.544	0.946
320.000	197.509	80.008	19.994	104.101	20.034	5.509	0.971
320.500	197.959	80.008	19.993	104.101	20.033	5.542	0.959
321.000	198.456	80.007	19.994	104.101	20.033	5.536	0.938
321.500	198.979	80.008	19.993	104.101	20.032	5.642	0.983
322.000	199.450	80.008	19.993	104.101	20.033	5.576	1.007
322.500	199.904	80.007	19.994	104.102	20.033	5.556	0.960
323.000	200.398	80.008	19.994	104.100	20.035	5.438	0.937
323.500	200.882	80.008	19.993	104.099	20.031	5.667	0.963
324.000	201.359	80.007	19.994	104.097	20.034	5.511	0.969
324.500	201.832	80.007	19.994	104.095	20.033	5.568	0.955
325.000	202.287	80.007	19.994	104.094	20.033	5.527	0.939
325.500	202.828	80.008	19.994	104.096	20.032	5.628	0.962
326.000	203.334	80.007	19.994	104.096	20.032	5.596	1.021
326.500	203.752	80.008	19.994	104.098	20.034	5.477	0.985
327.000	204.187	80.007	19.994	104.100	20.034	5.465	0.889
327.500	204.659	80.008	19.993	104.100	20.034	5.509	0.881
328.000	205.202	80.007	19.994	104.099	20.032	5.597	0.962
328.500	205.645	80.007	19.994	104.099	20.035	5.425	1.000
329.000	206.134	80.006	19.994	104.098	20.036	5.377	0.958
329.500	206.621	80.006	19.994	104.098	20.034	5.463	0.954
330.000	207.045	80.007	19.994	104.097	20.037	5.304	0.943
330.500	207.551	80.006	19.993	104.097	20.036	5.364	0.921
331.000	208.038	80.006	19.994	104.095	20.036	5.318	0.962
331.500	208.518	80.006	19.993	104.088	20.035	5.445	0.980
332.000	208.975	80.003	19.994	104.081	20.036	5.322	0.952
332.500	209.470	80.004	19.993	104.076	20.035	5.425	0.945
333.000	209.944	80.005	19.994	104.072	20.038	5.224	0.961
333.500	210.441	80.005	19.994	104.071	20.037	5.301	0.970
334.000	210.865	80.004	19.994	104.078	20.037	5.283	0.946
334.500	211.351	80.005	19.994	104.084	20.037	5.299	0.916
335.000	211.845	80.005	19.994	104.087	20.039	5.125	0.945
335.500	212.274	80.005	19.993	104.087	20.037	5.294	0.951
336.000	212.754	80.004	19.994	104.085	20.038	5.228	0.915
336.500	213.205	80.005	19.994	104.080	20.039	5.169	0.920
337.000	213.691	80.006	19.995	104.073	20.038	5.211	0.934
337.500	214.120	80.005	19.993	104.068	20.036	5.323	0.926
338.000	214.577	80.006	19.994	104.066	20.035	5.391	0.900
338.500	215.018	80.004	19.995	104.065	20.038	5.204	0.892
339.000	215.497	80.005	19.994	104.063	20.037	5.277	0.909
339.500	215.986	80.005	19.995	104.063	20.039	5.121	0.944
340.000	216.423	80.004	19.994	104.064	20.038	5.238	0.947
340.500	216.904	80.004	19.998	104.063	20.040	5.093	0.922
341.000	217.360	80.005	19.996	104.063	20.038	5.236	0.928
341.500	217.822	80.006	19.996	104.064	20.039	5.148	0.928
342.000	218.263	80.005	19.995	104.063	20.039	5.122	0.910
342.500	218.740	80.006	19.995	104.062	20.040	5.092	0.911
343.000	219.156	80.004	19.994	104.062	20.039	5.171	0.906
343.500	219.603	80.005	19.995	104.062	20.039	5.169	0.878
344.000	220.076	80.005	19.994	104.060	20.041	5.035	0.891
344.500	220.506	80.005	19.995	104.056	20.040	5.109	0.912
345.000	220.957	80.005	19.995	104.056	20.041	4.979	0.892
345.500	221.418	80.006	19.995	104.052	20.042	4.912	0.896
346.000	221.878	80.005	19.995	104.051	20.041	5.024	0.916
346.500	222.340	80.004	19.995	104.051	20.042	4.940	0.921
347.000	222.744	80.005	19.994	104.052	20.042	4.923	0.894
347.500	223.203	80.006	19.995	104.052	20.045	4.714	0.865
348.000	223.668	80.006	19.994	104.055	20.044	4.828	0.894
348.500	224.143	80.005	19.995	104.056	20.042	4.967	0.932
349.000	224.575	80.006	19.995	104.051	20.040	5.068	0.923
349.500	224.991	80.004	19.995	104.046	20.042	4.947	0.878
350.000	225.439	80.005	19.996	104.040	20.041	4.984	0.857
350.500	225.884	80.006	19.995	104.038	20.044	4.813	0.878
351.000	226.320	80.005	19.996	104.031	20.042	4.925	0.887
351.500	226.761	80.005	19.995	104.029	20.046	4.651	0.879
352.000	227.209	80.006	19.996	104.028	20.043	4.880	0.883
352.500	227.617	80.006	19.995	104.026	20.045	4.730	0.872
353.000	228.047	80.005	19.994	104.021	20.044	4.790	0.847
353.500	228.512	80.005	19.994	104.020	20.045	4.770	0.867
354.000	228.907	80.006	19.995	104.023	20.048	4.544	0.878
354.500	229.381	80.007	19.995	104.023	20.044	4.817	0.865
355.000	229.787	80.006	19.993	104.023	20.044	4.782	0.874
355.500	230.258	80.006	19.995	104.023	20.046	4.670	0.878
356.000	230.678	80.006	19.994	104.023	20.047	4.612	0.884
356.500	231.114	80.005	19.995	104.019	20.044	4.832	0.874
357.000	231.542	80.006	19.994	104.017	20.045	4.742	0.860
357.500	231.953	80.006	19.994	104.016	20.043	4.889	0.851
358.000	232.384	80.006	19.994	104.016	20.042	4.953	0.841
358.500	232.790	80.006	19.994	104.015	20.044	4.821	0.840
359.000	233.221	80.005	19.994	104.015	20.046	4.705	0.837
359.500	233.623	80.006	19.994	104.014	20.043	4.852	0.835
360.000	234.039	80.006	19.995	104.014	20.042	4.971	0.826
360.500	234.452	80.005	19.994	104.014	20.043	4.850	0.823
361.000	234.872	80.006	19.994	104.014	20.047	4.577	0.831
361.500	235.293	80.007	19.994	104.015	20.046	4.670	0.837
362.000	235.690	80.006	19.994	104.014	20.045	4.749	0.830
362.500	236.116	80.006	19.995	104.009	20.048	4.555	0.820
363.000	236.513	80.006	19.995	104.004	20.045	4.711	0.823
363.500	236.891	80.005	19.994	103.998	20.046	4.665	0.799
364.000	237.354	80.005	19.994	103.992	20.049	4.490	0.808
364.500	237.747	80.006	19.994	103.992	20.048	4.514	0.848
365.000	238.141	80.005	19.994	103.992	20.048	4.544	0.821
365.500	238.538	80.006	19.993	103.991	20.049	4.483	0.789
366.000	238.945	80.006	19.994	103.992	20.047	4.577	0.798
366.500	239.315	80.006	19.994	103.991	20.046	4.646	0.791
367.000	239.692	80.005	19.994	103.987	20.051	4.362	0.762
367.500	240.140	80.007	19.995	103.987	20.044	4.795	0.786
368.000	240.540	80.006	19.994	103.988	20.046	4.696	0.837
368.500	240.901	80.007	19.993	103.987	20.050	4.411	0.805
369.000	241.310	80.006	19.993	103.987	20.048	4.560	0.766
369.500	241.701	80.004	19.994	103.987	20.048	4.533	0.785
370.000	242.095	80.005	19.995	103.986	20.051	4.373	0.793
370.500	242.488	80.005	19.994	103.985	20.051	4.356	0.786
371.000	242.862	80.005	19.994	103.986	20.050	4.380	0.776
371.500	243.236	80.005	19.995	103.986	20.051	4.323	0.757
372.000	243.615	80.005	19.994	103.987	20.053	4.215	0.750
372.500	244.012	80.006	19.993	103.988	20.050	4.378	0.765
373.000	244.407	80.005	19.994	103.987	20.050	4.384	0.784
373.500	244.766	80.005	19.993	103.986	20.052	4.264	0.773
374.000	245.139	80.006	19.993	103.986	20.050	4.400	0.743
374.500	245.544	80.006	19.995	103.985	20.053	4.182	0.755
375.000	245.951	80.007	19.994	103.984	20.053	4.189	0.795
375.500	246.343	80.006	19.995	103.984	20.051	4.345	0.805
376.000	246.721	80.007	19.994	103.985	20.049	4.442	0.784
376.500	247.076	80.007	19.993	103.987	20.047	4.604	0.752
377.000	247.425	80.007	19.995	103.988	20.051	4.341	0.718
377.500	247.783	80.007	19.994	103.987	20.055	4.095	0.705
378.000	248.187	80.008	19.993	103.987	20.053	4.228	0.735
378.500	248.575	80.006	19.994	103.986	20.054	4.123	0.777
379.000	248.930	80.006	19.993	103.985	20.050	4.393	0.767
379.500	249.322	80.005	19.994	103.984	20.053	4.226	0.745
380.000	249.693	80.008	19.994	103.984	20.054	4.158	0.755
380.500	250.050	80.008	19.994	103.984	20.054	4.143	0.745
381.000	250.491	80.009	19.992	103.984	20.055	4.068	0.763
381.500	250.839	80.006	19.993	103.983	20.053	4.184	0.794
382.000	251.192	80.007	19.993	103.983	20.051	4.336	0.745
382.500	251.564	80.006	19.994	103.983	20.051	4.343	0.713
383.000	251.949	80.007	19.992	103.981	20.051	4.315	0.741
383.500	252.291	80.007	19.994	103.981	20.049	4.475	0.742
384.000	252.675	80.007	19.994	103.979	20.052	4.251	0.727
384.500	253.011	80.006	19.994	103.979	20.057	3.954	0.723
385.000	253.372	80.008	19.995	103.979	20.056	4.024	0.708
385.500	253.747	80.007	19.994	103.981	20.055	4.065	0.716
386.000	254.083	80.007	19.994	103.982	20.051	4.314	0.724
386.500	254.431	80.006	19.993	103.983	20.055	4.088	0.697
387.000	254.796	80.007	19.994	103.980	20.055	4.080	0.698
387.500	255.166	80.007	19.994	103.978	20.055	4.067	0.724
388.000	255.519	80.006	19.995	103.977	20.054	4.159	0.729
388.500	255.827	80.007	19.995	103.976	20.058	3.898	0.692
389.000	256.204	80.006	19.995	103.976	20.055	4.087	0.673
389.500	256.537	80.006	19.993	103.978	20.056	4.038	0.698
390.000	256.910	80.005	19.993	103.980	20.053	4.192	0.708
390.500	257.242	80.006	19.993	103.980	20.057	3.930	0.705
391.000	257.582	80.007	19.993	103.980	20.053	4.179	0.689
391.500	257.934	80.006	19.993	103.978	20.055	4.047	0.682
392.000	258.290	80.006	19.992	103.975	20.055	4.064	0.700
392.500	258.661	80.007	19.994	103.976	20.057	3.955	0.718
393.000	259.021	80.006	19.993	103.976	20.057	3.931	0.729
393.500	259.339	80.007	19.993	103.974	20.056	3.981	0.705
394.000	259.700	80.007	19.994	103.970	20.055	4.062	0.678
394.500	260.011	80.007	19.994	103.972	20.054	4.170	0.675
395.000	260.354	80.008	19.992	103.972	20.056	4.017	0.663
395.500	260.718	80.005	19.992	103.972	20.055	4.045	0.681
396.000	260.988	80.006	19.994	103.975	20.055	4.043	0.671
396.500	261.350	80.006	19.994	103.982	20.057	3.929	0.633
397.000	261.700	80.006	19.994	103.979	20.056	4.035	0.672
397.500	262.005	80.007	19.994	103.974	20.059	3.825	0.684
398.000	262.353	80.007	19.993	103.968	20.057	3.931	0.654
398.500	262.671	80.008	19.992	103.961	20.056	3.999	0.660
399.000	263.048	80.007	19.993	103.954	20.054	4.125	0.681
399.500	263.373	80.008	19.993	103.951	20.054	4.168	0.698
400.000	263.678	80.007	19.993	103.949	20.054	4.122	0.665
400.500	264.018	80.008	19.993	103.952	20.055	4.054	0.637
401.000	264.373	80.008	19.993	103.955	20.056	3.984	0.670
401.500	264.656	80.008	19.994	103.960	20.058	3.891	0.667
402.000	265.046	80.005	19.994	103.964	20.058	3.878	0.655
402.500	265.363	80.008	19.992	103.963	20.057	3.957	0.690
403.000	265.689	80.011	19.993	103.959	20.058	3.868	0.676
403.500	265.987	80.010	19.993	103.961	20.053	4.219	0.633
404.000	266.321	80.009	19.993	103.956	20.057	3.925	0.627
404.500	266.646	80.009	19.991	103.952	20.054	4.109	0.645
405.000	266.959	80.009	19.993	103.952	20.056	3.992	0.648
405.500	267.312	80.009	19.994	103.951	20.052	4.263	0.652
406.000	267.594	80.009	19.993	103.945	20.055	4.054	0.651
406.500	267.930	80.009	19.993	103.944	20.055	4.094	0.627
407.000	268.242	80.009	19.993	103.943	20.054	4.144	0.633
407.500	268.585	80.009	19.993	103.943	20.055	4.066	0.651
408.000	268.893	80.008	19.994	103.943	20.055	4.048	0.653
408.500	269.205	80.009	19.993	103.943	20.053	4.186	0.636
409.000	269.556	80.008	19.993	103.943	20.056	3.993	0.641
409.500	269.840	80.008	19.993	103.942	20.056	3.973	0.649
410.000	270.152	80.007	19.993	103.942	20.058	3.858	0.616
410.500	270.481	80.008	19.993	103.943	20.059	3.773	0.619
411.000	270.795	80.008	19.993	103.943	20.057	3.913	0.642
411.500	271.092	80.008	19.994	103.942	20.060	3.720	0.627
412.000	271.394	80.007	19.994	103.942	20.063	3.571	0.605
412.500	271.747	80.008	19.994	103.941	20.061	3.665	0.627
413.000	272.065	80.006	19.993	103.940	20.059	3.801	0.663
413.500	272.359	80.005	19.994	103.940	20.057	3.955	0.642
414.000	272.658	80.006	19.993	103.940	20.056	3.995	0.603
414.500	272.947	80.006	19.994	103.941	20.058	3.854	0.591
415.000	273.267	80.006	19.994	103.941	20.061	3.679	0.599
415.500	273.568	80.005	19.994	103.942	20.055	4.050	0.615
416.000	273.880	80.006	19.994	103.944	20.057	3.907	0.617
416.500	274.159	80.006	19.995	103.944	20.059	3.773	0.602
417.000	274.470	80.005	19.994	103.943	20.058	3.881	0.590
417.500	274.776	80.006	19.994	103.940	20.055	4.092	0.603
418.000	275.073	80.005	19.995	103.939	20.056	3.993	0.610
418.500	275.374	80.007	19.994	103.938	20.054	4.107	0.601
419.000	275.659	80.005	19.994	103.939	20.058	3.854	0.592
419.500	275.963	80.006	19.996	103.940	20.056	4.009	0.587
420.000	276.245	80.005	19.995	103.943	20.058	3.899	0.588
420.500	276.544	80.006	19.994	103.944	20.058	3.905	0.583
421.000	276.819	80.007	19.994	103.944	20.054	4.118	0.577
421.500	277.124	80.005	19.995	103.942	20.059	3.828	0.577
422.000	277.438	80.006	19.994	103.942	20.057	3.947	0.599
422.500	277.730	80.006	19.993	103.942	20.057	3.910	0.612
423.000	278.043	80.007	19.993	103.942	20.058	3.886	0.605
423.500	278.347	80.006	19.994	103.942	20.056	3.993	0.611
424.000	278.656	80.007	19.994	103.943	20.057	3.914	0.615
424.500	278.906	80.006	19.995	103.943	20.057	3.914	0.586
425.000	279.234	80.006	19.994	103.941	20.062	3.637	0.569
425.500	279.507	80.006	19.995	103.938	20.059	3.784	0.590
426.000	279.818	80.007	19.994	103.937	20.057	3.919	0.593
426.500	280.071	80.007	19.993	103.935	20.057	3.932	0.573
427.000	280.334	80.008	19.994	103.932	20.059	3.805	0.540
427.500	280.671	80.006	19.995	103.931	20.060	3.765	0.558
428.000	280.942	80.006	19.995	103.935	20.058	3.881	0.604
428.500	281.226	80.007	19.994	103.936	20.062	3.617	0.581
429.000	281.498	80.006	19.993	103.937	20.059	3.826	0.555
429.500	281.784	80.006	19.994	103.939	20.059	3.828	0.557
430.000	282.060	80.006	19.995	103.938	20.059	3.833	0.560
430.500	282.364	80.007	19.994	103.933	20.060	3.725	0.571
431.000	282.639	80.006	19.994	103.932	20.056	4.022	0.580
431.500	282.899	80.007	19.993	103.933	20.057	3.960	0.557
432.000	283.156	80.006	19.995	103.933	20.056	4.000	0.526
432.500	283.443	80.006	19.993	103.935	20.056	3.978	0.530
433.000	283.739	80.006	19.994	103.938	20.059	3.789	0.564
433.500	284.009	80.004	19.993	103.931	20.058	3.890	0.575
434.000	284.345	80.007	19.993	103.928	20.057	3.937	0.586
434.500	284.570	80.006	19.993	103.928	20.061	3.664	0.583
435.000	284.843	80.007	19.993	103.927	20.059	3.820	0.529
435.500	285.162	80.005	19.994	103.925	20.062	3.618	0.545
436.000	285.426	80.006	19.993	103.929	20.062	3.618	0.588
436.500	285.715	80.005	19.995	103.928	20.058	3.888	0.568
437.000	285.977	80.005	19.994	103.924	20.062	3.574	0.551
437.500	286.271	80.006	19.995	103.924	20.061	3.664	0.553
438.000	286.538	80.007	19.994	103.923	20.058	3.875	0.559
438.500	286.800	80.005	19.997	103.921	20.058	3.894	0.545
439.000	287.083	80.006	19.996	103.923	20.060	3.751	0.536
439.500	287.386	80.005	19.997	103.928	20.064	3.492	0.565
440.000	287.636	80.005	19.995	103.930	20.057	3.913	0.570
440.500	287.905	80.005	19.995	103.933	20.058	3.873	0.536
441.000	288.192	80.006	19.996	103.936	20.057	3.961	0.538
441.500	288.478	80.005	19.995	103.936	20.060	3.748	0.565
442.000	288.749	80.005	19.995	103.935	20.056	4.009	0.565
442.500	288.989	80.006	19.994	103.930	20.056	4.005	0.534
443.000	289.268	80.006	19.995	103.927	20.059	3.809	0.515
443.500	289.560	80.006	19.994	103.927	20.058	3.866	0.545
444.000	289.782	80.005	19.995	103.922	20.059	3.798	0.542
444.500	290.060	80.006	19.994	103.917	20.056	4.027	0.507
445.000	290.303	80.005	19.994	103.919	20.057	3.965	0.511
445.500	290.622	80.006	19.995	103.922	20.059	3.829	0.541
446.000	290.868	80.005	19.995	103.919	20.056	3.979	0.563
446.500	291.138	80.005	19.996	103.921	20.060	3.761	0.541
447.000	291.425	80.005	19.995	103.921	20.059	3.811	0.537
447.500	291.728	80.005	19.995	103.922	20.057	3.954	0.574
448.000	291.931	80.006	19.995	103.922	20.059	3.807	0.548
448.500	292.222	80.005	19.995	103.925	20.059	3.805	0.500
449.000	292.497	80.005	19.995	103.929	20.060	3.722	0.530
449.500	292.778	80.005	19.994	103.931	20.060	3.743	0.561
450.000	293.048	80.005	19.995	103.927	20.061	3.647	0.553
450.500	293.294	80.005	19.995	103.922	20.059	3.807	0.533
451.000	293.517	80.005	19.994	103.918	20.062	3.634	0.493
451.500	293.809	80.005	19.993	103.915	20.061	3.647	0.492
452.000	294.047	80.006	19.995	103.913	20.062	3.636	0.522
452.500	294.272	80.006	19.994	103.915	20.062	3.598	0.497
453.000	294.565	80.006	19.993	103.916	20.064	3.462	0.491
453.500	294.819	80.006	19.994	103.917	20.058	3.856	0.533
454.000	295.065	80.006	19.993	103.914	20.065	3.433	0.523
454.500	295.280	80.006	19.994	103.913	20.063	3.526	0.480
455.000	295.586	80.005	19.994	103.912	20.064	3.499	0.491
455.500	295.847	80.005	19.994	103.913	20.062	3.585	0.544
456.000	296.061	80.006	19.995	103.912	20.063	3.530	0.521
456.500	296.340	80.006	19.993	103.915	20.062	3.610	0.484
457.000	296.595	80.006	19.993	103.916	20.059	3.820	0.514
457.500	296.803	80.006	19.993	103.915	20.063	3.546	0.499
458.000	297.093	80.007	19.993	103.913	20.061	3.669	0.481
458.500	297.327	80.007	19.994	103.912	20.060	3.765	0.511
459.000	297.576	80.006	19.992	103.909	20.064	3.489	0.504
459.500	297.846	80.005	19.994	103.909	20.062	3.632	0.501
460.000	298.089	80.006	19.994	103.908	20.062	3.581	0.516
460.500	298.393	80.007	19.994	103.909	20.060	3.765	0.530
461.000	298.607	80.007	19.994	103.911	20.061	3.638	0.532
461.500	298.874	80.007	19.994	103.911	20.058	3.882	0.499
462.000	299.131	80.007	19.994	103.910	20.059	3.808	0.502
462.500	299.377	80.007	19.994	103.909	20.061	3.682	0.513
463.000	299.598	80.008	19.993	103.909	20.063	3.563	0.485
463.500	299.881	80.006	19.994	103.910	20.061	3.680	0.486
464.000	300.133	80.009	19.994	103.910	20.061	3.676	0.520
464.500	300.404	80.008	19.993	103.912	20.057	3.928	0.529
465.000	300.639	80.007	19.993	103.914	20.058	3.904	0.515
465.500	300.869	80.008	19.993	103.913	20.058	3.889	0.485
466.000	301.106	80.008	19.994	103.909	20.060	3.764	0.466
466.500	301.371	80.009	19.994	103.908	20.058	3.871	0.485
467.000	301.629	80.008	19.993	103.906	20.061	3.638	0.513
467.500	301.843	80.007	19.993	103.905	20.059	3.783	0.497
468.000	302.130	80.008	19.994	103.906	20.058	3.882	0.486
468.500	302.342	80.007	19.994	103.906	20.060	3.717	0.500
469.000	302.590	80.008	19.993	103.906	20.062	3.603	0.480
469.500	302.836	80.007	19.994	103.906	20.061	3.667	0.477
470.000	303.093	80.009	19.994	103.906	20.059	3.801	0.498
470.500	303.338	80.009	19.994	103.906	20.063	3.521	0.502
471.000	303.559	80.007	19.993	103.906	20.062	3.609	0.484
471.500	303.796	80.007	19.994	103.906	20.057	3.950	0.462
472.000	304.033	80.007	19.994	103.906	20.060	3.741	0.466
472.500	304.272	80.008	19.994	103.905	20.059	3.821	0.475
473.000	304.529	80.007	19.993	103.905	20.060	3.724	0.486
473.500	304.773	80.008	19.993	103.904	20.062	3.592	0.498
474.000	304.976	80.009	19.992	103.904	20.059	3.810	0.474
474.500	305.229	80.006	19.993	103.903	20.058	3.851	0.451
475.000	305.451	80.009	19.993	103.903	20.061	3.691	0.466
475.500	305.689	80.006	19.994	103.903	20.062	3.581	0.468
476.000	305.942	80.007	19.993	103.903	20.062	3.574	0.476
476.500	306.186	80.009	19.992	103.903	20.057	3.911	0.494
477.000	306.399	80.005	19.994	103.903	20.057	3.906	0.477
477.500	306.671	80.006	19.994	103.904	20.057	3.955	0.471
478.000	306.870	80.008	19.993	103.904	20.059	3.797	0.478
478.500	307.119	80.008	19.994	103.903	20.061	3.700	0.459
479.000	307.336	80.007	19.994	103.902	20.059	3.827	0.457
479.500	307.554	80.006	19.994	103.902	20.057	3.909	0.451
480.000	307.828	80.008	19.993	103.901	20.058	3.885	0.464
480.500	308.016	80.009	19.993	103.901	20.059	3.832	0.477
481.000	308.316	80.009	19.994	103.902	20.058	3.840	0.475
481.500	308.548	80.008	19.993	103.903	20.061	3.693	0.510
482.000	308.759	80.009	19.993	103.904	20.056	3.990	0.487
482.500	309.010	80.010	19.994	103.904	20.059	3.792	0.453
483.000	309.246	80.009	19.993	103.904	20.058	3.880	0.474
483.500	309.434	80.010	19.993	103.904	20.058	3.862	0.455
484.000	309.727	80.009	19.993	103.904	20.059	3.830	0.452
484.500	309.933	80.008	19.994	103.904	20.060	3.706	0.490
485.000	310.138	80.009	19.994	103.902	20.058	3.884	0.455
485.500	310.421	80.010	19.994	103.903	20.057	3.935	0.450
486.000	310.656	80.009	19.993	103.903	20.058	3.886	0.503
486.500	310.874	80.008	19.994	103.903	20.059	3.776	0.486
487.000	311.101	80.009	19.993	103.903	20.058	3.871	0.449
487.500	311.349	80.008	19.994	103.905	20.057	3.922	0.460
488.000	311.612	80.009	19.994	103.904	20.059	3.790	0.493
488.500	311.794	80.009	19.993	103.904	20.056	4.012	0.478
489.000	312.065	80.009	19.994	103.903	20.057	3.970	0.449
489.500	312.280	80.010	19.992	103.903	20.059	3.809	0.469
490.000	312.532	80.009	19.992	103.902	20.058	3.891	0.477
490.500	312.778	80.011	19.993	103.902	20.057	3.944	0.483
491.000	312.973	80.007	19.993	103.902	20.056	4.001	0.469
491.500	313.200	80.008	19.992	103.903	20.056	3.990	0.431
492.000	313.438	80.008	19.993	103.904	20.054	4.122	0.444
492.500	313.652	80.009	19.993	103.904	20.057	3.942	0.459
493.000	313.914	80.008	19.993	103.904	20.057	3.931	0.464
493.500	314.119	80.006	19.993	103.904	20.058	3.858	0.472
494.000	314.383	80.008	19.993	103.905	20.059	3.830	0.468
494.500	314.601	80.007	19.992	103.904	20.057	3.931	0.476
495.000	314.853	80.006	19.993	103.905	20.058	3.891	0.476
495.500	315.093	80.006	19.993	103.905	20.059	3.779	0.481
496.000	315.338	80.007	19.994	103.906	20.059	3.834	0.488
496.500	315.545	80.007	19.993	103.907	20.058	3.893	0.469
497.000	315.771	80.005	19.994	103.908	20.054	4.109	0.443
497.500	316.013	80.007	19.993	103.911	20.055	4.091	0.451
498.000	316.243	80.006	19.993	103.911	20.058	3.886	0.470
498.500	316.464	80.006	19.994	103.911	20.059	3.772	0.461
499.000	316.719	80.007	19.994	103.910	20.057	3.922	0.464
499.500	317.013	80.005	19.995	103.910	20.060	3.704	0.512
500.000	317.188	80.006	19.994	103.907	20.056	3.985	0.509
500.500	317.426	80.007	19.992	103.907	20.057	3.955	0.441
501.000	317.692	80.007	19.994	103.907	20.056	4.029	0.459
501.500	317.932	80.004	19.993	103.907	20.058	3.869	0.505
502.000	318.160	80.006	19.993	103.908	20.058	3.895	0.487
502.500	318.380	80.006	19.993	103.907	20.060	3.739	0.458
503.000	318.608	80.006	19.993	103.906	20.059	3.785	0.448
503.500	318.831	80.008	19.993	103.906	20.060	3.766	0.450
504.000	319.079	80.007	19.992	103.906	20.060	3.713	0.461
504.500	319.286	80.006	19.992	103.904	20.060	3.768	0.462
505.000	319.534	80.006	19.992	103.904	20.060	3.728	0.455
505.500	319.777	80.005	19.995	103.904	20.059	3.805	0.474
506.000	320.023	80.004	19.993	103.905	20.060	3.724	0.490
506.500	320.268	80.006	19.993	103.905	20.058	3.889	0.489
507.000	320.489	80.006	19.993	103.906	20.057	3.930	0.478
507.500	320.730	80.006	19.993	103.908	20.056	3.979	0.464
508.000	320.978	80.006	19.994	103.908	20.057	3.926	0.476
508.500	321.217	80.006	19.993	103.909	20.058	3.869	0.488
509.000	321.435	80.005	19.994	103.909	20.058	3.887	0.472
509.500	321.701	80.007	19.994	103.909	20.055	4.054	0.470
510.000	321.959	80.007	19.993	103.908	20.057	3.961	0.504
510.500	322.182	80.007	19.994	103.908	20.060	3.761	0.503
511.000	322.417	80.006	19.993	103.907	20.059	3.799	0.470
511.500	322.637	80.005	19.994	103.908	20.056	3.988	0.457
512.000	322.862	80.005	19.993	103.907	20.058	3.902	0.450
512.500	323.099	80.006	19.994	103.907	20.059	3.825	0.453
513.000	323.351	80.008	19.993	103.907	20.058	3.882	0.476
513.500	323.569	80.006	19.993	103.907	20.055	4.054	0.480
514.000	323.828	80.007	19.994	103.907	20.057	3.946	0.473
514.500	324.067	80.006	19.994	103.904	20.057	3.953	0.487
515.000	324.338	80.007	19.993	103.903	20.058	3.871	0.504
515.500	324.551	80.007	19.993	103.901	20.057	3.954	0.497
516.000	324.804	80.007	19.995	103.901	20.055	4.075	0.475
516.500	325.059	80.006	19.994	103.902	20.057	3.954	0.487
517.000	325.329	80.007	19.995	103.904	20.055	4.053	0.517
517.500	325.538	80.007	19.993	103.906	20.057	3.913	0.502
518.000	325.742	80.007	19.993	103.907	20.062	3.631	0.446
518.500	326.005	80.006	19.994	103.907	20.057	3.933	0.440
519.000	326.265	80.006	19.993	103.908	20.058	3.858	0.495
519.500	326.498	80.005	19.993	103.907	20.055	4.041	0.508
520.000	326.782	80.004	19.995	103.907	20.057	3.961	0.505
520.500	326.995	80.006	19.996	103.908	20.056	4.032	0.507
521.000	327.218	80.006	19.997	103.908	20.055	4.091	0.466
521.500	327.458	80.005	19.994	103.907	20.057	3.928	0.450
522.000	327.675	80.005	19.996	103.909	20.059	3.818	0.460
522.500	327.922	80.007	19.993	103.908	20.059	3.812	0.460
523.000	328.162	80.006	19.993	103.908	20.057	3.933	0.476
523.500	328.401	80.006	19.993	103.907	20.056	4.018	0.483
524.000	328.683	80.006	19.994	103.908	20.056	3.986	0.500
524.500	328.918	80.008	19.993	103.907	20.056	4.010	0.519
525.000	329.179	80.006	19.995	103.908	20.056	4.017	0.507
525.500	329.418	80.005	19.992	103.908	20.056	3.994	0.498
526.000	329.670	80.006	19.993	103.909	20.056	4.027	0.496
526.500	329.905	80.005	19.993	103.909	20.052	4.263	0.489
527.000	330.169	80.005	19.995	103.910	20.056	4.021	0.493
527.500	330.379	80.004	19.994	103.911	20.053	4.172	0.486
528.000	330.626	80.006	19.994	103.911	20.057	3.959	0.466
528.500	330.898	80.005	19.993	103.910	20.055	4.069	0.488
529.000	331.123	80.006	19.995	103.910	20.055	4.100	0.508
529.500	331.393	80.006	19.993	103.908	20.053	4.184	0.496
530.000	331.634	80.005	19.994	103.908	20.056	3.994	0.503
530.500	331.876	80.005	19.994	103.907	20.054	4.150	0.497
531.000	332.128	80.006	19.994	103.907	20.055	4.088	0.489
531.500	332.381	80.004	19.994	103.906	20.057	3.958	0.499
532.000	332.652	80.006	19.994	103.906	20.056	3.992	0.514
532.500	332.884	80.005	19.994	103.905	20.054	4.115	0.514
533.000	333.133	80.006	19.994	103.905	20.053	4.214	0.492
533.500	333.387	80.007	19.995	103.905	20.056	4.007	0.492
534.000	333.653	80.007	19.994	103.905	20.056	4.005	0.511
534.500	333.871	80.006	19.994	103.905	20.054	4.157	0.502
535.000	334.160	80.006	19.995	103.905	20.055	4.045	0.496
535.500	334.436	80.006	19.995	103.904	20.056	4.023	0.536
536.000	334.659	80.006	19.994	103.904	20.052	4.293	0.532
536.500	334.963	80.007	19.995	103.905	20.054	4.161	0.513
537.000	335.149	80.006	19.994	103.908	20.055	4.054	0.508
537.500	335.450	80.007	19.994	103.909	20.053	4.197	0.488
538.000	335.689	80.006	19.994	103.908	20.053	4.181	0.514
538.500	335.952	80.005	19.995	103.907	20.053	4.179	0.521
539.000	336.216	80.008	19.995	103.906	20.051	4.362	0.514
539.500	336.424	80.005	19.996	103.903	20.055	4.089	0.499
540.000	336.656	80.007	19.995	103.903	20.051	4.315	0.456
540.500	336.899	80.005	19.995	103.904	20.051	4.316	0.458
541.000	337.193	80.007	19.994	103.907	20.051	4.346	0.506
541.500	337.471	80.007	19.995	103.910	20.050	4.399	0.554
542.000	337.700	80.007	19.995	103.913	20.051	4.359	0.539
542.500	337.945	80.008	19.994	103.918	20.057	3.906	0.490
543.000	338.231	80.007	19.994	103.919	20.052	4.254	0.503
543.500	338.484	80.007	19.995	103.918	20.056	4.027	0.535
544.000	338.776	80.008	19.993	103.920	20.053	4.173	0.542
544.500	338.992	80.007	19.994	103.922	20.054	4.159	0.527
545.000	339.246	80.008	19.994	103.916	20.053	4.225	0.489
545.500	339.500	80.007	19.994	103.914	20.051	4.307	0.489
546.000	339.758	80.007	19.995	103.912	20.049	4.449	0.510
546.500	340.045	80.007	19.994	103.907	20.051	4.344	0.528
547.000	340.298	80.006	19.993	103.905	20.054	4.151	0.542
547.500	340.541	80.007	19.995	103.905	20.055	4.063	0.518
548.000	340.829	80.008	19.994	103.905	20.053	4.199	0.513
548.500	341.060	80.009	19.994	103.906	20.052	4.247	0.525
549.000	341.310	80.008	19.994	103.906	20.049	4.454	0.500
549.500	341.557	80.007	19.993	103.903	20.052	4.245	0.489
550.000	341.859	80.007	19.992	103.903	20.051	4.326	0.523
550.500	342.095	80.007	19.995	103.903	20.050	4.415	0.544
551.000	342.339	80.008	19.993	103.904	20.055	4.091	0.510
551.500	342.596	80.007	19.993	103.903	20.054	4.142	0.491
552.000	342.843	80.007	19.994	103.903	20.050	4.428	0.502
552.500	343.084	80.008	19.994	103.904	20.052	4.293	0.496
553.000	343.362	80.009	19.993	103.903	20.048	4.515	0.503
553.500	343.622	80.008	19.994	103.903	20.049	4.454	0.528
554.000	343.882	80.008	19.993	103.903	20.046	4.652	0.529
554.500	344.099	80.008	19.993	103.905	20.047	4.601	0.498
555.000	344.368	80.008	19.992	103.905	20.048	4.529	0.481
555.500	344.645	80.006	19.994	103.905	20.047	4.577	0.516
556.000	344.875	80.006	19.994	103.908	20.048	4.527	0.527
556.500	345.179	80.007	19.993	103.908	20.047	4.599	0.520
557.000	345.433	80.009	19.993	103.907	20.047	4.579	0.546
557.500	345.707	80.007	19.993	103.907	20.050	4.412	0.543
558.000	346.001	80.007	19.993	103.907	20.048	4.513	0.547
558.500	346.224	80.007	19.994	103.906	20.049	4.443	0.542
559.000	346.504	80.007	19.994	103.906	20.044	4.835	0.510
559.500	346.749	80.007	19.993	103.906	20.047	4.623	0.514
560.000	347.016	80.007	19.993	103.905	20.046	4.668	0.518
560.500	347.231	80.008	19.993	103.906	20.046	4.676	0.497
561.000	347.559	80.008	19.992	103.904	20.047	4.628	0.513
561.500	347.785	80.008	19.994	103.905	20.047	4.595	0.549
562.000	348.066	80.008	19.993	103.905	20.045	4.707	0.531
562.500	348.308	80.008	19.994	103.905	20.045	4.753	0.515
563.000	348.570	80.008	19.993	103.905	20.040	5.063	0.513
563.500	348.860	80.008	19.992	103.906	20.043	4.892	0.528
564.000	349.136	80.007	19.994	103.907	20.044	4.793	0.559
564.500	349.361	80.008	19.992	103.906	20.046	4.674	0.534
565.000	349.639	80.009	19.995	103.906	20.044	4.810	0.502
565.500	349.925	80.008	19.993	103.907	20.041	4.980	0.533
566.000	350.213	80.009	19.992	103.905	20.046	4.676	0.569
566.500	350.431	80.008	19.993	103.904	20.043	4.857	0.541
567.000	350.699	80.007	19.995	103.903	20.044	4.821	0.497
567.500	350.975	80.009	19.993	103.903	20.043	4.866	0.515
568.000	351.251	80.008	19.992	103.903	20.043	4.894	0.548
568.500	351.503	80.009	19.992	103.903	20.040	5.074	0.540
569.000	351.759	80.006	19.994	103.903	20.042	4.951	0.518
569.500	352.046	80.007	19.994	103.905	20.042	4.964	0.526
570.000	352.297	80.008	19.992	103.904	20.040	5.066	0.540
570.500	352.540	80.008	19.993	103.904	20.041	4.984	0.516
571.000	352.821	80.007	19.994	103.904	20.036	5.343	0.509
571.500	353.100	80.009	19.993	103.903	20.038	5.198	0.542
572.000	353.346	80.008	19.993	103.902	20.038	5.182	0.542
572.500	353.601	80.008	19.994	103.903	20.039	5.138	0.513
573.000	353.882	80.007	19.994	103.904	20.038	5.217	0.519
573.500	354.101	80.008	19.994	103.904	20.041	5.001	0.518
574.000	354.398	80.008	19.992	103.905	20.038	5.219	0.508
574.500	354.684	80.009	19.993	103.905	20.039	5.127	0.549
575.000	354.920	80.006	19.993	103.905	20.037	5.292	0.552
575.500	355.180	80.007	19.992	103.905	20.038	5.219	0.509
576.000	355.444	80.008	19.992	103.905	20.039	5.158	0.510
576.500	355.712	80.006	19.995	103.905	20.038	5.195	0.528
577.000	355.963	80.007	19.994	103.905	20.038	5.206	0.525
577.500	356.232	80.006	19.993	103.905	20.038	5.173	0.519
578.000	356.508	80.007	19.994	103.905	20.036	5.363	0.532
578.500	356.758	80.007	19.993	103.904	20.036	5.352	0.536
579.000	357.007	80.007	19.993	103.904	20.036	5.330	0.513
579.500	357.295	80.006	19.994	103.905	20.036	5.348	0.518
580.000	357.525	80.005	19.992	103.905	20.034	5.449	0.527
580.500	357.793	80.004	19.995	103.904	20.034	5.438	0.508
581.000	358.067	80.006	19.994	103.905	20.033	5.537	0.520
581.500	358.344	80.006	19.996	103.906	20.036	5.323	0.547
582.000	358.602	80.006	19.993	103.906	20.036	5.354	0.543
582.500	358.839	80.007	19.994	103.906	20.036	5.318	0.515
583.000	359.093	80.005	19.993	103.907	20.036	5.343	0.493
583.500	359.360	80.006	19.993	103.908	20.034	5.464	0.506
584.000	359.609	80.006	19.994	103.908	20.035	5.425	0.519
584.500	359.867	80.006	19.994	103.908	20.034	5.464	0.512
585.000	360.138	80.007	19.991	103.908	20.034	5.467	0.518
585.500	360.377	80.005	19.993	103.906	20.032	5.601	0.520
586.000	360.644	80.007	19.993	103.905	20.033	5.541	0.508
586.500	360.924	80.006	19.993	103.904	20.031	5.680	0.526
587.000	361.211	80.006	19.994	103.904	20.033	5.560	0.557
587.500	361.446	80.007	19.993	103.904	20.033	5.547	0.544
588.000	361.729	80.006	19.992	103.905	20.033	5.507	0.520
588.500	361.991	80.006	19.994	103.905	20.033	5.542	0.532
589.000	362.217	80.006	19.994	103.906	20.032	5.614	0.517
589.500	362.474	80.006	19.993	103.905	20.029	5.812	0.485
590.000	362.738	80.006	19.993	103.900	20.031	5.680	0.502
590.500	363.005	80.006	19.993	103.897	20.030	5.739	0.526
591.000	363.251	80.007	19.992	103.896	20.030	5.709	0.522
591.500	363.532	80.007	19.993	103.896	20.031	5.700	0.520
592.000	363.792	80.007	19.993	103.896	20.028	5.861	0.534
592.500	364.038	80.007	19.994	103.903	20.028	5.881	0.524
593.000	364.312	80.006	19.993	103.906	20.026	5.984	0.513
593.500	364.532	80.008	19.993	103.906	20.027	5.959	0.507
594.000	364.814	80.006	19.994	103.903	20.028	5.898	0.498
594.500	365.093	80.007	19.994	103.901	20.027	5.942	0.531
595.000	365.343	80.006	19.994	103.899	20.025	6.092	0.545
595.500	365.615	80.007	19.992	103.896	20.026	6.015	0.526
596.000	365.879	80.007	19.993	103.895	20.026	5.980	0.529
596.500	366.097	80.007	19.992	103.895	20.023	6.206	0.509
597.000	366.414	80.006	19.995	103.893	20.021	6.327	0.509
597.500	366.645	80.007	19.994	103.887	20.023	6.186	0.541
598.000	366.897	80.007	19.994	103.884	20.021	6.369	0.515
598.500	367.152	80.008	19.993	103.882	20.020	6.386	0.495
599.000	367.420	80.007	19.994	103.883	20.024	6.129	0.515
599.500	367.667	80.007	19.994	103.886	20.021	6.344	0.519
600.000	367.937	80.008	19.994	103.890	20.021	6.331	0.516
600.500	368.174	80.007	19.995	103.893	20.021	6.324	0.512
601.000	368.485	80.006	19.994	103.894	20.022	6.267	0.528
601.500	368.713	80.007	19.994	103.893	20.022	6.296	0.544
602.000	368.992	80.007	19.994	103.888	20.020	6.413	0.523
602.500	369.248	80.007	19.995	103.883	20.021	6.328	0.520
603.000	369.463	80.008	19.995	103.881	20.018	6.522	0.503
603.500	369.749	80.006	19.994	103.886	20.016	6.665	0.486
604.000	370.030	80.006	19.993	103.888	20.021	6.335	0.534
604.500	370.256	80.007	19.994	103.892	20.019	6.455	0.537
605.000	370.479	80.006	19.995	103.899	20.014	6.827	0.478
605.500	370.736	80.007	19.994	103.896	20.015	6.740	0.464
606.000	371.013	80.008	19.995	103.889	20.017	6.622	0.507
606.500	371.268	80.006	19.994	103.886	20.017	6.594	0.533
607.000	371.536	80.007	19.993	103.887	20.016	6.695	0.527
607.500	371.779	80.006	19.995	103.885	20.015	6.742	0.517
608.000	372.024	80.004	19.994	103.886	20.015	6.747	0.499
608.500	372.292	80.007	19.994	103.890	20.013	6.868	0.501
609.000	372.574	80.005	19.993	103.890	20.014	6.797	0.532
609.500	372.803	80.006	19.994	103.890	20.011	7.021	0.530
610.000	373.051	80.006	19.994	103.890	20.011	6.977	0.494
610.500	373.318	80.006	19.994	103.893	20.014	6.785	0.496
611.000	373.554	80.006	19.994	103.897	20.008	7.186	0.509
611.500	373.794	80.006	19.993	103.898	20.010	7.047	0.490
612.000	374.070	80.005	19.994	103.894	20.009	7.139	0.496
612.500	374.313	80.006	19.995	103.895	20.008	7.196	0.517
613.000	374.579	80.007	19.993	103.890	20.005	7.410	0.514
613.500	374.862	80.005	19.996	103.882	20.007	7.254	0.529
614.000	375.091	80.006	19.993	103.879	20.006	7.339	0.530
614.500	375.361	80.005	19.993	103.877	20.006	7.318	0.505
615.000	375.596	80.008	19.994	103.879	20.007	7.249	0.502
615.500	375.859	80.006	19.995	103.885	20.008	7.198	0.502
616.000	376.098	80.007	19.994	103.888	20.006	7.315	0.500
616.500	376.353	80.006	19.996	103.892	20.005	7.399	0.498
617.000	376.625	80.007	19.995	103.891	20.004	7.502	0.511
617.500	376.877	80.007	19.995	103.886	20.003	7.520	0.526
618.000	377.137	80.006	19.994	103.880	20.003	7.560	0.518
618.500	377.414	80.008	19.993	103.877	20.003	7.531	0.525
619.000	377.639	80.007	19.993	103.872	20.001	7.692	0.519
619.500	377.924	80.007	19.995	103.871	20.003	7.540	0.506
620.000	378.141	80.007	19.995	103.871	20.000	7.727	0.506
620.500	378.403	80.008	19.994	103.872	20.002	7.634	0.490
621.000	378.672	80.008	19.995	103.874	20.003	7.537	0.505
621.500	378.913	80.007	19.995	103.879	20.002	7.603	0.520
622.000	379.153	80.009	19.995	103.884	20.002	7.597	0.496
622.500	379.429	80.006	19.993	103.885	19.998	7.897	0.499
623.000	379.696	80.008	19.995	103.885	20.001	7.699	0.529
623.500	379.971	80.007	19.994	103.885	19.999	7.811	0.543
624.000	380.203	80.008	19.995	103.883	19.998	7.864	0.524
624.500	380.453	80.007	19.995	103.881	19.997	7.919	0.494
625.000	380.699	80.007	19.994	103.882	19.998	7.866	0.489
625.500	380.977	80.008	19.995	103.884	19.998	7.867	0.510
626.000	381.239	80.008	19.994	103.884	19.999	7.827	0.532
626.500	381.473	80.007	19.994	103.885	19.999	7.807	0.518
627.000	381.723	80.007	19.994	103.890	19.998	7.903	0.490
627.500	381.943	80.009	19.995	103.889	19.997	7.961	0.477
628.000	382.206	80.008	19.994	103.884	19.994	8.107	0.476
628.500	382.508	80.007	19.995	103.885	19.992	8.268	0.524
629.000	382.755	80.007	19.994	103.880	19.991	8.358	0.557
629.500	382.992	80.007	19.995	103.876	19.992	8.272	0.517
630.000	383.259	80.006	19.995	103.876	19.992	8.283	0.494
630.500	383.501	80.006	19.995	103.881	19.990	8.378	0.506
631.000	383.758	80.006	19.994	103.884	19.990	8.389	0.505
631.500	384.022	80.006	19.995	103.888	19.990	8.417	0.510
632.000	384.268	80.006	19.994	103.885	19.991	8.338	0.515
632.500	384.522	80.008	19.994	103.885	19.988	8.547	0.505
633.000	384.779	80.006	19.996	103.881	19.990	8.417	0.505
633.500	385.040	80.007	19.996	103.876	19.987	8.613	0.515
634.000	385.319	80.006	19.995	103.875	19.988	8.530	0.529
634.500	385.546	80.007	19.994	103.876	19.988	8.548	0.523
635.000	385.782	80.007	19.995	103.874	19.986	8.667	0.485
635.500	386.032	80.006	19.995	103.874	19.988	8.560	0.475
636.000	386.341	80.006	19.995	103.873	19.986	8.669	0.522
636.500	386.552	80.005	19.995	103.871	19.985	8.755	0.540
637.000	386.801	80.006	19.995	103.871	19.987	8.598	0.490
637.500	387.077	80.006	19.994	103.872	19.986	8.645	0.493
638.000	387.317	80.006	19.994	103.874	19.982	8.922	0.521
638.500	387.561	80.007	19.996	103.878	19.984	8.799	0.500
639.000	387.800	80.007	19.994	103.882	19.982	8.907	0.483
639.500	388.073	80.007	19.995	103.882	19.982	8.959	0.497
640.000	388.307	80.006	19.991	103.883	19.985	8.768	0.509
640.500	388.569	80.007	19.994	103.886	19.982	8.939	0.502
641.000	388.819	80.006	19.995	103.886	19.982	8.923	0.504
641.500	389.060	80.007	19.993	103.885	19.983	8.859	0.501
642.000	389.279	80.006	19.994	103.887	19.981	8.978	0.476
642.500	389.534	80.006	19.995	103.886	19.979	9.167	0.467
643.000	389.800	80.007	19.993	103.883	19.979	9.117	0.497
643.500	390.057	80.008	19.994	103.882	19.980	9.096	0.522
644.000	390.295	80.007	19.994	103.885	19.978	9.202	0.509
644.500	390.544	80.007	19.993	103.885	19.978	9.171	0.491
645.000	390.819	80.007	19.993	103.883	19.977	9.275	0.505
645.500	391.041	80.008	19.993	103.880	19.976	9.318	0.510
646.000	391.309	80.008	19.993	103.878	19.977	9.244	0.493
646.500	391.549	80.007	19.993	103.872	19.976	9.331	0.500
647.000	391.776	80.006	19.993	103.872	19.974	9.451	0.488
647.500	392.045	80.008	19.993	103.878	19.976	9.332	0.481
648.000	392.283	80.008	19.993	103.878	19.976	9.362	0.501
648.500	392.531	80.008	19.992	103.880	19.977	9.299	0.496
649.000	392.799	80.008	19.994	103.879	19.972	9.637	0.501
649.500	393.047	80.009	19.993	103.878	19.974	9.470	0.516
650.000	393.307	80.008	19.993	103.874	19.972	9.594	0.512
650.500	393.564	80.009	19.993	103.879	19.973	9.548	0.512
651.000	393.827	80.008	19.994	103.878	19.972	9.625	0.518
651.500	394.082	80.007	19.993	103.884	19.971	9.673	0.519
652.000	394.333	80.008	19.993	103.889	19.969	9.794	0.512
652.500	394.582	80.007	19.994	103.889	19.969	9.828	0.503
653.000	394.823	80.008	19.993	103.889	19.969	9.808	0.495
653.500	395.069	80.007	19.993	103.889	19.969	9.834	0.488
654.000	395.335	80.008	19.993	103.883	19.968	9.898	0.500
654.500	395.556	80.008	19.994	103.877	19.969	9.814	0.500
655.000	395.815	80.008	19.992	103.875	19.968	9.868	0.484
655.500	396.076	80.008	19.993	103.872	19.965	10.052	0.500
656.000	396.318	80.007	19.992	103.874	19.966	9.988	0.512
656.500	396.574	80.008	19.993	103.874	19.967	9.929	0.500
657.000	396.786	80.007	19.993	103.874	19.966	9.995	0.483
657.500	397.056	80.008	19.993	103.874	19.966	10.004	0.475
658.000	397.302	80.007	19.992	103.872	19.966	10.003	0.499
658.500	397.552	80.006	19.993	103.871	19.965	10.047	0.506
659.000	397.818	80.006	19.994	103.875	19.964	10.170	0.506
659.500	398.032	80.005	19.994	103.875	19.964	10.128	0.498
660.000	398.304	80.007	19.992	103.875	19.965	10.069	0.483
660.500	398.546	80.007	19.993	103.874	19.968	9.866	0.500
661.000	398.783	80.005	19.993	103.873	19.962	10.249	0.497
661.500	399.034	80.005	19.993	103.868	19.962	10.295	0.484
662.000	399.289	80.007	19.993	103.867	19.967	9.952	0.497
662.500	399.518	80.008	19.993	103.868	19.962	10.251	0.495
663.000	399.788	80.005	19.993	103.868	19.959	10.463	0.491
663.500	399.999	80.006	19.993	103.867	19.960	10.399	0.490
664.000	400.265	80.007	19.993	103.867	19.959	10.490	0.479
664.500	400.508	80.006	19.993	103.867	19.958	10.531	0.493
665.000	400.775	80.005	19.993	103.866	19.961	10.331	0.509
665.500	401.005	80.006	19.993	103.864	19.959	10.468	0.503
666.000	401.244	80.006	19.994	103.864	19.959	10.459	0.483
666.500	401.497	80.006	19.993	103.864	19.960	10.417	0.481
667.000	401.759	80.007	19.993	103.863	19.960	10.397	0.504
667.500	401.975	80.006	19.994	103.863	19.956	10.659	0.496
668.000	402.232	80.006	19.993	103.865	19.958	10.545	0.475
668.500	402.505	80.007	19.994	103.866	19.959	10.463	0.502
669.000	402.744	80.006	19.994	103.867	19.957	10.618	0.521
669.500	402.980	80.007	19.994	103.870	19.957	10.635	0.493
670.000	403.242	80.005	19.993	103.874	19.959	10.439	0.486
670.500	403.478	80.007	19.994	103.874	19.958	10.558	0.498
671.000	403.729	80.006	19.993	103.876	19.957	10.600	0.493
671.500	403.958	80.007	19.994	103.877	19.957	10.635	0.483
672.000	404.197	80.006	19.994	103.877	19.954	10.818	0.474
672.500	404.470	80.006	19.994	103.873	19.955	10.745	0.490
673.000	404.731	80.007	19.995	103.873	19.953	10.868	0.523
673.500	404.996	80.005	19.994	103.872	19.955	10.733	0.530
674.000	405.244	80.006	19.994	103.871	19.956	10.647	0.519
674.500	405.462	80.007	19.994	103.869	19.957	10.625	0.490
675.000	405.707	80.008	19.994	103.869	19.954	10.771	0.464
675.500	405.985	80.006	19.994	103.872	19.953	10.865	0.493
676.000	406.208	80.006	19.994	103.871	19.955	10.735	0.512
676.500	406.486	80.006	19.993	103.870	19.955	10.766	0.501
677.000	406.696	80.007	19.993	103.870	19.958	10.561	0.495
677.500	406.954	80.007	19.993	103.871	19.958	10.537	0.478
678.000	407.200	80.007	19.994	103.870	19.956	10.667	0.486
678.500	407.465	80.007	19.993	103.870	19.955	10.752	0.507
679.000	407.711	80.007	19.994	103.870	19.956	10.693	0.512
679.500	407.971	80.006	19.994	103.869	19.956	10.699	0.509
680.000	408.219	80.007	19.993	103.867	19.956	10.686	0.507
680.500	408.490	80.007	19.993	103.865	19.956	10.679	0.513
681.000	408.749	80.007	19.993	103.865	19.957	10.626	0.525
681.500	408.951	80.007	19.993	103.865	19.958	10.552	0.495
682.000	409.207	80.007	19.993	103.866	19.958	10.556	0.459
682.500	409.488	80.007	19.994	103.867	19.959	10.444	0.497
683.000	409.716	80.007	19.994	103.868	19.960	10.403	0.523
683.500	409.970	80.007	19.994	103.868	19.956	10.673	0.496
684.000	410.231	80.007	19.994	103.871	19.960	10.390	0.499
684.500	410.492	80.005	19.993	103.872	19.958	10.509	0.518
685.000	410.745	80.006	19.995	103.873	19.958	10.566	0.518
685.500	411.021	80.006	19.995	103.875	19.957	10.571	0.522
686.000	411.248	80.007	19.993	103.874	19.957	10.595	0.516
686.500	411.476	80.006	19.994	103.872	19.958	10.570	0.479
687.000	411.723	80.005	19.994	103.874	19.958	10.553	0.464
687.500	412.003	80.006	19.994	103.877	19.960	10.436	0.501
688.000	412.258	80.005	19.994	103.879	19.956	10.674	0.532
688.500	412.525	80.006	19.994	103.880	19.956	10.680	0.529
689.000	412.744	80.006	19.993	103.880	19.956	10.702	0.504
689.500	413.003	80.006	19.993	103.880	19.956	10.677	0.482
690.000	413.267	80.006	19.993	103.879	19.957	10.635	0.500
690.500	413.509	80.005	19.993	103.880	19.953	10.842	0.515
691.000	413.784	80.005	19.994	103.884	19.952	10.910	0.511
691.500	414.025	80.005	19.993	103.885	19.954	10.815	0.516
692.000	414.280	80.006	19.993	103.884	19.954	10.816	0.506
692.500	414.498	80.006	19.994	103.885	19.951	11.001	0.485
693.000	414.796	80.007	19.995	103.882	19.951	11.008	0.494
693.500	415.044	80.006	19.994	103.881	19.951	10.973	0.531
694.000	415.272	80.005	19.994	103.879	19.949	11.112	0.512
694.500	415.519	80.004	19.994	103.877	19.949	11.107	0.476
695.000	415.852	80.005	19.994	103.873	19.950	11.057	0.528
695.500	416.066	80.004	19.994	103.872	19.947	11.301	0.563
696.000	416.332	80.005	19.995	103.870	19.946	11.314	0.513
696.500	416.630	80.005	19.994	103.873	19.944	11.483	0.522
697.000	416.844	80.005	19.994	103.872	19.945	11.417	0.538
697.500	417.096	80.005	19.994	103.874	19.944	11.504	0.489
698.000	417.366	80.006	19.994	103.876	19.943	11.528	0.494
698.500	417.638	80.005	19.994	103.878	19.943	11.540	0.532
699.000	417.886	80.006	19.994	103.876	19.941	11.678	0.531
699.500	418.137	80.005	19.996	103.877	19.937	11.969	0.510
700.000	418.410	80.005	19.994	103.877	19.936	11.987	0.511
700.500	418.689	80.006	19.995	103.880	19.936	12.006	0.538
701.000	418.932	80.006	19.996	103.882	19.933	12.222	0.537
701.500	419.191	80.006	19.995	103.885	19.933	12.187	0.512
702.000	419.462	80.007	19.995	103.884	19.934	12.165	0.516
702.500	419.715	80.005	19.995	103.884	19.929	12.451	0.528
703.000	419.974	80.007	19.994	103.879	19.926	12.675	0.518
703.500	420.233	80.007	19.995	103.875	19.926	12.662	0.515
704.000	420.506	80.007	19.994	103.873	19.923	12.886	0.525
704.500	420.776	80.007	19.994	103.872	19.919	13.109	0.538
705.000	421.023	80.007	19.994	103.872	19.919	13.124	0.530
705.500	421.278	80.008	19.993	103.873	19.916	13.341	0.510
706.000	421.576	80.008	19.994	103.875	19.915	13.399	0.528
706.500	421.834	80.006	19.994	103.876	19.909	13.821	0.554
707.000	422.053	80.008	19.994	103.878	19.908	13.894	0.516
707.500	422.350	80.008	19.994	103.877	19.905	14.072	0.496
708.000	422.609	80.007	19.994	103.875	19.904	14.161	0.536
708.500	422.866	80.007	19.994	103.872	19.899	14.495	0.536
709.000	423.146	80.006	19.994	103.870	19.897	14.620	0.527
709.500	423.402	80.007	19.994	103.865	19.895	14.751	0.537
710.000	423.661	80.008	19.994	103.865	19.891	14.988	0.525
710.500	423.967	80.007	19.994	103.865	19.888	15.211	0.540
711.000	424.176	80.007	19.995	103.864	19.886	15.305	0.540
711.500	424.490	80.006	19.994	103.863	19.887	15.242	0.519
712.000	424.711	80.007	19.993	103.864	19.883	15.510	0.529
712.500	424.965	80.006	19.994	103.864	19.880	15.765	0.505
713.000	425.242	80.006	19.993	103.864	19.879	15.793	0.503
713.500	425.500	80.005	19.995	103.863	19.876	16.026	0.534
714.000	425.784	80.006	19.994	103.864	19.875	16.038	0.539
714.500	426.040	80.006	19.994	103.865	19.873	16.205	0.541
715.000	426.299	80.007	19.993	103.866	19.870	16.410	0.527
715.500	426.558	80.006	19.994	103.866	19.863	16.896	0.517
716.000	426.828	80.007	19.994	103.868	19.862	16.905	0.524
716.500	427.074	80.005	19.993	103.868	19.860	17.081	0.522
717.000	427.365	80.006	19.996	103.869	19.857	17.275	0.527
717.500	427.597	80.006	19.994	103.868	19.855	17.430	0.530
718.000	427.878	80.006	19.993	103.868	19.856	17.357	0.518
718.500	428.135	80.005	19.994	103.868	19.852	17.627	0.526
719.000	428.439	80.006	19.995	103.866	19.847	17.910	0.550
719.500	428.683	80.005	19.995	103.864	19.846	18.031	0.554
720.000	428.934	80.006	19.995	103.865	19.841	18.327	0.522
720.500	429.208	80.006	19.994	103.864	19.840	18.372	0.510
721.000	429.449	80.007	19.993	103.862	19.838	18.502	0.520
721.500	429.748	80.006	19.994	103.861	19.835	18.702	0.527
722.000	429.977	80.008	19.993	103.862	19.830	19.063	0.534
722.500	430.194	80.006	19.995	103.863	19.829	19.123	0.487
723.000	430.484	80.007	19.995	103.864	19.822	19.582	0.476
723.500	430.753	80.007	19.994	103.865	19.821	19.675	0.533
724.000	431.006	80.007	19.996	103.867	19.820	19.706	0.541
724.500	431.242	80.007	19.996	103.867	19.816	20.009	0.506
725.000	431.516	80.007	19.995	103.866	19.810	20.420	0.499
725.500	431.825	80.007	19.996	103.866	19.807	20.572	0.546
726.000	432.048	80.007	19.993	103.864	19.803	20.855	0.557
726.500	432.319	80.007	19.994	103.864	19.803	20.853	0.513
727.000	432.570	80.007	19.995	103.863	19.801	21.022	0.508
727.500	432.797	80.006	19.995	103.864	19.796	21.317	0.500
728.000	433.108	80.007	19.995	103.862	19.797	21.297	0.508
728.500	433.390	80.008	19.994	103.860	19.794	21.470	0.566
729.000	433.635	80.010	19.995	103.858	19.794	21.465	0.560
729.500	433.916	80.008	19.996	103.852	19.791	21.662	0.527
730.000	434.181	80.008	19.995	103.843	19.789	21.819	0.536
730.500	434.448	80.010	19.995	103.837	19.785	22.061	0.539
731.000	434.683	80.007	19.996	103.832	19.786	21.970	0.517
731.500	434.931	80.008	19.995	103.827	19.782	22.273	0.492
732.000	435.185	80.007	19.994	103.827	19.782	22.235	0.492
732.500	435.452	80.008	19.995	103.827	19.776	22.681	0.511
733.000	435.690	80.009	19.996	103.828	19.775	22.759	0.513
733.500	435.944	80.008	19.995	103.836	19.771	23.016	0.499
734.000	436.211	80.008	19.994	103.841	19.767	23.303	0.507
734.500	436.478	80.008	19.995	103.847	19.762	23.588	0.527
735.000	436.745	80.008	19.994	103.854	19.761	23.674	0.534
735.500	437.016	80.009	19.994	103.859	19.761	23.704	0.536
736.000	437.251	80.008	19.994	103.853	19.755	24.078	0.523
736.500	437.473	80.008	19.993	103.849	19.751	24.319	0.481
737.000	437.724	80.008	19.994	103.847	19.748	24.563	0.465
737.500	437.983	80.009	19.993	103.847	19.746	24.686	0.491
738.000	438.230	80.008	19.995	103.847	19.743	24.857	0.508
738.500	438.471	80.007	19.992	103.849	19.737	25.244	0.497
739.000	438.709	80.008	19.994	103.847	19.733	25.517	0.483
739.500	438.987	80.007	19.993	103.842	19.731	25.680	0.498
740.000	439.233	80.007	19.994	103.836	19.725	26.042	0.521
740.500	439.500	80.007	19.993	103.831	19.722	26.281	0.519
741.000	439.755	80.006	19.994	103.829	19.715	26.759	0.517
741.500	439.974	80.006	19.994	103.835	19.707	27.265	0.498
742.000	440.264	80.007	19.994	103.840	19.700	27.731	0.492
742.500	440.507	80.005	19.994	103.843	19.695	28.078	0.521
743.000	440.740	80.007	19.994	103.844	19.687	28.607	0.505
743.500	441.004	80.007	19.993	103.847	19.680	29.067	0.486
744.000	441.261	80.007	19.993	103.844	19.675	29.388	0.508
744.500	441.511	80.006	19.993	103.846	19.663	30.211	0.514
745.000	441.775	80.007	19.992	103.850	19.657	30.578	0.511
745.500	442.030	80.008	19.994	103.854	19.650	31.033	0.516
746.000	442.277	80.006	19.994	103.856	19.642	31.620	0.510
746.500	442.513	80.006	19.994	103.859	19.631	32.346	0.493
747.000	442.733	80.007	19.993	103.858	19.627	32.614	0.470
747.500	443.020	80.007	19.993	103.854	19.619	33.154	0.482
748.000	443.249	80.006	19.994	103.848	19.611	33.643	0.512
748.500	443.463	80.007	19.994	103.842	19.603	34.209	0.480
749.000	443.759	80.008	19.994	103.836	19.598	34.549	0.476
749.500	443.999	80.007	19.994	103.828	19.588	35.209	0.523
750.000	444.230	80.007	19.993	103.824	19.580	35.737	0.504
750.500	444.490	80.007	19.993	103.822	19.572	36.253	0.482
751.000	444.737	80.008	19.994	103.821	19.565	36.707	0.499
751.500	445.011	80.006	19.994	103.821	19.553	37.534	0.513
752.000	445.233	80.007	19.995	103.822	19.545	38.018	0.508
752.500	445.473	80.007	19.994	103.823	19.536	38.638	0.479
753.000	445.715	80.008	19.994	103.825	19.524	39.469	0.472
753.500	445.982	80.007	19.993	103.827	19.513	40.193	0.495
754.000	446.223	80.007	19.994	103.827	19.499	41.083	0.508
754.500	446.478	80.006	19.994	103.828	19.488	41.864	0.502
755.000	446.708	80.007	19.994	103.829	19.480	42.356	0.490
755.500	446.960	80.007	19.995	103.829	19.464	43.426	0.483
756.000	447.197	80.008	19.994	103.830	19.454	44.090	0.485
756.500	447.467	80.007	19.993	103.832	19.438	45.167	0.499
757.000	447.700	80.007	19.993	103.836	19.426	45.994	0.505
757.500	447.955	80.005	19.994	103.837	19.412	46.900	0.495
758.000	448.183	80.007	19.994	103.837	19.397	47.905	0.485
758.500	448.487	80.006	19.993	103.836	19.385	48.697	0.508
759.000	448.747	80.007	19.995	103.834	19.371	49.659	0.548
759.500	448.973	80.007	19.994	103.830	19.359	50.476	0.525
760.000	449.196	80.005	19.991	103.827	19.346	51.338	0.467
760.500	449.440	80.006	19.993	103.823	19.331	52.324	0.458
761.000	449.712	80.006	19.994	103.822	19.319	53.120	0.492
761.500	449.930	80.006	19.994	103.815	19.306	53.966	0.503
762.000	450.199	80.007	19.993	103.808	19.296	54.637	0.488
762.500	450.426	80.007	19.994	103.802	19.282	55.531	0.492
763.000	450.716	80.008	19.994	103.797	19.268	56.437	0.506
763.500	450.945	80.007	19.994	103.790	19.253	57.465	0.517
764.000	451.219	80.008	19.995	103.789	19.233	58.794	0.511
764.500	451.463	80.005	19.995	103.789	19.219	59.735	0.511
765.000	451.729	80.006	19.995	103.789	19.204	60.743	0.514
765.500	451.953	80.006	19.994	103.790	19.188	61.833	0.500
766.000	452.219	80.007	19.993	103.790	19.163	63.444	0.490
766.500	452.474	80.008	19.994	103.795	19.146	64.579	0.505
767.000	452.703	80.007	19.993	103.802	19.125	66.029	0.502
767.500	452.940	80.008	19.994	103.809	19.104	67.415	0.475
768.000	453.208	80.007	19.994	103.819	19.080	68.973	0.486
768.500	453.450	80.007	19.993	103.829	19.062	70.195	0.508
769.000	453.704	80.007	19.993	103.832	19.044	71.393	0.503
769.500	453.968	80.008	19.993	103.833	19.023	72.806	0.507
770.000	454.210	80.006	19.994	103.828	19.003	74.143	0.512
770.500	454.430	80.006	19.993	103.817	18.986	75.236	0.484
771.000	454.693	80.006	19.994	103.801	18.969	76.366	0.472
771.500	454.922	80.007	19.994	103.786	18.953	77.440	0.488
772.000	455.182	80.007	19.993	103.767	18.935	78.623	0.491
772.500	455.433	80.009	19.993	103.749	18.913	80.115	0.500
773.000	455.687	80.007	19.993	103.735	18.894	81.413	0.508
773.500	455.944	80.007	19.994	103.725	18.870	82.958	0.508
774.000	456.176	80.007	19.994	103.718	18.854	84.083	0.500
774.500	456.403	80.006	19.993	103.717	18.830	85.651	0.474
775.000	456.648	80.006	19.993	103.720	18.807	87.141	0.466
775.500	456.906	80.007	19.994	103.728	18.787	88.472	0.488
776.000	457.144	80.008	19.994	103.736	18.763	90.055	0.500
776.500	457.394	80.007	19.993	103.743	18.745	91.258	0.492
777.000	457.645	80.007	19.993	103.749	18.727	92.507	0.494
777.500	457.884	80.007	19.994	103.754	18.704	94.054	0.496
778.000	458.146	80.006	19.992	103.754	18.679	95.724	0.496
778.500	458.417	80.007	19.992	103.754	18.660	97.062	0.517
779.000	458.657	80.007	19.994	103.751	18.634	98.833	0.522
779.500	458.905	80.007	19.993	103.747	18.606	100.668	0.500
780.000	459.154	80.007	19.994	103.743	18.580	102.405	0.492
780.500	459.400	80.007	19.994	103.734	18.555	104.040	0.496
781.000	459.644	80.006	19.993	103.728	18.530	105.688	0.492
781.500	459.907	80.006	19.993	103.728	18.500	107.667	0.498
782.000	460.136	80.007	19.994	103.726	18.475	109.276	0.500
782.500	460.377	80.007	19.994	103.728	18.447	111.058	0.481
783.000	460.651	80.007	19.994	103.733	18.420	112.794	0.492
783.500	460.853	80.009	19.994	103.737	18.392	114.560	0.496
784.000	461.079	80.007	19.992	103.739	18.360	116.611	0.452
784.500	461.341	80.007	19.994	103.744	18.333	118.353	0.458
785.000	461.575	80.007	19.994	103.743	18.298	120.600	0.492
785.500	461.825	80.009	19.994	103.737	18.261	123.015	0.490
786.000	462.070	80.008	19.993	103.731	18.217	125.935	0.489
786.500	462.350	80.007	19.992	103.722	18.165	129.347	0.510
787.000	462.563	80.007	19.994	103.716	18.112	132.912	0.509
787.500	462.774	80.007	19.995	103.720	18.053	136.881	0.459
788.000	463.053	80.009	19.992	103.728	17.992	140.987	0.457
788.500	463.288	80.008	19.993	103.746	17.927	145.409	0.502
789.000	463.521	80.009	19.994	103.782	17.868	149.412	0.490
789.500	463.778	80.008	19.993	103.824	17.806	153.559	0.478
790.000	464.014	80.007	19.994	103.848	17.746	157.592	0.492
790.500	464.263	80.007	19.994	103.868	17.688	161.495	0.489
791.000	464.498	80.009	19.995	103.870	17.631	165.322	0.484
791.500	464.739	80.008	19.995	103.849	17.582	168.568	0.480
792.000	464.966	80.009	19.994	103.815	17.532	171.942	0.472
792.500	465.256	80.008	19.994	103.780	17.492	174.572	0.492
793.000	465.485	80.008	19.994	103.732	17.453	177.092	0.518
793.500	465.705	80.008	19.995	103.675	17.415	179.611	0.484
794.000	465.972	80.007	19.995	103.603	17.378	182.016	0.468
794.500	466.231	80.007	19.994	103.523	17.345	184.094	0.506
795.000	466.468	80.007	19.994	103.445	17.313	186.172	0.511
795.500	466.690	80.009	19.993	103.378	17.278	188.422	0.478
796.000	466.988	80.007	19.994	103.324	17.240	190.896	0.490
796.500	467.203	80.008	19.994	103.294	17.209	192.914	0.517
797.000	467.441	80.009	19.994	103.281	17.166	195.689	0.483
797.500	467.701	80.008	19.994	103.284	17.126	198.299	0.475
798.000	467.935	80.008	19.994	103.308	17.083	201.124	0.496
798.500	468.176	80.007	19.995	103.348	17.038	204.074	0.485
799.000	468.448	80.008	19.993	103.399	16.992	207.138	0.494
799.500	468.673	80.008	19.995	103.462	16.949	210.085	0.505
800.000	468.936	80.008	19.995	103.521	16.898	213.453	0.493
800.500	469.196	80.007	19.994	103.565	16.850	216.755	0.506
801.000	469.436	80.007	19.993	103.595	16.803	219.983	0.512
801.500	469.664	80.007	19.994	103.624	16.757	223.126	0.484
802.000	469.931	80.008	19.994	103.632	16.711	226.264	0.481
802.500	470.189	80.008	19.994	103.633	16.660	229.705	0.510
803.000	470.435	80.008	19.993	103.637	16.615	232.767	0.515
803.500	470.683	80.008	19.993	103.622	16.571	235.647	0.499
804.000	470.931	80.008	19.993	103.597	16.529	238.411	0.495
804.500	471.181	80.007	19.994	103.564	16.488	241.133	0.497
805.000	471.424	80.009	19.994	103.539	16.449	243.623	0.496
805.500	471.667	80.008	19.994	103.498	16.413	245.909	0.490
806.000	471.925	80.008	19.995	103.475	16.376	248.347	0.493
806.500	472.171	80.009	19.994	103.429	16.339	250.670	0.503
807.000	472.396	80.010	19.993	103.396	16.299	253.176	0.488
807.500	472.615	80.009	19.994	103.355	16.259	255.708	0.457
808.000	472.895	80.009	19.994	103.329	16.217	258.380	0.471
808.500	473.143	80.009	19.994	103.304	16.166	261.574	0.514
809.000	473.401	80.009	19.994	103.292	16.110	265.094	0.517
809.500	473.623	80.008	19.994	103.287	16.051	268.877	0.493
810.000	473.880	80.010	19.995	103.296	15.989	272.909	0.479
810.500	474.159	80.009	19.994	103.314	15.924	277.163	0.507
811.000	474.381	80.009	19.995	103.339	15.851	281.923	0.519
811.500	474.619	80.010	19.994	103.382	15.781	286.503	0.481
812.000	474.882	80.010	19.994	103.426	15.701	291.762	0.480
812.500	475.145	80.008	19.994	103.466	15.622	296.948	0.513
813.000	475.381	80.008	19.993	103.503	15.539	302.392	0.513
813.500	475.627	80.009	19.993	103.536	15.454	307.942	0.491
814.000	475.855	80.008	19.994	103.553	15.370	313.469	0.478
814.500	476.109	80.010	19.993	103.555	15.280	319.399	0.478
815.000	476.365	80.008	19.995	103.546	15.196	324.959	0.496
815.500	476.580	80.009	19.994	103.523	15.099	331.276	0.491
816.000	476.884	80.009	19.996	103.486	15.010	337.118	0.495
816.500	477.089	80.009	19.994	103.447	14.920	343.012	0.514
817.000	477.348	80.008	19.995	103.427	14.829	349.032	0.486
817.500	477.620	80.008	19.994	103.387	14.737	355.073	0.498
818.000	477.861	80.009	19.996	103.332	14.645	361.143	0.522
818.500	478.133	80.007	19.994	103.279	14.555	367.005	0.513
819.000	478.350	80.008	19.996	103.222	14.463	373.041	0.501
819.500	478.630	80.008	19.994	103.146	14.368	379.248	0.493
820.000	478.908	80.006	19.994	103.087	14.281	384.949	0.527
820.500	479.118	80.008	19.994	103.045	14.187	391.032	0.523
821.000	479.396	80.006	19.995	103.011	14.098	396.857	0.488
821.500	479.646	80.007	19.996	102.987	14.007	402.794	0.509
822.000	479.892	80.007	19.996	102.966	13.916	408.754	0.512
822.500	480.123	80.006	19.995	102.952	13.824	414.766	0.487
823.000	480.395	80.007	19.996	102.936	13.735	420.562	0.490
823.500	480.626	80.006	19.996	102.921	13.641	426.726	0.502
824.000	480.860	80.005	19.995	102.907	13.548	432.793	0.483
824.500	481.164	80.006	19.996	102.898	13.458	438.693	0.502
825.000	481.416	80.006	19.995	102.889	13.364	444.780	0.547
825.500	481.672	80.006	19.994	102.881	13.269	451.024	0.532
826.000	481.951	80.006	19.994	102.873	13.176	457.048	0.521
826.500	482.214	80.007	19.995	102.865	13.090	462.706	0.539
827.000	482.481	80.005	19.995	102.850	12.995	468.868	0.536
827.500	482.705	80.006	19.995	102.839	12.899	475.141	0.510
828.000	482.965	80.006	19.995	102.832	12.808	481.052	0.488
828.500	483.238	80.006	19.995	102.824	12.717	486.980	0.509
829.000	483.499	80.007	19.994	102.816	12.629	492.706	0.534
829.500	483.739	80.006	19.995	102.808	12.540	498.468	0.517
830.000	484.004	80.006	19.995	102.794	12.452	504.205	0.503
830.500	484.243	80.006	19.994	102.777	12.360	510.202	0.504
831.000	484.500	80.007	19.994	102.758	12.271	515.986	0.499
831.500	484.766	80.005	19.993	102.736	12.180	521.900	0.510
832.000	485.018	80.005	19.993	102.720	12.091	527.699	0.521
832.500	485.280	80.008	19.993	102.703	12.007	533.110	0.516
833.000	485.520	80.007	19.994	102.688	11.921	538.664	0.508
833.500	485.792	80.006	19.994	102.675	11.833	544.402	0.506
834.000	486.035	80.007	19.994	102.665	11.746	550.074	0.513
834.500	486.337	80.007	19.994	102.650	11.661	555.586	0.530
835.000	486.560	80.008	19.994	102.639	11.576	561.177	0.535
835.500	486.757	80.007	19.994	102.629	11.491	566.776	0.472
836.000	487.095	80.007	19.994	102.614	11.411	572.000	0.477
836.500	487.288	80.007	19.993	102.601	11.333	577.120	0.533
837.000	487.536	80.007	19.993	102.592	11.253	582.430	0.486
837.500	487.780	80.007	19.993	102.580	11.178	587.311	0.467
838.000	488.060	80.007	19.993	102.566	11.105	592.127	0.508
838.500	488.293	80.007	19.993	102.557	11.034	596.792	0.519
839.000	488.574	80.007	19.993	102.542	10.959	601.686	0.513
839.500	488.810	80.008	19.993	102.525	10.894	605.935	0.515
840.000	489.021	80.007	19.993	102.509	10.829	610.214	0.482
840.500	489.351	80.007	19.994	102.493	10.767	614.248	0.495
841.000	489.578	80.008	19.993	102.477	10.708	618.101	0.549
841.500	489.831	80.007	19.993	102.465	10.653	621.731	0.518
842.000	490.096	80.007	19.994	102.451	10.598	625.357	0.499
842.500	490.312	80.006	19.992	102.438	10.545	628.887	0.499
843.000	490.568	80.008	19.992	102.424	10.494	632.277	0.476
843.500	490.815	80.008	19.994	102.406	10.452	635.079	0.488
844.000	491.045	80.006	19.993	102.394	10.410	637.878	0.490
844.500	491.300	80.006	19.992	102.383	10.369	640.586	0.481
845.000	491.603	80.007	19.993	102.370	10.327	643.339	0.522
845.500	491.827	80.006	19.994	102.362	10.299	645.198	0.543
846.000	492.056	80.007	19.992	102.363	10.267	647.329	0.490
846.500	492.341	80.005	19.994	102.363	10.239	649.146	0.483
847.000	492.580	80.007	19.994	102.360	10.219	650.564	0.519
847.500	492.837	80.006	19.993	102.359	10.201	651.805	0.510
848.000	493.110	80.006	19.994	102.358	10.182	653.186	0.513
848.500	493.312	80.006	19.994	102.354	10.175	653.692	0.503
849.000	493.574	80.007	19.993	102.354	10.169	654.190	0.470
849.500	493.879	80.007	19.994	102.354	10.167	654.443	0.516
850.000	494.073	80.005	19.994	102.353	10.170	654.323	0.533
850.500	494.361	80.005	19.993	102.352	10.177	653.979	0.490
851.000	494.579	80.006	19.994	102.349	10.188	653.390	0.494
851.500	494.842	80.006	19.993	102.343	10.205	652.381	0.493
852.000	495.121	80.007	19.994	102.342	10.223	651.322	0.512
852.500	495.345	80.006	19.995	102.343	10.250	649.689	0.523
853.000	495.594	80.007	19.994	102.344	10.288	647.402	0.488
853.500	495.843	80.006	19.994	102.349	10.321	645.381	0.486
854.000	496.074	80.005	19.993	102.356	10.372	642.208	0.489
854.500	496.354	80.006	19.993	102.363	10.421	639.118	0.495
855.000	496.579	80.006	19.994	102.369	10.477	635.612	0.508
855.500	496.836	80.007	19.993	102.373	10.538	631.754	0.493
856.000	497.068	80.007	19.994	102.373	10.607	627.421	0.486
856.500	497.309	80.007	19.993	102.373	10.682	622.755	0.481
857.000	497.554	80.006	19.995	102.375	10.761	617.776	0.480
857.500	497.821	80.008	19.993	102.381	10.847	612.343	0.499
858.000	498.035	80.006	19.995	102.392	10.940	606.499	0.496
858.500	498.307	80.005	19.994	102.404	11.039	600.152	0.483
859.000	498.561	80.006	19.994	102.419	11.147	593.139	0.506
859.500	498.808	80.007	19.994	102.435	11.256	586.119	0.514
860.000	499.039	80.006	19.995	102.448	11.372	578.649	0.490
860.500	499.310	80.007	19.993	102.464	11.498	570.477	0.490
861.000	499.556	80.006	19.994	102.480	11.629	562.007	0.509
861.500	499.807	80.007	19.993	102.497	11.763	553.484	0.507
862.000	500.079	80.006	19.994	102.517	11.905	544.306	0.510
862.500	500.289	80.008	19.994	102.537	12.049	535.021	0.502
863.000	500.533	80.007	19.993	102.558	12.201	525.135	0.468
863.500	500.814	80.007	19.994	102.582	12.357	514.985	0.489
864.000	501.026	80.007	19.994	102.606	12.516	504.603	0.509
864.500	501.282	80.008	19.992	102.632	12.679	493.945	0.481
865.000	501.532	80.007	19.994	102.659	12.847	482.912	0.487
865.500	501.778	80.009	19.994	102.686	13.017	471.817	0.501
866.000	502.020	80.008	19.993	102.717	13.192	460.282	0.492
866.500	502.254	80.007	19.993	102.747	13.370	448.637	0.482
867.000	502.500	80.008	19.993	102.782	13.554	436.511	0.478
867.500	502.748	80.009	19.993	102.822	13.736	424.589	0.487
868.000	503.015	80.009	19.994	102.865	13.919	412.537	0.504
868.500	503.261	80.008	19.993	102.908	14.104	400.336	0.514
869.000	503.566	80.008	19.994	102.953	14.287	388.248	0.532
869.500	503.749	80.008	19.992	102.993	14.472	375.981	0.520
870.000	504.015	80.009	19.993	103.015	14.661	363.491	0.468
870.500	504.267	80.008	19.993	103.044	14.847	351.220	0.483
871.000	504.518	80.008	19.993	103.080	15.030	339.115	0.511
871.500	504.814	80.008	19.993	103.117	15.216	326.787	0.525
872.000	505.033	80.010	19.993	103.156	15.396	314.823	0.531
872.500	505.248	80.009	19.993	103.214	15.579	302.687	0.475
873.000	505.521	80.009	19.994	103.266	15.760	290.640	0.461
873.500	505.810	80.009	19.993	103.305	15.930	279.288	0.525
874.000	506.049	80.009	19.993	103.344	16.105	267.666	0.545
874.500	506.286	80.009	19.995	103.384	16.273	256.489	0.502
875.000	506.567	80.008	19.993	103.419	16.442	245.200	0.497
875.500	506.828	80.008	19.994	103.451	16.606	234.279	0.530
876.000	507.040	80.007	19.994	103.489	16.768	223.470	0.508
876.500	507.362	80.008	19.993	103.522	16.923	213.165	0.503
877.000	507.573	80.008	19.994	103.555	17.079	202.757	0.534
877.500	507.864	80.008	19.993	103.592	17.224	193.040	0.518
878.000	508.123	80.008	19.994	103.626	17.368	183.466	0.526
878.500	508.355	80.008	19.994	103.659	17.510	173.993	0.520
879.000	508.624	80.007	19.993	103.690	17.642	165.136	0.496
879.500	508.915	80.008	19.994	103.720	17.770	156.588	0.531
880.000	509.137	80.007	19.994	103.746	17.896	148.223	0.537
880.500	509.404	80.007	19.996	103.774	18.015	140.247	0.501
881.000	509.644	80.008	19.997	103.802	18.130	132.535	0.498
881.500	509.915	80.007	19.997	103.832	18.244	124.970	0.509
882.000	510.174	80.008	19.996	103.857	18.348	117.988	0.520
882.500	510.415	80.007	19.996	103.879	18.451	111.111	0.515
883.000	510.661	80.008	19.995	103.897	18.549	104.566	0.494
883.500	510.918	80.008	19.994	103.912	18.640	98.515	0.495
884.000	511.189	80.008	19.994	103.921	18.732	92.349	0.515
884.500	511.420	80.007	19.995	103.930	18.813	86.945	0.515
885.000	511.741	80.008	19.994	103.940	18.894	81.551	0.527
885.500	511.929	80.007	19.995	103.952	18.971	76.371	0.531
886.000	512.174	80.008	19.994	103.961	19.040	71.779	0.471
886.500	512.437	80.009	19.994	103.969	19.105	67.431	0.470
887.000	512.715	80.008	19.993	103.976	19.171	63.058	0.525
887.500	512.952	80.007	19.994	103.983	19.230	59.128	0.528
888.000	513.210	80.007	19.995	103.984	19.285	55.406	0.505
888.500	513.475	80.008	19.995	103.984	19.339	51.797	0.509
889.000	513.756	80.007	19.994	103.984	19.387	48.635	0.534
889.500	513.998	80.008	19.994	103.985	19.434	45.490	0.534
890.000	514.253	80.009	19.994	103.985	19.480	42.433	0.510
890.500	514.513	80.007	19.994	103.985	19.519	39.852	0.506
891.000	514.800	80.008	19.993	103.985	19.557	37.269	0.531
891.500	515.048	80.009	19.995	103.980	19.595	34.776	0.541
892.000	515.288	80.009	19.994	103.972	19.625	32.781	0.511
892.500	515.584	80.009	19.994	103.967	19.655	30.777	0.512
893.000	515.778	80.009	19.994	103.963	19.682	28.982	0.514
893.500	516.085	80.010	19.993	103.957	19.711	27.009	0.496
894.000	516.358	80.008	19.994	103.957	19.736	25.361	0.540
894.500	516.566	80.009	19.994	103.956	19.758	23.856	0.530
895.000	516.805	80.010	19.992	103.952	19.781	22.333	0.464
895.500	517.114	80.009	19.993	103.947	19.799	21.131	0.498
896.000	517.321	80.009	19.993	103.944	19.815	20.102	0.532
896.500	517.626	80.009	19.993	103.936	19.834	18.790	0.514
897.000	517.834	80.009	19.993	103.930	19.848	17.851	0.512
897.500	518.083	80.009	19.995	103.923	19.863	16.852	0.485
898.000	518.297	80.009	19.992	103.915	19.876	16.001	0.460
898.500	518.576	80.008	19.993	103.909	19.888	15.191	0.478
899.000	518.844	80.008	19.994	103.903	19.899	14.479	0.520
899.500	519.045	80.008	19.994	103.902	19.908	13.870	0.508
900.000	519.316	80.007	19.993	103.900	19.919	13.146	0.471
900.500	519.511	80.008	19.994	103.898	19.934	12.127	0.469
901.000	519.810	80.008	19.992	103.897	19.940	11.750	0.480
901.500	520.028	80.007	19.993	103.900	19.951	11.011	0.506
902.000	520.308	80.007	19.993	103.900	19.955	10.710	0.507
902.500	520.546	80.008	19.994	103.901	19.963	10.232	0.508
903.000	520.836	80.007	19.994	103.902	19.967	9.970	0.523
903.500	520.999	80.007	19.994	103.903	19.975	9.400	0.491
904.000	521.375	80.006	19.993	103.903	19.980	9.073	0.496
904.500	521.528	80.006	19.993	103.901	19.984	8.806	0.534
905.000	521.793	80.005	19.994	103.896	19.987	8.606	0.474
905.500	522.102	80.006	19.993	103.891	19.985	8.745	0.496
906.000	522.249	80.006	19.993	103.885	19.995	8.047	0.515
906.500	522.526	80.006	19.995	103.879	20.002	7.616	0.440
907.000	522.757	80.007	19.993	103.877	19.996	7.975	0.465
907.500	523.057	80.005	19.994	103.878	20.016	6.661	0.520
908.000	523.344	80.007	19.993	103.877	20.009	7.148	0.559
908.500	523.454	80.006	19.995	103.876	20.013	6.878	0.492
909.000	523.810	80.007	19.996	103.876	20.015	6.719	0.431
909.500	524.054	80.005	19.994	103.872	20.022	6.257	0.533
910.000	524.242	80.006	19.994	103.869	20.024	6.145	0.516
910.500	524.544	80.006	19.993	103.869	20.032	5.625	0.461
911.000	524.809	80.005	19.993	103.869	20.023	6.196	0.529
911.500	525.044	80.007	19.993	103.868	20.031	5.672	0.534
912.000	525.261	80.005	19.993	103.868	20.036	5.355	0.476
912.500	525.569	80.006	19.994	103.867	20.034	5.469	0.488
913.000	525.713	80.005	19.994	103.867	20.032	5.584	0.488
913.500	525.949	80.006	19.994	103.867	20.037	5.265	0.416
914.000	526.230	80.006	19.994	103.867	20.037	5.269	0.449
914.500	526.606	80.006	19.995	103.867	20.036	5.311	0.587
915.000	526.525	80.006	19.994	103.867	20.041	4.999	0.476
915.500	527.010	80.005	19.995	103.867	20.038	5.206	0.350
916.000	527.273	80.006	19.994	103.867	20.042	4.942	0.576
916.500	527.476	80.006	19.995	103.867	20.041	5.001	0.607
917.000	527.761	80.007	19.994	103.867	20.043	4.847	0.477
917.500	528.029	80.006	19.994	103.863	20.046	4.687	0.520
918.000	528.240	80.007	19.996	103.862	20.042	4.913	0.516
918.500	528.555	80.007	19.995	103.861	20.045	4.713	0.503
919.000	528.291	80.005	19.995	103.856	20.046	4.691	0.289
919.500	528.450	80.007	19.996	103.853	20.049	4.500	-0.027
920.000	528.799	80.007	19.995	103.852	20.045	4.710	0.201
920.500	529.811	80.007	19.994	103.850	20.049	4.452	0.934
921.000	529.343	80.007	19.994	103.849	20.052	4.266	0.952
921.500	530.018	80.007	19.996	103.851	20.051	4.308	0.376
922.000	530.278	80.009	19.994	103.851	20.046	4.690	0.571
922.500	530.215	80.006	19.993	103.852	20.050	4.417	0.566
923.000	530.754	80.007	19.994	103.853	20.051	4.341	0.337
923.500	530.729	80.007	19.994	103.851	20.053	4.205	0.495
924.000	531.339	80.007	19.994	103.854	20.051	4.299	0.549
924.500	531.607	80.007	19.995	103.851	20.052	4.243	0.732
925.000	531.484	80.007	19.993	103.847	20.052	4.281	0.511
925.500	531.875	80.007	19.994	103.846	20.050	4.360	0.206
926.000	532.200	80.008	19.993	103.843	20.053	4.164	0.492
926.500	532.480	80.008	19.994	103.835	20.056	4.008	0.660
927.000	532.700	80.008	19.993	103.838	20.053	4.187	0.553
927.500	532.855	80.007	19.994	103.844	20.055	4.042	0.438
928.000	533.108	80.007	19.994	103.840	20.056	4.009	0.391
928.500	533.444	80.008	19.993	103.839	20.058	3.860	0.498
929.000	533.683	80.008	19.993	103.838	20.055	4.041	0.582
929.500	533.881	80.008	19.994	103.833	20.058	3.861	0.506
930.000	534.170	80.008	19.994	103.825	20.058	3.867	0.463
930.500	534.337	80.007	19.993	103.824	20.059	3.814	0.472
931.000	534.681	80.010	19.994	103.818	20.058	3.831	0.483
931.500	534.851	80.008	19.994	103.811	20.055	4.041	0.512
932.000	535.167	80.009	19.994	103.803	20.059	3.780	0.500
932.500	535.396	80.008	19.994	103.793	20.060	3.705	0.515
933.000	535.676	80.008	19.993	103.779	20.059	3.779	0.527
933.500	535.894	80.007	19.993	103.767	20.063	3.519	0.503
934.000	536.093	80.008	19.994	103.751	20.061	3.664	0.457
934.500	536.417	80.006	19.993	103.732	20.062	3.580	0.471
935.000	536.723	80.007	19.994	103.710	20.060	3.705	0.577
935.500	536.871	80.008	19.994	103.689	20.064	3.496	0.542
936.000	537.123	80.007	19.994	103.665	20.064	3.460	0.427
936.500	537.461	80.007	19.994	103.645	20.059	3.821	0.495
937.000	537.665	80.006	19.994	103.625	20.063	3.561	0.566
937.500	537.856	80.007	19.994	103.610	20.063	3.561	0.469
938.000	538.160	80.006	19.994	103.600	20.061	3.686	0.445
938.500	538.380	80.007	19.993	103.594	20.063	3.541	0.510
939.000	538.673	80.008	19.994	103.594	20.065	3.415	0.518
939.500	538.922	80.007	19.993	103.602	20.063	3.569	0.527
940.000	539.123	80.005	19.993	103.618	20.065	3.395	0.496
940.500	539.394	80.006	19.994	103.637	20.067	3.277	0.461
941.000	539.682	80.006	19.994	103.665	20.064	3.494	0.515
941.500	539.958	80.006	19.993	103.693	20.067	3.254	0.561
942.000	540.176	80.007	19.995	103.722	20.065	3.410	0.529
942.500	540.406	80.007	19.994	103.746	20.061	3.659	0.471
943.000	540.643	80.006	19.994	103.770	20.068	3.181	0.458
943.500	540.962	80.008	19.994	103.789	20.063	3.562	0.511
944.000	541.155	80.007	19.994	103.804	20.066	3.313	0.534
944.500	541.389	80.007	19.994	103.814	20.066	3.362	0.470
945.000	541.635	80.008	19.994	103.822	20.066	3.322	0.453
945.500	541.923	80.007	19.994	103.828	20.066	3.325	0.507
946.000	542.185	80.007	19.994	103.831	20.064	3.452	0.542
946.500	542.407	80.008	19.994	103.837	20.064	3.461	0.517
947.000	542.722	80.007	19.994	103.840	20.063	3.536	0.511
947.500	542.946	80.008	19.993	103.847	20.065	3.420	0.538
948.000	543.192	80.008	19.993	103.852	20.066	3.323	0.504
948.500	543.504	80.009	19.994	103.857	20.065	3.421	0.514
949.000	543.715	80.010	19.993	103.860	20.067	3.243	0.541
949.500	543.966	80.011	19.993	103.865	20.064	3.479	0.492
950.000	544.233	80.009	19.994	103.866	20.065	3.404	0.490
950.500	544.496	80.008	19.993	103.867	20.065	3.408	0.524
951.000	544.716	80.009	19.993	103.867	20.063	3.547	0.507
951.500	545.037	80.010	19.993	103.868	20.068	3.228	0.512
952.000	545.274	80.010	19.994	103.871	20.067	3.272	0.549
952.500	545.450	80.009	19.995	103.872	20.068	3.217	0.486
953.000	545.809	80.009	19.993	103.874	20.068	3.177	0.474
953.500	546.036	80.009	19.994	103.875	20.064	3.496	0.561
954.000	546.320	80.009	19.994	103.878	20.067	3.299	0.549
954.500	546.609	80.009	19.993	103.880	20.065	3.397	0.542
955.000	546.819	80.009	19.994	103.884	20.066	3.303	0.536
955.500	547.132	80.008	19.994	103.885	20.065	3.393	0.511
956.000	547.324	80.009	19.994	103.885	20.067	3.294	0.514
956.500	547.644	80.010	19.994	103.880	20.067	3.287	0.508
957.000	547.907	80.007	19.993	103.876	20.067	3.283	0.547
957.500	548.191	80.010	19.994	103.872	20.069	3.151	0.565
958.000	548.439	80.009	19.993	103.871	20.066	3.316	0.540
958.500	548.722	80.008	19.993	103.872	20.065	3.433	0.532
959.000	549.003	80.010	19.993	103.872	20.066	3.312	0.548
959.500	549.255	80.008	19.993	103.876	20.067	3.241	0.548
960.000	549.501	80.008	19.993	103.879	20.070	3.087	0.515
960.500	549.773	80.008	19.993	103.880	20.070	3.045	0.508
961.000	550.038	80.009	19.993	103.883	20.071	3.017	0.528
961.500	550.305	80.008	19.993	103.884	20.068	3.189	0.534
962.000	550.608	80.008	19.993	103.880	20.069	3.116	0.551
962.500	550.812	80.009	19.993	103.877	20.069	3.153	0.539
963.000	551.117	80.008	19.993	103.875	20.065	3.371	0.508
963.500	551.381	80.009	19.994	103.871	20.068	3.230	0.539
964.000	551.639	80.009	19.993	103.869	20.068	3.211	0.546
964.500	551.953	80.008	19.992	103.867	20.066	3.323	0.547
965.000	552.149	80.008	19.993	103.866	20.068	3.184	0.541
965.500	552.432	80.007	19.993	103.867	20.065	3.417	0.494
966.000	552.717	80.008	19.993	103.869	20.070	3.089	0.523
966.500	553.000	80.009	19.994	103.870	20.068	3.213	0.568
967.000	553.272	80.008	19.993	103.872	20.067	3.276	0.562
967.500	553.512	80.008	19.994	103.873	20.070	3.074	0.534
968.000	553.822	80.008	19.993	103.873	20.071	3.023	0.531
968.500	554.073	80.009	19.993	103.870	20.073	2.889	0.555
969.000	554.348	80.008	19.994	103.869	20.068	3.173	0.544
969.500	554.593	80.007	19.993	103.868	20.071	3.001	0.523
970.000	554.887	80.009	19.992	103.868	20.067	3.257	0.529
970.500	555.131	80.008	19.993	103.868	20.071	2.975	0.538
971.000	555.402	80.008	19.993	103.868	20.068	3.171	0.526
971.500	555.685	80.008	19.994	103.868	20.071	3.004	0.535
972.000	555.913	80.009	19.992	103.868	20.071	3.015	0.533
972.500	556.205	80.009	19.993	103.869	20.071	3.015	0.515
973.000	556.446	80.010	19.995	103.869	20.072	2.940	0.526
973.500	556.716	80.008	19.993	103.870	20.072	2.962	0.522
974.000	557.015	80.010	19.992	103.870	20.072	2.916	0.540
974.500	557.257	80.010	19.994	103.869	20.073	2.894	0.555
975.000	557.550	80.008	19.994	103.868	20.073	2.880	0.538
975.500	557.745	80.008	19.993	103.867	20.075	2.727	0.512
976.000	558.037	80.008	19.993	103.867	20.073	2.841	0.487
976.500	558.332	80.009	19.993	103.867	20.072	2.936	0.537
977.000	558.581	80.010	19.994	103.868	20.074	2.817	0.566
977.500	558.810	80.010	19.992	103.869	20.071	3.001	0.511
978.000	559.111	80.008	19.993	103.869	20.072	2.929	0.504
978.500	559.355	80.009	19.993	103.869	20.073	2.874	0.538
979.000	559.606	80.008	19.994	103.870	20.074	2.781	0.520
979.500	559.869	80.009	19.993	103.871	20.072	2.916	0.504
980.000	560.116	80.009	19.994	103.871	20.074	2.836	0.512
980.500	560.409	80.009	19.994	103.872	20.072	2.925	0.525
981.000	560.645	80.008	19.993	103.871	20.074	2.788	0.534
981.500	560.900	80.008	19.994	103.869	20.075	2.729	0.510
982.000	561.185	80.008	19.995	103.868	20.077	2.630	0.516
982.500	561.424	80.009	19.994	103.868	20.073	2.887	0.532
983.000	561.687	80.009	19.994	103.867	20.072	2.953	0.512
983.500	561.932	80.007	19.994	103.866	20.073	2.874	0.504
984.000	562.177	80.006	19.994	103.866	20.072	2.940	0.499
984.500	562.488	80.007	19.993	103.866	20.071	3.028	0.523
985.000	562.768	80.008	19.993	103.866	20.074	2.825	0.574
985.500	562.990	80.007	19.994	103.865	20.073	2.892	0.547
986.000	563.251	80.006	19.995	103.865	20.073	2.872	0.492
986.500	563.541	80.007	19.995	103.864	20.074	2.830	0.517
987.000	563.757	80.007	19.994	103.865	20.076	2.638	0.529
987.500	564.019	80.008	19.993	103.865	20.074	2.799	0.492
988.001	564.261	80.006	19.994	103.865	20.072	2.953	0.491
988.500	564.521	80.008	19.994	103.865	20.071	3.030	0.503
989.000	564.807	80.007	19.995	103.865	20.074	2.803	0.524
989.500	565.016	80.007	19.994	103.865	20.071	2.995	0.521
990.000	565.316	80.007	19.995	103.865	20.071	2.986	0.502
990.501	565.570	80.007	19.994	103.865	20.070	3.070	0.531
991.001	565.796	80.007	19.993	103.864	20.071	3.013	0.517
991.500	566.064	80.008	19.993	103.864	20.070	3.087	0.487
992.000	566.309	80.007	19.993	103.863	20.074	2.836	0.503
992.500	566.591	80.007	19.995	103.863	20.073	2.896	0.520
993.000	566.837	80.006	19.993	103.863	20.071	2.988	0.527
993.500	567.107	80.006	19.995	103.864	20.070	3.055	0.522
994.000	567.346	80.006	19.996	103.864	20.073	2.889	0.512
994.500	567.607	80.006	19.994	103.864	20.070	3.086	0.505
995.000	567.869	80.007	19.996	103.864	20.072	2.958	0.512
995.500	568.151	80.007	19.995	103.864	20.073	2.866	0.534
996.000	568.446	80.008	19.994	103.864	20.072	2.934	0.560
996.500	568.669	80.007	19.996	103.865	20.072	2.905	0.547
997.000	568.882	80.007	19.995	103.864	20.072	2.958	0.477
997.500	569.164	80.007	19.996	103.863	20.071	3.029	0.465
998.000	569.431	80.006	19.996	103.863	20.073	2.855	0.522
998.500	569.694	80.006	19.994	103.863	20.074	2.813	0.540
999.000	569.971	80.006	19.995	103.862	20.073	2.873	0.535
999.500	570.216	80.008	19.994	103.863	20.068	3.185	0.531
1000.000	570.472	80.005	19.993	103.864	20.072	2.963	0.511
1000.500	570.699	80.006	19.995	103.864	20.071	3.022	0.492
1001.000	571.010	80.007	19.996	103.864	20.072	2.914	0.510
1001.500	571.228	80.006	19.996	103.865	20.071	3.015	0.534
1002.000	571.509	80.008	19.996	103.864	20.070	3.068	0.514
1002.500	571.764	80.006	19.995	103.863	20.071	3.000	0.518
1003.000	572.056	80.008	19.996	103.863	20.070	3.085	0.542
1003.500	572.297	80.006	19.996	103.859	20.070	3.046	0.540
1004.000	572.551	80.007	19.995	103.860	20.071	2.978	0.514
1004.500	572.794	80.006	19.996	103.860	20.068	3.222	0.496
1005.000	573.059	80.007	19.995	103.861	20.071	3.024	0.502
1005.500	573.341	80.007	19.996	103.858	20.071	3.017	0.527
1006.000	573.592	80.006	19.994	103.859	20.074	2.834	0.540
1006.500	573.888	80.008	19.995	103.856	20.071	2.969	0.540
1007.000	574.136	80.008	19.994	103.852	20.076	2.685	0.546
1007.500	574.424	80.007	19.996	103.846	20.072	2.949	0.540
1008.000	574.653	80.006	19.995	103.842	20.075	2.737	0.527
1008.500	574.972	80.007	19.994	103.839	20.074	2.819	0.532
1009.000	575.196	80.007	19.996	103.837	20.077	2.607	0.545
1009.500	575.483	80.006	19.996	103.837	20.076	2.686	0.527
1010.000	575.726	80.006	19.996	103.835	20.071	3.001	0.521
1010.500	576.000	80.006	19.997	103.838	20.070	3.045	0.523
1011.000	576.274	80.007	19.995	103.839	20.073	2.891	0.532
1011.501	576.498	80.006	19.995	103.838	20.073	2.900	0.523
1012.000	576.778	80.006	19.995	103.841	20.072	2.951	0.501
1012.500	577.011	80.006	19.995	103.847	20.071	3.030	0.509
1013.000	577.301	80.008	19.994	103.852	20.073	2.838	0.518
1013.500	577.532	80.007	19.996	103.854	20.075	2.768	0.522
1014.000	577.836	80.006	19.996	103.859	20.076	2.671	0.528
1014.500	578.100	80.006	19.993	103.860	20.077	2.616	0.551
1015.000	578.333	80.006	19.997	103.861	20.075	2.740	0.533
1015.500	578.589	80.006	19.994	103.861	20.078	2.504	0.493
1016.000	578.882	80.007	19.996	103.863	20.075	2.729	0.519
1016.500	579.154	80.006	19.994	103.863	20.075	2.751	0.557
1017.000	579.414	80.006	19.996	103.863	20.078	2.553	0.548
1017.500	579.673	80.007	19.992	103.864	20.077	2.618	0.526
1018.000	579.951	80.006	19.995	103.866	20.075	2.731	0.528
1018.500	580.211	80.006	19.995	103.870	20.073	2.867	0.538
1019.000	580.499	80.007	19.994	103.875	20.075	2.704	0.543
1019.500	580.763	80.006	19.994	103.878	20.076	2.654	0.550
1020.000	581.034	80.006	19.993	103.880	20.076	2.674	0.544
1020.500	581.325	80.006	19.994	103.879	20.076	2.702	0.549
1021.000	581.576	80.007	19.993	103.875	20.078	2.531	0.552
1021.500	581.851	80.007	19.995	103.872	20.079	2.436	0.534
1022.000	582.152	80.007	19.995	103.869	20.076	2.671	0.551
1022.500	582.413	80.006	19.995	103.869	20.078	2.537	0.569
1023.000	582.692	80.005	19.994	103.872	20.075	2.766	0.551
1023.500	582.973	80.007	19.993	103.874	20.076	2.689	0.550
1024.000	583.218	80.007	19.993	103.875	20.077	2.577	0.543
1024.500	583.467	80.007	19.993	103.876	20.076	2.651	0.510
1025.000	583.771	80.008	19.993	103.875	20.077	2.621	0.523
1025.500	584.053	80.007	19.994	103.872	20.078	2.552	0.569
1026.001	584.304	80.007	19.994	103.872	20.078	2.524	0.560
1026.501	584.603	80.007	19.995	103.872	20.073	2.880	0.542
1027.000	584.852	80.007	19.995	103.873	20.075	2.762	0.549
1027.500	585.149	80.007	19.995	103.873	20.078	2.537	0.547
1028.000	585.470	80.007	19.995	103.873	20.074	2.830	0.582
1028.500	585.716	80.007	19.995	103.872	20.074	2.792	0.593
1029.000	585.999	80.007	19.995	103.870	20.076	2.667	0.548
1029.500	586.317	80.008	19.994	103.870	20.077	2.607	0.565
1030.000	586.582	80.008	19.995	103.868	20.074	2.808	0.592
1030.500	586.869	80.007	19.994	103.868	20.076	2.672	0.568
1031.000	587.156	80.008	19.994	103.868	20.076	2.636	0.563
1031.500	587.447	80.008	19.994	103.868	20.075	2.715	0.576
1032.000	587.689	80.008	19.994	103.867	20.072	2.920	0.555
1032.500	587.961	80.009	19.995	103.868	20.077	2.616	0.523
1033.000	588.233	80.008	19.994	103.867	20.074	2.779	0.529
1033.500	588.489	80.009	19.994	103.866	20.073	2.871	0.536
1034.000	588.754	80.008	19.994	103.866	20.077	2.607	0.525
1034.500	589.045	80.009	19.993	103.867	20.073	2.848	0.538
1035.000	589.342	80.008	19.995	103.867	20.076	2.674	0.572
1035.500	589.627	80.008	19.995	103.868	20.074	2.836	0.585
1036.000	589.897	80.007	19.995	103.868	20.072	2.957	0.569
1036.500	590.198	80.008	19.993	103.868	20.073	2.860	0.563
1037.000	590.465	80.008	19.993	103.868	20.073	2.900	0.570
1037.500	590.734	80.008	19.993	103.868	20.074	2.821	0.552
1038.000	590.975	80.009	19.994	103.868	20.074	2.825	0.523
1038.500	591.306	80.009	19.994	103.868	20.071	3.004	0.541
1039.000	591.562	80.008	19.993	103.869	20.077	2.590	0.579
1039.500	591.829	80.009	19.992	103.869	20.074	2.804	0.555
1040.000	592.123	80.008	19.993	103.869	20.074	2.817	0.542
1040.500	592.402	80.007	19.994	103.869	20.075	2.731	0.567
1041.001	592.651	80.008	19.994	103.868	20.077	2.623	0.551
1041.501	592.963	80.007	19.994	103.867	20.071	2.999	0.545
1042.000	593.213	80.007	19.994	103.867	20.074	2.803	0.561
1042.500	593.486	80.007	19.994	103.868	20.075	2.757	0.542
1043.000	593.809	80.006	19.993	103.869	20.073	2.846	0.560
1043.500	594.070	80.008	19.995	103.870	20.070	3.081	0.590
1044.000	594.346	80.008	19.994	103.870	20.074	2.819	0.560
1044.500	594.630	80.008	19.994	103.870	20.072	2.925	0.549
1045.000	594.922	80.008	19.994	103.870	20.073	2.898	0.568
1045.500	595.170	80.008	19.993	103.869	20.074	2.795	0.557
1046.000	595.479	80.007	19.994	103.869	20.075	2.757	0.548
1046.500	595.758	80.009	19.993	103.872	20.076	2.669	0.573
1047.000	596.017	80.007	19.995	103.872	20.073	2.839	0.564
1047.500	596.254	80.008	19.993	103.872	20.072	2.911	0.517
1048.000	596.564	80.008	19.994	103.871	20.075	2.718	0.521
1048.500	596.838	80.007	19.994	103.870	20.072	2.918	0.565
1049.000	597.135	80.009	19.993	103.866	20.073	2.883	0.578
1049.500	597.362	80.008	19.993	103.866	20.076	2.639	0.548
1050.000	597.648	80.008	19.994	103.864	20.074	2.826	0.519
1050.500	597.905	80.009	19.993	103.865	20.074	2.819	0.529
1051.000	598.179	80.008	19.993	103.865	20.075	2.734	0.537
1051.500	598.477	80.009	19.993	103.864	20.074	2.802	0.551
1052.000	598.757	80.008	19.993	103.865	20.080	2.434	0.575
1052.500	599.005	80.010	19.993	103.865	20.078	2.546	0.553
1053.000	599.303	80.009	19.994	103.865	20.075	2.729	0.537
1053.500	599.549	80.010	19.994	103.863	20.077	2.601	0.545
1054.000	599.828	80.010	19.995	103.862	20.075	2.729	0.535
1054.500	600.092	80.010	19.993	103.862	20.078	2.544	0.534
1055.000	600.361	80.009	19.994	103.862	20.076	2.685	0.538
1055.500	600.603	80.009	19.993	103.864	20.075	2.720	0.522
1056.000	600.920	80.010	19.992	103.866	20.077	2.570	0.535
1056.500	601.153	80.010	19.993	103.867	20.075	2.746	0.555
1057.000	601.444	80.009	19.994	103.867	20.076	2.645	0.537
1057.500	601.698	80.010	19.992	103.867	20.077	2.634	0.535
1058.000	601.952	80.009	19.992	103.865	20.076	2.636	0.526
1058.500	602.244	80.010	19.993	103.864	20.076	2.696	0.527
1059.000	602.490	80.010	19.993	103.863	20.076	2.641	0.542
1059.500	602.788	80.009	19.993	103.860	20.079	2.502	0.542
1060.000	603.044	80.009	19.991	103.859	20.080	2.397	0.549
1060.500	603.296	80.009	19.995	103.854	20.077	2.583	0.531
1061.000	603.560	80.009	19.994	103.853	20.078	2.507	0.512
1061.500	603.815	80.008	19.995	103.853	20.078	2.535	0.517
1062.000	604.094	80.010	19.994	103.855	20.074	2.793	0.526
1062.500	604.353	80.008	19.994	103.855	20.074	2.832	0.536
1063.000	604.603	80.009	19.993	103.860	20.075	2.738	0.524
1063.500	604.874	80.009	19.995	103.857	20.077	2.630	0.515
1064.000	605.142	80.008	19.994	103.853	20.079	2.471	0.530
1064.500	605.375	80.009	19.993	103.854	20.077	2.628	0.520
1065.000	605.664	80.008	19.994	103.855	20.077	2.606	0.511
1065.500	605.919	80.008	19.994	103.854	20.076	2.661	0.534
1066.000	606.185	80.007	19.995	103.857	20.079	2.498	0.533
1066.500	606.462	80.008	19.994	103.862	20.075	2.747	0.532
1067.000	606.721	80.007	19.995	103.862	20.080	2.412	0.539
1067.500	606.955	80.007	19.994	103.864	20.081	2.309	0.514
1068.000	607.195	80.007	19.995	103.865	20.077	2.593	0.484
1068.500	607.487	80.007	19.995	103.867	20.081	2.368	0.504
1069.000	607.719	80.007	19.995	103.870	20.077	2.592	0.528
1069.500	607.962	80.008	19.994	103.868	20.077	2.575	0.500
1070.000	608.247	80.007	19.994	103.866	20.079	2.496	0.501
1070.500	608.518	80.007	19.994	103.866	20.080	2.430	0.542
1071.000	608.778	80.007	19.995	103.865	20.079	2.502	0.543
1071.500	608.973	80.006	19.995	103.862	20.079	2.459	0.493
1072.000	609.260	80.007	19.994	103.864	20.080	2.428	0.468
1072.500	609.533	80.006	19.995	103.865	20.080	2.399	0.521
1073.000	609.788	80.007	19.995	103.865	20.083	2.205	0.544
1073.500	610.062	80.005	19.994	103.865	20.081	2.331	0.529
1074.000	610.301	80.006	19.995	103.865	20.079	2.471	0.521
1074.500	610.512	80.005	19.995	103.865	20.080	2.430	0.481
1075.000	610.787	80.007	19.994	103.865	20.080	2.410	0.468
1075.500	610.993	80.006	19.995	103.866	20.080	2.399	0.483
1076.000	611.297	80.006	19.994	103.865	20.079	2.482	0.496
1076.500	611.521	80.008	19.995	103.865	20.081	2.339	0.519
1077.000	611.781	80.007	19.995	103.864	20.078	2.526	0.506
1077.500	611.999	80.007	19.995	103.861	20.080	2.410	0.481
1078.000	612.266	80.007	19.994	103.858	20.083	2.194	0.482
1078.500	612.541	80.008	19.993	103.856	20.079	2.495	0.514
1079.000	612.765	80.008	19.994	103.853	20.080	2.399	0.521
1079.500	613.033	80.007	19.993	103.854	20.079	2.491	0.496
1080.000	613.290	80.008	19.994	103.854	20.078	2.507	0.509
1080.501	613.506	80.007	19.994	103.852	20.080	2.395	0.499
1081.001	613.768	80.007	19.994	103.848	20.082	2.267	0.475
1081.500	614.045	80.009	19.994	103.851	20.080	2.414	0.508
1082.001	614.299	80.008	19.994	103.847	20.083	2.186	0.535
1082.501	614.534	80.007	19.994	103.842	20.079	2.483	0.510
1083.000	614.771	80.006	19.994	103.842	20.081	2.319	0.481
1083.501	615.024	80.007	19.994	103.849	20.080	2.432	0.481
1084.001	615.274	80.008	19.993	103.849	20.082	2.284	0.496
1084.500	615.488	80.007	19.993	103.854	20.081	2.352	0.483
1085.000	615.780	80.007	19.995	103.859	20.078	2.550	0.486
1085.500	616.005	80.007	19.995	103.861	20.080	2.403	0.512
1086.000	616.266	80.008	19.994	103.860	20.079	2.473	0.501
1086.500	616.492	80.008	19.993	103.859	20.079	2.493	0.487
1087.000	616.760	80.008	19.993	103.857	20.078	2.542	0.490
1087.500	616.972	80.007	19.994	103.856	20.078	2.529	0.487
1088.000	617.236	80.008	19.994	103.858	20.081	2.317	0.478
1088.500	617.470	80.007	19.994	103.860	20.081	2.315	0.487
1089.001	617.699	80.006	19.995	103.861	20.081	2.352	0.480
1089.501	617.960	80.007	19.994	103.863	20.082	2.300	0.476
1090.000	618.170	80.008	19.993	103.865	20.079	2.476	0.480
1090.500	618.421	80.007	19.994	103.865	20.082	2.275	0.466
1091.000	618.662	80.007	19.993	103.860	20.082	2.276	0.477
1091.500	618.888	80.008	19.994	103.855	20.081	2.320	0.480
1092.000	619.145	80.006	19.995	103.852	20.080	2.429	0.475
1092.500	619.385	80.007	19.994	103.851	20.081	2.313	0.490
1093.000	619.617	80.007	19.995	103.851	20.082	2.280	0.485
1093.500	619.878	80.007	19.994	103.856	20.084	2.152	0.483
1094.000	620.115	80.006	19.994	103.863	20.082	2.258	0.496
1094.500	620.349	80.008	19.994	103.866	20.082	2.267	0.484
1095.000	620.573	80.006	19.995	103.867	20.083	2.187	0.465
1095.500	620.836	80.006	19.994	103.867	20.081	2.326	0.473
1096.000	621.047	80.005	19.996	103.866	20.083	2.192	0.480
1096.500	621.316	80.006	19.995	103.865	20.082	2.297	0.476
1097.000	621.543	80.005	19.995	103.865	20.082	2.288	0.488
1097.500	621.760	80.005	19.994	103.866	20.082	2.282	0.470
1098.001	622.030	80.007	19.995	103.866	20.083	2.212	0.465
1098.501	622.236	80.005	19.995	103.866	20.083	2.178	0.482
1099.000	622.470	80.005	19.994	103.867	20.081	2.354	0.458
1099.500	622.743	80.005	19.996	103.867	20.083	2.185	0.473
1100.000	622.959	80.005	19.996	103.866	20.082	2.269	0.498
1100.500	623.187	80.005	19.994	103.866	20.082	2.293	0.467
1101.001	623.466	80.004	19.996	103.864	20.084	2.163	0.476
1101.501	623.691	80.005	19.995	103.864	20.085	2.049	0.505
1102.000	623.918	80.005	19.994	103.863	20.083	2.214	0.478
1102.500	624.183	80.006	19.995	103.864	20.081	2.346	0.472
1103.000	624.413	80.004	19.995	103.864	20.080	2.423	0.494
1103.500	624.684	80.006	19.996	103.865	20.079	2.436	0.498
1104.000	624.888	80.005	19.995	103.863	20.081	2.308	0.488
1104.500	625.131	80.006	19.995	103.863	20.080	2.381	0.461
1105.000	625.369	80.006	19.995	103.863	20.079	2.487	0.464
1105.500	625.624	80.006	19.996	103.864	20.082	2.243	0.487
1106.000	625.847	80.006	19.994	103.864	20.079	2.498	0.485
1106.500	626.090	80.007	19.994	103.866	20.082	2.287	0.472
1107.000	626.361	80.006	19.995	103.866	20.080	2.392	0.490
1107.500	626.583	80.006	19.995	103.867	20.080	2.374	0.503
1108.000	626.868	80.006	19.994	103.869	20.081	2.315	0.500
1108.500	627.125	80.008	19.995	103.870	20.082	2.297	0.525
1109.000	627.344	80.008	19.995	103.871	20.082	2.267	0.510
1109.500	627.629	80.007	19.994	103.871	20.085	2.099	0.490
1110.000	627.871	80.008	19.994	103.868	20.081	2.304	0.515
1110.500	628.096	80.008	19.995	103.867	20.082	2.249	0.496
1111.001	628.290	80.008	19.993	103.865	20.082	2.253	0.443
1111.501	628.565	80.007	19.995	103.864	20.082	2.291	0.444
1112.000	628.807	80.009	19.994	103.864	20.081	2.322	0.493
1112.500	629.090	80.009	19.994	103.863	20.080	2.374	0.521
1113.000	629.307	80.009	19.994	103.862	20.082	2.273	0.513
1113.500	629.581	80.010	19.994	103.862	20.083	2.210	0.495
1114.000	629.811	80.008	19.995	103.862	20.080	2.414	0.497
1114.500	630.059	80.009	19.994	103.862	20.079	2.493	0.492
1115.000	630.310	80.010	19.995	103.864	20.082	2.247	0.489
1115.500	630.541	80.008	19.993	103.863	20.081	2.357	0.490
1116.000	630.800	80.009	19.994	103.864	20.083	2.234	0.486
1116.500	631.046	80.008	19.994	103.861	20.080	2.381	0.497
1117.000	631.282	80.008	19.993	103.860	20.079	2.487	0.493
1117.500	631.516	80.008	19.995	103.860	20.081	2.319	0.476
1118.000	631.787	80.009	19.994	103.860	20.081	2.353	0.488
1118.501	632.013	80.009	19.994	103.860	20.082	2.236	0.501
1119.001	632.277	80.008	19.994	103.862	20.082	2.240	0.493
1119.500	632.526	80.008	19.994	103.863	20.081	2.321	0.502
1120.000	632.810	80.008	19.993	103.863	20.083	2.214	0.523
1120.500	633.029	80.008	19.995	103.865	20.082	2.278	0.518
1121.000	633.319	80.007	19.994	103.865	20.078	2.529	0.506
1121.500	633.560	80.008	19.996	103.865	20.084	2.128	0.520
1122.000	633.805	80.009	19.995	103.866	20.081	2.324	0.508
1122.500	634.032	80.007	19.994	103.865	20.080	2.429	0.479
1123.000	634.290	80.008	19.993	103.862	20.078	2.559	0.479
1123.500	634.597	80.007	19.994	103.862	20.081	2.315	0.525
1124.000	634.817	80.008	19.993	103.862	20.081	2.356	0.546
1124.501	635.074	80.008	19.995	103.860	20.078	2.511	0.502
1125.001	635.318	80.008	19.995	103.860	20.079	2.449	0.489
1125.500	635.562	80.008	19.993	103.860	20.079	2.442	0.494
1126.000	635.836	80.008	19.994	103.860	20.079	2.484	0.503
1126.500	636.076	80.007	19.994	103.860	20.081	2.335	0.516
1127.000	636.327	80.007	19.994	103.862	20.081	2.313	0.503
1127.500	636.556	80.008	19.994	103.863	20.082	2.265	0.485
1128.000	636.786	80.007	19.994	103.864	20.083	2.225	0.470
1128.500	637.063	80.007	19.994	103.864	20.079	2.502	0.483
1129.001	637.331	80.008	19.994	103.864	20.082	2.238	0.526
1129.501	637.553	80.007	19.993	103.865	20.078	2.529	0.518
1130.000	637.860	80.008	19.994	103.865	20.083	2.220	0.510
1130.500	638.062	80.009	19.994	103.865	20.082	2.255	0.518
1131.000	638.323	80.008	19.993	103.865	20.082	2.240	0.486
1131.500	638.563	80.008	19.994	103.865	20.078	2.515	0.483
1132.000	638.812	80.008	19.995	103.865	20.082	2.238	0.495
1132.500	639.071	80.008	19.994	103.865	20.082	2.240	0.498
1133.000	639.315	80.009	19.991	103.865	20.080	2.379	0.505
1133.500	639.585	80.008	19.994	103.867	20.084	2.165	0.508
1134.000	639.834	80.008	19.994	103.871	20.084	2.159	0.516
1134.500	640.079	80.009	19.993	103.873	20.082	2.240	0.506
1135.000	640.319	80.009	19.994	103.873	20.083	2.218	0.490
1135.500	640.591	80.008	19.994	103.873	20.083	2.187	0.499
1136.000	640.849	80.009	19.994	103.871	20.082	2.284	0.521
1136.500	641.061	80.009	19.993	103.867	20.087	1.950	0.500
1137.000	641.347	80.010	19.994	103.863	20.084	2.152	0.483
1137.500	641.549	80.010	19.993	103.863	20.083	2.174	0.492
1138.000	641.870	80.009	19.994	103.863	20.086	2.022	0.505
1138.500	642.106	80.009	19.995	103.863	20.084	2.121	0.540
1139.000	642.352	80.009	19.994	103.862	20.085	2.060	0.520
1139.500	642.572	80.010	19.993	103.863	20.083	2.183	0.474
1140.000	642.834	80.009	19.994	103.863	20.085	2.064	0.474
1140.500	643.100	80.010	19.995	103.863	20.084	2.163	0.504
1141.000	643.355	80.009	19.993	103.864	20.085	2.101	0.524
1141.500	643.583	80.009	19.993	103.865	20.082	2.253	0.502
1142.000	643.876	80.010	19.994	103.865	20.084	2.168	0.502
1142.500	644.129	80.009	19.994	103.865	20.085	2.047	0.533
1143.000	644.363	80.010	19.994	103.865	20.084	2.168	0.517
1143.501	644.597	80.008	19.995	103.865	20.085	2.046	0.478
1144.001	644.878	80.009	19.993	103.865	20.087	1.963	0.491
1144.500	645.129	80.009	19.993	103.865	20.085	2.095	0.523
1145.000	645.386	80.009	19.995	103.865	20.084	2.134	0.520
1145.500	645.635	80.008	19.994	103.864	20.086	1.981	0.507
1146.000	645.883	80.007	19.993	103.865	20.086	1.981	0.502
1146.500	646.126	80.009	19.995	103.866	20.084	2.132	0.494
1147.000	646.397	80.008	19.994	103.867	20.086	2.007	0.503
1147.500	646.671	80.006	19.993	103.867	20.085	2.062	0.530
1148.001	646.874	80.006	19.994	103.867	20.082	2.251	0.511
1148.501	647.112	80.006	19.994	103.867	20.084	2.130	0.459
1149.001	647.424	80.008	19.993	103.865	20.083	2.190	0.496
1149.501	647.673	80.007	19.995	103.865	20.082	2.245	0.556
1150.001	647.942	80.007	19.994	103.865	20.085	2.036	0.539
1150.501	648.141	80.006	19.994	103.865	20.085	2.059	0.493
1151.000	648.424	80.009	19.994	103.866	20.085	2.075	0.475
1151.500	648.688	80.007	19.994	103.866	20.086	2.002	0.515
1152.000	648.966	80.007	19.994	103.867	20.084	2.159	0.545
1152.501	649.231	80.006	19.993	103.868	20.086	2.029	0.543
1153.001	649.495	80.005	19.994	103.868	20.081	2.310	0.536
1153.500	649.694	80.008	19.993	103.867	20.083	2.190	0.496
1154.000	649.984	80.007	19.995	103.867	20.083	2.176	0.476
1154.500	650.251	80.007	19.995	103.866	20.084	2.167	0.523
1155.000	650.521	80.005	19.994	103.866	20.085	2.068	0.547
1155.500	650.764	80.006	19.994	103.867	20.086	2.013	0.525
1156.000	651.028	80.006	19.995	103.866	20.084	2.121	0.510
1156.500	651.256	80.008	19.993	103.867	20.083	2.183	0.499
1157.000	651.539	80.006	19.993	103.867	20.083	2.187	0.501
1157.500	651.834	80.006	19.994	103.867	20.086	2.016	0.544
1158.000	652.050	80.007	19.995	103.867	20.086	2.000	0.545
1158.500	652.317	80.007	19.994	103.868	20.085	2.090	0.498
1159.000	652.545	80.007	19.994	103.869	20.087	1.967	0.489
1159.500	652.822	80.007	19.995	103.868	20.086	2.035	0.500
1160.000	653.074	80.006	19.994	103.868	20.086	1.985	0.517
1160.500	653.313	80.006	19.994	103.868	20.085	2.084	0.510
1161.000	653.608	80.008	19.993	103.869	20.085	2.049	0.513
1161.500	653.878	80.008	19.995	103.873	20.090	1.763	0.550
1162.000	654.094	80.007	19.994	103.873	20.086	2.014	0.525
1162.500	654.395	80.007	19.995	103.873	20.083	2.174	0.501
1163.000	654.683	80.006	19.995	103.876	20.083	2.176	0.553
1163.501	654.948	80.007	19.994	103.874	20.086	1.978	0.571
1164.001	655.195	80.007	19.994	103.870	20.082	2.249	0.532
1164.500	655.465	80.008	19.994	103.870	20.085	2.077	0.514
1165.000	655.670	80.006	19.995	103.871	20.083	2.231	0.496
1165.500	655.977	80.007	19.995	103.868	20.083	2.205	0.494
1166.001	656.202	80.007	19.995	103.873	20.087	1.908	0.522
1166.501	656.458	80.006	19.995	103.874	20.082	2.255	0.506
1167.000	656.735	80.006	19.994	103.874	20.081	2.330	0.507
1167.500	657.024	80.007	19.994	103.873	20.082	2.256	0.549
1168.000	657.248	80.006	19.994	103.873	20.083	2.212	0.540
1168.500	657.524	80.005	19.995	103.869	20.081	2.363	0.507
1169.000	657.764	80.008	19.995	103.868	20.084	2.168	0.508
1169.500	658.016	80.007	19.994	103.868	20.083	2.218	0.504
1170.001	658.313	80.007	19.993	103.868	20.083	2.178	0.521
1170.501	658.539	80.006	19.995	103.868	20.084	2.108	0.536
1171.000	658.847	80.005	19.995	103.868	20.085	2.064	0.528
1171.500	659.133	80.006	19.994	103.869	20.084	2.141	0.564
1172.000	659.329	80.006	19.995	103.867	20.082	2.276	0.538
1172.500	659.604	80.007	19.994	103.867	20.084	2.143	0.476
1173.000	659.862	80.006	19.994	103.868	20.085	2.099	0.502
1173.500	660.167	80.006	19.994	103.867	20.083	2.179	0.548
1174.000	660.381	80.005	19.994	103.866	20.084	2.108	0.541
1174.500	660.698	80.007	19.994	103.868	20.083	2.223	0.524
1175.000	660.922	80.007	19.994	103.867	20.083	2.225	0.536
1175.500	661.133	80.007	19.994	103.867	20.084	2.134	0.489
1176.000	661.395	80.008	19.995	103.867	20.081	2.304	0.455
1176.500	661.658	80.006	19.995	103.867	20.083	2.203	0.499
1177.000	661.914	80.006	19.994	103.867	20.082	2.275	0.522
1177.500	662.201	80.006	19.995	103.869	20.084	2.163	0.531
1178.000	662.360	80.007	19.994	103.870	20.083	2.209	0.494
1178.500	662.719	80.006	19.994	103.870	20.084	2.148	0.482
1179.001	662.862	80.006	19.994	103.871	20.080	2.375	0.510
1179.501	663.194	80.008	19.996	103.872	20.084	2.135	0.488
1180.000	663.470	80.007	19.993	103.871	20.084	2.128	0.541
1180.501	663.746	80.006	19.996	103.868	20.083	2.210	0.580
1181.001	663.920	80.007	19.998	103.867	20.083	2.187	0.501
1181.500	664.180	80.006	19.995	103.867	20.080	2.403	0.442
1182.000	664.421	80.007	19.995	103.864	20.083	2.198	0.468
1182.500	664.672	80.006	19.996	103.861	20.081	2.335	0.497
1183.000	665.007	80.008	19.995	103.857	20.083	2.185	0.539
1183.500	665.161	80.007	19.994	103.856	20.083	2.225	0.538
1184.000	665.486	80.006	19.995	103.855	20.081	2.337	0.484
1184.500	665.852	80.007	19.995	103.855	20.084	2.124	0.585
1185.000	666.000	80.008	19.995	103.857	20.083	2.221	0.602
1185.500	666.255	80.006	19.995	103.862	20.082	2.291	0.458
1186.000	666.503	80.006	19.994	103.864	20.082	2.243	0.453
1186.500	666.768	80.006	19.996	103.865	20.083	2.221	0.508
1187.001	667.003	80.007	19.995	103.865	20.082	2.253	0.507
1187.501	667.284	80.007	19.995	103.865	20.082	2.291	0.508
1188.000	667.546	80.008	19.996	103.865	20.084	2.168	0.529
1188.500	667.801	80.007	19.996	103.865	20.085	2.081	0.529
1189.000	668.027	80.008	19.995	103.865	20.085	2.084	0.499
1189.500	668.324	80.007	19.995	103.864	20.081	2.350	0.502
1190.000	668.564	80.006	19.995	103.863	20.084	2.126	0.530
1190.500	668.794	80.008	19.994	103.864	20.079	2.502	0.503
1191.000	669.054	80.006	19.995	103.864	20.081	2.306	0.480
1191.500	669.316	80.008	19.995	103.863	20.084	2.130	0.506
1192.000	669.543	80.009	19.996	103.863	20.082	2.282	0.505
1192.500	669.904	80.008	19.995	103.863	20.081	2.335	0.538
1193.000	670.083	80.007	19.995	103.863	20.081	2.317	0.564
1193.500	670.321	80.008	19.995	103.862	20.083	2.201	0.478
1194.000	670.602	80.009	19.995	103.863	20.083	2.205	0.468
1194.500	670.832	80.008	19.995	103.863	20.084	2.106	0.515
1195.000	671.110	80.008	19.996	103.862	20.084	2.163	0.509
1195.500	671.356	80.008	19.996	103.861	20.082	2.291	0.516
1196.000	671.587	80.008	19.995	103.862	20.082	2.284	0.500
1196.500	671.873	80.007	19.995	103.862	20.082	2.236	0.497
1197.000	672.133	80.009	19.995	103.862	20.081	2.348	0.532
1197.500	672.381	80.009	19.995	103.863	20.081	2.310	0.527
1198.000	672.586	80.008	19.995	103.864	20.081	2.337	0.481
1198.500	672.858	80.007	19.995	103.866	20.081	2.354	0.465
1199.000	673.118	80.008	19.994	103.867	20.078	2.508	0.504
1199.500	673.348	80.008	19.995	103.870	20.079	2.445	0.511
1200.000	673.640	80.008	19.996	103.870	20.080	2.430	0.506
1200.500	673.867	80.007	19.995	103.870	20.082	2.286	0.520
1201.000	674.167	80.007	19.995	103.869	20.083	2.220	0.523
1201.500	674.418	80.008	19.994	103.869	20.079	2.438	0.539
1202.000	674.702	80.007	19.995	103.865	20.081	2.311	0.543
1202.500	674.938	80.009	19.996	103.865	20.079	2.436	0.528
1203.000	675.175	80.008	19.995	103.865	20.077	2.606	0.496
1203.500	675.460	80.008	19.995	103.864	20.079	2.456	0.497
1204.000	675.698	80.007	19.995	103.864	20.077	2.577	0.522
1204.500	675.977	80.008	19.996	103.863	20.080	2.403	0.520
1205.000	676.215	80.008	19.994	103.864	20.081	2.352	0.518
1205.500	676.504	80.007	19.994	103.864	20.080	2.381	0.522
1206.001	676.748	80.008	19.995	103.865	20.077	2.623	0.530
1206.501	677.021	80.007	19.995	103.865	20.083	2.225	0.524
1207.000	677.267	80.007	19.994	103.865	20.082	2.266	0.518
1207.500	677.529	80.008	19.995	103.866	20.079	2.451	0.514
1208.000	677.770	80.009	19.994	103.869	20.080	2.409	0.506
1208.500	678.070	80.008	19.994	103.869	20.081	2.339	0.522
1209.000	678.318	80.007	19.994	103.868	20.080	2.387	0.544
1209.500	678.564	80.009	19.994	103.869	20.084	2.123	0.521
1210.000	678.835	80.007	19.994	103.867	20.082	2.236	0.506
1210.501	679.091	80.008	19.994	103.863	20.081	2.308	0.522
1211.001	679.316	80.007	19.994	103.864	20.082	2.244	0.504
1211.500	679.640	80.008	19.994	103.863	20.082	2.264	0.515
1212.000	679.794	80.007	19.995	103.863	20.084	2.148	0.513
1212.500	680.066	80.009	19.994	103.863	20.082	2.255	0.452
1213.000	680.388	80.009	19.994	103.865	20.082	2.302	0.510
1213.500	680.624	80.009	19.994	103.865	20.083	2.179	0.576
1214.000	680.890	80.008	19.995	103.865	20.084	2.159	0.530
1214.500	681.119	80.008	19.995	103.866	20.080	2.376	0.499
1215.000	681.408	80.009	19.994	103.867	20.079	2.444	0.507
1215.500	681.679	80.009	19.994	103.867	20.084	2.152	0.539
1216.001	681.931	80.009	19.993	103.867	20.084	2.154	0.542
1216.501	682.169	80.009	19.995	103.867	20.079	2.453	0.506
1217.000	682.434	80.008	19.993	103.867	20.082	2.253	0.497
1217.500	682.712	80.008	19.994	103.866	20.083	2.203	0.523
1218.000	682.972	80.009	19.994	103.866	20.079	2.473	0.541
1218.500	683.236	80.010	19.993	103.866	20.081	2.357	0.531
1219.000	683.518	80.008	19.994	103.866	20.084	2.137	0.535
1219.500	683.772	80.009	19.994	103.866	20.084	2.167	0.541
1220.000	683.984	80.011	19.993	103.867	20.080	2.392	0.501
1220.500	684.275	80.009	19.993	103.867	20.082	2.291	0.484
1221.000	684.549	80.009	19.993	103.870	20.081	2.355	0.534
1221.500	684.800	80.009	19.993	103.871	20.083	2.201	0.545
1222.000	685.022	80.009	19.992	103.872	20.081	2.311	0.499
1222.500	685.334	80.009	19.994	103.873	20.080	2.403	0.504
1223.000	685.617	80.009	19.993	103.872	20.082	2.257	0.565
1223.500	685.873	80.008	19.994	103.868	20.082	2.257	0.568
1224.000	686.103	80.008	19.993	103.868	20.083	2.233	0.513
1224.500	686.408	80.008	19.993	103.868	20.083	2.225	0.510
1225.000	686.693	80.009	19.994	103.873	20.080	2.378	0.562
1225.500	686.944	80.008	19.993	103.876	20.080	2.372	0.563
1226.001	687.203	80.008	19.993	103.877	20.084	2.128	0.523
1226.501	687.449	80.007	19.994	103.878	20.082	2.238	0.508
1227.000	687.712	80.007	19.994	103.879	20.083	2.198	0.507
1227.500	687.929	80.006	19.993	103.877	20.082	2.240	0.495
1228.000	688.244	80.009	19.994	103.878	20.084	2.165	0.506
1228.500	688.491	80.007	19.994	103.878	20.079	2.436	0.547
1229.000	688.741	80.007	19.993	103.876	20.078	2.548	0.530
1229.500	689.002	80.007	19.994	103.875	20.081	2.354	0.504
1230.000	689.261	80.006	19.994	103.871	20.081	2.335	0.515
1230.500	689.532	80.005	19.994	103.868	20.081	2.363	0.525
1231.000	689.809	80.007	19.994	103.867	20.076	2.636	0.539
1231.500	690.039	80.005	19.993	103.866	20.081	2.330	0.528
1232.000	690.301	80.006	19.994	103.866	20.082	2.264	0.500
1232.500	690.563	80.005	19.994	103.867	20.080	2.421	0.508
1233.000	690.841	80.007	19.995	103.869	20.080	2.383	0.532
1233.500	691.084	80.007	19.994	103.869	20.080	2.392	0.531
1234.000	691.341	80.007	19.994	103.872	20.082	2.291	0.511
1234.500	691.610	80.007	19.994	103.874	20.081	2.322	0.513
1235.000	691.861	80.007	19.995	103.876	20.081	2.335	0.523
1235.500	692.087	80.006	19.995	103.876	20.081	2.359	0.498
1236.000	692.376	80.007	19.994	103.878	20.082	2.299	0.496
1236.500	692.654	80.006	19.995	103.876	20.082	2.240	0.541
1237.000	692.905	80.006	19.994	103.877	20.082	2.277	0.548
1237.500	693.185	80.006	19.993	103.876	20.079	2.451	0.530
1238.000	693.474	80.005	19.994	103.875	20.083	2.190	0.551
1238.500	693.713	80.007	19.993	103.873	20.082	2.273	0.549
1239.000	693.994	80.007	19.994	103.874	20.083	2.170	0.524
1239.500	694.246	80.007	19.995	103.872	20.082	2.242	0.526
1240.000	694.505	80.005	19.993	103.869	20.080	2.429	0.522
1240.500	694.744	80.006	19.995	103.869	20.082	2.302	0.505
1241.000	694.997	80.007	19.995	103.873	20.079	2.456	0.495
1241.500	695.276	80.008	19.994	103.872	20.079	2.484	0.512
1242.000	695.540	80.008	19.995	103.873	20.081	2.326	0.537
1242.500	695.778	80.006	19.994	103.873	20.082	2.302	0.523
1243.000	696.053	80.007	19.994	103.873	20.082	2.282	0.507
1243.500	696.300	80.006	19.994	103.868	20.082	2.293	0.517
1244.000	696.540	80.008	19.994	103.867	20.083	2.227	0.505
1244.500	696.813	80.007	19.993	103.866	20.083	2.209	0.500
1245.000	697.058	80.007	19.993	103.866	20.081	2.304	0.516
1245.500	697.331	80.007	19.993	103.865	20.082	2.276	0.519
1246.000	697.610	80.009	19.994	103.865	20.082	2.265	0.535
1246.500	697.812	80.007	19.994	103.866	20.081	2.339	0.516
1247.000	698.082	80.008	19.993	103.867	20.081	2.324	0.476
1247.500	698.373	80.008	19.994	103.867	20.080	2.390	0.516
1248.000	698.601	80.008	19.993	103.867	20.080	2.396	0.540
1248.500	698.879	80.009	19.994	103.867	20.080	2.399	0.513
1249.000	699.143	80.007	19.993	103.866	20.081	2.357	0.524
1249.500	699.414	80.008	19.994	103.865	20.084	2.157	0.538
1250.000	699.654	80.006	19.994	103.865	20.082	2.275	0.523
1250.500	699.905	80.007	19.993	103.865	20.080	2.397	0.501
1251.000	700.182	80.008	19.993	103.864	20.079	2.502	0.509
1251.500	700.431	80.007	19.994	103.864	20.082	2.280	0.527
1252.000	700.713	80.007	19.994	103.864	20.078	2.533	0.529
1252.500	700.983	80.007	19.993	103.864	20.082	2.253	0.541
1253.001	701.239	80.009	19.993	103.864	20.081	2.317	0.539
1253.501	701.497	80.008	19.993	103.865	20.082	2.264	0.520
1254.000	701.697	80.007	19.994	103.865	20.081	2.306	0.486
1254.500	701.977	80.008	19.993	103.865	20.082	2.291	0.469
1255.000	702.218	80.007	19.993	103.865	20.083	2.218	0.501
1255.500	702.496	80.007	19.995	103.865	20.083	2.231	0.521
1256.000	702.747	80.006	19.994	103.864	20.081	2.363	0.524
1256.501	703.022	80.006	19.994	103.863	20.081	2.368	0.527
1257.001	703.258	80.007	19.994	103.863	20.082	2.280	0.519
1257.500	703.505	80.007	19.993	103.863	20.081	2.355	0.497
1258.000	703.773	80.007	19.995	103.862	20.078	2.566	0.499
1258.500	704.031	80.006	19.993	103.859	20.081	2.339	0.521
1259.000	704.315	80.007	19.995	103.860	20.082	2.286	0.534
1259.500	704.560	80.007	19.995	103.859	20.080	2.372	0.535
1260.000	704.813	80.006	19.994	103.859	20.082	2.273	0.514
1260.500	705.037	80.006	19.994	103.857	20.080	2.434	0.488
1261.000	705.316	80.005	19.995	103.859	20.081	2.353	0.490
1261.500	705.580	80.007	19.995	103.858	20.082	2.275	0.523
1262.000	705.819	80.007	19.995	103.859	20.082	2.260	0.523
1262.500	706.104	80.007	19.994	103.859	20.080	2.392	0.514
1263.000	706.336	80.007	19.995	103.861	20.085	2.078	0.520
1263.500	706.582	80.005	19.993	103.861	20.083	2.174	0.497
1264.000	706.853	80.006	19.995	103.863	20.084	2.146	0.498
1264.501	707.115	80.007	19.995	103.863	20.082	2.278	0.525
1265.001	707.317	80.007	19.995	103.863	20.083	2.176	0.499
1265.501	707.596	80.007	19.995	103.863	20.082	2.293	0.472
1266.001	707.868	80.007	19.994	103.863	20.083	2.170	0.516
1266.500	708.084	80.007	19.996	103.863	20.082	2.273	0.520
1267.000	708.377	80.007	19.996	103.862	20.084	2.115	0.499
1267.500	708.637	80.007	19.994	103.862	20.081	2.311	0.531
1268.000	708.859	80.006	19.995	103.862	20.083	2.218	0.517
1268.500	709.101	80.008	19.995	103.862	20.083	2.209	0.473
1269.000	709.395	80.007	19.995	103.863	20.081	2.352	0.500
1269.500	709.667	80.008	19.995	103.863	20.083	2.229	0.551
1270.000	709.886	80.008	19.994	103.863	20.080	2.392	0.528
1270.500	710.128	80.008	19.994	103.864	20.079	2.452	0.476
1271.000	710.408	80.008	19.994	103.864	20.083	2.170	0.491
1271.500	710.599	80.008	19.994	103.864	20.080	2.412	0.497
1272.000	710.870	80.008	19.995	103.864	20.081	2.308	0.467
1272.500	711.160	80.008	19.994	103.862	20.082	2.297	0.511
1273.000	711.406	80.009	19.994	103.857	20.080	2.377	0.548
1273.500	711.669	80.010	19.995	103.855	20.085	2.047	0.523
1274.000	711.902	80.008	19.994	103.854	20.082	2.262	0.503
1274.500	712.130	80.008	19.995	103.854	20.081	2.357	0.478
1275.000	712.411	80.007	19.995	103.855	20.082	2.267	0.485
1275.500	712.665	80.008	19.995	103.860	20.078	2.531	0.522
1276.000	712.910	80.008	19.994	103.862	20.081	2.364	0.517
1276.500	713.185	80.009	19.994	103.863	20.081	2.324	0.509
1277.000	713.432	80.009	19.994	103.861	20.082	2.300	0.521
1277.500	713.694	80.009	19.994	103.862	20.080	2.412	0.516
1278.000	713.916	80.010	19.995	103.862	20.082	2.298	0.496
1278.500	714.194	80.008	19.993	103.862	20.080	2.399	0.492
1279.000	714.468	80.008	19.994	103.862	20.083	2.210	0.526
1279.500	714.715	80.008	19.994	103.864	20.080	2.430	0.536
1280.000	714.951	80.009	19.994	103.864	20.081	2.324	0.502
1280.500	715.227	80.007	19.994	103.864	20.084	2.155	0.498
1281.000	715.504	80.008	19.994	103.865	20.080	2.429	0.532
1281.500	715.730	80.009	19.995	103.864	20.080	2.397	0.528
1282.000	716.000	80.008	19.995	103.864	20.080	2.370	0.500
1282.500	716.227	80.008	19.994	103.863	20.080	2.410	0.497
1283.000	716.487	80.007	19.994	103.862	20.078	2.515	0.492
1283.501	716.803	80.008	19.995	103.860	20.081	2.309	0.531
1284.001	717.035	80.007	19.994	103.860	20.079	2.450	0.562
1284.500	717.238	80.007	19.995	103.860	20.082	2.295	0.492
1285.000	717.483	80.009	19.994	103.860	20.084	2.130	0.442
1285.500	717.730	80.006	19.994	103.861	20.084	2.150	0.470
1286.000	717.990	80.007	19.995	103.864	20.081	2.326	0.500
1286.500	718.254	80.007	19.995	103.863	20.082	2.291	0.516
1287.000	718.515	80.006	19.996	103.864	20.081	2.348	0.524
1287.500	718.757	80.007	19.996	103.864	20.082	2.258	0.514
1288.000	719.009	80.007	19.995	103.865	20.081	2.362	0.499
1288.500	719.279	80.008	19.995	103.865	20.081	2.342	0.508
1289.000	719.509	80.008	19.996	103.863	20.078	2.511	0.511
1289.500	719.740	80.006	19.995	103.857	20.080	2.395	0.480
1290.000	719.959	80.006	19.995	103.855	20.081	2.352	0.455
1290.500	720.217	80.007	19.995	103.853	20.081	2.330	0.463
1291.000	720.454	80.008	19.996	103.853	20.080	2.418	0.486
1291.500	720.703	80.007	19.995	103.856	20.083	2.223	0.491
1292.000	720.979	80.007	19.995	103.862	20.082	2.247	0.505
1292.501	721.222	80.007	19.996	103.864	20.083	2.223	0.522
1293.001	721.490	80.007	19.994	103.866	20.082	2.262	0.515
1293.500	721.706	80.008	19.995	103.864	20.083	2.190	0.497
1294.000	721.959	80.008	19.995	103.863	20.080	2.408	0.476
1294.500	722.218	80.008	19.996	103.860	20.081	2.324	0.490
1295.000	722.465	80.007	19.995	103.855	20.081	2.344	0.509
1295.500	722.759	80.006	19.994	103.853	20.081	2.306	0.524
1296.000	722.948	80.007	19.994	103.855	20.081	2.361	0.512
1296.501	723.193	80.007	19.993	103.856	20.081	2.308	0.458
1297.001	723.471	80.009	19.995	103.859	20.082	2.247	0.478
1297.500	723.694	80.008	19.995	103.864	20.081	2.319	0.512
1298.000	723.979	80.009	19.995	103.863	20.081	2.344	0.504
1298.501	724.209	80.009	19.994	103.858	20.081	2.304	0.512
1299.001	724.492	80.009	19.994	103.856	20.081	2.313	0.514
1299.500	724.701	80.008	19.994	103.851	20.082	2.289	0.502
1300.000	724.950	80.009	19.992	103.851	20.082	2.256	0.475
1300.500	725.220	80.010	19.994	103.854	20.083	2.232	0.489
1301.000	725.417	80.009	19.993	103.860	20.082	2.289	0.493
1301.500	725.709	80.009	19.994	103.862	20.083	2.212	0.478
1302.000	725.901	80.010	19.993	103.866	20.080	2.403	0.486
1302.500	726.168	80.009	19.994	103.866	20.083	2.192	0.471
1303.000	726.407	80.010	19.993	103.866	20.083	2.227	0.483
1303.500	726.662	80.009	19.993	103.865	20.086	2.025	0.500
1304.000	726.885	80.010	19.993	103.865	20.084	2.154	0.486
1304.500	727.159	80.008	19.993	103.866	20.084	2.126	0.488
1305.000	727.373	80.008	19.992	103.864	20.084	2.115	0.493
1305.500	727.677	80.009	19.993	103.864	20.081	2.350	0.503
1306.000	727.895	80.009	19.994	103.864	20.081	2.341	0.520
1306.500	728.089	80.010	19.993	103.864	20.082	2.280	0.467
1307.000	728.363	80.008	19.994	103.863	20.082	2.273	0.440
1307.500	728.570	80.008	19.993	103.865	20.087	1.967	0.475
1308.000	728.851	80.009	19.993	103.865	20.082	2.242	0.484
1308.500	729.052	80.008	19.994	103.864	20.084	2.141	0.484
1309.000	729.344	80.009	19.994	103.864	20.084	2.166	0.488
1309.500	729.621	80.008	19.993	103.863	20.082	2.260	0.532
1310.000	729.787	80.008	19.993	103.863	20.083	2.214	0.506
1310.500	730.069	80.007	19.994	103.861	20.084	2.102	0.445
1311.000	730.364	80.007	19.994	103.861	20.082	2.297	0.513
1311.500	730.628	80.009	19.993	103.861	20.082	2.278	0.568
1312.000	730.887	80.008	19.993	103.861	20.079	2.443	0.541
1312.500	731.129	80.009	19.995	103.862	20.081	2.313	0.512
1313.000	731.342	80.008	19.995	103.864	20.079	2.456	0.478
1313.500	731.618	80.008	19.994	103.864	20.082	2.243	0.472
1314.001	731.849	80.006	19.993	103.863	20.080	2.410	0.498
1314.501	732.109	80.007	19.993	103.860	20.082	2.287	0.499
1315.000	732.378	80.009	19.992	103.859	20.083	2.207	0.510
1315.500	732.637	80.008	19.993	103.859	20.080	2.412	0.528
1316.000	732.886	80.008	19.993	103.859	20.077	2.634	0.518
1316.500	733.136	80.007	19.994	103.860	20.079	2.463	0.504
1317.000	733.426	80.008	19.994	103.862	20.082	2.284	0.520
1317.500	733.687	80.008	19.994	103.862	20.083	2.181	0.546
1318.000	733.931	80.006	19.993	103.862	20.081	2.350	0.528
1318.500	734.190	80.007	19.993	103.861	20.083	2.221	0.504
1319.000	734.418	80.006	19.993	103.862	20.081	2.352	0.495
1319.500	734.710	80.008	19.994	103.861	20.080	2.377	0.503
1320.000	734.948	80.008	19.993	103.861	20.081	2.335	0.525
1320.500	735.218	80.007	19.993	103.861	20.085	2.093	0.519
1321.000	735.513	80.007	19.993	103.861	20.086	1.972	0.537
1321.500	735.755	80.007	19.994	103.862	20.078	2.515	0.551
1322.001	736.008	80.007	19.995	103.864	20.085	2.044	0.516
1322.501	736.289	80.007	19.994	103.865	20.081	2.306	0.514
1323.000	736.546	80.006	19.994	103.863	20.080	2.370	0.536
1323.500	736.785	80.007	19.993	103.863	20.081	2.337	0.517
1324.000	737.045	80.006	19.994	103.863	20.081	2.343	0.497
1324.500	737.288	80.007	19.994	103.863	20.080	2.403	0.501
1325.000	737.607	80.007	19.994	103.861	20.083	2.200	0.532
1325.500	737.854	80.009	19.995	103.862	20.083	2.216	0.564
1326.000	738.087	80.008	19.993	103.861	20.082	2.249	0.523
1326.500	738.356	80.007	19.994	103.861	20.081	2.366	0.491
1327.000	738.656	80.006	19.994	103.862	20.081	2.319	0.535
1327.500	738.907	80.007	19.994	103.859	20.084	2.141	0.560
1328.000	739.161	80.008	19.994	103.858	20.083	2.227	0.528
1328.500	739.440	80.006	19.993	103.858	20.081	2.357	0.519
1329.000	739.703	80.006	19.994	103.858	20.083	2.234	0.538
1329.500	739.977	80.007	19.994	103.856	20.083	2.194	0.539
1330.000	740.202	80.009	19.994	103.861	20.084	2.161	0.518
1330.500	740.448	80.007	19.993	103.863	20.083	2.181	0.485
1331.001	740.734	80.008	19.993	103.863	20.083	2.199	0.501
1331.501	741.017	80.008	19.994	103.863	20.083	2.170	0.550
1332.000	741.289	80.007	19.994	103.865	20.080	2.370	0.562
1332.500	741.523	80.008	19.994	103.864	20.081	2.366	0.531
1333.000	741.814	80.008	19.995	103.865	20.083	2.198	0.516
1333.500	742.080	80.007	19.994	103.865	20.085	2.060	0.541
1334.000	742.331	80.007	19.994	103.864	20.080	2.384	0.537
1334.500	742.597	80.008	19.994	103.864	20.080	2.386	0.517
1335.000	742.894	80.008	19.994	103.866	20.084	2.137	0.540
1335.500	743.108	80.008	19.994	103.867	20.083	2.212	0.537
1336.001	743.371	80.008	19.995	103.867	20.081	2.320	0.494
1336.501	743.642	80.008	19.994	103.866	20.080	2.410	0.505
