Sample ID:	C:\MCC\MCC Cal\Test\Wood_Veneer_MDF_MCC_30K_min_220315_R3.txt
Sample Weight (mg):	4.51
Heating Rate (C/s):	0.5
Combustor Temp (C):	900
N2 Flow Rate (cc/min):	80
O2 Flow Rate (cc/min):	20
Calibration File:	C:\MCC\MCC Cal\Coeff1 JN10440_30_210304.txt.txt
T Correction Coefficients:	0	1.024463	0
Time Shift (s):	14
*
Time (s)	Temperature (C)	N2 flow rate (cc/min)	O2 flow rate (cc/min)	Flow Rate (cc/min)	Oxygen (%)	HRR (W/g)	Heating rate (C/s)
-0.001	107.620	80.008	19.998	103.600	20.185	-0.183	-0.017
0.499	107.631	79.996	19.999	103.600	20.183	-0.029	-0.000
0.999	107.638	79.999	19.996	103.598	20.188	-0.400	0.021
1.499	107.604	80.007	19.995	103.598	20.186	-0.221	-0.005
2.000	107.645	80.008	19.993	103.599	20.187	-0.322	-0.010
2.500	107.638	80.013	19.994	103.601	20.186	-0.248	0.021
3.000	107.602	80.018	19.994	103.602	20.184	-0.070	-0.004
3.500	107.643	80.004	19.995	103.604	20.185	-0.123	-0.019
4.000	107.638	80.000	19.994	103.606	20.185	-0.164	0.021
4.500	107.605	80.006	19.994	103.607	20.187	-0.306	-0.001
4.999	107.587	80.006	19.994	103.606	20.188	-0.388	-0.044
5.499	107.638	80.006	19.994	103.601	20.185	-0.150	-0.009
6.000	107.602	80.003	19.995	103.598	20.183	-0.020	0.023
6.500	107.636	80.005	19.994	103.596	20.184	-0.111	0.006
6.999	107.677	80.006	19.993	103.594	20.183	0.006	0.037
7.499	107.598	80.004	19.994	103.594	20.178	0.353	0.019
7.999	107.616	80.010	19.995	103.597	20.183	-0.004	-0.049
8.500	107.617	80.000	19.994	103.598	20.182	0.025	-0.021
9.000	107.636	80.006	19.993	103.599	20.183	-0.002	0.020
9.500	107.622	80.001	19.995	103.598	20.180	0.189	0.012
9.999	107.611	80.012	19.992	103.596	20.180	0.219	-0.011
10.499	107.628	80.001	19.994	103.597	20.183	0.014	-0.010
10.999	107.612	80.006	19.994	103.596	20.182	0.049	0.004
11.499	107.644	80.002	19.996	103.595	20.180	0.193	0.009
11.999	107.642	80.004	19.994	103.595	20.180	0.182	0.023
12.500	107.646	80.002	19.996	103.598	20.177	0.387	0.016
13.000	107.636	80.020	19.992	103.595	20.180	0.203	-0.002
13.500	107.632	80.007	19.992	103.597	20.182	0.035	-0.010
13.999	107.627	80.006	19.993	103.599	20.181	0.121	-0.012
14.499	107.682	80.013	19.992	103.600	20.180	0.201	0.021
14.999	107.659	80.007	19.995	103.603	20.183	0.012	0.041
15.499	107.654	80.010	19.993	103.604	20.181	0.115	0.002
15.999	107.686	80.011	19.993	103.604	20.181	0.133	-0.000
16.499	107.678	80.002	19.994	103.606	20.179	0.309	0.026
16.999	107.671	79.995	19.994	103.611	20.176	0.469	0.005
17.499	107.638	80.004	19.996	103.611	20.178	0.369	-0.027
18.000	107.668	80.008	19.994	103.607	20.177	0.410	-0.022
18.500	107.604	79.999	19.995	103.593	20.175	0.529	-0.019
19.000	107.641	80.007	19.994	103.575	20.172	0.785	-0.030
19.500	107.635	80.011	19.993	103.560	20.175	0.539	0.002
20.000	107.657	80.005	19.993	103.555	20.175	0.528	0.023
20.499	107.653	80.004	19.993	103.561	20.175	0.596	0.017
20.999	107.639	80.007	19.994	103.578	20.173	0.729	0.000
21.499	107.630	80.004	19.995	103.622	20.175	0.533	-0.020
21.999	107.655	80.004	19.995	103.669	20.175	0.547	-0.004
22.499	107.697	80.003	19.995	103.692	20.175	0.576	0.041
22.999	107.668	80.007	19.995	103.705	20.173	0.680	0.040
23.499	107.644	80.006	19.995	103.708	20.172	0.792	-0.020
23.999	107.673	80.007	19.994	103.692	20.169	0.962	-0.024
24.499	107.720	80.009	19.994	103.668	20.171	0.837	0.041
24.999	107.686	80.003	19.994	103.663	20.168	1.085	0.044
25.499	107.686	80.007	19.993	103.664	20.169	0.973	-0.011
26.000	107.697	80.007	19.994	103.671	20.169	0.958	-0.011
26.500	107.715	80.004	19.994	103.674	20.166	1.200	0.021
26.999	107.759	80.006	19.993	103.681	20.167	1.159	0.046
27.499	107.753	80.007	19.995	103.688	20.163	1.445	0.050
28.000	107.800	80.009	19.996	103.696	20.167	1.136	0.039
28.500	107.794	80.006	19.994	103.706	20.165	1.312	0.041
28.999	107.800	80.010	19.995	103.713	20.163	1.394	0.021
29.500	107.822	80.007	19.994	103.715	20.160	1.625	0.015
30.000	107.877	80.007	19.994	103.717	20.162	1.462	0.053
30.499	107.896	80.006	19.994	103.717	20.158	1.791	0.075
30.999	107.892	80.007	19.994	103.714	20.159	1.705	0.044
31.499	107.924	80.006	19.994	103.712	20.159	1.691	0.022
31.999	107.953	80.007	19.993	103.714	20.155	2.002	0.045
32.499	107.961	80.008	19.993	103.722	20.155	2.012	0.049
33.000	107.978	80.007	19.993	103.730	20.155	1.995	0.031
33.500	108.047	80.008	19.994	103.739	20.158	1.782	0.055
34.000	108.085	80.007	19.993	103.747	20.156	1.936	0.097
34.500	108.119	80.008	19.993	103.755	20.156	1.893	0.090
34.999	108.137	80.005	19.993	103.758	20.153	2.118	0.062
35.499	108.156	80.007	19.994	103.765	20.152	2.185	0.045
35.999	108.209	80.007	19.994	103.766	20.153	2.159	0.055
36.499	108.279	80.007	19.993	103.768	20.156	1.952	0.097
36.999	108.305	80.008	19.993	103.767	20.151	2.261	0.109
37.499	108.360	80.006	19.995	103.766	20.151	2.282	0.088
37.999	108.397	80.007	19.993	103.766	20.152	2.208	0.087
38.499	108.463	80.007	19.994	103.773	20.151	2.288	0.098
38.999	108.511	80.008	19.994	103.778	20.150	2.359	0.108
39.499	108.558	80.009	19.994	103.777	20.147	2.597	0.104
39.999	108.624	80.007	19.994	103.779	20.150	2.363	0.104
40.499	108.683	80.006	19.993	103.781	20.148	2.482	0.119
40.999	108.737	80.006	19.993	103.781	20.147	2.539	0.119
41.499	108.784	80.002	19.994	103.783	20.146	2.619	0.106
41.999	108.855	80.004	19.993	103.789	20.147	2.584	0.109
42.499	108.897	80.006	19.993	103.795	20.144	2.819	0.116
42.999	109.019	80.008	19.993	103.794	20.145	2.748	0.139
43.500	109.072	80.002	19.994	103.795	20.146	2.621	0.169
44.000	109.108	80.006	19.994	103.802	20.143	2.873	0.131
44.499	109.163	80.005	19.994	103.811	20.145	2.734	0.090
44.999	109.261	80.006	19.993	103.817	20.142	2.914	0.122
45.499	109.370	80.008	19.993	103.825	20.144	2.809	0.180
46.000	109.427	80.004	19.994	103.831	20.139	3.155	0.187
46.500	109.491	80.007	19.993	103.829	20.143	2.848	0.144
46.999	109.574	80.007	19.994	103.829	20.142	2.954	0.134
47.499	109.634	80.009	19.994	103.828	20.142	2.912	0.145
47.999	109.765	80.007	19.994	103.828	20.141	2.983	0.167
48.499	109.852	80.009	19.993	103.825	20.140	3.063	0.205
48.999	109.923	80.008	19.993	103.828	20.140	3.085	0.188
49.499	110.024	80.004	19.994	103.828	20.144	2.813	0.165
49.999	110.096	80.005	19.992	103.829	20.139	3.134	0.173
50.499	110.197	80.008	19.993	103.830	20.141	2.987	0.173
50.999	110.294	80.007	19.993	103.833	20.146	2.629	0.185
51.499	110.392	80.010	19.993	103.832	20.141	3.006	0.196
52.000	110.498	80.008	19.994	103.831	20.143	2.885	0.199
52.500	110.575	80.006	19.994	103.831	20.142	2.897	0.194
52.999	110.681	80.009	19.992	103.830	20.138	3.210	0.183
53.499	110.771	80.007	19.992	103.831	20.139	3.122	0.190
53.999	110.868	80.008	19.995	103.831	20.139	3.149	0.191
54.499	111.005	80.013	19.994	103.829	20.140	3.053	0.210
54.999	111.083	80.008	19.995	103.828	20.140	3.055	0.224
55.500	111.230	80.007	19.994	103.829	20.138	3.249	0.220
56.000	111.317	80.008	19.994	103.829	20.136	3.378	0.230
56.499	111.442	80.007	19.993	103.829	20.137	3.296	0.223
56.999	111.487	80.006	19.994	103.832	20.138	3.184	0.191
57.499	111.621	80.009	19.993	103.832	20.135	3.425	0.175
57.999	111.721	80.008	19.995	103.832	20.136	3.333	0.207
58.499	111.828	80.007	19.993	103.832	20.136	3.335	0.220
58.999	112.000	80.009	19.993	103.833	20.135	3.421	0.243
59.499	112.068	80.007	19.994	103.835	20.134	3.472	0.260
59.999	112.175	80.008	19.995	103.838	20.134	3.542	0.207
60.499	112.315	80.005	19.995	103.837	20.134	3.542	0.211
60.999	112.422	80.005	19.994	103.836	20.138	3.210	0.247
61.500	112.584	80.011	19.992	103.836	20.135	3.400	0.258
62.000	112.675	79.999	19.995	103.835	20.137	3.277	0.261
62.499	112.787	80.005	19.994	103.833	20.134	3.472	0.228
62.999	112.936	80.007	19.993	103.834	20.139	3.148	0.233
63.499	113.071	80.006	19.993	103.836	20.135	3.423	0.273
63.999	113.204	80.004	19.994	103.835	20.137	3.265	0.276
64.499	113.355	80.009	19.994	103.834	20.135	3.402	0.276
64.999	113.500	80.017	19.992	103.835	20.135	3.457	0.289
65.499	113.622	80.013	19.993	103.837	20.134	3.492	0.281
65.999	113.733	80.004	19.994	103.838	20.134	3.539	0.250
66.499	113.886	80.005	19.994	103.837	20.132	3.657	0.249
66.999	114.029	80.006	19.994	103.835	20.130	3.792	0.280
67.499	114.142	80.003	19.993	103.832	20.136	3.361	0.276
67.999	114.284	80.005	19.993	103.828	20.132	3.633	0.255
68.499	114.423	80.008	19.993	103.827	20.135	3.455	0.268
68.999	114.550	80.004	19.994	103.827	20.134	3.484	0.273
69.499	114.699	80.005	19.993	103.831	20.134	3.528	0.271
69.999	114.824	80.000	19.995	103.834	20.132	3.637	0.275
70.499	114.979	80.003	19.995	103.836	20.133	3.571	0.277
70.999	115.129	80.023	19.991	103.835	20.134	3.524	0.293
71.499	115.252	79.999	19.994	103.837	20.135	3.403	0.289
71.999	115.419	80.007	19.992	103.836	20.133	3.589	0.282
72.499	115.557	79.997	19.994	103.841	20.132	3.686	0.298
72.999	115.668	80.003	19.995	103.844	20.130	3.774	0.277
73.499	115.815	80.006	19.993	103.847	20.131	3.688	0.253
73.999	116.003	80.006	19.993	103.846	20.132	3.669	0.297
74.499	116.133	80.005	19.994	103.847	20.136	3.395	0.326
74.999	116.281	80.003	19.993	103.848	20.131	3.753	0.298
75.499	116.440	80.006	19.994	103.852	20.131	3.739	0.293
75.999	116.585	80.006	19.994	103.857	20.129	3.882	0.306
76.499	116.761	80.001	19.994	103.864	20.127	3.990	0.312
76.999	116.918	80.006	19.994	103.866	20.129	3.890	0.327
77.499	117.082	80.006	19.993	103.863	20.129	3.863	0.327
78.000	117.273	80.009	19.993	103.857	20.131	3.720	0.338
78.499	117.403	80.005	19.994	103.852	20.127	3.979	0.338
78.999	117.574	80.003	19.994	103.849	20.128	3.975	0.311
79.499	117.726	80.008	19.994	103.851	20.124	4.219	0.312
79.999	117.879	80.005	19.993	103.855	20.128	3.961	0.314
80.499	118.078	80.008	19.996	103.860	20.130	3.796	0.328
81.000	118.226	80.005	19.994	103.865	20.130	3.794	0.349
81.500	118.333	80.003	19.994	103.868	20.127	4.027	0.301
81.999	118.568	80.008	19.994	103.867	20.129	3.872	0.299
82.499	118.716	80.007	19.995	103.868	20.128	3.964	0.363
82.999	118.871	80.002	19.994	103.869	20.128	3.917	0.343
83.499	119.070	80.004	19.995	103.871	20.126	4.117	0.328
83.999	119.209	80.006	19.995	103.871	20.125	4.130	0.346
84.499	119.404	80.007	19.994	103.872	20.124	4.262	0.336
84.999	119.566	80.006	19.994	103.871	20.125	4.182	0.345
85.499	119.745	80.006	19.994	103.870	20.127	4.043	0.349
85.999	119.902	80.004	19.995	103.870	20.128	3.972	0.339
86.499	120.086	80.008	19.995	103.870	20.128	3.935	0.339
86.999	120.266	80.004	19.994	103.870	20.129	3.857	0.353
87.499	120.433	80.004	19.996	103.870	20.127	4.000	0.356
87.999	120.568	79.998	19.998	103.874	20.125	4.119	0.324
88.499	120.785	80.005	19.996	103.877	20.124	4.235	0.327
88.999	120.976	80.001	19.996	103.883	20.126	4.053	0.380
89.499	121.159	80.007	19.996	103.886	20.126	4.053	0.391
89.999	121.314	80.014	19.994	103.887	20.126	4.074	0.356
90.499	121.498	80.006	19.995	103.884	20.125	4.147	0.339
90.999	121.715	80.000	19.996	103.881	20.126	4.084	0.370
91.500	121.883	80.006	19.995	103.876	20.125	4.190	0.393
91.999	122.053	80.007	19.995	103.871	20.128	3.916	0.361
92.499	122.248	80.003	19.996	103.871	20.126	4.053	0.351
92.999	122.408	80.005	19.995	103.868	20.126	4.080	0.360
93.499	122.594	80.004	19.993	103.868	20.125	4.141	0.351
93.999	122.813	79.998	19.995	103.867	20.124	4.195	0.376
94.499	122.987	80.010	19.993	103.867	20.125	4.146	0.399
94.999	123.192	80.004	19.993	103.867	20.124	4.242	0.386
95.499	123.378	79.999	19.995	103.869	20.124	4.258	0.385
95.999	123.589	80.003	19.994	103.873	20.122	4.403	0.394
96.499	123.757	80.005	19.993	103.873	20.124	4.219	0.388
96.999	123.961	80.011	19.992	103.873	20.125	4.184	0.375
97.499	124.133	80.000	19.994	103.876	20.127	4.035	0.374
97.999	124.300	80.005	19.995	103.879	20.123	4.284	0.357
98.499	124.484	79.997	19.995	103.875	20.121	4.419	0.344
98.999	124.700	80.006	19.994	103.875	20.123	4.284	0.375
99.499	124.926	80.005	19.994	103.876	20.125	4.125	0.421
99.999	125.105	80.007	19.993	103.877	20.125	4.144	0.424
100.499	125.334	80.005	19.995	103.876	20.125	4.152	0.407
100.999	125.501	80.006	19.994	103.876	20.124	4.229	0.402
101.499	125.717	80.004	19.994	103.879	20.125	4.178	0.389
101.999	125.914	80.006	19.993	103.885	20.124	4.254	0.398
102.499	126.118	80.004	19.994	103.887	20.122	4.381	0.407
102.999	126.303	80.007	19.993	103.889	20.123	4.305	0.394
103.499	126.506	80.002	19.994	103.891	20.123	4.284	0.388
103.999	126.744	80.008	19.993	103.888	20.123	4.274	0.414
104.499	126.915	80.010	19.992	103.883	20.124	4.241	0.425
104.999	127.130	80.005	19.994	103.879	20.124	4.225	0.398
105.499	127.349	80.009	19.993	103.873	20.125	4.155	0.410
105.999	127.546	80.006	19.993	103.872	20.123	4.272	0.425
106.499	127.745	80.008	19.994	103.873	20.123	4.298	0.406
106.999	127.942	80.006	19.993	103.873	20.124	4.263	0.396
107.499	128.211	80.007	19.992	103.878	20.122	4.355	0.431
107.999	128.434	80.010	19.993	103.881	20.120	4.517	0.479
108.499	128.573	80.008	19.993	103.884	20.125	4.191	0.427
108.999	128.803	80.007	19.993	103.884	20.122	4.355	0.365
109.499	128.989	80.007	19.993	103.883	20.124	4.249	0.392
109.999	129.224	80.005	19.993	103.878	20.119	4.582	0.418
110.499	129.446	80.008	19.993	103.878	20.125	4.145	0.439
110.999	129.695	80.007	19.994	103.874	20.123	4.321	0.464
111.499	129.900	80.013	19.993	103.873	20.122	4.391	0.463
111.999	130.086	80.005	19.994	103.874	20.120	4.534	0.422
112.499	130.325	80.003	19.993	103.873	20.125	4.155	0.408
112.999	130.536	79.994	19.993	103.873	20.124	4.196	0.437
113.499	130.765	80.002	19.993	103.874	20.120	4.519	0.445
113.999	130.982	80.013	19.992	103.874	20.123	4.265	0.443
114.499	131.198	80.004	19.994	103.879	20.122	4.372	0.440
114.999	131.424	80.006	19.994	103.883	20.120	4.521	0.437
115.499	131.675	80.008	19.993	103.883	20.122	4.341	0.459
115.999	131.862	80.008	19.993	103.885	20.122	4.354	0.458
116.500	132.085	80.008	19.992	103.887	20.121	4.452	0.424
117.000	132.300	80.006	19.994	103.885	20.119	4.556	0.424
117.499	132.555	80.005	19.993	103.887	20.121	4.423	0.455
117.999	132.768	80.008	19.993	103.892	20.120	4.507	0.469
118.499	132.993	80.006	19.994	103.893	20.120	4.519	0.452
118.999	133.221	80.006	19.994	103.898	20.121	4.436	0.445
119.499	133.437	80.006	19.994	103.901	20.120	4.550	0.449
119.999	133.661	80.006	19.994	103.900	20.121	4.417	0.442
120.499	133.929	80.008	19.993	103.895	20.119	4.579	0.466
120.999	134.136	80.008	19.993	103.896	20.119	4.579	0.484
121.500	134.349	80.007	19.994	103.891	20.119	4.571	0.448
122.000	134.574	80.003	19.995	103.887	20.117	4.720	0.429
122.499	134.803	80.007	19.992	103.883	20.116	4.804	0.446
122.999	135.041	80.006	19.993	103.887	20.118	4.630	0.461
123.499	135.269	80.008	19.993	103.884	20.119	4.598	0.466
124.000	135.506	80.007	19.993	103.885	20.118	4.659	0.465
124.500	135.728	80.008	19.993	103.890	20.120	4.528	0.462
124.999	135.980	80.007	19.994	103.896	20.117	4.724	0.467
125.499	136.164	79.992	19.996	103.894	20.117	4.740	0.456
125.999	136.459	80.004	19.992	103.889	20.118	4.629	0.458
126.499	136.677	80.000	19.995	103.891	20.122	4.406	0.496
126.999	136.913	80.011	19.993	103.885	20.122	4.382	0.483
127.499	137.174	80.006	19.994	103.880	20.120	4.537	0.475
127.999	137.368	80.007	19.993	103.879	20.117	4.734	0.476
128.499	137.630	80.006	19.992	103.888	20.122	4.343	0.456
128.999	137.846	80.007	19.993	103.888	20.121	4.474	0.467
129.499	138.068	80.007	19.993	103.886	20.118	4.668	0.458
129.999	138.318	80.006	19.994	103.884	20.121	4.417	0.455
130.499	138.575	80.006	19.994	103.883	20.119	4.562	0.489
130.999	138.759	80.007	19.993	103.880	20.119	4.568	0.474
131.499	139.068	80.009	19.992	103.878	20.119	4.603	0.467
131.999	139.265	80.007	19.993	103.879	20.116	4.793	0.499
132.499	139.530	80.007	19.992	103.879	20.115	4.908	0.484
132.999	139.752	80.006	19.992	103.878	20.117	4.715	0.474
133.499	140.029	80.009	19.991	103.875	20.118	4.684	0.493
133.999	140.216	80.007	19.992	103.874	20.121	4.447	0.482
134.499	140.481	80.008	19.993	103.875	20.119	4.566	0.458
134.999	140.738	80.009	19.992	103.879	20.115	4.877	0.487
135.499	140.992	80.010	19.993	103.886	20.119	4.610	0.517
135.999	141.218	80.005	19.993	103.892	20.117	4.702	0.496
136.499	141.441	80.008	19.993	103.896	20.117	4.733	0.464
136.999	141.711	80.010	19.992	103.901	20.114	4.927	0.471
137.499	141.944	80.009	19.993	103.902	20.119	4.579	0.498
137.999	142.154	80.010	19.993	103.898	20.115	4.902	0.473
138.499	142.458	80.008	19.993	103.895	20.115	4.872	0.478
138.999	142.681	80.009	19.992	103.895	20.118	4.647	0.520
139.499	142.943	80.011	19.993	103.892	20.121	4.444	0.506
139.999	143.205	80.009	19.993	103.894	20.119	4.583	0.504
140.499	143.443	80.010	19.993	103.895	20.118	4.673	0.512
140.999	143.719	80.007	19.994	103.897	20.119	4.571	0.507
141.499	143.934	80.012	19.992	103.898	20.120	4.532	0.503
141.999	144.233	80.008	19.994	103.899	20.114	4.909	0.502
142.499	144.424	80.007	19.992	103.896	20.118	4.643	0.502
142.999	144.670	80.007	19.994	103.897	20.116	4.774	0.464
143.499	144.954	80.018	19.992	103.892	20.121	4.440	0.483
143.999	145.237	80.008	19.994	103.895	20.117	4.712	0.548
144.499	145.469	80.006	19.992	103.896	20.119	4.577	0.541
144.999	145.734	80.006	19.994	103.897	20.119	4.608	0.507
145.499	145.949	80.006	19.994	103.890	20.119	4.579	0.489
145.999	146.204	80.007	19.994	103.888	20.119	4.604	0.474
146.499	146.467	80.005	19.994	103.879	20.114	4.911	0.494
146.999	146.689	80.006	19.993	103.874	20.115	4.894	0.502
147.499	146.940	80.006	19.995	103.869	20.114	4.915	0.479
147.999	147.183	80.008	19.996	103.870	20.116	4.794	0.483
148.499	147.459	80.008	19.996	103.873	20.118	4.667	0.507
148.999	147.726	80.011	19.995	103.875	20.116	4.792	0.531
149.499	147.931	80.005	19.996	103.876	20.114	4.917	0.508
149.999	148.169	80.006	19.996	103.878	20.116	4.780	0.457
150.499	148.437	80.005	19.995	103.881	20.117	4.761	0.474
150.999	148.673	80.006	19.995	103.880	20.115	4.898	0.505
151.499	148.951	80.008	19.996	103.878	20.114	4.939	0.509
151.999	149.228	80.007	19.995	103.879	20.113	4.988	0.534
152.499	149.489	80.004	19.995	103.877	20.116	4.811	0.547
152.999	149.748	80.006	19.993	103.873	20.117	4.739	0.529
153.499	149.993	80.006	19.994	103.872	20.116	4.772	0.512
153.999	150.242	80.007	19.994	103.872	20.116	4.784	0.499
154.499	150.487	80.006	19.994	103.870	20.116	4.806	0.494
154.999	150.738	80.007	19.994	103.871	20.115	4.864	0.495
155.499	150.990	80.007	19.995	103.871	20.116	4.827	0.500
155.999	151.259	80.008	19.995	103.871	20.116	4.807	0.512
156.499	151.498	80.005	19.993	103.871	20.117	4.704	0.514
156.999	151.744	80.006	19.994	103.874	20.117	4.710	0.497
157.499	152.031	80.006	19.994	103.872	20.117	4.708	0.509
157.999	152.235	80.007	19.995	103.873	20.116	4.800	0.512
158.499	152.502	80.007	19.994	103.873	20.118	4.639	0.481
158.999	152.742	80.006	19.995	103.874	20.118	4.668	0.489
159.499	153.011	80.008	19.994	103.874	20.117	4.729	0.508
159.999	153.253	80.007	19.994	103.875	20.119	4.606	0.511
160.499	153.493	80.005	19.994	103.874	20.120	4.488	0.497
160.999	153.782	80.007	19.995	103.875	20.120	4.512	0.505
161.499	153.999	80.006	19.994	103.872	20.118	4.667	0.517
161.999	154.275	80.007	19.994	103.869	20.115	4.856	0.500
162.499	154.530	80.007	19.995	103.869	20.113	4.982	0.512
162.999	154.777	80.005	19.993	103.868	20.115	4.851	0.516
163.499	155.025	80.006	19.993	103.868	20.115	4.855	0.498
163.999	155.282	80.007	19.993	103.868	20.115	4.878	0.500
164.499	155.518	80.007	19.994	103.868	20.114	4.931	0.499
164.999	155.775	80.006	19.993	103.868	20.115	4.857	0.493
165.500	156.026	80.006	19.994	103.868	20.117	4.761	0.501
166.000	156.307	80.007	19.994	103.866	20.116	4.776	0.521
166.499	156.526	80.006	19.993	103.866	20.114	4.968	0.516
166.999	156.778	80.006	19.994	103.866	20.116	4.774	0.485
167.499	157.034	80.008	19.994	103.866	20.118	4.684	0.489
167.999	157.287	80.005	19.994	103.866	20.113	5.015	0.508
168.499	157.526	80.005	19.994	103.868	20.112	5.085	0.500
168.999	157.808	80.007	19.994	103.866	20.114	4.968	0.507
169.499	158.063	80.006	19.994	103.865	20.113	4.997	0.529
169.999	158.296	80.005	19.994	103.861	20.113	5.028	0.513
170.499	158.576	80.005	19.994	103.861	20.113	5.014	0.501
170.999	158.780	80.006	19.993	103.860	20.112	5.120	0.498
171.499	159.059	80.009	19.994	103.863	20.113	5.038	0.483
171.999	159.335	80.009	19.994	103.865	20.115	4.870	0.519
172.499	159.552	80.007	19.994	103.868	20.114	4.915	0.524
172.999	159.832	80.007	19.993	103.869	20.114	4.942	0.495
173.499	160.070	80.000	19.994	103.871	20.114	4.922	0.508
173.999	160.359	80.004	19.993	103.872	20.116	4.799	0.522
174.499	160.606	80.006	19.993	103.874	20.116	4.769	0.531
174.999	160.839	80.001	19.995	103.875	20.117	4.748	0.508
175.499	161.147	80.006	19.995	103.874	20.116	4.773	0.510
175.999	161.357	80.002	19.994	103.874	20.113	5.048	0.529
176.499	161.568	80.007	19.995	103.870	20.115	4.893	0.469
176.999	161.839	80.016	19.993	103.868	20.114	4.979	0.452
177.500	162.089	80.004	19.995	103.867	20.113	4.983	0.502
177.999	162.375	80.010	19.995	103.868	20.114	4.953	0.528
178.499	162.588	80.006	19.995	103.868	20.115	4.839	0.517
178.999	162.840	80.005	19.995	103.869	20.113	5.002	0.482
179.499	163.122	80.003	19.994	103.870	20.116	4.824	0.500
179.999	163.370	80.004	19.996	103.868	20.115	4.838	0.532
180.499	163.610	80.004	19.996	103.862	20.114	4.934	0.508
180.999	163.827	80.006	19.995	103.856	20.113	5.032	0.473
181.499	164.089	80.003	19.996	103.855	20.112	5.079	0.469
181.999	164.391	80.004	19.996	103.854	20.111	5.171	0.522
182.499	164.588	80.003	19.995	103.854	20.113	5.008	0.531
182.999	164.870	80.003	19.995	103.861	20.113	5.010	0.489
183.499	165.104	80.005	19.996	103.864	20.111	5.128	0.498
183.999	165.390	80.005	19.995	103.857	20.115	4.891	0.518
184.499	165.613	80.005	19.995	103.851	20.114	4.909	0.514
184.999	165.858	80.006	19.995	103.848	20.113	5.048	0.489
185.499	166.126	80.008	19.994	103.846	20.114	4.928	0.491
185.999	166.368	80.006	19.995	103.847	20.115	4.899	0.512
186.499	166.652	80.004	19.994	103.851	20.111	5.170	0.517
186.999	166.899	80.004	19.995	103.858	20.111	5.139	0.528
187.499	167.137	80.007	19.993	103.860	20.113	5.027	0.508
187.999	167.406	80.004	19.995	103.857	20.113	4.990	0.496
188.499	167.645	80.008	19.995	103.850	20.110	5.216	0.508
188.999	167.872	80.005	19.995	103.846	20.110	5.196	0.487
189.499	168.118	80.006	19.994	103.839	20.112	5.118	0.470
189.999	168.376	80.008	19.994	103.837	20.109	5.284	0.488
190.499	168.595	80.007	19.995	103.840	20.113	5.038	0.490
190.999	168.908	80.007	19.993	103.843	20.109	5.279	0.505
191.499	169.127	80.006	19.994	103.847	20.110	5.216	0.532
191.999	169.385	80.006	19.993	103.853	20.108	5.343	0.504
192.499	169.623	80.012	19.992	103.854	20.109	5.333	0.487
192.999	169.883	80.006	19.994	103.851	20.107	5.438	0.497
193.499	170.115	80.007	19.993	103.854	20.109	5.289	0.495
193.999	170.380	80.008	19.993	103.854	20.108	5.404	0.495
194.499	170.647	80.007	19.994	103.855	20.108	5.387	0.515
194.999	170.851	80.008	19.994	103.855	20.107	5.424	0.502
195.499	171.116	80.009	19.993	103.858	20.109	5.275	0.470
195.999	171.360	80.009	19.992	103.858	20.107	5.457	0.489
196.499	171.602	80.001	19.994	103.856	20.107	5.432	0.497
196.999	171.830	80.000	19.995	103.849	20.107	5.471	0.478
197.499	172.081	80.005	19.994	103.847	20.108	5.366	0.474
197.999	172.356	80.005	19.994	103.848	20.107	5.454	0.502
198.499	172.617	80.007	19.993	103.846	20.105	5.567	0.531
198.999	172.849	80.007	19.994	103.848	20.110	5.200	0.515
199.499	173.100	80.008	19.994	103.852	20.107	5.481	0.488
199.999	173.372	80.006	19.994	103.856	20.109	5.322	0.502
200.499	173.576	80.008	19.992	103.856	20.104	5.639	0.499
200.999	173.822	80.009	19.993	103.856	20.103	5.763	0.463
201.499	174.084	80.005	19.993	103.857	20.104	5.642	0.479
201.999	174.333	80.008	19.994	103.859	20.105	5.601	0.510
202.499	174.591	80.006	19.993	103.857	20.104	5.666	0.509
202.999	174.799	80.007	19.995	103.852	20.107	5.415	0.486
203.499	175.047	80.006	19.995	103.849	20.106	5.546	0.461
203.999	175.348	80.009	19.994	103.842	20.107	5.428	0.503
204.499	175.560	80.007	19.995	103.836	20.107	5.458	0.531
204.999	175.803	80.007	19.995	103.832	20.104	5.673	0.484
205.499	176.027	80.007	19.994	103.831	20.107	5.475	0.461
205.999	176.272	80.006	19.995	103.830	20.106	5.540	0.468
206.499	176.533	80.008	19.995	103.834	20.106	5.501	0.488
206.999	176.739	80.001	19.994	103.837	20.104	5.628	0.487
207.499	177.032	80.010	19.992	103.838	20.105	5.605	0.482
207.999	177.286	80.007	19.994	103.843	20.103	5.707	0.523
208.499	177.531	80.015	19.994	103.851	20.105	5.566	0.523
208.999	177.732	79.999	19.996	103.849	20.105	5.570	0.473
209.499	178.028	80.008	19.993	103.844	20.102	5.820	0.472
209.999	178.244	80.002	19.995	103.843	20.102	5.833	0.504
210.499	178.456	79.997	19.996	103.836	20.103	5.731	0.470
210.999	178.741	80.007	19.994	103.827	20.104	5.690	0.463
211.499	178.956	80.005	19.993	103.831	20.104	5.669	0.498
211.999	179.205	80.008	19.994	103.838	20.101	5.876	0.482
212.499	179.435	80.008	19.995	103.843	20.103	5.710	0.472
212.999	179.706	80.012	19.994	103.849	20.102	5.808	0.490
213.499	179.964	80.008	19.993	103.851	20.100	5.932	0.515
213.999	180.221	80.013	19.993	103.846	20.102	5.837	0.522
214.499	180.448	80.008	19.995	103.847	20.101	5.878	0.499
214.999	180.651	80.011	19.993	103.844	20.100	5.921	0.457
215.499	180.919	80.013	19.993	103.842	20.099	6.048	0.450
215.999	181.165	80.009	19.993	103.842	20.100	5.960	0.492
216.499	181.412	80.009	19.993	103.845	20.100	5.972	0.504
216.999	181.713	80.009	19.993	103.845	20.103	5.720	0.520
217.499	181.908	80.007	19.995	103.846	20.103	5.766	0.522
217.999	182.169	80.011	19.993	103.850	20.100	5.938	0.476
218.499	182.404	80.002	19.995	103.856	20.101	5.875	0.476
218.999	182.669	80.010	19.993	103.854	20.100	5.976	0.498
219.499	182.890	80.013	19.993	103.850	20.099	6.050	0.493
219.999	183.136	79.997	19.994	103.851	20.098	6.107	0.476
220.499	183.389	80.011	19.993	103.846	20.094	6.371	0.483
220.999	183.635	80.006	19.993	103.841	20.095	6.301	0.499
221.499	183.891	80.010	19.994	103.840	20.096	6.266	0.500
221.999	184.098	80.010	19.992	103.839	20.099	5.992	0.483
222.499	184.333	80.010	19.995	103.839	20.098	6.059	0.452
222.999	184.632	80.012	19.993	103.840	20.095	6.282	0.488
223.499	184.849	80.011	19.993	103.847	20.096	6.256	0.525
223.999	185.108	80.006	19.993	103.847	20.098	6.060	0.496
224.499	185.351	80.005	19.993	103.850	20.095	6.338	0.490
224.999	185.588	80.010	19.994	103.844	20.096	6.225	0.491
225.499	185.866	79.997	19.993	103.846	20.094	6.385	0.497
225.999	186.075	80.002	19.994	103.842	20.096	6.238	0.501
226.500	186.355	80.008	19.992	103.840	20.096	6.256	0.488
226.999	186.584	80.000	19.992	103.841	20.095	6.309	0.499
227.499	186.833	80.007	19.994	103.847	20.091	6.582	0.494
228.000	187.070	80.003	19.993	103.852	20.095	6.339	0.482
228.499	187.351	80.007	19.993	103.856	20.094	6.409	0.502
228.999	187.562	80.014	19.992	103.861	20.095	6.322	0.505
229.499	187.804	80.003	19.995	103.851	20.093	6.427	0.473
229.999	188.068	80.008	19.994	103.844	20.094	6.361	0.480
230.499	188.273	80.001	19.995	103.844	20.092	6.507	0.487
230.999	188.506	80.003	19.997	103.841	20.091	6.625	0.454
231.499	188.790	80.009	19.993	103.838	20.091	6.566	0.477
231.999	189.034	79.998	19.994	103.847	20.090	6.681	0.522
232.499	189.255	80.013	19.992	103.853	20.092	6.511	0.497
232.999	189.468	79.997	19.995	103.853	20.090	6.679	0.450
233.499	189.733	80.007	19.994	103.848	20.090	6.655	0.456
233.999	189.966	80.014	19.992	103.849	20.088	6.829	0.488
234.499	190.236	79.991	19.996	103.848	20.088	6.819	0.500
234.999	190.492	80.007	19.993	103.843	20.089	6.774	0.514
235.499	190.699	80.010	19.993	103.839	20.086	6.927	0.495
235.999	190.969	80.004	19.993	103.846	20.087	6.896	0.471
236.499	191.228	80.006	19.994	103.843	20.087	6.857	0.503
236.999	191.448	79.992	19.994	103.840	20.090	6.658	0.504
237.499	191.667	80.010	19.992	103.842	20.082	7.227	0.458
237.999	191.962	80.007	19.993	103.841	20.084	7.078	0.476
238.499	192.142	80.000	19.996	103.831	20.086	6.984	0.495
238.999	192.442	80.014	19.993	103.825	20.084	7.123	0.478
239.499	192.687	80.008	19.994	103.828	20.087	6.908	0.513
239.999	192.911	80.011	19.995	103.829	20.084	7.090	0.507
240.499	193.190	80.007	19.993	103.834	20.081	7.346	0.486
240.999	193.409	80.009	19.993	103.843	20.080	7.360	0.500
241.499	193.635	80.002	19.993	103.852	20.081	7.286	0.472
241.999	193.914	80.007	19.995	103.861	20.083	7.190	0.475
242.499	194.091	80.006	19.995	103.861	20.083	7.169	0.480
242.999	194.411	80.008	19.996	103.855	20.083	7.200	0.477
243.499	194.656	80.011	19.993	103.854	20.083	7.167	0.531
243.999	194.858	80.004	19.995	103.853	20.082	7.233	0.506
244.499	195.116	80.017	19.992	103.842	20.082	7.248	0.453
244.999	195.364	80.005	19.994	103.843	20.082	7.269	0.483
245.499	195.602	80.006	19.993	103.842	20.082	7.246	0.496
245.999	195.799	80.008	19.995	103.845	20.082	7.269	0.461
246.499	196.083	80.004	19.995	103.850	20.084	7.093	0.458
246.999	196.347	79.991	19.996	103.856	20.084	7.087	0.515
247.499	196.557	79.998	19.997	103.854	20.077	7.620	0.511
247.999	196.807	80.004	19.994	103.856	20.079	7.487	0.467
248.499	197.059	80.019	19.993	103.853	20.078	7.522	0.481
248.999	197.242	80.009	19.995	103.850	20.077	7.624	0.468
249.499	197.510	80.003	19.994	103.848	20.077	7.569	0.442
249.999	197.714	80.005	19.994	103.851	20.077	7.586	0.461
250.499	197.983	80.005	19.994	103.852	20.078	7.559	0.473
250.999	198.212	80.013	19.994	103.855	20.079	7.439	0.486
251.499	198.482	80.004	19.994	103.858	20.077	7.631	0.498
251.999	198.695	80.001	19.995	103.860	20.076	7.700	0.491
252.499	198.950	80.011	19.994	103.861	20.078	7.494	0.476
252.999	199.219	80.009	19.993	103.862	20.078	7.527	0.496
253.499	199.458	80.011	19.992	103.864	20.080	7.410	0.516
253.999	199.664	80.009	19.994	103.862	20.078	7.529	0.477
254.499	199.935	80.002	19.994	103.859	20.076	7.678	0.461
254.999	200.149	80.004	19.994	103.857	20.071	7.997	0.481
255.499	200.398	79.990	19.995	103.855	20.076	7.678	0.474
255.999	200.670	80.011	19.993	103.848	20.071	8.027	0.493
256.500	200.881	80.008	19.995	103.844	20.077	7.636	0.502
256.999	201.177	80.005	19.993	103.841	20.074	7.798	0.495
257.499	201.407	80.014	19.992	103.840	20.074	7.792	0.516
258.000	201.651	80.003	19.995	103.845	20.076	7.685	0.500
258.500	201.890	80.009	19.994	103.847	20.075	7.771	0.479
258.999	202.107	79.995	19.995	103.848	20.074	7.800	0.470
259.499	202.401	80.005	19.995	103.849	20.071	8.049	0.484
259.999	202.624	80.005	19.993	103.851	20.071	8.058	0.514
260.499	202.890	80.017	19.994	103.846	20.070	8.136	0.503
260.999	203.094	80.015	19.993	103.847	20.070	8.132	0.480
261.499	203.324	79.998	19.995	103.847	20.069	8.171	0.452
261.999	203.597	80.001	19.994	103.845	20.070	8.097	0.468
262.499	203.810	80.006	19.994	103.845	20.069	8.188	0.495
262.999	204.049	80.007	19.994	103.847	20.067	8.310	0.469
263.499	204.344	80.009	19.994	103.845	20.067	8.288	0.493
263.999	204.569	80.004	19.995	103.842	20.069	8.186	0.527
264.499	204.798	80.005	19.995	103.843	20.065	8.497	0.487
264.999	205.064	80.006	19.995	103.843	20.070	8.126	0.474
265.499	205.308	80.004	19.994	103.841	20.064	8.507	0.503
266.000	205.550	80.008	19.994	103.844	20.065	8.429	0.499
266.500	205.824	80.008	19.994	103.849	20.065	8.487	0.501
266.999	206.066	80.008	19.993	103.852	20.067	8.343	0.516
267.499	206.312	80.004	19.996	103.851	20.064	8.535	0.502
267.999	206.556	80.009	19.996	103.855	20.066	8.412	0.489
268.500	206.787	80.003	19.996	103.856	20.065	8.488	0.483
269.000	207.046	80.006	19.997	103.855	20.065	8.475	0.482
269.499	207.319	80.007	19.996	103.857	20.063	8.603	0.511
269.999	207.542	80.003	19.995	103.858	20.064	8.554	0.514
270.499	207.773	80.007	19.995	103.859	20.061	8.779	0.475
270.999	208.034	80.005	19.994	103.855	20.061	8.726	0.473
271.499	208.272	80.008	19.994	103.850	20.062	8.680	0.495
271.999	208.518	80.003	19.996	103.849	20.062	8.705	0.492
272.499	208.726	80.005	19.996	103.850	20.062	8.709	0.469
272.999	209.026	80.011	19.994	103.844	20.062	8.671	0.481
273.499	209.261	80.020	19.992	103.842	20.062	8.669	0.522
273.999	209.518	80.008	19.993	103.845	20.059	8.894	0.513
274.499	209.710	80.000	19.994	103.843	20.062	8.658	0.470
274.999	209.942	80.008	19.996	103.838	20.062	8.716	0.437
275.499	210.202	80.003	19.994	103.839	20.060	8.839	0.458
275.999	210.465	80.017	19.993	103.840	20.061	8.745	0.507
276.499	210.706	80.024	19.994	103.839	20.060	8.821	0.514
276.999	210.927	79.994	19.999	103.838	20.058	8.956	0.483
277.499	211.184	79.999	19.995	103.837	20.058	8.932	0.470
277.999	211.450	80.013	19.995	103.836	20.056	9.132	0.500
278.499	211.707	80.004	19.994	103.843	20.055	9.195	0.523
279.000	211.941	80.001	19.997	103.845	20.053	9.325	0.507
279.500	212.263	80.022	19.991	103.845	20.052	9.399	0.523
279.999	212.450	80.018	19.992	103.858	20.055	9.151	0.532
280.499	212.677	80.007	19.993	103.864	20.052	9.409	0.461
280.999	212.959	80.000	19.996	103.865	20.050	9.524	0.462
281.499	213.170	80.011	19.995	103.865	20.053	9.312	0.502
281.999	213.426	79.991	19.995	103.863	20.051	9.478	0.480
282.500	213.681	80.002	19.994	103.854	20.049	9.644	0.489
283.000	213.947	80.020	19.991	103.845	20.048	9.671	0.516
283.500	214.269	80.008	19.994	103.840	20.050	9.568	0.554
283.999	214.450	80.006	19.993	103.834	20.048	9.704	0.545
284.499	214.713	80.003	19.995	103.833	20.047	9.737	0.474
284.999	214.925	80.006	19.994	103.838	20.044	9.947	0.460
285.499	215.200	80.008	19.994	103.845	20.045	9.912	0.482
285.999	215.470	80.014	19.993	103.852	20.043	10.023	0.516
286.500	215.697	80.009	19.992	103.855	20.041	10.224	0.520
287.000	215.982	80.014	19.994	103.855	20.043	10.040	0.504
287.499	216.190	80.016	19.991	103.850	20.045	9.903	0.502
287.999	216.411	80.003	19.994	103.852	20.041	10.199	0.462
288.499	216.688	80.017	19.992	103.849	20.042	10.117	0.464
288.999	216.932	80.004	19.995	103.851	20.035	10.593	0.509
289.499	217.225	80.013	19.991	103.853	20.036	10.553	0.529
289.999	217.466	80.008	19.993	103.861	20.039	10.312	0.535
290.499	217.707	80.008	19.993	103.858	20.038	10.380	0.508
290.999	217.966	80.009	19.991	103.860	20.037	10.499	0.491
291.499	218.194	80.003	19.995	103.860	20.033	10.799	0.494
291.999	218.461	80.003	19.994	103.857	20.034	10.690	0.491
292.500	218.706	80.001	19.993	103.849	20.037	10.491	0.504
293.000	218.970	80.000	19.994	103.845	20.035	10.635	0.510
293.500	219.228	80.007	19.993	103.839	20.031	10.918	0.515
294.000	219.470	80.010	19.993	103.839	20.034	10.688	0.511
294.499	219.713	80.010	19.993	103.846	20.035	10.652	0.492
294.999	219.961	80.015	19.992	103.853	20.028	11.127	0.488
295.499	220.238	80.024	19.989	103.859	20.031	10.900	0.508
296.000	220.523	80.019	19.993	103.865	20.030	10.964	0.543
296.500	220.700	80.013	19.992	103.865	20.028	11.144	0.512
297.000	220.958	79.999	19.995	103.863	20.033	10.784	0.449
297.499	221.212	80.013	19.992	103.856	20.027	11.191	0.473
297.999	221.476	80.014	19.994	103.856	20.032	10.862	0.515
298.499	221.705	80.015	19.992	103.853	20.030	11.014	0.506
298.999	222.000	79.995	19.994	103.857	20.030	10.965	0.509
299.499	222.239	80.011	19.992	103.860	20.030	10.952	0.530
300.000	222.446	80.007	19.994	103.862	20.028	11.107	0.490
300.500	222.777	80.002	19.992	103.854	20.030	10.964	0.492
300.999	223.027	80.000	19.992	103.852	20.030	11.005	0.559
301.500	223.267	80.031	19.991	103.850	20.031	10.928	0.535
302.000	223.502	80.015	19.992	103.849	20.028	11.136	0.483
302.500	223.771	80.010	19.993	103.851	20.027	11.173	0.490
302.999	223.987	80.013	19.992	103.858	20.026	11.231	0.494
303.499	224.267	80.012	19.992	103.863	20.026	11.278	0.490
303.999	224.477	80.003	19.995	103.858	20.021	11.616	0.493
304.499	224.764	80.007	19.993	103.852	20.031	10.904	0.494
304.999	224.987	80.005	19.994	103.853	20.026	11.246	0.504
305.499	225.236	80.005	19.994	103.849	20.025	11.338	0.491
305.999	225.526	80.001	19.992	103.842	20.028	11.147	0.506
306.499	225.758	80.008	19.993	103.849	20.026	11.288	0.530
306.999	225.987	80.004	19.994	103.856	20.023	11.513	0.491
307.500	226.313	80.002	19.995	103.855	20.023	11.461	0.508
308.000	226.573	80.010	19.993	103.856	20.024	11.429	0.571
308.499	226.749	80.014	19.993	103.858	20.023	11.461	0.511
308.999	226.990	79.998	19.995	103.852	20.021	11.621	0.426
309.499	227.267	80.010	19.993	103.849	20.022	11.547	0.468
309.999	227.497	80.008	19.994	103.853	20.024	11.433	0.512
310.499	227.787	80.010	19.993	103.852	20.021	11.619	0.514
310.999	228.055	80.006	19.994	103.858	20.023	11.506	0.539
311.499	228.288	80.005	19.994	103.856	20.016	11.953	0.529
311.999	228.610	80.007	19.993	103.856	20.018	11.814	0.528
312.499	228.814	80.005	19.994	103.851	20.021	11.657	0.541
312.999	229.078	80.002	19.993	103.854	20.021	11.653	0.497
313.499	229.325	80.009	19.993	103.851	20.021	11.619	0.489
313.999	229.613	80.003	19.995	103.851	20.020	11.669	0.523
314.499	229.884	80.004	19.995	103.848	20.018	11.838	0.547
314.999	230.153	80.015	19.992	103.847	20.018	11.834	0.550
315.499	230.376	80.011	19.993	103.845	20.020	11.683	0.516
315.999	230.647	80.002	19.994	103.841	20.021	11.630	0.492
316.500	230.894	80.008	19.994	103.844	20.017	11.878	0.506
317.000	231.175	80.001	19.995	103.846	20.021	11.626	0.524
317.499	231.380	80.003	19.993	103.850	20.017	11.932	0.507
317.999	231.690	79.996	19.994	103.853	20.017	11.928	0.500
318.499	231.903	80.013	19.993	103.860	20.014	12.120	0.518
318.999	232.128	80.015	19.993	103.856	20.012	12.257	0.480
319.499	232.370	80.009	19.993	103.855	20.015	12.086	0.453
319.999	232.666	79.997	19.993	103.854	20.017	11.920	0.503
320.499	232.872	80.008	19.992	103.854	20.015	12.059	0.520
320.999	233.201	80.008	19.991	103.854	20.017	11.878	0.518
321.499	233.409	80.007	19.993	103.857	20.017	11.921	0.536
322.000	233.644	80.007	19.993	103.856	20.019	11.800	0.490
322.500	233.897	80.007	19.991	103.852	20.014	12.104	0.466
323.000	234.164	80.003	19.993	103.848	20.015	12.069	0.504
323.499	234.400	80.007	19.992	103.842	20.017	11.912	0.511
323.999	234.670	80.010	19.992	103.840	20.015	12.049	0.504
324.499	234.944	80.009	19.993	103.841	20.017	11.899	0.525
324.999	235.178	79.999	19.994	103.847	20.018	11.813	0.526
325.499	235.424	80.001	19.993	103.850	20.015	12.029	0.494
325.999	235.687	79.999	19.992	103.854	20.015	12.075	0.494
326.500	235.857	80.001	19.993	103.853	20.017	11.934	0.471
327.000	236.175	80.010	19.994	103.852	20.013	12.233	0.461
327.499	236.457	80.007	19.993	103.848	20.011	12.308	0.544
327.999	236.679	80.015	19.996	103.850	20.014	12.122	0.552
328.499	236.914	79.979	19.998	103.852	20.013	12.171	0.481
328.999	237.208	80.012	19.993	103.851	20.009	12.472	0.493
329.499	237.475	80.009	19.996	103.858	20.011	12.312	0.545
330.000	237.689	80.009	19.994	103.857	20.010	12.388	0.521
330.500	237.933	80.006	19.994	103.853	20.012	12.292	0.470
330.999	238.188	80.005	19.994	103.852	20.008	12.594	0.478
331.500	238.457	79.997	19.994	103.853	20.009	12.514	0.512
332.000	238.691	80.011	19.993	103.847	20.010	12.428	0.514
332.500	238.919	80.010	19.992	103.847	20.009	12.483	0.482
333.000	239.166	80.000	19.996	103.845	20.012	12.287	0.468
333.499	239.400	79.992	19.994	103.840	20.006	12.695	0.478
333.999	239.707	80.015	19.993	103.837	20.007	12.631	0.511
334.499	239.908	80.000	19.994	103.837	20.007	12.622	0.525
334.999	240.165	79.996	19.994	103.836	20.007	12.611	0.483
335.499	240.461	79.998	19.994	103.837	20.007	12.621	0.506
335.999	240.701	80.012	19.994	103.839	20.006	12.679	0.544
336.499	240.951	79.998	19.995	103.843	20.005	12.781	0.513
336.999	241.203	80.015	19.993	103.842	20.010	12.442	0.496
337.499	241.437	79.997	19.995	103.841	20.007	12.617	0.494
337.999	241.694	80.005	19.995	103.838	20.004	12.826	0.488
338.500	241.968	80.011	19.993	103.841	20.002	12.959	0.511
339.000	242.230	80.005	19.996	103.840	20.005	12.759	0.534
339.500	242.472	80.022	19.993	103.838	20.006	12.729	0.520
340.000	242.709	80.001	19.994	103.838	20.003	12.938	0.491
340.500	242.960	80.007	19.994	103.841	20.003	12.885	0.484
340.999	243.250	80.012	19.993	103.840	20.001	13.073	0.515
341.499	243.436	80.003	19.994	103.839	20.002	13.020	0.508
341.999	243.701	80.006	19.994	103.842	19.997	13.326	0.464
342.499	243.947	80.010	19.996	103.845	19.999	13.200	0.482
342.999	244.166	80.004	19.995	103.849	19.998	13.270	0.488
343.499	244.445	80.005	19.994	103.847	20.001	13.077	0.481
343.999	244.662	80.003	19.994	103.849	20.000	13.124	0.497
344.500	244.937	80.018	19.991	103.851	19.999	13.185	0.494
345.000	245.157	79.993	19.996	103.855	19.996	13.395	0.494
345.499	245.402	80.016	19.993	103.853	19.996	13.410	0.480
345.999	245.693	80.006	19.994	103.858	19.998	13.304	0.501
346.499	245.941	80.005	19.995	103.857	19.990	13.856	0.537
346.999	246.199	80.008	19.994	103.855	19.994	13.539	0.522
347.499	246.413	80.010	19.993	103.851	19.994	13.531	0.489
347.999	246.710	80.007	19.995	103.853	19.992	13.700	0.491
348.499	246.903	80.007	19.994	103.853	19.990	13.823	0.501
348.999	247.163	79.993	19.993	103.855	19.995	13.473	0.472
349.500	247.417	79.995	19.994	103.855	19.994	13.601	0.483
350.000	247.666	80.019	19.992	103.850	19.989	13.953	0.509
350.499	247.911	80.010	19.993	103.844	19.990	13.847	0.499
350.999	248.155	80.019	19.993	103.838	19.989	13.933	0.491
351.499	248.441	80.005	19.992	103.837	19.989	13.924	0.509
351.999	248.654	80.007	19.993	103.840	19.990	13.849	0.514
352.499	248.862	79.999	19.994	103.844	19.985	14.191	0.460
352.999	249.142	80.025	19.992	103.844	19.987	14.042	0.455
353.499	249.372	80.015	19.993	103.844	19.987	14.046	0.500
353.999	249.663	80.007	19.992	103.839	19.985	14.198	0.516
354.499	249.931	80.015	19.993	103.841	19.989	13.940	0.540
354.999	250.169	80.019	19.992	103.841	19.985	14.211	0.532
355.499	250.445	80.021	19.994	103.848	19.982	14.397	0.510
356.000	250.661	80.012	19.995	103.855	19.982	14.449	0.503
356.500	250.909	80.010	19.993	103.861	19.981	14.469	0.478
357.000	251.128	80.008	19.993	103.861	19.980	14.553	0.466
357.500	251.417	80.012	19.993	103.862	19.982	14.436	0.487
358.000	251.696	80.019	19.990	103.860	19.981	14.528	0.538
358.499	251.892	80.018	19.991	103.862	19.980	14.544	0.522
358.999	252.101	79.998	19.996	103.865	19.979	14.610	0.440
359.499	252.389	80.015	19.993	103.865	19.978	14.737	0.451
359.999	252.651	80.015	19.993	103.867	19.977	14.779	0.523
360.499	252.827	80.002	19.993	103.870	19.975	14.943	0.494
361.000	253.074	80.017	19.993	103.867	19.976	14.880	0.431
361.500	253.320	80.001	19.995	103.866	19.976	14.841	0.458
361.999	253.572	80.002	19.995	103.866	19.974	15.015	0.496
362.499	253.837	80.009	19.994	103.858	19.973	15.089	0.508
362.999	254.095	80.004	19.994	103.854	19.973	15.057	0.520
363.499	254.360	80.005	19.994	103.850	19.971	15.198	0.523
363.999	254.594	80.011	19.991	103.846	19.974	15.014	0.511
364.499	254.820	80.010	19.994	103.850	19.973	15.102	0.479
365.000	255.076	79.996	19.996	103.857	19.970	15.292	0.471
365.500	255.303	80.001	19.993	103.860	19.970	15.298	0.482
365.999	255.538	80.008	19.995	103.865	19.970	15.261	0.472
366.499	255.780	79.999	19.995	103.868	19.969	15.335	0.469
366.999	256.064	79.998	19.995	103.865	19.968	15.446	0.501
367.499	256.296	79.995	19.995	103.867	19.966	15.612	0.521
367.999	256.562	80.001	19.995	103.867	19.965	15.681	0.507
368.499	256.816	80.008	19.994	103.865	19.966	15.544	0.509
368.999	257.056	80.000	19.995	103.866	19.963	15.823	0.507
369.499	257.288	80.003	19.995	103.867	19.961	15.915	0.483
369.999	257.505	80.007	19.994	103.867	19.961	15.912	0.461
370.499	257.797	80.006	19.994	103.868	19.959	16.104	0.479
370.999	258.018	79.997	19.995	103.869	19.958	16.154	0.511
371.499	258.267	80.012	19.994	103.868	19.957	16.213	0.491
371.999	258.513	80.019	19.993	103.868	19.957	16.215	0.482
372.499	258.778	80.003	19.995	103.869	19.954	16.457	0.503
372.999	259.003	80.006	19.995	103.867	19.955	16.341	0.501
373.500	259.285	79.991	19.993	103.866	19.957	16.252	0.499
374.000	259.502	80.000	19.995	103.870	19.950	16.695	0.504
374.499	259.755	80.014	19.993	103.870	19.955	16.380	0.485
374.999	260.014	80.010	19.993	103.871	19.950	16.712	0.491
375.499	260.288	80.018	19.994	103.873	19.949	16.788	0.522
376.000	260.522	80.015	19.993	103.875	19.949	16.798	0.520
376.500	260.729	80.010	19.993	103.872	19.947	16.982	0.475
376.999	260.993	80.008	19.994	103.872	19.945	17.058	0.456
377.500	261.255	80.000	19.993	103.872	19.943	17.255	0.498
378.000	261.490	80.020	19.994	103.870	19.943	17.230	0.512
378.500	261.723	80.000	19.994	103.870	19.942	17.326	0.482
379.000	261.980	80.008	19.993	103.868	19.938	17.616	0.479
379.499	262.189	79.996	19.994	103.870	19.940	17.455	0.478
379.999	262.494	80.015	19.993	103.868	19.936	17.753	0.490
380.499	262.716	80.021	19.991	103.868	19.936	17.729	0.521
380.999	262.925	80.002	19.994	103.870	19.934	17.899	0.479
381.499	263.230	80.025	19.991	103.874	19.935	17.812	0.472
381.999	263.435	80.001	19.993	103.879	19.933	17.958	0.512
382.499	263.724	80.025	19.992	103.879	19.930	18.133	0.503
382.999	263.930	80.010	19.993	103.881	19.930	18.183	0.495
383.499	264.230	80.012	19.991	103.877	19.927	18.418	0.500
383.999	264.414	80.009	19.991	103.876	19.927	18.393	0.494
384.499	264.680	80.008	19.991	103.871	19.925	18.539	0.467
384.999	264.915	80.010	19.992	103.873	19.925	18.530	0.476
385.499	265.197	80.006	19.992	103.876	19.924	18.616	0.509
386.000	265.414	80.015	19.992	103.881	19.921	18.784	0.508
386.500	265.645	80.006	19.993	103.882	19.920	18.871	0.473
386.999	265.917	80.009	19.992	103.880	19.921	18.820	0.476
387.499	266.161	80.008	19.994	103.880	19.918	19.020	0.510
388.000	266.401	80.002	19.996	103.880	19.920	18.918	0.500
388.500	266.665	80.012	19.993	103.885	19.914	19.290	0.494
388.999	266.932	80.007	19.994	103.888	19.915	19.245	0.518
389.499	267.148	80.018	19.992	103.890	19.916	19.193	0.507
390.000	267.419	80.008	19.992	103.891	19.914	19.344	0.485
390.500	267.648	80.011	19.994	103.890	19.912	19.439	0.494
390.999	267.910	80.017	19.993	103.884	19.909	19.662	0.496
391.499	268.128	80.008	19.995	103.881	19.910	19.606	0.485
391.999	268.422	80.006	19.993	103.879	19.910	19.621	0.496
392.499	268.633	80.003	19.993	103.880	19.910	19.606	0.508
392.999	268.902	80.004	19.994	103.879	19.909	19.704	0.492
393.499	269.136	80.005	19.995	103.882	19.908	19.788	0.492
393.999	269.365	80.003	19.993	103.887	19.905	19.974	0.484
394.499	269.636	80.005	19.994	103.892	19.903	20.109	0.482
394.999	269.857	79.996	19.995	103.895	19.903	20.098	0.496
395.499	270.129	80.009	19.993	103.900	19.900	20.341	0.492
395.999	270.407	80.016	19.993	103.902	19.897	20.525	0.522
396.499	270.617	79.991	19.994	103.901	19.898	20.499	0.519
396.999	270.913	80.016	19.992	103.902	19.898	20.487	0.497
397.499	271.123	79.997	19.993	103.898	19.897	20.558	0.506
397.999	271.426	80.006	19.994	103.893	19.891	20.997	0.510
398.499	271.652	80.004	19.994	103.886	19.888	21.177	0.521
398.999	271.879	80.000	19.995	103.885	19.891	20.963	0.491
399.499	272.157	80.001	19.992	103.885	19.889	21.126	0.479
399.999	272.414	80.007	19.993	103.888	19.888	21.213	0.520
400.500	272.648	80.002	19.993	103.888	19.886	21.314	0.513
401.000	272.842	79.991	19.996	103.890	19.887	21.240	0.459
401.500	273.101	80.000	19.993	103.886	19.884	21.514	0.440
401.999	273.394	80.005	19.993	103.887	19.881	21.719	0.503
402.499	273.647	80.004	19.992	103.891	19.880	21.746	0.549
402.999	273.857	80.004	19.993	103.897	19.883	21.562	0.504
403.499	274.084	80.005	19.995	103.899	19.882	21.657	0.450
403.999	274.380	80.007	19.993	103.903	19.879	21.851	0.480
404.500	274.613	80.014	19.993	103.903	19.875	22.141	0.526
405.000	274.845	79.999	19.993	103.904	19.877	21.986	0.497
405.499	275.118	80.008	19.993	103.902	19.874	22.194	0.485
405.999	275.350	80.001	19.994	103.904	19.869	22.528	0.505
406.499	275.603	80.006	19.994	103.906	19.869	22.542	0.495
407.000	275.838	80.003	19.994	103.907	19.868	22.646	0.487
407.500	276.087	80.007	19.994	103.905	19.864	22.903	0.486
407.999	276.360	80.007	19.994	103.905	19.862	23.060	0.503
408.499	276.606	80.002	19.994	103.905	19.858	23.317	0.520
408.999	276.809	80.006	19.993	103.905	19.856	23.494	0.484
409.499	277.080	80.006	19.992	103.905	19.857	23.416	0.462
409.999	277.347	80.006	19.992	103.906	19.856	23.507	0.506
410.499	277.547	80.016	19.992	103.908	19.855	23.598	0.502
410.999	277.858	80.004	19.993	103.909	19.852	23.802	0.489
411.499	278.056	80.006	19.993	103.909	19.849	23.969	0.510
411.999	278.293	80.003	19.993	103.907	19.851	23.831	0.472
412.499	278.543	79.997	19.994	103.907	19.849	24.010	0.462
413.000	278.807	80.001	19.994	103.905	19.848	24.103	0.501
413.500	279.050	79.999	19.994	103.903	19.845	24.318	0.510
414.000	279.348	80.012	19.993	103.904	19.842	24.494	0.524
414.499	279.587	80.006	19.991	103.908	19.839	24.707	0.539
414.999	279.819	80.008	19.994	103.911	19.840	24.671	0.504
415.499	280.062	80.000	19.995	103.912	19.839	24.702	0.473
415.999	280.338	80.005	19.992	103.911	19.833	25.180	0.497
416.499	280.567	80.003	19.994	103.920	19.834	25.108	0.511
416.999	280.820	80.032	19.990	103.916	19.834	25.108	0.493
417.499	281.063	80.033	19.991	103.919	19.827	25.570	0.490
417.999	281.317	80.014	19.995	103.922	19.828	25.493	0.497
418.499	281.579	80.002	19.994	103.924	19.825	25.690	0.506
418.999	281.854	80.001	19.994	103.915	19.826	25.630	0.526
419.499	282.084	80.009	19.993	103.920	19.822	25.944	0.521
419.999	282.379	80.001	19.993	103.915	19.822	25.940	0.515
420.499	282.611	80.004	19.994	103.915	19.816	26.370	0.526
420.999	282.844	80.018	19.990	103.918	19.818	26.234	0.496
421.500	283.043	80.007	19.994	103.923	19.815	26.458	0.449
422.000	283.337	80.009	19.993	103.917	19.813	26.571	0.462
422.499	283.567	80.006	19.994	103.917	19.812	26.628	0.508
422.999	283.829	79.991	19.993	103.916	19.808	26.931	0.508
423.499	284.061	80.005	19.995	103.917	19.810	26.775	0.493
423.999	284.340	80.004	19.996	103.915	19.807	27.009	0.502
424.499	284.572	80.000	19.995	103.922	19.806	27.084	0.511
425.000	284.820	80.009	19.994	103.923	19.806	27.102	0.496
425.500	285.107	80.010	19.994	103.919	19.806	27.108	0.507
425.999	285.331	80.015	19.993	103.917	19.799	27.618	0.523
426.499	285.587	79.999	19.995	103.914	19.798	27.680	0.496
426.999	285.855	80.008	19.992	103.907	19.794	27.957	0.502
427.500	286.079	80.009	19.994	103.908	19.795	27.878	0.508
428.000	286.346	80.000	19.994	103.910	19.794	27.928	0.492
428.499	286.599	80.005	19.994	103.911	19.792	28.095	0.506
428.999	286.854	80.007	19.992	103.908	19.792	28.084	0.514
429.499	287.152	80.011	19.991	103.911	19.786	28.514	0.531
429.999	287.365	79.985	19.995	103.916	19.787	28.457	0.532
430.499	287.601	80.006	19.994	103.919	19.782	28.804	0.480
430.999	287.886	80.023	19.993	103.924	19.784	28.655	0.485
431.499	288.132	79.996	19.994	103.931	19.778	29.116	0.526
431.999	288.378	80.002	19.992	103.933	19.781	28.918	0.512
432.499	288.628	80.011	19.993	103.930	19.778	29.131	0.494
432.999	288.866	80.007	19.993	103.927	19.773	29.438	0.492
433.499	289.160	80.008	19.994	103.923	19.774	29.364	0.510
433.999	289.399	80.006	19.994	103.921	19.774	29.383	0.532
434.499	289.662	79.998	19.994	103.924	19.770	29.712	0.518
434.999	289.849	80.023	19.991	103.926	19.769	29.765	0.476
435.499	290.147	80.006	19.992	103.930	19.769	29.786	0.467
435.999	290.398	79.998	19.993	103.936	19.766	29.977	0.517
436.499	290.643	79.994	19.994	103.938	19.763	30.157	0.522
436.999	290.921	80.001	19.994	103.935	19.763	30.211	0.510
437.499	291.165	80.005	19.995	103.931	19.763	30.165	0.522
437.999	291.408	80.008	19.992	103.926	19.761	30.356	0.504
438.499	291.694	80.011	19.993	103.925	19.757	30.639	0.508
438.999	291.936	80.000	19.994	103.927	19.756	30.688	0.529
439.499	292.185	80.007	19.994	103.930	19.755	30.757	0.509
439.999	292.456	80.001	19.994	103.934	19.752	30.982	0.506
440.499	292.682	80.013	19.991	103.938	19.751	31.033	0.509
440.999	292.942	80.007	19.994	103.937	19.749	31.197	0.491
441.499	293.221	80.003	19.994	103.932	19.746	31.439	0.512
441.999	293.425	80.009	19.995	103.932	19.745	31.517	0.511
442.499	293.691	79.998	19.994	103.928	19.741	31.746	0.476
443.000	293.971	80.004	19.994	103.928	19.741	31.751	0.508
443.500	294.244	80.019	19.991	103.926	19.739	31.910	0.550
444.000	294.453	80.008	19.993	103.930	19.735	32.173	0.518
444.499	294.675	80.011	19.993	103.927	19.734	32.254	0.457
444.999	294.956	80.003	19.994	103.924	19.735	32.168	0.467
445.499	295.208	80.007	19.994	103.923	19.730	32.542	0.518
446.000	295.474	80.007	19.994	103.926	19.731	32.507	0.526
446.500	295.699	80.007	19.994	103.923	19.729	32.642	0.505
446.999	295.966	80.020	19.990	103.920	19.730	32.552	0.491
447.499	296.258	80.009	19.994	103.926	19.724	32.991	0.525
447.999	296.515	80.014	19.994	103.929	19.723	33.030	0.554
448.499	296.736	80.012	19.992	103.933	19.720	33.259	0.513
448.999	296.994	80.011	19.993	103.938	19.721	33.188	0.479
449.499	297.207	80.006	19.993	103.946	19.718	33.409	0.475
449.999	297.508	80.006	19.995	103.948	19.715	33.619	0.493
450.499	297.749	80.008	19.994	103.948	19.716	33.546	0.528
450.999	298.048	80.013	19.995	103.947	19.716	33.531	0.540
451.499	298.271	80.006	19.994	103.948	19.710	33.967	0.531
451.999	298.529	80.004	19.992	103.948	19.712	33.823	0.502
452.499	298.785	80.010	19.994	103.950	19.712	33.825	0.498
452.999	299.041	80.007	19.993	103.951	19.708	34.161	0.513
453.499	299.249	80.009	19.993	103.950	19.707	34.234	0.488
453.999	299.493	79.997	19.994	103.946	19.705	34.354	0.458
454.499	299.784	80.006	19.994	103.941	19.700	34.684	0.493
454.999	300.022	80.022	19.992	103.938	19.701	34.643	0.532
455.499	300.227	80.005	19.993	103.939	19.698	34.869	0.486
455.999	300.517	80.003	19.995	103.939	19.697	34.955	0.469
456.499	300.757	79.991	19.997	103.939	19.694	35.171	0.513
456.999	301.000	80.007	19.993	103.940	19.693	35.230	0.507
457.499	301.233	80.009	19.993	103.941	19.691	35.334	0.479
457.999	301.522	80.014	19.993	103.942	19.691	35.371	0.499
458.499	301.758	79.996	19.994	103.943	19.687	35.669	0.523
458.999	302.046	80.009	19.994	103.949	19.687	35.637	0.524
459.499	302.282	79.997	19.995	103.955	19.684	35.871	0.524
460.000	302.477	80.002	19.994	103.951	19.684	35.853	0.478
460.500	302.746	80.007	19.994	103.950	19.681	36.076	0.448
460.999	303.027	80.005	19.995	103.948	19.679	36.246	0.507
461.499	303.260	80.012	19.994	103.944	19.676	36.438	0.532
461.999	303.529	80.014	19.993	103.940	19.677	36.383	0.508
462.499	303.711	79.996	19.996	103.943	19.676	36.460	0.477
462.999	304.064	80.007	19.994	103.941	19.668	37.041	0.493
463.499	304.258	79.995	19.995	103.941	19.670	36.911	0.541
464.000	304.516	80.011	19.995	103.939	19.666	37.131	0.500
464.500	304.760	79.999	19.996	103.940	19.666	37.166	0.477
464.999	305.011	80.014	19.995	103.937	19.666	37.199	0.498
465.499	305.268	80.007	19.995	103.940	19.664	37.315	0.501
465.999	305.555	80.009	19.995	103.940	19.661	37.529	0.526
466.499	305.814	80.008	19.995	103.942	19.661	37.548	0.545
466.999	306.059	80.007	19.994	103.942	19.657	37.778	0.525
467.500	306.243	80.004	19.994	103.944	19.659	37.702	0.466
468.000	306.521	80.008	19.994	103.944	19.656	37.905	0.446
468.499	306.751	80.009	19.994	103.945	19.651	38.220	0.485
469.000	307.024	80.006	19.994	103.945	19.648	38.473	0.506
469.500	307.252	80.009	19.994	103.945	19.649	38.416	0.502
469.999	307.521	80.004	19.994	103.945	19.646	38.637	0.499
470.499	307.726	80.001	19.995	103.946	19.644	38.749	0.486
470.999	308.021	80.006	19.995	103.945	19.643	38.850	0.487
471.499	308.264	80.007	19.994	103.945	19.642	38.903	0.518
472.000	308.548	80.004	19.994	103.945	19.637	39.258	0.532
472.500	308.765	80.007	19.994	103.945	19.636	39.291	0.514
472.999	309.009	80.004	19.994	103.944	19.632	39.596	0.482
473.499	309.276	80.007	19.995	103.945	19.632	39.588	0.486
473.999	309.513	80.004	19.994	103.945	19.632	39.604	0.507
474.499	309.785	80.006	19.994	103.946	19.628	39.871	0.507
474.999	310.046	80.002	19.995	103.950	19.626	40.009	0.521
475.499	310.256	79.999	19.994	103.955	19.621	40.377	0.502
475.999	310.533	80.004	19.993	103.953	19.622	40.313	0.479
476.499	310.731	80.004	19.993	103.956	19.619	40.553	0.481
476.999	311.021	80.006	19.992	103.957	19.623	40.266	0.482
477.499	311.252	80.004	19.994	103.954	19.616	40.747	0.505
477.999	311.486	80.003	19.994	103.950	19.616	40.786	0.493
478.499	311.776	80.005	19.994	103.951	19.613	40.968	0.494
478.999	312.053	80.008	19.993	103.950	19.610	41.217	0.545
479.500	312.276	80.005	19.993	103.951	19.608	41.350	0.533
480.000	312.567	80.007	19.993	103.951	19.606	41.467	0.507
480.499	312.835	80.006	19.993	103.950	19.608	41.346	0.536
480.999	313.115	80.007	19.993	103.951	19.606	41.470	0.553
481.500	313.365	80.005	19.992	103.951	19.602	41.755	0.539
482.000	313.592	80.005	19.993	103.949	19.601	41.881	0.504
482.499	313.813	80.007	19.994	103.949	19.601	41.872	0.462
482.999	314.099	80.016	19.993	103.950	19.599	41.973	0.477
483.499	314.356	80.004	19.994	103.950	19.597	42.153	0.525
483.999	314.611	80.004	19.993	103.948	19.592	42.523	0.527
484.499	314.848	80.007	19.992	103.948	19.589	42.694	0.502
484.999	315.081	80.010	19.992	103.948	19.590	42.657	0.481
485.499	315.360	80.007	19.993	103.950	19.588	42.797	0.491
485.999	315.615	80.009	19.993	103.958	19.585	42.985	0.523
486.499	315.882	80.000	19.993	103.963	19.587	42.866	0.528
486.999	316.107	80.000	19.994	103.963	19.582	43.194	0.507
487.499	316.361	80.012	19.993	103.963	19.581	43.301	0.486
487.999	316.601	80.007	19.993	103.963	19.581	43.271	0.487
488.499	316.875	80.008	19.992	103.962	19.578	43.493	0.504
488.999	317.132	80.006	19.995	103.966	19.578	43.486	0.522
489.499	317.351	80.007	19.994	103.972	19.575	43.741	0.504
489.999	317.609	80.006	19.993	103.978	19.573	43.871	0.477
490.499	317.873	80.005	19.994	103.982	19.572	43.909	0.499
490.999	318.117	80.009	19.993	103.981	19.570	44.094	0.515
491.500	318.386	80.004	19.993	103.981	19.565	44.428	0.511
492.000	318.602	80.004	19.993	103.983	19.568	44.232	0.499
492.500	318.859	80.012	19.993	103.981	19.562	44.651	0.479
493.000	319.108	80.003	19.993	103.976	19.560	44.783	0.490
493.499	319.360	80.001	19.994	103.974	19.560	44.774	0.503
493.999	319.630	80.003	19.993	103.973	19.554	45.208	0.511
494.499	319.897	80.003	19.993	103.972	19.554	45.203	0.530
494.999	320.180	80.006	19.994	103.976	19.548	45.687	0.544
495.500	320.418	80.004	19.993	103.979	19.551	45.439	0.535
496.000	320.660	80.006	19.992	103.983	19.545	45.889	0.500
496.499	320.928	80.003	19.993	103.985	19.543	46.067	0.495
496.999	321.194	80.010	19.992	103.985	19.543	46.013	0.522
497.499	321.432	80.008	19.993	103.986	19.539	46.294	0.519
497.999	321.675	80.007	19.993	103.987	19.536	46.528	0.492
498.499	321.971	80.002	19.994	103.986	19.534	46.669	0.510
498.999	322.204	80.007	19.993	103.986	19.532	46.847	0.535
499.499	322.466	80.004	19.994	103.987	19.528	47.112	0.512
499.999	322.760	80.004	19.994	103.985	19.526	47.286	0.525
500.499	322.963	80.006	19.994	103.986	19.526	47.282	0.527
500.999	323.214	80.001	19.994	103.987	19.522	47.524	0.475
501.499	323.492	80.004	19.993	103.988	19.517	47.890	0.491
501.999	323.758	80.006	19.993	103.986	19.513	48.171	0.536
502.499	324.026	80.007	19.994	103.987	19.516	48.020	0.539
502.999	324.290	80.004	19.992	103.988	19.510	48.387	0.533
503.499	324.544	80.004	19.993	103.988	19.509	48.493	0.525
503.999	324.778	80.000	19.995	103.988	19.507	48.659	0.503
504.500	325.027	80.005	19.994	103.986	19.504	48.876	0.486
505.000	325.338	80.013	19.993	103.985	19.498	49.252	0.521
505.500	325.548	80.005	19.995	103.986	19.502	49.022	0.540
506.000	325.805	80.021	19.991	103.990	19.498	49.286	0.494
506.500	326.082	80.008	19.993	103.997	19.491	49.759	0.501
506.999	326.328	80.000	19.994	104.000	19.492	49.696	0.528
507.499	326.600	80.003	19.994	104.000	19.489	49.905	0.520
507.999	326.848	80.006	19.995	104.001	19.488	50.009	0.519
508.499	327.089	80.005	19.994	104.000	19.486	50.152	0.505
508.999	327.338	80.003	19.993	103.993	19.486	50.132	0.490
509.500	327.604	80.005	19.993	103.997	19.479	50.638	0.503
510.000	327.815	79.997	19.995	103.997	19.475	50.916	0.495
510.499	328.083	80.002	19.994	103.993	19.473	51.090	0.478
510.999	328.339	80.011	19.993	103.991	19.470	51.322	0.502
511.499	328.577	80.000	19.994	103.997	19.469	51.395	0.509
511.999	328.863	80.004	19.993	103.998	19.466	51.606	0.509
512.499	329.096	80.006	19.993	104.006	19.461	51.954	0.522
512.999	329.372	80.012	19.992	104.013	19.457	52.214	0.514
513.499	329.617	80.003	19.993	104.020	19.455	52.360	0.515
513.999	329.870	80.004	19.993	104.018	19.450	52.754	0.509
514.500	330.156	80.006	19.994	104.022	19.452	52.586	0.518
515.000	330.425	80.008	19.992	104.022	19.450	52.775	0.547
515.499	330.659	80.009	19.992	104.025	19.446	53.057	0.530
515.999	330.900	80.001	19.993	104.024	19.445	53.091	0.489
516.499	331.158	80.007	19.993	104.026	19.441	53.379	0.487
516.999	331.447	80.008	19.992	104.026	19.439	53.513	0.523
517.500	331.642	80.006	19.994	104.026	19.434	53.872	0.516
518.000	331.953	80.008	19.993	104.026	19.433	54.001	0.495
518.499	332.202	80.007	19.992	104.025	19.430	54.204	0.533
518.999	332.451	80.008	19.994	104.028	19.425	54.557	0.529
519.499	332.720	80.002	19.993	104.029	19.420	54.905	0.509
519.999	333.000	80.011	19.993	104.028	19.417	55.111	0.534
520.499	333.216	80.009	19.993	104.028	19.413	55.402	0.522
520.999	333.470	80.009	19.993	104.029	19.411	55.534	0.483
521.499	333.750	80.003	19.993	104.028	19.409	55.710	0.502
521.999	333.999	80.013	19.992	104.028	19.400	56.347	0.531
522.499	334.287	80.014	19.992	104.029	19.402	56.237	0.533
522.999	334.529	80.026	19.991	104.033	19.395	56.722	0.534
523.499	334.847	80.007	19.992	104.035	19.393	56.867	0.545
523.999	335.024	80.012	19.993	104.037	19.389	57.150	0.527
524.499	335.284	80.015	19.992	104.039	19.386	57.384	0.467
524.999	335.491	80.006	19.994	104.043	19.386	57.333	0.452
525.499	335.812	80.006	19.994	104.041	19.379	57.890	0.497
525.999	336.041	80.003	19.993	104.043	19.380	57.787	0.539
526.499	336.269	79.999	19.995	104.046	19.374	58.232	0.504
527.000	336.549	80.008	19.993	104.044	19.369	58.606	0.483
527.500	336.806	80.010	19.991	104.042	19.364	58.939	0.523
527.999	337.030	79.998	19.995	104.044	19.364	58.934	0.509
528.499	337.294	79.996	19.997	104.041	19.362	59.106	0.484
528.999	337.600	80.004	19.994	104.036	19.359	59.334	0.529
529.500	337.870	80.007	19.993	104.040	19.350	59.956	0.573
530.000	338.097	80.008	19.995	104.043	19.349	60.002	0.537
530.499	338.375	80.017	19.992	104.041	19.345	60.349	0.501
530.999	338.597	80.016	19.994	104.042	19.341	60.613	0.503
531.499	338.859	79.999	19.995	104.047	19.338	60.805	0.493
531.999	339.137	80.005	19.993	104.048	19.335	61.067	0.512
532.499	339.389	80.015	19.992	104.048	19.330	61.389	0.535
532.999	339.634	80.001	19.995	104.054	19.327	61.580	0.513
533.499	339.900	80.022	19.992	104.057	19.321	62.054	0.504
533.999	340.156	80.010	19.995	104.063	19.321	62.072	0.517
534.499	340.386	79.999	19.994	104.063	19.317	62.361	0.504
535.000	340.634	80.014	19.993	104.064	19.315	62.505	0.482
535.500	340.893	80.019	19.992	104.066	19.308	62.992	0.492
535.999	341.125	79.995	19.994	104.069	19.306	63.116	0.499
536.499	341.383	80.022	19.991	104.067	19.298	63.738	0.491
536.999	341.666	79.999	19.994	104.072	19.302	63.398	0.516
537.499	341.870	80.001	19.994	104.071	19.299	63.622	0.514
538.000	342.141	79.988	19.995	104.068	19.294	64.022	0.480
538.500	342.416	80.002	19.994	104.067	19.290	64.318	0.510
539.000	342.661	80.011	19.992	104.068	19.285	64.611	0.533
539.500	342.874	80.001	19.995	104.064	19.284	64.736	0.489
539.999	343.135	80.002	19.994	104.065	19.280	65.022	0.466
540.499	343.354	80.002	19.995	104.066	19.273	65.485	0.477
540.999	343.621	80.017	19.994	104.063	19.270	65.701	0.483
541.500	343.831	79.996	19.995	104.064	19.268	65.877	0.481
542.000	344.134	80.010	19.994	104.063	19.264	66.141	0.495
542.499	344.343	80.018	19.992	104.063	19.260	66.461	0.513
542.999	344.646	80.013	19.993	104.064	19.256	66.714	0.512
543.500	344.894	80.005	19.993	104.066	19.251	67.073	0.531
544.000	345.121	80.010	19.993	104.067	19.249	67.263	0.513
544.499	345.346	80.017	19.993	104.060	19.244	67.611	0.464
544.999	345.593	80.014	19.994	104.058	19.241	67.812	0.462
545.499	345.833	80.000	19.996	104.058	19.242	67.706	0.479
545.999	346.081	80.021	19.992	104.058	19.240	67.903	0.487
546.499	346.368	79.991	19.997	104.058	19.233	68.355	0.512
546.999	346.591	80.001	19.993	104.066	19.233	68.401	0.523
547.499	346.867	80.013	19.995	104.077	19.232	68.448	0.504
548.000	347.076	80.016	19.992	104.084	19.228	68.723	0.492
548.500	347.337	80.013	19.992	104.085	19.224	69.012	0.477
548.999	347.603	80.021	19.995	104.086	19.222	69.173	0.499
549.500	347.842	80.010	19.996	104.087	19.216	69.620	0.516
550.000	348.086	80.017	19.993	104.079	19.213	69.788	0.494
550.499	348.286	79.993	19.993	104.070	19.214	69.760	0.464
550.999	348.558	80.010	19.993	104.076	19.211	69.965	0.458
551.499	348.811	80.006	19.994	104.076	19.210	70.034	0.498
551.999	349.007	79.996	19.995	104.074	19.208	70.162	0.487
552.499	349.374	80.013	19.991	104.074	19.207	70.274	0.506
552.999	349.585	80.014	19.992	104.078	19.204	70.445	0.570
553.499	349.812	80.007	19.993	104.073	19.201	70.654	0.508
553.999	350.057	80.006	19.994	104.069	19.196	71.038	0.455
554.500	350.279	79.988	19.995	104.070	19.197	70.944	0.470
555.000	350.534	79.996	19.995	104.073	19.193	71.227	0.472
555.499	350.781	80.003	19.995	104.069	19.193	71.283	0.489
555.999	351.080	80.012	19.992	104.067	19.191	71.361	0.525
556.499	351.255	80.009	19.995	104.070	19.192	71.332	0.510
556.999	351.526	80.001	19.995	104.075	19.191	71.367	0.459
557.499	351.751	80.018	19.992	104.072	19.187	71.687	0.471
557.999	352.041	80.004	19.994	104.075	19.190	71.449	0.506
558.499	352.235	79.980	19.996	104.074	19.185	71.841	0.499
558.999	352.487	79.980	19.996	104.069	19.186	71.774	0.465
559.499	352.757	80.008	19.994	104.055	19.183	71.969	0.484
559.999	353.054	80.011	19.995	104.052	19.184	71.894	0.545
560.499	353.313	80.001	19.995	104.050	19.183	71.922	0.562
560.999	353.559	80.003	19.996	104.053	19.182	72.044	0.530
561.499	353.826	80.009	19.993	104.052	19.178	72.336	0.508
561.999	354.002	80.006	19.994	104.062	19.180	72.191	0.478
562.499	354.270	79.999	19.995	104.066	19.182	72.031	0.444
563.000	354.519	80.012	19.993	104.067	19.181	72.108	0.481
563.500	354.757	80.005	19.994	104.074	19.179	72.234	0.502
564.000	354.988	80.008	19.997	104.079	19.183	71.925	0.478
564.499	355.266	80.016	19.995	104.074	19.182	72.032	0.489
564.999	355.531	80.012	19.994	104.071	19.183	71.929	0.526
565.499	355.763	80.011	19.994	104.071	19.183	71.906	0.520
566.000	356.028	80.012	19.993	104.059	19.185	71.809	0.497
566.500	356.260	80.010	19.994	104.055	19.186	71.706	0.497
567.000	356.498	80.006	19.993	104.057	19.186	71.733	0.484
567.499	356.758	79.996	19.995	104.060	19.187	71.650	0.484
567.999	356.962	79.999	19.997	104.059	19.189	71.504	0.481
568.499	357.226	80.002	19.995	104.061	19.193	71.185	0.466
569.000	357.500	80.005	19.995	104.057	19.193	71.182	0.503
569.500	357.730	80.011	19.995	104.053	19.198	70.854	0.521
569.999	357.951	80.014	19.993	104.047	19.199	70.761	0.478
570.500	358.215	80.000	19.994	104.040	19.201	70.588	0.468
571.000	358.457	79.996	19.997	104.034	19.206	70.259	0.495
571.499	358.672	80.013	19.992	104.029	19.206	70.280	0.481
571.999	358.929	80.017	19.993	104.026	19.213	69.751	0.464
572.500	359.218	80.010	19.995	104.026	19.214	69.664	0.509
573.000	359.451	80.006	19.993	104.026	19.222	69.080	0.535
573.500	359.695	80.007	19.994	104.028	19.219	69.295	0.500
573.999	359.938	80.003	19.995	104.028	19.227	68.702	0.482
574.499	360.174	80.016	19.992	104.024	19.229	68.559	0.483
574.999	360.428	80.013	19.992	104.019	19.235	68.116	0.484
575.499	360.663	79.989	19.993	104.011	19.240	67.805	0.489
575.999	360.929	80.025	19.990	104.005	19.248	67.225	0.495
576.499	361.152	80.005	19.996	104.006	19.253	66.806	0.495
576.999	361.418	80.007	19.993	103.998	19.259	66.384	0.489
577.500	361.656	80.014	19.994	103.994	19.266	65.905	0.497
578.000	361.908	80.016	19.993	103.993	19.268	65.773	0.497
578.500	362.143	80.013	19.991	103.993	19.277	65.118	0.489
579.000	362.384	80.012	19.993	103.987	19.285	64.519	0.482
579.499	362.626	80.014	19.994	103.988	19.288	64.331	0.479
579.999	362.870	80.006	19.994	103.982	19.301	63.373	0.484
580.499	363.135	80.007	19.993	103.975	19.306	63.025	0.498
580.999	363.368	80.007	19.993	103.970	19.315	62.388	0.504
581.499	363.622	80.009	19.993	103.964	19.323	61.803	0.493
582.000	363.847	80.006	19.993	103.960	19.324	61.719	0.483
582.500	364.076	80.004	19.992	103.957	19.337	60.774	0.467
583.000	364.355	80.011	19.992	103.957	19.343	60.305	0.481
583.499	364.594	80.018	19.992	103.955	19.352	59.649	0.512
583.999	364.856	79.996	19.993	103.951	19.360	59.078	0.509
584.499	365.096	79.998	19.992	103.941	19.366	58.701	0.502
584.999	365.365	80.006	19.993	103.937	19.374	58.111	0.506
585.499	365.575	80.004	19.993	103.930	19.386	57.267	0.494
585.999	365.827	80.000	19.994	103.920	19.394	56.691	0.470
586.500	366.071	80.019	19.992	103.912	19.403	55.975	0.479
587.000	366.312	80.015	19.993	103.914	19.414	55.185	0.491
587.500	366.541	79.995	19.996	103.911	19.423	54.568	0.478
588.000	366.788	80.019	19.991	103.906	19.432	53.905	0.473
588.500	367.051	80.000	19.994	103.906	19.442	53.194	0.493
588.999	367.322	80.018	19.991	103.903	19.451	52.523	0.522
589.499	367.559	79.994	19.995	103.897	19.462	51.791	0.521
590.000	367.812	79.985	19.995	103.890	19.474	50.912	0.499
590.500	368.046	79.994	19.995	103.885	19.485	50.127	0.488
590.999	368.300	80.003	19.994	103.873	19.491	49.656	0.488
591.499	368.573	80.005	19.993	103.870	19.502	48.919	0.508
592.000	368.829	80.005	19.994	103.862	19.514	48.028	0.528
592.500	369.055	80.001	19.993	103.856	19.524	47.331	0.506
593.000	369.333	79.996	19.995	103.852	19.532	46.760	0.493
593.500	369.564	80.007	19.993	103.848	19.545	45.827	0.506
594.000	369.833	80.011	19.996	103.843	19.555	45.092	0.505
594.499	370.108	80.020	19.995	103.838	19.568	44.169	0.522
595.000	370.340	80.018	19.991	103.834	19.576	43.568	0.525
595.500	370.585	80.007	19.995	103.833	19.588	42.699	0.492
595.999	370.795	80.003	19.994	103.830	19.595	42.193	0.466
596.499	371.076	80.012	19.993	103.825	19.608	41.278	0.473
596.999	371.304	80.007	19.995	103.824	19.619	40.462	0.500
597.499	371.566	80.020	19.993	103.823	19.630	39.717	0.500
598.000	371.810	80.018	19.993	103.820	19.638	39.118	0.498
598.500	372.079	80.010	19.995	103.821	19.650	38.268	0.509
598.999	372.340	80.001	19.994	103.821	19.658	37.700	0.522
599.500	372.576	80.007	19.994	103.819	19.669	36.885	0.514
600.000	372.829	80.008	19.994	103.816	19.677	36.293	0.493
600.499	373.087	80.008	19.993	103.809	19.685	35.738	0.500
600.999	373.343	80.009	19.994	103.801	19.701	34.573	0.512
601.499	373.600	80.012	19.992	103.798	19.710	33.918	0.513
602.000	373.853	80.003	19.992	103.798	19.717	33.422	0.511
602.500	374.126	80.011	19.991	103.795	19.724	32.965	0.518
602.999	374.344	80.003	19.994	103.797	19.738	31.969	0.509
603.499	374.605	80.013	19.993	103.799	19.745	31.464	0.485
603.999	374.863	80.007	19.994	103.798	19.752	30.965	0.499
604.499	375.120	80.013	19.993	103.793	19.760	30.360	0.517
604.999	375.369	79.996	19.995	103.793	19.765	29.973	0.510
605.499	375.610	80.016	19.992	103.790	19.774	29.363	0.498
605.999	375.799	80.005	19.994	103.792	19.781	28.842	0.460
606.499	376.084	80.012	19.993	103.789	19.788	28.312	0.452
606.999	376.358	79.991	19.996	103.790	19.795	27.853	0.517
607.500	376.614	79.995	19.996	103.785	19.801	27.413	0.545
608.000	376.846	80.004	19.996	103.783	19.810	26.756	0.509
608.499	377.125	80.024	19.990	103.778	19.817	26.269	0.499
608.999	377.360	80.004	19.994	103.782	19.823	25.815	0.512
609.499	377.636	80.019	19.994	103.782	19.833	25.146	0.513
610.000	377.852	80.018	19.993	103.786	19.836	24.882	0.502
610.500	378.129	80.011	19.993	103.787	19.844	24.326	0.493
611.000	378.379	79.996	19.994	103.788	19.846	24.175	0.510
611.500	378.652	80.019	19.992	103.783	19.853	23.690	0.525
612.000	378.913	80.001	19.993	103.784	19.858	23.334	0.528
612.500	379.165	80.001	19.993	103.783	19.864	22.917	0.524
612.999	379.424	80.005	19.993	103.785	19.868	22.633	0.512
613.500	379.637	79.997	19.996	103.786	19.870	22.428	0.492
614.000	379.933	79.985	19.994	103.785	19.875	22.116	0.491
614.499	380.163	79.991	19.996	103.782	19.881	21.688	0.517
615.000	380.436	80.000	19.995	103.780	19.885	21.413	0.514
615.500	380.716	80.009	19.994	103.778	19.888	21.141	0.528
615.999	380.959	79.999	19.994	103.776	19.894	20.723	0.538
616.499	381.189	80.003	19.995	103.776	19.894	20.730	0.498
616.999	381.427	80.009	19.992	103.774	19.900	20.331	0.471
617.499	381.685	79.996	19.995	103.778	19.903	20.057	0.483
617.999	381.966	80.002	19.993	103.775	19.905	19.971	0.518
618.499	382.227	80.003	19.993	103.779	19.906	19.894	0.540
618.999	382.464	80.008	19.993	103.782	19.911	19.530	0.520
619.499	382.743	80.021	19.993	103.780	19.913	19.336	0.507
619.999	382.992	80.007	19.993	103.777	19.919	18.944	0.522
620.499	383.232	80.007	19.992	103.783	19.918	18.993	0.508
620.999	383.505	80.004	19.994	103.783	19.924	18.616	0.500
621.499	383.760	80.001	19.994	103.778	19.924	18.556	0.520
621.999	384.037	80.004	19.994	103.780	19.925	18.501	0.530
622.499	384.278	80.001	19.995	103.778	19.927	18.378	0.525
622.999	384.520	80.010	19.993	103.776	19.929	18.217	0.500
623.500	384.778	80.001	19.996	103.774	19.930	18.172	0.491
624.000	385.061	80.006	19.994	103.772	19.937	17.656	0.521
624.499	385.291	80.018	19.992	103.773	19.937	17.659	0.527
624.999	385.592	80.006	19.994	103.778	19.937	17.642	0.522
625.499	385.847	80.010	19.993	103.779	19.937	17.644	0.544
625.999	386.060	80.012	19.995	103.781	19.940	17.455	0.512
626.499	386.336	80.016	19.994	103.786	19.939	17.471	0.478
626.999	386.572	80.000	19.993	103.789	19.942	17.255	0.501
627.499	386.828	80.006	19.995	103.787	19.944	17.170	0.502
627.999	387.080	80.014	19.995	103.787	19.944	17.142	0.500
628.499	387.316	80.003	19.996	103.786	19.946	16.984	0.498
629.000	387.623	80.013	19.993	103.783	19.948	16.828	0.516
629.500	387.875	80.013	19.994	103.780	19.950	16.738	0.551
629.999	388.140	80.017	19.993	103.777	19.947	16.950	0.538
630.499	388.386	80.014	19.993	103.778	19.948	16.827	0.514
631.000	388.626	80.003	19.993	103.779	19.948	16.831	0.499
631.500	388.933	80.005	19.994	103.780	19.955	16.388	0.517
631.999	389.168	80.009	19.994	103.781	19.953	16.521	0.545
632.499	389.426	80.016	19.992	103.785	19.955	16.355	0.517
633.000	389.671	80.007	19.992	103.784	19.954	16.424	0.497
633.500	389.911	80.013	19.994	103.776	19.959	16.100	0.494
633.999	390.214	80.002	19.995	103.773	19.959	16.064	0.515
634.499	390.464	80.004	19.993	103.769	19.960	16.009	0.548
634.999	390.705	80.001	19.996	103.762	19.958	16.115	0.521
635.499	390.963	80.011	19.992	103.754	19.959	16.046	0.495
635.999	391.189	80.009	19.995	103.755	19.960	16.028	0.492
636.499	391.488	79.999	19.995	103.758	19.959	16.093	0.505
636.999	391.712	80.013	19.993	103.764	19.962	15.826	0.524
637.499	391.950	80.004	19.995	103.774	19.962	15.877	0.492
637.999	392.217	80.010	19.993	103.782	19.961	15.893	0.483
638.499	392.499	80.007	19.996	103.785	19.963	15.773	0.527
638.999	392.740	80.002	19.995	103.787	19.965	15.623	0.536
639.499	392.981	80.007	19.996	103.784	19.964	15.702	0.503
639.999	393.238	80.012	19.993	103.777	19.964	15.712	0.490
640.499	393.534	80.003	19.993	103.775	19.966	15.573	0.525
640.999	393.745	80.007	19.994	103.772	19.968	15.407	0.530
641.499	394.064	80.012	19.993	103.773	19.965	15.637	0.519
641.999	394.300	80.005	19.993	103.773	19.970	15.300	0.542
642.499	394.548	80.007	19.993	103.773	19.970	15.258	0.519
642.999	394.828	80.012	19.993	103.777	19.968	15.445	0.506
643.499	395.078	80.008	19.992	103.779	19.964	15.704	0.529
643.999	395.308	80.000	19.994	103.781	19.965	15.600	0.505
644.499	395.591	80.017	19.992	103.785	19.968	15.456	0.496
644.999	395.842	80.000	19.995	103.790	19.971	15.215	0.523
645.499	396.083	80.011	19.993	103.787	19.969	15.384	0.513
645.999	396.371	79.997	19.995	103.792	19.971	15.189	0.511
646.499	396.580	80.005	19.996	103.789	19.969	15.323	0.513
646.999	396.845	79.995	19.994	103.785	19.968	15.412	0.485
647.499	397.132	80.012	19.993	103.778	19.972	15.147	0.513
647.999	397.361	80.013	19.993	103.773	19.971	15.190	0.534
648.499	397.636	80.009	19.995	103.769	19.973	15.084	0.510
648.999	397.870	79.994	19.996	103.772	19.971	15.197	0.506
649.499	398.159	79.998	19.993	103.769	19.971	15.231	0.516
649.999	398.373	80.002	19.994	103.771	19.970	15.293	0.513
650.499	398.643	80.005	19.992	103.778	19.972	15.117	0.494
650.999	398.889	80.010	19.994	103.777	19.970	15.274	0.500
651.499	399.151	80.005	19.995	103.774	19.973	15.071	0.512
651.999	399.405	79.997	19.995	103.777	19.974	14.992	0.512
652.500	399.669	80.004	19.993	103.770	19.973	15.080	0.517
653.000	399.906	80.009	19.996	103.765	19.975	14.935	0.509
653.499	400.171	79.991	19.997	103.763	19.975	14.893	0.502
653.999	400.435	79.998	19.996	103.757	19.976	14.851	0.515
654.499	400.691	79.999	19.997	103.753	19.970	15.245	0.524
654.999	400.920	80.009	19.994	103.759	19.972	15.141	0.503
655.499	401.143	80.010	19.993	103.765	19.970	15.284	0.468
656.000	401.413	80.020	19.993	103.773	19.974	15.013	0.472
656.500	401.666	80.012	19.995	103.784	19.975	14.916	0.508
657.000	401.923	80.004	19.997	103.786	19.974	15.014	0.517
657.499	402.155	79.993	19.995	103.781	19.970	15.296	0.500
657.999	402.454	80.008	19.995	103.773	19.973	15.074	0.510
658.499	402.665	80.017	19.994	103.768	19.975	14.916	0.521
658.999	402.921	80.009	19.995	103.764	19.974	14.966	0.489
659.499	403.204	80.011	19.993	103.764	19.974	14.984	0.503
659.999	403.447	80.017	19.993	103.770	19.973	15.071	0.532
660.499	403.740	79.998	19.995	103.775	19.977	14.771	0.531
660.999	403.954	80.000	19.996	103.777	19.972	15.110	0.522
661.499	404.275	80.009	19.995	103.774	19.973	15.028	0.521
662.000	404.426	80.003	19.995	103.781	19.974	14.993	0.503
662.500	404.693	80.002	19.997	103.781	19.975	14.923	0.445
663.000	404.942	80.006	19.995	103.776	19.977	14.794	0.467
663.499	405.162	80.004	19.995	103.775	19.975	14.898	0.492
663.999	405.403	79.997	19.996	103.773	19.976	14.860	0.465
664.499	405.666	79.995	19.995	103.763	19.975	14.923	0.482
664.999	405.934	79.988	19.996	103.757	19.976	14.847	0.518
665.500	406.153	80.013	19.994	103.756	19.977	14.771	0.510
666.000	406.450	80.011	19.994	103.752	19.975	14.928	0.502
666.500	406.688	80.011	19.993	103.752	19.976	14.840	0.525
666.999	406.953	80.006	19.994	103.757	19.978	14.673	0.519
667.499	407.222	80.002	19.991	103.762	19.977	14.806	0.519
667.999	407.438	80.017	19.994	103.765	19.977	14.778	0.509
668.499	407.658	80.002	19.995	103.765	19.978	14.716	0.461
668.999	407.911	80.002	19.995	103.762	19.977	14.738	0.454
669.499	408.185	80.002	19.995	103.761	19.976	14.818	0.499
669.999	408.459	80.027	19.993	103.757	19.975	14.944	0.538
670.500	408.651	80.006	19.994	103.756	19.975	14.918	0.508
671.000	408.853	80.008	19.993	103.755	19.976	14.838	0.430
671.500	409.117	80.010	19.994	103.757	19.981	14.477	0.429
671.999	409.395	80.009	19.993	103.755	19.978	14.715	0.504
672.499	409.592	80.007	19.993	103.755	19.978	14.676	0.509
672.999	409.903	80.015	19.991	103.754	19.976	14.812	0.492
673.499	410.122	80.004	19.996	103.757	19.983	14.377	0.520
673.999	410.353	80.003	19.993	103.756	19.977	14.776	0.490
674.499	410.616	80.024	19.994	103.757	19.979	14.616	0.472
674.999	410.837	80.010	19.992	103.756	19.985	14.204	0.489
675.500	411.109	80.015	19.993	103.758	19.980	14.540	0.489
676.000	411.328	80.016	19.991	103.758	19.978	14.692	0.492
676.499	411.624	80.010	19.994	103.763	19.980	14.563	0.503
676.999	411.803	80.007	19.992	103.762	19.981	14.493	0.495
677.499	412.105	79.999	19.994	103.763	19.984	14.298	0.478
678.000	412.297	80.015	19.992	103.761	19.984	14.308	0.487
678.500	412.561	80.008	19.994	103.760	19.981	14.516	0.475
678.999	412.842	80.005	19.994	103.757	19.982	14.408	0.500
679.499	413.063	80.006	19.993	103.760	19.983	14.376	0.524
679.999	413.279	80.007	19.994	103.760	19.981	14.463	0.470
680.499	413.515	80.008	19.993	103.762	19.984	14.297	0.445
680.999	413.726	80.007	19.993	103.763	19.984	14.298	0.449
681.499	413.983	80.006	19.994	103.764	19.984	14.263	0.457
681.999	414.202	80.010	19.994	103.761	19.985	14.206	0.472
682.499	414.461	80.000	19.996	103.767	19.985	14.212	0.477
682.999	414.720	80.007	19.993	103.765	19.984	14.274	0.498
683.499	414.928	80.008	19.995	103.763	19.983	14.358	0.493
684.000	415.204	79.998	19.991	103.761	19.987	14.061	0.476
684.500	415.451	80.011	19.993	103.764	19.985	14.223	0.503
684.999	415.678	80.002	19.994	103.756	19.983	14.367	0.498
685.499	415.938	80.012	19.993	103.756	19.986	14.121	0.481
686.000	416.181	80.008	19.993	103.757	19.985	14.186	0.495
686.500	416.428	80.006	19.993	103.759	19.985	14.204	0.497
686.999	416.699	80.004	19.992	103.758	19.987	14.057	0.504
687.499	416.912	80.020	19.992	103.765	19.986	14.098	0.501
687.999	417.117	79.996	19.996	103.770	19.987	14.028	0.451
688.499	417.400	80.006	19.993	103.775	19.984	14.290	0.453
688.999	417.646	80.012	19.993	103.779	19.983	14.366	0.508
689.499	417.864	80.003	19.996	103.779	19.985	14.216	0.497
689.999	418.123	80.001	19.995	103.775	19.987	14.024	0.470
690.499	418.383	80.014	19.993	103.772	19.985	14.235	0.498
690.999	418.577	80.008	19.995	103.769	19.986	14.161	0.487
691.499	418.869	80.009	19.995	103.765	19.985	14.210	0.470
691.999	419.114	80.006	19.994	103.763	19.984	14.284	0.511
692.499	419.318	80.009	19.993	103.760	19.986	14.162	0.493
692.999	419.582	80.007	19.995	103.758	19.985	14.197	0.459
693.499	419.858	79.995	19.995	103.759	19.984	14.286	0.504
693.999	420.108	79.999	19.996	103.757	19.986	14.145	0.533
694.499	420.320	80.009	19.994	103.757	19.986	14.157	0.494
695.000	420.597	80.005	19.995	103.757	19.987	14.025	0.475
695.500	420.806	80.006	19.994	103.756	19.986	14.128	0.487
695.999	421.078	80.011	19.993	103.751	19.986	14.137	0.483
696.499	421.320	80.002	19.994	103.753	19.984	14.250	0.497
696.999	421.537	80.007	19.993	103.754	19.984	14.246	0.486
697.499	421.777	80.008	19.995	103.756	19.986	14.138	0.458
697.999	422.046	80.009	19.994	103.757	19.985	14.235	0.483
698.499	422.283	80.010	19.992	103.758	19.987	14.079	0.507
698.999	422.490	79.996	19.995	103.759	19.986	14.128	0.475
699.499	422.762	80.009	19.992	103.761	19.987	14.058	0.462
699.999	423.014	80.008	19.994	103.760	19.987	14.023	0.502
700.500	423.248	80.007	19.993	103.764	19.987	14.034	0.505
701.000	423.515	80.010	19.993	103.769	19.985	14.221	0.494
701.499	423.735	80.009	19.992	103.774	19.987	14.026	0.494
701.999	423.989	80.005	19.994	103.776	19.987	14.077	0.481
702.499	424.195	80.007	19.994	103.774	19.989	13.934	0.467
702.999	424.449	80.004	19.993	103.774	19.990	13.846	0.460
703.499	424.699	80.013	19.992	103.767	19.985	14.167	0.482
703.999	424.929	80.012	19.992	103.762	19.989	13.907	0.492
704.499	425.178	80.005	19.994	103.758	19.989	13.927	0.480
704.999	425.448	80.017	19.993	103.759	19.987	14.054	0.499
705.499	425.706	80.011	19.992	103.758	19.989	13.922	0.523
706.000	425.928	80.010	19.992	103.762	19.987	14.022	0.504
706.500	426.170	80.004	19.994	103.763	19.989	13.928	0.472
706.999	426.408	79.997	19.994	103.766	19.984	14.272	0.472
707.500	426.676	80.008	19.993	103.766	19.988	13.972	0.493
708.000	426.919	80.004	19.995	103.764	19.989	13.903	0.509
708.499	427.190	80.027	19.990	103.765	19.988	13.974	0.512
708.999	427.420	80.005	19.993	103.772	19.988	13.997	0.507
709.499	427.641	80.012	19.993	103.776	19.987	14.057	0.476
710.000	427.898	80.011	19.993	103.777	19.988	14.000	0.465
710.500	428.139	80.001	19.992	103.776	19.987	14.025	0.488
710.999	428.387	80.005	19.993	103.778	19.988	14.012	0.493
711.500	428.653	80.005	19.993	103.771	19.987	14.084	0.502
712.000	428.907	80.009	19.995	103.767	19.989	13.914	0.517
712.500	429.127	80.007	19.993	103.771	19.988	13.953	0.497
712.999	429.387	80.009	19.994	103.773	19.989	13.938	0.477
713.499	429.617	80.009	19.992	103.772	19.990	13.856	0.485
713.999	429.875	80.009	19.993	103.773	19.989	13.908	0.489
714.499	430.119	80.009	19.992	103.776	19.990	13.845	0.496
714.999	430.379	80.008	19.992	103.774	19.990	13.837	0.503
715.499	430.645	80.007	19.994	103.775	19.989	13.934	0.515
715.999	430.866	80.007	19.994	103.776	19.995	13.506	0.506
716.499	431.141	80.005	19.994	103.773	19.990	13.851	0.491
716.999	431.389	80.010	19.993	103.770	19.990	13.806	0.510
717.499	431.627	80.004	19.995	103.771	19.992	13.699	0.505
717.999	431.876	80.008	19.993	103.767	19.991	13.736	0.486
718.499	432.156	80.006	19.993	103.766	19.992	13.693	0.508
718.999	432.387	80.004	19.994	103.772	19.996	13.410	0.519
719.499	432.647	80.000	19.994	103.775	19.990	13.828	0.501
719.999	432.893	80.006	19.993	103.772	19.991	13.736	0.499
720.499	433.155	80.006	19.995	103.773	19.991	13.736	0.507
720.999	433.374	79.999	19.994	103.769	19.992	13.685	0.494
721.499	433.677	80.007	19.994	103.761	19.991	13.771	0.501
721.999	433.904	80.008	19.993	103.759	19.995	13.453	0.526
722.499	434.150	80.004	19.993	103.764	19.994	13.521	0.502
723.000	434.403	80.006	19.993	103.764	19.994	13.537	0.486
723.500	434.702	80.009	19.993	103.767	19.994	13.566	0.525
723.999	434.927	80.009	19.994	103.772	19.993	13.654	0.538
724.499	435.183	80.007	19.994	103.773	19.994	13.578	0.503
725.000	435.432	80.007	19.994	103.768	19.995	13.461	0.493
725.500	435.654	80.004	19.994	103.767	19.996	13.411	0.488
726.000	435.959	80.003	19.995	103.763	19.993	13.642	0.499
726.500	436.214	80.007	19.995	103.758	19.995	13.499	0.543
726.999	436.426	80.008	19.994	103.754	19.994	13.549	0.514
727.500	436.676	80.007	19.995	103.752	19.994	13.568	0.465
728.000	436.936	80.007	19.993	103.750	19.991	13.783	0.486
728.499	437.145	80.006	19.994	103.751	19.993	13.608	0.489
728.999	437.414	80.006	19.994	103.751	19.997	13.331	0.473
729.499	437.624	80.005	19.993	103.752	19.995	13.484	0.479
729.999	437.913	80.007	19.994	103.752	19.997	13.320	0.490
730.499	438.126	80.007	19.994	103.752	19.993	13.641	0.501
730.999	438.347	80.006	19.993	103.752	19.996	13.414	0.468
731.499	438.628	80.005	19.995	103.753	19.994	13.551	0.468
731.999	438.852	80.007	19.995	103.752	19.994	13.541	0.503
732.499	439.107	80.007	19.995	103.754	19.995	13.490	0.492
732.999	439.360	80.008	19.995	103.754	19.995	13.468	0.494
733.499	439.600	80.005	19.994	103.754	19.995	13.484	0.501
733.999	439.824	80.008	19.994	103.754	19.997	13.334	0.478
734.500	440.082	80.005	19.993	103.754	19.994	13.523	0.473
735.000	440.322	80.005	19.994	103.754	19.999	13.191	0.490
735.500	440.562	80.006	19.993	103.757	19.996	13.421	0.489
735.999	440.798	80.006	19.994	103.761	19.995	13.463	0.478
736.499	441.075	80.007	19.994	103.761	19.995	13.502	0.495
737.000	441.274	80.007	19.994	103.762	19.994	13.562	0.495
737.500	441.494	80.006	19.993	103.760	19.995	13.456	0.447
738.000	441.756	80.008	19.995	103.757	19.996	13.395	0.451
738.500	442.014	80.008	19.994	103.752	19.997	13.349	0.501
738.999	442.236	80.007	19.995	103.750	19.994	13.521	0.500
739.499	442.451	80.007	19.993	103.749	19.998	13.257	0.458
740.000	442.717	79.998	19.994	103.751	19.995	13.504	0.459
740.500	442.927	80.008	19.994	103.754	19.994	13.539	0.479
740.999	443.190	80.005	19.996	103.756	19.993	13.621	0.475
741.500	443.415	80.005	19.995	103.758	19.992	13.713	0.480
742.000	443.641	80.007	19.994	103.757	19.993	13.613	0.469
742.499	443.932	80.008	19.993	103.756	19.992	13.701	0.484
742.999	444.117	80.007	19.994	103.754	19.997	13.345	0.496
743.499	444.374	80.006	19.994	103.753	19.993	13.611	0.459
743.999	444.601	80.006	19.994	103.751	19.995	13.513	0.463
744.499	444.879	80.006	19.994	103.752	19.993	13.595	0.495
744.999	445.063	80.008	19.994	103.754	19.993	13.640	0.483
745.500	445.318	80.009	19.994	103.753	19.994	13.537	0.450
746.000	445.565	80.003	19.995	103.756	19.996	13.412	0.471
746.499	445.836	80.005	19.994	103.764	19.992	13.709	0.510
746.999	446.055	80.005	19.993	103.771	19.992	13.686	0.504
747.499	446.298	80.004	19.996	103.770	19.990	13.809	0.476
747.999	446.487	80.006	19.997	103.769	19.991	13.766	0.447
748.500	446.762	80.004	19.996	103.766	19.995	13.468	0.448
749.000	446.938	80.007	19.994	103.759	19.992	13.664	0.457
749.499	447.210	80.006	19.994	103.755	19.995	13.496	0.450
749.999	447.445	80.005	19.995	103.754	19.996	13.406	0.478
750.499	447.682	80.007	19.996	103.754	19.992	13.705	0.490
750.999	447.940	80.005	19.994	103.757	19.993	13.605	0.484
751.500	448.175	80.008	19.995	103.757	19.993	13.646	0.494
752.000	448.453	80.003	19.994	103.754	19.994	13.571	0.503
752.500	448.668	80.006	19.994	103.754	19.994	13.586	0.503
753.000	448.914	80.004	19.996	103.754	19.995	13.456	0.477
753.500	449.167	80.009	19.995	103.752	19.996	13.414	0.480
754.000	449.329	79.999	19.997	103.754	19.997	13.337	0.457
754.499	449.651	80.009	19.994	103.752	19.995	13.478	0.450
754.999	449.867	80.005	19.996	103.752	19.991	13.758	0.511
755.499	450.070	80.005	19.997	103.753	19.998	13.246	0.478
755.999	450.331	80.005	19.995	103.752	19.999	13.181	0.441
756.499	450.594	80.006	19.996	103.753	19.995	13.445	0.494
756.999	450.822	80.006	19.995	103.759	19.999	13.220	0.507
757.499	451.090	80.007	19.995	103.758	19.998	13.289	0.493
757.999	451.325	80.006	19.993	103.759	19.995	13.447	0.500
758.499	451.558	79.995	19.996	103.758	19.996	13.420	0.486
758.999	451.783	80.005	19.996	103.755	19.994	13.579	0.463
759.500	452.043	80.005	19.995	103.750	19.995	13.497	0.471
760.000	452.283	80.007	19.995	103.752	19.995	13.501	0.493
760.499	452.550	80.004	19.994	103.754	19.999	13.184	0.504
760.999	452.784	80.008	19.994	103.757	19.998	13.296	0.504
761.500	452.995	80.007	19.995	103.765	19.998	13.287	0.473
762.000	453.280	80.009	19.996	103.765	19.997	13.373	0.471
762.499	453.488	80.007	19.994	103.764	19.998	13.267	0.494
762.999	453.746	80.003	19.996	103.762	19.998	13.246	0.479
763.500	454.005	80.015	19.995	103.759	19.998	13.239	0.491
764.000	454.220	80.008	19.993	103.752	19.998	13.241	0.496
764.499	454.475	80.004	19.993	103.753	20.001	13.039	0.472
764.999	454.691	80.007	19.994	103.754	19.995	13.471	0.470
765.499	454.976	80.009	19.995	103.753	20.001	13.060	0.486
765.999	455.216	80.007	19.995	103.755	19.996	13.430	0.513
766.500	455.479	80.009	19.994	103.755	19.999	13.172	0.514
767.000	455.737	80.009	19.993	103.755	19.997	13.362	0.512
767.499	455.969	80.012	19.994	103.754	20.000	13.141	0.505
768.000	456.198	80.010	19.993	103.754	20.000	13.100	0.475
768.500	456.482	80.006	19.993	103.754	19.998	13.276	0.487
768.999	456.714	79.996	19.995	103.756	20.001	13.056	0.514
769.499	456.974	80.011	19.993	103.756	19.999	13.172	0.504
769.999	457.192	80.015	19.993	103.760	20.000	13.113	0.485
770.499	457.422	80.004	19.994	103.766	20.001	13.066	0.463
770.999	457.689	80.009	19.994	103.765	19.998	13.257	0.473
771.499	457.931	80.006	19.994	103.764	19.999	13.185	0.503
771.999	458.160	80.009	19.994	103.763	19.996	13.389	0.490
772.499	458.419	80.009	19.995	103.759	19.999	13.209	0.479
772.999	458.661	80.003	19.994	103.754	19.999	13.177	0.495
773.499	458.966	80.009	19.994	103.757	19.999	13.221	0.524
773.999	459.191	80.009	19.993	103.760	19.997	13.361	0.538
774.500	459.426	79.999	19.995	103.761	19.999	13.191	0.495
775.000	459.715	80.001	19.994	103.760	20.001	13.076	0.492
775.499	459.948	79.999	19.994	103.757	19.999	13.205	0.523
775.999	460.180	80.003	19.992	103.755	20.004	12.805	0.493
776.499	460.438	80.003	19.993	103.754	20.001	13.077	0.477
776.999	460.688	80.001	19.992	103.757	19.999	13.173	0.499
777.499	460.950	80.008	19.993	103.759	19.997	13.313	0.510
777.999	461.192	80.009	19.993	103.762	20.001	13.049	0.508
778.500	461.453	80.010	19.991	103.762	20.002	12.981	0.503
779.000	461.710	80.007	19.994	103.762	19.999	13.201	0.511
779.499	461.977	80.007	19.993	103.759	19.999	13.201	0.521
779.999	462.216	80.009	19.994	103.757	20.004	12.810	0.514
780.499	462.445	80.010	19.993	103.756	20.000	13.158	0.487
781.000	462.683	80.005	19.993	103.757	20.000	13.141	0.468
781.500	462.929	80.008	19.993	103.753	19.999	13.201	0.476
782.000	463.183	80.012	19.992	103.753	20.001	13.049	0.493
782.500	463.458	80.015	19.993	103.756	20.003	12.938	0.515
782.999	463.692	80.000	19.994	103.755	20.001	13.025	0.519
783.499	463.955	80.005	19.993	103.755	20.001	13.041	0.503
783.999	464.219	80.010	19.993	103.755	20.001	13.057	0.512
784.500	464.463	80.005	19.993	103.757	20.002	12.987	0.518
785.000	464.708	80.007	19.993	103.756	20.001	13.041	0.499
785.500	464.951	80.008	19.993	103.756	20.000	13.125	0.488
785.999	465.187	80.002	19.994	103.759	20.002	12.996	0.483
786.499	465.407	80.008	19.992	103.760	20.003	12.936	0.467
787.000	465.654	80.006	19.993	103.760	20.006	12.717	0.462
787.500	465.962	80.008	19.992	103.763	20.005	12.733	0.512
787.999	466.192	80.006	19.994	103.765	20.004	12.809	0.547
788.500	466.424	80.008	19.993	103.762	20.005	12.790	0.500
789.000	466.686	80.007	19.993	103.762	20.006	12.670	0.478
789.500	466.914	80.007	19.993	103.760	20.007	12.623	0.492
789.999	467.218	80.008	19.993	103.758	20.007	12.586	0.511
790.500	467.434	80.008	19.994	103.755	20.007	12.627	0.526
791.000	467.695	80.008	19.993	103.755	20.007	12.595	0.499
791.499	467.935	80.008	19.993	103.758	20.006	12.720	0.489
791.999	468.190	80.008	19.993	103.758	20.004	12.837	0.498
792.499	468.435	80.011	19.994	103.758	20.007	12.616	0.497
792.999	468.695	80.010	19.994	103.759	20.007	12.618	0.502
793.499	468.972	80.007	19.993	103.761	20.006	12.695	0.521
793.999	469.205	80.009	19.994	103.759	20.003	12.900	0.523
794.499	469.471	80.011	19.990	103.759	20.003	12.935	0.504
794.999	469.712	80.011	19.995	103.762	20.007	12.607	0.503
795.499	469.945	80.008	19.993	103.761	20.005	12.787	0.490
795.999	470.233	80.013	19.993	103.760	20.004	12.872	0.497
796.499	470.506	80.015	19.992	103.757	20.013	12.190	0.541
796.999	470.714	80.005	19.993	103.760	20.009	12.493	0.521
797.499	471.012	80.015	19.994	103.761	20.001	13.076	0.493
797.999	471.216	80.010	19.993	103.762	20.006	12.702	0.504
798.499	471.484	80.015	19.993	103.764	20.004	12.823	0.488
798.999	471.744	80.008	19.993	103.766	20.004	12.846	0.500
799.499	471.954	80.010	19.993	103.765	20.002	12.971	0.499
799.999	472.252	80.008	19.993	103.761	20.005	12.736	0.489
800.499	472.512	80.006	19.994	103.761	20.004	12.828	0.533
800.999	472.770	80.005	19.993	103.761	20.006	12.661	0.538
801.500	473.079	80.010	19.994	103.758	20.004	12.821	0.542
802.000	473.284	80.008	19.993	103.757	20.002	12.993	0.540
802.499	473.588	80.005	19.992	103.757	20.004	12.860	0.512
802.999	473.880	80.006	19.993	103.756	20.001	13.019	0.553
803.499	474.092	80.006	19.993	103.752	20.002	13.001	0.550
803.999	474.369	80.005	19.993	103.754	20.002	12.988	0.496
804.499	474.648	80.007	19.993	103.754	20.005	12.738	0.522
804.999	474.899	80.007	19.993	103.754	19.999	13.193	0.543
805.499	475.145	80.006	19.993	103.754	20.003	12.941	0.514
806.000	475.416	80.006	19.993	103.756	20.001	13.062	0.507
806.500	475.631	80.007	19.993	103.761	20.000	13.107	0.501
807.000	475.887	80.006	19.992	103.765	20.006	12.692	0.478
807.499	476.132	80.006	19.995	103.765	20.001	13.060	0.486
807.999	476.419	80.008	19.994	103.769	20.004	12.825	0.516
808.500	476.637	80.006	19.996	103.771	20.004	12.850	0.518
809.000	476.840	80.008	19.995	103.769	20.003	12.876	0.463
809.499	477.171	80.006	19.996	103.765	20.003	12.909	0.478
809.999	477.416	80.007	19.994	103.765	20.005	12.727	0.555
810.499	477.663	80.007	19.995	103.762	20.001	13.040	0.534
810.999	477.893	80.007	19.993	103.758	20.004	12.827	0.485
811.499	478.169	80.006	19.995	103.755	20.007	12.610	0.491
811.999	478.452	80.006	19.993	103.753	20.006	12.725	0.532
812.499	478.699	80.008	19.993	103.753	20.005	12.768	0.544
812.999	479.022	80.006	19.994	103.752	20.002	12.958	0.550
813.499	479.208	80.005	19.993	103.752	20.007	12.647	0.540
813.999	479.516	80.008	19.994	103.751	20.002	12.968	0.501
814.499	479.702	80.007	19.993	103.751	20.006	12.722	0.494
814.999	480.048	80.009	19.992	103.753	20.006	12.679	0.513
815.499	480.304	80.007	19.995	103.754	20.009	12.456	0.567
815.999	480.481	80.007	19.993	103.754	20.006	12.659	0.517
816.499	480.780	80.007	19.993	103.756	20.005	12.788	0.454
816.999	481.023	80.008	19.993	103.756	20.005	12.794	0.509
817.499	481.313	80.000	19.995	103.754	20.004	12.870	0.538
817.999	481.486	80.008	19.993	103.752	20.008	12.571	0.498
818.499	481.833	80.007	19.993	103.752	20.006	12.706	0.492
818.999	482.054	80.005	19.995	103.752	20.007	12.640	0.544
819.499	482.273	80.006	19.994	103.750	20.005	12.788	0.504
820.000	482.506	80.006	19.993	103.750	20.007	12.628	0.446
820.500	482.775	80.006	19.993	103.749	20.007	12.632	0.476
820.999	483.033	80.005	19.995	103.750	20.010	12.434	0.514
821.499	483.377	80.006	19.993	103.749	20.005	12.750	0.565
821.999	483.505	80.005	19.993	103.751	20.007	12.586	0.537
822.499	483.792	80.007	19.993	103.751	20.009	12.482	0.444
823.000	484.075	80.007	19.994	103.752	20.010	12.429	0.493
823.500	484.267	80.004	19.995	103.752	20.008	12.545	0.523
823.999	484.510	80.004	19.995	103.753	20.008	12.528	0.455
824.499	484.807	80.008	19.994	103.752	20.009	12.491	0.487
824.999	485.035	80.011	19.993	103.752	20.009	12.485	0.532
825.499	485.302	80.008	19.994	103.753	20.006	12.679	0.510
825.999	485.550	80.005	19.995	103.753	20.009	12.440	0.505
826.499	485.746	80.004	19.993	103.752	20.008	12.575	0.480
826.999	486.022	80.009	19.994	103.753	20.011	12.315	0.458
827.499	486.255	80.006	19.994	103.753	20.011	12.331	0.490
827.999	486.547	80.008	19.995	103.752	20.008	12.567	0.517
828.499	486.747	80.007	19.994	103.752	20.012	12.291	0.509
828.999	487.009	80.005	19.994	103.753	19.998	13.238	0.478
829.499	487.232	80.006	19.994	103.752	20.009	12.484	0.474
829.999	487.491	80.006	19.993	103.752	20.004	12.816	0.483
830.499	487.772	80.006	19.994	103.752	20.001	13.074	0.511
830.999	487.981	80.004	19.994	103.752	20.016	11.949	0.515
831.500	488.228	80.006	19.995	103.752	20.006	12.707	0.473
832.000	488.480	80.007	19.994	103.747	20.003	12.893	0.477
832.499	488.718	80.006	19.993	103.744	20.005	12.785	0.494
832.999	489.022	80.005	19.995	103.744	20.010	12.389	0.516
833.499	489.235	80.003	19.993	103.744	20.011	12.301	0.530
833.999	489.468	80.003	19.994	103.744	20.006	12.715	0.481
834.499	489.811	80.007	19.994	103.749	20.012	12.247	0.511
834.999	489.955	80.002	19.994	103.753	20.011	12.317	0.531
835.499	490.153	80.005	19.994	103.752	20.012	12.295	0.415
835.999	490.426	80.005	19.994	103.752	20.011	12.357	0.407
836.499	490.778	80.007	19.993	103.754	20.010	12.431	0.548
836.999	490.933	80.005	19.994	103.754	20.012	12.261	0.566
837.500	491.198	80.007	19.993	103.754	20.010	12.392	0.463
838.000	491.439	80.007	19.994	103.754	20.008	12.579	0.463
838.500	491.645	80.005	19.993	103.754	20.009	12.449	0.477
838.999	491.946	80.005	19.994	103.753	20.009	12.503	0.477
839.499	492.115	80.006	19.994	103.744	20.011	12.316	0.488
840.000	492.320	80.005	19.994	103.741	20.012	12.256	0.422
840.500	492.630	80.006	19.994	103.742	20.008	12.515	0.445
840.999	492.924	80.007	19.993	103.742	20.008	12.574	0.559
841.499	493.183	80.005	19.994	103.742	20.011	12.310	0.579
841.999	493.703	80.008	19.994	103.751	20.014	12.146	0.666
842.500	493.529	80.005	19.994	103.758	20.011	12.371	0.563
843.000	493.580	80.006	19.993	103.763	20.010	12.388	0.111
843.500	494.625	80.006	19.994	103.763	20.009	12.455	0.486
844.000	494.506	80.007	19.994	103.764	20.009	12.509	1.011
844.500	494.180	80.005	19.994	103.764	20.008	12.585	0.241
845.000	495.136	80.008	19.994	103.759	20.009	12.485	0.093
845.499	495.445	80.006	19.995	103.754	20.009	12.444	0.948
845.999	495.096	80.005	19.994	103.754	20.008	12.562	0.613
846.499	495.686	80.007	19.995	103.747	20.010	12.381	0.100
846.999	495.862	80.005	19.995	103.742	20.013	12.193	0.503
847.499	496.247	80.008	19.994	103.741	20.013	12.171	0.664
847.999	496.276	80.007	19.994	103.741	20.012	12.271	0.487
848.499	496.724	80.007	19.993	103.742	20.013	12.180	0.446
848.999	496.788	80.008	19.993	103.750	20.012	12.296	0.495
849.499	497.192	80.008	19.994	103.758	20.010	12.386	0.490
849.999	497.337	80.005	19.994	103.758	20.011	12.330	0.509
850.499	497.596	80.007	19.994	103.759	20.013	12.193	0.477
851.000	497.926	80.007	19.995	103.768	20.013	12.212	0.496
851.500	498.143	80.008	19.995	103.773	20.009	12.480	0.568
851.999	498.364	80.007	19.995	103.772	20.008	12.533	0.493
852.499	498.613	80.008	19.994	103.774	20.009	12.464	0.454
852.999	498.907	80.004	19.994	103.778	20.010	12.424	0.506
853.499	499.176	80.009	19.994	103.776	20.012	12.237	0.553
854.000	499.383	80.006	19.994	103.775	20.009	12.494	0.520
854.500	499.669	80.009	19.994	103.776	20.008	12.572	0.484
854.999	499.889	80.007	19.995	103.774	20.008	12.558	0.499
855.499	500.154	80.009	19.994	103.771	20.010	12.428	0.496
855.999	500.467	80.009	19.995	103.768	20.005	12.743	0.532
856.499	500.683	80.008	19.995	103.768	20.008	12.527	0.553
856.999	500.978	80.007	19.995	103.773	20.007	12.585	0.520
857.499	501.220	80.006	19.994	103.778	20.009	12.480	0.524
857.999	501.484	80.006	19.995	103.781	20.009	12.467	0.522
858.499	501.744	80.006	19.994	103.777	20.007	12.649	0.515
858.999	501.999	80.006	19.994	103.774	20.009	12.481	0.519
859.499	502.278	80.009	19.995	103.771	20.006	12.690	0.525
859.999	502.599	80.007	19.994	103.771	20.009	12.475	0.568
860.499	502.801	80.007	19.994	103.774	20.005	12.786	0.562
860.999	503.100	80.008	19.993	103.780	20.006	12.690	0.512
861.499	503.333	80.006	19.994	103.776	20.008	12.521	0.516
861.999	503.612	80.010	19.993	103.774	20.005	12.781	0.522
862.499	503.957	80.008	19.994	103.773	20.008	12.565	0.568
863.000	504.141	80.006	19.994	103.773	20.008	12.536	0.576
863.500	504.463	80.007	19.993	103.772	20.011	12.317	0.518
863.999	504.736	80.006	19.994	103.780	20.009	12.477	0.551
864.499	505.039	80.006	19.994	103.790	20.008	12.516	0.585
864.999	505.309	80.006	19.994	103.795	20.009	12.491	0.574
865.499	505.531	80.007	19.993	103.792	20.009	12.440	0.533
865.999	505.843	80.001	19.994	103.787	20.006	12.716	0.513
866.499	506.086	80.010	19.993	103.778	20.009	12.461	0.544
866.999	506.346	80.006	19.992	103.767	20.011	12.358	0.528
867.499	506.655	80.008	19.993	103.756	20.007	12.627	0.536
867.999	506.923	80.007	19.995	103.758	20.008	12.571	0.573
868.499	507.243	80.008	19.994	103.762	20.010	12.417	0.582
868.999	507.505	80.008	19.994	103.768	20.007	12.626	0.585
869.499	507.767	80.006	19.993	103.769	20.007	12.647	0.553
869.999	508.022	80.006	19.994	103.770	20.009	12.505	0.520
870.499	508.298	80.008	19.994	103.769	20.007	12.608	0.524
870.999	508.554	80.008	19.993	103.767	20.007	12.608	0.531
871.499	508.832	80.010	19.993	103.764	20.009	12.487	0.533
871.999	509.154	80.008	19.993	103.762	20.004	12.852	0.567
872.499	509.385	80.009	19.992	103.760	20.008	12.580	0.577
872.999	509.693	80.009	19.994	103.755	20.009	12.496	0.546
873.499	509.951	80.009	19.993	103.751	20.006	12.709	0.553
873.999	510.179	80.010	19.994	103.750	20.009	12.494	0.526
874.500	510.462	80.010	19.993	103.750	20.006	12.669	0.498
875.000	510.757	80.009	19.993	103.751	20.007	12.618	0.544
875.499	510.976	80.009	19.993	103.751	20.005	12.786	0.546
875.999	511.257	80.010	19.993	103.751	20.007	12.585	0.507
876.499	511.568	80.011	19.992	103.751	20.009	12.475	0.546
876.999	511.779	80.011	19.995	103.751	20.007	12.614	0.557
877.499	512.110	80.012	19.993	103.750	20.008	12.579	0.532
877.999	512.344	80.010	19.993	103.750	20.007	12.647	0.553
878.499	512.623	80.008	19.993	103.749	20.005	12.776	0.539
878.999	512.941	80.008	19.994	103.751	20.006	12.710	0.555
879.499	513.172	80.009	19.994	103.752	20.005	12.735	0.573
879.999	513.390	80.008	19.993	103.753	20.004	12.803	0.499
880.500	513.662	80.010	19.994	103.753	20.008	12.583	0.470
881.000	513.968	80.011	19.992	103.754	20.008	12.536	0.534
881.500	514.256	80.010	19.993	103.753	20.005	12.798	0.587
882.000	514.514	80.008	19.994	103.753	20.007	12.594	0.570
882.499	514.799	80.009	19.994	103.751	20.005	12.761	0.544
882.999	514.997	80.009	19.995	103.748	20.004	12.868	0.512
883.499	515.295	80.009	19.995	103.748	20.007	12.610	0.490
883.999	515.584	80.009	19.994	103.747	20.005	12.754	0.542
884.499	515.805	80.008	19.995	103.747	20.006	12.702	0.549
884.999	516.074	80.007	19.994	103.747	20.005	12.774	0.500
885.499	516.362	80.005	19.993	103.749	20.005	12.786	0.523
885.999	516.646	80.005	19.994	103.751	20.007	12.616	0.564
886.499	516.901	80.006	19.993	103.751	20.003	12.923	0.556
886.999	517.177	80.009	19.994	103.750	20.005	12.764	0.535
887.499	517.418	80.006	19.993	103.748	20.003	12.884	0.524
887.999	517.674	80.007	19.994	103.749	20.006	12.656	0.507
888.499	517.946	80.007	19.994	103.749	20.005	12.748	0.513
888.999	518.201	80.005	19.993	103.749	20.007	12.599	0.528
889.500	518.466	80.008	19.993	103.750	20.002	12.975	0.523
890.000	518.753	80.008	19.992	103.753	20.005	12.778	0.536
890.499	518.968	80.005	19.995	103.752	20.008	12.544	0.527
890.999	519.220	80.006	19.994	103.750	20.005	12.727	0.485
891.499	519.485	80.006	19.994	103.750	20.008	12.536	0.492
891.999	519.742	80.006	19.994	103.751	20.004	12.823	0.520
892.499	520.010	80.009	19.993	103.751	20.006	12.679	0.524
892.999	520.223	80.005	19.993	103.751	20.007	12.630	0.503
893.500	520.523	80.006	19.993	103.751	20.005	12.757	0.497
894.000	520.819	80.006	19.993	103.750	20.005	12.759	0.555
894.499	521.045	80.006	19.994	103.748	20.007	12.612	0.559
894.999	521.308	80.007	19.994	103.748	20.003	12.890	0.506
895.499	521.579	80.006	19.994	103.749	20.007	12.634	0.512
895.999	521.822	80.005	19.992	103.749	20.004	12.860	0.524
896.499	522.065	80.004	19.994	103.750	20.007	12.627	0.500
896.999	522.312	80.007	19.994	103.752	20.007	12.616	0.488
897.499	522.556	80.004	19.993	103.751	20.006	12.704	0.490
897.999	522.806	80.006	19.994	103.747	20.004	12.835	0.493
898.499	523.071	80.007	19.993	103.741	20.004	12.808	0.505
898.999	523.326	80.007	19.993	103.741	20.007	12.632	0.518
899.499	523.568	80.007	19.993	103.742	20.006	12.675	0.508
899.999	523.827	80.008	19.992	103.743	20.008	12.550	0.499
900.500	524.110	80.007	19.994	103.748	20.007	12.632	0.521
901.000	524.316	80.006	19.994	103.753	20.008	12.536	0.516
901.499	524.592	80.006	19.993	103.752	20.008	12.514	0.486
901.999	524.831	80.008	19.995	103.752	20.008	12.583	0.499
902.499	525.092	80.006	19.993	103.752	20.009	12.442	0.507
902.999	525.342	80.007	19.994	103.752	20.008	12.558	0.505
903.499	525.605	80.007	19.992	103.752	20.008	12.534	0.512
903.999	525.840	80.007	19.993	103.753	20.011	12.335	0.506
904.499	526.074	80.007	19.993	103.753	20.011	12.345	0.483
904.999	526.342	80.006	19.993	103.753	20.009	12.470	0.485
905.499	526.569	80.007	19.994	103.754	20.010	12.394	0.499
905.999	526.791	80.008	19.994	103.753	20.008	12.570	0.472
906.500	527.077	80.006	19.993	103.752	20.008	12.525	0.479
907.000	527.304	80.009	19.991	103.750	20.007	12.591	0.511
907.499	527.565	80.007	19.993	103.749	20.010	12.425	0.500
907.999	527.822	80.007	19.993	103.748	20.008	12.568	0.503
908.499	528.089	80.006	19.994	103.748	20.009	12.486	0.521
908.999	528.305	80.008	19.992	103.750	20.009	12.500	0.503
909.500	528.589	80.005	19.993	103.752	20.007	12.637	0.491
910.000	528.807	80.007	19.992	103.754	20.007	12.590	0.501
910.499	529.080	80.007	19.993	103.754	20.009	12.480	0.497
910.999	529.347	80.005	19.994	103.753	20.008	12.560	0.515
911.499	529.581	80.007	19.993	103.753	20.008	12.523	0.520
911.999	529.863	80.006	19.994	103.752	20.007	12.621	0.509
912.499	530.073	80.007	19.993	103.752	20.007	12.624	0.504
912.999	530.324	80.007	19.993	103.752	20.002	12.958	0.476
913.499	530.568	80.006	19.993	103.752	20.004	12.814	0.478
913.999	530.835	80.006	19.995	103.753	20.005	12.753	0.503
914.499	531.063	80.005	19.994	103.753	20.007	12.651	0.503
914.999	531.349	80.005	19.993	103.755	20.005	12.790	0.505
915.499	531.607	80.007	19.993	103.755	20.006	12.694	0.529
916.000	531.852	80.006	19.994	103.756	20.002	12.987	0.523
916.500	532.088	80.007	19.994	103.757	20.006	12.656	0.492
916.999	532.362	80.005	19.994	103.758	20.007	12.605	0.495
917.499	532.614	80.004	19.995	103.757	20.002	12.968	0.518
917.999	532.830	80.004	19.993	103.758	20.006	12.692	0.497
918.499	533.144	80.005	19.994	103.760	20.004	12.843	0.499
918.999	533.387	80.006	19.994	103.760	20.004	12.819	0.543
919.499	533.612	80.006	19.994	103.761	20.003	12.886	0.513
919.999	533.868	80.004	19.994	103.763	20.002	12.985	0.475
920.499	534.163	80.006	19.994	103.762	20.005	12.761	0.516
920.999	534.371	80.006	19.993	103.763	20.003	12.923	0.526
921.499	534.656	80.005	19.994	103.762	20.005	12.753	0.498
922.000	534.924	80.003	19.994	103.760	20.003	12.878	0.523
922.500	535.204	80.005	19.994	103.758	20.004	12.846	0.550
922.999	535.428	80.006	19.995	103.757	20.004	12.827	0.526
923.499	535.732	80.005	19.994	103.755	20.003	12.893	0.516
923.999	535.971	80.005	19.995	103.755	20.002	13.012	0.535
924.499	536.183	80.005	19.995	103.754	20.002	12.981	0.497
925.000	536.486	80.006	19.995	103.753	20.005	12.758	0.483
925.500	536.732	80.007	19.994	103.752	20.005	12.798	0.532
925.999	537.009	80.005	19.995	103.753	20.003	12.903	0.536
926.499	537.258	80.005	19.994	103.753	20.003	12.919	0.524
926.999	537.513	80.006	19.994	103.752	20.002	12.962	0.515
927.499	537.800	80.005	19.995	103.755	20.001	13.032	0.523
927.999	538.029	80.006	19.996	103.756	20.002	12.965	0.529
928.499	538.296	80.007	19.995	103.755	20.004	12.805	0.506
928.999	538.600	80.007	19.996	103.753	20.001	13.059	0.534
929.500	538.837	80.007	19.995	103.754	20.002	12.969	0.556
930.000	539.143	80.006	19.995	103.752	20.004	12.862	0.542
930.499	539.411	80.008	19.994	103.752	20.003	12.932	0.559
930.999	539.588	80.009	19.995	103.751	20.003	12.878	0.509
931.499	539.908	80.008	19.995	103.751	20.007	12.600	0.471
931.999	540.173	80.009	19.994	103.750	20.005	12.733	0.541
932.500	540.404	80.006	19.994	103.750	20.002	12.946	0.541
933.000	540.672	80.010	19.994	103.749	20.004	12.836	0.497
933.499	540.969	80.009	19.993	103.750	20.006	12.716	0.532
933.999	541.200	80.005	19.995	103.749	20.004	12.816	0.546
934.499	541.450	80.010	19.993	103.749	20.005	12.744	0.504
934.999	541.745	80.010	19.993	103.749	20.006	12.695	0.513
935.499	541.982	80.007	19.994	103.749	20.005	12.766	0.539
935.999	542.303	80.009	19.994	103.749	20.003	12.934	0.545
936.499	542.505	80.007	19.994	103.750	20.004	12.839	0.540
936.999	542.806	80.010	19.993	103.749	20.002	12.969	0.513
937.499	543.074	80.008	19.993	103.750	20.003	12.875	0.536
937.999	543.315	80.009	19.994	103.749	20.004	12.822	0.539
938.499	543.558	80.009	19.994	103.748	20.001	13.071	0.496
938.999	543.815	80.008	19.995	103.748	20.001	13.045	0.492
939.499	544.081	80.010	19.995	103.747	20.003	12.905	0.511
939.999	544.349	80.008	19.993	103.747	20.003	12.889	0.529
940.499	544.637	80.007	19.994	103.748	20.001	13.073	0.545
941.000	544.869	80.008	19.994	103.748	20.000	13.109	0.538
941.500	545.100	80.009	19.993	103.748	20.002	12.986	0.492
941.999	545.412	80.006	19.995	103.749	20.006	12.693	0.503
942.500	545.663	80.007	19.994	103.749	20.002	12.959	0.553
943.000	545.931	80.008	19.993	103.749	20.004	12.852	0.541
943.499	546.174	80.007	19.996	103.753	20.004	12.832	0.515
943.999	546.451	80.007	19.994	103.758	20.003	12.928	0.515
944.500	546.707	80.010	19.994	103.758	20.002	12.981	0.526
945.000	546.957	80.009	19.993	103.758	20.006	12.719	0.520
945.499	547.269	80.007	19.995	103.758	20.005	12.751	0.534
945.999	547.549	80.007	19.995	103.755	20.005	12.776	0.576
946.499	547.815	80.006	19.995	103.749	20.001	13.040	0.569
946.999	548.029	80.006	19.995	103.749	20.004	12.829	0.513
947.499	548.294	80.008	19.994	103.749	20.001	13.038	0.480
947.999	548.545	80.008	19.995	103.748	20.004	12.858	0.498
948.499	548.837	80.008	19.994	103.744	20.002	12.970	0.529
948.999	549.057	80.007	19.994	103.739	20.001	13.081	0.527
949.499	549.314	80.007	19.994	103.733	20.000	13.112	0.495
949.999	549.580	80.007	19.995	103.731	20.000	13.153	0.501
950.499	549.835	80.006	19.995	103.730	20.001	13.040	0.522
950.999	550.127	80.007	19.995	103.730	20.000	13.097	0.534
951.499	550.355	80.007	19.995	103.733	20.003	12.905	0.533
951.999	550.639	80.008	19.994	103.736	20.002	12.968	0.516
952.499	550.885	80.006	19.994	103.738	20.002	13.005	0.521
953.000	551.116	80.009	19.995	103.740	20.006	12.721	0.504
953.500	551.393	80.008	19.994	103.744	20.002	13.010	0.493
953.999	551.664	80.008	19.993	103.745	20.003	12.918	0.528
954.499	551.896	80.008	19.995	103.748	20.003	12.916	0.525
954.999	552.147	80.007	19.995	103.748	20.003	12.877	0.493
955.499	552.416	80.010	19.995	103.749	20.004	12.808	0.502
956.000	552.633	80.008	19.994	103.749	20.001	13.081	0.504
956.500	552.907	80.008	19.994	103.749	20.003	12.901	0.489
956.999	553.169	80.009	19.994	103.749	19.999	13.196	0.513
957.499	553.429	80.008	19.994	103.748	20.003	12.884	0.528
957.999	553.669	80.009	19.994	103.748	20.001	13.077	0.510
958.499	553.916	80.010	19.994	103.749	20.003	12.882	0.494
958.999	554.217	80.010	19.993	103.749	20.002	12.989	0.518
959.499	554.502	80.009	19.993	103.750	20.003	12.894	0.567
960.000	554.724	80.008	19.993	103.750	19.999	13.175	0.547
960.500	554.993	80.008	19.993	103.750	20.001	13.071	0.499
960.999	555.263	80.011	19.994	103.750	20.001	13.056	0.515
961.499	555.545	80.009	19.994	103.752	20.003	12.940	0.546
961.999	555.786	80.009	19.993	103.752	20.003	12.897	0.538
962.499	556.069	80.009	19.993	103.752	20.001	13.019	0.524
962.999	556.265	80.008	19.994	103.752	20.003	12.939	0.501
963.499	556.547	80.009	19.994	103.752	20.002	12.954	0.478
963.999	556.816	80.010	19.992	103.746	19.998	13.298	0.515
964.499	557.038	80.010	19.994	103.746	20.000	13.134	0.522
965.000	557.286	80.009	19.992	103.747	19.997	13.304	0.481
965.500	557.556	80.008	19.991	103.747	19.999	13.165	0.494
965.999	557.844	80.007	19.994	103.748	20.001	13.017	0.538
966.499	558.108	80.008	19.993	103.751	19.997	13.353	0.555
966.999	558.346	80.009	19.993	103.751	19.999	13.170	0.527
967.500	558.629	80.008	19.992	103.751	19.999	13.179	0.511
968.000	558.892	80.009	19.993	103.751	19.997	13.324	0.534
968.499	559.132	80.007	19.993	103.751	19.995	13.498	0.525
968.999	559.380	80.008	19.992	103.751	19.997	13.308	0.495
969.499	559.616	80.008	19.992	103.751	19.996	13.443	0.486
969.999	559.858	80.008	19.993	103.753	19.995	13.463	0.481
970.499	560.107	80.008	19.993	103.753	19.999	13.195	0.485
970.999	560.385	80.007	19.994	103.752	19.998	13.246	0.509
971.499	560.647	80.008	19.994	103.752	19.996	13.383	0.533
972.000	560.923	80.006	19.992	103.751	19.998	13.238	0.539
972.500	561.177	80.006	19.993	103.751	19.999	13.201	0.534
972.999	561.426	80.006	19.993	103.751	19.999	13.201	0.517
973.499	561.712	80.006	19.993	103.752	20.000	13.117	0.519
973.999	561.947	80.004	19.994	103.753	19.995	13.488	0.528
974.499	562.244	80.007	19.992	103.753	19.997	13.360	0.526
974.999	562.465	80.007	19.994	103.753	19.997	13.359	0.525
975.499	562.720	80.006	19.994	103.753	19.999	13.154	0.497
975.999	563.008	80.007	19.992	103.753	19.998	13.290	0.509
976.499	563.290	80.006	19.994	103.753	19.999	13.181	0.557
976.999	563.540	80.006	19.995	103.754	19.994	13.585	0.551
977.499	563.813	80.006	19.995	103.754	19.995	13.461	0.528
977.999	564.046	80.006	19.994	103.756	19.996	13.419	0.514
978.500	564.298	80.006	19.994	103.756	19.993	13.618	0.495
979.000	564.545	80.005	19.994	103.756	19.995	13.489	0.492
979.500	564.785	80.008	19.993	103.755	19.994	13.548	0.494
979.999	565.049	80.007	19.993	103.755	19.993	13.609	0.496
980.499	565.322	80.006	19.993	103.754	19.992	13.668	0.520
980.999	565.544	80.007	19.993	103.754	19.995	13.504	0.516
981.499	565.853	80.007	19.993	103.754	19.997	13.311	0.513
981.999	566.118	80.006	19.994	103.754	19.994	13.534	0.552
982.500	566.321	80.007	19.993	103.755	19.994	13.561	0.521
983.000	566.655	80.008	19.992	103.756	19.997	13.341	0.503
983.500	566.916	80.005	19.993	103.756	19.996	13.384	0.566
983.999	567.155	80.003	19.995	103.756	19.996	13.377	0.547
984.499	567.416	80.006	19.993	103.756	19.995	13.464	0.500
984.999	567.680	80.010	19.993	103.765	19.996	13.376	0.512
985.499	567.953	80.005	19.994	103.744	19.995	13.462	0.531
985.999	568.193	80.006	19.993	103.722	19.994	13.517	0.525
986.500	568.466	80.006	19.994	103.709	19.995	13.500	0.513
987.000	568.723	80.007	19.991	103.702	19.997	13.370	0.521
987.499	569.016	80.005	19.995	103.692	19.999	13.196	0.540
987.999	569.271	80.007	19.995	103.736	19.997	13.317	0.549
988.500	569.497	80.006	19.995	103.788	19.999	13.176	0.514
989.000	569.786	80.006	19.996	103.811	19.996	13.425	0.498
989.499	570.014	80.008	19.994	103.820	19.998	13.264	0.516
989.999	570.331	80.008	19.995	103.821	19.996	13.412	0.531
990.499	570.554	80.007	19.995	103.797	19.995	13.448	0.543
990.999	570.828	80.009	19.993	103.767	19.998	13.270	0.519
991.499	571.046	80.007	19.995	103.754	19.997	13.354	0.494
991.999	571.371	80.007	19.994	103.745	19.996	13.419	0.517
992.499	571.624	80.006	19.993	103.745	19.996	13.416	0.560
992.999	571.875	80.009	19.992	103.747	19.997	13.322	0.542
993.499	572.117	80.009	19.994	103.747	19.997	13.343	0.499
993.999	572.431	80.008	19.995	103.748	20.000	13.120	0.524
994.499	572.639	80.007	19.993	103.755	19.999	13.226	0.539
995.000	572.924	80.008	19.994	103.754	19.996	13.425	0.507
995.500	573.167	80.009	19.992	103.751	19.997	13.333	0.510
995.999	573.465	80.009	19.995	103.751	19.996	13.374	0.534
996.499	573.731	80.007	19.994	103.751	19.997	13.336	0.552
996.999	574.025	80.009	19.994	103.753	19.995	13.445	0.562
997.499	574.302	80.008	19.994	103.757	19.997	13.340	0.565
997.999	574.565	80.007	19.994	103.761	19.994	13.541	0.555
998.499	574.834	80.008	19.993	103.761	19.995	13.496	0.536
998.999	575.103	80.009	19.994	103.761	19.998	13.241	0.535
999.499	575.350	80.006	19.994	103.759	19.996	13.384	0.527
999.999	575.632	80.008	19.996	103.752	19.997	13.351	0.523
1000.499	575.858	80.004	19.994	103.744	19.997	13.345	0.519
1000.999	576.108	80.006	19.993	103.744	19.994	13.572	0.492
1001.499	576.371	80.007	19.992	103.744	19.996	13.386	0.494
1001.999	576.668	80.008	19.994	103.744	19.997	13.321	0.536
1002.499	576.891	80.006	19.993	103.749	19.996	13.419	0.540
1002.999	577.151	80.007	19.993	103.752	19.995	13.489	0.502
1003.499	577.394	80.006	19.994	103.753	19.995	13.468	0.494
1003.999	577.661	80.009	19.993	103.752	19.994	13.542	0.507
1004.499	577.895	80.009	19.992	103.753	19.994	13.521	0.505
1004.999	578.193	80.009	19.994	103.753	19.994	13.525	0.517
1005.499	578.438	80.007	19.992	103.753	19.994	13.527	0.538
1005.999	578.694	80.007	19.993	103.753	19.995	13.490	0.522
1006.500	578.958	80.006	19.993	103.753	19.996	13.413	0.510
1007.000	579.201	80.007	19.993	103.750	19.996	13.442	0.514
1007.499	579.470	80.007	19.995	103.745	19.994	13.550	0.509
1007.999	579.706	80.004	19.994	103.741	19.995	13.450	0.508
1008.499	580.011	80.010	19.993	103.741	19.994	13.520	0.523
1008.999	580.214	80.010	19.994	103.742	19.995	13.497	0.525
1009.499	580.497	80.007	19.995	103.743	19.996	13.430	0.497
1009.999	580.737	80.007	19.994	103.748	19.993	13.635	0.504
1010.499	581.000	80.008	19.993	103.752	19.991	13.735	0.513
1010.999	581.242	80.008	19.993	103.754	19.993	13.626	0.504
1011.499	581.518	80.007	19.994	103.753	19.991	13.731	0.512
1012.000	581.765	80.007	19.993	103.752	19.994	13.567	0.521
1012.500	582.060	80.008	19.994	103.752	19.994	13.550	0.532
1012.999	582.257	80.007	19.995	103.751	19.995	13.472	0.517
1013.499	582.522	80.009	19.996	103.749	19.993	13.605	0.477
1014.000	582.803	80.008	19.994	103.749	19.993	13.595	0.503
1014.500	583.059	80.008	19.995	103.749	19.991	13.773	0.541
1014.999	583.339	80.008	19.994	103.750	19.993	13.601	0.537
1015.499	583.575	80.008	19.994	103.751	19.994	13.540	0.526
1015.999	583.834	80.008	19.996	103.751	19.996	13.409	0.506
1016.499	584.113	80.008	19.995	103.751	19.995	13.464	0.516
1016.999	584.333	80.008	19.996	103.751	19.993	13.613	0.519
1017.499	584.611	80.010	19.994	103.750	19.992	13.694	0.499
1017.999	584.865	80.007	19.993	103.750	19.990	13.839	0.515
1018.499	585.134	80.008	19.995	103.748	19.992	13.682	0.528
1018.999	585.417	80.009	19.994	103.748	19.991	13.793	0.537
1019.499	585.648	80.007	19.996	103.748	19.989	13.927	0.533
1019.999	585.902	80.009	19.995	103.746	19.988	13.978	0.499
1020.499	586.146	80.008	19.994	103.745	19.987	14.086	0.492
1020.999	586.440	80.009	19.994	103.745	19.989	13.934	0.518
1021.499	586.697	80.009	19.996	103.746	19.988	13.993	0.544
1021.999	586.945	80.008	19.995	103.746	19.988	14.015	0.528
1022.499	587.177	80.009	19.995	103.747	19.988	14.011	0.493
1022.999	587.463	80.008	19.994	103.747	19.986	14.107	0.499
1023.499	587.701	80.009	19.993	103.748	19.988	13.991	0.521
1023.999	587.946	80.009	19.994	103.749	19.985	14.230	0.503
1024.499	588.210	80.010	19.993	103.749	19.988	14.013	0.496
1024.999	588.488	80.008	19.993	103.749	19.984	14.255	0.526
1025.499	588.751	80.008	19.994	103.750	19.988	14.017	0.541
1025.999	589.004	80.008	19.993	103.750	19.986	14.105	0.528
1026.499	589.258	80.009	19.992	103.749	19.985	14.191	0.512
1026.999	589.529	80.009	19.995	103.750	19.986	14.095	0.516
1027.499	589.769	80.006	19.996	103.750	19.988	13.972	0.518
1027.999	590.065	80.006	19.994	103.750	19.989	13.914	0.523
1028.499	590.309	80.008	19.994	103.748	19.986	14.148	0.537
1028.999	590.589	80.008	19.995	103.746	19.987	14.039	0.532
1029.500	590.822	80.007	19.995	103.742	19.988	14.008	0.519
1030.000	591.074	80.008	19.994	103.739	19.986	14.119	0.499
1030.500	591.339	80.007	19.994	103.734	19.987	14.056	0.501
1030.999	591.607	80.007	19.994	103.736	19.988	13.988	0.525
1031.500	591.837	80.008	19.994	103.739	19.983	14.308	0.515
1032.000	592.115	80.008	19.994	103.743	19.984	14.251	0.503
1032.500	592.376	80.009	19.994	103.745	19.984	14.285	0.524
1032.999	592.645	80.008	19.994	103.750	19.985	14.222	0.535
1033.500	592.891	80.008	19.994	103.750	19.989	13.923	0.523
1034.000	593.174	80.009	19.994	103.748	19.986	14.158	0.522
1034.499	593.377	80.008	19.994	103.747	19.981	14.469	0.507
1035.000	593.694	80.009	19.993	103.748	19.987	14.068	0.503
1035.500	593.936	80.008	19.995	103.748	19.987	14.083	0.540
1035.999	594.217	80.008	19.994	103.748	19.988	13.999	0.541
1036.499	594.411	80.007	19.994	103.749	19.988	13.968	0.499
1036.999	594.730	80.008	19.995	103.749	19.990	13.810	0.494
1037.499	594.981	80.008	19.994	103.750	19.992	13.718	0.542
1037.999	595.200	80.009	19.993	103.750	19.985	14.196	0.520
1038.499	595.509	80.008	19.993	103.751	19.986	14.113	0.499
1038.999	595.745	80.008	19.994	103.751	19.985	14.178	0.537
1039.499	596.016	80.008	19.994	103.752	19.985	14.194	0.526
1039.999	596.277	80.008	19.995	103.752	19.987	14.043	0.519
1040.499	596.537	80.009	19.993	103.752	19.984	14.264	0.526
1040.999	596.803	80.009	19.994	103.752	19.986	14.119	0.524
1041.500	597.036	80.010	19.993	103.751	19.988	13.994	0.513
1042.000	597.307	80.009	19.993	103.750	19.987	14.045	0.501
1042.499	597.568	80.009	19.994	103.749	19.989	13.918	0.517
1042.999	597.853	80.008	19.994	103.748	19.988	14.010	0.539
1043.499	598.083	80.010	19.993	103.748	19.986	14.103	0.531
1043.999	598.303	80.010	19.994	103.750	19.984	14.263	0.482
1044.500	598.603	80.008	19.994	103.750	19.987	14.075	0.485
1045.000	598.848	80.008	19.995	103.751	19.985	14.168	0.533
1045.499	599.083	80.006	19.994	103.751	19.983	14.318	0.513
1046.000	599.373	80.008	19.995	103.750	19.984	14.236	0.502
1046.500	599.628	80.010	19.992	103.749	19.986	14.103	0.535
1046.999	599.876	80.006	19.992	103.749	19.989	13.932	0.524
1047.499	600.114	80.000	20.004	103.749	19.984	14.267	0.495
1048.000	600.434	80.008	19.996	103.748	19.984	14.269	0.523
1048.500	600.666	80.006	19.994	103.751	19.988	13.990	0.555
1048.999	600.930	80.006	19.995	103.754	19.985	14.178	0.524
1049.499	601.207	80.008	19.993	103.754	19.984	14.239	0.518
1049.999	601.456	80.007	19.995	103.755	19.984	14.285	0.533
1050.499	601.739	80.007	19.994	103.757	19.985	14.212	0.529
1051.000	602.013	80.007	19.994	103.757	19.984	14.283	0.545
1051.500	602.246	80.008	19.994	103.754	19.983	14.375	0.532
1052.000	602.553	80.007	19.995	103.754	19.984	14.277	0.523
1052.499	602.766	80.007	19.994	103.753	19.986	14.111	0.530
1052.999	603.031	80.006	19.994	103.753	19.985	14.193	0.499
1053.499	603.262	80.010	19.993	103.752	19.982	14.387	0.487
1053.999	603.561	80.006	19.994	103.752	19.985	14.218	0.514
1054.499	603.767	80.006	19.996	103.752	19.984	14.275	0.518
1054.999	604.040	80.008	19.996	103.735	19.981	14.459	0.491
1055.499	604.279	80.007	19.993	103.713	19.983	14.371	0.495
1055.999	604.559	80.004	19.995	103.699	19.986	14.148	0.516
1056.499	604.810	80.005	19.996	103.694	19.983	14.359	0.525
1057.000	605.087	80.007	19.994	103.694	19.981	14.492	0.530
1057.500	605.334	80.006	19.996	103.723	19.984	14.234	0.526
1058.000	605.584	80.005	19.994	103.771	19.983	14.361	0.510
1058.500	605.858	80.006	19.994	103.788	19.984	14.291	0.510
1059.000	606.087	80.006	19.994	103.794	19.982	14.420	0.513
1059.499	606.336	80.008	19.994	103.794	19.984	14.285	0.491
1059.999	606.614	80.007	19.994	103.781	19.984	14.301	0.503
1060.499	606.835	80.006	19.994	103.754	19.983	14.373	0.513
1060.999	607.122	80.007	19.994	103.751	19.984	14.242	0.503
1061.499	607.327	80.008	19.994	103.749	19.982	14.396	0.500
1061.999	607.614	80.007	19.994	103.749	19.982	14.447	0.492
1062.499	607.856	80.006	19.993	103.748	19.981	14.469	0.511
1062.999	608.130	80.008	19.994	103.750	19.984	14.299	0.523
1063.499	608.384	80.007	19.994	103.750	19.981	14.459	0.522
1063.999	608.667	80.008	19.993	103.750	19.982	14.381	0.533
1064.500	608.866	80.004	19.993	103.750	19.981	14.490	0.510
1065.000	609.137	80.005	19.995	103.750	19.979	14.617	0.475
1065.499	609.387	80.006	19.994	103.750	19.978	14.680	0.495
1065.999	609.670	80.005	19.994	103.750	19.983	14.359	0.528
1066.500	609.914	80.008	19.994	103.749	19.982	14.428	0.530
1067.000	610.135	80.007	19.995	103.747	19.979	14.607	0.496
1067.499	610.388	80.007	19.992	103.747	19.978	14.674	0.470
1068.000	610.685	80.007	19.995	103.748	19.978	14.709	0.512
1068.500	610.906	80.007	19.993	103.748	19.980	14.580	0.534
1069.000	611.134	80.006	19.994	103.749	19.979	14.603	0.484
1069.500	611.434	80.007	19.992	103.750	19.982	14.396	0.489
1069.999	611.649	80.006	19.993	103.750	19.978	14.671	0.521
1070.499	611.911	80.008	19.993	103.751	19.979	14.606	0.496
1070.999	612.162	80.006	19.994	103.751	19.980	14.585	0.495
1071.499	612.410	80.007	19.993	103.750	19.982	14.439	0.506
1071.999	612.722	80.008	19.994	103.751	19.979	14.621	0.529
1072.499	612.951	80.007	19.993	103.751	19.978	14.695	0.550
1072.999	613.204	80.008	19.994	103.750	19.977	14.752	0.512
1073.499	613.466	80.007	19.995	103.750	19.980	14.529	0.498
1073.999	613.715	80.009	19.993	103.751	19.980	14.567	0.513
1074.499	613.971	80.009	19.993	103.752	19.978	14.716	0.508
1074.999	614.196	80.008	19.991	103.751	19.978	14.683	0.493
1075.499	614.475	80.007	19.996	103.751	19.979	14.613	0.492
1076.000	614.746	80.008	19.993	103.751	19.976	14.859	0.527
1076.500	615.024	80.006	19.994	103.751	19.981	14.509	0.549
1076.999	615.242	80.009	19.993	103.750	19.976	14.814	0.522
1077.499	615.509	80.006	19.995	103.750	19.977	14.794	0.491
1077.999	615.758	80.007	19.995	103.750	19.974	14.991	0.501
1078.499	616.031	80.007	19.995	103.750	19.975	14.921	0.519
1078.999	616.315	80.008	19.992	103.749	19.973	15.023	0.540
1079.499	616.500	80.005	19.997	103.750	19.979	14.643	0.513
1079.999	616.756	80.010	19.996	103.748	19.974	14.973	0.455
1080.500	617.016	80.008	19.996	103.748	19.975	14.918	0.478
1081.000	617.273	80.008	19.994	103.743	19.971	15.231	0.517
1081.500	617.527	80.007	19.993	103.742	19.974	15.004	0.514
1081.999	617.782	80.008	19.992	103.741	19.974	14.958	0.510
1082.499	618.039	80.006	19.995	103.737	19.971	15.168	0.510
1082.999	618.298	80.007	19.994	103.733	19.975	14.924	0.514
1083.499	618.570	80.008	19.995	103.732	19.971	15.197	0.523
1084.000	618.818	80.007	19.993	103.733	19.974	14.984	0.526
1084.500	619.044	80.006	19.994	103.733	19.976	14.864	0.497
1084.999	619.326	80.007	19.995	103.739	19.971	15.200	0.491
1085.499	619.590	80.007	19.995	103.743	19.972	15.136	0.527
1085.999	619.871	80.006	19.991	103.748	19.974	14.953	0.546
1086.499	620.067	80.006	19.995	103.749	19.975	14.948	0.511
1086.999	620.335	80.003	19.999	103.749	19.974	14.964	0.471
1087.500	620.580	80.007	19.997	103.745	19.975	14.909	0.488
1088.000	620.816	80.007	19.997	103.743	19.974	14.991	0.497
1088.500	621.083	80.008	19.994	103.743	19.976	14.848	0.492
1089.000	621.338	80.004	19.994	103.742	19.976	14.842	0.512
1089.499	621.596	80.004	19.993	103.742	19.977	14.803	0.517
1089.999	621.832	80.003	19.997	103.744	19.976	14.817	0.504
1090.499	622.096	80.007	19.999	103.741	19.976	14.819	0.497
1090.999	622.326	80.007	19.999	103.737	19.978	14.712	0.497
1091.499	622.597	80.007	19.993	103.735	19.974	15.013	0.497
1091.999	622.836	80.007	19.993	103.737	19.975	14.913	0.506
1092.499	623.107	80.005	19.996	103.738	19.973	15.059	0.510
1092.999	623.365	80.008	19.992	103.745	19.973	15.084	0.520
1093.499	623.592	80.007	19.996	103.749	19.974	14.983	0.507
1093.999	623.883	80.008	19.993	103.750	19.972	15.135	0.501
1094.499	624.132	80.012	19.994	103.748	19.976	14.874	0.529
1094.999	624.336	80.008	19.995	103.743	19.970	15.266	0.497
1095.500	624.619	80.003	19.997	103.742	19.974	14.991	0.470
1096.000	624.895	80.014	19.989	103.741	19.973	15.059	0.523
1096.499	625.153	80.010	19.987	103.745	19.972	15.145	0.547
1096.999	625.364	80.012	19.990	103.748	19.971	15.169	0.502
1097.499	625.633	80.012	19.991	103.752	19.973	15.048	0.474
1097.999	625.875	80.009	19.992	103.753	19.973	15.032	0.495
1098.500	626.171	80.010	19.989	103.754	19.973	15.052	0.524
1099.000	626.416	80.003	19.997	103.752	19.970	15.263	0.539
1099.499	626.668	80.004	19.988	103.751	19.970	15.272	0.519
1099.999	626.911	80.009	19.994	103.752	19.974	14.965	0.496
1100.499	627.168	80.009	19.992	103.752	19.976	14.852	0.498
1100.999	627.412	80.008	19.992	103.753	19.971	15.225	0.501
1101.500	627.665	80.009	19.993	103.754	19.973	15.079	0.498
1102.000	627.945	80.008	19.994	103.755	19.974	15.000	0.515
1102.499	628.161	80.012	19.993	103.754	19.975	14.938	0.515
1102.999	628.458	80.005	19.994	103.754	19.972	15.153	0.504
1103.499	628.735	80.008	19.997	103.753	19.973	15.073	0.543
1103.999	629.010	80.009	19.993	103.751	19.972	15.098	0.563
1104.500	629.230	80.008	19.993	103.752	19.973	15.095	0.524
1105.000	629.472	80.011	19.996	103.752	19.973	15.034	0.479
1105.499	629.748	80.009	19.994	103.753	19.972	15.161	0.490
1105.999	630.015	80.012	19.991	103.752	19.973	15.065	0.530
1106.499	630.264	80.009	19.991	103.753	19.971	15.184	0.529
1106.999	630.495	80.009	19.992	103.753	19.970	15.293	0.498
1107.499	630.778	80.007	19.993	103.752	19.969	15.315	0.497
1107.999	631.027	80.009	19.997	103.752	19.971	15.219	0.523
1108.499	631.281	80.009	19.993	103.753	19.970	15.261	0.517
1108.999	631.545	80.009	19.990	103.753	19.974	15.009	0.511
1109.499	631.778	80.003	20.006	103.755	19.969	15.355	0.508
1110.000	632.051	80.012	19.994	103.753	19.970	15.270	0.501
1110.500	632.332	80.006	19.997	103.753	19.972	15.132	0.530
1110.999	632.623	80.002	19.996	103.753	19.970	15.244	0.563
1111.499	632.861	80.009	19.993	103.753	19.969	15.377	0.551
1111.999	633.127	80.004	19.997	103.751	19.969	15.345	0.516
1112.499	633.373	80.006	19.994	103.753	19.971	15.208	0.508
1112.999	633.622	80.003	19.994	103.752	19.969	15.373	0.503
1113.499	633.854	80.006	19.998	103.751	19.971	15.183	0.488
1113.999	634.155	80.010	19.993	103.752	19.970	15.291	0.507
1114.499	634.422	80.008	19.994	103.752	19.969	15.326	0.550
1114.999	634.665	80.011	19.991	103.754	19.972	15.144	0.539
1115.499	634.945	80.010	19.995	103.755	19.968	15.451	0.517
1115.999	635.216	80.007	19.992	103.756	19.969	15.363	0.537
1116.499	635.477	80.009	19.998	103.756	19.973	15.091	0.541
1116.999	635.742	80.007	19.990	103.751	19.969	15.324	0.529
1117.499	635.993	80.008	19.992	103.750	19.968	15.412	0.521
1118.000	636.279	80.014	19.992	103.750	19.966	15.574	0.527
1118.500	636.536	80.006	19.995	103.750	19.968	15.394	0.540
1119.000	636.782	80.007	19.992	103.749	19.967	15.467	0.523
1119.500	637.039	80.007	19.996	103.754	19.970	15.271	0.503
1120.000	637.274	80.008	19.990	103.755	19.967	15.511	0.498
1120.499	637.543	80.008	19.994	103.755	19.966	15.582	0.498
1120.999	637.816	80.007	19.993	103.754	19.969	15.320	0.523
1121.499	638.036	80.009	19.992	103.754	19.968	15.396	0.517
1122.000	638.315	80.008	19.993	103.749	19.969	15.312	0.496
1122.500	638.589	80.007	19.996	103.744	19.965	15.637	0.526
1122.999	638.815	80.010	19.995	103.744	19.966	15.582	0.526
1123.499	639.102	80.004	19.991	103.744	19.967	15.461	0.507
1123.999	639.330	80.010	19.996	103.744	19.963	15.793	0.514
1124.499	639.617	80.002	20.000	103.747	19.965	15.631	0.515
1124.999	639.872	80.011	19.992	103.747	19.961	15.943	0.529
1125.499	640.111	80.008	19.992	103.745	19.966	15.555	0.518
1125.999	640.395	80.006	19.990	103.744	19.965	15.635	0.508
1126.500	640.601	80.011	19.994	103.744	19.964	15.732	0.507
1127.000	640.871	80.006	19.992	103.745	19.966	15.580	0.483
1127.499	641.133	80.006	19.999	103.746	19.963	15.764	0.503
1128.000	641.389	80.008	19.992	103.746	19.965	15.635	0.525
1128.500	641.650	80.012	19.990	103.746	19.965	15.625	0.518
1128.999	641.887	80.011	19.994	103.746	19.965	15.621	0.508
1129.499	642.141	80.009	19.994	103.745	19.966	15.587	0.495
1129.999	642.384	80.011	19.993	103.745	19.967	15.484	0.494
1130.499	642.655	80.008	19.994	103.745	19.969	15.334	0.505
1130.999	642.908	80.009	19.995	103.745	19.971	15.219	0.519
1131.499	643.212	80.010	19.994	103.743	19.968	15.416	0.540
1131.999	643.402	80.006	19.994	103.742	19.967	15.489	0.525
1132.499	643.628	80.010	19.992	103.745	19.965	15.615	0.455
1132.999	643.913	80.004	19.999	103.746	19.969	15.329	0.464
1133.499	644.185	80.010	19.993	103.746	19.966	15.593	0.535
1133.999	644.407	80.005	19.994	103.746	19.965	15.622	0.526
1134.499	644.720	80.009	19.989	103.746	19.969	15.331	0.514
1134.999	644.929	80.007	19.994	103.745	19.971	15.233	0.529
1135.499	645.189	80.005	19.997	103.746	19.968	15.393	0.496
1135.999	645.449	80.010	19.990	103.744	19.967	15.524	0.494
1136.499	645.673	80.006	19.996	103.745	19.971	15.194	0.502
1137.000	645.934	80.005	19.997	103.746	19.969	15.325	0.485
1137.500	646.170	80.014	19.993	103.745	19.972	15.098	0.491
1137.999	646.435	80.002	20.001	103.745	19.969	15.372	0.499
1138.499	646.693	80.008	19.992	103.746	19.969	15.360	0.512
1138.999	646.947	80.003	19.996	103.744	19.970	15.266	0.518
1139.500	647.206	80.001	19.996	103.743	19.969	15.324	0.512
1140.000	647.469	80.007	19.994	103.742	19.972	15.143	0.517
1140.500	647.729	80.005	19.991	103.743	19.970	15.262	0.523
1140.999	647.956	80.009	19.996	103.745	19.973	15.090	0.505
1141.499	648.226	80.008	19.994	103.746	19.970	15.244	0.492
1141.999	648.478	80.007	19.993	103.748	19.972	15.119	0.510
1142.499	648.732	80.003	20.000	103.749	19.972	15.130	0.514
1142.999	649.002	80.010	19.995	103.748	19.972	15.148	0.515
1143.499	649.240	80.006	19.994	103.743	19.970	15.303	0.516
1143.999	649.548	80.007	19.996	103.742	19.973	15.053	0.527
1144.499	649.768	80.009	19.997	103.742	19.971	15.233	0.537
1144.999	650.056	80.010	19.996	103.742	19.969	15.371	0.518
1145.499	650.328	80.011	19.990	103.743	19.971	15.205	0.534
1145.999	650.553	80.010	19.993	103.748	19.971	15.178	0.529
1146.499	650.826	80.005	19.993	103.750	19.970	15.260	0.498
1146.999	651.063	80.006	19.993	103.750	19.970	15.301	0.504
1147.499	651.323	80.005	19.994	103.751	19.967	15.481	0.503
1147.999	651.609	80.008	19.996	103.751	19.971	15.168	0.522
1148.499	651.882	80.008	19.992	103.750	19.972	15.166	0.553
1148.999	652.124	80.004	19.998	103.750	19.970	15.285	0.537
1149.499	652.366	80.006	19.996	103.749	19.970	15.258	0.500
1149.999	652.651	80.008	19.995	103.748	19.968	15.434	0.506
1150.499	652.897	80.007	19.995	103.748	19.967	15.465	0.529
1150.999	653.208	80.008	19.995	103.748	19.966	15.534	0.544
1151.499	653.462	80.006	19.996	103.746	19.969	15.321	0.561
1152.000	653.705	80.007	19.995	103.747	19.967	15.481	0.531
1152.500	653.947	80.007	19.995	103.747	19.967	15.479	0.491
1153.000	654.214	80.008	19.996	103.746	19.968	15.404	0.497
1153.500	654.508	80.005	19.998	103.745	19.968	15.447	0.535
1153.999	654.772	80.012	19.991	103.747	19.966	15.533	0.560
1154.499	655.040	80.009	19.992	103.747	19.967	15.471	0.546
1155.000	655.305	80.007	19.997	103.748	19.965	15.629	0.533
1155.500	655.587	80.011	19.990	103.748	19.964	15.675	0.540
1155.999	655.785	80.004	19.994	103.749	19.966	15.589	0.513
1156.499	656.112	80.006	19.996	103.749	19.971	15.224	0.503
1157.000	656.332	80.007	19.994	103.747	19.964	15.720	0.536
1157.500	656.592	80.006	19.992	103.747	19.963	15.744	0.513
1157.999	656.856	80.008	19.996	103.747	19.966	15.542	0.501
1158.499	657.112	80.008	19.995	103.747	19.967	15.516	0.522
1158.999	657.389	80.002	19.997	103.747	19.966	15.557	0.527
1159.499	657.672	80.004	19.996	103.747	19.967	15.494	0.547
1159.999	657.911	80.006	19.994	103.747	19.967	15.460	0.542
1160.499	658.161	80.008	19.994	103.747	19.965	15.606	0.506
1160.999	658.378	80.013	19.992	103.747	19.965	15.647	0.478
1161.499	658.665	80.008	19.999	103.748	19.965	15.625	0.486
1161.999	658.927	80.002	19.992	103.748	19.963	15.754	0.527
1162.499	659.197	80.007	19.994	103.749	19.965	15.641	0.541
1162.999	659.462	80.005	19.997	103.749	19.963	15.794	0.534
1163.499	659.735	80.007	19.998	103.749	19.964	15.689	0.536
1163.999	659.990	80.007	19.994	103.745	19.966	15.579	0.532
1164.499	660.215	80.010	19.990	103.745	19.964	15.714	0.504
1164.999	660.521	80.003	19.994	103.747	19.966	15.565	0.506
1165.500	660.769	80.007	19.993	103.748	19.962	15.819	0.543
1166.000	661.020	80.006	19.989	103.749	19.965	15.643	0.526
1166.500	661.278	80.003	19.991	103.753	19.961	15.929	0.504
1167.000	661.525	80.008	19.990	103.756	19.965	15.663	0.507
1167.499	661.795	80.002	19.994	103.756	19.964	15.724	0.511
1167.999	662.054	80.007	19.995	103.756	19.965	15.655	0.523
1168.500	662.304	80.007	19.997	103.756	19.962	15.828	0.519
1169.000	662.562	80.007	19.996	103.754	19.965	15.605	0.508
1169.500	662.815	80.006	19.995	103.752	19.964	15.730	0.510
1169.999	663.086	80.007	19.991	103.749	19.964	15.706	0.518
1170.499	663.315	80.008	19.994	103.748	19.964	15.681	0.512
1170.999	663.593	80.004	19.995	103.743	19.967	15.482	0.504
1171.500	663.860	80.009	19.988	103.738	19.964	15.705	0.526
1172.000	664.136	80.005	19.994	103.734	19.966	15.550	0.544
1172.499	664.372	80.006	19.992	103.732	19.965	15.667	0.528
1172.999	664.641	80.005	19.995	103.732	19.965	15.634	0.508
1173.499	664.882	80.006	19.995	103.735	19.968	15.423	0.507
1174.000	665.147	80.005	19.998	103.741	19.963	15.802	0.508
1174.500	665.421	80.011	19.990	103.745	19.967	15.521	0.523
1174.999	665.655	80.007	19.997	103.750	19.964	15.699	0.524
1175.499	665.930	80.010	19.993	103.751	19.962	15.853	0.508
1175.999	666.187	80.003	19.996	103.749	19.965	15.658	0.520
1176.499	666.394	80.006	19.992	103.749	19.968	15.450	0.498
1176.999	666.734	80.008	19.989	103.749	19.967	15.470	0.506
1177.499	666.966	80.007	19.993	103.750	19.967	15.519	0.560
1177.999	667.180	80.007	19.993	103.750	19.963	15.801	0.509
1178.499	667.502	80.008	19.988	103.752	19.966	15.584	0.491
1178.999	667.747	80.005	19.993	103.753	19.965	15.636	0.552
1179.499	668.019	80.008	19.992	103.755	19.964	15.683	0.542
1180.000	668.271	80.006	19.996	103.753	19.968	15.383	0.520
1180.500	668.484	80.007	19.996	103.753	19.968	15.403	0.495
1180.999	668.738	80.005	19.998	103.748	19.968	15.380	0.466
1181.500	668.997	80.009	19.993	103.744	19.966	15.555	0.490
1182.000	669.284	80.011	19.990	103.743	19.965	15.664	0.530
1182.500	669.527	80.007	19.994	103.744	19.963	15.780	0.538
1182.999	669.846	80.008	19.992	103.744	19.964	15.733	0.546
1183.499	670.046	80.008	19.993	103.750	19.963	15.797	0.540
1183.999	670.317	80.007	19.990	103.754	19.966	15.584	0.495
1184.499	670.604	80.008	19.994	103.754	19.963	15.766	0.515
1184.999	670.797	80.008	19.994	103.751	19.966	15.566	0.519
1185.499	671.084	80.009	19.993	103.746	19.964	15.677	0.480
1185.999	671.311	80.001	19.996	103.745	19.961	15.941	0.497
1186.499	671.609	80.011	19.992	103.742	19.963	15.780	0.520
1186.999	671.834	80.007	19.996	103.742	19.965	15.666	0.525
1187.499	672.094	80.009	19.995	103.739	19.960	15.958	0.504
1188.000	672.337	80.009	19.987	103.743	19.963	15.805	0.494
1188.500	672.602	80.008	19.993	103.744	19.962	15.846	0.506
1188.999	672.876	80.009	19.993	103.748	19.962	15.836	0.523
1189.499	673.136	80.009	19.993	103.744	19.962	15.815	0.536
1189.999	673.376	80.007	19.993	103.744	19.962	15.815	0.517
1190.499	673.636	80.008	19.997	103.741	19.957	16.171	0.500
1190.999	673.939	80.009	19.993	103.733	19.964	15.708	0.531
1191.500	674.171	80.016	19.989	103.727	19.958	16.120	0.549
1192.000	674.383	80.007	19.992	103.731	19.958	16.138	0.490
1192.499	674.662	80.010	19.994	103.733	19.962	15.827	0.468
1192.999	674.947	80.010	19.993	103.733	19.960	15.976	0.527
1193.499	675.197	80.008	19.993	103.737	19.961	15.911	0.549
1193.999	675.451	80.008	19.993	103.738	19.960	15.976	0.520
1194.499	675.698	80.008	19.994	103.734	19.962	15.834	0.502
1194.999	675.939	80.008	19.995	103.736	19.959	16.058	0.494
1195.499	676.183	80.008	19.994	103.738	19.959	16.043	0.486
1195.999	676.422	80.008	19.993	103.741	19.962	15.849	0.484
1196.499	676.686	80.009	19.993	103.742	19.958	16.131	0.493
1197.000	676.930	80.010	19.992	103.742	19.960	15.987	0.505
1197.500	677.155	80.006	19.998	103.736	19.957	16.199	0.488
1197.999	677.426	80.010	19.995	103.731	19.957	16.200	0.483
1198.499	677.656	80.013	19.991	103.729	19.959	16.059	0.499
1198.999	677.926	80.007	19.996	103.732	19.960	16.014	0.500
1199.500	678.180	80.011	19.990	103.733	19.960	16.020	0.512
1200.000	678.427	80.005	19.994	103.734	19.957	16.177	0.513
1200.499	678.633	80.014	19.995	103.733	19.955	16.326	0.477
1200.999	678.904	80.008	19.994	103.734	19.956	16.279	0.465
1201.499	679.132	80.008	19.994	103.728	19.958	16.142	0.488
1202.000	679.377	80.008	19.994	103.726	19.957	16.198	0.486
1202.500	679.620	80.011	19.992	103.724	19.960	15.966	0.481
1202.999	679.885	80.010	19.992	103.729	19.955	16.355	0.498
1203.499	680.119	80.015	19.993	103.727	19.960	16.010	0.503
1203.999	680.367	80.011	19.992	103.731	19.962	15.860	0.491
1204.500	680.608	80.009	19.993	103.736	19.958	16.110	0.486
1205.000	680.814	80.007	19.995	103.742	19.957	16.178	0.468
1205.500	681.072	80.010	19.992	103.743	19.960	15.969	0.455
1205.999	681.322	80.010	19.994	103.740	19.960	16.018	0.487
1206.499	681.553	80.009	19.995	103.734	19.959	16.065	0.495
1206.999	681.801	80.008	19.994	103.731	19.962	15.880	0.480
1207.499	682.048	80.010	19.993	103.730	19.956	16.249	0.487
1207.999	682.335	80.015	19.991	103.726	19.961	15.905	0.514
1208.500	682.538	80.008	19.997	103.732	19.957	16.181	0.512
1209.000	682.786	80.011	19.995	103.736	19.959	16.091	0.471
1209.499	683.056	80.011	19.994	103.732	19.960	16.006	0.485
1209.999	683.313	80.010	19.995	103.731	19.956	16.298	0.523
1210.499	683.543	80.010	19.994	103.733	19.957	16.213	0.507
1210.999	683.798	80.010	19.994	103.729	19.956	16.281	0.486
1211.499	684.045	80.009	19.994	103.729	19.956	16.310	0.493
1211.999	684.235	80.011	19.993	103.730	19.955	16.320	0.469
1212.499	684.493	80.009	19.995	103.727	19.957	16.199	0.443
1212.999	684.765	80.011	19.990	103.724	19.957	16.203	0.489
1213.500	685.003	80.009	19.996	103.729	19.957	16.217	0.520
1214.000	685.236	80.011	19.993	103.728	19.959	16.044	0.490
1214.500	685.481	80.010	19.996	103.732	19.956	16.242	0.475
1215.000	685.732	80.007	19.995	103.735	19.959	16.037	0.487
1215.499	685.938	80.009	19.995	103.737	19.957	16.201	0.477
1215.999	686.201	80.011	19.992	103.732	19.958	16.157	0.462
1216.500	686.472	80.010	19.994	103.734	19.957	16.236	0.501
1217.000	686.710	80.009	19.992	103.733	19.957	16.188	0.522
1217.499	686.971	80.010	19.993	103.735	19.959	16.089	0.504
1217.999	687.198	80.008	19.996	103.739	19.955	16.348	0.493
1218.499	687.458	80.008	19.994	103.739	19.957	16.226	0.488
1218.999	687.657	80.008	19.995	103.738	19.956	16.273	0.474
1219.499	687.924	80.009	19.995	103.738	19.956	16.272	0.463
1219.999	688.167	80.007	19.995	103.737	19.953	16.467	0.488
1220.499	688.439	80.008	19.997	103.735	19.955	16.338	0.512
1220.999	688.680	80.012	19.995	103.739	19.955	16.368	0.514
1221.499	688.919	80.008	19.997	103.741	19.958	16.147	0.496
1221.999	689.162	80.007	19.994	103.742	19.958	16.162	0.481
1222.499	689.400	80.002	20.005	103.742	19.957	16.188	0.482
1222.999	689.666	80.009	19.992	103.742	19.954	16.442	0.492
1223.500	689.859	80.005	19.997	103.743	19.956	16.262	0.481
1224.000	690.150	80.009	19.993	103.742	19.954	16.454	0.472
1224.500	690.361	80.010	19.994	103.742	19.955	16.384	0.493
1225.000	690.651	80.005	19.993	103.737	19.953	16.461	0.501
1225.499	690.864	80.006	19.993	103.733	19.958	16.150	0.502
1225.999	691.107	80.007	19.997	103.728	19.956	16.256	0.480
1226.500	691.379	80.007	19.995	103.727	19.956	16.305	0.485
1227.000	691.634	80.005	19.993	103.724	19.955	16.349	0.521
1227.499	691.901	80.007	19.996	103.728	19.953	16.513	0.524
1227.999	692.157	80.008	19.998	103.735	19.952	16.597	0.522
1228.500	692.385	80.012	19.995	103.740	19.952	16.532	0.503
1229.000	692.641	80.009	19.995	103.743	19.952	16.553	0.484
1229.499	692.890	80.008	19.993	103.749	19.954	16.418	0.495
1229.999	693.170	80.007	19.996	103.751	19.955	16.364	0.517
1230.499	693.365	80.007	19.994	103.746	19.956	16.271	0.502
1230.999	693.615	80.004	19.999	103.744	19.952	16.555	0.460
1231.499	693.908	80.008	19.996	103.741	19.955	16.322	0.494
1231.999	694.134	80.008	19.989	103.738	19.950	16.694	0.531
1232.499	694.368	79.999	20.001	103.733	19.952	16.556	0.489
1233.000	694.596	80.007	19.993	103.730	19.955	16.366	0.461
1233.500	694.894	80.007	19.994	103.733	19.951	16.622	0.494
1234.000	695.130	80.008	19.993	103.733	19.952	16.534	0.530
1234.500	695.382	80.008	19.995	103.733	19.951	16.659	0.511
1235.000	695.666	80.007	19.993	103.735	19.951	16.601	0.512
1235.500	695.894	80.007	19.992	103.738	19.951	16.655	0.523
1235.999	696.141	80.007	19.996	103.734	19.950	16.704	0.493
1236.499	696.412	80.008	19.994	103.732	19.951	16.625	0.496
1236.999	696.671	80.008	19.994	103.733	19.953	16.496	0.524
1237.499	696.887	80.007	19.994	103.730	19.949	16.752	0.503
1237.999	697.159	80.007	19.995	103.729	19.948	16.834	0.482
1238.500	697.393	80.006	19.994	103.728	19.953	16.499	0.497
1239.000	697.660	80.007	19.993	103.725	19.950	16.712	0.503
1239.500	697.931	80.008	19.994	103.720	19.952	16.546	0.520
1240.000	698.153	80.007	19.994	103.721	19.951	16.641	0.516
1240.499	698.362	80.007	19.996	103.720	19.951	16.628	0.462
1240.999	698.636	80.007	19.993	103.721	19.948	16.865	0.457
1241.499	698.910	80.007	19.995	103.728	19.948	16.863	0.515
1241.999	699.155	80.007	19.994	103.735	19.950	16.709	0.533
1242.499	699.382	80.005	19.995	103.740	19.949	16.808	0.495
1242.999	699.673	80.006	19.994	103.746	19.950	16.731	0.495
1243.499	699.886	80.007	19.995	103.751	19.949	16.768	0.512
1243.999	700.140	80.005	19.996	103.749	19.945	17.085	0.486
1244.499	700.342	80.006	19.995	103.749	19.948	16.870	0.461
1244.999	700.648	80.006	19.995	103.747	19.951	16.605	0.482
1245.499	700.892	80.005	19.995	103.744	19.947	16.915	0.529
1245.999	701.111	80.004	19.994	103.737	19.946	16.979	0.507
1246.499	701.381	80.006	19.994	103.732	19.951	16.643	0.476
1247.000	701.647	80.006	19.994	103.725	19.948	16.883	0.513
1247.500	701.893	80.007	19.994	103.720	19.947	16.913	0.524
1247.999	702.160	80.006	19.995	103.718	19.950	16.680	0.512
1248.499	702.422	80.007	19.994	103.717	19.949	16.777	0.521
1248.999	702.658	80.010	19.992	103.719	19.949	16.791	0.513
1249.499	702.907	80.007	19.994	103.721	19.948	16.818	0.492
1249.999	703.145	80.007	19.996	103.724	19.948	16.855	0.486
1250.499	703.393	80.006	19.995	103.727	19.949	16.814	0.486
1250.999	703.628	80.004	19.998	103.734	19.946	17.017	0.484
1251.499	703.903	80.005	19.995	103.736	19.948	16.843	0.497
1252.000	704.146	80.003	19.989	103.737	19.947	16.921	0.514
1252.500	704.414	80.004	19.996	103.740	19.949	16.797	0.514
1252.999	704.647	80.006	19.997	103.740	19.947	16.937	0.506
1253.499	704.912	80.012	19.994	103.741	19.946	16.992	0.500
1253.999	705.154	80.006	19.992	103.746	19.947	16.929	0.503
1254.499	705.412	80.009	19.995	103.746	19.951	16.656	0.503
1254.999	705.639	80.006	19.995	103.744	19.948	16.818	0.492
1255.499	705.904	80.007	19.993	103.747	19.947	16.944	0.489
1255.999	706.144	80.006	19.995	103.748	19.947	16.944	0.499
1256.500	706.405	80.006	19.992	103.745	19.949	16.772	0.503
1257.000	706.662	80.007	19.994	103.745	19.947	16.899	0.509
1257.499	706.889	80.008	19.994	103.745	19.948	16.818	0.501
1257.999	707.155	80.007	19.993	103.745	19.948	16.821	0.489
1258.499	707.395	80.007	19.995	103.744	19.949	16.800	0.500
1258.999	707.667	80.008	19.993	103.746	19.949	16.804	0.509
1259.500	707.954	80.008	19.995	103.750	19.951	16.638	0.535
1260.000	708.165	80.008	19.993	103.752	19.951	16.658	0.529
1260.499	708.441	80.009	19.992	103.752	19.950	16.719	0.493
1260.999	708.688	80.007	19.995	103.752	19.951	16.624	0.505
1261.499	708.925	80.006	19.995	103.752	19.950	16.727	0.503
1261.999	709.190	80.008	19.993	103.751	19.950	16.730	0.493
1262.499	709.403	80.008	19.994	103.748	19.948	16.853	0.490
1262.999	709.686	80.008	19.995	103.744	19.950	16.722	0.487
1263.499	709.959	80.007	19.994	103.741	19.948	16.835	0.526
1263.999	710.227	80.010	19.994	103.739	19.946	16.960	0.548
1264.499	710.471	80.005	19.995	103.738	19.947	16.900	0.527
1264.999	710.715	80.010	19.992	103.736	19.947	16.912	0.500
1265.499	710.996	80.007	19.996	103.738	19.948	16.840	0.506
1265.999	711.227	80.010	19.994	103.741	19.948	16.844	0.518
1266.499	711.484	80.009	19.994	103.743	19.948	16.822	0.500
1267.000	711.737	80.009	19.995	103.744	19.948	16.880	0.499
1267.500	711.989	80.008	19.996	103.746	19.952	16.597	0.508
1268.000	712.232	80.009	19.992	103.743	19.947	16.928	0.500
1268.500	712.514	80.009	19.993	103.741	19.947	16.959	0.510
1269.000	712.770	80.009	19.994	103.736	19.947	16.952	0.531
1269.500	713.005	80.011	19.993	103.737	19.946	17.021	0.514
1270.000	713.260	80.008	19.994	103.739	19.944	17.138	0.491
1270.500	713.513	80.008	19.993	103.740	19.946	16.990	0.499
1271.000	713.767	80.008	19.993	103.741	19.944	17.148	0.508
1271.499	714.035	80.009	19.993	103.740	19.947	16.906	0.515
1271.999	714.297	80.010	19.994	103.735	19.944	17.149	0.526
1272.499	714.561	80.006	19.998	103.730	19.942	17.279	0.528
1272.999	714.794	80.008	19.993	103.729	19.942	17.262	0.512
1273.499	715.109	80.009	19.992	103.727	19.941	17.318	0.522
1273.999	715.354	80.008	19.994	103.727	19.942	17.289	0.554
1274.499	715.628	80.010	19.994	103.726	19.942	17.287	0.540
1274.999	715.836	80.009	19.994	103.724	19.940	17.450	0.501
1275.499	716.102	80.008	19.993	103.726	19.939	17.523	0.478
1275.999	716.355	80.009	19.994	103.728	19.940	17.431	0.496
1276.499	716.642	80.009	19.994	103.729	19.938	17.556	0.529
1276.999	716.871	80.010	19.994	103.733	19.939	17.519	0.528
1277.499	717.147	80.009	19.994	103.740	19.940	17.447	0.511
1277.999	717.384	80.009	19.993	103.738	19.936	17.744	0.509
1278.499	717.618	80.008	19.994	103.738	19.936	17.699	0.492
1278.999	717.847	80.009	19.994	103.742	19.937	17.643	0.467
1279.499	718.118	80.008	19.994	103.743	19.938	17.597	0.482
1279.999	718.354	80.009	19.994	103.743	19.936	17.693	0.503
1280.499	718.632	80.009	19.994	103.747	19.937	17.634	0.510
1280.999	718.858	80.009	19.993	103.745	19.937	17.655	0.509
1281.499	719.129	80.009	19.994	103.739	19.937	17.668	0.501
1281.999	719.378	80.009	19.993	103.735	19.935	17.768	0.508
1282.499	719.634	80.009	19.994	103.729	19.936	17.724	0.512
1282.999	719.865	80.010	19.994	103.722	19.936	17.747	0.496
1283.499	720.131	80.008	19.993	103.717	19.936	17.723	0.492
1283.999	720.392	80.009	19.995	103.716	19.937	17.642	0.512
1284.499	720.614	80.007	19.993	103.714	19.937	17.620	0.505
1284.999	720.881	80.008	19.995	103.714	19.933	17.893	0.486
1285.499	721.149	80.008	19.995	103.717	19.936	17.678	0.512
1286.000	721.365	80.009	19.994	103.722	19.934	17.861	0.510
1286.500	721.575	80.008	19.991	103.728	19.936	17.691	0.455
1286.999	721.827	80.008	19.994	103.733	19.935	17.773	0.444
1287.499	722.120	80.009	19.995	103.735	19.936	17.687	0.504
1288.000	722.338	80.009	19.994	103.737	19.935	17.765	0.528
1288.500	722.590	80.011	19.993	103.737	19.936	17.741	0.490
1288.999	722.819	80.008	19.996	103.737	19.937	17.655	0.475
1289.500	723.097	80.008	19.994	103.739	19.935	17.753	0.494
1290.000	723.321	80.009	19.992	103.742	19.935	17.754	0.505
1290.500	723.562	80.011	19.994	103.745	19.937	17.626	0.484
1291.000	723.813	80.010	19.994	103.745	19.937	17.616	0.478
1291.499	724.064	80.008	19.995	103.745	19.939	17.524	0.497
1291.999	724.326	80.009	19.994	103.743	19.938	17.581	0.508
1292.499	724.540	80.010	19.994	103.740	19.936	17.693	0.495
1292.999	724.771	80.011	19.994	103.739	19.935	17.806	0.461
1293.499	725.045	80.010	19.994	103.737	19.937	17.629	0.475
1293.999	725.320	80.010	19.995	103.732	19.937	17.609	0.527
1294.499	725.570	80.010	19.994	103.726	19.937	17.634	0.537
1294.999	725.781	80.010	19.994	103.723	19.937	17.668	0.493
1295.499	726.046	80.011	19.993	103.721	19.937	17.619	0.468
1295.999	726.278	80.010	19.993	103.717	19.935	17.802	0.486
1296.499	726.541	80.010	19.992	103.718	19.938	17.546	0.496
1296.999	726.802	80.009	19.993	103.723	19.939	17.504	0.510
1297.499	727.044	80.011	19.994	103.726	19.935	17.778	0.513
1297.999	727.314	80.011	19.993	103.724	19.937	17.612	0.507
1298.499	727.595	80.011	19.994	103.725	19.936	17.703	0.531
1298.999	727.819	80.009	19.993	103.724	19.941	17.329	0.528
1299.499	728.076	80.010	19.992	103.720	19.939	17.516	0.493
1299.999	728.350	80.011	19.993	103.717	19.939	17.500	0.506
1300.499	728.604	80.009	19.992	103.720	19.939	17.490	0.530
1301.000	728.845	80.009	19.993	103.726	19.936	17.685	0.511
1301.500	729.084	80.010	19.992	103.730	19.933	17.896	0.487
1302.000	729.336	80.009	19.994	103.733	19.935	17.787	0.486
1302.500	729.593	80.010	19.993	103.741	19.938	17.561	0.501
1302.999	729.808	80.009	19.993	103.744	19.939	17.524	0.491
1303.499	730.109	80.008	19.993	103.745	19.938	17.560	0.494
1303.999	730.372	80.008	19.993	103.748	19.937	17.647	0.540
1304.499	730.610	80.008	19.993	103.751	19.938	17.604	0.532
1304.999	730.873	80.007	19.994	103.750	19.937	17.656	0.501
1305.499	731.114	80.008	19.993	103.744	19.939	17.532	0.503
1305.999	731.385	80.007	19.994	103.740	19.934	17.860	0.508
1306.500	731.660	80.007	19.993	103.738	19.936	17.725	0.529
1307.000	731.923	80.008	19.993	103.735	19.933	17.906	0.542
1307.499	732.155	80.007	19.994	103.736	19.935	17.763	0.517
1307.999	732.431	80.008	19.992	103.741	19.933	17.897	0.502
1308.499	732.641	80.007	19.994	103.742	19.938	17.594	0.498
1308.999	732.896	80.008	19.993	103.744	19.933	17.894	0.475
1309.499	733.176	80.007	19.993	103.747	19.936	17.712	0.499
1309.999	733.468	80.007	19.993	103.745	19.934	17.856	0.554
1310.500	733.698	80.007	19.994	103.743	19.935	17.759	0.547
1311.000	733.974	80.006	19.993	103.741	19.935	17.792	0.514
1311.499	734.204	80.006	19.993	103.738	19.934	17.862	0.507
1311.999	734.500	80.006	19.994	103.736	19.933	17.920	0.516
1312.499	734.723	80.006	19.993	103.735	19.935	17.748	0.522
1312.999	734.977	80.007	19.994	103.736	19.937	17.604	0.498
1313.499	735.226	80.008	19.995	103.740	19.933	17.943	0.490
1313.999	735.495	80.008	19.993	103.743	19.935	17.794	0.510
1314.499	735.763	80.007	19.994	103.745	19.936	17.699	0.527
1314.999	735.956	80.006	19.995	103.743	19.934	17.864	0.499
1315.499	736.223	80.006	19.994	103.741	19.936	17.700	0.461
1316.000	736.438	80.006	19.994	103.736	19.935	17.798	0.471
1316.500	736.712	80.007	19.994	103.730	19.937	17.669	0.485
1316.999	736.967	80.007	19.995	103.728	19.936	17.678	0.508
1317.499	737.273	80.007	19.993	103.731	19.932	18.008	0.545
1317.999	737.475	80.006	19.994	103.734	19.937	17.643	0.535
1318.499	737.752	80.007	19.994	103.731	19.937	17.668	0.493
1318.999	737.976	80.007	19.994	103.731	19.934	17.890	0.490
1319.499	738.237	80.007	19.993	103.727	19.934	17.873	0.493
1319.999	738.482	80.007	19.993	103.725	19.935	17.808	0.495
1320.499	738.758	80.008	19.993	103.720	19.936	17.739	0.514
1320.999	738.991	80.006	19.994	103.720	19.933	17.920	0.515
1321.499	739.240	80.007	19.994	103.720	19.933	17.910	0.495
1321.999	739.477	80.007	19.994	103.721	19.936	17.745	0.484
1322.499	739.753	80.008	19.994	103.721	19.931	18.089	0.499
1322.999	740.013	80.006	19.995	103.728	19.932	18.023	0.524
1323.499	740.240	80.008	19.994	103.728	19.932	17.983	0.512
1324.000	740.546	80.006	19.993	103.731	19.933	17.944	0.510
1324.500	740.753	80.007	19.995	103.733	19.933	17.940	0.523
1325.000	741.008	80.007	19.994	103.733	19.930	18.111	0.487
1325.499	741.305	80.007	19.993	103.728	19.934	17.831	0.507
1325.999	741.568	80.006	19.994	103.730	19.931	18.036	0.556
1326.500	741.794	80.008	19.993	103.734	19.931	18.044	0.525
1327.000	742.062	80.006	19.994	103.733	19.939	17.517	0.492
1327.499	742.346	80.008	19.993	103.733	19.938	17.581	0.523
1327.999	742.581	80.007	19.993	103.738	19.931	18.075	0.535
1328.499	742.844	80.007	19.994	103.740	19.936	17.695	0.509
1328.999	743.064	80.007	19.995	103.739	19.933	17.904	0.491
1329.499	743.376	80.008	19.994	103.741	19.933	17.942	0.507
1329.999	743.620	80.007	19.995	103.742	19.939	17.492	0.544
