Sample ID:	C:\MCC\MCC Cal\Test\Polyester_Batting_81B_MCC_30K_min_220301_R2.txt
Sample Weight (mg):	4.46
Heating Rate (C/s):	0.5
Combustor Temp (C):	900
N2 Flow Rate (cc/min):	80
O2 Flow Rate (cc/min):	20
Calibration File:	C:\MCC\MCC Cal\Coeff1 JN10440_30_210304.txt.txt
T Correction Coefficients:	0	1.024463	0
Time Shift (s):	14
*
Time (s)	Temperature (C)	N2 flow rate (cc/min)	O2 flow rate (cc/min)	Flow Rate (cc/min)	Oxygen (%)	HRR (W/g)	Heating rate (C/s)
0.000	115.377	80.010	19.992	103.746	20.094	-0.473	-0.031
0.500	115.361	80.011	19.994	103.746	20.096	-0.621	-0.004
1.000	115.402	80.012	19.993	103.746	20.095	-0.573	0.014
1.500	115.346	80.011	19.993	103.744	20.094	-0.477	0.005
2.000	115.416	80.012	19.994	103.740	20.093	-0.427	-0.000
2.500	115.376	80.011	19.993	103.738	20.097	-0.675	0.022
3.000	115.394	80.010	19.992	103.738	20.096	-0.641	0.004
3.500	115.366	80.009	19.993	103.736	20.096	-0.637	-0.016
4.000	115.378	80.010	19.993	103.737	20.096	-0.595	-0.013
4.500	115.374	80.010	19.992	103.740	20.097	-0.702	-0.004
5.000	115.360	80.011	19.993	103.741	20.094	-0.463	-0.005
5.500	115.341	80.011	19.993	103.742	20.099	-0.852	-0.026
6.000	115.379	80.010	19.994	103.745	20.100	-0.910	-0.007
6.500	115.347	80.010	19.993	103.744	20.098	-0.806	0.013
7.000	115.373	80.010	19.993	103.744	20.095	-0.559	0.000
7.500	115.359	80.010	19.992	103.745	20.095	-0.561	0.003
8.000	115.373	80.010	19.994	103.745	20.093	-0.399	0.006
8.500	115.392	80.011	19.993	103.745	20.096	-0.660	0.017
9.000	115.376	80.010	19.993	103.747	20.093	-0.441	0.018
9.500	115.383	80.011	19.994	103.748	20.096	-0.658	-0.003
10.001	115.338	80.010	19.993	103.748	20.098	-0.748	-0.023
10.501	115.332	80.011	19.993	103.747	20.097	-0.686	-0.044
11.000	115.365	80.010	19.992	103.748	20.095	-0.574	-0.012
11.500	115.345	80.011	19.993	103.745	20.097	-0.728	0.020
12.000	115.365	80.011	19.993	103.744	20.099	-0.830	0.006
12.500	115.362	80.010	19.993	103.744	20.098	-0.792	0.008
13.000	115.371	80.011	19.993	103.745	20.098	-0.770	0.012
13.500	115.381	80.011	19.993	103.745	20.096	-0.598	0.012
14.000	115.352	80.011	19.993	103.748	20.097	-0.720	0.000
14.500	115.386	80.011	19.993	103.754	20.094	-0.508	-0.007
15.000	115.370	80.012	19.993	103.760	20.095	-0.534	0.011
15.500	115.326	80.011	19.994	103.767	20.095	-0.552	-0.021
16.000	115.355	80.011	19.993	103.774	20.091	-0.245	-0.037
16.500	115.313	80.011	19.993	103.781	20.090	-0.197	-0.014
17.000	115.392	80.010	19.994	103.783	20.094	-0.450	0.012
17.501	115.404	80.010	19.993	103.783	20.091	-0.259	0.064
18.001	115.399	80.010	19.993	103.783	20.093	-0.412	0.049
18.500	115.438	80.011	19.993	103.783	20.093	-0.408	0.021
19.000	115.393	80.012	19.993	103.785	20.090	-0.225	0.014
19.500	115.438	80.013	19.993	103.793	20.090	-0.225	-0.003
20.000	115.389	80.011	19.993	103.801	20.090	-0.169	-0.002
20.500	115.410	80.012	19.993	103.807	20.086	0.074	-0.016
21.000	115.426	80.012	19.993	103.808	20.087	0.052	0.005
21.500	115.458	80.013	19.993	103.809	20.082	0.398	0.043
22.000	115.465	80.011	19.994	103.809	20.086	0.124	0.043
22.500	115.500	80.013	19.994	103.808	20.085	0.189	0.040
23.001	115.485	80.012	19.994	103.812	20.083	0.287	0.031
23.501	115.507	80.012	19.993	103.824	20.080	0.540	0.013
24.000	115.523	80.013	19.992	103.832	20.079	0.572	0.022
24.500	115.539	80.011	19.995	103.840	20.077	0.717	0.035
25.000	115.576	80.013	19.993	103.855	20.078	0.705	0.043
25.500	115.612	80.012	19.994	103.865	20.076	0.807	0.063
26.000	115.634	80.011	19.995	103.867	20.075	0.924	0.066
26.500	115.653	80.013	19.994	103.871	20.074	0.936	0.050
27.000	115.662	80.010	19.995	103.876	20.074	0.986	0.035
27.500	115.640	80.010	19.995	103.877	20.071	1.207	0.007
28.000	115.698	80.011	19.993	103.882	20.072	1.127	0.012
28.500	115.728	80.010	19.994	103.891	20.075	0.926	0.062
29.000	115.764	80.011	19.995	103.899	20.070	1.235	0.077
29.500	115.790	80.010	19.995	103.902	20.070	1.253	0.064
30.001	115.825	80.011	19.993	103.902	20.066	1.532	0.061
30.500	115.853	80.010	19.994	103.901	20.068	1.422	0.062
31.000	115.940	80.009	19.995	103.906	20.067	1.458	0.089
31.500	115.949	80.010	19.994	103.912	20.066	1.576	0.105
32.000	116.032	80.010	19.994	103.916	20.068	1.426	0.094
32.500	116.027	80.010	19.994	103.923	20.066	1.578	0.085
33.000	116.108	80.009	19.992	103.929	20.067	1.452	0.077
33.500	116.146	80.009	19.993	103.931	20.063	1.787	0.097
34.000	116.231	80.010	19.994	103.933	20.064	1.707	0.121
34.500	116.248	80.009	19.993	103.937	20.064	1.729	0.113
35.000	116.294	80.009	19.993	103.937	20.061	1.906	0.083
35.500	116.355	80.010	19.992	103.939	20.060	1.982	0.085
36.000	116.462	80.009	19.994	103.938	20.058	2.159	0.138
36.500	116.471	80.009	19.994	103.938	20.059	2.066	0.142
37.000	116.542	80.009	19.994	103.938	20.059	2.080	0.097
37.500	116.619	80.009	19.993	103.938	20.057	2.175	0.114
38.000	116.662	80.009	19.994	103.939	20.056	2.295	0.135
38.500	116.768	80.010	19.994	103.940	20.055	2.384	0.135
39.000	116.832	80.010	19.994	103.940	20.054	2.432	0.159
39.500	116.911	80.008	19.993	103.942	20.054	2.422	0.156
40.000	116.978	80.009	19.993	103.942	20.053	2.466	0.144
40.500	117.042	80.009	19.993	103.945	20.053	2.480	0.139
41.000	117.133	80.009	19.993	103.945	20.054	2.456	0.143
41.500	117.246	80.010	19.994	103.945	20.051	2.619	0.179
42.000	117.324	80.009	19.993	103.942	20.054	2.392	0.197
42.501	117.402	80.009	19.994	103.938	20.056	2.314	0.174
43.001	117.529	80.009	19.994	103.929	20.056	2.314	0.181
43.500	117.585	80.010	19.994	103.921	20.053	2.500	0.194
44.000	117.657	80.010	19.994	103.920	20.055	2.360	0.155
44.500	117.724	80.010	19.994	103.921	20.058	2.165	0.133
45.000	117.844	80.009	19.993	103.924	20.056	2.267	0.163
45.500	117.937	80.010	19.994	103.933	20.056	2.279	0.200
46.000	118.041	80.009	19.995	103.940	20.057	2.213	0.205
46.500	118.148	80.009	19.996	103.941	20.051	2.623	0.204
47.001	118.228	80.010	19.995	103.940	20.055	2.322	0.200
47.501	118.282	80.010	19.993	103.940	20.054	2.442	0.160
48.001	118.424	80.009	19.994	103.939	20.052	2.599	0.165
48.501	118.504	80.009	19.994	103.939	20.052	2.569	0.209
49.001	118.590	80.009	19.994	103.940	20.053	2.495	0.194
49.500	118.681	80.009	19.994	103.941	20.052	2.543	0.172
50.000	118.791	80.009	19.995	103.942	20.049	2.786	0.189
50.500	118.910	80.010	19.994	103.941	20.053	2.469	0.215
51.000	119.026	80.009	19.994	103.941	20.050	2.722	0.232
51.500	119.120	80.010	19.994	103.941	20.050	2.701	0.223
52.000	119.198	80.008	19.995	103.943	20.053	2.497	0.191
52.500	119.348	80.010	19.994	103.944	20.052	2.575	0.200
53.001	119.407	80.009	19.994	103.946	20.052	2.539	0.218
53.501	119.511	80.010	19.994	103.946	20.052	2.547	0.186
54.000	119.616	80.010	19.994	103.947	20.052	2.589	0.186
54.501	119.786	80.008	19.993	103.946	20.052	2.535	0.242
55.001	119.893	80.008	19.994	103.947	20.049	2.760	0.276
55.501	119.992	80.009	19.994	103.945	20.053	2.469	0.242
56.000	120.152	80.009	19.994	103.945	20.052	2.585	0.232
56.500	120.278	80.009	19.994	103.944	20.051	2.655	0.272
57.000	120.420	80.007	19.993	103.942	20.050	2.683	0.277
57.500	120.509	80.009	19.995	103.941	20.052	2.571	0.250
58.000	120.638	80.008	19.995	103.944	20.050	2.687	0.224
58.500	120.762	80.009	19.994	103.948	20.052	2.541	0.236
59.000	120.894	80.008	19.994	103.949	20.051	2.650	0.255
59.500	121.062	80.009	19.994	103.952	20.050	2.712	0.278
60.000	121.174	80.008	19.994	103.960	20.052	2.569	0.290
60.500	121.289	80.007	19.994	103.964	20.051	2.654	0.254
61.000	121.409	80.008	19.994	103.964	20.051	2.678	0.231
61.500	121.534	80.008	19.995	103.964	20.050	2.694	0.240
62.000	121.668	80.008	19.993	103.962	20.053	2.467	0.252
62.500	121.793	80.008	19.994	103.957	20.052	2.600	0.259
63.000	121.935	80.008	19.993	103.955	20.050	2.728	0.263
63.500	122.076	80.009	19.993	103.953	20.050	2.710	0.275
64.000	122.214	80.009	19.994	103.958	20.049	2.817	0.281
64.500	122.365	80.008	19.994	103.964	20.053	2.503	0.284
65.000	122.480	80.008	19.994	103.969	20.048	2.831	0.277
65.500	122.647	80.009	19.993	103.968	20.050	2.734	0.274
66.000	122.836	80.007	19.993	103.969	20.049	2.808	0.319
66.500	122.953	80.009	19.992	103.964	20.047	2.953	0.331
67.000	123.085	80.009	19.994	103.958	20.053	2.519	0.278
67.500	123.222	80.009	19.993	103.952	20.051	2.658	0.259
68.000	123.378	80.009	19.993	103.951	20.051	2.666	0.281
68.500	123.575	80.008	19.995	103.954	20.050	2.706	0.323
69.000	123.669	80.010	19.994	103.960	20.051	2.644	0.322
69.500	123.810	80.008	19.993	103.968	20.051	2.655	0.263
70.001	123.969	80.009	19.994	103.973	20.053	2.505	0.268
70.501	124.111	80.009	19.994	103.978	20.051	2.651	0.301
71.000	124.272	80.009	19.995	103.979	20.052	2.597	0.302
71.500	124.459	80.009	19.993	103.980	20.050	2.724	0.326
72.001	124.623	80.010	19.993	103.981	20.054	2.453	0.350
72.501	124.756	80.008	19.994	103.984	20.054	2.415	0.324
73.000	124.921	80.009	19.993	103.982	20.055	2.330	0.297
73.501	125.091	80.009	19.994	103.983	20.052	2.549	0.317
74.001	125.239	80.011	19.993	103.984	20.052	2.559	0.327
74.500	125.444	80.009	19.993	103.984	20.051	2.674	0.335
75.000	125.574	80.009	19.992	103.982	20.054	2.423	0.344
75.500	125.730	80.009	19.993	103.981	20.056	2.310	0.311
76.000	125.886	80.012	19.994	103.979	20.056	2.284	0.299
76.500	126.029	80.010	19.994	103.979	20.053	2.479	0.305
77.000	126.211	80.011	19.993	103.976	20.056	2.270	0.312
77.500	126.390	80.011	19.994	103.974	20.056	2.286	0.343
78.000	126.525	80.011	19.992	103.976	20.055	2.363	0.338
78.500	126.692	80.011	19.993	103.977	20.055	2.376	0.308
79.000	126.873	80.010	19.994	103.975	20.052	2.570	0.324
79.500	127.043	80.011	19.993	103.972	20.051	2.608	0.349
80.000	127.220	80.010	19.992	103.970	20.056	2.298	0.349
80.500	127.417	80.012	19.993	103.967	20.051	2.613	0.361
81.000	127.533	80.010	19.994	103.964	20.055	2.339	0.344
81.500	127.715	80.011	19.994	103.966	20.053	2.505	0.306
82.001	127.894	80.010	19.994	103.971	20.054	2.393	0.329
82.501	128.088	80.012	19.993	103.976	20.056	2.284	0.367
83.000	128.277	80.011	19.993	103.979	20.055	2.326	0.378
83.500	128.434	80.011	19.994	103.980	20.052	2.575	0.365
84.000	128.621	80.012	19.993	103.980	20.052	2.605	0.345
84.500	128.795	80.011	19.993	103.979	20.053	2.500	0.352
85.000	128.976	80.010	19.993	103.979	20.048	2.855	0.358
85.500	129.166	80.011	19.993	103.978	20.050	2.696	0.363
86.000	129.350	80.011	19.993	103.978	20.053	2.523	0.372
86.500	129.527	80.010	19.994	103.978	20.051	2.612	0.367
87.000	129.723	80.010	19.993	103.979	20.051	2.662	0.367
87.500	129.884	80.011	19.994	103.979	20.050	2.744	0.365
88.001	130.093	80.011	19.993	103.978	20.049	2.766	0.363
88.501	130.250	80.011	19.993	103.980	20.049	2.776	0.368
89.000	130.432	80.011	19.994	103.980	20.049	2.801	0.352
89.500	130.618	80.010	19.995	103.950	20.051	2.650	0.354
90.000	130.839	80.010	19.992	103.919	20.049	2.754	0.388
90.500	130.981	80.010	19.993	103.900	20.050	2.708	0.385
91.000	131.182	80.010	19.993	103.884	20.050	2.750	0.353
91.500	131.352	80.012	19.994	103.877	20.053	2.467	0.357
92.001	131.514	80.012	19.993	103.905	20.055	2.342	0.351
92.501	131.715	80.010	19.996	103.958	20.050	2.688	0.347
93.001	131.911	80.010	19.995	104.013	20.054	2.435	0.380
93.501	132.077	80.011	19.994	104.041	20.053	2.505	0.380
94.000	132.282	80.012	19.994	104.057	20.047	2.901	0.366
94.500	132.468	80.011	19.995	104.061	20.053	2.503	0.381
95.000	132.679	80.010	19.993	104.038	20.053	2.473	0.394
95.500	132.885	80.011	19.993	104.003	20.050	2.726	0.407
96.000	133.079	80.011	19.994	103.990	20.053	2.487	0.409
96.500	133.262	80.011	19.994	103.983	20.048	2.867	0.388
97.000	133.470	80.010	19.995	103.979	20.048	2.883	0.384
97.500	133.644	80.011	19.993	103.979	20.051	2.634	0.386
98.000	133.834	80.011	19.992	103.978	20.050	2.724	0.373
98.500	134.022	80.011	19.993	103.977	20.053	2.517	0.371
99.000	134.218	80.010	19.994	103.978	20.050	2.748	0.381
99.500	134.389	80.011	19.994	103.981	20.048	2.893	0.375
100.000	134.594	80.012	19.994	103.984	20.050	2.680	0.371
100.500	134.789	80.012	19.992	103.985	20.050	2.684	0.388
101.000	135.010	80.013	19.992	103.986	20.049	2.758	0.408
101.500	135.235	80.012	19.993	103.986	20.052	2.569	0.431
102.001	135.406	80.012	19.994	103.985	20.052	2.547	0.421
102.501	135.610	80.012	19.993	103.983	20.050	2.688	0.386
103.000	135.843	80.013	19.993	103.982	20.050	2.752	0.406
103.500	136.054	80.012	19.993	103.981	20.050	2.702	0.440
104.000	136.251	80.013	19.993	103.980	20.047	2.921	0.426
104.500	136.441	80.013	19.993	103.983	20.051	2.666	0.397
105.000	136.613	80.012	19.992	103.984	20.048	2.897	0.375
105.500	136.870	80.011	19.994	103.983	20.051	2.612	0.395
106.001	137.061	80.012	19.992	103.984	20.051	2.678	0.438
106.501	137.284	80.013	19.994	103.987	20.049	2.777	0.431
107.000	137.474	80.013	19.992	103.985	20.048	2.831	0.413
107.500	137.700	80.012	19.993	103.983	20.048	2.837	0.415
108.000	137.939	80.013	19.992	103.984	20.049	2.809	0.441
108.500	138.107	80.011	19.993	103.983	20.048	2.855	0.436
109.000	138.370	80.012	19.991	103.980	20.049	2.805	0.419
109.500	138.549	80.012	19.992	103.980	20.051	2.662	0.436
110.000	138.778	80.013	19.993	103.980	20.048	2.855	0.425
110.500	138.963	80.012	19.993	103.979	20.045	3.096	0.411
111.000	139.152	80.013	19.993	103.979	20.046	2.978	0.394
111.500	139.391	80.012	19.993	103.979	20.048	2.859	0.401
112.001	139.624	80.011	19.994	103.979	20.048	2.873	0.450
112.501	139.803	80.010	19.994	103.979	20.049	2.791	0.442
113.000	140.018	80.011	19.993	103.979	20.048	2.847	0.403
113.501	140.260	80.010	19.992	103.980	20.045	3.050	0.425
114.001	140.480	80.010	19.992	103.984	20.049	2.789	0.459
114.500	140.695	80.010	19.994	103.985	20.048	2.891	0.448
115.000	140.918	80.009	19.994	103.986	20.046	2.976	0.436
115.500	141.133	80.010	19.993	103.987	20.046	2.992	0.438
116.000	141.373	80.009	19.993	103.994	20.045	3.054	0.447
116.500	141.589	80.010	19.992	103.997	20.049	2.793	0.455
117.001	141.805	80.008	19.990	103.997	20.048	2.851	0.445
117.501	142.028	80.010	19.995	104.002	20.046	3.010	0.436
118.000	142.267	80.009	19.994	104.005	20.047	2.937	0.450
118.500	142.530	80.011	19.995	103.998	20.043	3.243	0.482
119.000	142.745	80.011	19.996	103.991	20.045	3.100	0.489
119.500	142.920	80.009	19.994	103.989	20.044	3.167	0.434
120.000	143.177	80.009	19.993	103.985	20.044	3.177	0.412
120.500	143.409	80.010	19.993	103.981	20.045	3.094	0.461
121.000	143.664	80.009	19.994	103.983	20.043	3.233	0.488
121.500	143.884	80.010	19.992	103.986	20.044	3.126	0.481
122.000	144.074	80.008	19.993	103.989	20.041	3.399	0.443
122.500	144.287	80.009	19.995	103.991	20.043	3.243	0.406
123.001	144.523	80.009	19.997	103.997	20.042	3.279	0.426
123.501	144.776	80.011	19.994	103.998	20.042	3.275	0.469
124.000	144.990	80.009	19.995	103.998	20.039	3.528	0.478
124.501	145.236	80.010	19.995	103.998	20.040	3.409	0.463
125.001	145.434	80.009	19.994	103.998	20.040	3.441	0.452
125.500	145.653	80.009	19.995	103.992	20.039	3.506	0.431
126.000	145.912	80.009	19.993	103.990	20.040	3.454	0.447
126.500	146.138	80.009	19.994	103.987	20.041	3.341	0.482
127.001	146.353	80.009	19.994	103.985	20.043	3.192	0.463
127.501	146.592	80.009	19.993	103.985	20.045	3.100	0.448
128.000	146.831	80.008	19.994	103.986	20.046	3.040	0.466
128.500	147.072	80.010	19.995	103.986	20.045	3.044	0.479
129.000	147.275	80.008	19.992	103.990	20.043	3.210	0.462
129.500	147.528	80.010	19.991	103.994	20.042	3.311	0.450
130.000	147.783	80.009	19.992	103.994	20.044	3.176	0.482
130.500	148.019	80.011	19.994	103.994	20.046	2.996	0.499
131.000	148.262	80.010	19.994	103.996	20.044	3.156	0.485
131.500	148.468	80.009	19.994	103.994	20.046	3.000	0.464
132.000	148.738	80.011	19.994	103.990	20.044	3.144	0.462
132.500	148.966	80.009	19.995	103.988	20.045	3.082	0.487
133.000	149.182	80.010	19.994	103.990	20.044	3.178	0.471
133.500	149.425	80.009	19.995	103.992	20.044	3.186	0.451
134.000	149.673	80.010	19.993	103.990	20.043	3.253	0.475
134.500	149.895	80.009	19.994	103.989	20.042	3.291	0.480
135.000	150.128	80.010	19.996	103.990	20.044	3.144	0.463
135.500	150.377	80.009	19.994	103.987	20.043	3.221	0.469
136.000	150.575	80.010	19.994	103.983	20.042	3.309	0.464
136.500	150.825	80.009	19.993	103.983	20.041	3.391	0.447
137.000	151.046	80.009	19.994	103.983	20.043	3.212	0.460
137.500	151.336	80.009	19.995	103.983	20.043	3.192	0.491
138.000	151.546	80.009	19.994	103.983	20.041	3.357	0.506
138.500	151.798	80.008	19.994	103.983	20.044	3.132	0.482
139.000	152.032	80.008	19.993	103.983	20.044	3.154	0.474
139.500	152.234	80.010	19.994	103.984	20.044	3.150	0.461
140.000	152.483	80.011	19.994	103.984	20.045	3.054	0.443
140.500	152.757	80.009	19.995	103.984	20.048	2.841	0.487
141.000	153.012	80.009	19.994	103.985	20.046	2.981	0.526
141.500	153.270	80.010	19.993	103.987	20.045	3.050	0.521
142.000	153.479	80.009	19.994	103.986	20.044	3.144	0.490
142.500	153.732	80.008	19.993	103.989	20.042	3.285	0.464
143.000	154.016	80.010	19.994	103.991	20.043	3.236	0.499
143.501	154.234	80.008	19.995	103.991	20.044	3.188	0.519
144.000	154.480	80.009	19.995	103.989	20.041	3.363	0.483
144.500	154.727	80.008	19.994	103.989	20.044	3.172	0.479
145.000	154.979	80.007	19.995	103.986	20.046	3.023	0.496
145.500	155.196	80.009	19.994	103.984	20.045	3.070	0.484
146.000	155.431	80.008	19.995	103.984	20.042	3.323	0.461
146.500	155.691	80.008	19.996	103.985	20.042	3.262	0.474
147.000	155.903	80.009	19.995	103.985	20.048	2.859	0.483
147.500	156.130	80.007	19.993	103.985	20.044	3.142	0.455
148.000	156.401	80.008	19.996	103.984	20.045	3.088	0.469
148.500	156.638	80.008	19.995	103.984	20.046	2.971	0.503
149.000	156.844	80.006	19.996	103.983	20.047	2.951	0.475
149.500	157.141	80.009	19.994	103.981	20.049	2.818	0.473
150.000	157.371	80.007	19.993	103.980	20.044	3.132	0.515
150.500	157.656	80.007	19.996	103.980	20.046	3.015	0.521
151.000	157.844	80.009	19.994	103.979	20.047	2.961	0.494
151.500	158.096	80.008	19.994	103.978	20.045	3.070	0.457
152.000	158.405	80.006	19.996	103.978	20.047	2.943	0.500
152.500	158.620	80.007	19.995	103.978	20.046	2.989	0.542
153.000	158.860	80.009	19.994	103.978	20.044	3.126	0.490
153.500	159.093	80.009	19.994	103.977	20.043	3.230	0.464
154.000	159.415	80.008	19.996	103.977	20.045	3.047	0.514
154.500	159.657	80.008	19.994	103.977	20.045	3.110	0.559
155.000	159.897	80.008	19.994	103.978	20.045	3.074	0.523
155.500	160.126	80.010	19.995	103.977	20.043	3.192	0.476
156.000	160.360	80.011	19.992	103.978	20.042	3.297	0.466
156.500	160.631	80.008	19.995	103.978	20.045	3.116	0.484
157.000	160.872	80.009	19.994	103.977	20.046	3.041	0.509
157.500	161.103	80.010	19.994	103.977	20.046	2.983	0.492
158.001	161.372	80.009	19.994	103.978	20.049	2.808	0.486
158.500	161.607	80.011	19.993	103.978	20.047	2.915	0.502
159.000	161.865	80.011	19.993	103.978	20.045	3.073	0.499
159.500	162.129	80.010	19.995	103.975	20.047	2.943	0.508
160.000	162.348	80.010	19.995	103.973	20.045	3.091	0.502
160.500	162.646	80.011	19.994	103.971	20.048	2.828	0.500
161.000	162.891	80.012	19.995	103.970	20.046	3.041	0.530
161.500	163.143	80.012	19.994	103.970	20.045	3.065	0.520
162.000	163.400	80.011	19.994	103.973	20.045	3.065	0.503
162.500	163.674	80.010	19.993	103.975	20.046	3.031	0.520
163.000	163.942	80.011	19.993	103.976	20.049	2.812	0.536
163.500	164.164	80.011	19.993	103.977	20.047	2.941	0.516
164.000	164.425	80.012	19.994	103.976	20.050	2.690	0.487
164.500	164.691	80.012	19.995	103.977	20.046	2.997	0.505
165.000	164.941	80.011	19.995	103.977	20.051	2.656	0.522
165.500	165.203	80.010	19.993	103.977	20.050	2.702	0.514
166.000	165.477	80.013	19.991	103.978	20.045	3.057	0.524
166.500	165.679	80.010	19.994	103.979	20.045	3.065	0.506
167.000	165.948	80.012	19.993	103.978	20.045	3.061	0.474
167.500	166.221	80.011	19.992	103.975	20.047	2.959	0.507
168.000	166.474	80.009	19.993	103.973	20.049	2.798	0.534
168.500	166.699	80.009	19.995	103.970	20.051	2.633	0.502
169.000	166.961	80.011	19.993	103.969	20.048	2.878	0.483
169.500	167.206	80.011	19.993	103.969	20.047	2.969	0.497
170.000	167.452	80.013	19.993	103.972	20.049	2.812	0.499
170.500	167.700	80.011	19.994	103.968	20.051	2.669	0.493
171.000	167.976	80.012	19.992	103.966	20.045	3.093	0.509
171.500	168.231	80.011	19.994	103.963	20.048	2.868	0.527
172.000	168.512	80.012	19.995	103.959	20.048	2.876	0.533
172.500	168.765	80.011	19.993	103.955	20.045	3.083	0.535
173.000	169.006	80.013	19.995	103.956	20.049	2.798	0.514
173.500	169.283	80.012	19.993	103.961	20.047	2.912	0.506
174.000	169.512	80.010	19.994	103.964	20.050	2.743	0.512
174.500	169.805	80.013	19.994	103.969	20.047	2.956	0.514
175.001	170.049	80.012	19.995	103.972	20.049	2.804	0.529
175.500	170.313	80.012	19.993	103.973	20.045	3.113	0.523
176.000	170.529	80.010	19.994	103.971	20.049	2.796	0.494
176.500	170.821	80.011	19.994	103.971	20.050	2.711	0.494
177.000	171.077	80.010	19.992	103.971	20.047	2.920	0.528
177.500	171.302	80.012	19.997	103.968	20.048	2.834	0.515
178.000	171.560	80.012	19.997	103.972	20.045	3.045	0.482
178.500	171.791	80.011	19.995	103.973	20.048	2.888	0.486
179.000	172.055	80.012	19.994	103.967	20.047	2.964	0.492
179.500	172.380	80.011	19.996	103.964	20.047	2.934	0.542
180.000	172.556	80.009	19.995	103.965	20.048	2.862	0.545
180.500	172.809	80.010	19.992	103.963	20.047	2.926	0.465
181.000	173.101	80.012	19.993	103.963	20.046	3.014	0.487
181.500	173.357	80.014	19.994	103.962	20.049	2.761	0.546
182.001	173.619	80.012	19.994	103.958	20.049	2.796	0.533
182.500	173.865	80.012	19.994	103.954	20.054	2.448	0.513
183.000	174.117	80.010	19.994	103.951	20.050	2.707	0.503
183.500	174.378	80.011	19.994	103.947	20.053	2.498	0.505
184.000	174.602	80.011	19.994	103.948	20.051	2.665	0.499
184.500	174.843	80.013	19.992	103.951	20.052	2.535	0.475
185.000	175.092	80.011	19.994	103.951	20.050	2.707	0.477
185.500	175.341	80.011	19.994	103.948	20.053	2.470	0.494
186.000	175.587	80.011	19.993	103.950	20.052	2.575	0.497
186.501	175.857	80.013	19.993	103.950	20.049	2.820	0.506
187.000	176.117	80.012	19.994	103.948	20.052	2.585	0.522
187.500	176.417	80.015	19.993	103.947	20.051	2.635	0.545
188.000	176.628	80.011	19.994	103.947	20.051	2.633	0.536
188.500	176.880	80.013	19.993	103.947	20.053	2.507	0.487
189.000	177.136	80.011	19.993	103.948	20.052	2.543	0.485
189.500	177.407	80.013	19.992	103.947	20.054	2.400	0.517
190.000	177.644	80.014	19.993	103.948	20.055	2.371	0.517
190.500	177.846	80.012	19.993	103.950	20.051	2.614	0.474
191.000	178.115	80.012	19.995	103.947	20.055	2.373	0.456
191.500	178.381	80.011	19.993	103.946	20.052	2.560	0.503
192.000	178.665	80.009	19.993	103.947	20.055	2.351	0.542
192.500	178.863	80.011	19.995	103.947	20.054	2.432	0.516
193.000	179.122	80.013	19.992	103.948	20.053	2.492	0.469
193.500	179.418	80.011	19.992	103.951	20.053	2.508	0.506
194.000	179.638	80.011	19.992	103.951	20.052	2.548	0.536
194.500	179.938	80.011	19.992	103.950	20.053	2.466	0.518
195.000	180.153	80.012	19.991	103.948	20.054	2.394	0.518
195.500	180.400	80.010	19.995	103.947	20.054	2.402	0.489
196.000	180.666	80.012	19.993	103.944	20.052	2.593	0.488
196.500	180.945	80.009	19.993	103.944	20.052	2.585	0.529
197.000	181.198	80.011	19.996	103.944	20.050	2.743	0.539
197.500	181.432	80.010	19.993	103.945	20.053	2.468	0.510
198.000	181.708	80.010	19.993	103.945	20.051	2.659	0.499
198.500	182.007	80.011	19.994	103.947	20.052	2.546	0.543
199.000	182.227	80.010	19.993	103.952	20.052	2.538	0.547
199.500	182.418	80.009	19.993	103.953	20.051	2.607	0.465
200.000	182.764	80.010	19.994	103.950	20.051	2.621	0.474
200.500	183.002	80.008	19.993	103.941	20.048	2.872	0.560
201.000	183.219	80.010	19.993	103.931	20.048	2.866	0.520
201.500	183.486	80.011	19.993	103.922	20.051	2.661	0.470
202.000	183.694	80.010	19.992	103.917	20.054	2.416	0.479
202.500	183.992	80.009	19.992	103.919	20.055	2.340	0.490
203.000	184.257	80.011	19.993	103.926	20.055	2.384	0.534
203.500	184.478	80.010	19.993	103.936	20.051	2.649	0.524
204.000	184.798	80.009	19.991	103.941	20.053	2.530	0.514
204.500	185.017	80.009	19.992	103.945	20.053	2.474	0.540
205.000	185.280	80.008	19.994	103.945	20.052	2.584	0.510
205.500	185.504	80.010	19.993	103.945	20.049	2.809	0.485
206.000	185.804	80.009	19.993	103.945	20.052	2.578	0.506
206.500	186.038	80.010	19.993	103.945	20.052	2.604	0.529
207.000	186.292	80.009	19.994	103.945	20.050	2.713	0.511
207.500	186.547	80.010	19.995	103.946	20.051	2.615	0.498
208.000	186.826	80.010	19.995	103.946	20.053	2.500	0.522
208.500	187.035	80.009	19.994	103.945	20.053	2.522	0.511
209.000	187.314	80.010	19.995	103.944	20.055	2.384	0.488
209.500	187.565	80.010	19.994	103.943	20.052	2.596	0.509
210.000	187.827	80.013	19.994	103.943	20.051	2.617	0.521
210.500	188.021	80.011	19.993	103.942	20.054	2.396	0.484
211.000	188.303	80.007	19.992	103.942	20.052	2.566	0.466
211.500	188.561	80.008	19.993	103.943	20.054	2.430	0.508
212.000	188.801	80.010	19.994	103.942	20.052	2.599	0.519
212.500	189.082	80.008	19.993	103.941	20.053	2.510	0.509
213.000	189.324	80.010	19.995	103.942	20.053	2.506	0.522
213.500	189.576	80.007	19.996	103.941	20.049	2.767	0.509
214.000	189.801	80.010	19.993	103.941	20.053	2.478	0.486
214.501	190.069	80.010	19.993	103.939	20.052	2.572	0.485
215.000	190.290	80.007	19.994	103.939	20.053	2.494	0.491
215.500	190.593	80.008	19.994	103.935	20.055	2.387	0.507
216.000	190.839	80.010	19.995	103.932	20.052	2.556	0.537
216.500	191.063	80.007	19.994	103.932	20.051	2.660	0.509
217.000	191.311	80.008	19.993	103.934	20.052	2.596	0.471
217.500	191.572	80.010	19.994	103.935	20.055	2.379	0.490
218.000	191.822	80.011	19.995	103.936	20.053	2.501	0.510
218.500	192.056	80.009	19.992	103.936	20.052	2.544	0.498
219.000	192.346	80.010	19.994	103.935	20.055	2.331	0.504
219.500	192.526	80.009	19.994	103.935	20.055	2.327	0.497
220.000	192.761	80.008	19.994	103.934	20.053	2.480	0.443
220.500	193.056	80.007	19.994	103.936	20.054	2.438	0.472
221.000	193.314	80.011	19.996	103.939	20.054	2.397	0.541
221.500	193.562	80.008	19.994	103.938	20.058	2.144	0.529
222.000	193.797	80.009	19.993	103.935	20.057	2.227	0.494
222.500	194.058	80.010	19.993	103.936	20.058	2.166	0.490
223.000	194.277	80.009	19.995	103.937	20.055	2.349	0.488
223.500	194.544	80.010	19.995	103.934	20.056	2.303	0.483
224.000	194.856	80.010	19.993	103.931	20.055	2.333	0.532
224.500	195.036	80.009	19.994	103.926	20.056	2.269	0.535
225.000	195.283	80.010	19.994	103.919	20.057	2.223	0.460
225.500	195.532	80.010	19.994	103.916	20.055	2.353	0.462
226.000	195.773	80.010	19.994	103.916	20.058	2.098	0.493
226.500	196.049	80.010	19.995	103.921	20.052	2.568	0.504
227.000	196.305	80.008	19.995	103.924	20.056	2.291	0.524
227.500	196.503	80.009	19.995	103.925	20.056	2.307	0.493
228.000	196.725	80.009	19.993	103.919	20.054	2.442	0.437
228.500	197.013	80.010	19.995	103.914	20.057	2.199	0.465
229.000	197.231	80.010	19.993	103.910	20.056	2.279	0.508
229.500	197.492	80.010	19.995	103.915	20.056	2.297	0.493
230.000	197.729	80.009	19.996	103.920	20.053	2.504	0.489
230.500	197.953	80.008	19.994	103.924	20.056	2.299	0.479
231.000	198.223	80.007	19.994	103.929	20.055	2.337	0.477
231.500	198.481	80.009	19.995	103.932	20.053	2.486	0.511
232.000	198.755	80.011	19.996	103.927	20.055	2.387	0.530
232.500	198.999	80.009	19.993	103.922	20.055	2.369	0.525
233.000	199.239	80.009	19.994	103.918	20.052	2.546	0.501
233.500	199.482	80.009	19.993	103.916	20.055	2.315	0.483
234.000	199.755	80.008	19.996	103.912	20.053	2.468	0.499
234.500	199.955	80.009	19.994	103.915	20.054	2.460	0.495
235.000	200.243	80.010	19.994	103.921	20.054	2.422	0.480
235.500	200.441	80.010	19.993	103.926	20.059	2.034	0.487
236.000	200.741	80.009	19.997	103.926	20.055	2.321	0.492
236.500	200.980	80.010	19.995	103.926	20.058	2.160	0.518
237.000	201.189	80.009	19.994	103.923	20.057	2.225	0.494
237.500	201.448	80.009	19.995	103.924	20.060	1.958	0.458
238.000	201.744	80.009	19.995	103.927	20.057	2.205	0.511
238.500	201.964	80.011	19.995	103.931	20.054	2.413	0.535
239.000	202.248	80.010	19.997	103.936	20.056	2.245	0.510
239.500	202.449	80.011	19.994	103.941	20.057	2.172	0.495
240.000	202.686	80.012	19.995	103.941	20.055	2.315	0.461
240.500	202.951	80.008	19.995	103.938	20.055	2.375	0.470
241.000	203.180	80.010	19.994	103.936	20.055	2.355	0.498
241.500	203.446	80.011	19.994	103.932	20.056	2.281	0.494
242.000	203.663	80.013	19.994	103.929	20.055	2.381	0.489
242.500	203.960	80.011	19.994	103.927	20.056	2.313	0.499
243.000	204.161	80.010	19.996	103.928	20.058	2.160	0.506
243.500	204.409	80.012	19.995	103.928	20.060	2.020	0.473
244.000	204.649	80.010	19.995	103.930	20.056	2.257	0.469
244.500	204.902	80.011	19.996	103.932	20.058	2.154	0.491
245.000	205.185	80.010	19.994	103.934	20.054	2.455	0.514
245.500	205.418	80.010	19.995	103.930	20.058	2.150	0.526
246.000	205.634	80.009	19.994	103.928	20.059	2.082	0.483
246.500	205.906	80.011	19.994	103.928	20.055	2.339	0.469
247.000	206.117	80.008	19.994	103.926	20.051	2.608	0.485
247.500	206.421	80.010	19.995	103.925	20.056	2.254	0.498
248.000	206.612	80.011	19.993	103.927	20.055	2.359	0.505
248.500	206.836	80.011	19.995	103.925	20.054	2.425	0.455
249.000	207.122	80.010	19.993	103.920	20.059	2.082	0.463
249.500	207.376	80.011	19.993	103.917	20.061	1.939	0.525
250.000	207.650	80.009	19.993	103.913	20.060	2.018	0.534
250.500	207.901	80.011	19.995	103.908	20.061	1.935	0.526
251.000	208.157	80.011	19.995	103.910	20.060	2.012	0.515
251.500	208.413	80.011	19.993	103.911	20.061	1.897	0.509
252.000	208.608	80.010	19.996	103.914	20.058	2.124	0.482
252.500	208.852	80.012	19.995	103.920	20.060	2.014	0.445
253.000	209.108	80.011	19.994	103.924	20.057	2.178	0.469
253.500	209.325	80.010	19.993	103.925	20.058	2.104	0.487
254.000	209.584	80.010	19.995	103.924	20.059	2.066	0.475
254.500	209.798	80.010	19.994	103.921	20.061	1.917	0.474
255.000	210.084	80.010	19.994	103.914	20.058	2.128	0.487
255.500	210.338	80.010	19.994	103.918	20.063	1.777	0.521
256.000	210.576	80.010	19.993	103.916	20.059	2.078	0.516
256.500	210.801	80.010	19.994	103.914	20.061	1.921	0.477
257.000	211.027	80.010	19.993	103.915	20.061	1.903	0.457
257.500	211.348	80.009	19.993	103.914	20.058	2.104	0.499
258.000	211.561	80.010	19.994	103.907	20.061	1.919	0.541
258.500	211.794	80.011	19.995	103.907	20.058	2.166	0.490
259.000	212.041	80.011	19.994	103.909	20.063	1.787	0.463
259.500	212.307	80.011	19.993	103.908	20.062	1.829	0.496
260.000	212.533	80.011	19.994	103.911	20.061	1.885	0.503
260.501	212.790	80.011	19.994	103.912	20.057	2.202	0.488
261.001	212.993	80.010	19.993	103.910	20.059	2.054	0.472
261.501	213.226	80.011	19.993	103.909	20.061	1.895	0.448
262.001	213.515	80.010	19.993	103.913	20.060	2.008	0.479
262.500	213.753	80.011	19.993	103.910	20.059	2.090	0.525
263.000	214.017	80.011	19.995	103.909	20.055	2.363	0.514
263.500	214.255	80.010	19.994	103.908	20.058	2.158	0.502
264.000	214.538	80.012	19.993	103.910	20.060	1.998	0.512
264.500	214.765	80.012	19.993	103.909	20.060	1.955	0.516
265.000	215.027	80.011	19.994	103.911	20.060	1.990	0.499
265.500	215.244	80.012	19.994	103.917	20.057	2.214	0.484
266.000	215.491	80.011	19.993	103.920	20.061	1.905	0.471
266.500	215.739	80.011	19.993	103.919	20.057	2.210	0.480
267.000	216.008	80.011	19.995	103.916	20.060	1.961	0.507
267.500	216.252	80.012	19.993	103.916	20.060	1.957	0.515
268.000	216.503	80.012	19.994	103.915	20.063	1.739	0.504
268.500	216.711	80.011	19.993	103.918	20.062	1.817	0.477
269.000	216.972	80.011	19.993	103.919	20.059	2.034	0.464
269.500	217.225	80.012	19.992	103.922	20.060	2.008	0.491
270.000	217.484	80.011	19.993	103.922	20.058	2.154	0.513
270.500	217.732	80.012	19.996	103.919	20.059	2.056	0.509
271.000	217.951	80.013	19.993	103.915	20.058	2.162	0.487
271.500	218.226	80.012	19.992	103.913	20.061	1.949	0.481
272.000	218.447	80.012	19.993	103.911	20.061	1.935	0.495
272.500	218.715	80.012	19.993	103.908	20.059	2.036	0.492
273.000	218.939	80.012	19.992	103.907	20.059	2.044	0.490
273.500	219.169	80.011	19.993	103.905	20.058	2.144	0.473
274.000	219.412	80.015	19.993	103.906	20.060	2.005	0.464
274.500	219.705	80.012	19.992	103.907	20.061	1.939	0.505
275.000	219.946	80.012	19.994	103.910	20.060	1.959	0.535
275.500	220.188	80.012	19.993	103.910	20.058	2.166	0.509
276.000	220.410	80.012	19.993	103.909	20.057	2.190	0.473
276.500	220.613	80.011	19.990	103.909	20.060	2.001	0.444
277.000	220.897	80.013	19.994	103.907	20.062	1.839	0.456
277.500	221.143	80.010	19.992	103.903	20.062	1.807	0.509
278.000	221.411	80.012	19.992	103.902	20.063	1.785	0.522
278.500	221.634	80.011	19.994	103.903	20.061	1.891	0.502
279.000	221.851	80.010	19.994	103.907	20.063	1.761	0.465
279.500	222.100	80.011	19.993	103.907	20.060	1.997	0.453
280.001	222.360	80.009	19.994	103.911	20.063	1.777	0.488
280.500	222.590	80.010	19.994	103.915	20.063	1.797	0.499
281.000	222.872	80.010	19.994	103.916	20.064	1.690	0.501
281.500	223.117	80.010	19.994	103.913	20.058	2.154	0.520
282.000	223.369	80.009	19.995	103.914	20.064	1.718	0.512
282.500	223.629	80.010	19.994	103.912	20.059	2.058	0.505
283.000	223.842	80.010	19.993	103.908	20.061	1.895	0.492
283.500	224.105	80.009	19.996	103.907	20.063	1.795	0.474
284.000	224.328	80.009	19.994	103.906	20.062	1.869	0.481
284.500	224.613	80.010	19.994	103.903	20.062	1.867	0.497
285.000	224.823	80.010	19.993	103.902	20.063	1.736	0.502
285.500	225.059	80.010	19.992	103.901	20.065	1.638	0.471
286.000	225.328	80.010	19.992	103.901	20.066	1.576	0.476
286.500	225.596	80.010	19.994	103.901	20.063	1.753	0.521
287.000	225.875	80.010	19.993	103.901	20.064	1.672	0.542
287.500	226.086	80.011	19.995	103.901	20.062	1.869	0.518
288.000	226.342	80.010	19.993	103.901	20.061	1.933	0.478
288.500	226.578	80.010	19.993	103.902	20.060	1.975	0.480
289.000	226.841	80.009	19.994	103.904	20.063	1.805	0.496
289.500	227.094	80.011	19.994	103.905	20.062	1.829	0.508
290.000	227.330	80.011	19.994	103.905	20.061	1.913	0.503
290.500	227.594	80.011	19.995	103.905	20.062	1.865	0.494
291.000	227.824	80.011	19.993	103.905	20.065	1.654	0.497
291.500	228.140	80.009	19.994	103.902	20.060	1.989	0.520
292.000	228.393	80.009	19.993	103.901	20.062	1.829	0.557
292.500	228.602	80.009	19.992	103.901	20.060	1.983	0.516
293.000	228.861	80.011	19.992	103.902	20.061	1.937	0.466
293.500	229.151	80.011	19.992	103.902	20.063	1.805	0.508
294.000	229.393	80.011	19.993	103.903	20.060	1.991	0.540
294.501	229.648	80.011	19.994	103.905	20.058	2.116	0.514
295.000	229.900	80.011	19.993	103.904	20.060	1.987	0.502
295.500	230.169	80.012	19.994	103.903	20.060	1.951	0.514
296.000	230.408	80.009	19.993	103.904	20.061	1.891	0.515
296.500	230.635	80.009	19.994	103.905	20.064	1.672	0.487
297.000	230.889	80.009	19.991	103.906	20.064	1.694	0.473
297.500	231.176	80.011	19.995	103.907	20.063	1.746	0.511
298.000	231.405	80.011	19.994	103.908	20.061	1.907	0.529
298.500	231.672	80.010	19.994	103.907	20.063	1.758	0.506
299.000	231.951	80.011	19.994	103.907	20.065	1.610	0.521
299.500	232.190	80.012	19.993	103.904	20.061	1.905	0.532
300.000	232.443	80.010	19.994	103.903	20.061	1.889	0.505
300.500	232.703	80.011	19.994	103.903	20.057	2.194	0.502
301.000	232.985	80.010	19.994	103.905	20.061	1.917	0.528
301.500	233.235	80.011	19.993	103.904	20.059	2.088	0.537
302.000	233.465	80.011	19.994	103.904	20.059	2.082	0.506
302.500	233.705	80.011	19.993	103.904	20.060	1.999	0.476
303.000	233.961	80.012	19.993	103.903	20.057	2.214	0.483
303.500	234.252	80.012	19.994	103.902	20.063	1.795	0.521
304.000	234.480	80.011	19.993	103.903	20.060	2.013	0.533
304.500	234.719	80.011	19.993	103.903	20.059	2.068	0.493
305.000	234.976	80.009	19.994	103.903	20.063	1.781	0.481
305.500	235.265	80.010	19.994	103.903	20.062	1.843	0.521
306.000	235.491	80.009	19.994	103.902	20.063	1.795	0.531
306.500	235.736	80.010	19.994	103.901	20.061	1.921	0.493
307.000	235.968	80.011	19.993	103.902	20.061	1.949	0.474
307.500	236.282	80.010	19.994	103.903	20.062	1.847	0.512
308.000	236.483	80.010	19.995	103.903	20.062	1.849	0.531
308.500	236.702	80.010	19.995	103.902	20.062	1.873	0.468
309.000	236.965	80.010	19.994	103.903	20.065	1.648	0.451
309.500	237.210	80.010	19.994	103.900	20.067	1.504	0.495
310.000	237.489	80.011	19.993	103.899	20.065	1.654	0.515
310.500	237.747	80.011	19.993	103.899	20.065	1.622	0.530
311.000	237.990	80.010	19.994	103.898	20.065	1.590	0.520
311.500	238.248	80.010	19.996	103.898	20.065	1.634	0.501
312.000	238.500	80.010	19.995	103.900	20.069	1.359	0.505
312.501	238.732	80.009	19.996	103.901	20.066	1.550	0.497
313.001	239.014	80.010	19.995	103.901	20.064	1.726	0.500
313.500	239.213	80.009	19.996	103.902	20.067	1.486	0.498
314.000	239.472	80.010	19.995	103.902	20.063	1.747	0.469
314.500	239.702	80.009	19.994	103.903	20.069	1.339	0.473
315.000	239.913	80.009	19.995	103.903	20.067	1.443	0.465
315.500	240.163	80.009	19.995	103.903	20.066	1.578	0.451
316.000	240.426	80.010	19.995	103.903	20.066	1.580	0.487
316.501	240.678	80.010	19.994	103.903	20.063	1.755	0.514
317.001	240.911	80.009	19.995	103.902	20.063	1.765	0.500
317.500	241.156	80.009	19.994	103.903	20.065	1.658	0.482
318.000	241.398	80.011	19.994	103.903	20.069	1.343	0.483
318.500	241.671	80.009	19.994	103.903	20.062	1.861	0.501
319.000	241.912	80.009	19.994	103.904	20.061	1.903	0.514
319.500	242.204	80.010	19.994	103.905	20.063	1.801	0.523
320.000	242.400	80.011	19.995	103.907	20.063	1.789	0.511
320.500	242.684	80.011	19.994	103.907	20.063	1.734	0.484
321.000	242.908	80.011	19.994	103.909	20.065	1.642	0.494
321.500	243.200	80.012	19.995	103.909	20.065	1.602	0.512
322.000	243.443	80.010	19.994	103.908	20.066	1.518	0.525
322.500	243.693	80.011	19.994	103.906	20.065	1.634	0.514
323.000	243.939	80.010	19.993	103.906	20.064	1.714	0.495
323.500	244.166	80.011	19.993	103.905	20.061	1.939	0.485
324.000	244.400	80.010	19.993	103.905	20.061	1.909	0.467
324.500	244.669	80.011	19.994	103.905	20.059	2.046	0.482
325.000	244.885	80.009	19.994	103.905	20.062	1.829	0.494
325.500	245.137	80.012	19.994	103.905	20.065	1.642	0.477
326.000	245.389	80.011	19.994	103.905	20.066	1.580	0.487
326.500	245.625	80.011	19.994	103.905	20.065	1.604	0.496
327.000	245.912	80.010	19.994	103.904	20.066	1.546	0.505
327.500	246.114	80.011	19.994	103.904	20.065	1.600	0.506
328.000	246.375	80.012	19.992	103.903	20.064	1.714	0.476
328.500	246.640	80.010	19.993	103.902	20.063	1.740	0.495
329.000	246.829	80.010	19.994	103.902	20.066	1.566	0.490
329.500	247.099	80.010	19.993	103.903	20.064	1.680	0.456
330.000	247.360	80.010	19.993	103.902	20.066	1.564	0.495
330.500	247.587	80.010	19.994	103.901	20.067	1.510	0.510
331.000	247.793	80.012	19.992	103.902	20.067	1.494	0.460
331.500	248.042	80.011	19.993	103.902	20.065	1.628	0.444
332.000	248.273	80.010	19.992	103.902	20.068	1.433	0.468
332.500	248.540	80.010	19.993	103.903	20.064	1.666	0.489
333.000	248.759	80.010	19.995	103.903	20.066	1.546	0.492
333.500	249.006	80.010	19.994	103.903	20.065	1.632	0.476
334.000	249.273	80.010	19.994	103.902	20.062	1.807	0.490
334.500	249.527	80.011	19.993	103.900	20.063	1.752	0.517
335.000	249.804	80.011	19.993	103.899	20.065	1.642	0.526
335.500	250.050	80.009	19.993	103.900	20.064	1.726	0.527
336.000	250.313	80.009	19.993	103.900	20.066	1.528	0.516
336.500	250.566	80.011	19.994	103.901	20.064	1.710	0.513
337.000	250.781	80.010	19.994	103.903	20.066	1.552	0.492
337.500	251.002	80.010	19.994	103.903	20.065	1.632	0.452
338.000	251.234	80.009	19.995	103.902	20.065	1.600	0.445
338.500	251.497	80.010	19.994	103.901	20.061	1.919	0.474
339.000	251.755	80.011	19.993	103.902	20.062	1.815	0.508
339.500	251.979	80.009	19.993	103.901	20.062	1.809	0.502
340.000	252.247	80.009	19.993	103.901	20.062	1.831	0.488
340.500	252.470	80.010	19.994	103.902	20.060	1.975	0.492
341.000	252.735	80.010	19.994	103.903	20.061	1.887	0.489
341.500	252.984	80.011	19.995	103.903	20.063	1.777	0.501
342.000	253.206	80.009	19.995	103.903	20.065	1.654	0.492
342.500	253.440	80.011	19.994	103.903	20.063	1.740	0.463
343.000	253.748	80.011	19.994	103.903	20.064	1.712	0.499
343.500	253.945	80.010	19.995	103.900	20.065	1.642	0.523
344.000	254.220	80.011	19.994	103.899	20.064	1.684	0.489
344.500	254.445	80.012	19.995	103.898	20.063	1.734	0.486
345.000	254.723	80.010	19.994	103.895	20.065	1.620	0.501
345.500	254.923	80.010	19.995	103.892	20.065	1.650	0.491
346.000	255.152	80.010	19.995	103.893	20.068	1.419	0.454
346.500	255.439	80.013	19.994	103.893	20.067	1.465	0.472
347.000	255.675	80.010	19.994	103.893	20.066	1.551	0.519
347.500	255.874	80.009	19.995	103.896	20.067	1.445	0.479
348.000	256.158	80.011	19.995	103.898	20.065	1.612	0.459
348.500	256.433	80.012	19.995	103.897	20.067	1.495	0.521
349.000	256.640	80.012	19.994	103.894	20.064	1.662	0.520
349.500	256.887	80.011	19.994	103.894	20.065	1.600	0.468
350.000	257.098	80.011	19.994	103.894	20.066	1.568	0.456
350.500	257.346	80.010	19.995	103.895	20.065	1.614	0.458
351.000	257.587	80.011	19.993	103.896	20.068	1.381	0.474
351.500	257.868	80.012	19.994	103.899	20.065	1.656	0.506
352.000	258.117	80.013	19.994	103.899	20.063	1.754	0.526
352.500	258.405	80.012	19.994	103.898	20.067	1.489	0.533
353.000	258.637	80.012	19.994	103.900	20.065	1.628	0.528
353.500	258.859	80.011	19.994	103.900	20.067	1.453	0.487
354.000	259.088	80.012	19.993	103.900	20.067	1.505	0.453
354.500	259.332	80.012	19.992	103.900	20.064	1.678	0.462
355.000	259.592	80.013	19.994	103.900	20.067	1.485	0.488
355.500	259.830	80.011	19.994	103.898	20.063	1.785	0.501
356.000	260.084	80.012	19.993	103.897	20.063	1.762	0.495
356.500	260.331	80.013	19.993	103.894	20.066	1.522	0.497
357.000	260.593	80.011	19.993	103.891	20.066	1.524	0.505
357.500	260.840	80.011	19.995	103.887	20.064	1.700	0.509
358.000	261.106	80.013	19.993	103.884	20.063	1.776	0.511
358.500	261.358	80.012	19.994	103.886	20.062	1.877	0.516
359.000	261.616	80.012	19.993	103.889	20.058	2.120	0.514
359.500	261.848	80.011	19.993	103.892	20.063	1.776	0.500
360.000	262.053	80.012	19.994	103.896	20.065	1.592	0.463
360.500	262.321	80.011	19.992	103.899	20.065	1.644	0.455
361.000	262.596	80.011	19.994	103.899	20.061	1.917	0.508
361.500	262.820	80.010	19.995	103.898	20.065	1.608	0.521
362.000	263.084	80.009	19.993	103.894	20.062	1.839	0.494
362.500	263.298	80.010	19.993	103.888	20.064	1.662	0.483
363.000	263.553	80.011	19.994	103.884	20.061	1.923	0.473
363.500	263.818	80.010	19.995	103.883	20.063	1.776	0.494
364.000	264.109	80.011	19.994	103.884	20.062	1.811	0.538
364.500	264.368	80.011	19.995	103.887	20.061	1.903	0.553
365.000	264.553	80.011	19.994	103.893	20.063	1.764	0.497
365.500	264.775	80.010	19.994	103.897	20.061	1.903	0.425
366.000	265.070	80.011	19.994	103.896	20.062	1.875	0.462
366.500	265.346	80.010	19.993	103.895	20.061	1.933	0.544
367.000	265.568	80.010	19.993	103.895	20.066	1.572	0.534
367.500	265.844	80.008	19.993	103.894	20.070	1.293	0.498
368.000	266.128	80.010	19.994	103.894	20.062	1.851	0.529
368.500	266.301	80.009	19.993	103.892	20.057	2.192	0.508
369.000	266.543	80.009	19.993	103.890	20.060	1.979	0.436
369.500	266.857	80.010	19.994	103.887	20.062	1.827	0.486
370.000	267.064	80.010	19.994	103.885	20.063	1.744	0.539
370.500	267.316	80.010	19.994	103.883	20.059	2.068	0.490
371.000	267.572	80.008	19.994	103.885	20.059	2.080	0.483
371.500	267.795	80.009	19.994	103.889	20.058	2.152	0.493
372.000	268.015	80.010	19.993	103.892	20.065	1.626	0.461
372.500	268.287	80.009	19.994	103.896	20.062	1.833	0.468
373.000	268.542	80.010	19.994	103.897	20.061	1.899	0.509
373.500	268.804	80.008	19.993	103.898	20.060	2.003	0.522
374.000	269.000	80.011	19.994	103.896	20.063	1.791	0.487
374.500	269.282	80.010	19.993	103.896	20.062	1.827	0.468
375.000	269.497	80.010	19.993	103.896	20.067	1.499	0.488
375.500	269.772	80.009	19.994	103.896	20.064	1.690	0.494
376.000	270.048	80.009	19.994	103.896	20.064	1.684	0.520
376.501	270.303	80.010	19.994	103.898	20.066	1.556	0.540
377.000	270.556	80.009	19.995	103.899	20.063	1.740	0.519
377.500	270.828	80.008	19.995	103.900	20.061	1.897	0.517
378.000	271.055	80.013	19.994	103.901	20.064	1.700	0.513
378.500	271.254	80.010	19.994	103.901	20.064	1.726	0.463
379.001	271.538	80.010	19.994	103.898	20.067	1.511	0.454
379.500	271.828	80.009	19.993	103.898	20.066	1.544	0.528
380.000	272.059	80.010	19.994	103.897	20.065	1.654	0.548
380.500	272.286	80.009	19.994	103.896	20.064	1.710	0.490
381.001	272.558	80.011	19.994	103.893	20.065	1.642	0.478
381.500	272.818	80.010	19.993	103.895	20.065	1.628	0.516
382.000	273.065	80.010	19.993	103.896	20.066	1.532	0.519
382.500	273.306	80.010	19.995	103.897	20.063	1.774	0.497
383.000	273.524	80.009	19.994	103.899	20.069	1.341	0.474
383.500	273.785	80.010	19.993	103.902	20.064	1.728	0.469
384.000	274.037	80.009	19.994	103.903	20.065	1.612	0.496
384.500	274.283	80.009	19.993	103.902	20.064	1.724	0.505
385.000	274.556	80.009	19.993	103.902	20.065	1.632	0.508
385.500	274.766	80.010	19.993	103.900	20.066	1.533	0.501
386.000	275.011	80.009	19.994	103.896	20.064	1.710	0.469
386.500	275.293	80.009	19.994	103.896	20.064	1.686	0.491
387.000	275.566	80.008	19.993	103.895	20.066	1.550	0.541
387.500	275.798	80.010	19.993	103.895	20.067	1.471	0.530
388.000	276.095	80.009	19.993	103.893	20.067	1.479	0.517
388.500	276.321	80.009	19.993	103.894	20.065	1.628	0.526
389.000	276.581	80.008	19.994	103.892	20.066	1.519	0.505
389.500	276.868	80.010	19.993	103.892	20.064	1.700	0.517
390.000	277.039	80.010	19.993	103.892	20.064	1.682	0.502
390.500	277.325	80.009	19.993	103.897	20.063	1.805	0.458
391.000	277.562	80.009	19.992	103.898	20.061	1.883	0.490
391.500	277.842	80.009	19.993	103.899	20.062	1.861	0.520
392.000	278.088	80.010	19.993	103.900	20.067	1.512	0.521
392.501	278.351	80.009	19.993	103.899	20.067	1.465	0.518
393.000	278.605	80.008	19.993	103.896	20.065	1.626	0.513
393.500	278.908	80.009	19.994	103.896	20.063	1.758	0.537
394.000	279.141	80.009	19.992	103.897	20.067	1.485	0.547
394.500	279.400	80.009	19.992	103.893	20.066	1.580	0.514
395.000	279.601	80.011	19.993	103.893	20.063	1.754	0.476
395.500	279.870	80.009	19.992	103.894	20.064	1.668	0.465
396.000	280.123	80.009	19.992	103.892	20.063	1.760	0.496
396.500	280.391	80.009	19.992	103.888	20.065	1.622	0.521
397.000	280.629	80.010	19.993	103.890	20.065	1.628	0.513
397.500	280.877	80.009	19.993	103.892	20.064	1.698	0.496
398.000	281.131	80.009	19.993	103.891	20.067	1.459	0.494
398.500	281.414	80.010	19.993	103.894	20.067	1.463	0.519
399.000	281.633	80.008	19.993	103.899	20.065	1.630	0.520
399.500	281.884	80.008	19.992	103.896	20.063	1.758	0.486
400.000	282.142	80.009	19.993	103.892	20.062	1.859	0.489
400.500	282.392	80.009	19.993	103.894	20.064	1.710	0.509
401.000	282.685	80.010	19.993	103.893	20.064	1.722	0.526
401.500	282.876	80.008	19.993	103.894	20.063	1.744	0.513
402.000	283.180	80.009	19.993	103.900	20.069	1.297	0.489
402.500	283.415	80.009	19.993	103.902	20.064	1.708	0.517
403.000	283.693	80.010	19.993	103.899	20.064	1.712	0.526
403.500	283.932	80.010	19.993	103.897	20.063	1.788	0.515
404.000	284.181	80.008	19.994	103.889	20.063	1.754	0.503
404.500	284.434	80.010	19.994	103.886	20.061	1.947	0.495
405.000	284.662	80.010	19.993	103.883	20.063	1.774	0.492
405.500	284.959	80.011	19.995	103.881	20.063	1.736	0.503
406.000	285.184	80.011	19.993	103.881	20.064	1.724	0.523
406.500	285.416	80.011	19.994	103.883	20.064	1.728	0.490
407.000	285.702	80.010	19.994	103.882	20.065	1.638	0.488
407.500	285.954	80.010	19.993	103.881	20.066	1.568	0.527
408.000	286.193	80.011	19.994	103.881	20.066	1.564	0.514
408.500	286.455	80.011	19.994	103.883	20.072	1.150	0.496
409.000	286.672	80.010	19.993	103.881	20.066	1.582	0.491
409.500	286.943	80.011	19.994	103.884	20.069	1.355	0.484
410.000	287.169	80.011	19.994	103.888	20.066	1.572	0.492
410.500	287.460	80.011	19.995	103.892	20.066	1.548	0.507
411.000	287.730	80.010	19.995	103.890	20.070	1.277	0.539
411.500	287.964	80.010	19.993	103.894	20.067	1.487	0.533
412.000	288.223	80.010	19.994	103.890	20.068	1.441	0.499
412.500	288.483	80.012	19.994	103.883	20.064	1.710	0.506
413.000	288.721	80.011	19.994	103.877	20.068	1.429	0.508
413.500	288.999	80.011	19.995	103.878	20.070	1.291	0.507
414.000	289.198	80.012	19.995	103.881	20.065	1.614	0.497
414.500	289.480	80.012	19.996	103.884	20.068	1.405	0.479
415.000	289.748	80.011	19.994	103.888	20.065	1.594	0.515
415.500	290.002	80.012	19.994	103.892	20.067	1.513	0.536
416.000	290.262	80.011	19.994	103.890	20.069	1.347	0.518
416.500	290.498	80.011	19.993	103.889	20.066	1.564	0.505
417.000	290.746	80.009	19.993	103.890	20.067	1.453	0.489
417.500	291.005	80.011	19.995	103.890	20.068	1.391	0.495
418.000	291.253	80.010	19.996	103.892	20.070	1.252	0.507
418.500	291.534	80.011	19.995	103.894	20.070	1.266	0.518
419.000	291.798	80.010	19.994	103.893	20.071	1.190	0.537
419.500	292.092	80.011	19.993	103.895	20.069	1.323	0.551
420.000	292.313	80.011	19.994	103.896	20.069	1.327	0.537
420.500	292.547	80.011	19.995	103.889	20.066	1.527	0.485
421.000	292.806	80.011	19.994	103.889	20.068	1.393	0.474
421.500	293.055	80.010	19.995	103.891	20.068	1.411	0.500
422.000	293.355	80.010	19.994	103.886	20.069	1.359	0.529
422.500	293.618	80.010	19.993	103.882	20.068	1.429	0.556
423.001	293.846	80.009	19.995	103.889	20.066	1.521	0.527
423.500	294.128	80.010	19.993	103.889	20.070	1.262	0.501
424.000	294.373	80.011	19.995	103.888	20.068	1.413	0.519
424.500	294.580	80.011	19.993	103.892	20.067	1.489	0.489
425.000	294.837	80.010	19.994	103.894	20.067	1.485	0.457
425.500	295.147	80.010	19.994	103.890	20.064	1.678	0.515
426.000	295.405	80.011	19.993	103.889	20.067	1.483	0.567
426.500	295.627	80.011	19.994	103.889	20.069	1.369	0.524
427.000	295.872	80.011	19.994	103.886	20.067	1.501	0.474
427.500	296.079	80.011	19.993	103.889	20.069	1.345	0.459
428.000	296.344	80.010	19.994	103.892	20.067	1.457	0.462
428.500	296.639	80.009	19.994	103.888	20.067	1.483	0.517
429.000	296.903	80.012	19.993	103.883	20.067	1.491	0.559
429.500	297.104	80.011	19.993	103.881	20.066	1.555	0.511
430.000	297.389	80.012	19.994	103.878	20.064	1.724	0.476
430.500	297.652	80.012	19.993	103.873	20.068	1.415	0.518
431.000	297.898	80.012	19.995	103.877	20.069	1.357	0.528
431.500	298.152	80.013	19.993	103.877	20.067	1.477	0.504
432.000	298.430	80.012	19.993	103.876	20.067	1.463	0.516
432.500	298.695	80.012	19.994	103.877	20.065	1.617	0.538
433.000	298.909	80.012	19.994	103.879	20.065	1.636	0.511
433.500	299.190	80.012	19.994	103.876	20.066	1.567	0.487
434.000	299.447	80.013	19.995	103.878	20.065	1.616	0.517
434.500	299.680	80.012	19.994	103.880	20.064	1.668	0.514
435.000	299.931	80.012	19.994	103.880	20.062	1.830	0.486
435.500	300.176	80.012	19.995	103.880	20.061	1.878	0.490
436.000	300.444	80.011	19.994	103.879	20.061	1.933	0.505
436.500	300.655	80.011	19.994	103.875	20.062	1.806	0.496
437.000	300.898	80.012	19.994	103.872	20.067	1.509	0.466
437.500	301.178	80.012	19.994	103.866	20.066	1.529	0.488
438.000	301.446	80.012	19.994	103.864	20.063	1.790	0.536
438.500	301.689	80.011	19.995	103.865	20.063	1.746	0.530
439.000	301.909	80.012	19.995	103.866	20.065	1.626	0.487
439.500	302.158	80.012	19.994	103.867	20.062	1.806	0.466
440.000	302.431	80.011	19.994	103.869	20.064	1.730	0.496
440.500	302.677	80.010	19.994	103.873	20.064	1.674	0.521
441.000	302.958	80.011	19.995	103.874	20.064	1.700	0.523
441.500	303.208	80.011	19.995	103.873	20.064	1.708	0.529
442.000	303.429	80.010	19.996	103.873	20.064	1.682	0.501
442.500	303.660	80.010	19.994	103.870	20.065	1.598	0.462
443.000	303.932	80.012	19.994	103.864	20.064	1.722	0.478
443.500	304.177	80.010	19.994	103.865	20.065	1.620	0.510
444.000	304.425	80.010	19.994	103.868	20.066	1.551	0.505
444.500	304.691	80.010	19.995	103.870	20.063	1.742	0.504
445.000	304.956	80.010	19.994	103.874	20.062	1.830	0.523
445.500	305.184	80.010	19.996	103.875	20.063	1.762	0.512
446.000	305.439	80.007	19.994	103.875	20.063	1.780	0.488
446.500	305.670	80.008	19.995	103.875	20.066	1.547	0.484
447.000	305.936	80.009	19.994	103.875	20.066	1.577	0.492
447.500	306.195	80.009	19.995	103.872	20.064	1.680	0.511
448.000	306.450	80.009	19.993	103.873	20.067	1.511	0.519
448.500	306.664	80.007	19.994	103.871	20.064	1.666	0.492
449.000	306.949	80.008	19.994	103.872	20.062	1.863	0.484
449.500	307.197	80.008	19.994	103.877	20.066	1.541	0.515
450.000	307.454	80.009	19.994	103.882	20.066	1.515	0.519
450.500	307.710	80.008	19.993	103.885	20.063	1.766	0.509
451.000	307.981	80.008	19.993	103.887	20.064	1.688	0.520
451.500	308.214	80.009	19.994	103.886	20.067	1.483	0.515
452.000	308.459	80.010	19.993	103.882	20.068	1.429	0.491
452.500	308.719	80.009	19.992	103.878	20.063	1.764	0.492
453.000	308.963	80.010	19.993	103.875	20.065	1.613	0.504
453.500	309.191	80.009	19.993	103.874	20.065	1.593	0.488
454.000	309.444	80.009	19.993	103.872	20.064	1.706	0.477
454.500	309.702	80.009	19.994	103.870	20.068	1.403	0.496
455.000	309.992	80.010	19.993	103.872	20.065	1.634	0.529
455.500	310.239	80.011	19.993	103.871	20.064	1.662	0.542
456.000	310.479	80.010	19.992	103.869	20.064	1.732	0.512
456.500	310.723	80.009	19.993	103.868	20.066	1.533	0.486
457.000	310.977	80.009	19.993	103.869	20.066	1.525	0.492
457.500	311.250	80.010	19.993	103.866	20.069	1.359	0.513
458.000	311.498	80.010	19.993	103.868	20.066	1.547	0.523
458.500	311.750	80.010	19.993	103.871	20.067	1.509	0.510
459.000	312.031	80.010	19.992	103.872	20.066	1.557	0.517
459.500	312.284	80.010	19.992	103.876	20.067	1.479	0.533
460.000	312.530	80.009	19.993	103.882	20.066	1.557	0.516
460.500	312.813	80.010	19.994	103.883	20.068	1.423	0.514
461.000	313.053	80.009	19.993	103.883	20.069	1.355	0.526
461.500	313.284	80.010	19.994	103.883	20.065	1.588	0.497
462.000	313.531	80.009	19.993	103.878	20.066	1.580	0.475
462.500	313.795	80.009	19.993	103.873	20.062	1.859	0.495
463.000	314.038	80.009	19.993	103.874	20.063	1.772	0.509
463.500	314.268	80.010	19.992	103.871	20.064	1.726	0.490
464.000	314.576	80.008	19.993	103.870	20.063	1.758	0.505
464.500	314.809	80.009	19.993	103.870	20.062	1.851	0.539
465.000	315.059	80.009	19.993	103.873	20.065	1.588	0.512
465.500	315.355	80.009	19.993	103.871	20.063	1.752	0.515
466.000	315.599	80.009	19.992	103.871	20.065	1.630	0.543
466.500	315.852	80.010	19.993	103.873	20.066	1.565	0.518
467.000	316.083	80.009	19.992	103.876	20.063	1.748	0.490
467.500	316.340	80.010	19.993	103.874	20.062	1.843	0.486
468.000	316.556	80.009	19.992	103.873	20.064	1.714	0.480
468.500	316.831	80.010	19.993	103.879	20.065	1.652	0.482
469.000	317.061	80.009	19.993	103.883	20.065	1.616	0.498
469.500	317.343	80.010	19.992	103.882	20.061	1.925	0.508
470.000	317.570	80.009	19.993	103.881	20.062	1.822	0.511
470.500	317.821	80.008	19.993	103.881	20.063	1.802	0.494
471.000	318.087	80.010	19.993	103.876	20.063	1.754	0.497
471.500	318.370	80.009	19.993	103.872	20.064	1.688	0.532
472.000	318.636	80.010	19.993	103.872	20.063	1.794	0.549
472.500	318.870	80.009	19.993	103.879	20.064	1.680	0.525
473.000	319.102	80.010	19.993	103.885	20.066	1.539	0.483
473.500	319.382	80.009	19.994	103.890	20.067	1.501	0.489
474.000	319.650	80.009	19.994	103.893	20.065	1.611	0.530
474.500	319.882	80.011	19.994	103.894	20.065	1.633	0.524
475.000	320.120	80.010	19.994	103.888	20.067	1.465	0.485
475.500	320.340	80.010	19.994	103.883	20.068	1.387	0.464
476.000	320.616	80.010	19.993	103.878	20.068	1.423	0.477
476.500	320.878	80.010	19.994	103.874	20.068	1.393	0.517
477.000	321.125	80.008	19.991	103.875	20.066	1.560	0.524
477.500	321.375	80.009	19.995	103.877	20.066	1.517	0.503
478.000	321.578	80.009	19.996	103.882	20.068	1.371	0.475
478.500	321.838	80.009	19.995	103.887	20.066	1.575	0.457
479.000	322.097	80.010	19.994	103.889	20.067	1.465	0.491
479.500	322.357	80.009	19.994	103.889	20.069	1.341	0.519
480.000	322.610	80.009	19.993	103.887	20.068	1.373	0.516
480.500	322.852	80.010	19.994	103.880	20.066	1.525	0.504
481.000	323.106	80.009	19.994	103.876	20.064	1.714	0.495
481.500	323.329	80.009	19.993	103.874	20.065	1.640	0.486
482.000	323.646	80.010	19.993	103.870	20.066	1.519	0.509
482.500	323.882	80.009	19.993	103.873	20.068	1.411	0.546
483.000	324.119	80.010	19.994	103.877	20.064	1.720	0.513
483.500	324.328	80.009	19.994	103.875	20.065	1.601	0.459
484.000	324.613	80.010	19.994	103.874	20.063	1.740	0.470
484.500	324.920	80.010	19.994	103.873	20.066	1.575	0.543
485.000	325.130	80.009	19.994	103.868	20.069	1.341	0.554
485.500	325.408	80.009	19.993	103.865	20.069	1.343	0.502
486.000	325.682	80.011	19.993	103.866	20.067	1.509	0.520
486.500	325.861	80.010	19.993	103.868	20.067	1.511	0.503
487.000	326.171	80.010	19.993	103.874	20.065	1.627	0.471
487.500	326.429	80.011	19.993	103.879	20.063	1.752	0.528
488.000	326.684	80.011	19.993	103.883	20.063	1.756	0.540
488.500	326.907	80.011	19.993	103.882	20.066	1.519	0.496
489.000	327.151	80.011	19.993	103.881	20.064	1.722	0.473
489.500	327.480	80.010	19.994	103.877	20.065	1.621	0.521
490.000	327.687	80.011	19.993	103.874	20.063	1.738	0.555
490.500	327.966	80.011	19.992	103.871	20.067	1.511	0.511
491.000	328.231	80.011	19.994	103.870	20.067	1.461	0.515
491.500	328.444	80.012	19.994	103.869	20.063	1.742	0.511
492.000	328.684	80.011	19.993	103.867	20.062	1.846	0.466
492.500	328.938	80.012	19.992	103.865	20.065	1.593	0.473
493.000	329.202	80.011	19.993	103.870	20.062	1.862	0.506
493.500	329.450	80.010	19.992	103.871	20.064	1.700	0.515
494.000	329.714	80.012	19.992	103.870	20.061	1.902	0.512
494.500	329.981	80.011	19.993	103.871	20.064	1.712	0.522
495.000	330.195	80.010	19.993	103.871	20.060	2.001	0.506
495.500	330.459	80.010	19.992	103.866	20.060	1.989	0.479
496.000	330.698	80.009	19.994	103.867	20.058	2.143	0.490
496.500	330.972	80.011	19.993	103.868	20.061	1.892	0.508
497.000	331.192	80.009	19.993	103.868	20.061	1.880	0.504
497.500	331.501	80.010	19.994	103.867	20.060	1.971	0.512
498.000	331.689	80.011	19.992	103.866	20.059	2.065	0.513
498.500	331.950	80.012	19.993	103.867	20.062	1.864	0.473
499.000	332.208	80.011	19.993	103.866	20.058	2.163	0.484
499.500	332.440	80.009	19.993	103.866	20.060	2.019	0.504
500.000	332.683	80.010	19.993	103.865	20.057	2.231	0.482
500.500	333.005	80.011	19.994	103.866	20.064	1.728	0.520
501.000	333.199	80.011	19.994	103.864	20.058	2.101	0.541
501.500	333.489	80.011	19.994	103.863	20.059	2.071	0.501
502.000	333.749	80.012	19.994	103.863	20.065	1.617	0.517
502.500	333.993	80.010	19.994	103.864	20.060	1.969	0.527
503.000	334.216	80.010	19.994	103.864	20.055	2.340	0.485
503.500	334.453	80.011	19.994	103.864	20.061	1.931	0.464
504.000	334.745	80.010	19.993	103.864	20.055	2.368	0.495
504.500	335.012	80.010	19.994	103.863	20.062	1.852	0.544
505.000	335.225	80.009	19.994	103.863	20.060	1.979	0.520
505.500	335.481	80.010	19.994	103.863	20.061	1.895	0.475
506.000	335.744	80.011	19.994	103.865	20.061	1.884	0.494
506.500	335.903	80.009	19.993	103.868	20.059	2.069	0.470
507.000	336.216	80.010	19.994	103.872	20.059	2.093	0.447
507.500	336.507	80.010	19.994	103.871	20.055	2.362	0.539
508.000	336.682	80.010	19.994	103.871	20.061	1.900	0.535
508.500	336.922	80.010	19.994	103.869	20.059	2.085	0.440
509.000	337.229	80.010	19.994	103.867	20.058	2.139	0.481
509.500	337.408	80.010	19.994	103.863	20.060	1.985	0.517
510.000	337.620	80.009	19.994	103.862	20.060	1.967	0.438
510.500	338.042	80.010	19.994	103.862	20.062	1.862	0.512
511.000	338.200	80.009	19.993	103.862	20.061	1.910	0.607
511.500	338.406	80.010	19.993	103.865	20.058	2.109	0.472
512.000	338.699	80.010	19.994	103.868	20.059	2.037	0.431
512.500	338.931	80.011	19.994	103.868	20.060	2.003	0.512
513.000	339.232	80.010	19.994	103.869	20.059	2.027	0.529
513.500	339.275	80.010	19.993	103.869	20.059	2.061	0.439
514.000	339.740	80.011	19.995	103.866	20.057	2.202	0.426
514.500	340.017	80.010	19.993	103.867	20.058	2.160	0.624
515.000	339.952	80.011	19.993	103.867	20.057	2.174	0.477
515.500	340.132	80.011	19.993	103.867	20.059	2.076	0.164
516.000	340.605	80.011	19.993	103.869	20.059	2.068	0.384
516.500	341.124	80.011	19.994	103.873	20.056	2.274	0.822
517.000	341.017	80.012	19.993	103.874	20.057	2.226	0.702
517.500	341.438	80.010	19.993	103.876	20.058	2.166	0.363
518.000	341.667	80.011	19.993	103.876	20.056	2.282	0.483
518.500	341.932	80.011	19.993	103.875	20.054	2.430	0.572
519.000	342.214	80.011	19.993	103.872	20.056	2.294	0.520
519.500	342.513	80.011	19.994	103.870	20.060	1.985	0.564
520.000	342.653	80.011	19.993	103.869	20.052	2.577	0.510
520.500	342.909	80.011	19.993	103.870	20.057	2.212	0.417
521.001	343.106	80.012	19.993	103.872	20.057	2.218	0.424
521.500	343.322	80.012	19.993	103.870	20.058	2.133	0.433
522.000	343.727	80.010	19.993	103.869	20.053	2.525	0.517
522.501	343.955	80.011	19.993	103.868	20.056	2.256	0.627
523.000	344.143	80.010	19.993	103.868	20.058	2.161	0.525
523.500	344.444	80.011	19.993	103.870	20.055	2.374	0.452
524.000	344.633	80.010	19.994	103.875	20.055	2.352	0.489
524.500	344.870	80.010	19.993	103.879	20.057	2.205	0.458
525.000	345.150	80.011	19.993	103.886	20.060	1.953	0.472
525.500	345.356	80.010	19.992	103.892	20.060	1.975	0.502
526.000	345.677	80.009	19.993	103.896	20.058	2.129	0.507
526.500	345.881	80.010	19.994	103.895	20.060	1.993	0.526
527.000	346.149	80.008	19.994	103.896	20.053	2.517	0.499
527.500	346.429	80.009	19.993	103.892	20.054	2.411	0.509
528.000	346.676	80.009	19.994	103.885	20.054	2.441	0.537
528.500	346.937	80.009	19.994	103.882	20.054	2.435	0.518
529.000	347.153	80.008	19.993	103.882	20.054	2.419	0.493
529.500	347.389	80.008	19.994	103.877	20.057	2.204	0.464
530.000	347.692	80.007	19.994	103.877	20.053	2.507	0.495
530.500	347.909	80.008	19.995	103.878	20.054	2.408	0.530
531.000	348.184	80.008	19.994	103.877	20.055	2.330	0.506
531.500	348.415	80.007	19.994	103.877	20.055	2.322	0.499
532.000	348.616	80.008	19.994	103.876	20.056	2.306	0.469
532.500	348.966	80.007	19.994	103.875	20.055	2.374	0.491
533.000	349.175	80.008	19.994	103.873	20.059	2.039	0.555
533.500	349.467	80.006	19.995	103.870	20.060	1.999	0.530
534.000	349.661	80.008	19.994	103.868	20.057	2.218	0.494
534.500	349.985	80.007	19.994	103.868	20.056	2.276	0.502
535.001	350.205	80.008	19.994	103.867	20.055	2.366	0.531
535.500	350.466	80.007	19.994	103.870	20.056	2.246	0.512
536.000	350.732	80.008	19.996	103.872	20.057	2.220	0.504
536.500	350.956	80.007	19.995	103.877	20.057	2.224	0.509
537.000	351.225	80.007	19.993	103.878	20.055	2.320	0.492
537.500	351.456	80.008	19.995	103.882	20.056	2.310	0.497
538.000	351.742	80.008	19.996	103.883	20.056	2.298	0.508
538.500	351.982	80.008	19.996	103.886	20.055	2.350	0.521
539.000	352.303	80.007	19.995	103.882	20.054	2.428	0.543
539.500	352.544	80.008	19.994	103.884	20.057	2.238	0.562
540.000	352.786	80.009	19.995	103.885	20.057	2.240	0.523
540.500	353.038	80.008	19.994	103.880	20.057	2.229	0.488
541.000	353.256	80.008	19.994	103.875	20.054	2.390	0.482
541.500	353.541	80.008	19.994	103.874	20.057	2.207	0.487
542.000	353.804	80.007	19.996	103.869	20.055	2.386	0.526
542.500	354.036	80.009	19.994	103.869	20.056	2.254	0.521
543.000	354.252	80.008	19.995	103.870	20.055	2.378	0.471
543.500	354.519	80.008	19.995	103.870	20.055	2.324	0.465
544.000	354.772	80.009	19.994	103.875	20.053	2.507	0.501
544.500	355.076	80.009	19.993	103.883	20.052	2.555	0.539
545.000	355.291	80.008	19.994	103.884	20.051	2.649	0.538
545.500	355.607	80.009	19.995	103.883	20.053	2.517	0.525
546.001	355.837	80.009	19.994	103.883	20.054	2.422	0.538
546.500	356.072	80.010	19.994	103.879	20.052	2.577	0.505
547.000	356.346	80.010	19.993	103.875	20.053	2.507	0.487
547.500	356.588	80.011	19.994	103.870	20.056	2.304	0.512
548.000	356.860	80.010	19.992	103.871	20.057	2.186	0.515
548.500	357.125	80.009	19.993	103.875	20.052	2.539	0.526
549.000	357.398	80.010	19.992	103.874	20.051	2.667	0.537
549.500	357.656	80.009	19.993	103.870	20.052	2.547	0.535
550.000	357.917	80.010	19.993	103.870	20.049	2.762	0.525
550.500	358.136	80.010	19.993	103.871	20.052	2.549	0.499
551.000	358.405	80.011	19.993	103.866	20.051	2.659	0.484
551.500	358.673	80.010	19.994	103.866	20.051	2.647	0.513
552.000	358.942	80.009	19.993	103.867	20.053	2.525	0.537
552.500	359.230	80.010	19.993	103.866	20.053	2.472	0.547
553.000	359.457	80.010	19.993	103.865	20.051	2.671	0.536
553.500	359.690	80.009	19.993	103.868	20.053	2.506	0.487
554.000	359.971	80.011	19.993	103.869	20.052	2.561	0.487
554.500	360.186	80.009	19.993	103.870	20.054	2.390	0.505
555.000	360.462	80.010	19.992	103.872	20.050	2.711	0.494
555.500	360.714	80.009	19.993	103.879	20.051	2.665	0.510
556.000	360.979	80.010	19.993	103.878	20.050	2.721	0.523
556.500	361.258	80.009	19.992	103.878	20.046	2.980	0.531
557.001	361.528	80.009	19.993	103.878	20.044	3.163	0.546
557.500	361.755	80.009	19.993	103.877	20.050	2.731	0.523
558.000	362.021	80.010	19.994	103.874	20.049	2.777	0.494
558.500	362.241	80.009	19.993	103.874	20.050	2.681	0.490
559.000	362.470	80.009	19.994	103.879	20.045	3.052	0.468
559.500	362.758	80.009	19.993	103.880	20.048	2.846	0.483
560.000	363.018	80.008	19.993	103.881	20.048	2.854	0.532
560.500	363.278	80.010	19.994	103.879	20.047	2.966	0.534
561.000	363.571	80.009	19.994	103.880	20.046	2.970	0.537
561.500	363.775	80.010	19.993	103.876	20.048	2.852	0.526
562.000	364.029	80.008	19.993	103.874	20.047	2.938	0.477
562.500	364.280	80.008	19.993	103.872	20.047	2.964	0.481
563.000	364.531	80.008	19.995	103.873	20.046	2.986	0.504
563.500	364.836	80.008	19.994	103.871	20.044	3.126	0.529
564.000	365.063	80.009	19.993	103.869	20.043	3.241	0.544
564.500	365.353	80.008	19.994	103.867	20.045	3.102	0.524
565.000	365.608	80.009	19.995	103.868	20.042	3.277	0.531
565.500	365.874	80.010	19.994	103.870	20.043	3.219	0.533
566.000	366.100	80.009	19.994	103.872	20.039	3.480	0.507
566.500	366.390	80.009	19.994	103.876	20.037	3.659	0.504
567.000	366.622	80.010	19.993	103.878	20.039	3.532	0.518
567.500	366.877	80.009	19.993	103.877	20.037	3.659	0.504
568.000	367.162	80.010	19.993	103.873	20.039	3.486	0.514
568.500	367.403	80.009	19.993	103.870	20.038	3.618	0.533
569.000	367.681	80.010	19.993	103.866	20.039	3.508	0.522
569.500	367.913	80.009	19.993	103.864	20.036	3.737	0.515
570.000	368.180	80.009	19.994	103.864	20.034	3.899	0.505
570.500	368.391	80.010	19.993	103.863	20.035	3.775	0.488
571.000	368.648	80.011	19.993	103.863	20.036	3.731	0.473
571.500	368.934	80.010	19.993	103.864	20.035	3.797	0.505
572.000	369.167	80.010	19.994	103.864	20.038	3.610	0.531
572.500	369.471	80.011	19.993	103.864	20.039	3.504	0.528
573.000	369.718	80.011	19.993	103.865	20.036	3.711	0.544
573.500	369.947	80.009	19.992	103.864	20.037	3.671	0.514
574.000	370.223	80.012	19.993	103.864	20.033	3.926	0.491
574.500	370.430	80.010	19.994	103.863	20.032	4.028	0.494
575.000	370.727	80.010	19.994	103.863	20.031	4.126	0.493
575.500	371.001	80.011	19.994	103.862	20.025	4.537	0.537
576.000	371.235	80.012	19.994	103.865	20.028	4.301	0.539
576.500	371.483	80.011	19.993	103.868	20.026	4.459	0.495
577.000	371.738	80.011	19.993	103.871	20.022	4.754	0.492
577.501	372.000	80.011	19.992	103.873	20.027	4.409	0.510
578.000	372.264	80.012	19.993	103.877	20.023	4.686	0.521
578.500	372.500	80.010	19.993	103.877	20.022	4.749	0.513
579.001	372.757	80.010	19.993	103.874	20.021	4.807	0.496
579.500	373.007	80.012	19.993	103.872	20.024	4.596	0.500
580.000	373.274	80.012	19.993	103.870	20.021	4.799	0.512
580.500	373.525	80.011	19.993	103.867	20.020	4.891	0.518
581.000	373.785	80.012	19.994	103.865	20.019	4.996	0.515
581.500	374.047	80.012	19.993	103.865	20.022	4.769	0.516
582.000	374.285	80.011	19.994	103.868	20.019	4.958	0.511
582.500	374.562	80.011	19.993	103.871	20.020	4.913	0.508
583.000	374.791	80.012	19.993	103.875	20.016	5.148	0.510
583.500	375.066	80.010	19.995	103.878	20.018	5.014	0.505
584.000	375.334	80.011	19.994	103.880	20.017	5.118	0.524
584.500	375.572	80.010	19.994	103.879	20.014	5.309	0.525
585.000	375.843	80.010	19.994	103.876	20.014	5.317	0.507
585.500	376.079	80.010	19.993	103.872	20.012	5.502	0.508
586.000	376.324	80.011	19.993	103.871	20.009	5.687	0.493
586.500	376.615	80.010	19.993	103.869	20.006	5.944	0.508
587.000	376.888	80.011	19.993	103.869	20.005	5.952	0.550
587.500	377.092	80.010	19.993	103.872	20.002	6.181	0.521
588.000	377.369	80.011	19.993	103.872	20.001	6.283	0.479
588.500	377.589	80.010	19.993	103.874	20.004	6.085	0.489
589.000	377.851	80.012	19.993	103.875	20.000	6.354	0.490
589.500	378.087	80.010	19.994	103.878	20.000	6.316	0.490
590.000	378.317	80.012	19.993	103.880	20.003	6.159	0.482
590.500	378.570	80.009	19.992	103.883	19.998	6.464	0.474
591.000	378.780	80.010	19.993	103.884	19.998	6.480	0.473
591.500	379.082	80.011	19.993	103.885	19.994	6.817	0.488
592.000	379.299	80.010	19.994	103.882	19.996	6.648	0.515
592.500	379.591	80.011	19.993	103.883	19.994	6.755	0.514
593.000	379.831	80.010	19.993	103.884	19.992	6.907	0.520
593.500	380.089	80.011	19.993	103.881	19.991	6.987	0.515
594.000	380.331	80.011	19.993	103.881	19.989	7.126	0.499
594.501	380.666	80.012	19.994	103.886	19.989	7.112	0.539
595.000	380.919	80.010	19.994	103.887	19.987	7.299	0.583
595.500	381.119	80.012	19.993	103.891	19.989	7.124	0.520
596.000	381.327	80.010	19.993	103.896	19.984	7.487	0.431
596.500	381.613	80.012	19.993	103.902	19.982	7.622	0.451
597.000	381.922	80.010	19.992	103.901	19.981	7.729	0.544
597.500	382.152	80.012	19.994	103.900	19.974	8.222	0.567
598.000	382.405	80.010	19.994	103.900	19.976	8.072	0.511
598.500	382.621	80.010	19.993	103.901	19.971	8.423	0.476
599.000	382.887	80.012	19.994	103.901	19.973	8.321	0.475
599.500	383.085	80.013	19.993	103.903	19.973	8.291	0.473
600.000	383.349	80.012	19.994	103.903	19.968	8.692	0.463
600.500	383.618	80.012	19.993	103.904	19.967	8.754	0.498
601.000	383.863	80.012	19.994	103.904	19.967	8.753	0.523
601.500	384.073	80.012	19.993	103.902	19.962	9.094	0.484
602.000	384.367	80.012	19.993	103.900	19.960	9.272	0.479
602.500	384.636	80.013	19.994	103.896	19.960	9.292	0.534
603.000	384.884	80.013	19.993	103.894	19.959	9.350	0.540
603.500	385.136	80.012	19.994	103.894	19.958	9.366	0.508
604.000	385.401	80.013	19.993	103.896	19.957	9.511	0.509
604.500	385.623	80.013	19.994	103.895	19.955	9.617	0.502
605.000	385.886	80.012	19.993	103.896	19.953	9.786	0.486
605.500	386.138	80.012	19.993	103.894	19.949	10.039	0.500
606.000	386.416	80.012	19.994	103.894	19.949	10.056	0.523
606.500	386.660	80.011	19.994	103.895	19.947	10.170	0.526
607.000	386.902	80.011	19.993	103.897	19.941	10.661	0.504
607.500	387.105	80.010	19.993	103.900	19.941	10.641	0.465
608.000	387.414	80.011	19.994	103.902	19.942	10.573	0.479
608.500	387.679	80.011	19.993	103.901	19.937	10.918	0.543
609.000	387.929	80.011	19.994	103.901	19.932	11.292	0.544
609.500	388.193	80.010	19.994	103.901	19.929	11.478	0.515
610.000	388.436	80.010	19.994	103.906	19.926	11.719	0.511
610.500	388.694	80.011	19.994	103.911	19.924	11.904	0.504
611.000	388.925	80.010	19.993	103.917	19.922	11.987	0.495
611.500	389.159	80.009	19.993	103.924	19.919	12.208	0.477
612.000	389.404	80.010	19.993	103.929	19.917	12.381	0.472
612.500	389.665	80.010	19.995	103.926	19.917	12.413	0.492
613.000	389.979	80.010	19.993	103.923	19.912	12.714	0.541
613.500	390.224	80.011	19.994	103.916	19.909	12.943	0.567
614.000	390.448	80.010	19.994	103.913	19.909	12.987	0.514
614.500	390.691	80.011	19.994	103.913	19.904	13.342	0.468
615.000	390.959	80.011	19.994	103.919	19.900	13.593	0.489
615.500	391.209	80.010	19.994	103.920	19.895	13.955	0.514
616.000	391.485	80.010	19.994	103.922	19.893	14.123	0.522
616.500	391.747	80.011	19.994	103.924	19.895	14.023	0.532
617.000	392.011	80.009	19.994	103.926	19.888	14.497	0.532
617.500	392.274	80.010	19.994	103.922	19.886	14.627	0.527
618.000	392.535	80.010	19.994	103.918	19.884	14.772	0.526
618.500	392.772	80.009	19.994	103.919	19.880	15.109	0.511
619.000	393.057	80.009	19.994	103.917	19.878	15.256	0.510
619.500	393.310	80.010	19.993	103.917	19.875	15.463	0.530
620.000	393.582	80.010	19.994	103.922	19.871	15.734	0.532
620.500	393.852	80.011	19.994	103.930	19.864	16.228	0.534
621.000	394.061	80.009	19.994	103.935	19.860	16.502	0.510
621.500	394.337	80.009	19.994	103.939	19.862	16.389	0.482
622.000	394.560	80.010	19.993	103.942	19.854	16.977	0.492
622.500	394.865	80.010	19.994	103.943	19.850	17.265	0.514
623.000	395.091	80.009	19.994	103.943	19.843	17.783	0.529
623.500	395.353	80.009	19.994	103.943	19.841	17.914	0.510
624.000	395.635	80.009	19.993	103.942	19.833	18.470	0.516
624.501	395.843	80.009	19.994	103.939	19.833	18.510	0.517
625.000	396.113	80.010	19.994	103.938	19.827	18.919	0.484
625.500	396.292	80.009	19.994	103.937	19.820	19.468	0.464
626.000	396.611	80.010	19.994	103.938	19.816	19.724	0.473
626.500	396.832	80.010	19.994	103.943	19.809	20.251	0.519
627.000	397.114	80.010	19.994	103.950	19.804	20.608	0.521
627.500	397.377	80.009	19.994	103.953	19.799	20.994	0.524
628.000	397.618	80.011	19.995	103.954	19.796	21.189	0.525
628.500	397.889	80.011	19.994	103.954	19.791	21.580	0.508
629.000	398.152	80.010	19.994	103.950	19.787	21.818	0.523
629.500	398.393	80.009	19.993	103.948	19.785	22.004	0.519
630.000	398.640	80.009	19.995	103.951	19.779	22.463	0.496
630.500	398.878	80.010	19.994	103.950	19.774	22.774	0.487
631.000	399.123	80.009	19.994	103.950	19.771	23.011	0.484
631.500	399.406	80.010	19.995	103.951	19.767	23.290	0.505
632.000	399.654	80.009	19.994	103.947	19.764	23.496	0.530
632.500	399.893	80.009	19.995	103.941	19.759	23.872	0.509
633.000	400.143	80.009	19.995	103.942	19.753	24.318	0.488
633.500	400.432	80.010	19.994	103.943	19.752	24.383	0.514
634.000	400.691	80.008	19.995	103.945	19.746	24.871	0.543
634.500	400.946	80.010	19.996	103.948	19.740	25.285	0.531
635.000	401.157	80.010	19.993	103.956	19.735	25.659	0.490
635.500	401.385	80.010	19.995	103.963	19.730	25.987	0.452
636.000	401.669	80.009	19.995	103.972	19.724	26.433	0.475
636.500	401.917	80.009	19.994	103.977	19.722	26.607	0.522
637.000	402.170	80.009	19.996	103.981	19.717	26.966	0.517
637.500	402.438	80.009	19.995	103.981	19.711	27.370	0.511
638.000	402.664	80.010	19.995	103.983	19.709	27.561	0.508
638.500	402.912	80.009	19.995	103.981	19.702	28.058	0.484
639.000	403.214	80.010	19.994	103.984	19.699	28.277	0.512
639.500	403.414	80.009	19.994	103.990	19.691	28.839	0.526
640.000	403.706	80.010	19.995	103.996	19.684	29.393	0.497
640.500	403.920	80.008	19.996	103.996	19.679	29.717	0.499
641.000	404.173	80.009	19.995	104.001	19.675	30.012	0.486
641.500	404.434	80.009	19.994	104.000	19.672	30.224	0.490
642.000	404.701	80.010	19.994	104.000	19.665	30.728	0.521
642.501	404.941	80.010	19.993	103.999	19.659	31.196	0.518
643.000	405.187	80.009	19.994	104.004	19.651	31.742	0.496
643.500	405.421	80.009	19.994	104.007	19.646	32.117	0.483
644.000	405.670	80.008	19.993	104.012	19.639	32.652	0.482
644.500	405.909	80.006	19.991	104.015	19.631	33.233	0.486
645.000	406.199	80.025	19.997	104.023	19.621	33.938	0.508
645.500	406.459	80.028	20.000	104.032	19.616	34.309	0.540
646.000	406.684	80.028	20.000	104.040	19.612	34.637	0.517
646.500	406.904	80.025	19.998	104.050	19.601	35.409	0.465
647.000	407.194	80.026	20.000	104.065	19.589	36.260	0.477
647.500	407.407	80.027	20.001	104.076	19.583	36.723	0.507
648.000	407.653	80.026	20.000	104.087	19.572	37.486	0.481
648.501	407.916	80.026	20.005	104.095	19.555	38.785	0.484
649.000	408.149	80.027	20.006	104.101	19.542	39.727	0.503
649.500	408.423	80.042	20.006	104.103	19.528	40.727	0.502
650.000	408.717	80.046	20.007	104.102	19.514	41.746	0.538
650.500	408.979	80.046	20.008	104.104	19.504	42.508	0.562
651.000	409.199	80.046	20.009	104.116	19.494	43.245	0.519
651.500	409.459	80.046	20.009	104.122	19.486	43.845	0.481
652.000	409.743	80.047	20.009	104.122	19.475	44.620	0.512
652.500	410.020	80.047	20.009	104.122	19.465	45.350	0.552
653.000	410.297	80.047	20.008	104.119	19.457	45.948	0.557
653.500	410.532	80.047	20.010	104.105	19.449	46.513	0.533
654.000	410.780	80.048	20.010	104.099	19.441	47.089	0.498
654.500	411.041	80.049	20.010	104.092	19.434	47.580	0.496
655.000	411.321	80.037	20.007	104.084	19.424	48.345	0.525
655.500	411.593	80.030	20.004	104.076	19.416	48.953	0.547
656.000	411.844	80.030	20.002	104.068	19.408	49.531	0.538
656.500	412.074	80.030	20.002	104.061	19.399	50.169	0.502
657.000	412.325	80.029	20.001	104.060	19.392	50.679	0.481
657.500	412.594	80.029	20.002	104.059	19.379	51.606	0.500
658.000	412.846	80.031	20.002	104.062	19.374	51.980	0.521
658.500	413.058	80.032	20.000	104.069	19.362	52.855	0.493
659.000	413.295	80.029	19.998	104.082	19.356	53.298	0.456
659.500	413.548	80.030	19.997	104.100	19.342	54.372	0.469
660.000	413.799	80.025	19.995	104.123	19.334	54.915	0.497
660.500	414.053	80.017	19.996	104.144	19.322	55.813	0.505
661.000	414.317	80.012	19.995	104.161	19.314	56.408	0.512
661.501	414.520	80.011	19.994	104.172	19.305	57.056	0.492
662.000	414.789	80.011	19.994	104.178	19.291	58.107	0.469
662.500	415.037	80.012	19.997	104.179	19.279	58.945	0.495
663.000	415.272	80.012	19.998	104.179	19.266	59.877	0.501
663.500	415.524	80.010	19.996	104.178	19.258	60.443	0.485
664.000	415.744	80.010	19.996	104.178	19.244	61.490	0.479
664.500	416.017	80.011	19.997	104.178	19.233	62.301	0.482
665.000	416.269	80.011	19.993	104.178	19.222	63.100	0.509
665.500	416.492	80.011	19.996	104.178	19.210	63.973	0.500
666.000	416.789	80.010	19.994	104.179	19.200	64.715	0.498
666.500	417.054	80.011	19.994	104.179	19.188	65.567	0.541
667.000	417.302	80.011	19.994	104.184	19.174	66.607	0.537
667.500	417.578	80.011	19.994	104.191	19.161	67.549	0.518
668.000	417.850	80.010	19.994	104.198	19.143	68.834	0.536
668.500	418.081	80.010	19.994	104.203	19.128	69.974	0.525
669.000	418.321	80.010	19.993	104.210	19.109	71.352	0.487
669.500	418.574	80.011	19.994	104.212	19.087	72.954	0.482
670.000	418.838	80.009	19.994	104.217	19.067	74.451	0.505
670.500	419.101	80.011	19.994	104.226	19.052	75.572	0.522
671.000	419.361	80.011	19.993	104.235	19.035	76.860	0.524
671.500	419.637	80.012	19.993	104.250	19.018	78.094	0.529
672.000	419.929	80.011	19.993	104.260	19.006	78.977	0.552
672.500	420.162	80.011	19.993	104.259	18.989	80.230	0.547
673.000	420.444	80.011	19.993	104.257	18.974	81.279	0.520
673.500	420.690	80.011	19.995	104.257	18.962	82.214	0.522
674.000	420.959	80.012	19.993	104.250	18.951	82.962	0.522
674.501	421.215	80.013	19.993	104.242	18.937	83.971	0.520
675.000	421.463	80.011	19.993	104.238	18.923	85.039	0.515
675.500	421.725	80.012	19.994	104.231	18.909	86.041	0.507
676.000	422.030	80.012	19.993	104.223	18.898	86.872	0.538
676.500	422.238	80.011	19.993	104.215	18.885	87.814	0.540
677.000	422.495	80.012	19.993	104.213	18.870	88.932	0.489
677.500	422.758	80.012	19.993	104.215	18.857	89.892	0.492
678.000	422.976	80.013	19.993	104.217	18.841	91.012	0.500
678.500	423.223	80.013	19.993	104.222	18.830	91.855	0.473
679.000	423.523	80.013	19.993	104.231	18.816	92.840	0.506
679.500	423.803	80.012	19.994	104.246	18.798	94.154	0.563
680.000	424.039	80.012	19.993	104.271	18.785	95.128	0.548
680.500	424.317	80.014	19.993	104.300	18.771	96.197	0.515
681.000	424.588	80.013	19.992	104.326	18.751	97.619	0.531
681.500	424.825	80.014	19.994	104.348	18.732	99.069	0.529
682.000	425.089	80.013	19.992	104.363	18.719	100.025	0.505
682.500	425.340	80.013	19.993	104.369	18.698	101.558	0.508
683.000	425.577	80.014	19.992	104.371	18.677	103.086	0.502
683.500	425.848	80.013	19.994	104.375	18.660	104.391	0.498
684.000	426.097	80.014	19.994	104.385	18.642	105.705	0.514
684.500	426.358	80.013	19.993	104.391	18.625	106.953	0.515
685.000	426.617	80.014	19.993	104.390	18.606	108.328	0.515
685.500	426.893	80.012	19.994	104.388	18.592	109.377	0.528
686.000	427.109	80.012	19.992	104.390	18.570	110.925	0.513
686.500	427.350	80.014	19.993	104.387	18.555	112.063	0.474
687.001	427.623	80.013	19.993	104.387	18.540	113.124	0.485
687.501	427.890	80.013	19.993	104.394	18.522	114.464	0.527
688.000	428.138	80.013	19.993	104.402	18.506	115.582	0.528
688.500	428.347	80.012	19.993	104.404	18.489	116.851	0.486
689.000	428.616	80.012	19.994	104.405	18.470	118.239	0.467
689.500	428.844	80.012	19.993	104.411	18.447	119.955	0.487
690.000	429.075	80.012	19.993	104.416	18.424	121.716	0.478
690.501	429.352	80.012	19.994	104.421	18.405	123.086	0.484
691.000	429.587	80.012	19.993	104.427	18.379	125.004	0.510
691.500	429.813	80.011	19.994	104.436	18.358	126.597	0.487
692.000	430.119	80.011	19.993	104.455	18.336	128.234	0.497
692.500	430.350	80.011	19.994	104.473	18.311	130.077	0.535
693.000	430.594	80.009	19.994	104.491	18.290	131.570	0.506
693.500	430.846	80.011	19.994	104.508	18.273	132.878	0.485
694.000	431.115	80.011	19.994	104.523	18.250	134.553	0.508
694.500	431.353	80.011	19.994	104.525	18.232	135.845	0.514
695.000	431.597	80.010	19.993	104.532	18.211	137.419	0.495
695.500	431.865	80.011	19.993	104.538	18.194	138.615	0.497
696.000	432.105	80.010	19.993	104.535	18.180	139.628	0.510
696.500	432.362	80.009	19.994	104.532	18.165	140.737	0.502
697.000	432.608	80.009	19.994	104.531	18.147	141.996	0.500
697.500	432.881	80.010	19.995	104.524	18.130	143.290	0.511
698.000	433.122	80.009	19.994	104.520	18.113	144.522	0.517
698.500	433.383	80.008	19.995	104.518	18.092	146.085	0.508
699.000	433.640	80.009	19.995	104.513	18.070	147.719	0.510
699.500	433.881	80.009	19.994	104.512	18.048	149.365	0.508
700.000	434.189	80.010	19.993	104.518	18.025	151.046	0.524
700.500	434.445	80.009	19.995	104.537	18.001	152.785	0.557
701.000	434.703	80.010	19.994	104.575	17.978	154.501	0.539
701.500	434.958	80.008	19.994	104.606	17.955	156.221	0.513
702.000	435.211	80.009	19.995	104.623	17.937	157.514	0.510
702.500	435.476	80.010	19.995	104.641	17.914	159.228	0.513
703.000	435.756	80.010	19.994	104.653	17.898	160.374	0.532
703.500	435.963	80.009	19.995	104.654	17.881	161.673	0.516
704.000	436.262	80.009	19.995	104.663	17.867	162.661	0.496
704.500	436.543	80.008	19.994	104.678	17.847	164.135	0.543
705.000	436.747	80.009	19.994	104.684	17.833	165.177	0.533
705.500	437.012	80.009	19.994	104.679	17.817	166.373	0.477
706.000	437.264	80.009	19.994	104.669	17.798	167.735	0.493
706.500	437.527	80.010	19.995	104.661	17.789	168.389	0.516
707.000	437.782	80.008	19.994	104.651	17.776	169.410	0.516
707.500	438.034	80.009	19.994	104.637	17.757	170.761	0.512
708.000	438.303	80.009	19.994	104.627	17.742	171.915	0.514
708.500	438.529	80.009	19.993	104.623	17.731	172.692	0.508
709.000	438.790	80.009	19.994	104.624	17.720	173.544	0.491
709.500	439.072	80.010	19.994	104.635	17.711	174.223	0.515
710.000	439.325	80.009	19.993	104.651	17.699	175.099	0.539
710.500	439.599	80.010	19.993	104.673	17.690	175.748	0.531
711.000	439.811	80.009	19.994	104.689	17.682	176.281	0.506
711.500	440.064	80.010	19.993	104.697	17.674	176.931	0.475
712.000	440.391	80.010	19.994	104.704	17.667	177.409	0.523
712.500	440.627	80.010	19.993	104.713	17.662	177.800	0.572
713.000	440.895	80.009	19.993	104.717	17.654	178.341	0.534
713.500	441.185	80.010	19.993	104.724	17.648	178.820	0.531
714.000	441.378	80.011	19.992	104.730	17.640	179.337	0.520
714.501	441.676	80.010	19.993	104.731	17.634	179.794	0.487
715.000	441.883	80.009	19.994	104.732	17.632	179.970	0.498
715.500	442.133	80.010	19.994	104.731	17.626	180.398	0.481
716.000	442.405	80.010	19.993	104.730	17.621	180.729	0.490
716.500	442.645	80.009	19.993	104.732	17.614	181.278	0.517
717.000	442.951	80.007	19.992	104.737	17.607	181.749	0.529
717.500	443.225	80.009	19.996	104.744	17.600	182.267	0.563
718.000	443.482	80.010	19.996	104.756	17.595	182.677	0.556
718.500	443.717	80.009	19.995	104.761	17.589	183.086	0.511
719.000	444.009	80.009	19.994	104.770	17.586	183.319	0.509
719.500	444.193	80.009	19.994	104.779	17.581	183.642	0.502
720.000	444.499	80.009	19.995	104.785	17.574	184.180	0.483
720.500	444.780	80.009	19.994	104.785	17.574	184.158	0.538
721.000	445.013	80.010	19.995	104.787	17.571	184.387	0.551
721.500	445.275	80.009	19.995	104.786	17.567	184.694	0.505
722.000	445.509	80.009	19.994	104.784	17.565	184.844	0.495
722.500	445.772	80.008	19.994	104.784	17.561	185.067	0.496
723.000	446.025	80.008	19.993	104.780	17.560	185.166	0.507
723.500	446.272	80.008	19.993	104.779	17.561	185.076	0.508
724.000	446.562	80.009	19.996	104.778	17.565	184.772	0.519
724.500	446.792	80.008	19.994	104.774	17.564	184.848	0.528
725.000	447.070	80.008	19.994	104.767	17.561	185.049	0.514
725.500	447.307	80.008	19.996	104.765	17.564	184.807	0.511
726.000	447.569	80.009	19.994	104.760	17.564	184.800	0.507
726.500	447.837	80.008	19.994	104.758	17.570	184.347	0.515
727.000	448.094	80.008	19.994	104.758	17.574	184.068	0.527
727.500	448.326	80.008	19.994	104.757	17.579	183.650	0.507
728.000	448.613	80.008	19.994	104.754	17.580	183.592	0.504
728.500	448.877	80.008	19.995	104.756	17.586	183.152	0.535
729.000	449.166	80.007	19.995	104.757	17.592	182.715	0.552
729.500	449.369	80.008	19.994	104.757	17.600	182.131	0.523
730.000	449.643	80.009	19.995	104.758	17.605	181.753	0.484
730.500	449.861	80.008	19.994	104.761	17.611	181.240	0.485
731.000	450.168	80.008	19.994	104.762	17.623	180.404	0.509
731.500	450.366	80.009	19.994	104.762	17.627	180.036	0.515
732.000	450.627	80.008	19.995	104.759	17.639	179.178	0.482
732.500	450.881	80.008	19.995	104.752	17.644	178.774	0.487
733.000	451.119	80.009	19.995	104.744	17.660	177.578	0.503
733.500	451.397	80.009	19.994	104.736	17.669	176.952	0.504
734.000	451.669	80.009	19.994	104.727	17.682	175.939	0.533
734.500	451.898	80.009	19.995	104.721	17.695	175.033	0.526
735.000	452.140	80.010	19.995	104.715	17.705	174.224	0.486
735.500	452.375	80.009	19.994	104.710	17.723	172.940	0.474
736.000	452.656	80.010	19.995	104.703	17.738	171.794	0.496
736.500	452.911	80.010	19.994	104.699	17.752	170.780	0.526
737.000	453.185	80.010	19.994	104.694	17.766	169.700	0.533
737.500	453.418	80.009	19.993	104.691	17.783	168.475	0.518
738.000	453.692	80.010	19.994	104.687	17.804	166.923	0.507
738.500	453.941	80.010	19.993	104.682	17.822	165.591	0.515
739.000	454.167	80.011	19.994	104.676	17.841	164.237	0.499
739.500	454.450	80.011	19.994	104.670	17.861	162.746	0.492
740.000	454.710	80.011	19.992	104.661	17.881	161.275	0.526
740.500	454.974	80.011	19.993	104.654	17.898	159.958	0.534
741.000	455.248	80.012	19.993	104.649	17.921	158.311	0.531
741.500	455.502	80.011	19.993	104.640	17.941	156.774	0.533
742.001	455.744	80.010	19.993	104.630	17.963	155.208	0.512
742.500	455.990	80.010	19.993	104.623	17.986	153.449	0.492
743.000	456.272	80.010	19.994	104.614	18.007	151.971	0.509
743.500	456.517	80.011	19.993	104.603	18.030	150.239	0.528
744.000	456.768	80.010	19.993	104.595	18.055	148.413	0.511
744.500	457.015	80.011	19.993	104.588	18.079	146.624	0.497
745.000	457.282	80.011	19.993	104.580	18.103	144.903	0.506
745.500	457.513	80.012	19.993	104.570	18.131	142.855	0.506
746.000	457.796	80.012	19.993	104.558	18.154	141.110	0.506
746.500	458.026	80.010	19.993	104.546	18.184	138.952	0.514
747.000	458.300	80.012	19.994	104.537	18.210	137.019	0.509
747.500	458.521	80.010	19.993	104.528	18.235	135.162	0.500
748.000	458.808	80.011	19.994	104.523	18.263	133.157	0.501
748.500	459.039	80.010	19.993	104.521	18.289	131.219	0.513
749.000	459.288	80.010	19.994	104.515	18.318	129.087	0.499
749.500	459.601	80.011	19.994	104.508	18.349	126.800	0.521
750.000	459.835	80.010	19.993	104.499	18.377	124.771	0.554
750.500	460.046	80.011	19.994	104.483	18.408	122.480	0.496
751.000	460.310	80.012	19.994	104.471	18.439	120.206	0.460
751.500	460.577	80.011	19.993	104.456	18.469	118.049	0.503
752.000	460.825	80.010	19.993	104.441	18.503	115.533	0.523
752.500	461.120	80.010	19.993	104.429	18.535	113.227	0.530
753.000	461.333	80.010	19.994	104.421	18.569	110.698	0.525
753.500	461.604	80.011	19.994	104.413	18.601	108.375	0.496
754.000	461.857	80.011	19.992	104.405	18.631	106.148	0.504
754.500	462.111	80.012	19.994	104.397	18.667	103.533	0.515
755.000	462.377	80.011	19.993	104.388	18.696	101.388	0.514
755.500	462.626	80.011	19.993	104.376	18.729	98.965	0.518
756.000	462.886	80.010	19.993	104.365	18.762	96.580	0.512
756.500	463.150	80.010	19.994	104.357	18.798	93.947	0.516
757.001	463.403	80.010	19.993	104.349	18.826	91.894	0.520
757.501	463.645	80.011	19.993	104.341	18.859	89.456	0.506
758.000	463.898	80.010	19.994	104.337	18.887	87.410	0.495
758.500	464.154	80.010	19.993	104.330	18.918	85.181	0.502
759.000	464.411	80.010	19.992	104.321	18.946	83.147	0.511
759.500	464.659	80.012	19.995	104.314	18.974	81.091	0.509
760.000	464.889	80.011	19.994	104.306	19.001	79.107	0.492
760.500	465.187	80.011	19.993	104.298	19.031	76.936	0.503
761.000	465.428	80.010	19.992	104.286	19.058	74.941	0.533
761.500	465.668	80.011	19.994	104.276	19.083	73.107	0.510
762.000	465.933	80.011	19.993	104.267	19.111	71.128	0.493
762.500	466.227	80.010	19.993	104.258	19.138	69.161	0.532
763.000	466.478	80.011	19.993	104.243	19.164	67.256	0.552
763.500	466.714	80.010	19.994	104.234	19.187	65.532	0.516
764.000	466.981	80.012	19.994	104.225	19.208	63.980	0.495
764.500	467.220	80.012	19.992	104.210	19.237	61.881	0.504
765.000	467.461	80.012	19.993	104.196	19.256	60.493	0.493
765.500	467.726	80.012	19.993	104.188	19.281	58.725	0.493
766.000	467.992	80.013	19.995	104.180	19.305	56.973	0.519
766.501	468.273	80.012	19.993	104.173	19.326	55.379	0.539
767.001	468.509	80.011	19.993	104.168	19.347	53.846	0.532
767.500	468.747	80.013	19.993	104.161	19.366	52.475	0.495
768.000	468.990	80.012	19.994	104.153	19.385	51.148	0.478
768.500	469.300	80.013	19.993	104.145	19.404	49.713	0.517
769.000	469.536	80.012	19.993	104.138	19.424	48.250	0.549
769.500	469.794	80.011	19.992	104.134	19.441	47.036	0.520
770.000	470.049	80.011	19.994	104.134	19.461	45.602	0.504
770.500	470.324	80.012	19.994	104.129	19.475	44.524	0.522
771.000	470.578	80.012	19.992	104.123	19.493	43.262	0.530
771.500	470.818	80.011	19.993	104.115	19.509	42.041	0.511
772.000	471.051	80.011	19.993	104.107	19.524	40.961	0.483
772.500	471.320	80.012	19.993	104.099	19.535	40.179	0.487
773.000	471.569	80.010	19.993	104.093	19.555	38.742	0.510
773.500	471.830	80.010	19.992	104.087	19.569	37.703	0.514
774.000	472.081	80.009	19.993	104.080	19.583	36.715	0.511
774.500	472.366	80.010	19.993	104.073	19.597	35.656	0.524
775.000	472.635	80.009	19.993	104.066	19.607	34.944	0.545
775.500	472.848	80.010	19.995	104.060	19.619	34.094	0.518
776.000	473.126	80.009	19.993	104.051	19.631	33.218	0.487
776.500	473.392	80.009	19.993	104.047	19.641	32.473	0.518
777.000	473.658	80.008	19.991	104.044	19.653	31.614	0.538
777.500	473.940	80.009	19.995	104.040	19.665	30.738	0.540
778.000	474.232	80.009	19.994	104.039	19.674	30.059	0.561
778.500	474.479	80.008	19.994	104.038	19.683	29.382	0.556
779.000	474.717	80.009	19.994	104.034	19.696	28.476	0.512
779.500	474.950	80.008	19.994	104.029	19.702	28.054	0.478
780.000	475.244	80.010	19.991	104.026	19.708	27.574	0.499
780.500	475.498	80.009	19.993	104.022	19.721	26.644	0.537
781.001	475.747	80.009	19.993	104.015	19.727	26.225	0.525
781.501	476.021	80.009	19.992	104.008	19.738	25.376	0.513
782.000	476.289	80.009	19.993	104.001	19.745	24.869	0.532
782.500	476.541	80.010	19.992	103.994	19.753	24.339	0.531
783.000	476.811	80.009	19.992	103.986	19.761	23.741	0.521
783.500	477.056	80.009	19.994	103.985	19.765	23.430	0.518
784.000	477.305	80.009	19.993	103.984	19.778	22.519	0.504
784.500	477.566	80.009	19.993	103.983	19.785	21.965	0.502
785.000	477.858	80.010	19.993	103.983	19.794	21.350	0.532
785.500	478.066	80.011	19.993	103.982	19.800	20.898	0.527
786.000	478.373	80.009	19.993	103.981	19.806	20.451	0.508
786.500	478.627	80.011	19.993	103.981	19.812	20.034	0.538
787.000	478.871	80.009	19.994	103.981	19.817	19.643	0.530
787.500	479.151	80.010	19.993	103.981	19.823	19.187	0.511
788.000	479.407	80.009	19.993	103.978	19.831	18.665	0.529
788.500	479.629	80.010	19.994	103.976	19.839	18.084	0.506
789.000	479.895	80.010	19.993	103.976	19.842	17.871	0.483
789.500	480.138	80.010	19.994	103.976	19.847	17.451	0.499
790.000	480.390	80.009	19.993	103.975	19.852	17.089	0.502
790.500	480.664	80.009	19.993	103.974	19.857	16.775	0.510
791.000	480.887	80.009	19.993	103.970	19.864	16.202	0.512
791.500	481.141	80.009	19.994	103.963	19.866	16.118	0.487
792.000	481.450	80.009	19.993	103.956	19.873	15.600	0.520
792.500	481.684	80.009	19.993	103.952	19.874	15.540	0.553
793.000	481.908	80.009	19.994	103.949	19.882	14.946	0.500
793.500	482.204	80.009	19.993	103.949	19.885	14.741	0.489
794.000	482.414	80.008	19.994	103.949	19.891	14.299	0.513
794.500	482.652	80.009	19.994	103.950	19.895	13.957	0.477
795.000	482.920	80.009	19.992	103.947	19.897	13.866	0.478
795.500	483.168	80.008	19.993	103.946	19.903	13.426	0.511
796.000	483.420	80.010	19.993	103.943	19.908	13.071	0.507
796.500	483.627	80.009	19.992	103.936	19.911	12.796	0.479
797.000	483.937	80.010	19.993	103.927	19.913	12.668	0.488
797.500	484.192	80.009	19.993	103.923	19.917	12.381	0.541
798.000	484.448	80.009	19.994	103.922	19.920	12.188	0.539
798.500	484.668	80.010	19.994	103.922	19.923	11.973	0.494
799.000	484.948	80.010	19.994	103.924	19.927	11.623	0.488
799.500	485.204	80.008	19.994	103.929	19.931	11.384	0.517
800.000	485.426	80.008	19.993	103.932	19.937	10.934	0.507
800.500	485.685	80.010	19.995	103.927	19.936	11.001	0.480
801.000	485.919	80.009	19.994	103.924	19.939	10.756	0.487
801.500	486.226	80.009	19.995	103.920	19.946	10.254	0.517
802.000	486.476	80.009	19.993	103.916	19.945	10.314	0.549
802.500	486.741	80.010	19.994	103.916	19.949	10.081	0.536
803.000	486.995	80.010	19.994	103.918	19.950	10.002	0.517
803.500	487.238	80.008	19.994	103.918	19.951	9.932	0.508
804.000	487.468	80.010	19.994	103.919	19.957	9.486	0.485
804.500	487.757	80.010	19.995	103.919	19.958	9.405	0.496
805.000	488.002	80.009	19.993	103.913	19.962	9.117	0.527
805.500	488.231	80.009	19.993	103.908	19.963	9.055	0.505
806.000	488.511	80.010	19.993	103.905	19.961	9.189	0.491
806.500	488.733	80.010	19.993	103.903	19.967	8.744	0.505
807.000	489.005	80.008	19.994	103.907	19.970	8.497	0.498
807.501	489.236	80.011	19.994	103.909	19.976	8.124	0.499
808.001	489.507	80.009	19.994	103.909	19.974	8.236	0.503
808.500	489.789	80.011	19.994	103.909	19.975	8.176	0.527
809.000	490.041	80.008	19.993	103.908	19.977	8.001	0.543
809.500	490.320	80.009	19.994	103.904	19.979	7.902	0.533
810.000	490.539	80.009	19.993	103.901	19.982	7.683	0.515
810.500	490.759	80.009	19.994	103.901	19.981	7.729	0.468
811.000	491.055	80.010	19.994	103.901	19.985	7.448	0.477
811.500	491.336	80.009	19.993	103.901	19.990	7.047	0.546
812.000	491.532	80.008	19.994	103.901	19.988	7.193	0.527
812.500	491.806	80.010	19.994	103.901	19.992	6.932	0.474
813.000	492.076	80.009	19.994	103.902	19.991	7.000	0.507
813.500	492.361	80.009	19.994	103.897	19.994	6.803	0.550
814.000	492.659	80.010	19.995	103.893	19.997	6.558	0.569
814.500	492.893	80.009	19.994	103.890	20.000	6.373	0.557
815.000	493.135	80.010	19.995	103.888	20.002	6.233	0.504
815.500	493.401	80.009	19.994	103.886	20.002	6.219	0.492
816.000	493.664	80.009	19.993	103.889	20.003	6.114	0.518
816.500	493.909	80.010	19.994	103.892	20.005	6.016	0.519
817.000	494.165	80.010	19.995	103.893	20.006	5.916	0.505
817.500	494.413	80.009	19.993	103.893	20.008	5.737	0.502
818.000	494.691	80.010	19.994	103.896	20.008	5.741	0.515
818.500	494.981	80.009	19.994	103.897	20.006	5.900	0.547
819.000	495.196	80.009	19.994	103.897	20.010	5.649	0.536
819.500	495.447	80.010	19.994	103.895	20.013	5.398	0.485
820.000	495.719	80.010	19.994	103.892	20.017	5.109	0.495
820.500	495.984	80.011	19.994	103.887	20.013	5.380	0.530
821.000	496.261	80.010	19.994	103.884	20.016	5.173	0.540
821.500	496.507	80.009	19.994	103.884	20.016	5.159	0.533
822.000	496.752	80.010	19.994	103.886	20.020	4.900	0.507
822.500	497.004	80.011	19.994	103.884	20.021	4.792	0.494
823.000	497.252	80.010	19.994	103.883	20.022	4.736	0.498
823.500	497.518	80.010	19.995	103.880	20.019	4.944	0.507
824.000	497.785	80.011	19.994	103.873	20.024	4.623	0.524
824.500	498.028	80.011	19.994	103.868	20.025	4.503	0.521
825.000	498.303	80.010	19.995	103.868	20.025	4.545	0.514
825.500	498.582	80.012	19.995	103.867	20.025	4.561	0.536
826.000	498.796	80.011	19.994	103.865	20.028	4.346	0.523
826.500	499.078	80.010	19.995	103.865	20.028	4.308	0.494
827.000	499.346	80.011	19.993	103.864	20.028	4.282	0.523
827.500	499.620	80.011	19.995	103.862	20.027	4.373	0.546
828.000	499.820	80.009	19.994	103.866	20.029	4.224	0.508
828.500	500.115	80.010	19.995	103.866	20.027	4.355	0.484
829.000	500.362	80.010	19.994	103.865	20.030	4.160	0.518
829.500	500.659	80.010	19.993	103.866	20.028	4.290	0.543
830.000	500.891	80.009	19.994	103.866	20.027	4.387	0.537
830.500	501.129	80.009	19.994	103.862	20.028	4.290	0.500
831.000	501.396	80.011	19.993	103.861	20.027	4.403	0.487
831.500	501.640	80.010	19.995	103.861	20.031	4.124	0.508
832.000	501.907	80.010	19.994	103.861	20.030	4.180	0.511
832.500	502.148	80.011	19.994	103.860	20.031	4.065	0.510
833.000	502.406	80.010	19.994	103.860	20.030	4.180	0.504
833.500	502.634	80.009	19.994	103.860	20.031	4.090	0.492
834.000	502.922	80.010	19.994	103.860	20.029	4.232	0.501
834.500	503.189	80.009	19.994	103.860	20.031	4.069	0.536
835.000	503.450	80.009	19.994	103.860	20.028	4.336	0.542
835.500	503.661	80.010	19.994	103.861	20.033	3.957	0.499
836.000	503.944	80.009	19.994	103.861	20.031	4.124	0.483
836.500	504.232	80.011	19.994	103.862	20.035	3.800	0.533
837.000	504.494	80.009	19.992	103.863	20.036	3.718	0.561
837.500	504.689	80.010	19.994	103.863	20.038	3.594	0.504
838.000	504.972	80.010	19.995	103.864	20.037	3.668	0.468
838.500	505.250	80.010	19.994	103.865	20.037	3.622	0.519
839.000	505.474	80.011	19.993	103.865	20.040	3.445	0.531
839.500	505.735	80.009	19.993	103.864	20.038	3.620	0.494
840.000	506.010	80.009	19.993	103.863	20.036	3.706	0.511
840.500	506.265	80.010	19.993	103.862	20.041	3.367	0.533
841.000	506.490	80.011	19.994	103.862	20.044	3.168	0.505
841.500	506.735	80.011	19.992	103.863	20.041	3.331	0.475
842.000	507.029	80.011	19.994	103.863	20.042	3.303	0.504
842.500	507.220	80.010	19.993	103.864	20.040	3.471	0.512
843.000	507.499	80.010	19.993	103.863	20.041	3.365	0.478
843.500	507.770	80.011	19.993	103.861	20.039	3.541	0.510
844.000	508.008	80.010	19.994	103.860	20.043	3.247	0.530
844.500	508.228	80.010	19.993	103.861	20.043	3.253	0.484
845.000	508.514	80.011	19.992	103.861	20.038	3.549	0.482
845.500	508.781	80.010	19.993	103.861	20.040	3.411	0.529
846.000	509.019	80.011	19.993	103.861	20.041	3.367	0.529
846.500	509.261	80.011	19.992	103.858	20.039	3.533	0.493
847.000	509.535	80.010	19.992	103.858	20.042	3.315	0.498
847.500	509.748	80.011	19.993	103.856	20.041	3.359	0.502
848.000	509.983	80.011	19.993	103.857	20.040	3.431	0.468
848.500	510.257	80.011	19.992	103.859	20.043	3.240	0.478
849.000	510.512	80.011	19.992	103.863	20.042	3.293	0.519
849.500	510.752	80.012	19.992	103.860	20.042	3.268	0.512
850.000	511.014	80.011	19.993	103.855	20.041	3.367	0.498
850.500	511.282	80.013	19.993	103.852	20.042	3.293	0.516
851.000	511.541	80.012	19.993	103.848	20.043	3.220	0.529
851.500	511.745	80.012	19.992	103.845	20.042	3.315	0.495
852.000	512.052	80.012	19.992	103.844	20.042	3.317	0.486
852.500	512.275	80.012	19.994	103.845	20.039	3.483	0.521
853.000	512.539	80.011	19.992	103.847	20.041	3.399	0.509
853.500	512.813	80.011	19.992	103.850	20.046	2.981	0.512
854.000	513.044	80.012	19.992	103.851	20.040	3.459	0.521
854.500	513.327	80.010	19.993	103.852	20.043	3.210	0.509
855.000	513.582	80.011	19.993	103.854	20.044	3.130	0.526
855.500	513.856	80.010	19.992	103.854	20.045	3.080	0.534
856.000	514.085	80.010	19.992	103.850	20.048	2.829	0.516
856.500	514.310	80.010	19.993	103.849	20.046	3.007	0.478
857.000	514.569	80.011	19.993	103.851	20.046	3.028	0.469
857.500	514.865	80.009	19.992	103.848	20.045	3.046	0.519
858.000	515.095	80.009	19.993	103.848	20.046	2.972	0.540
858.500	515.347	80.009	19.993	103.852	20.047	2.963	0.504
859.000	515.594	80.009	19.992	103.852	20.046	3.032	0.491
859.500	515.816	80.008	19.992	103.848	20.050	2.737	0.484
860.000	516.151	80.010	19.993	103.848	20.047	2.921	0.513
860.500	516.379	80.008	19.993	103.849	20.047	2.901	0.560
861.000	516.635	80.008	19.993	103.849	20.045	3.050	0.523
861.500	516.874	80.008	19.993	103.848	20.049	2.807	0.489
862.000	517.105	80.008	19.994	103.851	20.049	2.757	0.482
862.500	517.358	80.009	19.993	103.851	20.050	2.698	0.477
863.000	517.631	80.008	19.994	103.850	20.045	3.097	0.505
863.500	517.882	80.010	19.993	103.845	20.047	2.919	0.526
864.000	518.162	80.008	19.993	103.843	20.045	3.104	0.528
864.500	518.392	80.008	19.993	103.843	20.046	2.993	0.520
865.000	518.644	80.008	19.993	103.844	20.045	3.102	0.496
865.500	518.927	80.009	19.993	103.839	20.045	3.062	0.508
866.000	519.165	80.008	19.993	103.843	20.046	2.973	0.527
866.500	519.421	80.009	19.992	103.845	20.047	2.959	0.507
867.000	519.673	80.010	19.993	103.843	20.044	3.146	0.502
867.500	519.961	80.009	19.993	103.843	20.043	3.198	0.524
868.000	520.205	80.009	19.993	103.849	20.047	2.951	0.536
868.500	520.459	80.009	19.993	103.849	20.048	2.839	0.514
869.000	520.725	80.009	19.993	103.849	20.047	2.909	0.509
869.500	520.984	80.009	19.993	103.849	20.047	2.957	0.523
870.000	521.261	80.010	19.993	103.846	20.045	3.078	0.531
870.500	521.511	80.010	19.993	103.844	20.047	2.953	0.532
871.000	521.750	80.012	19.993	103.845	20.051	2.662	0.508
871.500	522.001	80.010	19.994	103.841	20.049	2.769	0.489
872.000	522.231	80.011	19.993	103.842	20.049	2.771	0.485
872.500	522.513	80.010	19.993	103.842	20.048	2.827	0.497
873.000	522.777	80.010	19.993	103.837	20.046	2.998	0.529
873.500	523.032	80.010	19.993	103.834	20.044	3.132	0.532
874.000	523.291	80.010	19.992	103.833	20.046	3.037	0.517
874.500	523.533	80.010	19.993	103.835	20.047	2.917	0.507
875.000	523.769	80.009	19.992	103.840	20.048	2.827	0.489
875.500	524.067	80.009	19.993	103.842	20.046	2.967	0.506
876.000	524.294	80.011	19.993	103.843	20.048	2.847	0.530
876.500	524.562	80.009	19.994	103.847	20.048	2.857	0.510
877.000	524.806	80.010	19.994	103.844	20.050	2.704	0.503
877.500	525.034	80.011	19.993	103.843	20.049	2.817	0.491
878.000	525.326	80.011	19.992	103.847	20.052	2.574	0.496
878.500	525.567	80.011	19.993	103.846	20.050	2.722	0.527
879.000	525.792	80.010	19.993	103.849	20.049	2.786	0.500
879.500	526.052	80.010	19.993	103.850	20.050	2.720	0.476
880.000	526.312	80.010	19.993	103.847	20.048	2.871	0.502
880.500	526.565	80.010	19.994	103.842	20.047	2.901	0.516
881.000	526.811	80.010	19.993	103.839	20.046	2.989	0.506
881.500	527.063	80.010	19.993	103.834	20.050	2.704	0.498
882.000	527.313	80.009	19.995	103.835	20.048	2.849	0.500
882.500	527.577	80.010	19.993	103.840	20.048	2.889	0.508
883.000	527.844	80.010	19.994	103.846	20.051	2.630	0.523
883.500	528.103	80.010	19.994	103.847	20.050	2.718	0.529
884.000	528.338	80.010	19.993	103.848	20.051	2.658	0.510
884.500	528.605	80.009	19.994	103.846	20.051	2.668	0.498
885.000	528.901	80.009	19.994	103.840	20.050	2.734	0.532
885.500	529.167	80.007	19.994	103.833	20.048	2.853	0.563
886.000	529.419	80.010	19.994	103.831	20.050	2.682	0.540
886.500	529.648	80.010	19.994	103.828	20.052	2.586	0.499
887.000	529.899	80.008	19.994	103.827	20.050	2.718	0.480
887.500	530.148	80.009	19.994	103.827	20.048	2.825	0.490
888.000	530.378	80.008	19.994	103.827	20.048	2.887	0.489
888.500	530.650	80.008	19.995	103.830	20.047	2.941	0.490
889.000	530.885	80.009	19.995	103.830	20.048	2.853	0.505
889.500	531.161	80.008	19.994	103.830	20.045	3.085	0.509
890.000	531.422	80.009	19.994	103.829	20.047	2.927	0.524
890.500	531.700	80.008	19.994	103.831	20.044	3.152	0.538
891.000	531.921	80.008	19.994	103.830	20.048	2.881	0.519
891.500	532.164	80.007	19.995	103.829	20.046	2.971	0.481
892.000	532.419	80.010	19.995	103.829	20.044	3.114	0.481
892.500	532.680	80.008	19.994	103.832	20.046	2.986	0.507
893.000	532.879	80.009	19.995	103.831	20.049	2.783	0.488
893.500	533.166	80.010	19.994	103.828	20.047	2.947	0.473
894.000	533.416	80.007	19.995	103.827	20.046	2.983	0.512
894.500	533.671	80.008	19.995	103.829	20.046	2.987	0.521
895.000	533.952	80.008	19.995	103.830	20.046	3.019	0.520
895.500	534.167	80.009	19.995	103.833	20.045	3.097	0.516
896.000	534.448	80.006	19.994	103.837	20.046	3.013	0.496
896.500	534.701	80.008	19.993	103.837	20.047	2.923	0.515
897.000	534.976	80.008	19.993	103.836	20.049	2.818	0.531
897.500	535.225	80.010	19.997	103.831	20.046	3.007	0.526
898.000	535.463	80.010	19.995	103.831	20.045	3.055	0.505
898.500	535.691	80.010	19.995	103.830	20.047	2.907	0.477
899.000	535.960	80.009	19.994	103.831	20.045	3.065	0.482
899.500	536.218	80.010	19.995	103.833	20.046	3.021	0.512
900.000	536.448	80.009	19.994	103.836	20.046	2.993	0.507
900.500	536.712	80.011	19.994	103.834	20.045	3.049	0.491
901.000	536.961	80.009	19.994	103.831	20.046	2.973	0.504
901.500	537.230	80.011	19.994	103.833	20.045	3.089	0.516
902.000	537.459	80.009	19.994	103.837	20.045	3.065	0.508
902.500	537.720	80.008	19.993	103.842	20.045	3.055	0.494
903.000	537.936	80.011	19.994	103.848	20.047	2.951	0.483
903.500	538.200	80.009	19.994	103.853	20.046	3.029	0.478
904.000	538.438	80.011	19.995	103.850	20.046	2.997	0.491
904.500	538.667	80.010	19.994	103.844	20.049	2.766	0.485
905.000	538.937	80.011	19.994	103.836	20.045	3.077	0.483
905.500	539.175	80.009	19.994	103.828	20.046	3.015	0.503
906.000	539.412	80.009	19.993	103.825	20.046	2.983	0.491
906.500	539.687	80.010	19.994	103.825	20.048	2.838	0.494
907.000	539.953	80.011	19.993	103.825	20.048	2.857	0.527
907.500	540.205	80.011	19.994	103.826	20.049	2.796	0.529
908.000	540.458	80.012	19.994	103.826	20.050	2.680	0.512
908.500	540.685	80.012	19.994	103.825	20.050	2.702	0.493
909.000	540.954	80.011	19.993	103.825	20.052	2.536	0.488
909.500	541.178	80.010	19.992	103.826	20.053	2.506	0.494
910.000	541.426	80.011	19.993	103.825	20.053	2.490	0.483
910.500	541.685	80.009	19.993	103.825	20.053	2.498	0.489
911.000	541.940	80.012	19.993	103.825	20.051	2.622	0.510
911.500	542.257	80.012	19.993	103.826	20.050	2.713	0.543
912.000	542.467	80.009	19.994	103.825	20.048	2.851	0.550
912.500	542.688	80.010	19.994	103.826	20.049	2.793	0.479
913.000	542.964	80.011	19.994	103.826	20.052	2.594	0.464
913.500	543.228	80.009	19.994	103.826	20.049	2.751	0.518
914.000	543.464	80.008	19.994	103.825	20.050	2.747	0.519
914.500	543.727	80.010	19.993	103.826	20.050	2.731	0.499
915.000	543.970	80.010	19.994	103.825	20.052	2.552	0.503
915.500	544.217	80.010	19.994	103.825	20.050	2.702	0.498
916.000	544.469	80.010	19.994	103.825	20.050	2.742	0.495
916.500	544.726	80.009	19.994	103.825	20.052	2.588	0.504
917.000	545.019	80.010	19.994	103.826	20.050	2.702	0.529
917.500	545.254	80.009	19.994	103.827	20.050	2.722	0.540
918.000	545.500	80.006	19.993	103.827	20.049	2.779	0.505
918.500	545.757	80.009	19.995	103.828	20.046	2.971	0.492
919.000	546.024	80.009	19.994	103.828	20.046	2.989	0.513
919.500	546.227	80.009	19.994	103.828	20.050	2.740	0.497
920.000	546.539	80.011	19.994	103.833	20.046	2.979	0.492
920.500	546.810	80.009	19.994	103.836	20.049	2.800	0.549
921.000	547.087	80.009	19.994	103.837	20.045	3.049	0.566
921.500	547.362	80.011	19.995	103.840	20.048	2.825	0.550
922.000	547.601	80.008	19.994	103.844	20.048	2.885	0.533
922.500	547.836	80.011	19.995	103.844	20.050	2.738	0.493
923.000	548.146	80.011	19.995	103.846	20.049	2.750	0.509
923.500	548.443	80.010	19.994	103.848	20.047	2.959	0.576
924.000	548.670	80.010	19.994	103.847	20.050	2.704	0.565
924.500	548.911	80.009	19.995	103.843	20.048	2.875	0.496
925.000	549.143	80.013	19.995	103.842	20.048	2.881	0.470
925.500	549.414	80.009	19.994	103.840	20.047	2.925	0.488
926.000	549.656	80.011	19.994	103.837	20.046	2.999	0.508
926.500	549.940	80.008	19.995	103.834	20.049	2.770	0.519
927.000	550.186	80.012	19.993	103.835	20.052	2.564	0.528
927.500	550.465	80.011	19.994	103.837	20.047	2.943	0.528
928.000	550.690	80.011	19.994	103.835	20.048	2.841	0.515
928.500	550.973	80.011	19.992	103.835	20.049	2.761	0.506
929.000	551.214	80.011	19.993	103.836	20.050	2.690	0.516
929.500	551.474	80.010	19.994	103.834	20.050	2.720	0.512
930.000	551.741	80.011	19.993	103.828	20.051	2.668	0.514
930.500	552.036	80.011	19.993	103.827	20.050	2.684	0.545
931.000	552.261	80.011	19.994	103.826	20.049	2.760	0.541
931.500	552.511	80.012	19.993	103.828	20.049	2.764	0.497
932.000	552.746	80.013	19.993	103.829	20.049	2.804	0.480
932.500	553.016	80.013	19.994	103.833	20.050	2.746	0.495
933.000	553.268	80.013	19.993	103.833	20.051	2.664	0.513
933.500	553.565	80.012	19.993	103.832	20.050	2.736	0.535
934.000	553.806	80.013	19.993	103.833	20.049	2.772	0.544
934.500	554.086	80.011	19.993	103.831	20.050	2.690	0.529
935.000	554.353	80.010	19.993	103.828	20.054	2.425	0.534
935.500	554.637	80.013	19.992	103.827	20.051	2.672	0.549
936.000	554.894	80.013	19.993	103.828	20.052	2.566	0.546
936.500	555.163	80.012	19.994	103.827	20.051	2.620	0.534
937.000	555.427	80.011	19.993	103.830	20.051	2.656	0.530
937.500	555.659	80.011	19.993	103.834	20.048	2.837	0.515
938.000	555.935	80.011	19.994	103.838	20.051	2.634	0.502
938.500	556.224	80.011	19.993	103.844	20.054	2.431	0.536
939.000	556.438	80.011	19.994	103.845	20.052	2.542	0.534
939.501	556.708	80.011	19.994	103.841	20.053	2.491	0.494
940.000	556.992	80.012	19.993	103.837	20.051	2.650	0.519
940.500	557.250	80.010	19.993	103.835	20.048	2.853	0.547
941.000	557.483	80.010	19.993	103.830	20.051	2.632	0.516
941.500	557.796	80.011	19.993	103.828	20.050	2.704	0.519
942.000	558.060	80.010	19.994	103.827	20.049	2.788	0.561
942.500	558.283	80.009	19.993	103.827	20.050	2.740	0.531
943.000	558.547	80.008	19.993	103.826	20.053	2.483	0.487
943.500	558.797	80.010	19.994	103.829	20.055	2.355	0.501
944.000	559.099	80.011	19.994	103.829	20.054	2.447	0.534
944.500	559.345	80.008	19.993	103.830	20.050	2.718	0.550
945.000	559.604	80.006	19.994	103.831	20.051	2.666	0.526
945.500	559.855	80.012	19.992	103.833	20.051	2.628	0.507
946.000	560.123	80.009	19.994	103.832	20.053	2.469	0.514
946.500	560.374	80.007	19.993	103.833	20.052	2.574	0.519
947.000	560.618	80.008	19.993	103.836	20.053	2.518	0.507
947.500	560.891	80.010	19.993	103.836	20.050	2.738	0.506
948.000	561.119	80.010	19.994	103.834	20.050	2.708	0.509
948.500	561.416	80.011	19.994	103.833	20.051	2.654	0.513
949.000	561.675	80.012	19.993	103.831	20.052	2.564	0.541
949.500	561.947	80.010	19.994	103.828	20.049	2.819	0.543
950.000	562.182	80.011	19.993	103.827	20.052	2.560	0.519
950.500	562.468	80.010	19.995	103.826	20.050	2.680	0.514
951.000	562.717	80.009	19.993	103.829	20.050	2.744	0.528
951.500	562.965	80.007	19.993	103.829	20.051	2.648	0.516
952.000	563.213	80.008	19.993	103.829	20.052	2.570	0.496
952.500	563.492	80.012	19.993	103.830	20.051	2.618	0.511
953.000	563.783	80.012	19.993	103.830	20.051	2.664	0.548
953.500	564.028	80.009	19.995	103.825	20.049	2.760	0.553
954.000	564.249	80.008	19.993	103.826	20.048	2.887	0.501
954.500	564.515	80.010	19.994	103.826	20.047	2.935	0.477
955.000	564.791	80.010	19.994	103.825	20.048	2.842	0.515
955.500	565.052	80.010	19.993	103.827	20.051	2.638	0.539
956.000	565.282	80.008	19.993	103.830	20.052	2.578	0.513
956.500	565.537	80.010	19.993	103.831	20.054	2.457	0.488
957.000	565.802	80.008	19.992	103.832	20.048	2.856	0.503
957.500	566.089	80.009	19.996	103.831	20.051	2.652	0.536
958.000	566.303	80.011	19.995	103.832	20.052	2.578	0.526
958.500	566.583	80.009	19.995	103.833	20.048	2.877	0.498
959.000	566.861	80.010	19.994	103.837	20.049	2.802	0.526
959.500	567.117	80.011	19.994	103.841	20.047	2.899	0.546
960.000	567.384	80.010	19.994	103.841	20.050	2.730	0.529
960.500	567.640	80.011	19.994	103.838	20.049	2.782	0.523
961.000	567.882	80.010	19.994	103.833	20.044	3.131	0.510
961.500	568.132	80.010	19.994	103.829	20.047	2.901	0.495
962.000	568.442	80.010	19.993	103.825	20.045	3.057	0.526
962.500	568.606	80.009	19.994	103.824	20.046	3.029	0.517
963.000	568.923	80.010	19.994	103.824	20.048	2.833	0.478
963.500	569.173	80.010	19.993	103.826	20.046	2.991	0.524
964.000	569.395	80.010	19.994	103.825	20.049	2.817	0.519
964.500	569.662	80.009	19.993	103.825	20.050	2.708	0.480
965.000	569.946	80.010	19.993	103.826	20.049	2.779	0.520
965.500	570.211	80.008	19.994	103.826	20.049	2.799	0.550
966.000	570.470	80.010	19.992	103.824	20.046	2.971	0.537
966.500	570.721	80.010	19.993	103.824	20.047	2.917	0.517
967.000	571.010	80.010	19.993	103.825	20.045	3.066	0.525
967.500	571.218	80.010	19.993	103.824	20.047	2.961	0.518
968.000	571.476	80.010	19.993	103.824	20.047	2.921	0.481
968.500	571.729	80.011	19.993	103.826	20.049	2.783	0.488
969.000	571.952	80.009	19.994	103.825	20.047	2.917	0.493
969.500	572.225	80.009	19.994	103.825	20.047	2.963	0.486
970.000	572.483	80.009	19.994	103.826	20.048	2.865	0.514
970.500	572.756	80.009	19.993	103.826	20.048	2.861	0.531
971.000	572.989	80.011	19.994	103.825	20.047	2.919	0.519
971.500	573.274	80.009	19.993	103.827	20.046	2.999	0.512
972.000	573.495	80.010	19.994	103.828	20.047	2.895	0.512
972.500	573.754	80.010	19.994	103.829	20.049	2.788	0.493
973.000	573.998	80.010	19.994	103.830	20.046	2.981	0.491
973.500	574.290	80.008	19.994	103.831	20.045	3.063	0.519
974.000	574.538	80.009	19.994	103.833	20.049	2.756	0.538
974.500	574.796	80.008	19.994	103.835	20.049	2.803	0.523
975.000	575.039	80.008	19.993	103.841	20.048	2.869	0.503
975.500	575.312	80.010	19.994	103.842	20.045	3.060	0.509
976.000	575.566	80.008	19.992	103.844	20.044	3.170	0.522
976.500	575.799	80.007	19.993	103.843	20.050	2.733	0.507
977.000	576.076	80.010	19.993	103.842	20.048	2.867	0.498
977.500	576.324	80.009	19.994	103.840	20.047	2.919	0.517
978.000	576.611	80.007	19.995	103.844	20.048	2.879	0.530
978.500	576.855	80.008	19.994	103.843	20.043	3.208	0.533
979.000	577.097	80.009	19.994	103.844	20.047	2.929	0.509
979.500	577.362	80.009	19.994	103.844	20.045	3.109	0.496
980.000	577.651	80.009	19.994	103.841	20.047	2.937	0.530
980.500	577.855	80.010	19.994	103.835	20.046	3.017	0.524
981.000	578.083	80.010	19.994	103.832	20.044	3.155	0.463
981.500	578.345	80.009	19.994	103.832	20.044	3.117	0.461
982.000	578.638	80.009	19.993	103.829	20.044	3.127	0.522
982.500	578.848	80.010	19.994	103.828	20.045	3.069	0.529
983.000	579.116	80.010	19.994	103.828	20.044	3.159	0.491
983.500	579.366	80.009	19.994	103.828	20.043	3.252	0.498
984.000	579.608	80.010	19.995	103.826	20.044	3.117	0.505
984.501	579.877	80.010	19.996	103.827	20.042	3.304	0.501
985.000	580.105	80.009	20.004	103.826	20.047	2.965	0.504
985.500	580.344	80.010	20.004	103.833	20.042	3.318	0.482
986.000	580.648	80.010	20.003	103.841	20.044	3.178	0.505
986.500	580.848	80.011	20.002	103.844	20.042	3.316	0.523
987.000	581.123	80.010	20.003	103.848	20.044	3.167	0.489
987.500	581.367	80.010	19.998	103.849	20.043	3.238	0.497
988.000	581.639	80.009	19.998	103.843	20.040	3.460	0.518
988.500	581.893	80.011	19.996	103.839	20.040	3.458	0.521
989.000	582.126	80.012	19.996	103.834	20.037	3.621	0.507
989.500	582.395	80.011	19.996	103.830	20.038	3.611	0.494
990.000	582.627	80.010	19.995	103.829	20.038	3.559	0.501
990.500	582.871	80.011	19.994	103.827	20.038	3.603	0.488
991.000	583.126	80.012	19.994	103.824	20.038	3.565	0.488
991.500	583.421	80.011	19.994	103.827	20.041	3.330	0.525
992.000	583.643	80.011	19.995	103.828	20.039	3.478	0.533
992.500	583.842	80.007	19.995	103.828	20.040	3.464	0.469
993.000	584.111	80.010	19.995	103.829	20.041	3.364	0.444
993.500	584.340	80.012	19.994	103.828	20.036	3.707	0.483
994.000	584.594	80.009	19.993	103.826	20.037	3.669	0.491
994.500	584.860	80.010	19.994	103.826	20.039	3.514	0.502
995.000	585.097	80.011	19.994	103.826	20.037	3.671	0.511
995.500	585.316	80.009	19.994	103.826	20.041	3.334	0.480
996.000	585.576	80.009	19.994	103.827	20.039	3.524	0.468
996.500	585.800	80.008	19.993	103.827	20.041	3.352	0.482
997.000	586.072	80.010	19.994	103.827	20.038	3.593	0.490
997.500	586.294	80.009	19.994	103.828	20.039	3.510	0.495
998.000	586.567	80.009	19.994	103.827	20.042	3.268	0.495
998.500	586.773	80.009	19.994	103.827	20.041	3.336	0.487
999.000	587.010	80.011	19.994	103.827	20.040	3.434	0.461
999.500	587.269	80.010	19.993	103.826	20.040	3.462	0.469
1000.000	587.563	80.010	19.993	103.824	20.040	3.404	0.525
1000.500	587.780	80.010	19.994	103.824	20.039	3.502	0.532
1001.000	588.037	80.010	19.993	103.823	20.039	3.532	0.492
1001.500	588.283	80.011	19.994	103.824	20.038	3.585	0.488
1002.000	588.551	80.011	19.993	103.825	20.035	3.765	0.508
1002.500	588.756	80.009	19.994	103.827	20.036	3.729	0.494
1003.000	589.007	80.010	19.994	103.826	20.040	3.454	0.465
1003.500	589.223	80.010	19.994	103.826	20.040	3.414	0.462
1004.000	589.504	80.009	19.994	103.826	20.040	3.464	0.482
1004.500	589.757	80.010	19.995	103.824	20.038	3.619	0.516
1005.000	590.021	80.010	19.994	103.824	20.038	3.577	0.525
1005.500	590.277	80.011	19.994	103.823	20.036	3.711	0.518
1006.000	590.533	80.011	19.995	103.822	20.037	3.637	0.516
1006.500	590.760	80.010	19.994	103.821	20.040	3.454	0.498
1007.000	591.020	80.010	19.994	103.822	20.035	3.806	0.485
1007.500	591.268	80.011	19.994	103.821	20.035	3.807	0.498
1008.000	591.508	80.010	19.993	103.822	20.036	3.757	0.498
1008.500	591.775	80.011	19.994	103.824	20.036	3.695	0.498
1009.000	592.009	80.010	19.994	103.826	20.036	3.693	0.504
1009.500	592.262	80.010	19.994	103.827	20.038	3.569	0.494
1010.000	592.533	80.010	19.994	103.827	20.036	3.729	0.505
1010.500	592.822	80.009	19.995	103.827	20.035	3.795	0.542
1011.000	593.068	80.011	19.994	103.826	20.034	3.847	0.548
1011.500	593.302	80.008	19.994	103.826	20.035	3.793	0.507
1012.000	593.617	80.012	19.995	103.825	20.033	3.922	0.515
1012.500	593.813	80.013	19.993	103.825	20.034	3.847	0.530
1013.000	594.087	80.012	19.993	103.829	20.036	3.713	0.490
1013.500	594.329	80.011	19.994	103.831	20.035	3.811	0.493
1014.000	594.604	80.012	19.994	103.829	20.034	3.910	0.517
1014.500	594.863	80.014	19.994	103.828	20.035	3.807	0.525
1015.000	595.116	80.010	19.994	103.828	20.036	3.747	0.523
1015.500	595.368	80.013	19.993	103.824	20.036	3.733	0.509
1016.000	595.619	80.012	19.994	103.828	20.033	3.976	0.504
1016.500	595.889	80.012	19.994	103.829	20.033	3.938	0.512
1017.000	596.164	80.009	19.993	103.829	20.032	4.010	0.533
1017.500	596.379	80.011	19.995	103.830	20.033	3.936	0.517
1018.000	596.662	80.012	19.996	103.833	20.034	3.908	0.494
1018.500	596.881	80.010	19.995	103.828	20.034	3.847	0.500
1019.000	597.168	80.011	19.996	103.828	20.033	3.976	0.504
1019.500	597.420	80.011	19.995	103.829	20.032	4.050	0.523
1020.000	597.698	80.011	19.995	103.830	20.033	3.982	0.535
1020.500	597.928	80.010	19.995	103.827	20.031	4.112	0.519
1021.000	598.166	80.010	19.995	103.827	20.029	4.204	0.488
1021.500	598.434	80.010	19.992	103.825	20.028	4.327	0.487
1022.000	598.664	80.011	19.995	103.825	20.030	4.154	0.502
1022.500	598.944	80.011	19.996	103.824	20.030	4.132	0.504
1023.000	599.197	80.010	19.994	103.823	20.030	4.186	0.521
1023.500	599.442	80.009	19.994	103.822	20.032	4.014	0.515
1024.000	599.697	80.011	19.995	103.822	20.036	3.759	0.499
1024.500	599.957	80.011	19.996	103.821	20.033	3.926	0.508
1025.000	600.189	80.008	19.995	103.822	20.032	3.984	0.504
1025.500	600.441	80.010	19.994	103.824	20.034	3.845	0.488
1026.000	600.714	80.009	19.994	103.826	20.034	3.868	0.505
1026.500	600.951	80.010	19.994	103.829	20.034	3.872	0.518
1027.000	601.238	80.009	19.994	103.830	20.035	3.793	0.517
1027.500	601.500	80.010	19.993	103.829	20.034	3.904	0.536
1028.000	601.722	80.010	19.994	103.827	20.032	4.000	0.517
1028.500	601.999	80.011	19.995	103.827	20.032	4.012	0.491
1029.000	602.241	80.012	19.993	103.825	20.032	3.984	0.509
1029.500	602.480	80.009	19.994	103.825	20.030	4.151	0.500
1030.001	602.756	80.011	19.995	103.825	20.030	4.129	0.498
1030.501	602.932	80.011	19.994	103.826	20.033	3.948	0.483
1031.000	603.250	80.010	19.994	103.824	20.032	4.034	0.473
1031.500	603.504	80.009	19.993	103.824	20.030	4.160	0.533
1032.001	603.768	80.009	19.993	103.824	20.031	4.076	0.545
1032.501	604.020	80.009	19.994	103.823	20.030	4.130	0.516
1033.000	604.271	80.010	19.993	103.823	20.031	4.104	0.509
1033.500	604.546	80.010	19.993	103.825	20.028	4.279	0.515
1034.001	604.752	80.010	19.994	103.825	20.028	4.315	0.503
1034.501	605.011	80.010	19.993	103.825	20.030	4.176	0.473
1035.000	605.253	80.010	19.994	103.825	20.032	4.044	0.483
1035.500	605.559	80.010	19.993	103.825	20.029	4.243	0.524
1036.000	605.796	80.011	19.993	103.826	20.031	4.114	0.545
1036.500	606.079	80.010	19.995	103.827	20.027	4.361	0.531
1037.000	606.300	80.009	19.993	103.828	20.033	3.942	0.512
1037.500	606.577	80.011	19.994	103.829	20.032	4.022	0.501
1038.000	606.806	80.009	19.993	103.830	20.034	3.874	0.502
1038.500	607.114	80.011	19.994	103.827	20.032	4.042	0.522
1039.000	607.354	80.011	19.995	103.828	20.031	4.116	0.542
1039.500	607.629	80.011	19.993	103.830	20.028	4.277	0.531
1040.000	607.869	80.008	19.993	103.832	20.030	4.128	0.515
1040.501	608.134	80.011	19.994	103.832	20.030	4.138	0.510
1041.001	608.348	80.010	19.994	103.832	20.028	4.297	0.491
1041.500	608.671	80.010	19.993	103.831	20.031	4.058	0.508
1042.000	608.905	80.009	19.994	103.829	20.026	4.461	0.547
1042.500	609.155	80.011	19.994	103.826	20.032	4.024	0.521
1043.000	609.369	80.009	19.993	103.826	20.032	3.996	0.474
1043.500	609.648	80.009	19.994	103.826	20.033	3.972	0.478
1044.000	609.915	80.010	19.993	103.824	20.031	4.058	0.519
1044.500	610.190	80.010	19.993	103.824	20.032	4.050	0.544
1045.000	610.428	80.011	19.994	103.825	20.033	3.962	0.528
1045.500	610.678	80.009	19.994	103.826	20.030	4.201	0.501
1046.000	610.958	80.009	19.994	103.828	20.028	4.281	0.509
1046.501	611.179	80.009	19.993	103.831	20.030	4.199	0.515
1047.001	611.457	80.010	19.994	103.831	20.031	4.084	0.500
1047.500	611.733	80.009	19.993	103.831	20.032	4.042	0.526
1048.000	611.967	80.010	19.994	103.830	20.031	4.074	0.532
1048.500	612.213	80.009	19.994	103.828	20.029	4.267	0.495
1049.000	612.490	80.008	19.994	103.827	20.029	4.229	0.502
1049.501	612.755	80.010	19.994	103.826	20.031	4.078	0.533
1050.001	613.030	80.010	19.993	103.826	20.030	4.199	0.541
1050.500	613.274	80.009	19.993	103.826	20.030	4.141	0.529
1051.000	613.534	80.011	19.994	103.825	20.031	4.114	0.511
1051.500	613.806	80.008	19.994	103.826	20.029	4.218	0.518
1052.000	614.077	80.009	19.992	103.826	20.030	4.182	0.537
1052.500	614.326	80.010	19.993	103.826	20.031	4.114	0.531
1053.000	614.618	80.010	19.994	103.825	20.033	3.930	0.531
1053.500	614.849	80.009	19.993	103.820	20.032	4.038	0.532
1054.000	615.139	80.008	19.994	103.820	20.032	4.044	0.522
1054.500	615.376	80.010	19.994	103.821	20.032	3.988	0.524
1055.000	615.648	80.009	19.993	103.827	20.034	3.904	0.518
1055.501	615.868	80.011	19.993	103.828	20.033	3.920	0.500
1056.001	616.157	80.010	19.993	103.833	20.035	3.795	0.500
1056.501	616.413	80.009	19.994	103.834	20.033	3.926	0.527
1057.000	616.687	80.009	19.994	103.833	20.034	3.880	0.537
1057.500	616.960	80.008	19.993	103.828	20.032	4.026	0.539
1058.000	617.213	80.009	19.995	103.828	20.030	4.182	0.537
1058.500	617.458	80.009	19.993	103.828	20.035	3.785	0.512
1059.000	617.739	80.009	19.993	103.828	20.036	3.747	0.512
1059.500	617.983	80.006	19.993	103.828	20.032	3.990	0.525
1060.000	618.219	80.009	19.993	103.829	20.037	3.685	0.502
1060.500	618.496	80.010	19.993	103.829	20.034	3.869	0.496
1061.000	618.781	80.010	19.994	103.830	20.036	3.733	0.537
1061.500	619.025	80.010	19.993	103.830	20.029	4.220	0.546
1062.000	619.303	80.010	19.993	103.826	20.030	4.138	0.526
1062.501	619.549	80.010	19.994	103.824	20.033	3.968	0.523
1063.001	619.809	80.009	19.993	103.825	20.033	3.924	0.515
1063.501	620.053	80.009	19.993	103.825	20.033	3.923	0.505
1064.001	620.362	80.010	19.994	103.825	20.033	3.958	0.528
1064.500	620.581	80.010	19.994	103.828	20.032	4.026	0.540
1065.000	620.827	80.012	19.993	103.830	20.035	3.805	0.496
1065.500	621.102	80.013	19.994	103.829	20.033	3.936	0.493
1066.000	621.373	80.014	19.993	103.828	20.036	3.759	0.534
1066.500	621.653	80.009	19.994	103.827	20.036	3.719	0.549
1067.000	621.908	80.010	19.994	103.826	20.034	3.910	0.543
1067.500	622.164	80.011	19.993	103.825	20.035	3.793	0.523
1068.001	622.400	80.010	19.994	103.825	20.036	3.719	0.501
1068.501	622.654	80.011	19.994	103.825	20.036	3.737	0.491
1069.000	622.910	80.012	19.993	103.825	20.036	3.729	0.501
1069.500	623.218	80.012	19.993	103.824	20.037	3.621	0.537
1070.000	623.476	80.015	19.992	103.824	20.035	3.771	0.565
1070.500	623.694	80.013	19.993	103.824	20.035	3.769	0.521
1071.000	623.975	80.011	19.993	103.824	20.039	3.488	0.487
1071.500	624.193	80.013	19.993	103.823	20.036	3.741	0.499
1072.000	624.484	80.011	19.992	103.825	20.036	3.725	0.504
1072.500	624.767	80.011	19.992	103.823	20.037	3.657	0.542
1073.000	625.016	80.009	19.993	103.822	20.037	3.663	0.553
1073.500	625.276	80.013	19.993	103.821	20.039	3.540	0.520
1074.000	625.534	80.010	19.993	103.821	20.038	3.585	0.513
1074.501	625.788	80.013	19.993	103.821	20.036	3.741	0.515
1075.001	626.035	80.012	19.994	103.822	20.037	3.677	0.507
1075.500	626.276	80.009	19.994	103.822	20.038	3.568	0.495
1076.000	626.489	80.012	19.993	103.822	20.038	3.592	0.470
1076.500	626.813	80.011	19.993	103.823	20.040	3.474	0.495
1077.000	627.051	80.012	19.991	103.823	20.040	3.438	0.550
1077.500	627.298	80.014	19.995	103.825	20.041	3.392	0.524
1078.000	627.559	80.011	19.994	103.828	20.038	3.600	0.497
1078.500	627.813	80.011	19.994	103.828	20.038	3.598	0.512
1079.000	628.077	80.012	19.994	103.828	20.040	3.446	0.517
1079.500	628.324	80.011	19.994	103.828	20.038	3.612	0.514
1080.000	628.600	80.013	19.994	103.825	20.039	3.518	0.517
1080.500	628.843	80.013	19.994	103.823	20.041	3.384	0.521
1081.000	629.103	80.013	19.993	103.823	20.039	3.518	0.511
1081.500	629.389	80.009	19.994	103.822	20.044	3.123	0.524
1082.000	629.660	80.011	19.994	103.822	20.039	3.484	0.552
1082.500	629.853	80.012	19.993	103.823	20.043	3.185	0.511
1083.001	630.155	80.011	19.994	103.823	20.044	3.117	0.479
1083.501	630.423	80.011	19.994	103.823	20.044	3.113	0.532
1084.000	630.650	80.008	19.994	103.823	20.044	3.135	0.532
1084.500	630.925	80.010	19.994	103.822	20.040	3.430	0.498
1085.000	631.209	80.011	19.995	103.821	20.041	3.344	0.530
1085.500	631.409	80.012	19.994	103.819	20.042	3.280	0.522
1086.001	631.706	80.008	19.994	103.816	20.044	3.125	0.491
1086.501	631.969	80.009	19.993	103.815	20.044	3.125	0.528
1087.000	632.210	80.011	19.993	103.814	20.045	3.083	0.532
1087.500	632.454	80.012	19.994	103.815	20.042	3.284	0.495
1088.001	632.693	80.013	19.992	103.816	20.041	3.370	0.484
1088.501	633.003	80.011	19.995	103.817	20.048	2.882	0.516
1089.000	633.245	80.011	19.994	103.818	20.046	3.029	0.551
1089.500	633.488	80.012	19.994	103.818	20.041	3.344	0.519
1090.000	633.764	80.011	19.995	103.816	20.044	3.137	0.502
1090.500	634.039	80.011	19.994	103.818	20.041	3.338	0.535
1091.000	634.254	80.013	19.994	103.819	20.043	3.244	0.520
1091.500	634.533	80.010	19.994	103.819	20.042	3.316	0.492
1092.000	634.747	80.012	19.994	103.817	20.041	3.384	0.494
1092.500	635.012	80.012	19.993	103.816	20.040	3.442	0.486
1093.000	635.281	80.011	19.994	103.816	20.043	3.251	0.506
1093.500	635.563	80.013	19.993	103.815	20.037	3.641	0.543
1094.000	635.827	80.009	19.994	103.816	20.042	3.324	0.549
1094.501	636.070	80.011	19.994	103.818	20.039	3.484	0.527
1095.001	636.381	80.014	19.993	103.819	20.038	3.554	0.530
1095.500	636.600	80.013	19.994	103.820	20.042	3.296	0.542
1096.000	636.885	80.014	19.993	103.820	20.039	3.490	0.517
1096.500	637.132	80.012	19.993	103.820	20.046	3.015	0.518
1097.000	637.406	80.012	19.993	103.821	20.044	3.153	0.527
1097.500	637.661	80.011	19.994	103.821	20.044	3.127	0.525
1098.000	637.887	80.012	19.994	103.820	20.046	3.035	0.505
1098.500	638.178	80.013	19.994	103.820	20.041	3.370	0.499
1099.000	638.421	80.013	19.993	103.820	20.043	3.227	0.525
1099.500	638.671	80.013	19.993	103.821	20.041	3.378	0.514
1100.000	638.949	80.013	19.994	103.821	20.041	3.355	0.511
1100.500	639.198	80.011	19.992	103.821	20.039	3.538	0.528
1101.000	639.477	80.011	19.993	103.822	20.038	3.548	0.528
1101.500	639.704	80.012	19.993	103.822	20.041	3.338	0.517
1102.001	639.939	80.012	19.994	103.822	20.043	3.248	0.484
1102.501	640.199	80.012	19.993	103.822	20.040	3.426	0.479
1103.001	640.465	80.010	19.994	103.821	20.041	3.388	0.511
1103.501	640.678	80.011	19.992	103.818	20.043	3.244	0.502
1104.000	640.937	80.009	19.993	103.818	20.039	3.484	0.476
1104.500	641.182	80.011	19.993	103.818	20.042	3.272	0.488
1105.000	641.453	80.009	19.994	103.819	20.043	3.216	0.510
1105.501	641.699	80.013	19.994	103.819	20.043	3.209	0.516
1106.001	641.955	80.011	19.993	103.818	20.045	3.045	0.510
1106.500	642.211	80.011	19.995	103.817	20.043	3.217	0.507
1107.001	642.449	80.010	19.995	103.815	20.044	3.173	0.503
1107.501	642.710	80.009	19.994	103.815	20.043	3.227	0.496
1108.000	642.945	80.008	19.994	103.816	20.043	3.201	0.497
1108.500	643.189	80.009	19.995	103.820	20.044	3.139	0.488
1109.000	643.442	80.011	19.994	103.822	20.043	3.241	0.488
1109.500	643.683	80.010	19.994	103.820	20.044	3.181	0.495
1110.000	643.924	80.011	19.994	103.814	20.041	3.358	0.488
1110.501	644.182	80.009	19.995	103.810	20.041	3.358	0.490
1111.001	644.470	80.009	19.995	103.809	20.047	2.945	0.523
1111.501	644.707	80.009	19.994	103.809	20.044	3.129	0.536
1112.000	644.965	80.011	19.994	103.811	20.047	2.910	0.510
1112.500	645.213	80.008	19.994	103.818	20.044	3.125	0.500
1113.000	645.472	80.011	19.994	103.822	20.045	3.039	0.507
1113.500	645.691	80.009	19.995	103.823	20.047	2.915	0.493
1114.000	645.920	80.008	19.995	103.825	20.045	3.063	0.463
1114.501	646.203	80.008	19.994	103.826	20.045	3.071	0.480
1115.001	646.413	80.011	19.996	103.825	20.047	2.963	0.503
1115.500	646.694	80.010	19.994	103.826	20.046	3.037	0.492
1116.000	646.901	80.009	19.995	103.825	20.046	2.993	0.489
1116.500	647.174	80.009	19.995	103.824	20.048	2.854	0.484
1117.000	647.437	80.010	19.994	103.822	20.043	3.240	0.508
1117.500	647.681	80.010	19.995	103.821	20.043	3.246	0.521
1118.000	647.946	80.008	19.995	103.820	20.043	3.234	0.508
1118.500	648.172	80.008	19.994	103.817	20.043	3.213	0.500
1119.001	648.459	80.011	19.994	103.817	20.042	3.325	0.502
1119.501	648.706	80.011	19.994	103.819	20.041	3.333	0.524
1120.000	648.964	80.011	19.995	103.820	20.045	3.095	0.520
1120.500	649.191	80.010	19.995	103.821	20.043	3.233	0.494
1121.000	649.430	80.008	19.995	103.824	20.041	3.384	0.475
1121.500	649.687	80.010	19.994	103.823	20.045	3.093	0.481
1122.000	649.923	80.012	19.995	103.820	20.045	3.051	0.495
1122.500	650.186	80.011	19.994	103.818	20.044	3.125	0.496
1123.000	650.438	80.011	19.994	103.818	20.045	3.083	0.507
1123.500	650.686	80.009	19.994	103.816	20.045	3.065	0.507
1124.000	650.905	80.011	19.994	103.816	20.045	3.067	0.483
1124.500	651.175	80.011	19.994	103.820	20.047	2.958	0.478
1125.000	651.437	80.009	19.993	103.822	20.044	3.177	0.511
1125.500	651.709	80.009	19.993	103.822	20.043	3.205	0.534
1126.000	651.930	80.010	19.993	103.823	20.043	3.207	0.514
1126.500	652.165	80.010	19.993	103.822	20.045	3.099	0.474
1127.000	652.412	80.010	19.994	103.821	20.043	3.211	0.469
1127.500	652.653	80.010	19.994	103.823	20.042	3.257	0.485
1128.000	652.913	80.012	19.993	103.823	20.048	2.870	0.494
1128.501	653.150	80.013	19.992	103.824	20.044	3.169	0.499
1129.001	653.416	80.011	19.992	103.824	20.046	3.035	0.500
1129.500	653.667	80.011	19.993	103.818	20.046	3.031	0.510
1130.000	653.934	80.009	19.993	103.810	20.046	3.031	0.517
1130.500	654.155	80.010	19.994	103.804	20.046	2.995	0.503
1131.000	654.372	80.009	19.994	103.803	20.043	3.209	0.463
1131.500	654.642	80.008	19.992	103.804	20.045	3.111	0.462
1132.000	654.858	80.010	19.993	103.809	20.045	3.097	0.486
1132.500	655.169	80.013	19.994	103.810	20.044	3.149	0.506
1133.000	655.385	80.010	19.994	103.813	20.044	3.135	0.527
1133.500	655.618	80.011	19.993	103.813	20.048	2.877	0.489
1134.000	655.874	80.010	19.994	103.813	20.044	3.127	0.469
1134.500	656.161	80.011	19.994	103.812	20.044	3.159	0.515
1135.000	656.368	80.010	19.992	103.814	20.041	3.335	0.518
1135.500	656.685	80.008	19.995	103.814	20.043	3.191	0.509
1136.000	656.914	80.010	19.993	103.812	20.046	3.026	0.536
1136.500	657.135	80.009	19.994	103.805	20.046	3.029	0.498
1137.000	657.432	80.009	19.992	103.806	20.045	3.093	0.484
1137.500	657.676	80.010	19.994	103.809	20.044	3.125	0.530
1138.000	657.908	80.009	19.995	103.812	20.044	3.155	0.509
1138.500	658.160	80.011	19.994	103.815	20.044	3.159	0.480
1139.000	658.388	80.009	19.996	103.821	20.040	3.424	0.482
1139.500	658.640	80.010	19.994	103.823	20.043	3.207	0.480
1140.000	658.894	80.010	19.993	103.822	20.044	3.181	0.493
1140.500	659.095	80.010	19.994	103.822	20.044	3.151	0.480
1141.001	659.380	80.009	19.993	103.822	20.045	3.083	0.470
1141.501	659.639	80.010	19.994	103.818	20.044	3.177	0.515
1142.000	659.884	80.009	19.995	103.818	20.045	3.067	0.524
1142.500	660.137	80.010	19.995	103.819	20.045	3.067	0.501
1143.001	660.419	80.009	19.994	103.819	20.046	3.033	0.516
1143.501	660.636	80.010	19.994	103.819	20.047	2.944	0.517
1144.001	660.867	80.010	19.994	103.823	20.045	3.065	0.474
1144.501	661.105	80.009	19.994	103.824	20.047	2.912	0.459
1145.001	661.373	80.009	19.994	103.819	20.043	3.251	0.487
1145.500	661.581	80.009	19.994	103.814	20.044	3.145	0.491
1146.000	661.884	80.010	19.993	103.811	20.046	2.968	0.493
1146.500	662.113	80.010	19.994	103.807	20.049	2.804	0.522
1147.000	662.383	80.011	19.994	103.806	20.045	3.090	0.516
1147.500	662.626	80.011	19.993	103.810	20.048	2.892	0.506
1148.000	662.891	80.010	19.995	103.814	20.045	3.101	0.510
1148.500	663.103	80.012	19.995	103.817	20.046	2.991	0.492
1149.000	663.355	80.010	19.994	103.821	20.045	3.059	0.470
1149.500	663.590	80.009	19.994	103.821	20.045	3.041	0.475
1150.001	663.872	80.012	19.995	103.819	20.045	3.081	0.502
1150.501	664.135	80.009	19.995	103.820	20.046	3.036	0.531
1151.000	664.364	80.012	19.994	103.819	20.043	3.215	0.518
1151.500	664.590	80.010	19.993	103.819	20.043	3.213	0.474
1152.000	664.867	80.012	19.994	103.817	20.046	3.026	0.479
1152.500	665.076	80.011	19.994	103.816	20.047	2.912	0.494
1153.000	665.319	80.013	19.993	103.816	20.047	2.930	0.469
1153.500	665.557	80.011	19.993	103.815	20.047	2.936	0.467
1154.000	665.806	80.013	19.994	103.815	20.047	2.914	0.484
1154.500	666.107	80.012	19.993	103.814	20.049	2.750	0.518
1155.001	666.353	80.012	19.993	103.818	20.050	2.745	0.548
1155.501	666.603	80.011	19.993	103.819	20.047	2.902	0.522
1156.000	666.833	80.012	19.994	103.818	20.046	3.016	0.488
1156.500	667.093	80.011	19.993	103.811	20.047	2.916	0.485
1157.000	667.381	80.012	19.994	103.809	20.048	2.830	0.519
1157.501	667.616	80.012	19.993	103.804	20.049	2.814	0.535
1158.001	667.888	80.012	19.993	103.800	20.048	2.886	0.515
1158.501	668.126	80.011	19.993	103.801	20.044	3.161	0.509
1159.001	668.390	80.011	19.993	103.807	20.042	3.267	0.506
1159.500	668.617	80.010	19.992	103.812	20.047	2.902	0.496
1160.000	668.904	80.012	19.992	103.815	20.046	3.020	0.503
1160.500	669.161	80.013	19.993	103.811	20.047	2.936	0.529
1161.000	669.376	80.012	19.994	103.806	20.042	3.273	0.508
1161.500	669.632	80.011	19.993	103.801	20.048	2.880	0.471
1162.000	669.916	80.012	19.993	103.796	20.044	3.158	0.506
1162.500	670.182	80.011	19.993	103.792	20.044	3.138	0.545
1163.001	670.411	80.011	19.993	103.795	20.047	2.916	0.522
1163.501	670.652	80.011	19.993	103.797	20.046	3.016	0.482
1164.000	670.919	80.010	19.993	103.796	20.044	3.139	0.489
1164.500	671.188	80.011	19.994	103.797	20.049	2.764	0.522
1165.000	671.427	80.011	19.993	103.802	20.046	3.019	0.522
1165.500	671.699	80.011	19.993	103.801	20.046	3.029	0.510
1166.000	671.925	80.011	19.994	103.798	20.049	2.750	0.505
1166.500	672.175	80.011	19.993	103.800	20.046	2.982	0.487
1167.000	672.456	80.011	19.994	103.801	20.046	3.022	0.503
1167.500	672.684	80.011	19.993	103.797	20.047	2.942	0.520
1168.000	672.973	80.012	19.993	103.799	20.049	2.770	0.513
1168.500	673.210	80.010	19.994	103.804	20.050	2.740	0.522
1169.001	673.489	80.012	19.994	103.803	20.048	2.822	0.521
1169.501	673.697	80.012	19.993	103.801	20.049	2.754	0.501
1170.000	674.048	80.011	19.993	103.805	20.051	2.607	0.523
1170.500	674.271	80.013	19.994	103.805	20.050	2.677	0.566
1171.001	674.512	80.013	19.993	103.801	20.049	2.796	0.518
1171.501	674.787	80.013	19.992	103.799	20.050	2.730	0.490
1172.001	675.035	80.013	19.993	103.800	20.050	2.714	0.520
1172.501	675.262	80.012	19.993	103.795	20.049	2.774	0.499
1173.001	675.530	80.012	19.993	103.793	20.052	2.557	0.485
1173.501	675.787	80.011	19.993	103.792	20.049	2.756	0.510
1174.001	676.045	80.014	19.992	103.793	20.048	2.824	0.520
1174.501	676.281	80.012	19.993	103.795	20.049	2.804	0.504
1175.000	676.537	80.013	19.993	103.802	20.049	2.774	0.493
1175.500	676.764	80.012	19.994	103.804	20.050	2.702	0.488
1176.000	677.066	80.012	19.993	103.809	20.049	2.752	0.506
1176.500	677.303	80.012	19.994	103.810	20.049	2.760	0.535
1177.000	677.554	80.013	19.993	103.809	20.049	2.756	0.513
1177.500	677.810	80.013	19.993	103.802	20.050	2.680	0.497
1178.001	678.022	80.012	19.993	103.799	20.050	2.692	0.488
1178.501	678.302	80.014	19.993	103.798	20.049	2.776	0.480
1179.000	678.574	80.012	19.994	103.802	20.048	2.826	0.521
1179.500	678.848	80.013	19.994	103.801	20.050	2.722	0.549
1180.000	679.104	80.015	19.994	103.801	20.051	2.610	0.538
1180.500	679.339	80.013	19.994	103.801	20.050	2.680	0.510
1181.000	679.613	80.010	19.993	103.804	20.051	2.627	0.500
1181.501	679.867	80.013	19.993	103.805	20.051	2.635	0.519
1182.001	680.117	80.011	19.994	103.809	20.052	2.545	0.516
1182.500	680.392	80.014	19.992	103.815	20.052	2.599	0.515
1183.000	680.661	80.011	19.993	103.821	20.050	2.696	0.535
1183.501	680.895	80.011	19.993	103.821	20.053	2.507	0.523
1184.001	681.169	80.009	19.993	103.821	20.051	2.628	0.505
1184.500	681.453	80.012	19.994	103.822	20.052	2.596	0.533
1185.000	681.716	80.011	19.994	103.818	20.053	2.495	0.552
1185.501	681.961	80.012	19.995	103.813	20.051	2.628	0.527
1186.001	682.218	80.013	19.994	103.808	20.051	2.624	0.505
1186.501	682.489	80.011	19.994	103.805	20.049	2.814	0.515
1187.001	682.720	80.011	19.993	103.804	20.054	2.441	0.515
1187.500	683.006	80.009	19.993	103.808	20.051	2.656	0.509
1188.001	683.258	80.011	19.993	103.812	20.051	2.654	0.527
1188.501	683.493	80.010	19.994	103.815	20.048	2.822	0.512
1189.001	683.738	80.010	19.994	103.817	20.050	2.694	0.484
1189.500	684.043	80.011	19.994	103.818	20.046	3.008	0.516
1190.000	684.297	80.009	19.993	103.817	20.048	2.878	0.555
1190.500	684.544	80.009	19.992	103.817	20.050	2.719	0.530
1191.001	684.801	80.010	19.994	103.815	20.050	2.741	0.502
1191.501	685.080	80.011	19.992	103.813	20.050	2.715	0.520
1192.000	685.322	80.008	19.994	103.813	20.048	2.849	0.529
1192.500	685.600	80.008	19.993	103.811	20.049	2.753	0.521
1193.001	685.913	80.008	19.993	103.811	20.052	2.567	0.556
1193.501	686.145	80.009	19.992	103.814	20.047	2.918	0.568
1194.000	686.403	80.008	19.994	103.819	20.046	2.972	0.518
1194.500	686.702	80.010	19.993	103.819	20.045	3.065	0.523
1195.000	686.924	80.009	19.993	103.822	20.049	2.780	0.539
1195.500	687.210	80.009	19.993	103.821	20.049	2.764	0.515
1196.001	687.473	80.010	19.993	103.819	20.052	2.585	0.528
1196.501	687.730	80.010	19.993	103.818	20.050	2.679	0.535
1197.000	688.000	80.007	19.993	103.818	20.048	2.840	0.523
1197.500	688.314	80.011	19.995	103.819	20.054	2.422	0.555
1198.000	688.581	80.009	19.994	103.821	20.051	2.629	0.583
1198.500	688.812	80.008	19.994	103.823	20.051	2.633	0.539
1199.000	689.085	80.008	19.993	103.824	20.054	2.393	0.501
1199.500	689.332	80.008	19.995	103.821	20.052	2.539	0.512
1200.000	689.579	80.010	19.994	103.813	20.050	2.686	0.507
1200.500	689.892	80.010	19.993	103.805	20.051	2.669	0.527
1201.000	690.154	80.010	19.994	103.797	20.053	2.495	0.568
1201.500	690.411	80.009	19.994	103.790	20.052	2.595	0.547
1202.000	690.696	80.009	19.993	103.786	20.048	2.888	0.530
1202.500	690.955	80.009	19.995	103.786	20.049	2.773	0.543
1203.000	691.173	80.012	19.994	103.786	20.050	2.737	0.511
1203.500	691.438	80.010	19.995	103.787	20.048	2.868	0.480
1204.000	691.703	80.010	19.995	103.792	20.047	2.908	0.506
1204.500	691.993	80.009	19.995	103.798	20.048	2.848	0.542
1205.000	692.263	80.009	19.993	103.804	20.044	3.113	0.558
1205.500	692.553	80.008	19.994	103.811	20.050	2.713	0.560
1206.000	692.796	80.010	19.994	103.815	20.049	2.814	0.546
1206.500	693.092	80.011	19.995	103.812	20.049	2.813	0.536
1207.000	693.346	80.010	19.994	103.807	20.048	2.829	0.544
1207.500	693.650	80.010	19.994	103.802	20.047	2.912	0.554
1208.000	693.906	80.009	19.995	103.797	20.046	2.988	0.559
1208.500	694.171	80.008	19.994	103.795	20.049	2.816	0.541
1209.000	694.440	80.010	19.995	103.798	20.048	2.864	0.528
1209.501	694.675	80.008	19.994	103.801	20.049	2.816	0.519
1210.001	695.032	80.011	19.995	103.807	20.049	2.750	0.548
1210.500	695.291	80.010	19.994	103.808	20.050	2.722	0.604
1211.000	695.527	80.011	19.994	103.808	20.050	2.731	0.556
1211.500	695.796	80.010	19.994	103.803	20.050	2.695	0.500
1212.000	696.093	80.012	19.995	103.801	20.050	2.713	0.535
1212.500	696.356	80.009	19.994	103.795	20.049	2.803	0.563
1213.000	696.622	80.009	19.995	103.794	20.050	2.677	0.545
1213.500	696.899	80.012	19.995	103.794	20.048	2.866	0.536
1214.000	697.188	80.009	19.995	103.797	20.045	3.038	0.554
1214.500	697.458	80.011	19.994	103.800	20.048	2.858	0.563
1215.000	697.681	80.010	19.995	103.808	20.048	2.866	0.526
1215.500	697.983	80.010	19.994	103.809	20.052	2.593	0.509
1216.000	698.200	80.009	19.995	103.806	20.048	2.840	0.522
1216.500	698.468	80.011	19.994	103.802	20.048	2.846	0.502
1217.000	698.719	80.010	19.994	103.796	20.050	2.715	0.502
1217.500	699.010	80.010	19.994	103.788	20.047	2.904	0.530
1218.000	699.272	80.009	19.994	103.785	20.051	2.667	0.547
1218.500	699.536	80.010	19.994	103.785	20.050	2.687	0.539
1219.001	699.802	80.011	19.994	103.791	20.053	2.519	0.528
1219.501	700.101	80.009	19.995	103.798	20.052	2.567	0.548
1220.001	700.360	80.010	19.995	103.804	20.052	2.549	0.562
1220.500	700.621	80.009	19.994	103.809	20.050	2.709	0.539
1221.000	700.870	80.010	19.995	103.809	20.052	2.589	0.514
1221.500	701.134	80.010	19.993	103.804	20.049	2.781	0.512
1222.000	701.385	80.010	19.994	103.798	20.047	2.922	0.514
1222.500	701.696	80.006	19.993	103.791	20.051	2.673	0.539
1223.000	701.959	80.011	19.994	103.786	20.050	2.703	0.568
1223.500	702.215	80.012	19.993	103.789	20.052	2.581	0.547
1224.000	702.510	80.010	19.995	103.794	20.051	2.647	0.535
1224.500	702.757	80.010	19.994	103.795	20.053	2.469	0.546
1225.000	703.030	80.010	19.993	103.799	20.050	2.679	0.531
1225.500	703.314	80.009	19.993	103.800	20.051	2.623	0.539
1226.000	703.555	80.011	19.993	103.797	20.052	2.565	0.541
1226.500	703.780	80.011	19.993	103.793	20.054	2.437	0.495
1227.001	704.101	80.012	19.993	103.793	20.051	2.663	0.506
1227.501	704.318	80.011	19.994	103.793	20.051	2.649	0.542
1228.000	704.612	80.011	19.993	103.795	20.049	2.787	0.525
1228.500	704.878	80.012	19.994	103.796	20.051	2.627	0.535
1229.000	705.143	80.011	19.994	103.798	20.047	2.934	0.545
1229.500	705.405	80.011	19.993	103.798	20.048	2.833	0.529
1230.000	705.633	80.010	19.993	103.795	20.048	2.868	0.509
1230.500	705.892	80.012	19.993	103.791	20.052	2.587	0.489
1231.000	706.169	80.011	19.993	103.791	20.051	2.673	0.511
1231.500	706.426	80.010	19.993	103.792	20.050	2.695	0.535
1232.000	706.702	80.012	19.994	103.791	20.049	2.813	0.533
1232.500	706.971	80.011	19.993	103.794	20.049	2.819	0.539
1233.000	707.253	80.011	19.994	103.795	20.047	2.910	0.548
1233.500	707.501	80.011	19.994	103.795	20.049	2.787	0.540
1234.000	707.759	80.012	19.993	103.791	20.047	2.930	0.518
1234.500	707.998	80.012	19.994	103.790	20.047	2.954	0.502
1235.000	708.261	80.012	19.993	103.792	20.049	2.771	0.499
1235.500	708.515	80.012	19.993	103.797	20.050	2.711	0.510
1236.000	708.742	80.011	19.993	103.800	20.046	2.982	0.499
1236.500	709.027	80.011	19.994	103.801	20.047	2.928	0.496
1237.000	709.268	80.012	19.994	103.801	20.048	2.876	0.519
1237.500	709.559	80.012	19.993	103.797	20.047	2.944	0.529
1238.000	709.824	80.012	19.993	103.790	20.050	2.713	0.543
1238.500	710.087	80.011	19.994	103.788	20.053	2.523	0.542
1239.000	710.339	80.013	19.993	103.789	20.050	2.699	0.522
1239.500	710.580	80.011	19.994	103.789	20.051	2.647	0.504
1240.001	710.891	80.012	19.993	103.789	20.049	2.753	0.522
1240.501	711.153	80.011	19.993	103.791	20.048	2.829	0.562
1241.000	711.396	80.011	19.993	103.789	20.051	2.611	0.539
1241.500	711.622	80.012	19.993	103.789	20.048	2.889	0.488
1242.000	711.870	80.011	19.993	103.789	20.049	2.759	0.472
1242.501	712.149	80.011	19.993	103.789	20.051	2.655	0.500
1243.001	712.397	80.011	19.994	103.788	20.052	2.601	0.527
1243.500	712.654	80.011	19.993	103.788	20.051	2.621	0.516
1244.000	712.894	80.010	19.993	103.789	20.053	2.480	0.501
1244.501	713.134	80.010	19.994	103.792	20.052	2.583	0.489
1245.001	713.414	80.011	19.993	103.793	20.050	2.697	0.500
1245.500	713.722	80.011	19.993	103.796	20.052	2.587	0.554
1246.000	713.941	80.011	19.993	103.795	20.054	2.406	0.557
1246.500	714.215	80.010	19.993	103.794	20.053	2.473	0.510
1247.000	714.429	80.010	19.994	103.791	20.050	2.737	0.491
1247.501	714.715	80.010	19.994	103.790	20.054	2.410	0.494
1248.001	714.959	80.011	19.994	103.791	20.052	2.549	0.515
1248.500	715.221	80.012	19.994	103.792	20.054	2.450	0.518
1249.000	715.486	80.011	19.994	103.793	20.054	2.396	0.516
1249.500	715.740	80.011	19.994	103.793	20.056	2.300	0.523
1250.000	716.012	80.011	19.993	103.792	20.054	2.456	0.522
1250.500	716.233	80.012	19.993	103.788	20.054	2.454	0.510
1251.000	716.551	80.011	19.993	103.783	20.054	2.449	0.517
1251.500	716.773	80.012	19.994	103.783	20.050	2.733	0.540
1252.000	717.007	80.011	19.993	103.782	20.050	2.689	0.498
1252.500	717.304	80.011	19.994	103.782	20.050	2.687	0.493
1253.000	717.532	80.012	19.993	103.784	20.051	2.605	0.528
1253.501	717.789	80.012	19.993	103.787	20.048	2.892	0.505
1254.001	718.040	80.011	19.993	103.787	20.048	2.875	0.497
1254.500	718.280	80.012	19.992	103.788	20.051	2.655	0.499
1255.000	718.549	80.012	19.992	103.788	20.052	2.567	0.499
1255.500	718.809	80.012	19.993	103.789	20.050	2.703	0.519
1256.000	719.055	80.012	19.993	103.791	20.050	2.735	0.518
1256.500	719.323	80.012	19.993	103.792	20.054	2.406	0.510
1257.001	719.601	80.011	19.991	103.791	20.052	2.593	0.530
1257.501	719.839	80.013	19.994	103.792	20.052	2.583	0.531
1258.000	720.074	80.012	19.994	103.793	20.055	2.332	0.495
1258.500	720.326	80.013	19.993	103.791	20.055	2.354	0.480
1259.000	720.574	80.013	19.994	103.790	20.055	2.372	0.493
1259.500	720.827	80.013	19.992	103.790	20.056	2.302	0.501
1260.000	721.103	80.013	19.993	103.789	20.055	2.320	0.515
1260.500	721.320	80.013	19.993	103.788	20.055	2.346	0.511
1261.000	721.567	80.013	19.992	103.788	20.052	2.551	0.478
1261.500	721.819	80.013	19.992	103.791	20.053	2.474	0.482
1262.000	722.109	80.013	19.992	103.793	20.052	2.555	0.521
1262.500	722.332	80.013	19.992	103.793	20.055	2.376	0.527
1263.000	722.589	80.012	19.992	103.793	20.053	2.470	0.497
1263.500	722.850	80.013	19.992	103.792	20.052	2.533	0.499
1264.000	723.073	80.012	19.993	103.789	20.054	2.436	0.500
1264.500	723.339	80.013	19.992	103.786	20.054	2.444	0.486
1265.000	723.568	80.013	19.993	103.786	20.054	2.408	0.492
1265.500	723.815	80.014	19.993	103.785	20.052	2.599	0.486
1266.000	724.095	80.013	19.992	103.785	20.052	2.557	0.501
1266.500	724.300	80.013	19.992	103.784	20.057	2.238	0.506
1267.000	724.547	80.013	19.994	103.783	20.055	2.346	0.469
1267.500	724.796	80.012	19.993	103.783	20.055	2.360	0.474
1268.001	725.046	80.013	19.993	103.783	20.049	2.789	0.497
1268.501	725.309	80.014	19.992	103.782	20.051	2.621	0.506
1269.001	725.516	80.013	19.993	103.783	20.053	2.490	0.492
1269.501	725.800	80.012	19.994	103.783	20.051	2.665	0.481
1270.000	726.022	80.011	19.993	103.782	20.049	2.767	0.499
1270.500	726.258	80.012	19.994	103.782	20.049	2.815	0.482
1271.000	726.516	80.012	19.993	103.783	20.056	2.266	0.476
1271.500	726.788	80.010	19.993	103.783	20.053	2.464	0.512
1272.000	727.039	80.012	19.994	103.784	20.049	2.773	0.526
1272.500	727.274	80.011	19.994	103.785	20.052	2.537	0.505
1273.000	727.569	80.011	19.994	103.785	20.051	2.629	0.508
1273.500	727.797	80.011	19.993	103.785	20.052	2.585	0.527
1274.000	728.032	80.011	19.995	103.785	20.048	2.863	0.493
1274.500	728.335	80.010	19.994	103.785	20.050	2.677	0.500
1275.000	728.531	80.010	19.993	103.784	20.053	2.510	0.519
1275.500	728.753	80.010	19.993	103.785	20.050	2.689	0.458
1276.000	729.031	80.011	19.993	103.784	20.048	2.841	0.459
1276.500	729.291	80.010	19.994	103.784	20.052	2.587	0.519
1277.000	729.539	80.011	19.994	103.784	20.052	2.567	0.523
1277.500	729.792	80.009	19.993	103.784	20.052	2.547	0.504
1278.000	730.041	80.010	19.995	103.785	20.052	2.543	0.502
1278.500	730.271	80.011	19.994	103.785	20.053	2.468	0.490
1279.000	730.535	80.011	19.993	103.786	20.053	2.509	0.486
1279.500	730.792	80.010	19.994	103.787	20.053	2.484	0.507
1280.000	731.033	80.010	19.994	103.787	20.051	2.629	0.510
1280.500	731.306	80.011	19.993	103.786	20.053	2.458	0.506
1281.000	731.549	80.011	19.994	103.786	20.055	2.362	0.515
1281.500	731.813	80.011	19.994	103.787	20.054	2.440	0.512
1282.000	732.021	80.009	19.993	103.787	20.056	2.298	0.489
1282.500	732.264	80.011	19.994	103.787	20.055	2.366	0.461
1283.001	732.557	80.011	19.995	103.788	20.052	2.579	0.493
1283.501	732.781	80.010	19.993	103.789	20.051	2.653	0.526
1284.000	733.051	80.010	19.994	103.788	20.053	2.499	0.506
1284.500	733.304	80.011	19.994	103.787	20.054	2.450	0.509
1285.000	733.576	80.011	19.995	103.787	20.055	2.322	0.524
1285.500	733.789	80.011	19.994	103.786	20.058	2.162	0.505
1286.000	734.056	80.010	19.994	103.785	20.054	2.416	0.482
1286.500	734.314	80.011	19.994	103.785	20.057	2.206	0.502
1287.001	734.531	80.012	19.994	103.785	20.053	2.521	0.500
1287.501	734.792	80.011	19.993	103.786	20.053	2.507	0.477
1288.000	735.017	80.012	19.993	103.790	20.050	2.737	0.483
1288.500	735.254	80.012	19.994	103.789	20.048	2.890	0.474
1289.000	735.501	80.011	19.994	103.786	20.049	2.779	0.473
1289.500	735.756	80.010	19.994	103.786	20.055	2.344	0.492
1290.000	736.013	80.012	19.994	103.786	20.051	2.639	0.507
1290.500	736.242	80.010	19.993	103.782	20.051	2.619	0.499
1291.000	736.514	80.010	19.994	103.782	20.056	2.302	0.494
1291.500	736.730	80.011	19.993	103.786	20.053	2.468	0.495
1292.000	737.041	80.012	19.994	103.785	20.052	2.575	0.507
1292.501	737.251	80.011	19.994	103.786	20.051	2.617	0.524
1293.001	737.522	80.012	19.994	103.788	20.052	2.575	0.501
1293.500	737.708	80.009	19.994	103.788	20.055	2.328	0.469
1294.000	737.955	80.011	19.994	103.788	20.050	2.703	0.445
1294.500	738.266	80.011	19.994	103.788	20.052	2.565	0.496
1295.000	738.521	80.010	19.994	103.788	20.051	2.639	0.562
1295.500	738.774	80.012	19.994	103.786	20.053	2.503	0.537
1296.000	738.984	80.011	19.994	103.787	20.052	2.547	0.485
1296.500	739.198	80.010	19.993	103.786	20.051	2.665	0.444
1297.000	739.461	80.010	19.994	103.787	20.050	2.721	0.451
1297.500	739.695	80.010	19.993	103.788	20.049	2.773	0.487
1298.001	739.921	80.009	19.994	103.788	20.052	2.561	0.479
1298.501	740.178	80.011	19.994	103.787	20.054	2.450	0.472
1299.000	740.431	80.011	19.994	103.788	20.057	2.216	0.496
1299.500	740.729	80.011	19.994	103.786	20.051	2.667	0.530
1300.000	740.928	80.010	19.994	103.786	20.051	2.647	0.524
1300.500	741.199	80.010	19.995	103.787	20.054	2.438	0.483
1301.000	741.437	80.010	19.993	103.788	20.054	2.450	0.490
1301.500	741.667	80.011	19.994	103.788	20.051	2.641	0.489
1302.000	741.877	80.010	19.994	103.789	20.053	2.496	0.454
1302.500	742.137	80.010	19.994	103.789	20.057	2.168	0.455
1303.000	742.356	80.009	19.994	103.787	20.055	2.346	0.475
1303.500	742.627	80.010	19.995	103.784	20.054	2.402	0.485
1304.000	742.888	80.010	19.995	103.783	20.057	2.212	0.511
1304.500	743.106	80.009	19.994	103.783	20.053	2.509	0.505
1305.000	743.348	80.009	19.995	103.783	20.057	2.224	0.469
