Sample ID:	C:\MCC\MCC Cal\Test\Polyester_Batting_81B_MCC_30K_min_220301_R1.txt
Sample Weight (mg):	4.52
Heating Rate (C/s):	0.5
Combustor Temp (C):	900
N2 Flow Rate (cc/min):	80
O2 Flow Rate (cc/min):	20
Calibration File:	C:\MCC\MCC Cal\Coeff1 JN10440_30_210304.txt.txt
T Correction Coefficients:	0	1.024463	0
Time Shift (s):	14
*
Time (s)	Temperature (C)	N2 flow rate (cc/min)	O2 flow rate (cc/min)	Flow Rate (cc/min)	Oxygen (%)	HRR (W/g)	Heating rate (C/s)
0.000	115.661	80.011	19.992	103.748	20.113	-0.079	-0.007
0.500	115.675	80.011	19.993	103.747	20.110	0.131	-0.002
1.000	115.651	80.011	19.992	103.748	20.115	-0.228	0.002
1.500	115.666	80.011	19.994	103.748	20.112	-0.014	-0.010
2.000	115.634	80.011	19.994	103.748	20.112	-0.014	-0.013
2.500	115.667	80.010	19.993	103.748	20.115	-0.227	-0.008
3.000	115.667	80.010	19.993	103.747	20.111	0.075	0.017
3.500	115.688	80.010	19.993	103.746	20.114	-0.101	0.027
4.000	115.708	80.011	19.994	103.745	20.110	0.176	0.031
4.500	115.686	80.010	19.994	103.744	20.114	-0.138	0.019
5.000	115.686	80.009	19.994	103.746	20.112	0.014	-0.012
5.500	115.664	80.010	19.994	103.747	20.111	0.103	-0.022
6.000	115.694	80.009	19.995	103.749	20.113	-0.034	-0.007
6.500	115.650	80.008	19.994	103.752	20.110	0.174	-0.003
7.000	115.651	80.009	19.994	103.753	20.111	0.071	-0.028
7.500	115.645	80.008	19.994	103.752	20.108	0.323	-0.024
8.000	115.671	80.009	19.995	103.751	20.113	-0.036	0.007
8.500	115.671	80.007	19.995	103.750	20.112	-0.010	0.023
9.000	115.704	80.009	19.994	103.750	20.111	0.079	0.029
9.500	115.667	80.008	19.995	103.752	20.112	-0.002	0.015
10.000	115.679	80.008	19.995	103.757	20.106	0.406	-0.014
10.500	115.642	80.008	19.994	103.760	20.111	0.077	-0.025
11.000	115.685	80.008	19.992	103.765	20.108	0.319	-0.010
11.500	115.689	80.009	19.994	103.769	20.112	0.044	0.027
12.001	115.681	80.009	19.994	103.774	20.112	0.004	0.022
12.501	115.721	80.008	19.994	103.771	20.112	0.036	0.014
13.001	115.708	80.008	19.994	103.772	20.109	0.200	0.029
13.501	115.723	80.009	19.993	103.767	20.109	0.196	0.014
14.000	115.719	80.008	19.994	103.770	20.110	0.135	0.006
14.500	115.753	80.008	19.993	103.770	20.105	0.505	0.021
15.000	115.717	80.008	19.993	103.777	20.105	0.487	0.015
15.500	115.772	80.008	19.993	103.782	20.109	0.259	0.008
16.000	115.743	80.009	19.994	103.788	20.105	0.479	0.022
16.500	115.758	80.009	19.995	103.790	20.105	0.483	0.006
17.000	115.770	80.009	19.993	103.791	20.102	0.735	0.006
17.500	115.760	80.008	19.994	103.791	20.105	0.547	0.015
18.000	115.768	80.009	19.992	103.791	20.105	0.491	0.000
18.500	115.773	80.009	19.993	103.794	20.103	0.646	0.006
19.000	115.781	80.008	19.993	103.799	20.100	0.891	0.013
19.500	115.815	80.008	19.994	103.803	20.100	0.858	0.027
20.000	115.799	80.010	19.993	103.809	20.100	0.880	0.030
20.500	115.837	80.009	19.994	103.816	20.099	0.933	0.020
21.000	115.843	80.008	19.994	103.824	20.100	0.903	0.033
21.500	115.834	80.009	19.992	103.828	20.097	1.100	0.020
22.000	115.847	80.010	19.994	103.838	20.097	1.062	0.000
22.500	115.887	80.009	19.994	103.846	20.093	1.341	0.029
23.000	115.887	80.009	19.994	103.853	20.096	1.189	0.046
23.500	115.934	80.008	19.993	103.855	20.093	1.353	0.044
24.000	115.941	80.009	19.993	103.859	20.094	1.276	0.051
24.500	115.932	80.008	19.994	103.859	20.092	1.474	0.026
25.000	115.978	80.010	19.994	103.860	20.092	1.478	0.017
25.500	116.049	80.010	19.993	103.867	20.091	1.514	0.077
26.000	116.079	80.011	19.994	103.878	20.091	1.510	0.109
26.500	116.072	80.010	19.994	103.887	20.090	1.577	0.062
27.000	116.122	80.011	19.993	103.895	20.090	1.605	0.034
27.500	116.176	80.010	19.993	103.900	20.091	1.500	0.073
28.000	116.175	80.010	19.994	103.900	20.090	1.589	0.078
28.500	116.216	80.010	19.994	103.902	20.086	1.882	0.047
29.000	116.252	80.009	19.993	103.908	20.089	1.657	0.059
29.500	116.305	80.010	19.995	103.913	20.088	1.736	0.083
30.000	116.344	80.010	19.995	103.917	20.089	1.625	0.091
30.500	116.414	80.010	19.994	103.923	20.087	1.778	0.101
31.000	116.408	80.010	19.995	103.928	20.087	1.835	0.087
31.500	116.497	80.010	19.994	103.929	20.085	1.940	0.073
32.000	116.587	80.009	19.995	103.931	20.081	2.223	0.131
32.500	116.609	80.009	19.995	103.937	20.082	2.190	0.145
33.001	116.694	80.008	19.994	103.939	20.080	2.321	0.109
33.501	116.707	80.009	19.993	103.939	20.083	2.122	0.102
34.000	116.777	80.009	19.994	103.939	20.083	2.109	0.091
34.500	116.854	80.009	19.994	103.938	20.085	1.915	0.115
35.000	116.902	80.009	19.994	103.938	20.080	2.309	0.136
35.500	116.993	80.009	19.994	103.938	20.084	1.996	0.132
36.000	117.042	80.009	19.994	103.939	20.081	2.262	0.139
36.500	117.107	80.008	19.995	103.939	20.077	2.509	0.127
37.000	117.209	80.009	19.994	103.940	20.076	2.597	0.141
37.500	117.267	80.009	19.994	103.941	20.080	2.305	0.163
38.000	117.353	80.009	19.995	103.940	20.078	2.454	0.152
38.500	117.408	80.008	19.996	103.941	20.077	2.541	0.143
39.000	117.500	80.009	19.995	103.941	20.080	2.341	0.144
39.500	117.605	80.008	19.995	103.941	20.078	2.458	0.172
40.000	117.716	80.008	19.995	103.941	20.077	2.555	0.207
40.500	117.792	80.008	19.995	103.943	20.076	2.569	0.201
41.000	117.833	80.009	19.995	103.945	20.075	2.652	0.152
41.500	117.949	80.008	19.995	103.945	20.076	2.584	0.137
42.000	118.068	80.009	19.995	103.945	20.076	2.628	0.196
42.500	118.109	80.009	19.995	103.947	20.080	2.293	0.198
43.000	118.203	80.008	19.995	103.947	20.078	2.425	0.147
43.500	118.302	80.008	19.995	103.947	20.073	2.794	0.163
44.000	118.454	80.009	19.995	103.949	20.076	2.598	0.222
44.500	118.563	80.008	19.993	103.951	20.076	2.572	0.256
45.000	118.603	80.010	19.994	103.955	20.074	2.731	0.205
45.500	118.710	80.010	19.994	103.960	20.077	2.546	0.148
46.000	118.807	80.010	19.994	103.964	20.074	2.719	0.175
46.501	118.885	80.009	19.994	103.970	20.076	2.574	0.189
47.001	118.991	80.008	19.995	103.975	20.076	2.572	0.180
47.500	119.141	80.009	19.995	103.976	20.076	2.564	0.220
48.000	119.236	80.010	19.993	103.975	20.074	2.772	0.250
48.500	119.344	80.010	19.993	103.976	20.072	2.859	0.224
49.000	119.453	80.008	19.992	103.972	20.074	2.768	0.210
49.501	119.591	80.011	19.994	103.971	20.075	2.631	0.233
50.001	119.697	80.009	19.993	103.971	20.074	2.725	0.245
50.501	119.808	80.011	19.994	103.972	20.072	2.915	0.230
51.000	119.962	80.010	19.995	103.965	20.077	2.501	0.241
51.500	120.034	80.011	19.994	103.962	20.076	2.580	0.246
52.000	120.144	80.010	19.994	103.957	20.077	2.539	0.204
52.500	120.247	80.010	19.994	103.949	20.076	2.620	0.197
53.000	120.381	80.012	19.993	103.942	20.080	2.331	0.225
53.500	120.494	80.011	19.994	103.943	20.078	2.416	0.242
54.000	120.649	80.010	19.992	103.942	20.076	2.604	0.257
54.500	120.765	80.010	19.994	103.942	20.079	2.358	0.269
55.000	120.884	80.010	19.993	103.941	20.078	2.439	0.253
55.500	121.025	80.010	19.992	103.942	20.074	2.739	0.248
56.001	121.193	80.012	19.993	103.942	20.076	2.610	0.285
56.501	121.303	80.011	19.993	103.944	20.078	2.481	0.294
57.000	121.422	80.009	19.993	103.945	20.075	2.632	0.253
57.500	121.579	80.011	19.993	103.945	20.076	2.586	0.253
58.000	121.720	80.010	19.994	103.944	20.078	2.424	0.287
58.500	121.824	80.010	19.993	103.943	20.077	2.503	0.271
59.000	121.975	80.010	19.993	103.941	20.079	2.412	0.250
59.500	122.070	80.010	19.992	103.941	20.078	2.435	0.250
60.000	122.228	80.010	19.993	103.941	20.076	2.596	0.250
60.500	122.346	80.009	19.992	103.941	20.077	2.552	0.265
61.000	122.530	80.010	19.993	103.940	20.074	2.717	0.289
61.500	122.634	80.010	19.993	103.940	20.079	2.370	0.295
62.000	122.794	80.009	19.993	103.941	20.079	2.370	0.276
62.500	122.877	80.010	19.994	103.941	20.075	2.646	0.253
63.000	123.071	80.009	19.994	103.947	20.075	2.695	0.260
63.500	123.186	80.010	19.993	103.950	20.076	2.563	0.294
64.000	123.359	80.010	19.994	103.951	20.075	2.636	0.299
64.500	123.500	80.010	19.994	103.951	20.074	2.721	0.301
65.000	123.686	80.010	19.993	103.953	20.075	2.632	0.320
65.500	123.798	80.010	19.993	103.949	20.075	2.674	0.313
66.001	123.946	80.011	19.993	103.949	20.075	2.660	0.279
66.501	124.098	80.009	19.994	103.953	20.073	2.790	0.280
67.001	124.250	80.010	19.993	103.961	20.075	2.634	0.302
67.500	124.412	80.009	19.993	103.966	20.073	2.791	0.309
68.000	124.521	80.010	19.994	103.965	20.073	2.803	0.293
68.500	124.681	80.010	19.995	103.964	20.075	2.676	0.270
69.000	124.825	80.010	19.992	103.959	20.077	2.504	0.286
69.501	124.989	80.008	19.994	103.951	20.078	2.458	0.306
70.001	125.132	80.010	19.993	103.945	20.074	2.708	0.308
70.500	125.301	80.010	19.993	103.945	20.076	2.605	0.310
71.000	125.435	80.009	19.994	103.946	20.078	2.482	0.308
71.500	125.604	80.009	19.994	103.948	20.075	2.658	0.303
72.000	125.782	80.010	19.994	103.952	20.073	2.805	0.325
72.500	125.964	80.011	19.993	103.958	20.074	2.712	0.354
73.000	126.090	80.011	19.993	103.962	20.071	2.933	0.334
73.500	126.227	80.010	19.993	103.962	20.073	2.793	0.285
74.000	126.393	80.011	19.993	103.962	20.074	2.737	0.283
74.500	126.572	80.009	19.991	103.962	20.076	2.604	0.324
75.000	126.713	80.010	19.994	103.962	20.075	2.680	0.333
75.500	126.882	80.011	19.995	103.961	20.073	2.787	0.315
76.000	127.030	80.012	19.994	103.962	20.074	2.755	0.313
76.500	127.204	80.011	19.994	103.961	20.076	2.615	0.319
77.000	127.387	80.011	19.995	103.960	20.073	2.785	0.339
77.500	127.565	80.010	19.993	103.955	20.074	2.759	0.360
78.000	127.742	80.010	19.992	103.957	20.075	2.674	0.358
78.500	127.881	80.011	19.993	103.961	20.073	2.801	0.335
79.001	128.060	80.012	19.992	103.965	20.071	2.971	0.316
79.501	128.236	80.012	19.993	103.970	20.072	2.882	0.336
80.000	128.375	80.011	19.992	103.976	20.073	2.827	0.336
80.500	128.569	80.010	19.994	103.977	20.072	2.910	0.324
81.000	128.793	80.011	19.992	103.979	20.070	3.025	0.375
81.500	128.932	80.013	19.993	103.978	20.072	2.849	0.391
82.000	129.115	80.011	19.993	103.978	20.070	3.031	0.342
82.500	129.287	80.011	19.993	103.978	20.069	3.063	0.338
83.001	129.454	80.010	19.993	103.977	20.070	2.997	0.347
83.501	129.584	80.011	19.993	103.972	20.070	3.059	0.318
84.000	129.753	80.010	19.993	103.968	20.070	3.041	0.298
84.500	129.963	80.010	19.993	103.966	20.070	3.037	0.339
85.000	130.128	80.012	19.992	103.965	20.068	3.168	0.377
85.500	130.327	80.013	19.992	103.966	20.071	2.952	0.370
86.000	130.450	80.012	19.993	103.970	20.072	2.914	0.343
86.500	130.693	80.011	19.993	103.976	20.067	3.207	0.344
87.000	130.860	80.011	19.992	103.979	20.070	3.037	0.388
87.500	131.017	80.010	19.993	103.981	20.068	3.144	0.367
88.000	131.193	80.009	19.993	103.980	20.069	3.067	0.329
88.500	131.402	80.009	19.993	103.978	20.073	2.823	0.359
89.000	131.560	80.008	19.993	103.975	20.074	2.765	0.375
89.500	131.768	80.007	19.992	103.974	20.068	3.199	0.367
90.000	131.960	80.008	19.994	103.973	20.071	2.961	0.383
90.500	132.121	80.010	19.993	103.975	20.070	3.029	0.376
91.000	132.365	80.008	19.993	103.978	20.074	2.708	0.379
91.500	132.535	80.009	19.992	103.981	20.071	2.985	0.410
92.000	132.714	80.009	19.995	103.981	20.071	2.966	0.381
92.500	132.873	80.010	19.992	103.984	20.069	3.092	0.343
93.001	133.039	80.008	19.994	103.983	20.071	2.926	0.331
93.501	133.227	80.009	19.994	103.983	20.072	2.902	0.340
94.001	133.443	80.009	19.994	103.982	20.074	2.743	0.379
94.501	133.630	80.009	19.994	103.981	20.072	2.898	0.403
95.001	133.805	80.009	19.994	103.979	20.073	2.795	0.383
95.501	134.008	80.010	19.994	103.979	20.074	2.706	0.370
96.000	134.226	80.010	19.993	103.979	20.074	2.769	0.400
96.500	134.412	80.008	19.994	103.979	20.070	3.055	0.412
97.000	134.635	80.009	19.993	103.979	20.072	2.880	0.406
97.500	134.800	80.009	19.994	103.979	20.077	2.553	0.398
98.000	134.984	80.009	19.993	103.979	20.075	2.678	0.369
98.500	135.173	80.009	19.993	103.979	20.074	2.740	0.362
99.000	135.389	80.010	19.994	103.978	20.074	2.710	0.389
99.500	135.600	80.009	19.993	103.978	20.078	2.474	0.416
100.000	135.796	80.008	19.994	103.978	20.074	2.752	0.417
100.500	135.990	80.007	19.995	103.978	20.074	2.714	0.398
101.000	136.181	80.009	19.992	103.978	20.073	2.833	0.387
101.500	136.404	80.008	19.993	103.981	20.075	2.668	0.399
102.000	136.555	80.009	19.994	103.982	20.072	2.890	0.394
102.500	136.815	80.008	19.994	103.982	20.072	2.859	0.393
103.000	137.014	80.009	19.994	103.982	20.071	2.938	0.435
103.500	137.215	80.007	19.994	103.982	20.071	2.922	0.429
104.000	137.436	80.009	19.994	103.981	20.072	2.869	0.411
104.500	137.682	80.009	19.993	103.979	20.072	2.900	0.445
105.000	137.859	80.010	19.994	103.979	20.069	3.126	0.445
105.500	138.084	80.008	19.994	103.979	20.072	2.896	0.412
106.000	138.291	80.008	19.994	103.979	20.073	2.777	0.417
106.501	138.505	80.008	19.995	103.979	20.073	2.835	0.427
107.001	138.707	80.007	19.995	103.979	20.074	2.757	0.419
107.500	138.934	80.010	19.993	103.979	20.072	2.847	0.423
108.000	139.096	80.010	19.993	103.979	20.075	2.648	0.409
108.500	139.330	80.008	19.994	103.979	20.074	2.724	0.392
109.000	139.544	80.010	19.993	103.980	20.073	2.819	0.422
109.500	139.794	80.009	19.997	103.981	20.075	2.668	0.456
110.000	140.006	80.008	19.996	103.985	20.072	2.890	0.463
110.501	140.201	80.009	19.997	103.986	20.071	2.918	0.435
111.001	140.403	80.009	19.995	103.986	20.072	2.849	0.402
111.500	140.636	80.009	19.993	103.986	20.075	2.645	0.415
112.000	140.869	80.009	19.994	103.985	20.071	2.938	0.451
112.500	141.085	80.009	19.994	103.986	20.071	2.938	0.458
113.001	141.300	80.010	19.993	103.991	20.074	2.765	0.440
113.501	141.521	80.010	19.994	103.990	20.070	3.031	0.433
114.000	141.728	80.008	19.993	103.991	20.070	3.021	0.432
114.500	141.982	80.009	19.993	103.991	20.073	2.807	0.445
115.000	142.182	80.009	19.994	103.985	20.068	3.199	0.457
115.500	142.386	80.009	19.993	103.979	20.068	3.190	0.429
116.000	142.615	80.009	19.993	103.979	20.068	3.190	0.419
116.500	142.849	80.008	19.994	103.978	20.068	3.138	0.448
117.000	143.080	80.008	19.995	103.978	20.066	3.322	0.464
117.500	143.279	80.008	19.994	103.979	20.068	3.204	0.448
118.000	143.492	80.008	19.994	103.980	20.064	3.483	0.421
118.500	143.754	80.007	19.994	103.980	20.067	3.255	0.443
119.000	143.982	80.008	19.994	103.980	20.065	3.348	0.482
119.500	144.195	80.008	19.994	103.981	20.066	3.295	0.465
120.000	144.453	80.008	19.993	103.984	20.067	3.249	0.456
120.500	144.660	80.008	19.993	103.985	20.065	3.418	0.468
121.000	144.904	80.008	19.995	103.985	20.068	3.198	0.458
121.500	145.104	80.008	19.994	103.985	20.064	3.420	0.447
122.000	145.354	80.009	19.993	103.985	20.064	3.467	0.446
122.500	145.618	80.008	19.993	103.987	20.067	3.237	0.482
123.001	145.809	80.008	19.994	103.986	20.067	3.263	0.484
123.501	146.011	80.009	19.993	103.986	20.068	3.158	0.424
124.000	146.258	80.007	19.994	103.986	20.068	3.188	0.421
124.500	146.495	80.007	19.993	103.986	20.066	3.295	0.467
125.000	146.725	80.008	19.994	103.981	20.068	3.142	0.476
125.500	146.970	80.009	19.993	103.981	20.066	3.340	0.471
126.000	147.226	80.008	19.994	103.981	20.067	3.217	0.488
126.500	147.453	80.008	19.994	103.982	20.064	3.447	0.492
127.001	147.671	80.006	19.996	103.981	20.065	3.418	0.464
127.501	147.876	80.006	19.995	103.982	20.060	3.758	0.434
128.001	148.128	80.007	19.994	103.984	20.066	3.301	0.439
128.500	148.339	80.009	19.995	103.984	20.069	3.088	0.460
129.000	148.582	80.009	19.994	103.985	20.067	3.259	0.459
129.500	148.802	80.008	19.995	103.986	20.066	3.283	0.459
130.000	149.012	80.008	19.994	103.985	20.065	3.382	0.446
130.500	149.261	80.008	19.995	103.983	20.067	3.257	0.444
131.000	149.514	80.009	19.994	103.985	20.064	3.467	0.481
131.501	149.740	80.008	19.994	103.984	20.068	3.194	0.491
132.001	149.975	80.009	19.994	103.983	20.066	3.279	0.470
132.500	150.209	80.009	19.994	103.983	20.067	3.263	0.465
133.001	150.447	80.008	19.995	103.983	20.069	3.079	0.470
133.501	150.686	80.009	19.994	103.981	20.064	3.475	0.474
134.000	150.938	80.010	19.994	103.981	20.069	3.081	0.484
134.500	151.173	80.010	19.995	103.980	20.069	3.102	0.489
135.000	151.411	80.008	19.995	103.980	20.070	3.031	0.479
135.500	151.647	80.009	19.994	103.981	20.064	3.443	0.473
136.000	151.909	80.010	19.995	103.982	20.065	3.380	0.486
136.500	152.162	80.010	19.994	103.983	20.066	3.332	0.507
137.000	152.389	80.010	19.994	103.983	20.061	3.640	0.498
137.500	152.601	80.010	19.993	103.984	20.063	3.528	0.459
138.001	152.851	80.010	19.994	103.983	20.065	3.372	0.451
138.501	153.086	80.010	19.994	103.982	20.065	3.384	0.474
139.000	153.348	80.009	19.995	103.982	20.065	3.352	0.491
139.500	153.590	80.009	19.994	103.983	20.065	3.358	0.500
140.000	153.790	80.010	19.995	103.984	20.061	3.659	0.472
140.500	154.021	80.010	19.995	103.984	20.064	3.471	0.437
141.000	154.276	80.008	19.994	103.984	20.062	3.620	0.459
141.501	154.492	80.008	19.994	103.983	20.062	3.596	0.478
142.001	154.741	80.010	19.994	103.983	20.061	3.661	0.467
142.500	155.030	80.012	19.993	103.982	20.063	3.546	0.501
143.000	155.268	80.011	19.993	103.982	20.060	3.727	0.533
143.500	155.525	80.010	19.995	103.983	20.059	3.826	0.511
144.000	155.736	80.008	19.995	103.983	20.060	3.752	0.481
144.500	156.003	80.010	19.994	103.983	20.060	3.731	0.473
145.000	156.245	80.010	19.993	103.983	20.064	3.423	0.494
145.500	156.525	80.009	19.993	103.984	20.063	3.505	0.515
146.000	156.784	80.010	19.993	103.983	20.062	3.594	0.530
146.501	157.029	80.009	19.993	103.982	20.060	3.712	0.522
147.001	157.274	80.010	19.994	103.983	20.063	3.506	0.497
147.500	157.507	80.009	19.993	103.983	20.065	3.395	0.484
148.001	157.746	80.010	19.993	103.981	20.065	3.397	0.475
148.501	158.012	80.011	19.993	103.980	20.067	3.266	0.488
149.001	158.264	80.010	19.993	103.980	20.067	3.227	0.511
149.500	158.495	80.009	19.993	103.980	20.069	3.126	0.500
150.000	158.729	80.009	19.993	103.980	20.069	3.108	0.474
150.501	158.943	80.008	19.994	103.981	20.067	3.240	0.457
151.001	159.211	80.010	19.994	103.982	20.068	3.143	0.465
151.500	159.481	80.010	19.993	103.982	20.067	3.231	0.510
152.000	159.740	80.009	19.994	103.981	20.069	3.110	0.533
152.500	160.003	80.010	19.994	103.980	20.066	3.298	0.525
153.001	160.213	80.010	19.994	103.979	20.067	3.233	0.497
153.501	160.486	80.010	19.993	103.979	20.067	3.225	0.478
154.001	160.728	80.009	19.994	103.978	20.068	3.195	0.500
154.501	160.968	80.010	19.993	103.979	20.065	3.385	0.499
155.000	161.252	80.010	19.992	103.977	20.063	3.512	0.503
155.501	161.505	80.011	19.993	103.977	20.065	3.397	0.530
156.001	161.762	80.011	19.993	103.976	20.064	3.443	0.523
156.500	161.952	80.011	19.993	103.975	20.066	3.344	0.479
157.000	162.191	80.011	19.994	103.970	20.066	3.276	0.438
157.500	162.460	80.012	19.993	103.970	20.064	3.478	0.468
158.000	162.701	80.011	19.992	103.968	20.063	3.553	0.509
158.500	162.982	80.011	19.993	103.967	20.065	3.367	0.517
159.000	163.262	80.011	19.993	103.966	20.064	3.441	0.542
159.500	163.524	80.010	19.994	103.969	20.065	3.381	0.551
160.000	163.757	80.013	19.993	103.967	20.063	3.540	0.518
160.500	164.007	80.011	19.993	103.967	20.064	3.431	0.489
161.000	164.272	80.013	19.993	103.963	20.068	3.156	0.499
161.500	164.565	80.011	19.993	103.962	20.066	3.281	0.536
162.000	164.788	80.011	19.993	103.964	20.066	3.302	0.537
162.500	165.112	80.011	19.993	103.968	20.064	3.431	0.531
163.000	165.384	80.012	19.993	103.970	20.064	3.429	0.572
163.500	165.607	80.013	19.994	103.974	20.065	3.349	0.546
164.000	165.868	80.012	19.994	103.973	20.064	3.420	0.490
164.501	166.123	80.013	19.995	103.971	20.065	3.363	0.500
165.001	166.378	80.011	19.996	103.969	20.067	3.224	0.513
165.500	166.609	80.013	19.994	103.964	20.066	3.285	0.498
166.001	166.903	80.012	19.992	103.965	20.069	3.101	0.505
166.501	167.128	80.012	19.992	103.967	20.068	3.179	0.522
167.001	167.353	80.011	19.992	103.966	20.066	3.319	0.485
167.501	167.645	80.010	19.995	103.962	20.068	3.190	0.484
168.001	167.895	80.011	19.993	103.963	20.069	3.107	0.529
168.500	168.145	80.010	19.995	103.959	20.071	2.982	0.521
169.000	168.381	80.010	19.992	103.958	20.070	3.022	0.493
169.501	168.652	80.010	19.994	103.961	20.071	2.919	0.497
170.001	168.924	80.008	19.996	103.967	20.071	2.945	0.525
170.500	169.180	80.009	19.994	103.971	20.070	3.044	0.535
171.000	169.480	80.009	19.993	103.975	20.074	2.733	0.542
171.500	169.694	80.009	19.994	103.977	20.066	3.291	0.535
172.000	169.939	80.010	19.995	103.978	20.068	3.143	0.487
172.501	170.171	80.010	19.994	103.975	20.069	3.103	0.468
173.001	170.450	80.010	19.993	103.975	20.066	3.339	0.494
173.501	170.729	80.009	19.993	103.970	20.069	3.111	0.535
174.001	170.964	80.010	19.994	103.963	20.069	3.089	0.536
174.500	171.194	80.009	19.993	103.956	20.070	3.042	0.490
175.000	171.458	80.011	19.993	103.951	20.076	2.582	0.479
175.500	171.751	80.011	19.993	103.944	20.073	2.790	0.526
176.000	172.007	80.010	19.993	103.942	20.070	2.988	0.553
176.500	172.231	80.010	19.994	103.943	20.070	2.992	0.514
177.000	172.528	80.010	19.995	103.944	20.072	2.859	0.500
177.500	172.792	80.009	19.994	103.947	20.071	2.927	0.541
178.000	173.026	80.010	19.993	103.947	20.071	2.929	0.530
178.500	173.284	80.010	19.994	103.946	20.072	2.913	0.495
179.000	173.542	80.010	19.994	103.946	20.071	2.923	0.504
179.500	173.799	80.009	19.993	103.944	20.071	2.972	0.515
180.000	174.080	80.009	19.993	103.941	20.072	2.859	0.527
180.500	174.282	80.009	19.994	103.940	20.072	2.907	0.511
181.001	174.559	80.010	19.994	103.940	20.071	2.980	0.481
181.501	174.820	80.009	19.994	103.940	20.074	2.738	0.508
182.000	175.078	80.009	19.994	103.940	20.074	2.709	0.528
182.500	175.345	80.009	19.993	103.940	20.073	2.798	0.522
183.000	175.592	80.010	19.993	103.940	20.074	2.740	0.520
183.501	175.823	80.010	19.994	103.939	20.074	2.758	0.496
184.001	176.042	80.010	19.993	103.940	20.071	2.972	0.464
184.501	176.308	80.011	19.993	103.940	20.074	2.772	0.468
185.000	176.601	80.009	19.993	103.940	20.073	2.778	0.522
185.500	176.821	80.009	19.993	103.940	20.074	2.746	0.536
186.000	177.063	80.010	19.993	103.941	20.073	2.792	0.487
186.500	177.340	80.010	19.993	103.940	20.074	2.731	0.490
187.000	177.628	80.009	19.994	103.941	20.075	2.663	0.542
187.500	177.858	80.009	19.995	103.941	20.072	2.850	0.541
188.000	178.126	80.009	19.994	103.942	20.075	2.643	0.508
188.500	178.367	80.010	19.992	103.942	20.076	2.620	0.504
189.000	178.637	80.010	19.992	103.940	20.074	2.711	0.510
189.500	178.904	80.010	19.994	103.940	20.077	2.546	0.524
190.000	179.154	80.010	19.993	103.940	20.075	2.651	0.527
190.500	179.381	80.009	19.994	103.941	20.075	2.633	0.498
191.000	179.646	80.010	19.993	103.941	20.075	2.665	0.485
191.500	179.857	80.010	19.994	103.942	20.072	2.905	0.484
192.000	180.157	80.009	19.993	103.941	20.076	2.560	0.494
192.500	180.405	80.009	19.993	103.940	20.074	2.764	0.529
193.000	180.654	80.008	19.994	103.938	20.070	3.010	0.522
193.500	180.897	80.009	19.993	103.938	20.072	2.912	0.494
194.000	181.170	80.009	19.993	103.938	20.070	3.000	0.504
194.500	181.433	80.009	19.993	103.939	20.072	2.897	0.527
195.000	181.674	80.009	19.995	103.939	20.069	3.071	0.520
195.500	181.938	80.011	19.993	103.939	20.069	3.129	0.504
196.000	182.192	80.008	19.994	103.938	20.072	2.861	0.512
196.500	182.473	80.009	19.995	103.938	20.071	2.927	0.526
197.000	182.703	80.008	19.995	103.939	20.073	2.778	0.523
197.501	182.927	80.009	19.994	103.940	20.072	2.897	0.482
198.001	183.173	80.007	19.994	103.941	20.069	3.125	0.462
198.500	183.404	80.009	19.994	103.943	20.071	2.927	0.473
199.001	183.692	80.008	19.993	103.941	20.076	2.622	0.497
199.501	183.963	80.008	19.994	103.938	20.071	2.936	0.539
200.000	184.192	80.008	19.994	103.938	20.071	2.923	0.530
200.500	184.405	80.009	19.993	103.938	20.078	2.467	0.471
201.000	184.713	80.008	19.994	103.938	20.075	2.641	0.481
201.500	184.965	80.009	19.994	103.940	20.075	2.629	0.540
202.000	185.197	80.008	19.995	103.940	20.075	2.673	0.522
202.500	185.454	80.008	19.994	103.939	20.077	2.534	0.486
203.000	185.717	80.009	19.995	103.937	20.076	2.570	0.505
203.500	186.002	80.008	19.995	103.932	20.076	2.618	0.535
204.000	186.231	80.009	19.994	103.926	20.077	2.522	0.531
204.500	186.504	80.008	19.996	103.922	20.081	2.243	0.508
205.000	186.746	80.008	19.994	103.922	20.082	2.187	0.508
205.500	186.988	80.007	19.994	103.923	20.083	2.108	0.499
206.000	187.245	80.008	19.994	103.928	20.082	2.179	0.492
206.500	187.469	80.009	19.994	103.934	20.082	2.173	0.490
207.000	187.701	80.007	19.993	103.940	20.083	2.100	0.469
207.500	187.993	80.009	19.994	103.941	20.080	2.324	0.490
208.001	188.231	80.009	19.993	103.941	20.080	2.306	0.527
208.501	188.501	80.008	19.994	103.942	20.083	2.104	0.519
209.000	188.729	80.008	19.994	103.942	20.083	2.098	0.503
209.500	188.934	80.009	19.994	103.941	20.081	2.209	0.466
210.001	189.183	80.009	19.995	103.939	20.082	2.128	0.444
210.501	189.412	80.010	19.994	103.934	20.081	2.217	0.466
211.001	189.707	80.009	19.994	103.933	20.081	2.253	0.501
211.501	189.968	80.009	19.994	103.932	20.079	2.375	0.540
212.001	190.203	80.009	19.994	103.934	20.079	2.409	0.526
212.501	190.466	80.010	19.993	103.937	20.083	2.092	0.497
213.001	190.699	80.010	19.994	103.941	20.083	2.114	0.497
213.501	190.980	80.010	19.994	103.943	20.085	1.955	0.505
214.001	191.217	80.009	19.994	103.943	20.082	2.158	0.516
214.500	191.481	80.011	19.994	103.936	20.081	2.213	0.509
215.000	191.705	80.010	19.994	103.931	20.081	2.239	0.495
215.501	191.990	80.011	19.994	103.927	20.080	2.288	0.499
216.001	192.208	80.011	19.994	103.919	20.081	2.237	0.506
216.500	192.486	80.010	19.994	103.916	20.079	2.373	0.500
217.001	192.745	80.011	19.994	103.916	20.079	2.377	0.517
217.501	192.984	80.010	19.995	103.917	20.080	2.272	0.518
218.000	193.243	80.011	19.993	103.917	20.080	2.337	0.498
218.500	193.511	80.011	19.995	103.918	20.081	2.256	0.512
219.000	193.733	80.011	19.994	103.916	20.081	2.227	0.508
219.500	194.010	80.011	19.995	103.915	20.080	2.330	0.494
220.000	194.246	80.011	19.994	103.912	20.080	2.326	0.506
220.500	194.480	80.011	19.995	103.912	20.079	2.411	0.491
221.001	194.747	80.011	19.995	103.918	20.077	2.549	0.486
221.501	194.976	80.012	19.994	103.921	20.077	2.545	0.499
222.000	195.229	80.011	19.995	103.920	20.078	2.427	0.489
222.500	195.502	80.010	19.994	103.923	20.077	2.514	0.504
223.000	195.711	80.010	19.995	103.919	20.079	2.375	0.504
223.500	195.945	80.009	19.995	103.915	20.079	2.391	0.463
224.000	196.231	80.010	19.993	103.914	20.076	2.559	0.482
224.501	196.435	80.011	19.995	103.919	20.078	2.480	0.504
225.001	196.675	80.011	19.994	103.924	20.080	2.282	0.467
225.501	196.927	80.010	19.994	103.931	20.080	2.326	0.468
226.000	197.173	80.011	19.995	103.929	20.080	2.326	0.496
226.500	197.395	80.011	19.995	103.923	20.080	2.272	0.483
227.000	197.687	80.011	19.995	103.917	20.079	2.409	0.491
227.500	197.905	80.010	19.995	103.911	20.079	2.401	0.512
228.000	198.177	80.009	19.995	103.903	20.080	2.316	0.500
228.500	198.418	80.009	19.994	103.903	20.083	2.060	0.501
229.000	198.653	80.009	19.994	103.907	20.080	2.272	0.494
229.500	198.908	80.009	19.996	103.914	20.079	2.373	0.483
230.000	199.141	80.010	19.996	103.914	20.078	2.449	0.489
230.500	199.391	80.009	19.997	103.914	20.078	2.467	0.486
231.000	199.562	80.008	19.995	103.915	20.074	2.706	0.452
231.500	199.839	80.009	19.995	103.912	20.077	2.538	0.434
232.000	200.107	80.011	19.995	103.906	20.078	2.447	0.496
232.500	200.352	80.010	19.995	103.904	20.077	2.530	0.529
233.000	200.612	80.010	19.995	103.903	20.078	2.476	0.510
233.500	200.824	80.009	19.995	103.902	20.078	2.431	0.488
234.000	201.053	80.010	19.995	103.900	20.078	2.470	0.456
234.500	201.287	80.009	19.995	103.899	20.074	2.704	0.452
235.000	201.521	80.009	19.995	103.900	20.079	2.401	0.466
235.500	201.764	80.010	19.995	103.899	20.076	2.625	0.473
236.000	201.998	80.010	19.995	103.899	20.075	2.690	0.477
236.500	202.255	80.010	19.994	103.906	20.076	2.591	0.484
237.000	202.481	80.011	19.995	103.908	20.074	2.728	0.486
237.501	202.765	80.011	19.995	103.909	20.073	2.803	0.496
238.001	202.998	80.011	19.994	103.912	20.075	2.692	0.514
238.501	203.240	80.011	19.994	103.913	20.077	2.531	0.496
239.001	203.502	80.010	19.994	103.907	20.078	2.470	0.490
239.500	203.746	80.011	19.994	103.908	20.077	2.492	0.505
240.000	203.977	80.011	19.995	103.912	20.074	2.734	0.490
240.500	204.213	80.013	19.995	103.916	20.083	2.126	0.471
241.000	204.455	80.012	19.994	103.922	20.079	2.379	0.473
241.500	204.693	80.012	19.993	103.927	20.083	2.122	0.479
242.000	204.907	80.012	19.993	103.925	20.079	2.387	0.466
242.500	205.211	80.012	19.994	103.920	20.080	2.336	0.484
243.001	205.409	80.013	19.993	103.913	20.079	2.407	0.510
243.501	205.669	80.012	19.993	103.908	20.075	2.647	0.480
244.000	205.910	80.013	19.993	103.906	20.076	2.557	0.480
244.500	206.138	80.012	19.992	103.907	20.077	2.510	0.485
245.000	206.382	80.012	19.993	103.907	20.076	2.625	0.470
245.500	206.641	80.012	19.994	103.907	20.077	2.508	0.487
246.000	206.849	80.012	19.994	103.907	20.078	2.478	0.485
246.500	207.136	80.012	19.994	103.905	20.083	2.116	0.481
247.000	207.372	80.013	19.994	103.905	20.080	2.324	0.509
247.501	207.614	80.012	19.993	103.904	20.078	2.437	0.500
248.001	207.855	80.011	19.994	103.904	20.078	2.472	0.480
248.501	208.110	80.011	19.994	103.902	20.075	2.657	0.490
249.001	208.355	80.011	19.994	103.901	20.079	2.409	0.498
249.500	208.568	80.012	19.993	103.902	20.080	2.292	0.479
250.000	208.834	80.009	19.992	103.903	20.078	2.468	0.468
250.500	209.033	80.010	19.994	103.907	20.077	2.544	0.472
251.000	209.273	80.009	19.993	103.908	20.073	2.781	0.452
251.500	209.539	80.010	19.994	103.909	20.077	2.504	0.473
252.000	209.814	80.009	19.993	103.915	20.077	2.540	0.523
252.500	210.026	80.008	19.993	103.919	20.079	2.405	0.514
253.000	210.257	80.009	19.994	103.920	20.079	2.405	0.465
253.500	210.557	80.009	19.993	103.920	20.079	2.373	0.486
254.000	210.777	80.009	19.995	103.919	20.079	2.347	0.525
254.501	211.028	80.009	19.994	103.914	20.078	2.415	0.496
255.001	211.260	80.009	19.994	103.909	20.078	2.435	0.478
255.500	211.527	80.009	19.994	103.906	20.076	2.605	0.491
256.000	211.771	80.008	19.994	103.907	20.079	2.346	0.505
256.500	211.983	80.009	19.993	103.909	20.076	2.589	0.483
257.000	212.208	80.009	19.993	103.910	20.080	2.312	0.447
257.500	212.431	80.008	19.994	103.911	20.081	2.260	0.442
258.000	212.708	80.010	19.993	103.914	20.082	2.165	0.474
258.500	212.964	80.009	19.993	103.913	20.078	2.421	0.516
259.000	213.197	80.008	19.993	103.912	20.079	2.351	0.511
259.500	213.451	80.008	19.994	103.914	20.082	2.189	0.488
260.000	213.679	80.009	19.994	103.914	20.080	2.330	0.485
260.500	213.974	80.008	19.994	103.914	20.078	2.466	0.502
261.000	214.190	80.009	19.994	103.913	20.080	2.290	0.517
261.500	214.424	80.009	19.993	103.913	20.079	2.357	0.481
262.000	214.663	80.010	19.993	103.910	20.081	2.231	0.462
262.500	214.889	80.008	19.994	103.908	20.078	2.419	0.469
263.000	215.168	80.009	19.993	103.907	20.078	2.415	0.484
263.500	215.428	80.008	19.993	103.905	20.079	2.363	0.522
264.000	215.634	80.008	19.995	103.905	20.081	2.244	0.502
264.500	215.861	80.010	19.993	103.908	20.080	2.316	0.449
265.000	216.113	80.009	19.994	103.909	20.082	2.169	0.456
265.500	216.379	80.010	19.995	103.910	20.079	2.393	0.499
266.000	216.615	80.009	19.994	103.912	20.082	2.163	0.510
266.500	216.873	80.008	19.994	103.915	20.082	2.185	0.498
267.000	217.101	80.009	19.995	103.916	20.081	2.227	0.490
267.500	217.374	80.010	19.994	103.915	20.084	2.032	0.494
268.000	217.598	80.009	19.994	103.912	20.083	2.060	0.499
268.500	217.881	80.009	19.994	103.911	20.081	2.232	0.501
269.000	218.114	80.009	19.994	103.910	20.085	1.929	0.511
269.500	218.328	80.008	19.993	103.908	20.085	1.933	0.482
270.000	218.624	80.009	19.994	103.909	20.079	2.349	0.479
270.500	218.841	80.010	19.993	103.909	20.081	2.234	0.511
271.000	219.092	80.009	19.993	103.909	20.085	1.969	0.490
271.500	219.381	80.010	19.993	103.908	20.082	2.159	0.504
272.000	219.576	80.010	19.993	103.910	20.084	2.044	0.512
272.500	219.845	80.009	19.993	103.909	20.086	1.870	0.474
273.000	220.081	80.009	19.994	103.909	20.085	1.937	0.485
273.500	220.364	80.010	19.992	103.910	20.083	2.082	0.511
274.000	220.545	80.009	19.994	103.909	20.081	2.256	0.491
274.500	220.823	80.009	19.994	103.907	20.080	2.290	0.462
275.000	221.083	80.008	19.993	103.906	20.081	2.236	0.499
275.500	221.313	80.008	19.993	103.906	20.081	2.199	0.514
276.000	221.575	80.008	19.993	103.905	20.078	2.464	0.491
276.500	221.810	80.009	19.993	103.905	20.080	2.282	0.494
277.000	222.070	80.008	19.994	103.905	20.080	2.306	0.496
277.500	222.291	80.008	19.993	103.906	20.081	2.199	0.488
278.000	222.564	80.009	19.992	103.906	20.081	2.218	0.487
278.500	222.786	80.010	19.993	103.906	20.082	2.137	0.494
279.000	223.045	80.008	19.992	103.908	20.083	2.064	0.488
279.500	223.335	80.009	19.995	103.907	20.085	1.941	0.515
280.000	223.598	80.009	19.995	103.907	20.081	2.234	0.551
280.500	223.797	80.009	19.994	103.907	20.081	2.211	0.507
281.000	224.048	80.010	19.995	103.906	20.079	2.391	0.456
281.500	224.323	80.010	19.995	103.905	20.080	2.296	0.488
282.000	224.526	80.009	19.994	103.907	20.081	2.234	0.502
282.500	224.785	80.009	19.994	103.906	20.080	2.270	0.470
283.000	225.046	80.009	19.994	103.906	20.078	2.436	0.491
283.500	225.317	80.009	19.994	103.906	20.079	2.409	0.526
284.000	225.523	80.009	19.993	103.905	20.077	2.526	0.504
284.500	225.820	80.009	19.994	103.902	20.080	2.337	0.490
285.000	226.045	80.010	19.993	103.902	20.081	2.240	0.513
285.500	226.290	80.009	19.994	103.902	20.082	2.189	0.496
286.000	226.565	80.009	19.994	103.901	20.081	2.228	0.494
286.500	226.810	80.009	19.995	103.902	20.077	2.496	0.520
287.000	227.040	80.009	19.994	103.902	20.081	2.262	0.498
287.500	227.286	80.010	19.995	103.902	20.081	2.240	0.476
288.000	227.543	80.008	19.994	103.902	20.081	2.228	0.489
288.500	227.768	80.009	19.994	103.902	20.080	2.325	0.492
289.000	228.017	80.008	19.993	103.902	20.080	2.300	0.478
289.500	228.238	80.008	19.994	103.902	20.080	2.333	0.472
290.000	228.501	80.009	19.995	103.902	20.079	2.353	0.477
290.500	228.792	80.008	19.994	103.903	20.078	2.418	0.519
291.000	229.050	80.009	19.994	103.903	20.079	2.353	0.552
291.500	229.301	80.008	19.995	103.902	20.082	2.155	0.529
292.000	229.563	80.009	19.996	103.903	20.080	2.317	0.511
292.500	229.849	80.008	19.995	103.902	20.079	2.401	0.531
293.000	230.087	80.008	19.994	103.901	20.076	2.581	0.536
293.500	230.324	80.010	19.994	103.901	20.081	2.220	0.499
294.000	230.595	80.008	19.995	103.901	20.079	2.351	0.491
294.500	230.835	80.009	19.995	103.901	20.083	2.108	0.509
295.000	231.084	80.009	19.995	103.901	20.082	2.137	0.500
295.500	231.366	80.010	19.995	103.901	20.082	2.159	0.511
296.000	231.615	80.009	19.994	103.902	20.083	2.072	0.531
296.500	231.867	80.009	19.995	103.902	20.081	2.210	0.516
297.000	232.067	80.008	19.995	103.901	20.082	2.171	0.476
297.500	232.333	80.009	19.994	103.901	20.080	2.307	0.459
298.000	232.602	80.010	19.994	103.900	20.080	2.299	0.500
298.500	232.854	80.010	19.995	103.898	20.080	2.331	0.528
299.000	233.113	80.010	19.996	103.898	20.080	2.278	0.516
299.500	233.360	80.010	19.995	103.895	20.082	2.175	0.509
300.000	233.600	80.010	19.995	103.893	20.080	2.335	0.497
300.500	233.865	80.008	19.994	103.894	20.080	2.276	0.496
301.000	234.112	80.010	19.994	103.895	20.081	2.212	0.508
301.500	234.393	80.010	19.994	103.895	20.083	2.089	0.520
302.000	234.632	80.010	19.995	103.898	20.082	2.190	0.524
302.500	234.895	80.011	19.993	103.900	20.080	2.303	0.511
303.000	235.112	80.011	19.994	103.899	20.081	2.268	0.491
303.500	235.343	80.011	19.994	103.898	20.081	2.266	0.464
304.000	235.596	80.011	19.994	103.898	20.082	2.161	0.466
304.500	235.827	80.011	19.996	103.899	20.082	2.139	0.484
305.000	236.096	80.010	19.994	103.899	20.079	2.388	0.492
305.500	236.340	80.011	19.994	103.899	20.081	2.260	0.506
306.000	236.568	80.010	19.994	103.900	20.081	2.228	0.493
306.500	236.816	80.010	19.994	103.898	20.083	2.056	0.474
307.000	237.032	80.011	19.995	103.894	20.082	2.139	0.470
307.500	237.302	80.010	19.994	103.892	20.084	2.042	0.475
308.000	237.574	80.009	19.994	103.892	20.085	1.921	0.514
308.500	237.828	80.010	19.994	103.890	20.083	2.068	0.534
309.000	238.068	80.009	19.995	103.890	20.082	2.149	0.510
309.500	238.311	80.010	19.995	103.894	20.084	1.996	0.488
310.000	238.533	80.009	19.994	103.892	20.085	1.943	0.474
310.500	238.793	80.010	19.994	103.889	20.083	2.083	0.474
311.000	238.987	80.010	19.994	103.889	20.083	2.097	0.468
311.500	239.292	80.009	19.994	103.887	20.084	2.032	0.476
312.000	239.502	80.009	19.996	103.886	20.084	2.048	0.507
312.500	239.759	80.009	19.994	103.885	20.084	2.052	0.491
313.000	239.976	80.009	19.994	103.882	20.082	2.127	0.471
313.500	240.182	80.009	19.994	103.883	20.083	2.062	0.449
314.000	240.451	80.009	19.994	103.884	20.084	2.018	0.449
314.500	240.663	80.010	19.994	103.880	20.082	2.145	0.478
315.000	240.917	80.010	19.994	103.880	20.085	1.931	0.473
315.500	241.156	80.008	19.995	103.884	20.084	2.008	0.479
316.000	241.408	80.009	19.993	103.883	20.081	2.264	0.492
316.500	241.686	80.009	19.995	103.880	20.084	2.042	0.510
317.000	241.869	80.008	19.995	103.883	20.081	2.202	0.496
317.500	242.118	80.008	19.995	103.881	20.083	2.083	0.446
318.000	242.312	80.009	19.995	103.882	20.084	2.034	0.438
318.500	242.615	80.011	19.995	103.884	20.085	1.968	0.470
319.000	242.834	80.011	19.994	103.888	20.085	1.931	0.510
319.500	243.074	80.009	19.994	103.885	20.086	1.887	0.490
320.000	243.328	80.010	19.995	103.887	20.085	1.913	0.477
320.500	243.528	80.010	19.994	103.883	20.084	2.010	0.475
321.000	243.778	80.010	19.994	103.881	20.083	2.082	0.452
321.500	244.042	80.011	19.994	103.882	20.083	2.072	0.482
322.000	244.250	80.010	19.994	103.887	20.081	2.222	0.493
322.500	244.500	80.010	19.994	103.891	20.086	1.903	0.465
323.000	244.770	80.011	19.994	103.895	20.081	2.214	0.489
323.500	244.962	80.010	19.994	103.894	20.080	2.297	0.491
324.000	245.237	80.010	19.994	103.893	20.084	2.018	0.465
324.500	245.512	80.010	19.994	103.893	20.083	2.060	0.509
325.000	245.732	80.011	19.993	103.892	20.078	2.467	0.522
325.500	245.920	80.011	19.994	103.893	20.080	2.301	0.451
326.000	246.158	80.011	19.994	103.893	20.084	2.024	0.417
326.500	246.400	80.012	19.994	103.893	20.084	2.026	0.453
327.000	246.646	80.011	19.994	103.890	20.078	2.422	0.484
327.500	246.872	80.010	19.994	103.886	20.079	2.400	0.480
328.000	247.109	80.010	19.995	103.880	20.077	2.492	0.468
328.500	247.343	80.011	19.994	103.874	20.080	2.329	0.467
329.000	247.597	80.010	19.994	103.874	20.080	2.321	0.479
329.500	247.827	80.011	19.994	103.874	20.080	2.321	0.486
330.000	248.068	80.009	19.994	103.875	20.081	2.242	0.478
330.500	248.351	80.009	19.994	103.881	20.079	2.341	0.498
331.000	248.548	80.011	19.994	103.888	20.083	2.117	0.502
331.500	248.782	80.010	19.994	103.889	20.081	2.224	0.456
332.000	249.017	80.009	19.994	103.891	20.083	2.074	0.450
332.500	249.329	80.010	19.994	103.894	20.084	1.995	0.508
333.000	249.550	80.009	19.993	103.895	20.084	2.012	0.540
333.500	249.820	80.010	19.994	103.896	20.083	2.102	0.512
334.000	250.023	80.009	19.994	103.894	20.083	2.072	0.482
334.500	250.285	80.009	19.994	103.891	20.083	2.054	0.469
335.000	250.479	80.008	19.994	103.887	20.086	1.852	0.461
335.500	250.766	80.009	19.994	103.881	20.085	1.927	0.469
336.000	251.003	80.008	19.994	103.878	20.085	1.913	0.503
336.500	251.231	80.008	19.993	103.877	20.087	1.810	0.494
337.000	251.522	80.010	19.994	103.880	20.086	1.907	0.492
337.500	251.748	80.008	19.994	103.884	20.085	1.959	0.518
338.000	251.978	80.007	19.994	103.887	20.087	1.800	0.486
338.500	252.227	80.008	19.995	103.889	20.082	2.129	0.467
339.000	252.453	80.008	19.993	103.892	20.084	2.016	0.478
339.500	252.695	80.007	19.993	103.892	20.084	2.044	0.472
340.000	252.937	80.008	19.993	103.895	20.087	1.785	0.476
340.500	253.178	80.008	19.994	103.897	20.083	2.111	0.484
341.000	253.376	80.008	19.993	103.897	20.082	2.145	0.462
341.500	253.632	80.008	19.993	103.899	20.085	1.935	0.447
342.000	253.902	80.008	19.994	103.901	20.085	1.949	0.489
342.500	254.140	80.009	19.992	103.901	20.086	1.842	0.517
343.000	254.368	80.008	19.993	103.900	20.084	2.008	0.487
343.500	254.654	80.009	19.993	103.902	20.085	1.973	0.490
344.000	254.886	80.009	19.993	103.899	20.082	2.171	0.516
344.500	255.124	80.009	19.994	103.899	20.081	2.256	0.494
345.000	255.385	80.008	19.994	103.900	20.080	2.311	0.485
345.500	255.642	80.008	19.993	103.902	20.082	2.151	0.509
346.000	255.899	80.009	19.994	103.899	20.082	2.188	0.516
346.500	256.170	80.010	19.993	103.896	20.083	2.105	0.521
347.000	256.371	80.008	19.994	103.894	20.080	2.327	0.500
347.500	256.681	80.010	19.994	103.892	20.080	2.339	0.492
348.000	256.890	80.009	19.993	103.891	20.082	2.173	0.515
348.500	257.103	80.010	19.993	103.891	20.081	2.256	0.470
349.000	257.380	80.008	19.992	103.896	20.081	2.260	0.456
349.500	257.599	80.008	19.994	103.897	20.081	2.252	0.493
350.000	257.866	80.010	19.995	103.898	20.082	2.135	0.491
350.500	258.158	80.010	19.994	103.898	20.083	2.101	0.522
351.000	258.387	80.010	19.994	103.900	20.080	2.281	0.540
351.500	258.636	80.010	19.993	103.899	20.081	2.206	0.500
352.000	258.858	80.010	19.994	103.895	20.080	2.285	0.475
352.500	259.114	80.010	19.995	103.892	20.082	2.180	0.474
353.000	259.380	80.009	19.993	103.885	20.079	2.374	0.500
353.500	259.608	80.010	19.994	103.885	20.081	2.212	0.508
354.000	259.875	80.010	19.993	103.885	20.079	2.408	0.494
354.500	260.137	80.010	19.993	103.889	20.082	2.190	0.512
355.000	260.384	80.010	19.995	103.892	20.082	2.149	0.519
355.500	260.609	80.009	19.994	103.891	20.084	2.032	0.490
356.000	260.875	80.010	19.995	103.887	20.084	2.044	0.481
356.500	261.099	80.009	19.995	103.885	20.081	2.236	0.491
357.000	261.339	80.010	19.994	103.885	20.082	2.170	0.477
357.500	261.586	80.010	19.995	103.883	20.085	1.950	0.475
358.000	261.803	80.011	19.995	103.888	20.081	2.245	0.475
358.500	262.104	80.011	19.994	103.892	20.082	2.176	0.491
359.000	262.335	80.009	19.995	103.888	20.083	2.095	0.525
359.500	262.577	80.010	19.994	103.881	20.084	2.028	0.503
360.000	262.839	80.010	19.994	103.878	20.084	2.026	0.489
360.500	263.093	80.010	19.994	103.874	20.084	1.992	0.510
361.000	263.351	80.010	19.993	103.870	20.082	2.194	0.514
361.500	263.607	80.009	19.994	103.870	20.078	2.470	0.513
362.000	263.871	80.010	19.993	103.871	20.084	2.034	0.517
362.500	264.148	80.010	19.994	103.876	20.086	1.877	0.531
363.000	264.378	80.009	19.994	103.876	20.086	1.897	0.524
363.500	264.610	80.010	19.994	103.877	20.086	1.903	0.484
364.000	264.857	80.008	19.994	103.880	20.086	1.883	0.470
364.500	265.127	80.009	19.994	103.880	20.083	2.083	0.498
365.000	265.359	80.009	19.993	103.875	20.085	1.966	0.510
365.500	265.619	80.008	19.994	103.879	20.083	2.057	0.497
366.000	265.876	80.009	19.994	103.880	20.084	1.996	0.504
366.500	266.169	80.008	19.993	103.876	20.085	1.957	0.534
367.000	266.391	80.010	19.994	103.875	20.085	1.913	0.533
367.500	266.610	80.009	19.994	103.874	20.087	1.768	0.478
368.000	266.894	80.010	19.994	103.867	20.085	1.923	0.472
368.500	267.154	80.008	19.993	103.865	20.088	1.766	0.524
369.000	267.446	80.009	19.994	103.866	20.087	1.788	0.548
369.500	267.698	80.009	19.993	103.868	20.089	1.673	0.548
370.000	267.943	80.009	19.994	103.871	20.088	1.748	0.520
370.500	268.165	80.009	19.993	103.876	20.087	1.810	0.482
371.000	268.422	80.010	19.994	103.881	20.088	1.743	0.473
371.500	268.671	80.010	19.993	103.882	20.085	1.939	0.493
372.000	268.923	80.009	19.994	103.884	20.083	2.061	0.504
372.500	269.202	80.010	19.994	103.887	20.086	1.860	0.516
373.001	269.460	80.009	19.993	103.883	20.086	1.866	0.534
373.500	269.705	80.010	19.994	103.878	20.085	1.970	0.520
374.000	269.993	80.007	19.993	103.875	20.086	1.870	0.518
374.501	270.256	80.010	19.994	103.871	20.084	2.032	0.542
375.000	270.532	80.010	19.993	103.867	20.088	1.759	0.545
375.500	270.752	80.010	19.993	103.868	20.082	2.182	0.517
376.000	271.028	80.009	19.995	103.871	20.088	1.749	0.496
376.500	271.334	80.011	19.993	103.874	20.088	1.739	0.539
377.000	271.582	80.010	19.994	103.875	20.087	1.836	0.568
377.500	271.873	80.010	19.994	103.875	20.091	1.545	0.547
378.000	272.104	80.010	19.993	103.872	20.087	1.784	0.530
378.500	272.347	80.010	19.994	103.872	20.086	1.893	0.498
379.000	272.592	80.011	19.994	103.869	20.086	1.879	0.481
379.500	272.871	80.011	19.993	103.868	20.088	1.763	0.506
380.000	273.134	80.010	19.994	103.867	20.088	1.719	0.533
380.500	273.378	80.010	19.994	103.868	20.087	1.838	0.525
381.000	273.624	80.011	19.994	103.868	20.090	1.606	0.499
381.500	273.889	80.010	19.993	103.869	20.088	1.733	0.501
382.000	274.154	80.011	19.993	103.872	20.088	1.755	0.520
382.500	274.400	80.011	19.993	103.872	20.083	2.075	0.520
383.000	274.674	80.010	19.994	103.873	20.082	2.127	0.515
383.500	274.947	80.011	19.994	103.876	20.083	2.087	0.533
384.000	275.168	80.010	19.993	103.879	20.084	2.010	0.520
384.500	275.451	80.012	19.993	103.878	20.086	1.844	0.499
385.000	275.749	80.011	19.993	103.884	20.085	1.968	0.542
385.500	275.953	80.011	19.994	103.887	20.087	1.784	0.541
386.000	276.197	80.011	19.994	103.884	20.087	1.780	0.475
386.500	276.470	80.011	19.993	103.881	20.085	1.927	0.483
387.000	276.704	80.011	19.994	103.882	20.085	1.925	0.512
387.500	276.965	80.010	19.994	103.878	20.084	1.998	0.501
388.000	277.225	80.010	19.994	103.875	20.088	1.751	0.508
388.500	277.464	80.008	19.993	103.874	20.087	1.798	0.510
389.000	277.762	80.010	19.993	103.874	20.085	1.911	0.518
389.501	277.956	80.011	19.994	103.874	20.086	1.907	0.515
390.000	278.242	80.009	19.994	103.879	20.083	2.125	0.486
390.500	278.486	80.009	19.993	103.883	20.084	2.026	0.505
391.000	278.800	80.010	19.994	103.885	20.084	2.020	0.544
391.500	279.079	80.009	19.996	103.883	20.087	1.816	0.575
392.000	279.316	80.010	19.994	103.883	20.088	1.739	0.555
392.500	279.579	80.009	19.995	103.883	20.085	1.945	0.508
393.000	279.831	80.010	19.995	103.879	20.085	1.913	0.507
393.500	280.075	80.008	19.995	103.879	20.085	1.970	0.505
394.000	280.390	80.009	19.994	103.878	20.085	1.931	0.528
394.500	280.638	80.009	19.995	103.876	20.085	1.939	0.561
395.000	280.850	80.010	19.994	103.875	20.086	1.840	0.511
395.500	281.112	80.008	19.993	103.875	20.089	1.643	0.467
396.000	281.377	80.013	19.995	103.874	20.087	1.774	0.501
396.500	281.633	80.029	20.000	103.874	20.088	1.713	0.524
397.000	281.876	80.030	19.999	103.878	20.087	1.804	0.510
397.501	282.102	80.029	19.997	103.880	20.087	1.838	0.484
398.000	282.365	80.030	19.999	103.884	20.087	1.820	0.479
398.500	282.644	80.029	19.997	103.887	20.087	1.838	0.515
399.000	282.879	80.017	19.997	103.887	20.090	1.580	0.528
399.500	283.197	80.014	19.996	103.884	20.091	1.495	0.534
400.000	283.451	80.009	19.995	103.878	20.088	1.746	0.563
400.500	283.688	80.010	19.995	103.872	20.088	1.719	0.531
401.000	283.936	80.011	19.993	103.870	20.088	1.754	0.487
401.500	284.197	80.010	19.993	103.870	20.086	1.843	0.497
402.000	284.475	80.011	19.993	103.868	20.087	1.802	0.524
402.500	284.744	80.011	19.995	103.871	20.086	1.909	0.543
403.001	284.943	80.011	19.993	103.873	20.086	1.840	0.507
403.500	285.234	80.011	19.994	103.872	20.088	1.711	0.479
404.000	285.478	80.011	19.994	103.872	20.088	1.709	0.513
404.500	285.727	80.011	19.994	103.872	20.088	1.733	0.514
405.000	285.997	80.011	19.994	103.868	20.089	1.671	0.506
405.500	286.256	80.010	19.992	103.866	20.087	1.836	0.524
406.000	286.498	80.011	19.994	103.865	20.091	1.519	0.515
406.500	286.776	80.011	19.994	103.865	20.087	1.826	0.511
407.000	287.005	80.011	19.995	103.865	20.089	1.689	0.514
407.500	287.288	80.011	19.993	103.865	20.088	1.738	0.509
408.000	287.583	80.013	19.994	103.865	20.087	1.788	0.544
408.500	287.805	80.011	19.993	103.866	20.090	1.616	0.547
409.000	288.089	80.009	19.992	103.868	20.088	1.740	0.512
409.500	288.340	80.012	19.995	103.868	20.089	1.645	0.521
410.000	288.598	80.011	19.995	103.868	20.089	1.649	0.522
410.500	288.871	80.012	19.994	103.867	20.087	1.768	0.520
411.000	289.104	80.010	19.994	103.866	20.087	1.829	0.518
411.500	289.360	80.011	19.994	103.864	20.088	1.744	0.498
412.000	289.636	80.010	19.994	103.863	20.086	1.851	0.511
412.500	289.889	80.010	19.995	103.864	20.087	1.788	0.531
413.000	290.154	80.012	19.993	103.864	20.086	1.849	0.523
413.500	290.414	80.012	19.994	103.865	20.086	1.893	0.521
414.000	290.663	80.009	19.994	103.866	20.086	1.863	0.517
414.500	290.886	80.009	19.995	103.866	20.089	1.630	0.491
415.000	291.181	80.008	19.994	103.865	20.086	1.869	0.496
415.500	291.430	80.009	19.995	103.866	20.083	2.083	0.531
416.000	291.708	80.009	19.995	103.867	20.083	2.067	0.535
416.500	291.973	80.009	19.994	103.866	20.085	1.970	0.535
417.000	292.216	80.008	19.994	103.865	20.086	1.873	0.525
417.500	292.451	80.009	19.995	103.865	20.083	2.105	0.493
418.000	292.716	80.009	19.995	103.863	20.085	1.923	0.489
418.500	293.009	80.009	19.994	103.857	20.082	2.172	0.529
419.000	293.257	80.009	19.994	103.854	20.084	2.047	0.549
419.500	293.494	80.009	19.994	103.853	20.083	2.117	0.513
420.000	293.755	80.009	19.995	103.853	20.086	1.843	0.492
420.500	293.988	80.008	19.994	103.854	20.087	1.837	0.496
421.000	294.281	80.007	19.994	103.858	20.087	1.786	0.510
421.500	294.543	80.008	19.994	103.861	20.083	2.111	0.541
422.000	294.781	80.008	19.994	103.859	20.084	1.994	0.527
422.500	295.042	80.008	19.995	103.857	20.083	2.087	0.499
423.000	295.315	80.008	19.994	103.854	20.087	1.774	0.517
423.500	295.547	80.009	19.994	103.853	20.085	1.946	0.519
424.000	295.787	80.008	19.995	103.853	20.086	1.899	0.488
424.500	296.016	80.007	19.994	103.857	20.086	1.901	0.470
425.000	296.295	80.008	19.994	103.857	20.086	1.855	0.489
425.500	296.525	80.008	19.995	103.861	20.085	1.956	0.509
426.000	296.770	80.008	19.994	103.861	20.086	1.841	0.492
426.500	296.980	80.008	19.994	103.860	20.090	1.572	0.465
427.000	297.258	80.008	19.994	103.859	20.089	1.657	0.472
427.500	297.550	80.007	19.994	103.861	20.090	1.598	0.529
428.000	297.812	80.008	19.994	103.860	20.089	1.667	0.562
428.500	298.054	80.008	19.994	103.861	20.091	1.542	0.529
429.000	298.290	80.009	19.995	103.861	20.087	1.832	0.491
429.500	298.526	80.008	19.994	103.861	20.087	1.808	0.475
430.000	298.794	80.008	19.993	103.861	20.086	1.901	0.488
430.500	299.017	80.008	19.994	103.861	20.088	1.736	0.497
431.000	299.275	80.008	19.994	103.860	20.089	1.665	0.486
431.500	299.535	80.009	19.995	103.861	20.088	1.719	0.500
432.000	299.780	80.009	19.993	103.861	20.085	1.919	0.512
432.500	300.050	80.008	19.993	103.860	20.088	1.758	0.510
433.000	300.300	80.008	19.994	103.860	20.087	1.816	0.517
433.501	300.514	80.009	19.993	103.860	20.085	1.966	0.492
434.001	300.807	80.007	19.993	103.860	20.089	1.655	0.486
434.500	301.126	80.010	19.993	103.860	20.084	2.008	0.560
435.000	301.309	80.009	19.994	103.861	20.087	1.798	0.557
435.500	301.549	80.009	19.993	103.862	20.087	1.784	0.463
436.000	301.810	80.009	19.994	103.862	20.089	1.685	0.462
436.500	302.014	80.009	19.993	103.861	20.088	1.742	0.483
437.000	302.299	80.009	19.993	103.861	20.087	1.794	0.477
437.500	302.524	80.009	19.993	103.859	20.086	1.903	0.500
438.000	302.826	80.010	19.994	103.859	20.089	1.632	0.519
438.500	303.062	80.010	19.993	103.859	20.088	1.713	0.532
439.000	303.316	80.009	19.994	103.859	20.089	1.655	0.513
439.500	303.568	80.010	19.993	103.859	20.086	1.845	0.498
440.000	303.787	80.009	19.994	103.861	20.086	1.853	0.489
440.500	304.089	80.009	19.993	103.860	20.087	1.780	0.496
441.000	304.349	80.009	19.993	103.861	20.086	1.840	0.541
441.500	304.679	80.011	19.994	103.861	20.089	1.681	0.575
442.000	304.895	80.010	19.994	103.861	20.088	1.733	0.568
442.500	305.069	80.009	19.993	103.861	20.088	1.752	0.469
443.000	305.340	80.008	19.993	103.862	20.088	1.733	0.418
443.500	305.569	80.009	19.993	103.862	20.085	1.970	0.472
444.000	305.817	80.009	19.995	103.862	20.083	2.095	0.489
444.500	306.091	80.008	19.993	103.862	20.084	2.012	0.500
445.000	306.359	80.008	19.993	103.861	20.085	1.974	0.532
445.500	306.618	80.009	19.994	103.860	20.085	1.932	0.534
446.000	306.852	80.009	19.994	103.861	20.085	1.925	0.510
446.500	307.093	80.008	19.994	103.860	20.087	1.835	0.484
447.000	307.333	80.008	19.994	103.859	20.086	1.909	0.478
447.500	307.594	80.008	19.994	103.860	20.085	1.917	0.490
448.000	307.850	80.008	19.994	103.861	20.086	1.841	0.509
448.500	308.115	80.008	19.993	103.860	20.085	1.938	0.519
449.000	308.317	80.009	19.993	103.861	20.085	1.924	0.494
449.500	308.601	80.007	19.993	103.863	20.082	2.154	0.476
450.000	308.864	80.008	19.993	103.864	20.087	1.830	0.517
450.500	309.107	80.009	19.994	103.864	20.083	2.097	0.527
451.000	309.396	80.009	19.994	103.865	20.082	2.127	0.519
451.501	309.624	80.008	19.993	103.866	20.085	1.933	0.524
452.000	309.887	80.008	19.993	103.865	20.083	2.059	0.504
452.500	310.112	80.007	19.993	103.865	20.085	1.976	0.489
453.000	310.381	80.009	19.993	103.865	20.085	1.978	0.491
453.500	310.646	80.009	19.994	103.864	20.086	1.905	0.514
454.000	310.882	80.006	19.994	103.864	20.086	1.881	0.518
454.500	311.124	80.010	19.994	103.864	20.086	1.865	0.489
455.000	311.395	80.007	19.994	103.864	20.087	1.828	0.495
455.500	311.600	80.007	19.993	103.863	20.086	1.897	0.495
456.000	311.828	80.008	19.993	103.863	20.089	1.653	0.455
456.500	312.122	80.008	19.993	103.860	20.087	1.778	0.477
457.000	312.365	80.008	19.993	103.860	20.084	2.022	0.529
457.500	312.633	80.010	19.993	103.861	20.087	1.802	0.524
458.000	312.864	80.010	19.993	103.859	20.087	1.778	0.505
458.500	313.124	80.009	19.993	103.858	20.085	1.932	0.495
459.000	313.410	80.009	19.993	103.859	20.089	1.651	0.519
459.500	313.670	80.009	19.994	103.856	20.083	2.095	0.546
460.000	313.864	80.009	19.992	103.855	20.083	2.123	0.500
460.500	314.158	80.009	19.993	103.857	20.085	1.954	0.471
461.000	314.425	80.011	19.993	103.859	20.083	2.057	0.524
461.500	314.659	80.010	19.995	103.861	20.085	1.954	0.531
462.000	314.902	80.012	19.992	103.864	20.084	2.002	0.488
462.501	315.139	80.010	19.994	103.865	20.084	2.030	0.479
463.000	315.369	80.010	19.993	103.864	20.085	1.927	0.474
463.500	315.645	80.009	19.993	103.864	20.090	1.602	0.487
464.000	315.910	80.012	19.993	103.863	20.085	1.952	0.523
464.500	316.153	80.009	19.992	103.863	20.087	1.796	0.525
465.000	316.375	80.011	19.993	103.863	20.086	1.855	0.487
465.500	316.601	80.010	19.993	103.864	20.086	1.891	0.457
466.000	316.909	80.010	19.995	103.863	20.087	1.794	0.491
466.500	317.148	80.010	19.994	103.864	20.084	2.037	0.540
467.000	317.373	80.011	19.993	103.862	20.084	2.000	0.505
467.500	317.634	80.010	19.993	103.859	20.086	1.851	0.475
468.000	317.887	80.009	19.993	103.858	20.088	1.766	0.500
468.500	318.151	80.010	19.992	103.857	20.089	1.649	0.516
469.000	318.385	80.009	19.992	103.857	20.086	1.899	0.507
469.500	318.667	80.011	19.994	103.859	20.087	1.810	0.507
470.000	318.946	80.011	19.993	103.865	20.090	1.614	0.539
470.500	319.161	80.010	19.994	103.867	20.092	1.432	0.527
471.000	319.388	80.010	19.993	103.869	20.089	1.683	0.468
471.500	319.670	80.009	19.993	103.870	20.086	1.871	0.476
472.000	319.916	80.009	19.994	103.870	20.088	1.748	0.519
472.500	320.162	80.010	19.994	103.867	20.090	1.620	0.510
473.000	320.447	80.009	19.992	103.867	20.087	1.822	0.511
473.500	320.642	80.009	19.994	103.867	20.087	1.808	0.506
474.000	320.929	80.009	19.992	103.866	20.087	1.794	0.481
474.500	321.162	80.011	19.993	103.866	20.086	1.849	0.501
475.000	321.428	80.009	19.992	103.866	20.089	1.651	0.509
475.500	321.679	80.009	19.993	103.866	20.088	1.715	0.508
476.000	321.934	80.011	19.993	103.864	20.088	1.762	0.511
476.500	322.156	80.010	19.994	103.863	20.089	1.661	0.491
477.000	322.425	80.010	19.993	103.863	20.084	2.027	0.484
477.500	322.683	80.011	19.993	103.863	20.086	1.897	0.510
478.000	322.922	80.010	19.994	103.863	20.086	1.863	0.512
478.500	323.232	80.010	19.994	103.865	20.085	1.919	0.523
479.000	323.428	80.009	19.992	103.866	20.088	1.734	0.527
479.500	323.697	80.011	19.992	103.865	20.086	1.897	0.486
480.000	323.937	80.010	19.994	103.863	20.087	1.814	0.487
480.500	324.219	80.010	19.993	103.861	20.086	1.879	0.515
481.000	324.451	80.010	19.993	103.860	20.085	1.948	0.518
481.500	324.739	80.010	19.994	103.859	20.085	1.926	0.517
482.000	324.989	80.010	19.993	103.859	20.086	1.875	0.529
482.500	325.199	80.010	19.993	103.860	20.088	1.721	0.499
483.000	325.453	80.010	19.992	103.862	20.084	1.994	0.462
483.500	325.733	80.010	19.994	103.863	20.087	1.798	0.499
484.000	326.011	80.010	19.994	103.863	20.085	1.956	0.546
484.500	326.275	80.010	19.993	103.859	20.088	1.764	0.550
485.000	326.469	80.012	19.993	103.858	20.087	1.770	0.500
485.501	326.758	80.010	19.993	103.858	20.086	1.901	0.471
486.000	327.001	80.009	19.994	103.856	20.087	1.772	0.508
486.500	327.258	80.011	19.994	103.854	20.090	1.598	0.516
487.000	327.488	80.010	19.994	103.857	20.089	1.689	0.493
487.500	327.765	80.011	19.995	103.857	20.088	1.697	0.497
488.000	328.027	80.011	19.994	103.856	20.088	1.744	0.523
488.500	328.246	80.011	19.992	103.857	20.088	1.727	0.510
489.000	328.516	80.012	19.994	103.858	20.086	1.905	0.485
489.500	328.770	80.011	19.994	103.857	20.087	1.816	0.506
490.000	329.019	80.010	19.994	103.857	20.088	1.740	0.513
490.500	329.259	80.011	19.994	103.858	20.089	1.637	0.496
491.000	329.503	80.011	19.993	103.859	20.088	1.736	0.487
491.500	329.794	80.013	19.994	103.859	20.086	1.847	0.509
492.000	330.020	80.012	19.993	103.859	20.088	1.760	0.526
492.500	330.304	80.012	19.993	103.857	20.089	1.661	0.514
493.000	330.509	80.012	19.994	103.857	20.088	1.736	0.499
493.500	330.783	80.011	19.994	103.856	20.091	1.485	0.484
494.000	331.061	80.012	19.993	103.856	20.090	1.566	0.516
494.500	331.299	80.011	19.993	103.857	20.089	1.624	0.534
495.000	331.535	80.012	19.992	103.860	20.089	1.637	0.495
495.500	331.803	80.011	19.993	103.859	20.090	1.614	0.489
496.000	332.060	80.011	19.993	103.859	20.093	1.408	0.515
496.500	332.260	80.011	19.993	103.859	20.092	1.455	0.491
497.000	332.576	80.008	19.994	103.859	20.092	1.461	0.487
497.500	332.849	80.009	19.994	103.859	20.089	1.633	0.552
498.000	333.079	80.009	19.993	103.861	20.092	1.463	0.545
498.500	333.363	80.009	19.995	103.861	20.095	1.253	0.508
499.000	333.581	80.009	19.993	103.860	20.092	1.471	0.509
499.500	333.857	80.008	19.994	103.860	20.091	1.483	0.499
500.000	334.139	80.008	19.994	103.860	20.089	1.661	0.526
500.500	334.399	80.009	19.994	103.861	20.089	1.673	0.550
501.000	334.615	80.008	19.993	103.861	20.086	1.863	0.509
501.500	334.918	80.010	19.994	103.861	20.090	1.614	0.498
502.000	335.157	80.009	19.993	103.861	20.090	1.576	0.530
502.500	335.423	80.009	19.993	103.859	20.089	1.627	0.523
503.000	335.674	80.009	19.993	103.854	20.087	1.792	0.511
503.500	335.874	80.008	19.994	103.853	20.090	1.612	0.484
504.000	336.152	80.008	19.994	103.853	20.086	1.903	0.465
504.500	336.418	80.008	19.994	103.853	20.087	1.820	0.511
505.000	336.704	80.010	19.995	103.854	20.091	1.505	0.548
505.500	336.926	80.009	19.993	103.858	20.086	1.879	0.530
506.000	337.154	80.010	19.992	103.859	20.085	1.936	0.479
506.500	337.410	80.010	19.994	103.859	20.085	1.912	0.467
507.000	337.713	80.008	19.994	103.860	20.087	1.815	0.522
507.500	337.952	80.008	19.994	103.860	20.085	1.922	0.550
508.000	338.187	80.009	19.995	103.857	20.086	1.881	0.508
508.500	338.444	80.009	19.995	103.855	20.083	2.094	0.483
509.000	338.714	80.010	19.993	103.856	20.086	1.892	0.510
509.500	338.972	80.009	19.995	103.856	20.088	1.754	0.528
510.000	339.228	80.009	19.996	103.855	20.084	2.007	0.521
510.500	339.498	80.009	19.994	103.857	20.084	1.986	0.520
511.000	339.709	80.010	19.994	103.859	20.089	1.681	0.503
511.500	339.956	80.009	19.993	103.859	20.086	1.863	0.469
512.000	340.225	80.009	19.994	103.858	20.087	1.802	0.487
512.500	340.519	80.009	19.994	103.857	20.086	1.861	0.540
513.000	340.709	80.008	19.994	103.858	20.088	1.760	0.524
513.500	341.010	80.009	19.995	103.856	20.086	1.867	0.487
514.000	341.271	80.009	19.994	103.856	20.087	1.786	0.526
514.500	341.485	80.007	19.994	103.857	20.090	1.590	0.518
515.000	341.739	80.008	19.994	103.859	20.088	1.760	0.472
515.500	341.977	80.007	19.993	103.858	20.086	1.903	0.480
516.000	342.252	80.008	19.993	103.857	20.089	1.631	0.503
516.500	342.496	80.008	19.995	103.851	20.087	1.821	0.516
517.000	342.718	80.009	19.994	103.845	20.088	1.760	0.492
517.500	342.973	80.007	19.995	103.838	20.088	1.697	0.471
518.000	343.218	80.008	19.994	103.833	20.088	1.762	0.489
518.500	343.451	80.009	19.995	103.830	20.086	1.847	0.489
519.000	343.707	80.008	19.994	103.833	20.086	1.891	0.484
519.500	343.971	80.008	19.994	103.833	20.084	2.033	0.504
520.000	344.214	80.009	19.995	103.833	20.084	2.043	0.513
520.500	344.428	80.009	19.995	103.834	20.085	1.927	0.482
521.000	344.729	80.008	19.994	103.837	20.085	1.928	0.486
521.500	344.915	80.008	19.994	103.841	20.081	2.206	0.501
522.000	345.193	80.009	19.995	103.847	20.082	2.152	0.476
522.500	345.444	80.009	19.992	103.848	20.088	1.750	0.497
523.000	345.690	80.007	19.994	103.848	20.078	2.449	0.513
523.500	345.991	80.008	19.995	103.847	20.085	1.919	0.522
524.000	346.169	80.009	19.994	103.844	20.083	2.103	0.513
524.500	346.419	80.008	19.994	103.843	20.083	2.071	0.454
525.000	346.698	80.009	19.994	103.848	20.083	2.095	0.479
525.500	346.948	80.009	19.994	103.852	20.081	2.247	0.529
526.000	347.223	80.008	19.994	103.851	20.081	2.218	0.527
526.500	347.484	80.009	19.993	103.852	20.080	2.295	0.530
527.000	347.721	80.008	19.996	103.853	20.080	2.293	0.517
527.500	347.980	80.008	19.991	103.854	20.078	2.477	0.497
528.000	348.244	80.008	19.994	103.853	20.081	2.257	0.510
528.500	348.480	80.007	19.994	103.853	20.079	2.382	0.511
529.000	348.738	80.005	19.991	103.856	20.080	2.269	0.497
529.500	348.979	80.008	19.993	103.854	20.081	2.235	0.496
530.000	349.249	80.010	19.993	103.854	20.083	2.079	0.505
530.500	349.502	80.008	19.994	103.857	20.079	2.350	0.518
531.000	349.751	80.009	19.993	103.862	20.078	2.463	0.512
531.500	349.999	80.007	19.993	103.860	20.081	2.267	0.499
532.000	350.255	80.009	19.994	103.858	20.079	2.348	0.501
532.500	350.503	80.009	19.993	103.853	20.079	2.356	0.504
533.000	350.754	80.008	19.994	103.853	20.081	2.237	0.501
533.500	350.965	80.010	19.994	103.854	20.082	2.152	0.481
534.000	351.274	80.008	19.995	103.854	20.080	2.336	0.491
534.500	351.518	80.009	19.993	103.857	20.080	2.326	0.536
535.000	351.738	80.008	19.994	103.861	20.076	2.558	0.508
535.500	351.992	80.008	19.993	103.860	20.080	2.314	0.469
536.000	352.230	80.009	19.993	103.857	20.079	2.346	0.484
536.500	352.518	80.008	19.994	103.857	20.082	2.178	0.509
537.000	352.749	80.008	19.994	103.856	20.077	2.534	0.522
537.500	353.033	80.008	19.993	103.854	20.078	2.447	0.517
538.000	353.261	80.010	19.993	103.851	20.082	2.176	0.513
538.500	353.563	80.008	19.994	103.851	20.078	2.421	0.521
539.000	353.768	80.009	19.993	103.851	20.079	2.372	0.518
539.500	354.044	80.008	19.994	103.850	20.076	2.570	0.494
540.000	354.280	80.010	19.993	103.852	20.079	2.386	0.497
540.500	354.567	80.010	19.993	103.855	20.078	2.439	0.517
541.000	354.828	80.009	19.993	103.858	20.078	2.481	0.535
541.500	355.052	80.010	19.992	103.858	20.076	2.558	0.516
542.000	355.328	80.009	19.993	103.857	20.076	2.600	0.493
542.500	355.602	80.009	19.993	103.856	20.076	2.612	0.525
543.000	355.845	80.010	19.994	103.856	20.075	2.627	0.534
543.500	356.047	80.011	19.993	103.851	20.076	2.584	0.481
544.000	356.364	80.010	19.994	103.848	20.075	2.639	0.482
544.500	356.561	80.011	19.993	103.852	20.077	2.522	0.516
545.000	356.908	80.011	19.993	103.850	20.075	2.688	0.529
545.500	357.073	80.011	19.994	103.849	20.070	3.053	0.528
546.000	357.396	80.010	19.992	103.850	20.076	2.600	0.500
546.501	357.636	80.011	19.994	103.850	20.069	3.126	0.525
547.001	357.948	80.011	19.993	103.846	20.067	3.219	0.557
547.500	358.173	80.012	19.995	103.848	20.068	3.184	0.544
548.000	358.417	80.011	19.995	103.846	20.070	3.008	0.503
548.500	358.675	80.013	19.993	103.849	20.068	3.196	0.485
549.000	358.933	80.011	19.992	103.851	20.070	2.996	0.509
549.500	359.229	80.012	19.993	103.852	20.072	2.855	0.535
550.000	359.383	80.010	19.992	103.851	20.065	3.368	0.503
550.500	359.718	80.008	19.995	103.851	20.069	3.077	0.470
551.000	359.906	80.010	19.992	103.851	20.066	3.326	0.506
551.500	360.170	80.013	19.993	103.853	20.071	2.978	0.488
552.000	360.434	80.011	19.992	103.855	20.069	3.071	0.490
552.500	360.665	80.011	19.993	103.857	20.067	3.215	0.511
553.000	361.061	80.011	19.994	103.858	20.067	3.203	0.561
553.500	361.176	80.010	19.992	103.857	20.067	3.209	0.569
554.000	361.547	80.010	19.993	103.852	20.065	3.386	0.498
554.500	361.686	80.009	19.995	103.847	20.066	3.289	0.498
555.000	361.990	80.009	19.993	103.846	20.064	3.465	0.476
555.500	362.340	80.010	19.992	103.846	20.066	3.326	0.548
556.000	362.506	80.010	19.995	103.845	20.066	3.277	0.585
556.500	362.758	80.010	19.996	103.850	20.064	3.431	0.468
557.000	362.962	80.010	19.992	103.853	20.067	3.271	0.437
557.500	363.269	80.009	19.994	103.855	20.062	3.596	0.483
558.000	363.575	80.010	19.992	103.855	20.064	3.467	0.562
558.500	363.762	80.010	19.993	103.858	20.062	3.629	0.553
559.000	364.178	80.009	19.994	103.856	20.061	3.645	0.547
559.500	364.118	80.009	19.994	103.854	20.058	3.857	0.479
560.000	364.757	80.010	19.991	103.853	20.059	3.778	0.468
560.500	364.514	80.009	19.994	103.854	20.061	3.659	0.488
561.000	364.791	80.011	19.993	103.856	20.061	3.653	0.215
561.500	365.225	80.012	19.994	103.857	20.059	3.835	0.372
562.000	365.747	80.011	19.994	103.860	20.060	3.758	0.834
562.500	366.022	80.011	19.992	103.856	20.059	3.811	0.877
563.001	365.883	80.010	19.994	103.852	20.057	3.950	0.466
563.500	366.570	80.010	19.993	103.851	20.057	3.965	0.342
564.000	366.435	80.010	19.993	103.851	20.059	3.838	0.550
564.500	366.952	80.012	19.992	103.850	20.056	4.038	0.467
565.000	366.835	80.012	19.994	103.853	20.059	3.842	0.391
565.500	367.617	80.011	19.994	103.856	20.056	4.007	0.533
566.000	367.561	80.010	19.993	103.856	20.057	3.975	0.696
566.500	367.922	80.012	19.993	103.858	20.056	4.007	0.515
567.000	368.105	80.010	19.993	103.858	20.056	4.049	0.424
567.500	368.495	80.013	19.992	103.858	20.055	4.092	0.558
568.000	368.671	80.011	19.993	103.860	20.054	4.170	0.569
568.500	368.962	80.009	19.993	103.859	20.053	4.227	0.517
569.000	369.150	80.012	19.993	103.859	20.049	4.555	0.473
569.500	369.465	80.012	19.994	103.860	20.051	4.405	0.490
570.000	369.668	80.012	19.993	103.858	20.051	4.366	0.510
570.500	369.978	80.011	19.994	103.856	20.049	4.508	0.516
571.000	370.283	80.013	19.993	103.856	20.048	4.590	0.564
571.500	370.447	80.012	19.993	103.855	20.046	4.708	0.542
572.000	370.733	80.011	19.992	103.855	20.048	4.566	0.459
572.500	371.012	80.009	19.993	103.857	20.047	4.653	0.507
573.000	371.171	80.011	19.992	103.858	20.042	5.045	0.502
573.500	371.503	80.010	19.994	103.855	20.044	4.865	0.465
574.000	371.737	80.011	19.993	103.852	20.039	5.239	0.529
574.500	372.061	80.013	19.994	103.848	20.041	5.126	0.562
575.000	372.283	80.011	19.992	103.840	20.041	5.114	0.551
575.500	372.596	80.012	19.993	103.834	20.039	5.251	0.540
576.000	372.806	80.011	19.993	103.834	20.034	5.615	0.529
576.500	373.049	80.011	19.994	103.838	20.035	5.504	0.488
577.000	373.364	80.008	19.994	103.842	20.031	5.809	0.505
577.500	373.565	80.014	19.992	103.850	20.034	5.588	0.537
578.000	373.881	80.010	19.995	103.855	20.036	5.447	0.517
578.500	374.162	80.009	19.994	103.853	20.033	5.699	0.557
579.000	374.417	80.010	19.994	103.852	20.035	5.562	0.566
579.500	374.672	80.011	19.994	103.850	20.035	5.558	0.523
580.000	374.892	80.009	19.993	103.848	20.032	5.738	0.493
580.500	375.176	80.009	19.992	103.850	20.029	5.964	0.490
581.000	375.411	80.008	19.994	103.855	20.028	6.006	0.512
581.500	375.698	80.009	19.994	103.858	20.026	6.152	0.521
582.000	375.933	80.008	19.995	103.859	20.023	6.378	0.522
582.500	376.188	80.008	19.995	103.859	20.024	6.338	0.506
583.000	376.463	80.009	19.994	103.860	20.028	6.008	0.509
583.500	376.693	80.009	19.994	103.861	20.028	6.020	0.517
584.000	377.036	80.008	19.993	103.858	20.027	6.113	0.539
584.500	377.265	80.009	19.994	103.860	20.023	6.422	0.573
585.000	377.519	80.008	19.993	103.862	20.023	6.378	0.528
585.500	377.724	80.009	19.995	103.861	20.022	6.473	0.471
586.000	377.983	80.008	19.994	103.860	20.020	6.608	0.462
586.500	378.268	80.009	19.994	103.860	20.022	6.479	0.504
587.001	378.493	80.009	19.994	103.860	20.019	6.683	0.527
587.501	378.753	80.009	19.994	103.859	20.017	6.843	0.497
588.000	379.008	80.008	19.993	103.861	20.013	7.097	0.500
588.500	379.289	80.008	19.994	103.862	20.015	6.956	0.525
589.000	379.519	80.006	19.993	103.864	20.013	7.117	0.523
589.500	379.795	80.009	19.995	103.865	20.013	7.115	0.508
590.000	380.014	80.009	19.994	103.866	20.010	7.345	0.501
590.500	380.300	80.010	19.994	103.866	20.010	7.317	0.500
591.000	380.568	80.010	19.995	103.866	20.006	7.618	0.529
591.500	380.805	80.008	19.994	103.866	20.004	7.743	0.529
592.000	381.056	80.009	19.996	103.865	20.004	7.766	0.496
592.500	381.317	80.009	19.994	103.865	20.003	7.792	0.500
593.000	381.580	80.010	19.995	103.865	20.000	8.058	0.518
593.500	381.859	80.009	19.995	103.866	19.998	8.218	0.533
594.000	382.116	80.008	19.995	103.867	19.998	8.188	0.539
594.500	382.338	80.008	19.995	103.868	19.994	8.490	0.507
595.000	382.598	80.011	19.995	103.868	19.996	8.296	0.481
595.500	382.867	80.010	19.993	103.869	19.991	8.682	0.505
596.000	383.119	80.010	19.995	103.868	19.991	8.700	0.525
596.500	383.350	80.010	19.995	103.868	19.988	8.876	0.502
597.000	383.660	80.009	19.993	103.867	19.987	9.009	0.512
597.500	383.942	80.010	19.994	103.867	19.984	9.171	0.566
598.000	384.184	80.008	19.993	103.867	19.983	9.280	0.558
598.500	384.456	80.009	19.993	103.867	19.981	9.414	0.519
599.000	384.683	80.008	19.995	103.867	19.981	9.410	0.507
599.500	384.959	80.008	19.994	103.869	19.976	9.787	0.501
600.000	385.221	80.008	19.994	103.872	19.973	9.969	0.520
600.500	385.458	80.010	19.995	103.874	19.974	9.910	0.518
601.000	385.708	80.009	19.993	103.875	19.968	10.324	0.493
601.500	385.944	80.011	19.994	103.875	19.968	10.306	0.487
602.000	386.184	80.009	19.994	103.875	19.965	10.560	0.481
602.500	386.427	80.010	19.995	103.874	19.964	10.655	0.480
603.000	386.691	80.009	19.995	103.871	19.959	11.013	0.495
603.500	386.955	80.008	19.995	103.871	19.956	11.215	0.518
604.000	387.234	80.007	19.994	103.874	19.955	11.294	0.536
604.500	387.489	80.008	19.994	103.876	19.953	11.441	0.538
605.000	387.743	80.009	19.995	103.875	19.951	11.552	0.521
605.500	388.003	80.009	19.994	103.879	19.946	11.898	0.512
606.000	388.234	80.006	19.996	103.883	19.943	12.158	0.503
606.500	388.484	80.007	19.994	103.886	19.944	12.048	0.486
607.000	388.764	80.008	19.995	103.883	19.938	12.461	0.505
607.500	388.998	80.008	19.993	103.883	19.938	12.518	0.522
608.000	389.277	80.007	19.994	103.882	19.935	12.713	0.514
608.500	389.463	80.008	19.995	103.883	19.930	13.097	0.490
609.000	389.783	80.009	19.994	103.884	19.931	12.996	0.486
609.500	390.022	80.007	19.995	103.889	19.928	13.223	0.532
610.000	390.276	80.010	19.995	103.895	19.924	13.495	0.526
610.500	390.556	80.010	19.996	103.898	19.920	13.791	0.514
611.000	390.773	80.010	19.994	103.899	19.918	13.912	0.516
611.500	391.043	80.008	19.995	103.898	19.916	14.081	0.492
612.000	391.295	80.007	19.997	103.900	19.911	14.430	0.505
612.500	391.549	80.008	19.994	103.900	19.910	14.529	0.514
613.000	391.836	80.008	19.995	103.901	19.905	14.886	0.523
613.500	392.070	80.009	19.994	103.901	19.905	14.891	0.531
614.000	392.367	80.009	19.997	103.901	19.899	15.281	0.526
614.500	392.534	80.007	19.995	103.901	19.897	15.462	0.498
615.000	392.814	80.007	19.996	103.901	19.890	15.953	0.456
615.500	393.067	80.010	19.995	103.901	19.888	16.068	0.490
616.000	393.303	80.008	19.993	103.901	19.882	16.499	0.511
616.500	393.585	80.008	19.993	103.900	19.879	16.719	0.503
617.000	393.845	80.007	19.995	103.904	19.873	17.147	0.530
617.500	394.095	80.008	19.996	103.909	19.870	17.347	0.526
618.000	394.347	80.009	19.994	103.913	19.866	17.655	0.506
618.501	394.629	80.008	19.993	103.916	19.862	17.921	0.517
619.001	394.864	80.009	19.993	103.917	19.858	18.244	0.526
619.500	395.105	80.010	19.994	103.914	19.853	18.621	0.497
620.000	395.383	80.008	19.995	103.914	19.848	18.931	0.497
620.500	395.630	80.009	19.994	103.913	19.842	19.393	0.521
621.000	395.879	80.010	19.995	103.914	19.838	19.648	0.510
621.500	396.130	80.011	19.993	103.919	19.833	20.058	0.498
622.000	396.387	80.009	19.994	103.923	19.829	20.291	0.504
622.500	396.644	80.010	19.995	103.924	19.823	20.753	0.511
623.000	396.873	80.011	19.993	103.927	19.817	21.186	0.500
623.500	397.127	80.010	19.994	103.932	19.814	21.369	0.485
624.000	397.394	80.010	19.994	103.933	19.809	21.767	0.503
624.500	397.622	80.011	19.994	103.937	19.804	22.091	0.508
625.000	397.889	80.011	19.993	103.938	19.799	22.506	0.495
625.500	398.141	80.012	19.994	103.939	19.793	22.901	0.507
626.000	398.404	80.013	19.993	103.938	19.790	23.098	0.517
626.500	398.663	80.012	19.993	103.937	19.787	23.358	0.518
627.000	398.941	80.011	19.994	103.935	19.782	23.704	0.529
627.500	399.158	80.011	19.993	103.933	19.775	24.196	0.516
628.000	399.419	80.009	19.992	103.933	19.771	24.483	0.487
628.500	399.684	80.010	19.993	103.934	19.764	25.019	0.503
629.000	399.877	80.011	19.992	103.937	19.757	25.490	0.492
629.500	400.154	80.012	19.995	103.939	19.749	26.075	0.464
630.000	400.435	80.010	19.994	103.942	19.742	26.535	0.513
630.500	400.664	80.011	19.996	103.945	19.735	27.078	0.534
631.000	400.910	80.011	19.995	103.948	19.730	27.453	0.493
631.500	401.151	80.012	19.992	103.950	19.725	27.787	0.481
632.000	401.416	80.011	19.993	103.956	19.717	28.386	0.497
632.500	401.659	80.011	19.991	103.958	19.713	28.689	0.507
633.000	401.959	80.012	19.995	103.960	19.707	29.091	0.525
633.500	402.152	80.011	19.994	103.963	19.701	29.562	0.518
634.000	402.431	80.012	19.994	103.967	19.695	29.951	0.482
634.500	402.621	80.011	19.995	103.969	19.693	30.122	0.470
635.000	402.902	80.010	19.992	103.968	19.690	30.339	0.470
635.500	403.133	80.010	19.993	103.963	19.685	30.671	0.492
636.000	403.456	80.012	19.994	103.958	19.678	31.170	0.533
636.500	403.674	80.011	19.993	103.952	19.676	31.354	0.547
637.000	403.904	80.010	19.993	103.946	19.670	31.778	0.494
637.500	404.166	80.010	19.994	103.949	19.663	32.259	0.469
638.000	404.401	80.011	19.992	103.954	19.656	32.740	0.494
638.500	404.641	80.010	19.995	103.962	19.652	33.086	0.486
639.000	404.893	80.009	19.994	103.969	19.642	33.743	0.483
639.500	405.163	80.009	19.994	103.975	19.638	34.076	0.507
640.000	405.392	80.009	19.994	103.980	19.634	34.313	0.511
640.500	405.607	80.009	19.994	103.988	19.626	34.938	0.471
641.000	405.874	80.010	19.991	103.996	19.620	35.354	0.463
641.500	406.099	80.011	19.993	104.005	19.614	35.797	0.487
642.000	406.353	80.010	19.992	104.017	19.604	36.481	0.485
642.500	406.607	80.010	19.994	104.028	19.598	36.931	0.493
643.000	406.813	80.012	19.994	104.036	19.585	37.865	0.484
643.500	407.093	80.010	19.994	104.042	19.578	38.368	0.473
644.000	407.333	80.010	19.994	104.046	19.572	38.850	0.503
644.500	407.540	80.009	19.993	104.045	19.563	39.484	0.484
645.000	407.806	80.007	19.992	104.043	19.554	40.147	0.460
645.500	408.047	80.008	19.992	104.039	19.548	40.527	0.489
646.000	408.337	80.011	19.994	104.035	19.534	41.542	0.519
646.500	408.545	80.013	19.994	104.037	19.527	42.088	0.515
647.000	408.800	80.010	19.993	104.040	19.517	42.807	0.480
647.500	409.027	80.009	19.994	104.045	19.505	43.622	0.472
648.000	409.285	80.012	19.995	104.051	19.494	44.422	0.484
648.500	409.515	80.011	19.993	104.056	19.485	45.020	0.487
649.000	409.755	80.011	19.992	104.057	19.472	45.950	0.479
649.500	409.994	80.013	19.993	104.059	19.463	46.635	0.475
650.000	410.238	80.011	19.993	104.061	19.454	47.256	0.481
650.500	410.475	80.011	19.993	104.065	19.442	48.146	0.482
651.000	410.759	80.012	19.994	104.068	19.429	49.091	0.501
651.500	411.015	80.012	19.993	104.068	19.412	50.292	0.530
652.000	411.240	80.012	19.996	104.074	19.396	51.465	0.511
652.500	411.477	80.013	19.993	104.082	19.380	52.572	0.472
653.000	411.734	80.013	19.992	104.091	19.359	54.095	0.478
653.500	411.979	80.012	19.992	104.105	19.339	55.611	0.498
654.000	412.224	80.012	19.992	104.119	19.316	57.234	0.496
654.500	412.491	80.012	19.993	104.129	19.297	58.668	0.501
655.000	412.795	80.012	19.993	104.136	19.277	60.111	0.541
655.500	412.994	80.011	19.994	104.154	19.261	61.285	0.537
656.000	413.224	80.012	19.994	104.164	19.249	62.133	0.466
656.500	413.474	80.012	19.993	104.160	19.237	62.976	0.454
657.000	413.725	80.013	19.991	104.153	19.229	63.574	0.490
657.500	413.940	80.011	19.993	104.143	19.216	64.513	0.483
658.000	414.176	80.010	19.991	104.119	19.207	65.113	0.459
658.500	414.438	80.012	19.994	104.099	19.199	65.729	0.475
659.000	414.658	80.012	19.994	104.084	19.193	66.116	0.490
659.500	414.936	80.010	19.993	104.067	19.185	66.724	0.490
660.000	415.147	80.010	19.993	104.054	19.178	67.194	0.494
660.500	415.409	80.011	19.992	104.045	19.174	67.551	0.481
661.000	415.681	80.011	19.993	104.041	19.165	68.171	0.504
661.500	415.892	80.009	19.994	104.045	19.159	68.571	0.509
662.000	416.149	80.011	19.994	104.050	19.153	69.040	0.476
662.500	416.418	80.007	19.994	104.052	19.147	69.491	0.497
663.000	416.647	80.008	19.994	104.058	19.140	69.948	0.512
663.500	416.940	80.010	19.993	104.078	19.128	70.810	0.511
664.000	417.172	80.008	19.994	104.107	19.120	71.419	0.523
664.500	417.429	80.010	19.995	104.144	19.109	72.170	0.506
665.000	417.671	80.009	19.994	104.188	19.104	72.538	0.494
665.500	417.923	80.009	19.994	104.226	19.098	72.979	0.497
666.000	418.192	80.008	19.993	104.252	19.090	73.582	0.508
666.500	418.433	80.010	19.994	104.268	19.080	74.293	0.515
667.000	418.655	80.008	19.992	104.280	19.070	74.969	0.486
667.500	418.935	80.009	19.993	104.283	19.059	75.792	0.483
668.000	419.167	80.009	19.993	104.279	19.047	76.680	0.507
668.500	419.437	80.009	19.994	104.273	19.034	77.646	0.507
669.000	419.716	80.010	19.994	104.268	19.020	78.653	0.525
669.500	419.899	80.009	19.993	104.261	19.008	79.470	0.506
670.000	420.175	80.009	19.993	104.259	18.992	80.632	0.461
670.500	420.465	80.008	19.992	104.260	18.979	81.575	0.513
671.000	420.708	80.008	19.995	104.263	18.961	82.920	0.549
671.500	420.977	80.010	19.996	104.265	18.941	84.400	0.522
672.000	421.213	80.007	19.995	104.265	18.926	85.430	0.508
672.501	421.459	80.011	19.994	104.266	18.908	86.769	0.494
673.000	421.706	80.010	19.994	104.269	18.888	88.201	0.488
673.500	421.987	80.013	19.993	104.275	18.877	89.037	0.511
674.000	422.226	80.009	19.994	104.276	18.866	89.821	0.524
674.500	422.468	80.009	19.991	104.276	18.850	90.919	0.500
675.000	422.687	80.010	19.996	104.274	18.838	91.794	0.471
675.500	422.972	80.009	19.994	104.271	18.823	92.866	0.483
676.000	423.177	80.009	19.995	104.260	18.811	93.785	0.497
676.500	423.456	80.010	19.994	104.256	18.793	95.064	0.487
677.000	423.695	80.009	19.995	104.255	18.776	96.276	0.501
677.500	423.938	80.009	19.995	104.256	18.763	97.228	0.500
678.000	424.184	80.010	19.995	104.262	18.750	98.124	0.486
678.500	424.431	80.010	19.994	104.271	18.733	99.372	0.491
679.000	424.712	80.009	19.993	104.281	18.714	100.760	0.510
679.500	424.985	80.009	19.995	104.291	18.699	101.866	0.541
680.000	425.223	80.008	19.994	104.297	18.677	103.417	0.533
680.500	425.511	80.010	19.994	104.303	18.657	104.869	0.519
681.000	425.776	80.010	19.996	104.311	18.640	106.106	0.539
681.500	426.037	80.009	19.994	104.322	18.624	107.289	0.539
682.000	426.305	80.008	19.995	104.337	18.606	108.621	0.528
682.500	426.534	80.011	19.993	104.361	18.589	109.890	0.513
683.000	426.775	80.011	19.994	104.379	18.567	111.444	0.483
683.500	427.011	80.011	19.995	104.393	18.554	112.411	0.474
684.000	427.255	80.010	19.993	104.399	18.534	113.895	0.479
684.500	427.585	80.009	19.993	104.401	18.516	115.206	0.527
685.000	427.818	80.008	19.994	104.399	18.501	116.292	0.569
685.500	428.054	80.009	19.993	104.395	18.485	117.420	0.516
686.000	428.314	80.009	19.997	104.389	18.467	118.799	0.483
686.500	428.534	80.010	19.995	104.383	18.450	120.029	0.488
687.000	428.819	80.011	19.993	104.387	18.436	121.030	0.492
687.500	429.057	80.009	19.995	104.388	18.418	122.333	0.514
688.000	429.307	80.010	19.993	104.386	18.406	123.177	0.505
688.500	429.604	80.010	19.992	104.392	18.392	124.199	0.518
689.000	429.887	80.010	19.994	104.399	18.381	125.013	0.564
689.500	430.130	80.009	19.992	104.396	18.364	126.194	0.553
690.000	430.374	80.010	19.995	104.397	18.350	127.188	0.507
690.500	430.603	80.009	19.994	104.403	18.334	128.320	0.480
691.000	430.874	80.008	19.994	104.411	18.318	129.459	0.486
691.500	431.117	80.008	19.995	104.424	18.302	130.607	0.507
692.000	431.376	80.008	19.993	104.442	18.287	131.692	0.508
692.500	431.658	80.009	19.995	104.460	18.269	133.004	0.521
693.000	431.880	80.010	19.994	104.479	18.249	134.396	0.522
693.500	432.111	80.011	19.994	104.496	18.229	135.863	0.479
694.000	432.360	80.006	19.994	104.509	18.209	137.306	0.467
694.500	432.617	80.008	19.994	104.520	18.185	139.074	0.493
695.000	432.906	80.010	19.993	104.534	18.160	140.944	0.526
695.500	433.166	80.008	19.994	104.546	18.137	142.618	0.548
696.000	433.427	80.010	19.994	104.555	18.108	144.753	0.535
696.500	433.706	80.009	19.994	104.566	18.086	146.387	0.530
697.000	433.941	80.010	19.994	104.587	18.062	148.105	0.527
697.500	434.225	80.007	19.995	104.605	18.040	149.700	0.516
698.000	434.456	80.010	19.993	104.609	18.019	151.257	0.517
698.500	434.713	80.008	19.996	104.609	17.999	152.683	0.501
699.000	435.025	80.009	19.992	104.611	17.981	153.975	0.528
699.500	435.222	80.009	19.994	104.600	17.962	155.389	0.539
700.000	435.480	80.008	19.994	104.589	17.945	156.622	0.482
700.500	435.750	80.009	19.993	104.584	17.932	157.526	0.492
701.000	435.987	80.009	19.993	104.575	17.918	158.536	0.518
701.500	436.286	80.008	19.995	104.562	17.898	160.045	0.522
702.000	436.487	80.006	19.994	104.548	17.887	160.789	0.518
702.500	436.770	80.008	19.994	104.535	17.870	162.017	0.491
703.000	437.006	80.009	19.995	104.533	17.858	162.903	0.501
703.500	437.300	80.009	19.995	104.532	17.843	164.020	0.525
704.000	437.540	80.009	19.994	104.530	17.828	165.130	0.532
704.500	437.791	80.009	19.994	104.533	17.816	165.952	0.512
705.000	438.059	80.008	19.995	104.547	17.804	166.870	0.506
705.500	438.326	80.009	19.995	104.559	17.792	167.731	0.528
706.000	438.596	80.010	19.995	104.583	17.779	168.695	0.536
706.500	438.793	80.011	19.993	104.611	17.771	169.253	0.502
707.000	439.122	80.012	19.994	104.638	17.762	169.913	0.496
707.500	439.335	80.010	19.995	104.654	17.749	170.794	0.534
708.000	439.609	80.009	19.994	104.668	17.741	171.378	0.514
708.500	439.865	80.010	19.994	104.676	17.732	172.025	0.509
709.000	440.147	80.010	19.993	104.681	17.720	172.922	0.534
709.500	440.359	80.010	19.994	104.683	17.712	173.489	0.516
710.000	440.642	80.011	19.996	104.684	17.706	173.955	0.494
710.500	440.883	80.010	19.998	104.688	17.691	175.008	0.509
711.000	441.160	80.010	19.995	104.690	17.681	175.749	0.521
711.500	441.411	80.010	19.994	104.690	17.677	176.066	0.523
712.000	441.677	80.010	19.995	104.694	17.669	176.644	0.523
712.500	441.922	80.009	19.994	104.698	17.658	177.393	0.514
713.000	442.177	80.009	19.995	104.699	17.650	178.008	0.506
713.500	442.457	80.010	19.994	104.704	17.643	178.523	0.518
714.000	442.712	80.009	19.995	104.713	17.635	179.105	0.535
714.500	442.926	80.011	19.995	104.718	17.625	179.792	0.502
715.000	443.167	80.010	19.994	104.721	17.615	180.534	0.461
715.500	443.415	80.012	19.993	104.725	17.610	180.930	0.472
716.000	443.683	80.009	19.994	104.727	17.600	181.596	0.503
716.500	443.946	80.011	19.993	104.726	17.594	182.088	0.524
717.000	444.192	80.011	19.995	104.726	17.587	182.514	0.520
717.500	444.425	80.009	19.993	104.725	17.582	182.885	0.494
718.000	444.689	80.010	19.993	104.725	17.577	183.264	0.488
718.500	444.942	80.010	19.993	104.724	17.569	183.816	0.507
719.000	445.179	80.011	19.994	104.724	17.568	183.928	0.504
719.500	445.446	80.009	19.995	104.724	17.563	184.280	0.497
720.000	445.711	80.009	19.994	104.724	17.558	184.573	0.518
720.500	445.955	80.009	19.993	104.724	17.555	184.782	0.521
721.000	446.232	80.009	19.992	104.724	17.553	184.978	0.515
721.500	446.519	80.011	19.993	104.725	17.550	185.173	0.542
722.000	446.718	80.009	19.994	104.729	17.547	185.375	0.525
722.500	446.997	80.009	19.993	104.729	17.549	185.212	0.482
723.000	447.256	80.007	19.994	104.730	17.547	185.404	0.508
723.500	447.529	80.008	19.991	104.733	17.545	185.484	0.535
724.000	447.732	80.010	19.994	104.733	17.546	185.401	0.504
724.500	447.989	80.010	19.994	104.730	17.545	185.464	0.468
725.000	448.228	80.011	19.995	104.736	17.547	185.311	0.478
725.500	448.524	80.011	19.992	104.740	17.550	185.132	0.516
726.000	448.766	80.011	19.993	104.741	17.552	184.951	0.536
726.500	449.015	80.010	19.994	104.744	17.556	184.608	0.514
727.000	449.277	80.010	19.994	104.743	17.563	184.119	0.501
727.500	449.571	80.010	19.993	104.738	17.569	183.650	0.533
728.000	449.816	80.011	19.993	104.732	17.573	183.368	0.547
728.500	450.030	80.011	19.992	104.729	17.580	182.853	0.499
729.000	450.327	80.010	19.993	104.724	17.589	182.168	0.485
729.500	450.597	80.011	19.991	104.722	17.595	181.750	0.539
730.000	450.852	80.011	19.993	104.721	17.605	181.019	0.547
730.500	451.077	80.011	19.992	104.715	17.613	180.441	0.503
731.000	451.354	80.010	19.993	104.708	17.627	179.420	0.491
731.500	451.574	80.009	19.993	104.705	17.637	178.613	0.499
732.000	451.850	80.008	19.993	104.703	17.650	177.697	0.496
732.500	452.085	80.012	19.993	104.698	17.662	176.811	0.504
733.000	452.361	80.011	19.994	104.696	17.675	175.887	0.511
733.500	452.614	80.011	19.993	104.696	17.690	174.774	0.520
734.000	452.835	80.010	19.993	104.691	17.706	173.631	0.501
734.500	453.111	80.012	19.994	104.687	17.723	172.373	0.486
735.000	453.366	80.011	19.994	104.681	17.738	171.292	0.514
735.500	453.602	80.011	19.993	104.676	17.754	170.116	0.511
736.000	453.885	80.012	19.994	104.668	17.770	168.897	0.505
736.501	454.129	80.011	19.993	104.660	17.788	167.570	0.523
737.000	454.350	80.009	19.994	104.653	17.808	166.184	0.496
737.500	454.632	80.011	19.993	104.648	17.831	164.487	0.484
738.000	454.839	80.012	19.992	104.640	17.848	163.203	0.496
738.500	455.102	80.010	19.994	104.632	17.870	161.655	0.480
739.000	455.371	80.013	19.993	104.625	17.892	160.033	0.502
739.500	455.640	80.012	19.993	104.617	17.916	158.284	0.535
740.000	455.867	80.011	19.992	104.607	17.934	156.977	0.517
740.500	456.163	80.010	19.995	104.599	17.958	155.231	0.510
741.000	456.389	80.011	19.993	104.591	17.979	153.670	0.522
741.500	456.628	80.012	19.993	104.582	18.004	151.903	0.493
742.000	456.893	80.009	19.992	104.573	18.028	150.113	0.484
742.500	457.125	80.010	19.994	104.562	18.054	148.249	0.501
743.000	457.394	80.009	19.994	104.558	18.076	146.659	0.499
743.500	457.654	80.010	19.993	104.551	18.107	144.389	0.515
744.000	457.892	80.009	19.993	104.544	18.131	142.644	0.514
744.500	458.145	80.008	19.996	104.536	18.159	140.652	0.495
745.000	458.379	80.009	19.993	104.529	18.184	138.822	0.489
745.500	458.689	80.009	19.994	104.517	18.212	136.835	0.516
746.000	458.948	80.009	19.994	104.507	18.240	134.815	0.556
746.500	459.163	80.009	19.993	104.499	18.266	132.915	0.521
747.000	459.425	80.012	19.993	104.485	18.290	131.169	0.476
747.500	459.656	80.008	19.993	104.474	18.321	128.927	0.485
748.000	459.896	80.010	19.994	104.465	18.352	126.710	0.482
748.500	460.148	80.009	19.994	104.458	18.385	124.296	0.481
749.000	460.424	80.009	19.994	104.447	18.413	122.259	0.510
749.500	460.652	80.010	19.993	104.438	18.450	119.567	0.516
750.000	460.853	80.010	19.994	104.430	18.481	117.340	0.466
750.500	461.118	80.009	19.993	104.417	18.515	114.921	0.448
751.000	461.343	80.009	19.993	104.403	18.548	112.494	0.478
751.500	461.607	80.009	19.995	104.390	18.582	110.086	0.489
752.000	461.865	80.010	19.996	104.381	18.613	107.811	0.505
752.500	462.112	80.012	19.993	104.370	18.646	105.446	0.514
753.000	462.375	80.011	19.993	104.360	18.678	103.109	0.508
753.500	462.646	80.008	19.994	104.351	18.715	100.485	0.522
754.000	462.899	80.010	19.994	104.344	18.746	98.217	0.529
754.500	463.083	80.009	19.991	104.336	18.780	95.754	0.481
755.000	463.332	80.011	19.995	104.332	18.812	93.442	0.435
755.500	463.577	80.010	19.993	104.326	18.848	90.894	0.463
756.000	463.808	80.009	19.993	104.320	18.878	88.680	0.485
756.500	464.094	80.008	19.995	104.312	18.907	86.608	0.497
757.000	464.325	80.011	19.994	104.305	18.937	84.418	0.517
757.500	464.574	80.010	19.996	104.293	18.966	82.352	0.499
758.000	464.810	80.009	19.995	104.283	18.995	80.302	0.482
758.500	465.018	80.009	19.993	104.276	19.024	78.158	0.464
759.000	465.298	80.009	19.990	104.269	19.052	76.199	0.466
759.500	465.525	80.010	19.994	104.261	19.077	74.392	0.498
760.000	465.760	80.011	19.994	104.253	19.103	72.472	0.485
760.500	466.007	80.009	19.993	104.244	19.128	70.681	0.472
761.000	466.245	80.009	19.992	104.234	19.155	68.787	0.483
761.500	466.495	80.010	19.993	104.224	19.183	66.746	0.486
762.000	466.738	80.010	19.993	104.212	19.206	65.052	0.491
762.500	466.983	80.011	19.994	104.201	19.230	63.359	0.491
763.000	467.222	80.009	19.993	104.193	19.255	61.548	0.486
763.500	467.489	80.010	19.995	104.184	19.278	59.900	0.495
764.000	467.731	80.010	19.993	104.176	19.301	58.240	0.507
764.500	467.995	80.010	19.993	104.170	19.319	56.968	0.507
765.000	468.251	80.010	19.994	104.163	19.343	55.227	0.513
765.500	468.482	80.011	19.993	104.156	19.361	53.936	0.504
766.000	468.666	80.010	19.995	104.149	19.385	52.192	0.451
766.500	468.954	80.010	19.993	104.139	19.404	50.807	0.443
767.000	469.200	80.010	19.995	104.127	19.424	49.431	0.503
767.500	469.454	80.009	19.994	104.118	19.439	48.301	0.517
768.000	469.679	80.010	19.996	104.110	19.456	47.136	0.489
768.500	469.940	80.011	19.994	104.103	19.475	45.736	0.482
769.000	470.188	80.009	19.994	104.097	19.492	44.534	0.498
769.500	470.448	80.010	19.996	104.096	19.504	43.640	0.509
770.000	470.696	80.008	19.995	104.096	19.519	42.597	0.508
770.500	470.954	80.010	19.995	104.092	19.535	41.406	0.507
771.000	471.167	80.009	19.997	104.084	19.548	40.482	0.488
771.500	471.391	80.012	19.995	104.077	19.566	39.198	0.454
772.000	471.636	80.010	19.994	104.070	19.580	38.223	0.453
772.500	471.925	80.011	19.994	104.061	19.596	37.022	0.502
773.000	472.150	80.008	19.995	104.055	19.607	36.221	0.524
773.500	472.385	80.007	19.991	104.048	19.618	35.426	0.487
774.000	472.637	80.008	19.996	104.041	19.629	34.656	0.473
774.500	472.856	80.009	19.994	104.034	19.640	33.899	0.479
775.000	473.129	80.010	19.994	104.028	19.653	32.929	0.482
775.500	473.392	80.009	19.993	104.022	19.664	32.162	0.515
776.000	473.671	80.008	19.995	104.019	19.678	31.173	0.539
776.500	473.904	80.008	19.996	104.018	19.686	30.605	0.527
777.000	474.151	80.009	19.995	104.016	19.696	29.839	0.496
777.500	474.411	80.008	19.993	104.014	19.706	29.148	0.494
778.000	474.666	80.008	19.994	104.007	19.715	28.471	0.511
778.500	474.916	80.009	19.995	104.003	19.725	27.812	0.510
779.000	475.160	80.009	19.994	103.996	19.733	27.230	0.499
779.500	475.434	80.008	19.993	103.990	19.741	26.661	0.506
780.000	475.703	80.009	19.994	103.985	19.748	26.155	0.530
780.500	475.954	80.009	19.995	103.984	19.756	25.584	0.532
781.000	476.191	80.008	19.994	103.984	19.764	25.004	0.505
781.500	476.440	80.009	19.995	103.984	19.768	24.655	0.487
782.000	476.698	80.009	19.996	103.983	19.778	23.940	0.496
782.500	476.929	80.009	19.993	103.981	19.787	23.351	0.498
783.001	477.164	80.008	19.995	103.976	19.794	22.834	0.478
783.500	477.418	80.009	19.994	103.970	19.799	22.460	0.478
784.000	477.644	80.008	19.995	103.964	19.805	22.041	0.484
784.500	477.908	80.011	19.994	103.964	19.811	21.622	0.485
785.000	478.164	80.009	19.993	103.963	19.821	20.868	0.505
785.500	478.412	80.009	19.993	103.962	19.825	20.569	0.512
786.000	478.667	80.010	19.993	103.959	19.833	20.014	0.504
786.500	478.951	80.010	19.994	103.958	19.836	19.823	0.521
787.000	479.204	80.010	19.995	103.951	19.843	19.282	0.538
787.500	479.437	80.010	19.994	103.947	19.851	18.715	0.512
788.000	479.655	80.010	19.995	103.945	19.855	18.422	0.469
788.500	479.925	80.011	19.994	103.947	19.858	18.234	0.469
789.000	480.189	80.009	19.994	103.947	19.863	17.845	0.511
789.500	480.433	80.010	19.994	103.947	19.867	17.550	0.521
790.000	480.704	80.010	19.995	103.946	19.871	17.328	0.511
790.500	480.964	80.011	19.992	103.945	19.876	16.946	0.523
791.000	481.207	80.010	19.994	103.943	19.881	16.558	0.517
791.500	481.497	80.011	19.993	103.942	19.885	16.284	0.518
792.000	481.721	80.010	19.996	103.937	19.893	15.736	0.524
792.500	482.001	80.011	19.994	103.935	19.895	15.554	0.509
793.000	482.253	80.010	19.993	103.930	19.902	15.092	0.518
793.500	482.489	80.010	19.993	103.924	19.902	15.050	0.510
794.000	482.730	80.010	19.993	103.919	19.905	14.854	0.482
794.501	482.998	80.010	19.993	103.917	19.912	14.336	0.493
795.000	483.213	80.011	19.994	103.916	19.915	14.156	0.496
795.500	483.492	80.009	19.994	103.917	19.916	14.038	0.489
796.000	483.744	80.010	19.995	103.915	19.920	13.806	0.512
796.500	483.987	80.010	19.994	103.915	19.925	13.444	0.513
797.000	484.272	80.009	19.995	103.914	19.930	13.077	0.511
797.500	484.514	80.008	19.995	103.910	19.932	12.880	0.527
798.000	484.782	80.009	19.994	103.906	19.937	12.581	0.518
798.500	485.010	80.009	19.994	103.907	19.943	12.120	0.503
799.000	485.320	80.010	19.995	103.906	19.942	12.177	0.517
799.500	485.577	80.010	19.995	103.905	19.946	11.934	0.553
800.000	485.828	80.009	19.994	103.904	19.947	11.866	0.538
800.500	486.088	80.008	19.995	103.903	19.952	11.494	0.510
801.000	486.325	80.009	19.995	103.902	19.957	11.144	0.504
801.500	486.615	80.008	19.995	103.903	19.959	10.981	0.512
802.000	486.877	80.009	19.993	103.903	19.961	10.833	0.539
802.500	487.101	80.009	19.993	103.904	19.965	10.571	0.519
803.000	487.371	80.008	19.995	103.905	19.964	10.647	0.490
803.500	487.585	80.009	19.995	103.905	19.966	10.470	0.488
804.000	487.893	80.009	19.994	103.904	19.974	9.932	0.502
804.500	488.125	80.009	19.994	103.903	19.973	9.973	0.531
805.000	488.412	80.009	19.996	103.900	19.977	9.696	0.530
805.500	488.646	80.010	19.994	103.898	19.980	9.496	0.520
806.000	488.931	80.010	19.996	103.896	19.979	9.569	0.520
806.500	489.200	80.008	19.996	103.889	19.984	9.217	0.536
807.000	489.444	80.010	19.995	103.882	19.990	8.750	0.534
807.500	489.683	80.009	19.994	103.877	19.992	8.649	0.498
808.000	489.995	80.009	19.995	103.871	19.993	8.528	0.517
808.500	490.241	80.010	19.994	103.864	19.994	8.480	0.555
809.000	490.518	80.010	19.994	103.863	19.996	8.312	0.540
809.500	490.785	80.010	19.994	103.862	19.996	8.353	0.533
810.000	491.016	80.010	19.994	103.862	19.999	8.088	0.521
810.500	491.303	80.011	19.994	103.861	20.001	7.951	0.508
811.000	491.545	80.011	19.994	103.862	20.002	7.880	0.524
811.500	491.840	80.010	19.994	103.861	20.006	7.584	0.533
812.000	492.058	80.009	19.994	103.861	20.009	7.420	0.525
812.500	492.314	80.011	19.993	103.860	20.007	7.556	0.494
813.000	492.637	80.011	19.995	103.861	20.012	7.178	0.527
813.500	492.877	80.011	19.993	103.861	20.011	7.231	0.571
814.000	493.132	80.013	19.993	103.861	20.014	7.025	0.529
814.500	493.408	80.011	19.994	103.861	20.015	6.948	0.513
815.000	493.695	80.012	19.994	103.862	20.015	6.969	0.547
815.500	493.949	80.012	19.993	103.862	20.019	6.664	0.552
816.000	494.223	80.012	19.992	103.861	20.020	6.585	0.535
816.500	494.460	80.011	19.994	103.861	20.021	6.545	0.520
817.000	494.722	80.011	19.993	103.860	20.023	6.365	0.505
817.500	494.998	80.012	19.994	103.859	20.026	6.186	0.518
818.000	495.244	80.011	19.992	103.859	20.027	6.131	0.530
818.500	495.512	80.012	19.992	103.860	20.023	6.384	0.518
819.000	495.806	80.012	19.992	103.860	20.028	6.054	0.538
819.500	496.038	80.013	19.993	103.857	20.030	5.893	0.544
820.000	496.322	80.010	19.993	103.856	20.032	5.767	0.521
820.500	496.574	80.012	19.994	103.856	20.029	5.931	0.526
821.000	496.867	80.011	19.994	103.854	20.030	5.859	0.540
821.500	497.132	80.013	19.993	103.852	20.034	5.634	0.551
822.000	497.389	80.012	19.994	103.850	20.033	5.660	0.540
822.500	497.648	80.011	19.994	103.845	20.032	5.737	0.519
823.000	497.923	80.011	19.993	103.842	20.037	5.361	0.525
823.500	498.174	80.010	19.995	103.836	20.036	5.476	0.530
824.000	498.381	80.011	19.993	103.832	20.038	5.347	0.492
824.500	498.660	80.010	19.993	103.831	20.040	5.145	0.472
825.000	498.935	80.011	19.993	103.836	20.041	5.069	0.520
825.500	499.190	80.010	19.993	103.839	20.043	4.966	0.542
826.000	499.436	80.010	19.993	103.845	20.043	4.986	0.515
826.500	499.701	80.010	19.995	103.847	20.041	5.071	0.506
827.001	499.952	80.009	19.993	103.850	20.043	4.923	0.513
827.500	500.215	80.009	19.993	103.846	20.045	4.810	0.515
828.000	500.472	80.010	19.994	103.842	20.046	4.743	0.518
828.500	500.763	80.011	19.993	103.839	20.043	4.957	0.534
829.000	500.997	80.007	19.993	103.840	20.045	4.814	0.536
829.500	501.271	80.008	19.995	103.839	20.047	4.665	0.516
830.000	501.557	80.009	19.995	103.838	20.047	4.659	0.534
830.500	501.821	80.009	19.995	103.839	20.045	4.843	0.555
831.000	502.070	80.010	19.994	103.840	20.044	4.901	0.532
831.500	502.332	80.009	19.995	103.839	20.043	4.978	0.512
832.000	502.598	80.008	19.994	103.836	20.047	4.679	0.519
832.500	502.833	80.009	19.995	103.836	20.046	4.747	0.514
833.000	503.125	80.007	19.995	103.836	20.048	4.628	0.514
833.500	503.353	80.010	19.993	103.837	20.048	4.598	0.524
834.000	503.676	80.008	19.994	103.838	20.046	4.737	0.536
834.500	503.874	80.009	19.994	103.838	20.046	4.713	0.536
835.000	504.140	80.009	19.994	103.838	20.046	4.715	0.492
835.500	504.394	80.009	19.993	103.835	20.047	4.644	0.492
836.000	504.690	80.009	19.994	103.830	20.053	4.244	0.535
836.500	504.921	80.008	19.994	103.826	20.052	4.343	0.539
837.000	505.170	80.010	19.994	103.826	20.052	4.313	0.504
837.500	505.446	80.009	19.994	103.826	20.053	4.266	0.503
838.000	505.728	80.009	19.994	103.830	20.052	4.333	0.541
838.500	506.015	80.008	19.995	103.831	20.051	4.349	0.564
839.000	506.271	80.009	19.994	103.832	20.050	4.428	0.556
839.500	506.541	80.010	19.993	103.832	20.049	4.497	0.534
840.000	506.816	80.008	19.993	103.831	20.052	4.343	0.535
840.500	507.041	80.010	19.994	103.826	20.055	4.089	0.523
841.000	507.283	80.008	19.994	103.825	20.054	4.196	0.484
841.500	507.543	80.010	19.993	103.825	20.057	3.953	0.485
842.000	507.840	80.009	19.993	103.826	20.055	4.099	0.530
842.500	508.089	80.009	19.993	103.828	20.057	3.949	0.551
843.000	508.367	80.010	19.994	103.830	20.056	3.992	0.537
843.500	508.605	80.011	19.993	103.831	20.056	4.024	0.522
844.000	508.906	80.009	19.993	103.831	20.056	4.034	0.527
844.500	509.132	80.009	19.993	103.831	20.055	4.081	0.533
845.000	509.343	80.010	19.994	103.829	20.053	4.224	0.482
845.500	509.620	80.009	19.993	103.827	20.054	4.175	0.463
846.000	509.889	80.009	19.992	103.827	20.053	4.260	0.517
846.500	510.178	80.009	19.993	103.827	20.057	3.945	0.552
847.000	510.396	80.010	19.993	103.828	20.055	4.070	0.533
847.500	510.670	80.009	19.994	103.827	20.057	3.979	0.499
848.000	510.932	80.010	19.993	103.828	20.057	3.923	0.514
848.500	511.214	80.010	19.994	103.828	20.057	3.971	0.540
849.000	511.450	80.010	19.994	103.827	20.055	4.105	0.531
849.500	511.695	80.009	19.994	103.827	20.056	4.040	0.500
850.000	511.971	80.009	19.993	103.826	20.055	4.089	0.501
850.500	512.248	80.009	19.994	103.823	20.057	3.976	0.537
851.000	512.478	80.009	19.992	103.824	20.057	3.937	0.530
851.500	512.782	80.009	19.994	103.824	20.060	3.711	0.521
852.001	513.029	80.010	19.994	103.824	20.059	3.808	0.542
852.500	513.268	80.009	19.993	103.825	20.057	3.978	0.518
853.000	513.560	80.009	19.993	103.828	20.056	4.014	0.508
853.500	513.790	80.009	19.994	103.827	20.059	3.785	0.526
854.000	514.049	80.009	19.993	103.826	20.058	3.911	0.505
854.500	514.304	80.008	19.992	103.825	20.058	3.862	0.502
855.001	514.582	80.009	19.994	103.825	20.059	3.781	0.524
855.500	514.848	80.008	19.993	103.826	20.058	3.895	0.538
856.000	515.132	80.009	19.993	103.827	20.057	3.961	0.547
856.500	515.371	80.008	19.993	103.828	20.056	4.038	0.536
857.000	515.659	80.010	19.992	103.828	20.058	3.913	0.525
857.500	515.917	80.008	19.994	103.828	20.058	3.877	0.536
858.000	516.167	80.009	19.994	103.828	20.059	3.784	0.527
858.500	516.397	80.010	19.994	103.827	20.059	3.832	0.494
859.000	516.646	80.007	19.994	103.828	20.060	3.765	0.479
859.500	516.911	80.008	19.991	103.828	20.058	3.876	0.497
860.000	517.189	80.008	19.993	103.829	20.058	3.891	0.529
860.500	517.485	80.008	19.994	103.828	20.057	3.980	0.558
861.000	517.720	80.008	19.994	103.823	20.055	4.089	0.552
861.500	517.976	80.009	19.994	103.819	20.057	3.923	0.511
862.000	518.241	80.008	19.993	103.819	20.057	3.917	0.507
862.500	518.523	80.008	19.994	103.818	20.061	3.695	0.534
863.000	518.743	80.008	19.994	103.819	20.058	3.877	0.524
863.500	518.968	80.008	19.994	103.825	20.059	3.840	0.473
864.000	519.254	80.009	19.993	103.826	20.061	3.666	0.478
864.500	519.495	80.008	19.995	103.827	20.063	3.505	0.519
865.000	519.758	80.010	19.995	103.827	20.059	3.776	0.516
865.500	520.060	80.008	19.993	103.827	20.061	3.687	0.535
866.000	520.284	80.007	19.994	103.827	20.062	3.628	0.546
866.500	520.575	80.008	19.993	103.828	20.058	3.858	0.520
867.000	520.831	80.009	19.995	103.827	20.061	3.666	0.531
867.500	521.087	80.008	19.993	103.825	20.059	3.777	0.530
868.000	521.335	80.010	19.993	103.825	20.059	3.792	0.508
868.501	521.622	80.009	19.994	103.824	20.061	3.658	0.520
869.001	521.843	80.009	19.995	103.824	20.057	3.925	0.522
869.501	522.110	80.010	19.995	103.825	20.061	3.675	0.497
870.000	522.375	80.009	19.993	103.826	20.063	3.519	0.510
870.500	522.630	80.009	19.996	103.825	20.064	3.454	0.526
871.000	522.904	80.010	19.995	103.825	20.061	3.663	0.524
871.500	523.156	80.011	19.992	103.824	20.062	3.626	0.528
872.000	523.437	80.010	19.993	103.824	20.061	3.673	0.530
872.500	523.660	80.010	19.994	103.824	20.062	3.614	0.518
873.000	523.947	80.010	19.993	103.824	20.063	3.515	0.507
873.500	524.201	80.010	19.994	103.824	20.065	3.382	0.525
874.000	524.474	80.010	19.995	103.822	20.063	3.555	0.534
874.500	524.719	80.010	19.994	103.822	20.066	3.341	0.523
875.000	525.000	80.011	19.994	103.822	20.063	3.557	0.522
875.500	525.249	80.011	19.993	103.821	20.066	3.337	0.528
876.000	525.491	80.011	19.995	103.820	20.063	3.523	0.511
876.500	525.757	80.010	19.994	103.822	20.064	3.477	0.499
877.000	526.016	80.010	19.993	103.822	20.065	3.406	0.516
877.500	526.309	80.011	19.993	103.823	20.063	3.493	0.538
878.000	526.575	80.010	19.994	103.824	20.063	3.515	0.556
878.500	526.857	80.010	19.993	103.823	20.063	3.556	0.554
879.000	527.102	80.010	19.994	103.820	20.062	3.586	0.538
879.500	527.380	80.011	19.993	103.819	20.061	3.640	0.525
880.000	527.623	80.013	19.994	103.819	20.059	3.780	0.522
880.500	527.929	80.010	19.993	103.818	20.064	3.432	0.535
881.000	528.185	80.012	19.993	103.817	20.063	3.497	0.555
881.500	528.412	80.010	19.994	103.819	20.063	3.531	0.522
882.000	528.694	80.010	19.994	103.817	20.060	3.755	0.496
882.500	528.979	80.010	19.995	103.813	20.058	3.879	0.538
883.000	529.231	80.009	19.993	103.809	20.061	3.644	0.552
883.500	529.497	80.011	19.994	103.809	20.060	3.709	0.527
884.000	529.792	80.010	19.994	103.812	20.056	4.037	0.539
884.500	530.030	80.010	19.993	103.814	20.059	3.835	0.547
885.000	530.322	80.011	19.995	103.818	20.057	3.956	0.532
885.500	530.558	80.010	19.994	103.823	20.056	3.988	0.529
886.000	530.840	80.011	19.994	103.824	20.058	3.889	0.523
886.501	531.117	80.010	19.994	103.822	20.060	3.758	0.539
887.000	531.393	80.010	19.995	103.817	20.058	3.861	0.556
887.500	531.644	80.010	19.994	103.810	20.058	3.891	0.540
888.000	531.906	80.010	19.995	103.803	20.057	3.982	0.520
888.500	532.202	80.010	19.994	103.801	20.060	3.764	0.536
889.000	532.456	80.010	19.992	103.803	20.059	3.843	0.554
889.500	532.725	80.010	19.994	103.807	20.061	3.665	0.537
890.000	533.001	80.011	19.994	103.814	20.062	3.598	0.534
890.500	533.250	80.011	19.994	103.821	20.059	3.823	0.535
891.000	533.523	80.010	19.995	103.821	20.057	3.974	0.523
891.500	533.768	80.010	19.995	103.820	20.053	4.211	0.520
892.000	534.046	80.011	19.994	103.819	20.057	3.930	0.521
892.500	534.320	80.010	19.994	103.818	20.057	3.920	0.537
893.000	534.593	80.010	19.994	103.817	20.060	3.746	0.550
893.500	534.872	80.011	19.995	103.815	20.060	3.736	0.549
894.000	535.149	80.012	19.994	103.814	20.061	3.631	0.554
894.500	535.401	80.010	19.994	103.813	20.061	3.693	0.542
895.000	535.672	80.010	19.994	103.808	20.061	3.651	0.526
895.500	535.932	80.012	19.994	103.807	20.063	3.546	0.527
896.000	536.234	80.011	19.995	103.808	20.059	3.792	0.547
896.500	536.459	80.009	19.996	103.810	20.058	3.850	0.544
897.000	536.695	80.010	19.995	103.810	20.062	3.580	0.494
897.500	536.975	80.011	19.994	103.815	20.062	3.624	0.489
898.000	537.244	80.011	19.996	103.811	20.061	3.669	0.532
898.500	537.477	80.011	19.995	103.809	20.064	3.455	0.525
899.000	537.750	80.010	19.995	103.807	20.063	3.503	0.503
899.500	538.032	80.010	19.994	103.807	20.063	3.499	0.530
900.000	538.296	80.011	19.995	103.802	20.063	3.537	0.551
900.500	538.545	80.011	19.994	103.804	20.059	3.788	0.530
901.000	538.818	80.011	19.994	103.806	20.062	3.590	0.518
901.500	539.070	80.010	19.994	103.805	20.062	3.578	0.523
902.000	539.391	80.011	19.995	103.806	20.063	3.537	0.549
902.500	539.618	80.011	19.995	103.809	20.060	3.705	0.561
903.000	539.901	80.011	19.994	103.807	20.061	3.652	0.530
903.500	540.170	80.012	19.994	103.803	20.060	3.705	0.531
904.000	540.462	80.010	19.994	103.801	20.063	3.545	0.556
904.500	540.707	80.012	19.995	103.795	20.060	3.729	0.549
905.000	540.934	80.011	19.994	103.795	20.062	3.622	0.504
905.500	541.205	80.011	19.995	103.800	20.063	3.550	0.485
906.000	541.486	80.012	19.995	103.804	20.061	3.653	0.525
906.500	541.716	80.011	19.995	103.809	20.063	3.524	0.531
907.000	542.038	80.010	19.994	103.816	20.063	3.513	0.532
907.500	542.309	80.008	19.994	103.819	20.064	3.453	0.573
908.000	542.581	80.008	19.993	103.814	20.063	3.511	0.568
908.500	542.842	80.009	19.993	103.811	20.064	3.447	0.538
909.000	543.092	80.009	19.994	103.807	20.067	3.204	0.522
909.500	543.395	80.010	19.994	103.804	20.062	3.564	0.532
910.000	543.624	80.009	19.993	103.806	20.064	3.457	0.542
910.500	543.871	80.009	19.993	103.811	20.064	3.483	0.504
911.000	544.145	80.009	19.994	103.817	20.063	3.493	0.498
911.500	544.387	80.009	19.994	103.822	20.062	3.574	0.518
912.000	544.673	80.010	19.994	103.824	20.061	3.696	0.523
912.500	544.965	80.009	19.995	103.820	20.064	3.433	0.553
913.000	545.187	80.009	19.995	103.820	20.063	3.492	0.546
913.500	545.481	80.010	19.994	103.820	20.061	3.643	0.515
914.000	545.739	80.009	19.993	103.821	20.063	3.524	0.535
914.500	545.986	80.010	19.995	103.822	20.063	3.548	0.529
915.000	546.235	80.010	19.993	103.822	20.062	3.571	0.500
915.500	546.510	80.010	19.995	103.818	20.062	3.597	0.510
916.000	546.773	80.009	19.994	103.814	20.064	3.429	0.531
916.500	547.017	80.009	19.994	103.811	20.064	3.431	0.523
917.000	547.276	80.009	19.994	103.805	20.065	3.382	0.505
917.500	547.543	80.008	19.993	103.805	20.065	3.360	0.514
918.000	547.841	80.010	19.994	103.805	20.063	3.498	0.545
918.500	548.055	80.010	19.994	103.804	20.066	3.338	0.539
919.000	548.358	80.010	19.993	103.805	20.062	3.562	0.515
919.500	548.576	80.009	19.994	103.808	20.066	3.287	0.519
920.000	548.830	80.010	19.994	103.807	20.065	3.362	0.496
920.500	549.125	80.010	19.994	103.810	20.063	3.501	0.511
921.000	549.395	80.008	19.993	103.810	20.067	3.222	0.557
921.500	549.640	80.010	19.993	103.808	20.062	3.584	0.540
922.000	549.909	80.009	19.994	103.806	20.063	3.509	0.514
922.500	550.143	80.009	19.993	103.803	20.062	3.592	0.509
923.000	550.415	80.008	19.993	103.799	20.067	3.269	0.505
923.500	550.674	80.009	19.994	103.797	20.063	3.505	0.518
924.000	550.911	80.010	19.993	103.793	20.059	3.821	0.514
924.500	551.149	80.007	19.993	103.791	20.063	3.521	0.485
925.000	551.425	80.010	19.993	103.790	20.064	3.465	0.494
925.500	551.626	80.009	19.994	103.788	20.063	3.530	0.496
926.000	551.902	80.009	19.993	103.788	20.059	3.803	0.477
926.500	552.150	80.009	19.993	103.788	20.061	3.688	0.501
927.000	552.411	80.010	19.994	103.788	20.063	3.520	0.517
927.500	552.600	80.008	19.994	103.790	20.063	3.524	0.479
928.000	552.870	80.008	19.994	103.791	20.062	3.609	0.454
928.500	553.136	80.009	19.993	103.792	20.061	3.686	0.498
929.000	553.397	80.009	19.994	103.793	20.063	3.546	0.531
929.500	553.634	80.010	19.993	103.797	20.060	3.750	0.512
930.000	553.924	80.009	19.993	103.796	20.060	3.742	0.512
930.500	554.159	80.009	19.993	103.798	20.063	3.488	0.526
931.000	554.463	80.009	19.993	103.800	20.059	3.775	0.532
931.500	554.661	80.009	19.994	103.805	20.063	3.544	0.520
932.000	554.913	80.010	19.994	103.808	20.061	3.666	0.476
932.500	555.183	80.009	19.993	103.813	20.063	3.526	0.486
933.000	555.423	80.010	19.994	103.815	20.059	3.813	0.516
933.500	555.690	80.009	19.993	103.815	20.061	3.690	0.509
934.000	555.917	80.009	19.994	103.810	20.060	3.702	0.500
934.500	556.127	80.009	19.993	103.808	20.058	3.866	0.465
935.000	556.401	80.009	19.994	103.807	20.056	3.987	0.460
935.500	556.678	80.008	19.994	103.805	20.056	4.035	0.518
936.000	556.925	80.010	19.994	103.803	20.059	3.819	0.538
936.500	557.172	80.008	19.994	103.801	20.057	3.966	0.509
937.000	557.399	80.008	19.995	103.796	20.059	3.786	0.484
937.500	557.649	80.009	19.994	103.793	20.058	3.859	0.476
938.000	557.891	80.009	19.995	103.793	20.061	3.673	0.485
938.500	558.140	80.009	19.994	103.796	20.057	3.975	0.491
939.000	558.425	80.009	19.994	103.796	20.060	3.718	0.512
939.500	558.633	80.009	19.994	103.796	20.061	3.693	0.514
940.000	558.896	80.009	19.994	103.795	20.060	3.768	0.482
940.500	559.146	80.009	19.994	103.791	20.059	3.841	0.492
941.000	559.379	80.009	19.994	103.787	20.060	3.719	0.498
941.500	559.630	80.010	19.994	103.787	20.062	3.616	0.483
942.000	559.869	80.009	19.994	103.788	20.060	3.742	0.487
942.500	560.151	80.009	19.994	103.788	20.062	3.617	0.505
943.000	560.394	80.009	19.994	103.788	20.062	3.574	0.522
943.500	560.612	80.010	19.994	103.787	20.062	3.603	0.493
944.000	560.843	80.009	19.995	103.786	20.061	3.698	0.455
944.500	561.125	80.010	19.993	103.787	20.063	3.489	0.481
945.000	561.350	80.010	19.994	103.791	20.062	3.609	0.511
945.500	561.616	80.009	19.993	103.793	20.063	3.507	0.499
946.000	561.866	80.009	19.994	103.796	20.065	3.356	0.503
946.500	562.113	80.009	19.993	103.799	20.064	3.469	0.506
947.001	562.374	80.010	19.994	103.799	20.060	3.706	0.502
947.500	562.612	80.009	19.994	103.801	20.063	3.510	0.503
948.000	562.858	80.010	19.993	103.800	20.064	3.423	0.491
948.500	563.105	80.010	19.993	103.796	20.061	3.649	0.488
949.000	563.312	80.009	19.992	103.794	20.060	3.714	0.473
949.500	563.580	80.010	19.994	103.797	20.063	3.522	0.464
950.000	563.867	80.010	19.994	103.799	20.059	3.773	0.515
950.500	564.115	80.011	19.995	103.803	20.064	3.475	0.546
951.000	564.366	80.011	19.994	103.808	20.064	3.417	0.517
951.500	564.605	80.010	19.994	103.813	20.065	3.364	0.495
952.000	564.822	80.010	19.994	103.812	20.064	3.479	0.473
952.500	565.078	80.010	19.994	103.808	20.063	3.550	0.464
953.000	565.337	80.011	19.995	103.805	20.064	3.467	0.493
953.500	565.574	80.011	19.994	103.802	20.064	3.485	0.505
954.000	565.872	80.011	19.994	103.796	20.065	3.342	0.516
954.500	566.116	80.012	19.993	103.792	20.062	3.599	0.539
955.000	566.415	80.011	19.994	103.791	20.063	3.546	0.542
955.500	566.633	80.012	19.993	103.794	20.064	3.484	0.530
956.000	566.910	80.010	19.993	103.797	20.065	3.395	0.506
956.500	567.097	80.011	19.993	103.801	20.059	3.811	0.479
957.000	567.397	80.011	19.993	103.803	20.060	3.718	0.476
957.500	567.647	80.011	19.993	103.801	20.062	3.593	0.519
958.000	567.883	80.012	19.994	103.797	20.061	3.689	0.518
958.500	568.172	80.012	19.994	103.793	20.059	3.802	0.505
959.000	568.373	80.012	19.994	103.794	20.061	3.693	0.508
959.500	568.676	80.011	19.993	103.792	20.060	3.711	0.497
960.000	568.943	80.010	19.995	103.795	20.057	3.964	0.537
960.500	569.150	80.013	19.994	103.795	20.061	3.643	0.522
961.000	569.404	80.011	19.993	103.795	20.061	3.661	0.467
961.500	569.643	80.011	19.994	103.791	20.062	3.584	0.477
962.000	569.909	80.011	19.994	103.794	20.060	3.726	0.499
962.500	570.146	80.010	19.995	103.793	20.061	3.637	0.504
963.000	570.418	80.011	19.994	103.796	20.060	3.709	0.506
963.500	570.671	80.010	19.994	103.797	20.061	3.643	0.517
964.000	570.948	80.011	19.996	103.796	20.061	3.673	0.528
964.500	571.191	80.009	19.994	103.793	20.062	3.586	0.525
965.000	571.479	80.010	19.994	103.791	20.063	3.527	0.526
965.500	571.721	80.010	19.994	103.792	20.063	3.515	0.531
966.001	571.965	80.010	19.995	103.792	20.062	3.614	0.508
966.500	572.205	80.011	19.994	103.792	20.061	3.659	0.484
967.000	572.515	80.011	19.995	103.791	20.062	3.580	0.516
967.500	572.761	80.011	19.994	103.790	20.059	3.823	0.553
968.000	573.020	80.012	19.994	103.787	20.063	3.503	0.531
968.500	573.262	80.010	19.995	103.791	20.062	3.604	0.504
969.000	573.513	80.009	19.994	103.798	20.059	3.779	0.497
969.500	573.800	80.012	19.994	103.806	20.062	3.568	0.515
970.000	574.055	80.010	19.993	103.813	20.061	3.651	0.540
970.500	574.316	80.011	19.994	103.815	20.057	3.928	0.529
971.000	574.573	80.010	19.993	103.813	20.061	3.629	0.517
971.500	574.805	80.010	19.995	103.811	20.062	3.595	0.504
972.000	575.099	80.011	19.995	103.810	20.063	3.514	0.507
972.500	575.361	80.009	19.994	103.805	20.062	3.572	0.541
973.000	575.619	80.011	19.994	103.806	20.062	3.622	0.538
973.500	575.871	80.010	19.993	103.805	20.064	3.485	0.515
974.000	576.142	80.011	19.993	103.807	20.063	3.493	0.517
974.500	576.423	80.012	19.993	103.809	20.065	3.370	0.538
975.000	576.668	80.011	19.994	103.814	20.062	3.596	0.539
975.500	576.917	80.012	19.994	103.818	20.065	3.382	0.509
976.000	577.225	80.012	19.993	103.824	20.061	3.679	0.525
976.500	577.480	80.012	19.993	103.820	20.062	3.610	0.560
977.000	577.714	80.010	19.995	103.816	20.058	3.861	0.526
977.500	577.993	80.012	19.995	103.814	20.059	3.836	0.501
978.000	578.266	80.011	19.994	103.813	20.062	3.628	0.533
978.500	578.527	80.012	19.993	103.809	20.060	3.736	0.543
979.000	578.756	80.011	19.994	103.805	20.060	3.705	0.511
979.500	579.042	80.011	19.995	103.802	20.060	3.724	0.502
980.000	579.350	80.012	19.993	103.796	20.056	4.013	0.555
980.500	579.592	80.013	19.994	103.790	20.055	4.107	0.572
981.000	579.844	80.012	19.993	103.787	20.054	4.190	0.522
981.500	580.098	80.012	19.993	103.787	20.055	4.093	0.500
982.000	580.391	80.013	19.994	103.787	20.054	4.190	0.527
982.500	580.615	80.013	19.994	103.793	20.056	4.006	0.533
983.000	580.889	80.012	19.994	103.799	20.057	3.922	0.508
983.500	581.183	80.011	19.994	103.803	20.058	3.910	0.533
984.000	581.426	80.012	19.994	103.809	20.056	4.013	0.552
984.500	581.669	80.013	19.993	103.814	20.058	3.861	0.512
985.000	581.956	80.012	19.993	103.815	20.053	4.213	0.508
985.500	582.233	80.011	19.994	103.810	20.059	3.772	0.547
986.000	582.522	80.011	19.994	103.810	20.057	3.936	0.565
986.500	582.795	80.011	19.995	103.811	20.056	4.033	0.564
987.000	583.088	80.009	19.994	103.813	20.054	4.183	0.564
987.500	583.339	80.011	19.994	103.813	20.058	3.904	0.555
988.000	583.593	80.009	19.994	103.820	20.057	3.961	0.524
988.500	583.859	80.009	19.994	103.817	20.056	4.052	0.513
989.000	584.126	80.010	19.995	103.813	20.054	4.173	0.527
989.500	584.430	80.007	19.995	103.810	20.053	4.219	0.552
990.000	584.697	80.010	19.995	103.807	20.055	4.092	0.571
990.500	584.971	80.009	19.995	103.804	20.053	4.233	0.556
991.000	585.196	80.009	19.995	103.808	20.052	4.318	0.520
991.500	585.487	80.008	19.994	103.812	20.053	4.266	0.507
992.000	585.737	80.009	19.995	103.813	20.052	4.274	0.529
992.500	586.022	80.007	19.995	103.810	20.050	4.452	0.538
993.000	586.277	80.009	19.994	103.810	20.055	4.074	0.537
993.500	586.517	80.008	19.994	103.809	20.053	4.247	0.518
994.000	586.821	80.008	19.996	103.805	20.053	4.205	0.520
994.500	587.071	80.009	19.996	103.806	20.055	4.077	0.549
995.000	587.320	80.008	19.995	103.809	20.054	4.187	0.526
995.500	587.615	80.008	19.994	103.805	20.054	4.170	0.521
996.000	587.859	80.008	19.994	103.803	20.053	4.269	0.541
996.500	588.197	80.010	19.994	103.801	20.053	4.264	0.561
997.001	588.429	80.009	19.996	103.798	20.052	4.318	0.576
997.500	588.692	80.008	19.994	103.797	20.052	4.326	0.533
998.000	588.954	80.009	19.995	103.797	20.049	4.543	0.510
998.500	589.232	80.009	19.995	103.795	20.051	4.351	0.532
999.000	589.543	80.010	19.994	103.794	20.050	4.446	0.564
999.500	589.824	80.008	19.994	103.792	20.048	4.611	0.591
1000.000	590.015	80.008	19.994	103.795	20.049	4.512	0.532
1000.500	590.309	80.010	19.995	103.802	20.050	4.489	0.479
1001.000	590.538	80.009	19.994	103.806	20.051	4.394	0.504
1001.500	590.832	80.009	19.994	103.806	20.047	4.665	0.523
1002.000	591.095	80.010	19.994	103.806	20.049	4.522	0.540
1002.500	591.380	80.008	19.993	103.799	20.049	4.552	0.552
1003.000	591.623	80.009	19.995	103.793	20.048	4.585	0.537
1003.500	591.906	80.009	19.995	103.792	20.047	4.680	0.527
1004.000	592.172	80.009	19.994	103.795	20.048	4.615	0.538
1004.500	592.448	80.010	19.995	103.798	20.049	4.555	0.546
1005.000	592.724	80.010	19.995	103.804	20.050	4.486	0.547
1005.500	592.959	80.010	19.994	103.806	20.048	4.563	0.531
1006.000	593.255	80.009	19.994	103.805	20.049	4.557	0.521
1006.500	593.516	80.010	19.995	103.803	20.046	4.707	0.544
1007.000	593.791	80.010	19.994	103.804	20.048	4.616	0.546
1007.500	594.013	80.009	19.994	103.800	20.043	4.977	0.517
1008.000	594.336	80.010	19.994	103.797	20.050	4.436	0.521
1008.500	594.625	80.009	19.994	103.795	20.045	4.785	0.579
1009.000	594.878	80.009	19.993	103.795	20.046	4.745	0.577
1009.500	595.100	80.011	19.996	103.793	20.045	4.808	0.509
1010.000	595.375	80.009	19.997	103.797	20.045	4.812	0.486
1010.500	595.668	80.010	19.994	103.802	20.046	4.704	0.533
1011.000	595.921	80.010	19.994	103.808	20.046	4.736	0.557
1011.500	596.180	80.010	19.995	103.812	20.050	4.443	0.528
1012.000	596.457	80.009	19.995	103.814	20.048	4.617	0.524
1012.500	596.661	80.009	19.995	103.810	20.048	4.627	0.509
1013.000	596.964	80.010	19.994	103.812	20.049	4.544	0.494
1013.500	597.239	80.011	19.994	103.809	20.049	4.526	0.542
1014.001	597.499	80.009	19.994	103.806	20.049	4.536	0.556
1014.500	597.756	80.010	19.994	103.805	20.049	4.526	0.526
1015.000	598.022	80.010	19.994	103.805	20.049	4.544	0.520
1015.500	598.273	80.010	19.994	103.800	20.047	4.658	0.520
1016.000	598.530	80.010	19.994	103.800	20.049	4.492	0.513
1016.500	598.747	80.010	19.994	103.800	20.049	4.520	0.491
1017.001	599.035	80.009	19.995	103.796	20.049	4.544	0.489
1017.500	599.299	80.009	19.993	103.795	20.050	4.441	0.528
1018.000	599.513	80.009	19.994	103.795	20.047	4.670	0.515
1018.500	599.792	80.009	19.994	103.795	20.049	4.553	0.486
1019.000	600.058	80.009	19.994	103.793	20.045	4.840	0.519
1019.500	600.345	80.009	19.995	103.792	20.049	4.535	0.549
1020.000	600.579	80.010	19.995	103.795	20.047	4.690	0.537
1020.500	600.811	80.010	19.994	103.797	20.047	4.658	0.494
1021.000	601.077	80.009	19.994	103.795	20.047	4.640	0.482
1021.500	601.331	80.010	19.994	103.800	20.049	4.500	0.509
1022.000	601.600	80.009	19.995	103.807	20.048	4.611	0.522
1022.500	601.836	80.009	19.994	103.810	20.051	4.397	0.514
1023.000	602.051	80.008	19.994	103.809	20.046	4.727	0.478
1023.500	602.331	80.010	19.994	103.811	20.050	4.478	0.473
1024.000	602.594	80.010	19.994	103.811	20.049	4.557	0.519
1024.500	602.847	80.010	19.995	103.807	20.049	4.541	0.530
1025.000	603.097	80.009	19.995	103.800	20.047	4.666	0.509
1025.500	603.408	80.009	19.993	103.800	20.052	4.322	0.531
1026.001	603.623	80.009	19.994	103.801	20.048	4.617	0.544
1026.501	603.877	80.009	19.994	103.802	20.053	4.247	0.498
1027.000	604.126	80.009	19.994	103.803	20.049	4.508	0.486
1027.500	604.377	80.010	19.994	103.808	20.050	4.444	0.501
1028.001	604.649	80.010	19.994	103.806	20.050	4.454	0.512
1028.501	604.853	80.010	19.993	103.803	20.051	4.347	0.500
1029.001	605.134	80.010	19.995	103.798	20.049	4.547	0.480
1029.500	605.353	80.009	19.995	103.795	20.046	4.733	0.492
1030.000	605.635	80.010	19.994	103.791	20.047	4.686	0.501
1030.500	605.914	80.011	19.994	103.791	20.048	4.615	0.531
1031.000	606.140	80.010	19.994	103.792	20.046	4.759	0.533
1031.500	606.386	80.011	19.994	103.792	20.047	4.643	0.489
1032.000	606.614	80.010	19.994	103.795	20.049	4.532	0.473
1032.501	606.867	80.011	19.994	103.800	20.048	4.627	0.478
1033.001	607.102	80.011	19.995	103.801	20.050	4.470	0.484
1033.500	607.364	80.011	19.995	103.800	20.049	4.540	0.492
1034.000	607.618	80.010	19.994	103.799	20.046	4.720	0.507
1034.500	607.854	80.012	19.994	103.800	20.044	4.892	0.503
1035.000	608.116	80.011	19.994	103.800	20.048	4.575	0.494
1035.500	608.349	80.011	19.994	103.799	20.048	4.626	0.497
1036.000	608.601	80.011	19.993	103.801	20.047	4.664	0.490
1036.500	608.843	80.010	19.993	103.803	20.049	4.540	0.489
1037.000	609.080	80.012	19.994	103.804	20.047	4.645	0.487
1037.500	609.341	80.011	19.994	103.801	20.046	4.726	0.489
1038.000	609.615	80.011	19.993	103.799	20.049	4.506	0.516
1038.500	609.850	80.011	19.993	103.798	20.047	4.639	0.522
1039.000	610.089	80.012	19.994	103.795	20.047	4.694	0.491
1039.500	610.346	80.010	19.992	103.790	20.048	4.623	0.485
1040.000	610.596	80.012	19.994	103.792	20.047	4.702	0.501
1040.500	610.840	80.011	19.993	103.795	20.048	4.569	0.501
1041.000	611.089	80.010	19.993	103.798	20.045	4.805	0.494
1041.500	611.366	80.011	19.994	103.804	20.049	4.512	0.509
1042.000	611.602	80.011	19.994	103.807	20.050	4.433	0.519
1042.500	611.838	80.011	19.993	103.807	20.049	4.506	0.492
1043.000	612.074	80.011	19.993	103.809	20.048	4.612	0.472
1043.500	612.321	80.011	19.992	103.809	20.048	4.581	0.478
1044.000	612.571	80.012	19.994	103.805	20.049	4.495	0.490
1044.501	612.829	80.011	19.994	103.802	20.046	4.759	0.503
1045.001	613.077	80.011	19.994	103.801	20.050	4.444	0.507
1045.500	613.290	80.010	19.993	103.797	20.050	4.468	0.483
1046.000	613.593	80.011	19.993	103.795	20.049	4.529	0.488
1046.500	613.838	80.010	19.993	103.795	20.046	4.737	0.532
1047.000	614.044	80.011	19.992	103.799	20.047	4.686	0.499
1047.500	614.327	80.011	19.994	103.801	20.049	4.551	0.470
1048.000	614.553	80.011	19.994	103.804	20.047	4.660	0.499
1048.500	614.809	80.011	19.993	103.810	20.048	4.593	0.495
1049.000	615.062	80.012	19.993	103.810	20.050	4.441	0.495
1049.500	615.363	80.011	19.994	103.808	20.051	4.366	0.532
1050.000	615.590	80.011	19.995	103.807	20.050	4.421	0.541
1050.500	615.869	80.012	19.994	103.806	20.052	4.320	0.517
1051.000	616.090	80.009	19.994	103.805	20.049	4.529	0.503
1051.500	616.353	80.011	19.994	103.804	20.052	4.282	0.492
1052.000	616.614	80.009	19.993	103.804	20.050	4.484	0.504
1052.500	616.883	80.011	19.994	103.804	20.048	4.565	0.527
1053.000	617.089	80.011	19.994	103.801	20.049	4.496	0.503
1053.500	617.364	80.010	19.994	103.795	20.047	4.643	0.478
1054.000	617.614	80.010	19.993	103.792	20.047	4.698	0.503
1054.500	617.896	80.010	19.993	103.791	20.049	4.508	0.529
1055.000	618.112	80.012	19.994	103.788	20.048	4.567	0.515
1055.500	618.365	80.010	19.994	103.788	20.050	4.466	0.483
1056.001	618.644	80.010	19.994	103.788	20.052	4.314	0.500
1056.501	618.912	80.012	19.994	103.789	20.048	4.616	0.539
1057.000	619.154	80.011	19.993	103.790	20.050	4.466	0.529
1057.500	619.447	80.010	19.994	103.793	20.048	4.617	0.522
1058.000	619.695	80.011	19.993	103.795	20.047	4.672	0.538
1058.500	619.972	80.011	19.993	103.796	20.051	4.383	0.533
1059.000	620.205	80.010	19.993	103.802	20.046	4.745	0.518
1059.501	620.464	80.011	19.993	103.804	20.050	4.438	0.501
1060.001	620.713	80.011	19.993	103.804	20.049	4.489	0.500
1060.500	620.980	80.012	19.993	103.805	20.048	4.579	0.512
1061.000	621.211	80.012	19.994	103.803	20.045	4.784	0.507
1061.500	621.477	80.011	19.993	103.798	20.047	4.675	0.497
1062.000	621.722	80.011	19.994	103.793	20.047	4.642	0.504
1062.500	621.999	80.011	19.994	103.791	20.047	4.664	0.516
1063.000	622.235	80.012	19.993	103.793	20.049	4.497	0.517
1063.500	622.487	80.012	19.993	103.799	20.046	4.725	0.501
1064.000	622.773	80.012	19.994	103.803	20.048	4.561	0.513
1064.500	623.044	80.012	19.992	103.804	20.049	4.520	0.548
1065.001	623.304	80.011	19.992	103.803	20.052	4.296	0.544
1065.501	623.580	80.011	19.993	103.797	20.050	4.458	0.533
1066.000	623.823	80.012	19.994	103.794	20.052	4.315	0.527
1066.501	624.062	80.012	19.994	103.792	20.051	4.381	0.500
1067.001	624.317	80.011	19.994	103.794	20.051	4.359	0.488
1067.501	624.558	80.010	19.994	103.796	20.053	4.214	0.495
1068.001	624.824	80.013	19.994	103.799	20.050	4.424	0.502
1068.500	625.106	80.012	19.993	103.799	20.051	4.396	0.528
1069.001	625.360	80.009	19.993	103.795	20.058	3.900	0.542
1069.501	625.603	80.010	19.996	103.792	20.054	4.173	0.517
1070.000	625.871	80.009	19.995	103.792	20.053	4.224	0.504
1070.500	626.125	80.010	19.994	103.789	20.056	4.025	0.516
1071.000	626.416	80.011	19.994	103.787	20.054	4.173	0.533
1071.500	626.613	80.012	19.994	103.787	20.053	4.230	0.516
1072.000	626.905	80.009	19.995	103.788	20.055	4.129	0.489
1072.500	627.181	80.010	19.995	103.787	20.053	4.242	0.528
1073.000	627.433	80.010	19.994	103.787	20.056	3.997	0.548
1073.500	627.692	80.010	19.995	103.787	20.057	3.961	0.520
1074.000	627.932	80.010	19.994	103.789	20.055	4.119	0.506
1074.500	628.197	80.009	19.995	103.792	20.055	4.076	0.502
1075.001	628.418	80.010	19.994	103.794	20.053	4.234	0.495
1075.501	628.653	80.010	19.994	103.796	20.059	3.831	0.471
1076.001	628.967	80.010	19.994	103.795	20.055	4.129	0.503
1076.500	629.238	80.010	19.994	103.795	20.055	4.088	0.567
1077.000	629.468	80.009	19.995	103.790	20.057	3.950	0.543
1077.500	629.744	80.010	19.994	103.789	20.055	4.130	0.504
1078.000	629.993	80.010	19.994	103.787	20.058	3.890	0.516
1078.500	630.265	80.009	19.995	103.787	20.056	4.043	0.523
1079.000	630.538	80.010	19.994	103.787	20.056	4.039	0.533
1079.500	630.785	80.009	19.994	103.787	20.056	4.001	0.532
1080.000	631.069	80.009	19.994	103.787	20.054	4.151	0.525
1080.500	631.346	80.009	19.995	103.787	20.056	4.044	0.546
1081.000	631.580	80.009	19.994	103.789	20.058	3.850	0.536
1081.500	631.850	80.008	19.995	103.788	20.055	4.084	0.508
1082.000	632.076	80.009	19.994	103.789	20.058	3.906	0.500
1082.500	632.347	80.008	19.994	103.789	20.057	3.941	0.496
1083.001	632.648	80.009	19.995	103.789	20.056	4.026	0.534
1083.501	632.870	80.009	19.995	103.788	20.056	4.020	0.548
1084.000	633.141	80.010	19.995	103.787	20.055	4.058	0.508
1084.500	633.405	80.009	19.996	103.786	20.055	4.100	0.514
1085.000	633.660	80.009	19.993	103.786	20.056	4.030	0.527
1085.501	633.926	80.009	19.995	103.786	20.054	4.171	0.520
1086.001	634.224	80.009	19.995	103.786	20.057	3.920	0.543
1086.500	634.471	80.008	19.994	103.786	20.056	4.054	0.555
1087.000	634.750	80.008	19.995	103.788	20.056	3.989	0.535
1087.500	635.004	80.009	19.996	103.791	20.054	4.173	0.530
1088.000	635.268	80.010	19.995	103.794	20.060	3.754	0.526
1088.500	635.523	80.010	19.996	103.794	20.056	4.050	0.519
1089.000	635.774	80.011	19.996	103.797	20.057	3.985	0.512
1089.500	636.036	80.009	19.995	103.795	20.061	3.665	0.509
1090.000	636.311	80.010	19.995	103.793	20.057	3.957	0.525
1090.500	636.583	80.010	19.995	103.789	20.057	3.965	0.542
1091.000	636.871	80.010	19.997	103.791	20.058	3.857	0.553
1091.500	637.103	80.009	19.995	103.788	20.057	3.930	0.540
1092.000	637.347	80.010	19.995	103.787	20.058	3.851	0.498
1092.500	637.597	80.007	19.994	103.786	20.058	3.890	0.485
1093.000	637.867	80.010	19.995	103.786	20.059	3.829	0.507
1093.500	638.125	80.009	19.996	103.784	20.057	3.916	0.524
1094.000	638.422	80.011	19.995	103.784	20.060	3.736	0.542
1094.500	638.634	80.010	19.995	103.786	20.060	3.724	0.532
1095.000	638.929	80.011	19.994	103.786	20.058	3.856	0.507
1095.500	639.182	80.010	19.995	103.785	20.060	3.744	0.528
1096.000	639.437	80.009	19.995	103.786	20.060	3.704	0.529
1096.500	639.671	80.011	19.995	103.785	20.060	3.706	0.499
1097.000	639.951	80.010	19.994	103.785	20.062	3.575	0.501
1097.500	640.201	80.010	19.995	103.786	20.060	3.767	0.522
1098.000	640.440	80.010	19.994	103.788	20.060	3.768	0.510
1098.500	640.716	80.010	19.996	103.792	20.061	3.639	0.502
1099.000	640.957	80.010	19.994	103.793	20.057	3.916	0.516
1099.500	641.234	80.010	19.995	103.793	20.057	3.936	0.517
1100.000	641.480	80.010	19.994	103.792	20.058	3.876	0.521
1100.500	641.732	80.010	19.994	103.792	20.060	3.730	0.510
1101.001	642.030	80.010	19.994	103.789	20.059	3.789	0.524
1101.501	642.291	80.009	19.993	103.791	20.057	3.961	0.555
1102.000	642.536	80.010	19.993	103.797	20.062	3.613	0.533
1102.500	642.786	80.010	19.994	103.801	20.063	3.536	0.501
1103.000	643.057	80.010	19.994	103.801	20.062	3.566	0.508
1103.500	643.352	80.009	19.994	103.801	20.059	3.799	0.543
1104.000	643.617	80.010	19.994	103.800	20.064	3.441	0.562
1104.500	643.842	80.010	19.994	103.794	20.064	3.453	0.525
1105.000	644.107	80.010	19.994	103.791	20.060	3.726	0.491
1105.500	644.347	80.009	19.993	103.791	20.063	3.528	0.498
1106.000	644.623	80.008	19.994	103.791	20.062	3.564	0.511
1106.500	644.874	80.010	19.994	103.790	20.063	3.536	0.521
1107.000	645.128	80.009	19.994	103.791	20.062	3.558	0.516
1107.501	645.412	80.009	19.994	103.791	20.060	3.749	0.521
1108.001	645.622	80.010	19.994	103.790	20.059	3.813	0.516
1108.500	645.913	80.010	19.995	103.793	20.063	3.534	0.497
1109.000	646.147	80.009	19.993	103.794	20.060	3.700	0.513
1109.500	646.405	80.010	19.994	103.795	20.062	3.564	0.509
1110.000	646.657	80.010	19.995	103.797	20.061	3.635	0.501
1110.500	646.969	80.009	19.993	103.798	20.061	3.635	0.537
1111.000	647.176	80.009	19.995	103.796	20.062	3.615	0.542
1111.500	647.495	80.009	19.994	103.795	20.060	3.766	0.523
1112.000	647.721	80.009	19.994	103.794	20.060	3.704	0.535
1112.500	647.964	80.009	19.994	103.792	20.060	3.766	0.507
1113.000	648.217	80.011	19.994	103.792	20.063	3.546	0.482
1113.500	648.487	80.010	19.994	103.791	20.062	3.575	0.509
1114.000	648.753	80.011	19.993	103.790	20.061	3.647	0.529
1114.501	648.971	80.011	19.994	103.790	20.062	3.558	0.510
1115.001	649.252	80.010	19.993	103.791	20.059	3.841	0.491
1115.500	649.520	80.010	19.994	103.791	20.061	3.676	0.524
1116.000	649.788	80.010	19.994	103.790	20.061	3.657	0.543
1116.500	650.045	80.011	19.994	103.790	20.057	3.955	0.531
1117.000	650.266	80.010	19.995	103.790	20.059	3.787	0.501
1117.500	650.547	80.011	19.993	103.788	20.059	3.791	0.490
1118.000	650.819	80.012	19.994	103.788	20.057	3.973	0.527
1118.500	651.092	80.012	19.994	103.788	20.052	4.282	0.548
1119.000	651.309	80.011	19.992	103.788	20.061	3.645	0.518
1119.500	651.568	80.012	19.994	103.788	20.057	3.964	0.484
1120.000	651.820	80.012	19.994	103.788	20.059	3.784	0.494
1120.500	652.092	80.010	19.994	103.788	20.056	4.045	0.517
1121.001	652.337	80.011	19.994	103.788	20.064	3.443	0.520
1121.501	652.580	80.010	19.994	103.790	20.067	3.233	0.502
1122.000	652.765	80.011	19.993	103.794	20.059	3.817	0.458
1122.500	653.108	80.011	19.993	103.796	20.053	4.203	0.478
1123.000	653.345	80.010	19.994	103.797	20.054	4.171	0.554
1123.500	653.626	80.010	19.994	103.798	20.054	4.183	0.549
1124.000	653.883	80.011	19.995	103.796	20.054	4.187	0.528
1124.500	654.138	80.011	19.995	103.791	20.054	4.133	0.525
1125.000	654.385	80.010	19.994	103.790	20.055	4.058	0.507
1125.500	654.611	80.010	19.993	103.789	20.054	4.171	0.487
1126.000	654.872	80.010	19.994	103.789	20.054	4.189	0.480
1126.501	655.151	80.010	19.993	103.789	20.057	3.937	0.514
1127.001	655.373	80.011	19.993	103.789	20.060	3.738	0.521
1127.501	655.679	80.010	19.993	103.789	20.061	3.643	0.515
1128.000	655.897	80.010	19.993	103.790	20.057	3.951	0.526
1128.500	656.134	80.009	19.994	103.794	20.054	4.149	0.489
1129.000	656.401	80.010	19.991	103.795	20.056	4.007	0.479
1129.500	656.643	80.011	19.996	103.800	20.054	4.143	0.506
1130.001	656.918	80.009	19.996	103.807	20.054	4.163	0.513
1130.501	657.114	80.009	19.994	103.811	20.057	3.925	0.494
1131.001	657.387	80.011	19.993	103.806	20.055	4.106	0.470
1131.501	657.632	80.010	19.994	103.808	20.057	3.929	0.494
1132.001	657.886	80.010	19.994	103.803	20.061	3.692	0.509
1132.500	658.133	80.011	19.994	103.801	20.059	3.819	0.499
1133.000	658.405	80.011	19.993	103.797	20.060	3.761	0.510
1133.500	658.658	80.011	19.993	103.796	20.059	3.779	0.522
1134.000	658.922	80.011	19.993	103.793	20.062	3.571	0.521
1134.500	659.185	80.011	19.994	103.792	20.055	4.060	0.522
1135.000	659.360	80.011	19.994	103.787	20.056	4.022	0.482
1135.500	659.651	80.011	19.993	103.786	20.057	3.943	0.453
1136.000	659.875	80.012	19.994	103.785	20.056	4.026	0.491
1136.501	660.135	80.011	19.993	103.785	20.059	3.811	0.499
1137.001	660.445	80.013	19.994	103.785	20.060	3.736	0.527
1137.500	660.721	80.013	19.993	103.785	20.055	4.082	0.578
1138.000	660.917	80.012	19.993	103.786	20.053	4.204	0.529
1138.500	661.203	80.011	19.993	103.789	20.056	4.040	0.477
1139.000	661.494	80.013	19.993	103.792	20.055	4.072	0.530
1139.500	661.684	80.012	19.993	103.792	20.065	3.356	0.529
1140.000	661.919	80.013	19.993	103.792	20.063	3.492	0.453
1140.500	662.211	80.013	19.994	103.792	20.063	3.542	0.476
1141.000	662.524	80.013	19.994	103.788	20.063	3.512	0.566
1141.500	662.791	80.012	19.993	103.785	20.060	3.735	0.592
1142.000	662.927	80.013	19.993	103.785	20.061	3.633	0.491
1142.500	663.231	80.013	19.993	103.785	20.063	3.528	0.421
1143.000	663.453	80.014	19.994	103.784	20.068	3.150	0.483
1143.500	663.702	80.013	19.993	103.784	20.062	3.625	0.499
1144.000	663.942	80.012	19.993	103.785	20.063	3.520	0.480
1144.501	664.229	80.013	19.992	103.784	20.064	3.471	0.508
1145.001	664.480	80.012	19.993	103.784	20.062	3.621	0.533
1145.500	664.738	80.011	19.993	103.785	20.062	3.619	0.524
1146.000	665.012	80.013	19.994	103.785	20.066	3.285	0.521
1146.500	665.309	80.012	19.994	103.786	20.065	3.399	0.551
1147.000	665.543	80.013	19.993	103.787	20.063	3.538	0.551
1147.500	665.743	80.012	19.994	103.787	20.065	3.397	0.482
1148.000	666.005	80.012	19.993	103.787	20.063	3.520	0.448
1148.500	666.236	80.012	19.993	103.786	20.062	3.589	0.478
1149.000	666.480	80.012	19.993	103.785	20.064	3.476	0.484
1149.500	666.755	80.012	19.994	103.784	20.065	3.395	0.497
1150.000	666.976	80.011	19.993	103.784	20.067	3.221	0.508
1150.500	667.285	80.012	19.994	103.784	20.061	3.635	0.513
1151.000	667.524	80.011	19.993	103.784	20.064	3.482	0.539
1151.500	667.709	80.011	19.993	103.784	20.065	3.374	0.486
1152.000	667.983	80.010	19.994	103.784	20.064	3.459	0.442
1152.500	668.249	80.011	19.994	103.784	20.063	3.532	0.499
1153.000	668.485	80.010	19.993	103.784	20.065	3.403	0.521
1153.500	668.746	80.010	19.995	103.784	20.065	3.405	0.500
1154.000	668.979	80.009	19.996	103.785	20.063	3.500	0.495
1154.500	669.291	80.010	19.996	103.786	20.065	3.395	0.519
1155.000	669.520	80.010	19.994	103.788	20.064	3.415	0.543
1155.500	669.791	80.010	19.994	103.789	20.066	3.294	0.521
1156.000	670.029	80.010	19.995	103.789	20.065	3.387	0.504
1156.500	670.231	80.009	19.994	103.792	20.065	3.362	0.475
1157.000	670.497	80.009	19.995	103.792	20.067	3.219	0.454
1157.500	670.788	80.009	19.994	103.790	20.065	3.401	0.512
1158.000	671.067	80.011	19.995	103.789	20.065	3.350	0.563
1158.500	671.326	80.010	19.995	103.788	20.061	3.654	0.554
1159.000	671.597	80.010	19.995	103.785	20.060	3.722	0.534
1159.500	671.823	80.009	19.994	103.783	20.065	3.364	0.514
1160.000	672.079	80.010	19.994	103.785	20.064	3.469	0.489
1160.500	672.361	80.010	19.994	103.786	20.063	3.536	0.510
1161.001	672.579	80.009	19.995	103.787	20.067	3.202	0.519
1161.501	672.833	80.010	19.995	103.787	20.068	3.164	0.486
1162.000	673.089	80.010	19.995	103.788	20.064	3.480	0.491
1162.500	673.362	80.010	19.994	103.787	20.065	3.383	0.520
1163.000	673.600	80.011	19.994	103.786	20.064	3.463	0.520
1163.500	673.827	80.011	19.995	103.786	20.068	3.192	0.488
1164.001	674.074	80.011	19.994	103.786	20.067	3.241	0.469
1164.501	674.402	80.010	19.995	103.787	20.068	3.190	0.525
1165.001	674.665	80.009	19.995	103.787	20.060	3.700	0.583
1165.500	674.906	80.010	19.993	103.787	20.066	3.318	0.547
1166.000	675.180	80.010	19.994	103.789	20.061	3.629	0.510
1166.500	675.404	80.010	19.993	103.789	20.060	3.710	0.507
1167.000	675.674	80.009	19.994	103.789	20.061	3.658	0.496
1167.500	675.912	80.010	19.994	103.789	20.059	3.803	0.501
1168.000	676.177	80.011	19.994	103.788	20.065	3.389	0.505
1168.501	676.395	80.011	19.994	103.786	20.062	3.603	0.493
1169.001	676.665	80.011	19.993	103.787	20.062	3.580	0.486
1169.500	676.901	80.010	19.994	103.787	20.061	3.681	0.497
1170.000	677.191	80.010	19.994	103.788	20.059	3.791	0.516
1170.500	677.411	80.009	19.994	103.789	20.062	3.574	0.517
1171.000	677.720	80.009	19.994	103.789	20.062	3.619	0.520
1171.500	677.964	80.010	19.994	103.790	20.065	3.358	0.542
1172.000	678.155	80.010	19.994	103.792	20.068	3.180	0.494
1172.500	678.412	80.009	19.993	103.792	20.066	3.318	0.441
1173.000	678.659	80.010	19.994	103.790	20.065	3.391	0.476
1173.500	678.937	80.010	19.994	103.789	20.067	3.215	0.515
1174.000	679.175	80.009	19.993	103.788	20.065	3.346	0.520
1174.500	679.437	80.009	19.994	103.787	20.066	3.336	0.508
1175.000	679.662	80.010	19.994	103.787	20.065	3.386	0.494
1175.500	679.948	80.009	19.994	103.788	20.066	3.305	0.499
1176.000	680.180	80.009	19.994	103.789	20.062	3.594	0.514
1176.500	680.454	80.009	19.994	103.789	20.064	3.447	0.512
1177.000	680.683	80.009	19.994	103.788	20.066	3.336	0.505
1177.500	680.984	80.009	19.994	103.787	20.063	3.536	0.517
1178.000	681.225	80.009	19.994	103.787	20.064	3.435	0.536
1178.500	681.459	80.009	19.994	103.788	20.060	3.740	0.508
1179.000	681.725	80.008	19.994	103.788	20.065	3.391	0.487
1179.500	681.971	80.009	19.994	103.792	20.060	3.748	0.506
1180.001	682.245	80.008	19.994	103.796	20.063	3.536	0.516
1180.501	682.509	80.008	19.994	103.796	20.064	3.453	0.529
1181.001	682.777	80.008	19.995	103.795	20.064	3.476	0.535
1181.501	682.980	80.008	19.994	103.795	20.065	3.360	0.501
1182.001	683.345	80.008	19.994	103.790	20.063	3.524	0.520
1182.500	683.518	80.008	19.995	103.786	20.061	3.649	0.553
1183.000	683.754	80.008	19.995	103.786	20.066	3.338	0.473
1183.500	684.000	80.008	19.995	103.786	20.063	3.526	0.446
1184.000	684.261	80.008	19.994	103.786	20.064	3.431	0.494
1184.500	684.554	80.009	19.994	103.791	20.059	3.819	0.531
1185.000	684.819	80.007	19.995	103.796	20.061	3.682	0.557
1185.500	685.082	80.009	19.995	103.799	20.063	3.486	0.543
1186.000	685.322	80.007	19.995	103.800	20.063	3.510	0.515
1186.501	685.648	80.007	19.994	103.803	20.063	3.508	0.534
1187.001	685.884	80.007	19.995	103.798	20.062	3.603	0.564
1187.500	686.132	80.007	19.995	103.793	20.065	3.401	0.523
1188.000	686.411	80.008	19.995	103.791	20.061	3.665	0.506
1188.500	686.623	80.007	19.994	103.790	20.065	3.358	0.509
1189.000	686.888	80.007	19.994	103.787	20.067	3.263	0.484
1189.500	687.158	80.008	19.996	103.788	20.064	3.435	0.506
1190.000	687.426	80.009	19.995	103.788	20.063	3.542	0.536
1190.500	687.587	80.007	19.995	103.788	20.062	3.627	0.483
1191.000	687.897	80.008	19.995	103.789	20.063	3.492	0.450
1191.500	688.132	80.009	19.994	103.789	20.064	3.457	0.508
1192.000	688.404	80.009	19.995	103.789	20.065	3.344	0.527
1192.500	688.690	80.009	19.994	103.789	20.063	3.498	0.533
1193.000	688.967	80.010	19.994	103.789	20.065	3.374	0.560
1193.500	689.177	80.010	19.994	103.788	20.062	3.571	0.524
1194.000	689.422	80.010	19.994	103.789	20.063	3.546	0.471
1194.500	689.716	80.009	19.994	103.789	20.065	3.360	0.497
1195.000	689.949	80.010	19.994	103.788	20.063	3.552	0.533
1195.500	690.208	80.011	19.993	103.788	20.065	3.371	0.510
1196.000	690.477	80.011	19.994	103.787	20.062	3.621	0.510
1196.500	690.764	80.011	19.994	103.785	20.065	3.348	0.542
1197.000	690.977	80.011	19.994	103.787	20.065	3.377	0.528
1197.500	691.241	80.010	19.993	103.791	20.061	3.635	0.489
1198.000	691.474	80.011	19.993	103.791	20.062	3.617	0.487
1198.501	691.700	80.011	19.993	103.795	20.061	3.678	0.478
1199.001	691.963	80.012	19.993	103.796	20.064	3.476	0.475
1199.500	692.216	80.012	19.993	103.794	20.063	3.540	0.503
1200.000	692.487	80.011	19.993	103.789	20.065	3.395	0.520
1200.500	692.759	80.012	19.993	103.786	20.063	3.555	0.533
1201.000	693.018	80.011	19.993	103.782	20.061	3.688	0.537
1201.500	693.237	80.011	19.993	103.780	20.065	3.385	0.504
1202.000	693.430	80.012	19.993	103.783	20.061	3.658	0.445
1202.500	693.811	80.012	19.993	103.786	20.058	3.880	0.493
1203.000	694.037	80.011	19.993	103.790	20.062	3.611	0.591
1203.500	694.298	80.011	19.994	103.790	20.064	3.465	0.547
1204.000	694.520	80.011	19.992	103.790	20.062	3.589	0.484
1204.500	694.814	80.010	19.994	103.787	20.059	3.801	0.500
1205.001	695.026	80.010	19.993	103.785	20.059	3.807	0.512
1205.501	695.311	80.009	19.993	103.784	20.056	4.032	0.502
1206.001	695.582	80.011	19.994	103.784	20.059	3.842	0.526
1206.501	695.841	80.011	19.994	103.784	20.063	3.538	0.542
1207.000	696.079	80.012	19.994	103.784	20.060	3.751	0.514
1207.501	696.296	80.011	19.995	103.784	20.056	4.042	0.477
1208.001	696.595	80.011	19.994	103.784	20.059	3.795	0.486
1208.500	696.843	80.010	19.991	103.783	20.057	3.971	0.531
1209.000	697.084	80.011	19.993	103.782	20.059	3.805	0.518
1209.501	697.316	80.011	19.994	103.782	20.062	3.583	0.481
1210.001	697.583	80.010	19.993	103.782	20.058	3.896	0.486
1210.500	697.861	80.009	19.994	103.782	20.059	3.830	0.522
1211.000	698.127	80.010	19.994	103.782	20.059	3.838	0.545
1211.500	698.324	80.011	19.993	103.784	20.059	3.828	0.503
1212.000	698.577	80.010	19.993	103.784	20.058	3.868	0.457
1212.500	698.850	80.010	19.993	103.784	20.057	3.919	0.488
1213.000	699.112	80.010	19.993	103.784	20.062	3.617	0.530
1213.500	699.378	80.010	19.993	103.785	20.057	3.963	0.531
1214.000	699.627	80.010	19.993	103.786	20.060	3.706	0.522
1214.500	699.882	80.010	19.994	103.786	20.061	3.633	0.509
1215.000	700.129	80.011	19.994	103.786	20.059	3.803	0.503
1215.500	700.378	80.010	19.993	103.786	20.063	3.516	0.499
1216.000	700.639	80.010	19.995	103.785	20.064	3.425	0.503
1216.500	700.878	80.009	19.994	103.786	20.064	3.450	0.505
1217.000	701.151	80.010	19.994	103.786	20.067	3.199	0.506
1217.500	701.404	80.011	19.993	103.786	20.063	3.498	0.519
1218.000	701.658	80.011	19.994	103.785	20.063	3.534	0.516
1218.500	701.875	80.010	19.994	103.785	20.061	3.698	0.489
1219.000	702.143	80.012	19.994	103.784	20.063	3.553	0.478
1219.500	702.360	80.011	19.994	103.783	20.062	3.587	0.484
1220.000	702.678	80.011	19.993	103.783	20.061	3.682	0.510
1220.500	702.888	80.011	19.993	103.783	20.060	3.728	0.532
1221.000	703.152	80.011	19.993	103.783	20.061	3.645	0.501
1221.500	703.393	80.012	19.992	103.782	20.064	3.451	0.489
1222.000	703.651	80.012	19.993	103.782	20.062	3.599	0.502
1222.500	703.905	80.012	19.993	103.783	20.060	3.720	0.506
1223.000	704.189	80.011	19.994	103.783	20.062	3.589	0.525
1223.501	704.458	80.011	19.994	103.784	20.060	3.708	0.545
1224.001	704.685	80.012	19.994	103.784	20.061	3.656	0.524
1224.500	704.940	80.011	19.993	103.784	20.058	3.850	0.489
1225.000	705.230	80.013	19.994	103.784	20.060	3.753	0.514
1225.500	705.476	80.012	19.994	103.784	20.060	3.738	0.540
1226.000	705.737	80.012	19.993	103.784	20.061	3.684	0.521
1226.500	705.958	80.013	19.994	103.784	20.062	3.601	0.495
1227.000	706.204	80.011	19.993	103.783	20.064	3.465	0.475
1227.500	706.460	80.012	19.992	103.780	20.060	3.724	0.485
1228.000	706.739	80.012	19.993	103.780	20.063	3.508	0.518
1228.501	707.033	80.012	19.993	103.780	20.059	3.821	0.553
1229.001	707.259	80.013	19.994	103.780	20.061	3.651	0.546
1229.500	707.555	80.013	19.993	103.781	20.061	3.668	0.521
1230.001	707.798	80.012	19.994	103.782	20.061	3.655	0.530
1230.501	708.036	80.012	19.993	103.782	20.060	3.706	0.510
1231.000	708.336	80.011	19.992	103.785	20.060	3.765	0.509
1231.500	708.571	80.011	19.993	103.786	20.059	3.811	0.537
1232.000	708.818	80.011	19.993	103.787	20.055	4.090	0.509
1232.500	709.058	80.010	19.993	103.789	20.058	3.878	0.484
1233.000	709.340	80.010	19.992	103.789	20.061	3.662	0.504
1233.500	709.571	80.010	19.992	103.787	20.062	3.581	0.518
1234.000	709.811	80.011	19.992	103.786	20.062	3.591	0.492
1234.501	710.084	80.008	19.994	103.787	20.058	3.910	0.492
1235.001	710.326	80.009	19.993	103.787	20.059	3.801	0.514
1235.501	710.614	80.010	19.993	103.787	20.056	4.005	0.523
1236.001	710.837	80.010	19.993	103.786	20.060	3.700	0.521
1236.500	711.098	80.012	19.993	103.787	20.059	3.773	0.497
1237.000	711.393	80.009	19.994	103.786	20.059	3.833	0.520
1237.500	711.601	80.010	19.992	103.786	20.060	3.753	0.530
1238.000	711.853	80.009	19.993	103.786	20.060	3.746	0.481
1238.501	712.120	80.011	19.993	103.787	20.059	3.783	0.489
1239.001	712.349	80.010	19.993	103.787	20.062	3.589	0.507
1239.500	712.608	80.009	19.994	103.788	20.059	3.791	0.492
1240.000	712.898	80.010	19.992	103.789	20.058	3.876	0.519
1240.500	713.109	80.009	19.994	103.789	20.065	3.368	0.525
1241.001	713.357	80.011	19.992	103.790	20.059	3.805	0.480
1241.501	713.741	80.011	19.993	103.790	20.057	3.934	0.546
1242.000	713.907	80.010	19.994	103.789	20.058	3.846	0.591
1242.500	714.195	80.010	19.993	103.788	20.059	3.777	0.502
1243.000	714.440	80.010	19.994	103.788	20.063	3.556	0.493
1243.500	714.819	80.009	19.995	103.787	20.057	3.965	0.579
1244.000	714.992	80.009	19.993	103.787	20.058	3.858	0.588
1244.501	715.179	80.009	19.993	103.788	20.060	3.736	0.456
1245.001	715.415	80.010	19.993	103.789	20.057	3.949	0.391
1245.501	715.667	80.011	19.993	103.789	20.057	3.920	0.456
1246.000	715.901	80.010	19.993	103.789	20.057	3.916	0.487
1246.501	716.203	80.010	19.994	103.789	20.060	3.765	0.511
1247.001	716.477	80.009	19.993	103.788	20.060	3.757	0.556
1247.501	716.725	80.011	19.994	103.788	20.060	3.718	0.549
1248.000	716.995	80.010	19.994	103.788	20.060	3.700	0.520
1248.500	717.217	80.010	19.993	103.788	20.057	3.943	0.505
1249.000	717.429	80.008	19.992	103.788	20.058	3.858	0.463
1249.500	717.730	80.008	19.995	103.787	20.060	3.747	0.473
1250.000	717.987	80.011	19.995	103.790	20.059	3.840	0.536
1250.500	718.232	80.010	19.995	103.794	20.056	4.026	0.530
1251.000	718.499	80.009	19.995	103.794	20.057	3.965	0.507
1251.500	718.785	80.009	19.994	103.795	20.057	3.953	0.533
1252.000	719.029	80.010	19.995	103.795	20.058	3.862	0.542
1252.500	719.271	80.008	19.995	103.792	20.061	3.678	0.508
1253.000	719.535	80.010	19.994	103.788	20.059	3.797	0.495
1253.500	719.786	80.008	19.994	103.788	20.062	3.573	0.511
1254.000	720.068	80.010	19.994	103.788	20.063	3.536	0.524
1254.500	720.328	80.010	19.994	103.786	20.063	3.549	0.538
1255.000	720.499	80.011	19.994	103.786	20.059	3.771	0.486
1255.500	720.783	80.008	19.992	103.786	20.061	3.654	0.443
1256.000	721.019	80.009	19.993	103.786	20.058	3.900	0.487
1256.500	721.267	80.010	19.994	103.786	20.058	3.884	0.502
1257.000	721.580	80.011	19.993	103.789	20.060	3.765	0.523
1257.500	721.784	80.008	19.994	103.789	20.059	3.815	0.540
1258.000	722.018	80.008	19.994	103.790	20.062	3.569	0.478
1258.500	722.265	80.010	19.994	103.790	20.057	3.933	0.460
1259.000	722.524	80.009	19.993	103.788	20.056	3.990	0.494
1259.500	722.781	80.009	19.994	103.788	20.058	3.909	0.511
1260.001	723.019	80.010	19.993	103.788	20.059	3.795	0.505
1260.501	723.271	80.009	19.993	103.787	20.055	4.105	0.492
1261.001	723.530	80.009	19.994	103.786	20.055	4.058	0.500
1261.501	723.770	80.009	19.995	103.786	20.055	4.121	0.505
1262.000	724.014	80.009	19.994	103.786	20.059	3.787	0.492
1262.500	724.251	80.009	19.994	103.784	20.056	4.028	0.483
1263.000	724.498	80.009	19.994	103.782	20.057	3.951	0.483
1263.500	724.793	80.010	19.995	103.782	20.057	3.915	0.513
1264.000	724.984	80.008	19.994	103.780	20.055	4.064	0.514
1264.500	725.240	80.009	19.993	103.778	20.056	4.020	0.467
1265.000	725.514	80.009	19.993	103.779	20.056	3.993	0.488
1265.500	725.765	80.008	19.994	103.780	20.055	4.072	0.527
1266.000	726.042	80.008	19.993	103.780	20.056	4.002	0.527
1266.500	726.308	80.009	19.994	103.783	20.056	4.020	0.536
1267.000	726.540	80.009	19.993	103.784	20.059	3.806	0.521
1267.501	726.802	80.010	19.995	103.784	20.053	4.228	0.496
1268.001	727.056	80.009	19.994	103.785	20.054	4.175	0.505
1268.500	727.319	80.008	19.994	103.784	20.055	4.078	0.516
1269.000	727.548	80.009	19.994	103.780	20.056	3.987	0.504
1269.500	727.788	80.008	19.994	103.779	20.056	4.005	0.481
1270.000	728.026	80.008	19.994	103.778	20.058	3.910	0.474
1270.500	728.287	80.009	19.994	103.777	20.060	3.763	0.488
1271.000	728.507	80.009	19.995	103.778	20.057	3.918	0.490
1271.500	728.763	80.009	19.995	103.781	20.059	3.787	0.479
1272.000	729.062	80.008	19.995	103.781	20.059	3.799	0.516
1272.500	729.277	80.009	19.994	103.783	20.059	3.787	0.535
1273.000	729.503	80.008	19.995	103.783	20.060	3.704	0.478
1273.500	729.760	80.010	19.994	103.781	20.062	3.565	0.462
1274.000	729.980	80.009	19.995	103.782	20.059	3.793	0.480
1274.500	730.239	80.009	19.994	103.782	20.059	3.836	0.478
1275.000	730.478	80.009	19.994	103.782	20.057	3.947	0.489
1275.500	730.723	80.010	19.995	103.783	20.060	3.721	0.491
1276.000	730.964	80.009	19.995	103.784	20.058	3.890	0.485
1276.500	731.196	80.009	19.994	103.781	20.060	3.765	0.480
1277.000	731.494	80.009	19.995	103.780	20.059	3.814	0.501
1277.500	731.690	80.010	19.995	103.778	20.060	3.717	0.511
1278.000	731.974	80.009	19.995	103.777	20.062	3.622	0.487
1278.500	732.216	80.009	19.995	103.776	20.059	3.832	0.503
1279.000	732.443	80.009	19.995	103.779	20.058	3.911	0.498
1279.500	732.732	80.009	19.994	103.781	20.060	3.757	0.492
1280.001	732.956	80.011	19.993	103.782	20.058	3.878	0.515
1280.501	733.182	80.010	19.994	103.783	20.057	3.937	0.482
1281.001	733.442	80.009	19.995	103.785	20.058	3.874	0.468
1281.500	733.679	80.011	19.994	103.785	20.059	3.785	0.491
1282.000	733.917	80.010	19.995	103.785	20.057	3.937	0.486
1282.500	734.184	80.010	19.995	103.785	20.058	3.866	0.490
1283.000	734.432	80.011	19.994	103.785	20.056	3.989	0.510
1283.500	734.674	80.011	19.994	103.783	20.056	4.054	0.503
1284.000	734.961	80.011	19.994	103.782	20.057	3.920	0.510
1284.500	735.151	80.011	19.994	103.783	20.058	3.882	0.503
1285.000	735.402	80.010	19.994	103.782	20.059	3.795	0.459
1285.500	735.657	80.012	19.994	103.780	20.059	3.783	0.473
1286.000	735.921	80.010	19.995	103.779	20.055	4.129	0.512
1286.500	736.177	80.010	19.993	103.777	20.057	3.961	0.520
1287.000	736.415	80.011	19.993	103.777	20.057	3.961	0.507
1287.500	736.681	80.009	19.994	103.777	20.059	3.832	0.499
1288.000	736.914	80.010	19.994	103.778	20.052	4.280	0.501
1288.500	737.134	80.010	19.994	103.778	20.057	3.955	0.476
1289.000	737.409	80.009	19.993	103.777	20.053	4.206	0.475
1289.500	737.658	80.010	19.993	103.777	20.052	4.305	0.510
1290.000	737.951	80.011	19.993	103.777	20.053	4.238	0.533
1290.500	738.152	80.011	19.994	103.776	20.057	3.947	0.518
1291.000	738.413	80.010	19.993	103.778	20.055	4.063	0.478
1291.500	738.699	80.010	19.994	103.782	20.056	4.008	0.505
1292.000	738.936	80.009	19.995	103.784	20.054	4.180	0.534
1292.500	739.147	80.011	19.993	103.785	20.058	3.899	0.485
1293.000	739.381	80.011	19.994	103.786	20.059	3.840	0.447
1293.500	739.629	80.011	19.994	103.787	20.057	3.953	0.463
1294.000	739.897	80.011	19.994	103.786	20.056	3.993	0.499
1294.500	740.158	80.012	19.994	103.785	20.056	4.020	0.523
1295.001	740.413	80.011	19.992	103.785	20.057	3.969	0.523
1295.501	740.669	80.010	19.994	103.784	20.056	3.993	0.513
1296.000	740.892	80.010	19.993	103.784	20.059	3.834	0.495
1296.500	741.142	80.011	19.994	103.781	20.060	3.769	0.476
1297.000	741.425	80.011	19.992	103.780	20.061	3.688	0.503
1297.500	741.673	80.011	19.994	103.780	20.060	3.710	0.532
1298.001	741.897	80.011	19.994	103.780	20.061	3.692	0.501
1298.501	742.162	80.011	19.993	103.779	20.057	3.963	0.481
1299.000	742.439	80.011	19.994	103.782	20.058	3.856	0.516
1299.501	742.687	80.011	19.994	103.783	20.060	3.767	0.534
1300.001	742.913	80.011	19.993	103.783	20.061	3.660	0.499
1300.500	743.170	80.011	19.993	103.783	20.059	3.793	0.478
1301.000	743.378	80.010	19.993	103.778	20.056	3.993	0.474
