Sample ID:	C:\MCC\MCC Cal\Test\Feather_PillowA_Cover_MCC_30K_min_220106_R2.txt
Sample Weight (mg):	4.09
Heating Rate (C/s):	0.5
Combustor Temp (C):	900
N2 Flow Rate (cc/min):	80
O2 Flow Rate (cc/min):	20
Calibration File:	C:\MCC\MCC Cal\Coeff1 JN10440_30_210304.txt.txt
T Correction Coefficients:	0	1.024463	0
Time Shift (s):	14
*
Time (s)	Temperature (C)	N2 flow rate (cc/min)	O2 flow rate (cc/min)	Flow Rate (cc/min)	Oxygen (%)	HRR (W/g)	Heating rate (C/s)
0.000	111.897	80.008	19.994	104.220	20.061	-0.355	-0.018
0.500	111.850	80.008	19.994	104.220	20.061	-0.388	-0.044
1.000	111.917	80.009	19.994	104.219	20.059	-0.211	-0.021
1.500	111.916	80.008	19.994	104.219	20.062	-0.406	0.043
2.000	111.922	80.008	19.994	104.219	20.060	-0.240	0.035
2.500	111.929	80.008	19.993	104.221	20.061	-0.392	0.009
3.000	111.921	80.009	19.994	104.221	20.059	-0.196	0.006
3.500	111.911	80.007	19.994	104.221	20.062	-0.456	-0.010
4.000	111.918	80.009	19.994	104.222	20.061	-0.390	-0.011
4.500	111.960	80.010	19.994	104.222	20.057	-0.048	0.023
5.000	111.928	80.008	19.994	104.220	20.058	-0.155	0.030
5.500	111.913	80.009	19.993	104.221	20.058	-0.155	-0.018
6.000	111.907	80.009	19.993	104.223	20.059	-0.198	-0.034
6.500	111.920	80.010	19.994	104.229	20.057	-0.052	-0.007
7.000	111.915	80.010	19.994	104.230	20.057	-0.033	0.007
7.500	111.922	80.009	19.995	104.233	20.060	-0.249	0.005
8.000	111.894	80.010	19.994	104.240	20.056	0.028	-0.009
8.500	111.936	80.009	19.994	104.246	20.055	0.124	-0.004
9.000	111.893	80.008	19.996	104.247	20.054	0.218	0.006
9.500	111.908	80.010	19.995	104.253	20.057	-0.015	-0.014
10.000	111.883	80.010	19.993	104.257	20.052	0.329	-0.018
10.500	111.900	80.010	19.993	104.257	20.052	0.353	-0.009
11.001	111.904	80.008	19.994	104.258	20.053	0.288	0.006
11.501	111.929	80.009	19.993	104.263	20.054	0.216	0.025
12.000	111.942	80.008	19.994	104.270	20.054	0.209	0.033
12.500	111.978	80.010	19.993	104.279	20.053	0.299	0.044
13.000	111.937	80.009	19.994	104.287	20.053	0.257	0.022
13.501	111.958	80.009	19.994	104.293	20.051	0.423	-0.013
14.001	111.996	80.009	19.994	104.289	20.053	0.310	0.019
14.500	111.949	80.009	19.992	104.283	20.051	0.471	0.026
15.000	111.960	80.009	19.993	104.280	20.051	0.419	-0.022
15.500	111.973	80.010	19.994	104.281	20.054	0.236	-0.006
16.000	111.987	80.009	19.993	104.283	20.052	0.364	0.025
16.500	112.013	80.009	19.994	104.291	20.050	0.495	0.033
17.000	112.030	80.008	19.994	104.299	20.053	0.314	0.041
17.501	112.063	80.009	19.994	104.304	20.052	0.353	0.046
18.000	112.056	80.008	19.994	104.304	20.052	0.336	0.038
18.500	112.118	80.010	19.994	104.304	20.048	0.718	0.040
19.001	112.112	80.010	19.994	104.304	20.052	0.380	0.056
19.501	112.137	80.011	19.994	104.303	20.049	0.567	0.038
20.001	112.141	80.009	19.994	104.295	20.049	0.585	0.024
20.501	112.142	80.008	19.993	104.287	20.053	0.290	0.017
21.000	112.202	80.008	19.994	104.280	20.050	0.517	0.033
21.500	112.194	80.009	19.994	104.278	20.049	0.572	0.056
22.000	112.214	80.009	19.994	104.278	20.048	0.659	0.032
22.500	112.238	80.010	19.994	104.289	20.051	0.439	0.028
23.000	112.244	80.009	19.994	104.304	20.045	0.956	0.037
23.500	112.284	80.008	19.994	104.313	20.045	0.923	0.038
24.000	112.301	80.006	19.993	104.317	20.046	0.849	0.051
24.500	112.324	80.008	19.994	104.323	20.046	0.860	0.048
25.000	112.350	80.006	19.994	104.325	20.046	0.805	0.044
25.500	112.371	80.008	19.994	104.325	20.047	0.786	0.048
26.000	112.405	80.007	19.995	104.329	20.043	1.054	0.051
26.500	112.443	80.008	19.995	104.335	20.041	1.224	0.064
27.000	112.451	80.007	19.995	104.343	20.043	1.111	0.059
27.500	112.500	80.007	19.996	104.348	20.041	1.272	0.052
28.001	112.532	80.007	19.994	104.353	20.040	1.320	0.069
28.501	112.571	80.006	19.994	104.358	20.041	1.214	0.076
29.001	112.579	80.007	19.995	104.361	20.039	1.397	0.059
29.500	112.618	80.007	19.995	104.363	20.041	1.270	0.048
30.000	112.668	80.006	19.994	104.366	20.035	1.707	0.068
30.500	112.740	80.007	19.994	104.370	20.036	1.637	0.105
31.000	112.810	80.007	19.994	104.376	20.038	1.513	0.132
31.500	112.814	80.007	19.994	104.385	20.034	1.822	0.108
32.000	112.843	80.007	19.995	104.391	20.035	1.744	0.053
32.501	112.956	80.008	19.995	104.395	20.035	1.746	0.087
33.001	112.973	80.008	19.994	104.396	20.034	1.759	0.136
33.500	112.989	80.007	19.995	104.394	20.035	1.746	0.082
34.001	113.061	80.009	19.995	104.390	20.034	1.825	0.061
34.501	113.120	80.008	19.995	104.385	20.031	2.002	0.110
35.000	113.203	80.009	19.994	104.381	20.033	1.901	0.136
35.500	113.236	80.008	19.994	104.380	20.032	1.917	0.128
36.000	113.299	80.007	19.995	104.381	20.030	2.085	0.106
36.501	113.371	80.009	19.994	104.381	20.033	1.888	0.116
37.001	113.405	80.010	19.994	104.384	20.032	1.950	0.120
37.500	113.456	80.009	19.994	104.385	20.034	1.821	0.096
38.001	113.541	80.009	19.993	104.386	20.029	2.159	0.111
38.501	113.615	80.009	19.993	104.392	20.032	1.971	0.147
39.000	113.673	80.011	19.994	104.395	20.029	2.164	0.145
39.500	113.748	80.010	19.993	104.401	20.028	2.240	0.133
40.000	113.850	80.010	19.994	104.407	20.029	2.199	0.155
40.500	113.908	80.011	19.992	104.408	20.029	2.223	0.168
41.001	113.953	80.010	19.993	104.403	20.031	2.022	0.131
41.501	114.052	80.009	19.993	104.400	20.028	2.304	0.123
42.001	114.123	80.009	19.992	104.396	20.026	2.444	0.157
42.501	114.191	80.009	19.993	104.392	20.025	2.476	0.155
43.001	114.289	80.010	19.993	104.397	20.028	2.267	0.153
43.500	114.353	80.011	19.994	104.400	20.026	2.459	0.164
44.000	114.422	80.011	19.992	104.402	20.025	2.503	0.147
44.500	114.498	80.010	19.993	104.404	20.026	2.411	0.139
45.000	114.557	80.011	19.993	104.407	20.028	2.282	0.140
45.501	114.669	80.011	19.992	104.408	20.025	2.485	0.153
46.001	114.754	80.011	19.993	104.411	20.025	2.516	0.184
46.500	114.862	80.010	19.994	104.419	20.024	2.607	0.195
47.001	114.929	80.011	19.993	104.422	20.020	2.922	0.185
47.501	115.015	80.011	19.993	104.423	20.020	2.907	0.164
48.000	115.123	80.011	19.993	104.422	20.021	2.861	0.173
48.500	115.200	80.010	19.993	104.422	20.025	2.527	0.189
49.000	115.300	80.012	19.993	104.418	20.022	2.791	0.181
49.500	115.381	80.010	19.993	104.423	20.025	2.540	0.179
50.001	115.474	80.011	19.994	104.428	20.021	2.841	0.178
50.501	115.589	80.011	19.993	104.435	20.022	2.732	0.191
51.000	115.699	80.010	19.994	104.443	20.024	2.619	0.217
51.500	115.803	80.010	19.994	104.449	20.020	2.924	0.219
52.000	115.876	80.010	19.993	104.451	20.020	2.940	0.195
52.500	115.997	80.010	19.994	104.452	20.022	2.781	0.186
53.000	116.088	80.009	19.993	104.450	20.022	2.778	0.203
53.501	116.212	80.010	19.994	104.450	20.019	2.993	0.214
54.001	116.317	80.009	19.994	104.450	20.020	2.927	0.222
54.501	116.437	80.010	19.993	104.450	20.023	2.682	0.227
55.001	116.509	80.010	19.993	104.451	20.019	2.979	0.208
55.501	116.657	80.010	19.992	104.453	20.018	3.073	0.206
56.000	116.769	80.010	19.993	104.453	20.019	2.995	0.240
56.500	116.888	80.010	19.993	104.454	20.018	3.075	0.246
57.000	117.012	80.011	19.994	104.454	20.020	2.927	0.237
57.500	117.104	80.010	19.993	104.454	20.019	2.955	0.229
58.000	117.278	80.010	19.994	104.455	20.020	2.936	0.241
58.500	117.425	80.010	19.994	104.456	20.020	2.912	0.294
59.000	117.512	80.011	19.993	104.456	20.019	3.029	0.278
59.500	117.634	80.010	19.993	104.456	20.020	2.911	0.221
60.000	117.729	80.011	19.993	104.458	20.019	3.005	0.213
60.500	117.896	80.010	19.993	104.457	20.019	3.027	0.240
61.000	117.998	80.011	19.993	104.457	20.018	3.088	0.265
61.500	118.121	80.011	19.993	104.458	20.018	3.051	0.247
62.000	118.237	80.011	19.993	104.461	20.013	3.434	0.232
62.500	118.414	80.011	19.993	104.465	20.016	3.248	0.266
63.000	118.529	80.010	19.993	104.469	20.016	3.255	0.293
63.500	118.680	80.011	19.993	104.475	20.018	3.100	0.279
64.000	118.795	80.011	19.993	104.481	20.018	3.100	0.265
64.500	118.966	80.011	19.993	104.484	20.016	3.266	0.275
65.001	119.112	80.011	19.993	104.484	20.018	3.078	0.301
65.501	119.253	80.012	19.992	104.482	20.016	3.244	0.302
66.001	119.388	80.012	19.993	104.476	20.015	3.283	0.282
66.501	119.568	80.012	19.992	104.472	20.014	3.368	0.296
67.000	119.713	80.012	19.993	104.473	20.015	3.303	0.320
67.501	119.827	80.013	19.993	104.475	20.013	3.445	0.292
68.001	120.003	80.012	19.993	104.478	20.015	3.343	0.274
68.501	120.136	80.014	19.993	104.483	20.016	3.231	0.300
69.001	120.272	80.012	19.992	104.480	20.016	3.196	0.289
69.500	120.432	80.012	19.993	104.476	20.012	3.541	0.283
70.000	120.586	80.014	19.993	104.472	20.014	3.388	0.305
70.500	120.753	80.012	19.993	104.469	20.015	3.294	0.318
71.000	120.931	80.012	19.993	104.466	20.018	3.102	0.333
71.500	121.057	80.013	19.993	104.470	20.016	3.233	0.324
72.000	121.246	80.012	19.993	104.471	20.016	3.249	0.309
72.500	121.414	80.012	19.993	104.470	20.015	3.323	0.336
73.000	121.569	80.011	19.993	104.473	20.018	3.100	0.340
73.500	121.764	80.011	19.994	104.477	20.015	3.292	0.337
74.000	121.931	80.012	19.992	104.477	20.016	3.250	0.356
74.500	122.060	80.010	19.992	104.481	20.014	3.399	0.329
75.000	122.245	80.012	19.993	104.486	20.015	3.294	0.305
75.500	122.415	80.011	19.993	104.489	20.015	3.336	0.335
76.000	122.601	80.011	19.994	104.485	20.014	3.414	0.355
76.500	122.724	80.010	19.993	104.484	20.016	3.246	0.332
77.000	122.908	80.011	19.994	104.485	20.016	3.255	0.308
77.501	123.057	80.010	19.994	104.486	20.014	3.421	0.320
78.001	123.284	80.010	19.993	104.486	20.019	2.995	0.354
78.500	123.438	80.010	19.993	104.492	20.015	3.347	0.378
79.000	123.628	80.010	19.992	104.495	20.012	3.515	0.363
79.500	123.757	80.011	19.993	104.495	20.013	3.482	0.332
80.000	123.930	80.008	19.993	104.494	20.015	3.279	0.310
80.500	124.119	80.009	19.993	104.495	20.014	3.412	0.332
81.000	124.295	80.010	19.993	104.494	20.015	3.309	0.363
81.500	124.511	80.009	19.993	104.494	20.015	3.285	0.379
82.001	124.655	80.008	19.993	104.494	20.015	3.292	0.376
82.501	124.860	80.009	19.993	104.494	20.018	3.063	0.354
83.000	125.017	80.009	19.993	104.493	20.017	3.146	0.355
83.500	125.229	80.008	19.993	104.490	20.012	3.522	0.366
84.000	125.414	80.010	19.993	104.487	20.016	3.242	0.383
84.500	125.633	80.009	19.993	104.484	20.019	3.028	0.400
85.001	125.817	80.009	19.993	104.481	20.015	3.301	0.404
85.501	126.000	80.008	19.992	104.481	20.014	3.375	0.385
86.000	126.175	80.009	19.993	104.480	20.018	3.102	0.362
86.500	126.390	80.007	19.992	104.483	20.016	3.268	0.374
87.001	126.543	80.009	19.992	104.486	20.016	3.270	0.379
87.501	126.712	80.009	19.993	104.489	20.016	3.207	0.345
88.000	126.924	80.009	19.992	104.490	20.019	3.002	0.352
88.500	127.117	80.008	19.994	104.495	20.019	3.008	0.393
89.000	127.304	80.008	19.992	104.494	20.017	3.124	0.392
89.500	127.496	80.008	19.992	104.494	20.017	3.189	0.380
90.001	127.703	80.007	19.992	104.494	20.020	2.943	0.389
90.501	127.942	80.009	19.994	104.491	20.018	3.096	0.422
91.001	128.098	80.008	19.994	104.484	20.015	3.297	0.420
91.501	128.317	80.007	19.993	104.482	20.014	3.386	0.385
92.000	128.537	80.008	19.993	104.483	20.018	3.043	0.407
92.500	128.672	80.009	19.993	104.483	20.016	3.196	0.397
93.000	128.885	80.008	19.993	104.485	20.016	3.231	0.352
93.500	129.076	80.010	19.993	104.491	20.018	3.080	0.376
94.000	129.275	80.008	19.993	104.494	20.015	3.295	0.397
94.500	129.456	80.007	19.993	104.493	20.016	3.207	0.385
95.001	129.707	80.007	19.993	104.493	20.019	3.030	0.406
95.501	129.862	80.008	19.993	104.493	20.018	3.045	0.419
96.000	130.110	80.009	19.993	104.493	20.016	3.238	0.404
96.500	130.281	80.009	19.993	104.495	20.017	3.172	0.411
97.000	130.521	80.009	19.993	104.495	20.016	3.207	0.415
97.500	130.723	80.008	19.994	104.494	20.013	3.461	0.427
98.000	130.920	80.010	19.994	104.493	20.019	3.019	0.421
98.500	131.130	80.008	19.993	104.491	20.017	3.115	0.403
99.001	131.334	80.009	19.993	104.489	20.012	3.561	0.411
99.501	131.551	80.008	19.993	104.488	20.014	3.362	0.418
100.000	131.783	80.009	19.993	104.490	20.015	3.301	0.435
100.500	131.939	80.009	19.993	104.488	20.014	3.382	0.418
101.000	132.163	80.009	19.993	104.490	20.015	3.345	0.384
101.500	132.371	80.009	19.993	104.492	20.017	3.152	0.406
102.000	132.599	80.008	19.993	104.492	20.017	3.181	0.434
102.500	132.777	80.008	19.993	104.493	20.018	3.069	0.421
103.000	133.019	80.009	19.994	104.497	20.018	3.111	0.413
103.500	133.228	80.010	19.992	104.497	20.018	3.056	0.436
104.000	133.423	80.009	19.993	104.498	20.017	3.148	0.428
104.500	133.652	80.009	19.994	104.498	20.020	2.908	0.414
105.000	133.872	80.008	19.993	104.497	20.019	3.017	0.436
105.500	134.054	80.009	19.994	104.496	20.014	3.399	0.426
106.000	134.278	80.008	19.994	104.496	20.016	3.268	0.404
106.500	134.464	80.009	19.994	104.496	20.016	3.216	0.408
107.000	134.668	80.009	19.993	104.496	20.015	3.303	0.400
107.500	134.912	80.010	19.993	104.496	20.015	3.345	0.418
108.000	135.100	80.010	19.993	104.496	20.019	2.960	0.440
108.500	135.317	80.008	19.994	104.496	20.014	3.382	0.419
109.000	135.535	80.007	19.993	104.495	20.016	3.253	0.420
109.500	135.759	80.007	19.993	104.495	20.018	3.109	0.438
110.000	135.957	80.008	19.993	104.494	20.016	3.253	0.432
110.501	136.219	80.008	19.994	104.494	20.018	3.076	0.442
111.001	136.418	80.008	19.993	104.493	20.018	3.089	0.461
111.500	136.644	80.008	19.994	104.493	20.015	3.314	0.443
112.000	136.847	80.009	19.994	104.493	20.016	3.200	0.426
112.501	137.055	80.008	19.994	104.493	20.018	3.087	0.420
113.001	137.293	80.009	19.994	104.493	20.017	3.168	0.429
113.501	137.494	80.009	19.994	104.494	20.014	3.419	0.442
114.000	137.738	80.008	19.993	104.494	20.018	3.085	0.442
114.501	137.999	80.007	19.993	104.494	20.014	3.395	0.475
115.001	138.198	80.008	19.993	104.494	20.015	3.273	0.482
115.500	138.437	80.008	19.994	104.493	20.015	3.292	0.449
116.000	138.641	80.008	19.994	104.492	20.012	3.515	0.441
116.501	138.893	80.009	19.994	104.492	20.015	3.301	0.450
117.001	139.115	80.008	19.994	104.492	20.015	3.325	0.465
117.500	139.329	80.008	19.994	104.493	20.016	3.220	0.455
118.000	139.514	80.007	19.994	104.492	20.018	3.043	0.417
118.501	139.772	80.008	19.994	104.493	20.013	3.484	0.421
119.001	139.998	80.009	19.994	104.493	20.013	3.463	0.464
119.500	140.202	80.009	19.993	104.492	20.016	3.222	0.457
120.000	140.446	80.008	19.994	104.492	20.016	3.216	0.439
120.501	140.647	80.009	19.995	104.493	20.014	3.371	0.447
121.001	140.882	80.008	19.995	104.493	20.016	3.242	0.441
121.500	141.118	80.009	19.994	104.488	20.014	3.401	0.454
122.000	141.344	80.008	19.995	104.486	20.012	3.583	0.466
122.500	141.549	80.010	19.995	104.485	20.016	3.200	0.446
123.000	141.747	80.009	19.995	104.485	20.014	3.393	0.417
123.500	142.028	80.009	19.995	104.485	20.015	3.342	0.441
124.001	142.233	80.009	19.995	104.489	20.013	3.445	0.483
124.501	142.502	80.009	19.994	104.492	20.016	3.192	0.480
125.001	142.737	80.009	19.994	104.492	20.019	2.977	0.490
125.500	142.985	80.010	19.994	104.492	20.018	3.104	0.494
126.001	143.177	80.009	19.995	104.492	20.015	3.299	0.461
126.501	143.419	80.011	19.994	104.492	20.016	3.205	0.436
127.000	143.649	80.010	19.994	104.491	20.017	3.176	0.453
127.500	143.881	80.010	19.994	104.491	20.016	3.255	0.467
128.000	144.113	80.010	19.995	104.492	20.015	3.316	0.462
128.500	144.322	80.010	19.995	104.492	20.015	3.318	0.452
129.000	144.566	80.010	19.994	104.492	20.018	3.047	0.447
129.500	144.838	80.011	19.994	104.491	20.015	3.340	0.485
130.000	145.023	80.009	19.994	104.491	20.018	3.041	0.487
130.500	145.292	80.010	19.994	104.489	20.013	3.438	0.456
131.000	145.478	80.010	19.994	104.487	20.017	3.128	0.454
131.500	145.729	80.010	19.994	104.486	20.015	3.320	0.446
132.000	145.959	80.010	19.994	104.488	20.014	3.412	0.459
132.500	146.215	80.008	19.994	104.489	20.016	3.222	0.483
133.000	146.429	80.011	19.995	104.489	20.015	3.298	0.478
133.501	146.685	80.011	19.995	104.492	20.013	3.488	0.470
134.000	146.893	80.010	19.993	104.492	20.014	3.425	0.467
134.500	147.102	80.009	19.994	104.488	20.012	3.586	0.440
135.000	147.359	80.010	19.995	104.487	20.013	3.486	0.442
135.500	147.611	80.010	19.993	104.487	20.011	3.604	0.488
136.000	147.831	80.009	19.993	104.487	20.014	3.357	0.491
136.500	148.094	80.010	19.994	104.488	20.014	3.392	0.477
137.000	148.291	80.010	19.995	104.490	20.015	3.329	0.471
137.500	148.614	80.010	19.993	104.486	20.014	3.381	0.490
138.000	148.793	80.010	19.992	104.481	20.013	3.484	0.511
138.500	149.041	80.011	19.993	104.478	20.014	3.355	0.465
139.000	149.294	80.010	19.994	104.479	20.017	3.161	0.464
139.500	149.532	80.010	19.993	104.479	20.016	3.270	0.495
140.000	149.798	80.010	19.992	104.480	20.014	3.390	0.497
140.500	150.026	80.008	19.993	104.481	20.015	3.303	0.499
141.000	150.241	80.009	19.994	104.482	20.010	3.742	0.469
141.500	150.502	80.010	19.992	104.483	20.014	3.351	0.460
142.000	150.724	80.010	19.993	104.480	20.012	3.549	0.479
142.500	150.944	80.011	19.993	104.485	20.014	3.401	0.462
143.000	151.218	80.010	19.993	104.487	20.014	3.386	0.468
143.500	151.397	80.010	19.993	104.484	20.015	3.309	0.473
144.000	151.703	80.010	19.993	104.478	20.012	3.580	0.469
144.500	151.921	80.011	19.992	104.476	20.014	3.388	0.505
145.000	152.184	80.011	19.993	104.475	20.014	3.379	0.502
145.500	152.386	80.011	19.993	104.473	20.011	3.634	0.473
146.000	152.633	80.012	19.993	104.472	20.012	3.532	0.457
146.500	152.874	80.012	19.992	104.473	20.012	3.517	0.468
147.000	153.081	80.011	19.993	104.476	20.013	3.458	0.468
147.500	153.330	80.010	19.993	104.470	20.012	3.569	0.452
148.000	153.565	80.010	19.993	104.468	20.014	3.379	0.470
148.500	153.790	80.011	19.993	104.473	20.011	3.591	0.473
149.000	154.009	80.010	19.993	104.479	20.012	3.538	0.452
149.500	154.260	80.011	19.993	104.482	20.013	3.503	0.457
150.000	154.491	80.011	19.993	104.488	20.018	3.075	0.476
150.500	154.773	80.013	19.992	104.492	20.018	3.095	0.497
151.000	154.993	80.012	19.993	104.488	20.013	3.440	0.507
151.500	155.221	80.012	19.992	104.484	20.018	3.067	0.475
152.000	155.455	80.012	19.992	104.478	20.017	3.189	0.455
152.501	155.718	80.011	19.994	104.477	20.020	2.931	0.480
153.000	156.016	80.012	19.992	104.473	20.016	3.198	0.529
153.500	156.156	80.010	19.994	104.477	20.014	3.377	0.500
154.001	156.429	80.011	19.992	104.476	20.016	3.270	0.426
154.500	156.709	80.012	19.993	104.475	20.017	3.128	0.483
155.000	156.934	80.011	19.992	104.471	20.016	3.204	0.529
155.500	157.175	80.011	19.993	104.472	20.016	3.204	0.485
156.000	157.428	80.010	19.993	104.470	20.014	3.390	0.480
156.500	157.670	80.010	19.992	104.472	20.015	3.294	0.495
157.000	157.899	80.009	19.993	104.472	20.018	3.093	0.483
157.500	158.164	80.009	19.993	104.473	20.018	3.066	0.482
158.000	158.382	80.010	19.993	104.473	20.016	3.202	0.489
158.500	158.636	80.011	19.992	104.474	20.016	3.211	0.478
159.000	158.887	80.011	19.993	104.475	20.016	3.208	0.488
159.500	159.063	80.009	19.993	104.473	20.016	3.239	0.466
160.000	159.347	80.009	19.993	104.473	20.014	3.390	0.444
160.500	159.582	80.010	19.994	104.474	20.016	3.226	0.490
161.000	159.864	80.008	19.992	104.475	20.010	3.708	0.518
161.500	160.077	80.010	19.994	104.476	20.013	3.508	0.506
162.001	160.346	80.009	19.994	104.484	20.014	3.383	0.488
162.501	160.594	80.010	19.994	104.488	20.013	3.505	0.500
163.000	160.815	80.009	19.993	104.487	20.015	3.341	0.493
163.500	161.044	80.009	19.992	104.484	20.014	3.394	0.459
164.000	161.323	80.010	19.993	104.484	20.014	3.420	0.479
164.500	161.596	80.009	19.993	104.480	20.017	3.173	0.530
165.000	161.827	80.009	19.993	104.476	20.016	3.250	0.528
165.500	162.041	80.008	19.993	104.474	20.014	3.392	0.475
166.000	162.304	80.009	19.993	104.473	20.017	3.138	0.461
166.500	162.562	80.010	19.993	104.471	20.010	3.671	0.499
167.000	162.783	80.010	19.993	104.469	20.015	3.298	0.500
167.500	163.009	80.009	19.993	104.468	20.016	3.226	0.463
168.000	163.269	80.009	19.992	104.467	20.014	3.398	0.466
168.500	163.529	80.009	19.993	104.467	20.015	3.333	0.503
169.000	163.798	80.008	19.994	104.465	20.012	3.579	0.524
169.500	164.025	80.009	19.993	104.465	20.012	3.516	0.512
170.000	164.245	80.010	19.993	104.464	20.017	3.160	0.472
170.500	164.525	80.010	19.992	104.464	20.017	3.138	0.474
171.000	164.779	80.009	19.993	104.463	20.013	3.468	0.517
171.500	165.065	80.009	19.992	104.464	20.015	3.272	0.537
172.000	165.277	80.009	19.993	104.464	20.017	3.136	0.519
172.500	165.517	80.010	19.993	104.465	20.018	3.099	0.475
173.000	165.777	80.009	19.993	104.465	20.016	3.241	0.476
173.500	166.044	80.010	19.992	104.465	20.015	3.309	0.513
174.000	166.252	80.011	19.993	104.463	20.018	3.064	0.501
174.500	166.527	80.010	19.993	104.462	20.016	3.199	0.479
175.000	166.762	80.009	19.992	104.460	20.021	2.859	0.496
175.500	167.014	80.010	19.992	104.457	20.020	2.902	0.499
176.000	167.237	80.011	19.992	104.457	20.020	2.915	0.482
176.500	167.488	80.009	19.992	104.457	20.016	3.210	0.474
177.000	167.751	80.010	19.993	104.457	20.020	2.889	0.494
177.500	167.992	80.011	19.993	104.459	20.018	3.110	0.509
178.000	168.247	80.010	19.993	104.460	20.017	3.182	0.500
178.500	168.484	80.009	19.993	104.459	20.015	3.295	0.494
179.000	168.739	80.010	19.993	104.459	20.018	3.101	0.492
179.500	168.972	80.010	19.993	104.458	20.019	3.007	0.490
180.000	169.199	80.010	19.993	104.456	20.017	3.186	0.474
180.500	169.465	80.010	19.993	104.458	20.016	3.252	0.477
181.000	169.688	80.010	19.993	104.461	20.019	2.990	0.491
181.500	169.973	80.011	19.993	104.463	20.018	3.079	0.498
182.000	170.203	80.009	19.993	104.466	20.016	3.267	0.511
182.500	170.458	80.009	19.994	104.468	20.016	3.217	0.500
183.000	170.696	80.009	19.994	104.470	20.016	3.223	0.489
183.500	170.967	80.010	19.992	104.468	20.018	3.084	0.501
184.000	171.214	80.011	19.993	104.468	20.016	3.263	0.514
184.500	171.467	80.011	19.994	104.465	20.016	3.239	0.509
185.000	171.721	80.010	19.994	104.463	20.013	3.446	0.503
185.500	171.968	80.009	19.993	104.458	20.018	3.110	0.503
186.000	172.208	80.010	19.994	104.456	20.018	3.075	0.494
186.500	172.446	80.009	19.994	104.455	20.014	3.418	0.483
187.000	172.725	80.010	19.994	104.456	20.016	3.206	0.498
187.500	172.976	80.010	19.994	104.457	20.019	3.014	0.523
188.000	173.249	80.010	19.994	104.459	20.014	3.400	0.527
188.500	173.471	80.009	19.993	104.460	20.018	3.094	0.510
189.000	173.719	80.011	19.994	104.460	20.017	3.121	0.482
189.500	173.986	80.009	19.994	104.458	20.020	2.926	0.492
190.000	174.282	80.010	19.995	104.457	20.011	3.621	0.539
190.500	174.491	80.009	19.993	104.455	20.016	3.204	0.534
191.000	174.733	80.010	19.994	104.454	20.017	3.178	0.478
191.500	174.979	80.008	19.994	104.455	20.021	2.837	0.469
192.000	175.223	80.010	19.994	104.456	20.014	3.396	0.489
192.500	175.495	80.009	19.995	104.456	20.014	3.409	0.503
193.000	175.718	80.009	19.994	104.458	20.017	3.180	0.506
193.500	175.961	80.009	19.995	104.457	20.016	3.206	0.481
194.000	176.198	80.010	19.993	104.456	20.017	3.132	0.473
194.500	176.476	80.009	19.993	104.456	20.017	3.153	0.498
195.000	176.715	80.008	19.994	104.456	20.014	3.354	0.516
195.500	176.936	80.009	19.995	104.456	20.015	3.306	0.488
196.000	177.223	80.008	19.994	104.457	20.018	3.077	0.484
196.500	177.476	80.008	19.994	104.457	20.017	3.132	0.524
197.000	177.716	80.010	19.995	104.457	20.015	3.300	0.517
197.500	177.982	80.009	19.994	104.457	20.016	3.208	0.500
198.000	178.203	80.009	19.995	104.456	20.016	3.232	0.496
198.500	178.476	80.009	19.994	104.455	20.017	3.119	0.490
199.001	178.722	80.008	19.994	104.455	20.014	3.416	0.507
199.500	178.958	80.007	19.994	104.455	20.015	3.335	0.500
200.000	179.239	80.009	19.994	104.456	20.018	3.108	0.499
200.500	179.477	80.008	19.994	104.458	20.021	2.839	0.518
201.000	179.737	80.009	19.994	104.458	20.020	2.909	0.509
201.500	179.964	80.009	19.994	104.457	20.019	3.001	0.493
202.000	180.215	80.011	19.994	104.457	20.018	3.077	0.483
202.500	180.461	80.009	19.993	104.456	20.019	2.963	0.487
203.000	180.694	80.009	19.994	104.455	20.017	3.177	0.487
203.500	180.988	80.010	19.993	104.455	20.019	3.022	0.503
204.000	181.233	80.009	19.994	104.456	20.019	3.020	0.533
204.500	181.480	80.010	19.994	104.456	20.022	2.725	0.516
205.000	181.724	80.010	19.993	104.456	20.020	2.872	0.492
205.500	181.980	80.010	19.993	104.455	20.019	3.014	0.496
206.000	182.189	80.010	19.994	104.456	20.020	2.931	0.483
206.500	182.456	80.010	19.993	104.455	20.019	2.972	0.471
207.000	182.734	80.010	19.993	104.455	20.017	3.182	0.510
207.500	182.984	80.010	19.994	104.454	20.020	2.876	0.536
208.000	183.241	80.009	19.993	104.454	20.018	3.033	0.517
208.500	183.480	80.010	19.993	104.454	20.016	3.212	0.501
209.000	183.733	80.009	19.993	104.455	20.017	3.112	0.494
209.500	184.008	80.010	19.994	104.455	20.020	2.946	0.510
210.000	184.252	80.010	19.995	104.455	20.017	3.173	0.523
210.500	184.505	80.008	19.993	104.456	20.021	2.797	0.508
211.000	184.767	80.009	19.993	104.456	20.017	3.160	0.506
211.500	185.019	80.010	19.994	104.455	20.017	3.153	0.514
212.000	185.251	80.010	19.994	104.455	20.017	3.164	0.499
212.500	185.523	80.009	19.994	104.455	20.015	3.308	0.494
213.000	185.772	80.010	19.993	104.455	20.020	2.930	0.513
213.500	186.060	80.010	19.994	104.455	20.016	3.264	0.529
214.000	186.305	80.009	19.994	104.456	20.016	3.225	0.535
214.500	186.579	80.009	19.993	104.456	20.019	2.972	0.526
215.000	186.815	80.008	19.994	104.454	20.018	3.051	0.515
215.500	187.080	80.009	19.993	104.454	20.018	3.088	0.505
216.000	187.327	80.009	19.994	104.454	20.017	3.186	0.506
216.500	187.584	80.010	19.995	104.453	20.019	3.018	0.508
217.000	187.847	80.009	19.995	104.452	20.013	3.485	0.513
217.500	188.117	80.010	19.994	104.450	20.014	3.426	0.527
218.000	188.356	80.010	19.994	104.451	20.013	3.478	0.521
218.500	188.574	80.009	19.995	104.448	20.013	3.435	0.483
219.000	188.843	80.010	19.993	104.447	20.016	3.269	0.472
219.500	189.116	80.009	19.994	104.446	20.014	3.424	0.515
220.000	189.385	80.009	19.994	104.447	20.015	3.299	0.543
220.500	189.580	80.009	19.994	104.446	20.014	3.417	0.503
221.000	189.854	80.010	19.993	104.447	20.013	3.452	0.467
221.500	190.117	80.008	19.994	104.448	20.018	3.061	0.503
222.000	190.356	80.009	19.994	104.450	20.015	3.339	0.519
222.500	190.614	80.008	19.994	104.450	20.016	3.192	0.499
223.000	190.844	80.009	19.994	104.445	20.015	3.301	0.492
223.500	191.123	80.009	19.993	104.443	20.012	3.526	0.499
224.000	191.365	80.009	19.994	104.439	20.013	3.487	0.515
224.500	191.595	80.009	19.994	104.437	20.015	3.292	0.496
225.000	191.864	80.009	19.993	104.440	20.010	3.672	0.485
225.500	192.106	80.009	19.994	104.445	20.010	3.725	0.505
226.000	192.337	80.008	19.994	104.448	20.013	3.459	0.492
226.500	192.624	80.010	19.993	104.448	20.013	3.487	0.496
227.000	192.836	80.009	19.993	104.449	20.013	3.483	0.509
227.500	193.114	80.009	19.993	104.446	20.012	3.513	0.495
228.000	193.342	80.008	19.993	104.443	20.010	3.743	0.498
228.500	193.591	80.010	19.994	104.441	20.012	3.579	0.491
229.000	193.889	80.010	19.994	104.444	20.011	3.653	0.512
229.500	194.089	80.011	19.993	104.444	20.008	3.832	0.523
230.000	194.322	80.010	19.993	104.441	20.014	3.393	0.466
230.500	194.599	80.010	19.994	104.439	20.012	3.578	0.472
231.000	194.858	80.011	19.993	104.436	20.013	3.480	0.523
231.500	195.100	80.011	19.993	104.434	20.013	3.438	0.518
232.000	195.310	80.011	19.992	104.431	20.010	3.681	0.476
232.501	195.592	80.011	19.992	104.435	20.012	3.530	0.472
233.001	195.828	80.010	19.992	104.439	20.011	3.604	0.505
233.500	196.080	80.012	19.992	104.439	20.011	3.602	0.503
234.000	196.314	80.011	19.994	104.440	20.013	3.497	0.487
234.500	196.575	80.011	19.993	104.439	20.012	3.576	0.491
235.000	196.801	80.012	19.994	104.436	20.014	3.349	0.491
235.500	197.081	80.012	19.992	104.432	20.012	3.552	0.497
236.000	197.304	80.010	19.992	104.433	20.016	3.266	0.505
236.500	197.557	80.012	19.993	104.433	20.015	3.292	0.489
237.000	197.815	80.011	19.992	104.438	20.017	3.178	0.494
237.500	198.094	80.010	19.993	104.439	20.013	3.482	0.524
238.000	198.313	80.012	19.993	104.437	20.012	3.554	0.517
238.500	198.568	80.011	19.993	104.440	20.013	3.471	0.486
239.000	198.832	80.011	19.993	104.441	20.018	3.082	0.496
239.500	199.100	80.010	19.993	104.435	20.014	3.351	0.525
240.000	199.320	80.012	19.993	104.430	20.015	3.279	0.510
240.500	199.556	80.010	19.992	104.428	20.014	3.366	0.472
241.000	199.814	80.009	19.993	104.423	20.009	3.757	0.475
241.500	200.050	80.011	19.993	104.417	20.013	3.471	0.494
242.000	200.291	80.010	19.993	104.417	20.013	3.467	0.485
242.500	200.576	80.009	19.993	104.420	20.010	3.722	0.502
243.000	200.790	80.008	19.993	104.420	20.013	3.493	0.512
243.500	201.060	80.009	19.993	104.419	20.015	3.314	0.491
244.000	201.293	80.010	19.993	104.419	20.015	3.275	0.493
244.500	201.526	80.008	19.993	104.419	20.014	3.353	0.485
245.000	201.816	80.010	19.993	104.417	20.012	3.552	0.494
245.500	202.050	80.009	19.994	104.417	20.015	3.301	0.523
246.000	202.274	80.009	19.993	104.416	20.017	3.142	0.491
246.500	202.556	80.010	19.994	104.416	20.017	3.177	0.482
247.000	202.818	80.008	19.993	104.416	20.015	3.279	0.525
247.500	203.072	80.008	19.992	104.416	20.014	3.401	0.530
248.000	203.326	80.009	19.993	104.416	20.014	3.368	0.512
248.500	203.544	80.010	19.993	104.417	20.018	3.100	0.490
249.000	203.819	80.008	19.994	104.417	20.017	3.124	0.483
249.500	204.048	80.009	19.992	104.418	20.014	3.386	0.499
250.000	204.324	80.008	19.994	104.419	20.015	3.270	0.505
250.500	204.577	80.010	19.993	104.420	20.016	3.227	0.517
251.000	204.818	80.010	19.993	104.420	20.017	3.176	0.512
251.500	205.035	80.009	19.993	104.420	20.015	3.331	0.476
252.000	205.316	80.009	19.994	104.420	20.013	3.497	0.478
252.500	205.554	80.009	19.994	104.418	20.015	3.318	0.509
253.000	205.803	80.010	19.994	104.417	20.014	3.412	0.503
253.500	206.065	80.010	19.994	104.417	20.013	3.495	0.499
254.000	206.327	80.010	19.994	104.417	20.013	3.486	0.518
254.500	206.559	80.008	19.993	104.418	20.012	3.528	0.509
255.000	206.833	80.008	19.994	104.418	20.010	3.668	0.500
255.500	207.056	80.010	19.994	104.419	20.011	3.593	0.501
256.001	207.299	80.009	19.994	104.420	20.009	3.759	0.481
256.501	207.577	80.008	19.993	104.425	20.010	3.676	0.494
257.000	207.827	80.010	19.994	104.425	20.014	3.371	0.524
257.500	208.032	80.010	19.995	104.427	20.012	3.526	0.491
258.000	208.325	80.009	19.993	104.426	20.017	3.126	0.476
258.500	208.568	80.011	19.994	104.424	20.011	3.613	0.517
259.000	208.826	80.009	19.993	104.419	20.012	3.539	0.519
259.500	209.086	80.009	19.994	104.417	20.015	3.290	0.510
260.000	209.297	80.009	19.993	104.416	20.014	3.390	0.494
260.500	209.573	80.007	19.994	104.416	20.014	3.416	0.479
261.000	209.806	80.009	19.993	104.416	20.014	3.416	0.498
261.500	210.050	80.010	19.993	104.418	20.014	3.375	0.493
262.000	210.331	80.008	19.994	104.418	20.014	3.427	0.501
262.500	210.579	80.010	19.994	104.417	20.012	3.528	0.527
263.000	210.839	80.009	19.992	104.417	20.014	3.421	0.518
263.500	211.060	80.009	19.993	104.417	20.011	3.622	0.494
264.000	211.302	80.011	19.992	104.416	20.012	3.541	0.472
264.500	211.565	80.010	19.993	104.418	20.011	3.598	0.484
265.000	211.790	80.009	19.993	104.421	20.013	3.445	0.496
265.500	212.045	80.009	19.993	104.421	20.010	3.716	0.484
266.000	212.269	80.008	19.992	104.421	20.012	3.545	0.480
266.500	212.548	80.009	19.993	104.421	20.009	3.755	0.492
267.000	212.780	80.010	19.994	104.419	20.011	3.661	0.507
267.500	213.042	80.010	19.993	104.417	20.012	3.534	0.502
268.000	213.282	80.010	19.994	104.417	20.013	3.482	0.498
268.500	213.494	80.009	19.993	104.418	20.010	3.681	0.477
269.000	213.775	80.009	19.992	104.419	20.012	3.560	0.472
269.500	214.034	80.010	19.992	104.419	20.010	3.709	0.516
270.000	214.255	80.010	19.993	104.419	20.008	3.877	0.510
270.500	214.526	80.009	19.993	104.419	20.007	3.966	0.486
271.000	214.749	80.009	19.993	104.413	20.005	4.139	0.493
271.500	215.000	80.008	19.993	104.410	20.006	4.010	0.484
272.000	215.265	80.011	19.993	104.410	20.012	3.523	0.495
272.500	215.485	80.010	19.993	104.411	20.009	3.753	0.500
273.000	215.761	80.009	19.992	104.411	20.010	3.694	0.490
273.500	216.005	80.008	19.993	104.416	20.006	4.047	0.508
274.000	216.262	80.008	19.992	104.418	20.012	3.556	0.510
274.500	216.472	80.007	19.993	104.419	20.007	3.940	0.484
275.000	216.734	80.009	19.993	104.420	20.006	4.056	0.469
275.500	216.997	80.008	19.994	104.421	20.008	3.897	0.498
276.000	217.257	80.009	19.992	104.421	20.008	3.892	0.524
276.500	217.461	80.007	19.994	104.421	20.009	3.816	0.494
277.000	217.709	80.009	19.994	104.420	20.008	3.892	0.458
277.500	217.939	80.007	19.993	104.420	20.003	4.224	0.465
278.000	218.193	80.009	19.994	104.418	20.008	3.890	0.481
278.500	218.440	80.008	19.993	104.419	20.009	3.816	0.492
279.000	218.672	80.008	19.993	104.418	20.008	3.855	0.490
279.500	218.961	80.009	19.993	104.415	20.006	4.004	0.500
280.000	219.191	80.008	19.994	104.414	20.006	3.991	0.520
280.500	219.423	80.008	19.994	104.414	20.007	3.951	0.490
281.000	219.711	80.008	19.993	104.414	20.006	3.993	0.491
281.500	219.909	80.008	19.994	104.415	20.008	3.860	0.503
282.000	220.180	80.009	19.994	104.418	20.010	3.705	0.478
282.500	220.401	80.010	19.994	104.419	20.008	3.864	0.480
283.000	220.649	80.009	19.994	104.419	20.012	3.528	0.480
283.500	220.885	80.008	19.994	104.419	20.007	3.908	0.476
284.000	221.147	80.009	19.993	104.421	20.007	3.932	0.492
284.500	221.417	80.008	19.993	104.420	20.006	4.047	0.515
285.000	221.619	80.009	19.993	104.420	20.010	3.742	0.501
285.500	221.894	80.007	19.993	104.418	20.006	3.999	0.474
286.000	222.123	80.011	19.994	104.417	20.008	3.853	0.491
286.500	222.402	80.009	19.993	104.416	20.005	4.109	0.506
287.000	222.637	80.009	19.993	104.416	20.008	3.864	0.511
287.500	222.893	80.009	19.993	104.415	20.009	3.803	0.502
288.000	223.138	80.010	19.994	104.416	20.011	3.652	0.496
288.501	223.391	80.008	19.992	104.415	20.007	3.916	0.500
289.001	223.611	80.009	19.993	104.415	20.010	3.716	0.486
289.500	223.892	80.010	19.994	104.415	20.009	3.783	0.487
290.000	224.105	80.009	19.993	104.417	20.005	4.098	0.497
290.500	224.348	80.009	19.993	104.419	20.011	3.661	0.475
291.000	224.617	80.011	19.994	104.420	20.009	3.764	0.484
291.500	224.864	80.009	19.992	104.420	20.008	3.827	0.514
292.000	225.113	80.011	19.993	104.420	20.011	3.643	0.506
292.500	225.369	80.011	19.993	104.418	20.010	3.740	0.501
293.000	225.636	80.009	19.992	104.418	20.008	3.905	0.514
293.500	225.862	80.011	19.993	104.418	20.010	3.731	0.508
294.000	226.144	80.008	19.992	104.418	20.008	3.827	0.501
294.500	226.376	80.010	19.993	104.418	20.011	3.663	0.511
295.000	226.646	80.010	19.993	104.419	20.007	3.980	0.508
295.500	226.856	80.009	19.993	104.419	20.007	3.929	0.492
296.000	227.129	80.010	19.993	104.418	20.011	3.659	0.482
296.500	227.379	80.008	19.992	104.418	20.009	3.752	0.503
297.000	227.634	80.010	19.994	104.418	20.008	3.901	0.514
297.500	227.881	80.009	19.993	104.418	20.011	3.630	0.504
298.000	228.128	80.010	19.993	104.418	20.013	3.493	0.498
298.500	228.433	80.010	19.993	104.418	20.008	3.877	0.522
299.000	228.663	80.011	19.994	104.418	20.012	3.552	0.543
299.500	228.915	80.008	19.993	104.418	20.008	3.897	0.509
300.000	229.134	80.011	19.993	104.418	20.003	4.281	0.477
300.500	229.380	80.009	19.993	104.419	20.008	3.855	0.468
301.000	229.656	80.008	19.993	104.419	20.007	3.936	0.494
301.500	229.924	80.010	19.994	104.418	20.010	3.731	0.533
302.000	230.180	80.010	19.994	104.418	20.007	3.945	0.534
302.500	230.410	80.010	19.993	104.418	20.011	3.624	0.505
303.000	230.673	80.010	19.993	104.418	20.011	3.635	0.490
303.501	230.885	80.010	19.994	104.418	20.012	3.556	0.484
304.001	231.155	80.010	19.993	104.419	20.009	3.785	0.478
304.500	231.371	80.009	19.993	104.418	20.010	3.726	0.484
305.000	231.646	80.009	19.994	104.418	20.011	3.645	0.489
305.500	231.892	80.009	19.993	104.417	20.010	3.685	0.506
306.000	232.135	80.010	19.994	104.415	20.012	3.545	0.505
306.500	232.407	80.008	19.994	104.414	20.009	3.761	0.502
307.000	232.678	80.009	19.993	104.413	20.009	3.811	0.529
307.500	232.906	80.009	19.994	104.411	20.008	3.831	0.521
308.000	233.167	80.009	19.994	104.410	20.010	3.696	0.494
308.500	233.389	80.009	19.994	104.410	20.011	3.663	0.486
309.000	233.674	80.010	19.994	104.410	20.009	3.787	0.495
309.500	233.909	80.009	19.993	104.410	20.006	4.036	0.514
310.000	234.182	80.010	19.994	104.412	20.006	3.992	0.514
310.500	234.420	80.010	19.994	104.412	20.008	3.829	0.510
311.000	234.689	80.011	19.995	104.412	20.006	4.062	0.510
311.500	234.914	80.012	19.995	104.412	20.007	3.914	0.501
312.000	235.180	80.011	19.996	104.413	20.008	3.903	0.492
312.500	235.441	80.011	19.993	104.412	20.009	3.772	0.509
313.000	235.656	80.009	19.995	104.412	20.008	3.901	0.501
313.500	235.914	80.012	19.994	104.413	20.005	4.102	0.474
314.000	236.153	80.011	19.993	104.413	20.005	4.082	0.485
314.500	236.385	80.011	19.994	104.411	20.005	4.139	0.485
315.000	236.663	80.011	19.996	104.410	20.006	4.034	0.491
315.500	236.932	80.011	19.994	104.410	20.007	3.916	0.528
316.000	237.150	80.011	19.994	104.410	20.002	4.359	0.517
316.500	237.428	80.012	19.995	104.409	20.010	3.735	0.492
317.000	237.657	80.012	19.994	104.410	20.007	3.979	0.502
317.500	237.919	80.011	19.995	104.410	20.009	3.813	0.499
318.000	238.180	80.010	19.993	104.410	20.007	3.940	0.507
318.500	238.409	80.010	19.993	104.410	20.008	3.848	0.506
319.000	238.653	80.010	19.995	104.410	20.008	3.881	0.481
319.500	238.872	80.012	19.994	104.410	20.008	3.894	0.468
320.000	239.098	80.011	19.994	104.410	20.007	3.923	0.454
320.500	239.348	80.012	19.994	104.407	20.005	4.100	0.460
321.000	239.563	80.011	19.994	104.407	20.006	3.997	0.471
321.500	239.850	80.011	19.993	104.406	20.010	3.683	0.484
322.000	240.066	80.010	19.995	104.407	20.008	3.903	0.503
322.500	240.328	80.011	19.993	104.408	20.007	3.932	0.491
323.000	240.561	80.010	19.995	104.411	20.006	4.034	0.486
323.500	240.810	80.010	19.993	104.412	20.008	3.899	0.488
324.000	241.043	80.010	19.993	104.412	20.004	4.204	0.482
324.500	241.330	80.010	19.994	104.410	20.003	4.281	0.501
325.000	241.607	80.008	19.993	104.410	20.004	4.185	0.542
325.500	241.778	80.010	19.993	104.409	20.007	3.971	0.506
326.000	242.042	80.010	19.994	104.408	20.003	4.224	0.441
326.500	242.292	80.010	19.993	104.410	20.006	3.986	0.474
327.000	242.579	80.009	19.993	104.412	20.008	3.857	0.526
327.500	242.795	80.008	19.993	104.412	20.007	3.969	0.520
328.000	243.041	80.008	19.992	104.413	20.006	4.041	0.482
328.500	243.298	80.010	19.993	104.410	20.010	3.739	0.483
329.000	243.520	80.008	19.993	104.408	20.005	4.073	0.491
329.501	243.785	80.009	19.994	104.406	20.007	3.984	0.483
330.001	244.047	80.008	19.993	104.406	20.004	4.163	0.507
330.500	244.297	80.008	19.993	104.406	20.005	4.074	0.520
331.000	244.500	80.009	19.992	104.410	20.009	3.766	0.483
331.500	244.789	80.009	19.992	104.412	20.002	4.314	0.473
332.000	245.022	80.010	19.993	104.414	20.005	4.108	0.507
332.500	245.308	80.009	19.992	104.414	20.002	4.333	0.520
333.000	245.522	80.009	19.993	104.414	20.005	4.128	0.509
333.500	245.755	80.008	19.992	104.414	20.003	4.224	0.473
334.000	246.044	80.008	19.993	104.415	20.004	4.191	0.484
334.500	246.301	80.009	19.993	104.415	20.005	4.078	0.534
335.000	246.528	80.009	19.994	104.416	20.008	3.864	0.515
335.500	246.790	80.009	19.994	104.416	20.010	3.746	0.486
336.000	247.034	80.009	19.992	104.416	20.010	3.740	0.498
336.500	247.268	80.009	19.994	104.416	20.006	4.021	0.493
337.000	247.525	80.009	19.993	104.416	20.005	4.126	0.485
337.500	247.742	80.010	19.994	104.416	20.006	3.997	0.482
338.000	248.045	80.010	19.993	104.415	20.009	3.820	0.497
338.500	248.240	80.009	19.993	104.415	20.003	4.252	0.509
339.000	248.472	80.009	19.992	104.415	20.005	4.095	0.462
339.500	248.765	80.008	19.993	104.415	20.005	4.143	0.476
340.000	248.975	80.009	19.992	104.416	20.002	4.316	0.514
340.500	249.276	80.010	19.993	104.417	20.004	4.189	0.507
341.000	249.520	80.009	19.993	104.417	20.009	3.748	0.528
341.500	249.782	80.010	19.992	104.418	20.006	4.049	0.526
342.000	250.054	80.008	19.991	104.417	20.001	4.396	0.520
342.500	250.325	80.009	19.993	104.415	20.001	4.416	0.539
343.000	250.550	80.010	19.992	104.415	20.009	3.809	0.519
343.501	250.829	80.009	19.993	104.415	20.005	4.082	0.499
344.000	251.031	80.008	19.992	104.414	20.006	4.060	0.492
344.500	251.309	80.009	19.993	104.414	20.006	4.010	0.481
345.000	251.541	80.009	19.993	104.415	20.004	4.189	0.495
345.500	251.800	80.010	19.993	104.415	20.006	4.052	0.500
346.000	252.021	80.009	19.992	104.415	20.006	4.043	0.485
346.500	252.271	80.008	19.992	104.416	20.007	3.925	0.476
347.000	252.520	80.009	19.992	104.417	20.008	3.866	0.485
347.500	252.767	80.009	19.993	104.417	20.007	3.960	0.498
348.001	253.046	80.007	19.993	104.415	20.006	4.012	0.511
348.500	253.267	80.008	19.993	104.408	20.006	3.997	0.513
349.000	253.527	80.008	19.993	104.404	20.007	3.955	0.491
349.500	253.770	80.009	19.994	104.401	20.009	3.800	0.492
350.000	254.039	80.010	19.994	104.400	20.005	4.143	0.507
350.500	254.263	80.009	19.993	104.403	20.004	4.196	0.502
351.000	254.515	80.009	19.992	104.410	20.003	4.237	0.485
351.500	254.760	80.009	19.993	104.414	20.005	4.084	0.487
352.000	255.015	80.008	19.992	104.417	20.000	4.466	0.498
352.500	255.266	80.009	19.992	104.415	19.998	4.693	0.502
353.000	255.528	80.008	19.993	104.412	20.003	4.266	0.509
353.500	255.762	80.009	19.993	104.411	20.006	4.050	0.505
354.000	255.995	80.009	19.993	104.412	20.006	4.012	0.482
354.500	256.288	80.007	19.993	104.412	20.002	4.305	0.497
355.000	256.507	80.009	19.993	104.414	20.003	4.244	0.519
355.500	256.762	80.009	19.994	104.418	20.005	4.104	0.493
356.000	256.989	80.007	19.993	104.418	20.005	4.078	0.477
356.500	257.270	80.008	19.992	104.418	20.000	4.477	0.495
357.000	257.475	80.008	19.993	104.417	20.001	4.399	0.497
357.500	257.776	80.008	19.993	104.416	20.001	4.408	0.496
358.000	258.017	80.008	19.992	104.415	20.003	4.292	0.524
358.500	258.241	80.007	19.992	104.412	19.999	4.552	0.504
359.000	258.513	80.008	19.992	104.410	20.000	4.479	0.481
359.501	258.778	80.008	19.993	104.411	20.006	4.040	0.516
360.001	259.030	80.009	19.993	104.412	20.002	4.333	0.527
360.500	259.270	80.008	19.993	104.411	20.002	4.363	0.505
361.000	259.535	80.008	19.993	104.411	20.000	4.468	0.498
361.500	259.773	80.007	19.993	104.413	20.001	4.440	0.504
362.000	260.043	80.007	19.993	104.414	20.002	4.331	0.506
362.500	260.273	80.008	19.993	104.414	20.000	4.523	0.504
363.000	260.508	80.010	19.993	104.414	19.999	4.542	0.482
363.500	260.750	80.009	19.993	104.417	20.002	4.316	0.472
364.000	260.978	80.009	19.993	104.417	20.001	4.460	0.474
364.500	261.201	80.009	19.993	104.417	20.000	4.530	0.460
365.000	261.502	80.008	19.994	104.418	19.998	4.685	0.487
365.500	261.708	80.009	19.994	104.419	19.997	4.763	0.515
366.000	261.936	80.009	19.994	104.419	20.000	4.504	0.471
366.500	262.198	80.009	19.993	104.419	19.997	4.757	0.462
367.000	262.459	80.009	19.992	104.419	19.997	4.733	0.506
367.500	262.690	80.010	19.993	104.419	19.996	4.789	0.508
368.000	262.973	80.011	19.993	104.418	19.998	4.667	0.503
368.500	263.191	80.010	19.993	104.418	19.996	4.802	0.508
369.000	263.449	80.010	19.993	104.418	19.999	4.593	0.489
369.500	263.737	80.009	19.994	104.415	19.996	4.835	0.511
370.000	263.966	80.012	19.993	104.409	19.995	4.918	0.531
370.501	264.206	80.010	19.993	104.409	19.995	4.913	0.493
371.001	264.444	80.010	19.993	104.407	19.996	4.813	0.474
371.501	264.659	80.012	19.993	104.406	19.997	4.769	0.465
372.000	264.920	80.010	19.992	104.405	19.997	4.741	0.464
372.500	265.162	80.009	19.993	104.408	19.995	4.863	0.489
373.000	265.406	80.010	19.992	104.408	19.995	4.916	0.494
373.500	265.708	80.011	19.993	104.409	19.995	4.883	0.516
374.000	265.942	80.010	19.993	104.408	19.996	4.857	0.542
374.500	266.155	80.009	19.992	104.410	19.994	5.016	0.491
375.000	266.404	80.011	19.995	104.411	19.992	5.117	0.454
375.500	266.673	80.011	19.994	104.412	19.993	5.034	0.490
376.000	266.904	80.009	19.993	104.414	19.995	4.916	0.509
376.500	267.190	80.008	19.994	104.416	19.993	5.086	0.508
377.000	267.431	80.010	19.993	104.416	19.990	5.300	0.522
377.500	267.691	80.009	19.993	104.416	19.993	5.049	0.515
378.000	267.913	80.010	19.993	104.411	19.987	5.510	0.492
378.500	268.149	80.009	19.994	104.409	19.995	4.872	0.470
379.000	268.394	80.010	19.994	104.409	19.993	5.080	0.469
379.500	268.642	80.008	19.994	104.408	19.993	5.082	0.487
380.000	268.881	80.011	19.993	104.408	19.992	5.165	0.490
380.500	269.117	80.010	19.993	104.408	19.992	5.106	0.480
381.000	269.376	80.010	19.993	104.408	19.989	5.346	0.485
381.500	269.637	80.010	19.994	104.405	19.987	5.514	0.508
382.000	269.908	80.009	19.994	104.405	19.991	5.256	0.526
382.500	270.172	80.010	19.995	104.404	19.989	5.409	0.534
383.000	270.461	80.010	19.995	104.405	19.987	5.566	0.544
383.500	270.694	80.010	19.994	104.405	19.985	5.721	0.537
384.000	270.902	80.011	19.992	104.408	19.991	5.254	0.481
384.500	271.152	80.010	19.994	104.408	19.989	5.412	0.449
385.000	271.428	80.010	19.994	104.409	19.987	5.538	0.492
385.500	271.665	80.010	19.994	104.412	19.983	5.824	0.519
386.000	271.910	80.010	19.993	104.413	19.987	5.571	0.498
386.500	272.150	80.010	19.994	104.410	19.986	5.595	0.484
387.000	272.411	80.011	19.993	104.410	19.986	5.636	0.493
387.500	272.652	80.010	19.994	104.411	19.986	5.617	0.501
388.000	272.914	80.009	19.993	104.411	19.988	5.477	0.502
388.500	273.156	80.009	19.994	104.409	19.987	5.545	0.503
389.000	273.404	80.010	19.993	104.410	19.984	5.763	0.497
389.500	273.626	80.010	19.993	104.410	19.984	5.745	0.480
390.000	273.889	80.009	19.993	104.409	19.985	5.704	0.478
390.500	274.145	80.010	19.993	104.409	19.984	5.798	0.502
391.000	274.388	80.010	19.993	104.411	19.984	5.789	0.509
391.500	274.615	80.010	19.993	104.413	19.983	5.846	0.484
392.000	274.888	80.011	19.993	104.412	19.985	5.726	0.485
392.500	275.151	80.010	19.994	104.407	19.979	6.173	0.518
393.000	275.397	80.010	19.993	104.406	19.985	5.717	0.522
393.501	275.658	80.010	19.994	104.405	19.981	6.051	0.508
394.000	275.892	80.010	19.992	104.405	19.982	5.938	0.501
394.500	276.132	80.011	19.993	104.407	19.979	6.147	0.484
395.000	276.383	80.013	19.993	104.412	19.979	6.195	0.482
395.500	276.599	80.011	19.994	104.413	19.981	5.986	0.479
396.000	276.849	80.011	19.993	104.414	19.978	6.239	0.467
396.500	277.097	80.011	19.993	104.414	19.977	6.346	0.482
397.000	277.361	80.012	19.992	104.414	19.979	6.191	0.504
397.500	277.627	80.012	19.993	104.413	19.976	6.398	0.521
398.000	277.870	80.012	19.993	104.413	19.975	6.488	0.520
398.500	278.139	80.011	19.993	104.412	19.976	6.440	0.510
399.000	278.413	80.014	19.994	104.411	19.980	6.128	0.527
399.500	278.580	80.011	19.993	104.411	19.977	6.311	0.492
400.000	278.846	80.013	19.993	104.412	19.974	6.560	0.437
400.500	279.097	80.012	19.993	104.412	19.974	6.577	0.475
401.000	279.384	80.012	19.993	104.413	19.974	6.536	0.528
401.500	279.638	80.011	19.994	104.414	19.974	6.547	0.540
402.001	279.879	80.011	19.993	104.413	19.970	6.920	0.518
402.500	280.128	80.012	19.994	104.413	19.973	6.678	0.492
403.000	280.378	80.012	19.994	104.412	19.973	6.678	0.494
403.500	280.633	80.011	19.994	104.411	19.970	6.868	0.502
404.000	280.899	80.011	19.993	104.411	19.970	6.911	0.513
404.500	281.087	80.010	19.994	104.412	19.970	6.894	0.487
405.000	281.372	80.009	19.993	104.412	19.969	7.005	0.464
405.500	281.629	80.010	19.994	104.413	19.970	6.920	0.507
406.000	281.865	80.010	19.994	104.415	19.971	6.846	0.518
406.500	282.104	80.010	19.994	104.414	19.969	6.983	0.484
407.000	282.347	80.008	19.994	104.415	19.970	6.857	0.478
407.500	282.569	80.009	19.993	104.415	19.970	6.903	0.474
408.000	282.846	80.009	19.995	104.415	19.967	7.139	0.482
408.500	283.108	80.008	19.994	104.415	19.968	7.034	0.518
409.000	283.375	80.009	19.994	104.416	19.968	7.053	0.534
409.500	283.623	80.008	19.994	104.417	19.968	7.029	0.522
410.000	283.898	80.008	19.994	104.417	19.967	7.147	0.519
410.501	284.134	80.008	19.994	104.417	19.967	7.171	0.517
411.000	284.394	80.007	19.994	104.417	19.963	7.464	0.504
411.500	284.642	80.008	19.994	104.417	19.964	7.366	0.502
412.000	284.870	80.008	19.994	104.417	19.966	7.248	0.492
412.501	285.134	80.007	19.994	104.417	19.962	7.547	0.484
413.000	285.378	80.008	19.994	104.417	19.964	7.381	0.500
413.500	285.616	80.008	19.994	104.417	19.964	7.379	0.495
414.000	285.888	80.007	19.994	104.417	19.962	7.532	0.496
414.500	286.122	80.009	19.995	104.416	19.964	7.407	0.508
415.000	286.331	80.009	19.994	104.417	19.963	7.453	0.475
415.500	286.615	80.008	19.993	104.417	19.961	7.595	0.468
416.000	286.843	80.007	19.993	104.417	19.956	7.986	0.503
416.500	287.126	80.008	19.995	104.416	19.958	7.852	0.512
417.000	287.400	80.010	19.994	104.416	19.961	7.632	0.534
417.500	287.629	80.007	19.993	104.416	19.955	8.078	0.530
418.000	287.856	80.010	19.994	104.416	19.956	7.985	0.480
418.500	288.174	80.008	19.993	104.417	19.957	7.963	0.501
419.000	288.415	80.009	19.993	104.417	19.955	8.065	0.552
419.500	288.658	80.009	19.993	104.416	19.957	7.925	0.521
420.000	288.909	80.008	19.993	104.416	19.953	8.283	0.489
420.500	289.144	80.009	19.993	104.416	19.953	8.208	0.490
421.000	289.411	80.010	19.994	104.416	19.954	8.134	0.494
421.500	289.665	80.008	19.992	104.416	19.954	8.191	0.512
422.000	289.870	80.008	19.993	104.418	19.951	8.411	0.490
422.500	290.131	80.010	19.993	104.419	19.953	8.265	0.462
423.000	290.445	80.008	19.993	104.419	19.949	8.567	0.521
423.500	290.666	80.010	19.993	104.420	19.945	8.846	0.555
424.000	290.910	80.008	19.993	104.421	19.947	8.731	0.500
424.500	291.174	80.010	19.993	104.421	19.948	8.647	0.487
425.000	291.445	80.008	19.992	104.421	19.946	8.807	0.522
425.500	291.722	80.009	19.993	104.420	19.946	8.826	0.541
426.000	291.948	80.008	19.993	104.419	19.947	8.691	0.525
426.500	292.216	80.008	19.992	104.418	19.946	8.818	0.499
427.000	292.463	80.009	19.993	104.418	19.945	8.916	0.505
427.500	292.719	80.011	19.993	104.419	19.947	8.761	0.509
428.000	292.985	80.008	19.992	104.423	19.942	9.116	0.512
428.500	293.175	80.009	19.993	104.429	19.943	9.031	0.489
429.000	293.463	80.010	19.993	104.434	19.944	8.987	0.467
429.500	293.727	80.010	19.993	104.434	19.941	9.238	0.515
430.000	293.954	80.008	19.993	104.433	19.938	9.464	0.521
430.500	294.202	80.009	19.992	104.429	19.935	9.672	0.483
431.000	294.489	80.008	19.993	104.424	19.935	9.683	0.505
431.500	294.722	80.010	19.992	104.419	19.936	9.571	0.528
432.000	294.979	80.009	19.992	104.419	19.933	9.847	0.505
432.500	295.210	80.010	19.992	104.418	19.932	9.949	0.489
433.000	295.434	80.009	19.993	104.418	19.927	10.300	0.471
433.500	295.734	80.010	19.992	104.420	19.935	9.698	0.489
434.000	295.986	80.009	19.992	104.424	19.933	9.866	0.538
434.500	296.254	80.010	19.992	104.424	19.928	10.213	0.536
435.000	296.496	80.010	19.994	104.424	19.931	10.030	0.515
435.500	296.742	80.009	19.992	104.423	19.931	10.015	0.499
436.000	296.978	80.009	19.993	104.422	19.929	10.153	0.485
436.500	297.208	80.009	19.993	104.421	19.928	10.233	0.474
437.000	297.438	80.008	19.993	104.423	19.924	10.524	0.463
437.500	297.715	80.007	19.992	104.423	19.922	10.692	0.484
438.000	297.983	80.008	19.993	104.423	19.923	10.657	0.526
438.500	298.255	80.008	19.994	104.421	19.922	10.692	0.543
439.000	298.480	80.008	19.994	104.418	19.920	10.852	0.518
439.500	298.747	80.008	19.992	104.416	19.920	10.900	0.494
440.000	298.987	80.010	19.994	104.415	19.920	10.883	0.500
440.500	299.257	80.009	19.993	104.416	19.916	11.235	0.508
441.000	299.494	80.008	19.994	104.423	19.917	11.143	0.508
441.500	299.756	80.010	19.994	104.428	19.917	11.119	0.503
442.000	299.996	80.009	19.993	104.429	19.916	11.208	0.501
442.500	300.264	80.008	19.994	104.429	19.916	11.165	0.505
443.001	300.500	80.009	19.993	104.430	19.913	11.401	0.506
443.500	300.709	80.008	19.994	104.426	19.912	11.547	0.475
444.000	301.007	80.008	19.993	104.425	19.909	11.785	0.476
444.500	301.217	80.009	19.993	104.425	19.911	11.577	0.507
445.000	301.482	80.010	19.993	104.427	19.910	11.680	0.491
445.500	301.756	80.010	19.993	104.427	19.907	11.920	0.507
446.000	301.983	80.007	19.993	104.426	19.908	11.863	0.520
446.500	302.211	80.009	19.993	104.429	19.909	11.723	0.478
447.000	302.498	80.008	19.992	104.432	19.903	12.230	0.485
447.500	302.778	80.009	19.994	104.432	19.905	12.095	0.541
448.000	303.011	80.009	19.993	104.434	19.900	12.469	0.541
448.500	303.269	80.009	19.993	104.432	19.898	12.602	0.502
449.000	303.517	80.010	19.993	104.429	19.900	12.443	0.498
449.500	303.785	80.009	19.994	104.432	19.901	12.358	0.511
450.000	304.023	80.009	19.994	104.437	19.900	12.437	0.511
450.500	304.251	80.010	19.993	104.442	19.898	12.640	0.486
451.000	304.509	80.010	19.993	104.444	19.898	12.640	0.476
451.500	304.727	80.009	19.994	104.446	19.892	13.081	0.481
452.000	304.989	80.011	19.993	104.445	19.891	13.207	0.478
452.500	305.244	80.010	19.993	104.446	19.889	13.389	0.499
453.000	305.519	80.011	19.993	104.444	19.891	13.168	0.523
453.500	305.775	80.011	19.993	104.443	19.887	13.487	0.530
454.000	306.033	80.011	19.992	104.445	19.888	13.446	0.522
454.500	306.272	80.011	19.992	104.445	19.888	13.456	0.506
455.000	306.531	80.012	19.993	104.444	19.884	13.740	0.498
455.500	306.753	80.010	19.993	104.442	19.883	13.821	0.490
456.000	307.042	80.011	19.992	104.443	19.882	13.946	0.496
456.500	307.304	80.012	19.993	104.439	19.880	14.099	0.531
457.000	307.557	80.010	19.993	104.438	19.886	13.596	0.533
457.500	307.790	80.012	19.993	104.437	19.882	13.907	0.500
458.000	308.029	80.012	19.992	104.439	19.875	14.453	0.479
458.500	308.311	80.012	19.992	104.443	19.877	14.318	0.497
459.000	308.580	80.011	19.991	104.448	19.872	14.678	0.536
459.500	308.783	80.011	19.994	104.449	19.875	14.449	0.511
460.000	309.052	80.012	19.993	104.453	19.869	14.938	0.472
460.500	309.324	80.011	19.993	104.453	19.873	14.664	0.507
461.000	309.557	80.010	19.992	104.453	19.871	14.759	0.523
461.500	309.841	80.010	19.994	104.453	19.867	15.080	0.511
462.000	310.081	80.011	19.993	104.453	19.866	15.150	0.521
462.500	310.319	80.010	19.993	104.452	19.861	15.613	0.501
463.000	310.585	80.011	19.993	104.452	19.863	15.420	0.491
463.500	310.821	80.011	19.992	104.453	19.858	15.806	0.503
464.000	311.109	80.011	19.993	104.453	19.856	15.990	0.513
464.500	311.357	80.013	19.993	104.453	19.854	16.150	0.530
465.000	311.608	80.010	19.993	104.453	19.853	16.185	0.518
465.500	311.876	80.010	19.993	104.453	19.848	16.603	0.509
466.000	312.107	80.012	19.994	104.453	19.850	16.492	0.509
466.500	312.368	80.010	19.993	104.453	19.848	16.650	0.495
467.000	312.635	80.011	19.994	104.453	19.847	16.678	0.510
467.500	312.927	80.011	19.993	104.454	19.840	17.242	0.543
468.000	313.157	80.009	19.992	104.454	19.840	17.227	0.540
468.500	313.443	80.011	19.993	104.456	19.838	17.428	0.519
469.000	313.667	80.009	19.994	104.459	19.836	17.585	0.514
469.500	313.906	80.011	19.993	104.459	19.833	17.788	0.487
470.000	314.153	80.009	19.993	104.459	19.829	18.156	0.474
470.500	314.440	80.010	19.994	104.460	19.833	17.830	0.510
471.000	314.726	80.010	19.993	104.463	19.826	18.394	0.553
471.500	314.986	80.010	19.994	104.468	19.827	18.314	0.560
472.000	315.259	80.010	19.993	104.473	19.827	18.309	0.540
472.500	315.454	80.010	19.994	104.477	19.827	18.314	0.501
473.000	315.720	80.011	19.994	104.478	19.818	19.046	0.465
473.500	315.978	80.010	19.993	104.475	19.818	19.026	0.493
474.000	316.246	80.011	19.994	104.469	19.816	19.136	0.524
474.500	316.510	80.010	19.994	104.466	19.813	19.413	0.529
475.000	316.767	80.010	19.994	104.469	19.807	19.855	0.527
475.500	316.980	80.011	19.993	104.471	19.810	19.689	0.495
476.000	317.235	80.011	19.994	104.476	19.805	20.032	0.469
476.500	317.498	80.011	19.994	104.481	19.805	20.028	0.493
477.000	317.719	80.012	19.994	104.483	19.800	20.413	0.501
477.500	317.996	80.011	19.993	104.484	19.798	20.593	0.491
478.000	318.254	80.011	19.993	104.485	19.795	20.855	0.517
478.500	318.493	80.011	19.994	104.486	19.793	21.041	0.516
479.000	318.704	80.011	19.994	104.488	19.788	21.422	0.474
479.500	318.968	80.013	19.995	104.487	19.788	21.391	0.462
480.000	319.200	80.010	19.993	104.486	19.787	21.514	0.485
480.500	319.508	80.012	19.994	104.488	19.779	22.103	0.518
481.000	319.728	80.013	19.994	104.490	19.782	21.924	0.534
481.500	320.002	80.013	19.993	104.490	19.778	22.204	0.511
482.000	320.268	80.011	19.993	104.493	19.775	22.477	0.517
482.500	320.518	80.011	19.993	104.495	19.772	22.658	0.528
483.000	320.737	80.011	19.993	104.493	19.769	22.956	0.493
483.500	321.043	80.010	19.993	104.493	19.762	23.454	0.497
484.000	321.260	80.011	19.992	104.495	19.766	23.205	0.525
484.500	321.551	80.011	19.993	104.496	19.763	23.369	0.515
485.000	321.814	80.012	19.993	104.496	19.754	24.113	0.531
485.500	322.080	80.011	19.992	104.498	19.751	24.336	0.542
486.000	322.322	80.012	19.994	104.501	19.751	24.390	0.518
486.500	322.534	80.010	19.994	104.501	19.745	24.837	0.481
487.000	322.810	80.011	19.994	104.501	19.745	24.806	0.471
487.500	323.114	80.010	19.993	104.504	19.739	25.287	0.535
488.000	323.298	80.011	19.994	104.505	19.732	25.862	0.534
488.500	323.532	80.009	19.993	104.506	19.734	25.718	0.452
489.000	323.851	80.010	19.993	104.508	19.730	26.073	0.485
489.500	324.090	80.010	19.994	104.511	19.723	26.638	0.556
490.000	324.299	80.009	19.994	104.515	19.719	26.933	0.503
490.500	324.591	80.009	19.994	104.522	19.717	27.081	0.474
491.000	324.865	80.008	19.994	104.526	19.710	27.647	0.534
491.500	325.109	80.009	19.994	104.529	19.710	27.643	0.542
492.000	325.342	80.009	19.994	104.532	19.702	28.255	0.497
492.500	325.614	80.009	19.994	104.534	19.700	28.469	0.491
493.000	325.889	80.010	19.993	104.531	19.693	28.966	0.526
493.500	326.099	80.009	19.993	104.531	19.691	29.123	0.516
494.000	326.343	80.008	19.993	104.533	19.688	29.423	0.469
494.500	326.654	80.008	19.993	104.533	19.688	29.436	0.504
495.000	326.874	80.009	19.994	104.532	19.679	30.128	0.543
495.500	327.150	80.009	19.994	104.535	19.673	30.623	0.514
496.000	327.378	80.008	19.993	104.535	19.671	30.737	0.500
496.500	327.614	80.009	19.995	104.535	19.665	31.257	0.484
497.000	327.902	80.009	19.994	104.536	19.659	31.676	0.494
497.500	328.117	80.009	19.994	104.538	19.657	31.848	0.513
498.000	328.440	80.009	19.995	104.538	19.655	32.041	0.521
498.500	328.627	80.009	19.994	104.539	19.650	32.466	0.524
499.000	328.859	80.009	19.994	104.540	19.643	32.951	0.465
499.500	329.130	80.010	19.994	104.541	19.640	33.268	0.461
500.000	329.376	80.009	19.994	104.544	19.637	33.480	0.510
500.500	329.661	80.009	19.994	104.550	19.627	34.289	0.524
501.000	329.818	80.010	19.995	104.557	19.625	34.459	0.487
501.500	330.167	80.008	19.995	104.563	19.617	35.087	0.474
502.000	330.386	80.008	19.994	104.569	19.617	35.072	0.537
502.500	330.662	80.009	19.995	104.571	19.609	35.675	0.531
503.000	330.891	80.007	19.995	104.571	19.601	36.369	0.500
503.500	331.092	80.009	19.996	104.571	19.599	36.542	0.468
504.000	331.336	80.008	19.994	104.571	19.593	36.959	0.438
504.500	331.711	80.008	19.995	104.571	19.589	37.278	0.531
505.000	331.932	80.009	19.994	104.572	19.580	38.055	0.607
505.500	332.069	80.009	19.996	104.573	19.576	38.329	0.477
506.001	332.317	80.009	19.994	104.575	19.569	38.882	0.371
506.500	332.644	80.008	19.995	104.578	19.567	39.110	0.480
507.000	332.885	80.009	19.995	104.580	19.561	39.589	0.572
507.500	333.119	80.009	19.994	104.578	19.553	40.168	0.521
508.000	333.379	80.009	19.995	104.578	19.546	40.742	0.484
508.500	333.820	80.009	19.996	104.576	19.541	41.188	0.598
509.000	334.108	80.010	19.994	104.575	19.534	41.680	0.715
509.500	334.268	80.009	19.995	104.578	19.524	42.510	0.588
510.001	334.202	80.010	19.995	104.579	19.521	42.758	0.272
510.500	334.732	80.009	19.994	104.585	19.517	43.051	0.279
511.000	334.963	80.009	19.995	104.592	19.510	43.644	0.612
511.500	335.194	80.010	19.995	104.597	19.502	44.264	0.612
512.000	335.435	80.010	19.994	104.602	19.491	45.131	0.467
512.500	335.733	80.011	19.994	104.610	19.487	45.488	0.505
513.000	335.901	80.010	19.994	104.611	19.481	45.933	0.502
513.500	336.196	80.009	19.994	104.610	19.476	46.386	0.464
514.000	336.465	80.010	19.994	104.611	19.462	47.459	0.513
514.500	336.614	80.010	19.993	104.619	19.456	47.960	0.491
515.000	336.984	80.010	19.994	104.621	19.449	48.519	0.468
515.500	337.235	80.008	19.993	104.627	19.444	48.945	0.570
516.000	337.467	80.009	19.995	104.635	19.436	49.585	0.552
516.500	337.676	80.009	19.994	104.642	19.425	50.464	0.462
517.000	337.968	80.010	19.993	104.642	19.415	51.267	0.471
517.500	338.225	80.007	19.994	104.647	19.414	51.336	0.525
518.000	338.451	80.010	19.993	104.649	19.398	52.617	0.516
518.500	338.767	80.010	19.993	104.650	19.394	52.904	0.512
519.000	338.932	80.009	19.993	104.652	19.385	53.670	0.511
519.500	339.261	80.011	19.993	104.657	19.379	54.169	0.487
520.000	339.455	80.008	19.993	104.662	19.367	55.126	0.508
520.500	339.719	80.010	19.994	104.669	19.358	55.816	0.490
521.000	340.008	80.010	19.994	104.676	19.348	56.597	0.506
521.500	340.232	80.009	19.993	104.682	19.340	57.274	0.533
522.000	340.481	80.009	19.994	104.686	19.327	58.276	0.493
522.500	340.748	80.009	19.993	104.689	19.317	59.076	0.495
523.000	340.943	80.008	19.993	104.689	19.310	59.674	0.489
523.500	341.215	80.009	19.992	104.690	19.303	60.256	0.465
524.000	341.453	80.010	19.994	104.691	19.287	61.542	0.488
524.500	341.726	80.011	19.994	104.691	19.280	62.101	0.510
525.000	341.960	80.009	19.993	104.692	19.270	62.897	0.509
525.500	342.216	80.008	19.994	104.697	19.260	63.694	0.499
526.000	342.470	80.009	19.994	104.702	19.251	64.385	0.500
526.500	342.715	80.008	19.993	104.709	19.243	65.031	0.504
527.000	342.976	80.010	19.993	104.717	19.231	66.024	0.503
527.500	343.174	80.010	19.994	104.724	19.214	67.337	0.483
528.000	343.457	80.010	19.994	104.727	19.205	68.128	0.470
528.500	343.661	80.009	19.993	104.729	19.198	68.626	0.484
529.000	343.953	80.009	19.994	104.733	19.187	69.509	0.491
529.500	344.211	80.010	19.993	104.739	19.175	70.477	0.523
530.000	344.422	80.010	19.994	104.746	19.166	71.262	0.509
530.501	344.684	80.009	19.994	104.754	19.152	72.356	0.471
531.000	344.923	80.010	19.993	104.761	19.143	73.072	0.487
531.500	345.212	80.010	19.994	104.765	19.129	74.191	0.515
532.000	345.450	80.009	19.994	104.768	19.114	75.375	0.527
532.500	345.681	80.009	19.993	104.768	19.106	76.071	0.498
533.000	345.935	80.009	19.993	104.771	19.095	76.915	0.477
533.500	346.197	80.010	19.993	104.775	19.083	77.860	0.501
534.000	346.407	80.010	19.993	104.779	19.070	78.950	0.494
534.500	346.710	80.009	19.993	104.786	19.059	79.784	0.492
535.000	346.926	80.010	19.992	104.793	19.045	80.925	0.516
535.500	347.170	80.010	19.994	104.796	19.036	81.668	0.490
536.000	347.431	80.011	19.993	104.801	19.019	83.031	0.482
536.500	347.675	80.010	19.993	104.805	19.008	83.911	0.505
537.000	347.921	80.010	19.993	104.806	19.000	84.597	0.498
537.500	348.209	80.010	19.993	104.810	18.979	86.207	0.512
538.000	348.427	80.010	19.992	104.817	18.966	87.254	0.520
538.500	348.665	80.010	19.993	104.824	18.957	88.057	0.481
539.000	348.953	80.009	19.993	104.831	18.944	89.070	0.491
539.500	349.195	80.011	19.992	104.838	18.928	90.313	0.528
540.000	349.434	80.010	19.994	104.844	18.916	91.299	0.505
540.500	349.655	80.011	19.993	104.846	18.903	92.383	0.471
541.000	349.946	80.010	19.993	104.853	18.889	93.471	0.486
541.500	350.169	80.010	19.993	104.859	18.873	94.747	0.513
542.000	350.435	80.008	19.993	104.862	18.860	95.808	0.501
542.500	350.681	80.010	19.994	104.869	18.848	96.755	0.500
543.000	350.894	80.010	19.994	104.875	18.831	98.166	0.486
543.500	351.169	80.011	19.993	104.876	18.815	99.398	0.474
544.000	351.391	80.010	19.993	104.879	18.802	100.471	0.492
544.500	351.633	80.011	19.994	104.884	18.790	101.434	0.480
545.000	351.885	80.011	19.993	104.891	18.776	102.548	0.479
545.500	352.164	80.011	19.994	104.900	18.760	103.836	0.513
546.000	352.416	80.010	19.993	104.907	18.746	104.991	0.531
546.500	352.671	80.009	19.994	104.915	18.727	106.474	0.519
547.000	352.884	80.011	19.993	104.922	18.717	107.351	0.488
547.500	353.146	80.010	19.993	104.925	18.701	108.633	0.472
548.000	353.444	80.011	19.992	104.924	18.684	109.990	0.518
548.500	353.690	80.011	19.994	104.927	18.670	111.079	0.552
549.000	353.933	80.011	19.992	104.930	18.654	112.384	0.516
549.500	354.189	80.011	19.992	104.938	18.644	113.172	0.494
550.000	354.425	80.010	19.992	104.945	18.628	114.491	0.496
550.500	354.680	80.011	19.994	104.953	18.611	115.803	0.492
551.000	354.948	80.011	19.993	104.960	18.596	117.024	0.507
551.500	355.204	80.010	19.992	104.967	18.580	118.299	0.524
552.000	355.415	80.009	19.993	104.974	18.559	119.990	0.496
552.500	355.665	80.011	19.992	104.980	18.547	120.927	0.464
553.000	355.907	80.010	19.994	104.986	18.535	121.899	0.476
553.500	356.170	80.011	19.993	104.991	18.517	123.376	0.498
554.000	356.411	80.011	19.993	104.996	18.504	124.438	0.505
554.500	356.650	80.010	19.992	104.994	18.488	125.721	0.492
555.000	356.905	80.010	19.993	104.996	18.476	126.695	0.487
555.500	357.161	80.010	19.994	105.000	18.460	127.954	0.502
556.000	357.437	80.010	19.993	105.003	18.448	128.925	0.522
556.500	357.681	80.011	19.994	105.005	18.432	130.218	0.526
557.000	357.934	80.012	19.993	105.012	18.424	130.885	0.508
557.500	358.171	80.010	19.992	105.014	18.408	132.144	0.494
558.000	358.430	80.011	19.992	105.018	18.390	133.545	0.493
558.500	358.649	80.012	19.993	105.024	18.377	134.619	0.487
559.000	358.944	80.012	19.995	105.030	18.366	135.536	0.496
559.500	359.191	80.012	19.994	105.034	18.345	137.202	0.528
560.000	359.413	80.013	19.994	105.039	18.331	138.281	0.506
560.500	359.678	80.012	19.994	105.041	18.319	139.248	0.478
561.000	359.911	80.011	19.993	105.042	18.306	140.305	0.492
561.500	360.164	80.012	19.993	105.043	18.294	141.291	0.492
562.000	360.434	80.011	19.992	105.043	18.277	142.606	0.505
562.501	360.688	80.011	19.993	105.042	18.265	143.572	0.524
563.000	360.928	80.012	19.992	105.042	18.253	144.522	0.509
563.500	361.156	80.014	19.995	105.043	18.244	145.228	0.481
564.000	361.420	80.011	19.993	105.048	18.234	146.037	0.481
564.500	361.657	80.013	19.993	105.051	18.218	147.363	0.496
565.000	361.903	80.011	19.993	105.057	18.207	148.236	0.492
565.500	362.137	80.013	19.994	105.063	18.192	149.426	0.481
566.000	362.406	80.012	19.993	105.070	18.188	149.768	0.491
566.500	362.665	80.011	19.992	105.070	18.174	150.882	0.515
567.000	362.869	80.012	19.995	105.073	18.162	151.822	0.496
567.500	363.165	80.011	19.994	105.073	18.150	152.737	0.481
568.000	363.392	80.012	19.994	105.074	18.149	152.860	0.512
568.500	363.645	80.010	19.993	105.074	18.140	153.559	0.502
569.000	363.894	80.010	19.993	105.074	18.127	154.587	0.491
569.500	364.162	80.011	19.993	105.074	18.117	155.395	0.509
570.000	364.384	80.011	19.995	105.075	18.111	155.868	0.504
570.500	364.617	80.011	19.994	105.075	18.104	156.404	0.473
571.000	364.920	80.010	19.994	105.075	18.088	157.704	0.496
571.500	365.143	80.011	19.995	105.076	18.091	157.447	0.530
572.000	365.424	80.009	19.994	105.075	18.080	158.309	0.515
572.500	365.656	80.010	19.994	105.072	18.072	158.882	0.509
573.000	365.915	80.009	19.994	105.067	18.072	158.934	0.502
573.500	366.135	80.010	19.993	105.063	18.056	160.138	0.485
574.000	366.401	80.010	19.993	105.061	18.062	159.665	0.482
574.500	366.641	80.009	19.994	105.056	18.060	159.784	0.496
575.000	366.856	80.008	19.993	105.054	18.049	160.664	0.481
575.500	367.115	80.010	19.994	105.053	18.048	160.794	0.465
576.000	367.356	80.008	19.994	105.051	18.052	160.431	0.486
576.500	367.608	80.009	19.993	105.048	18.044	161.014	0.496
577.000	367.905	80.009	19.995	105.046	18.040	161.374	0.521
577.500	368.161	80.010	19.994	105.043	18.041	161.219	0.551
578.001	368.440	80.010	19.994	105.042	18.045	160.950	0.544
578.500	368.667	80.009	19.992	105.038	18.049	160.586	0.521
579.000	368.900	80.010	19.994	105.032	18.045	160.906	0.483
579.500	369.131	80.010	19.994	105.025	18.049	160.535	0.462
580.000	369.411	80.011	19.994	105.018	18.051	160.331	0.488
580.500	369.677	80.009	19.994	105.010	18.055	160.012	0.528
581.000	369.916	80.009	19.993	105.002	18.058	159.761	0.525
581.500	370.169	80.008	19.993	104.998	18.069	158.868	0.498
582.000	370.399	80.011	19.995	104.994	18.068	158.880	0.488
582.500	370.661	80.010	19.995	104.988	18.078	158.068	0.488
583.000	370.974	80.008	19.994	104.980	18.087	157.360	0.534
583.500	371.207	80.008	19.993	104.973	18.099	156.380	0.561
584.000	371.431	80.009	19.995	104.967	18.113	155.239	0.501
584.500	371.699	80.011	19.995	104.957	18.117	154.895	0.474
585.000	371.955	80.009	19.993	104.947	18.133	153.629	0.508
585.500	372.243	80.010	19.994	104.939	18.141	152.943	0.534
586.000	372.492	80.009	19.993	104.930	18.159	151.481	0.541
586.500	372.754	80.010	19.993	104.922	18.168	150.751	0.525
587.000	373.033	80.009	19.993	104.913	18.184	149.459	0.526
587.500	373.336	80.009	19.992	104.905	18.201	148.083	0.561
588.000	373.598	80.010	19.994	104.896	18.225	146.143	0.573
588.501	373.874	80.009	19.994	104.882	18.243	144.671	0.551
589.000	374.170	80.009	19.994	104.868	18.254	143.782	0.555
589.500	374.392	80.010	19.994	104.859	18.279	141.787	0.545
590.000	374.652	80.011	19.994	104.845	18.295	140.508	0.501
590.500	374.940	80.009	19.994	104.832	18.316	138.796	0.515
591.000	375.157	80.010	19.993	104.819	18.336	137.203	0.526
591.500	375.450	80.009	19.994	104.803	18.366	134.830	0.507
592.000	375.723	80.009	19.993	104.787	18.395	132.518	0.538
592.500	375.992	80.011	19.995	104.774	18.413	131.021	0.554
593.000	376.241	80.009	19.994	104.765	18.439	128.930	0.530
593.500	376.555	80.009	19.993	104.753	18.466	126.810	0.540
594.000	376.808	80.009	19.994	104.742	18.496	124.421	0.565
594.500	377.059	80.009	19.994	104.728	18.520	122.448	0.535
595.000	377.354	80.009	19.994	104.714	18.548	120.278	0.525
595.500	377.633	80.010	19.993	104.696	18.578	117.810	0.560
596.000	377.878	80.008	19.994	104.681	18.611	115.214	0.549
596.500	378.143	80.008	19.993	104.668	18.649	112.204	0.517
597.000	378.438	80.009	19.994	104.655	18.674	110.180	0.535
597.500	378.700	80.009	19.993	104.640	18.704	107.754	0.558
598.000	378.991	80.008	19.995	104.628	18.737	105.179	0.555
598.500	379.240	80.008	19.993	104.621	18.766	102.821	0.546
599.000	379.521	80.009	19.995	104.607	18.796	100.473	0.535
599.500	379.800	80.008	19.994	104.597	18.830	97.722	0.545
600.000	380.067	80.009	19.995	104.588	18.857	95.561	0.553
600.501	380.353	80.008	19.995	104.579	18.899	92.211	0.549
601.000	380.633	80.010	19.995	104.563	18.925	90.115	0.560
601.500	380.911	80.008	19.994	104.555	18.956	87.682	0.562
602.000	381.189	80.009	19.995	104.547	18.990	84.915	0.557
602.500	381.533	80.007	19.995	104.539	19.017	82.754	0.589
603.000	381.765	80.008	19.993	104.527	19.047	80.386	0.599
603.500	382.010	80.007	19.994	104.524	19.086	77.280	0.527
604.000	382.294	80.008	19.994	104.515	19.116	74.919	0.503
604.500	382.569	80.007	19.994	104.507	19.142	72.859	0.544
605.000	382.865	80.009	19.993	104.501	19.174	70.286	0.565
605.500	383.136	80.009	19.995	104.497	19.202	68.020	0.569
606.000	383.401	80.009	19.994	104.491	19.232	65.636	0.552
606.500	383.699	80.009	19.994	104.485	19.256	63.702	0.550
607.000	383.968	80.008	19.994	104.479	19.285	61.461	0.565
607.500	384.240	80.010	19.994	104.471	19.308	59.558	0.554
608.000	384.487	80.007	19.994	104.465	19.341	56.931	0.530
608.500	384.834	80.007	19.994	104.459	19.363	55.238	0.556
609.001	385.088	80.007	19.994	104.457	19.390	53.070	0.597
609.500	385.350	80.009	19.993	104.455	19.416	51.026	0.558
610.000	385.596	80.009	19.995	104.454	19.436	49.376	0.512
610.500	385.908	80.009	19.995	104.449	19.465	47.105	0.533
611.000	386.150	80.010	19.994	104.442	19.485	45.529	0.556
611.500	386.415	80.010	19.994	104.434	19.503	44.053	0.531
612.000	386.735	80.009	19.993	104.427	19.524	42.428	0.546
612.500	386.982	80.010	19.995	104.417	19.552	40.137	0.576
613.000	387.301	80.010	19.992	104.413	19.576	38.244	0.566
613.500	387.555	80.011	19.994	104.406	19.599	36.443	0.570
614.000	387.825	80.009	19.992	104.398	19.613	35.298	0.548
614.500	388.121	80.009	19.992	104.391	19.634	33.665	0.545
615.000	388.407	80.011	19.993	104.386	19.653	32.142	0.574
615.500	388.693	80.009	19.993	104.380	19.670	30.735	0.577
616.000	388.963	80.010	19.993	104.377	19.691	29.059	0.564
616.500	389.235	80.011	19.992	104.375	19.709	27.655	0.549
617.000	389.489	80.010	19.992	104.370	19.725	26.426	0.534
617.500	389.763	80.012	19.993	104.369	19.739	25.286	0.527
618.000	390.020	80.012	19.994	104.369	19.753	24.169	0.529
618.500	390.277	80.010	19.993	104.369	19.772	22.641	0.522
619.000	390.607	80.010	19.992	104.368	19.778	22.161	0.551
619.500	390.826	80.009	19.993	104.373	19.800	20.440	0.568
620.000	391.168	80.010	19.992	104.370	19.808	19.796	0.555
620.500	391.411	80.010	19.993	104.363	19.825	18.391	0.573
621.000	391.710	80.011	19.991	104.357	19.833	17.826	0.563
621.500	391.964	80.011	19.992	104.354	19.844	16.884	0.548
622.000	392.257	80.011	19.992	104.352	19.853	16.170	0.550
622.500	392.488	80.009	19.991	104.349	19.873	14.609	0.535
623.000	392.758	80.009	19.992	104.349	19.869	14.925	0.513
623.500	393.013	80.011	19.992	104.350	19.881	13.976	0.513
624.000	393.320	80.010	19.991	104.350	19.889	13.352	0.543
624.500	393.558	80.010	19.993	104.347	19.899	12.523	0.553
625.000	393.842	80.009	19.992	104.349	19.909	11.735	0.534
625.500	394.135	80.008	19.991	104.351	19.909	11.713	0.550
626.000	394.376	80.008	19.991	104.352	19.917	11.107	0.555
626.500	394.699	80.010	19.993	104.350	19.928	10.266	0.549
627.000	394.959	80.008	19.992	104.348	19.932	9.874	0.573
627.500	395.222	80.010	19.994	104.344	19.942	9.130	0.553
628.000	395.432	80.008	19.993	104.343	19.942	9.095	0.498
628.500	395.757	80.008	19.993	104.343	19.952	8.329	0.505
629.000	396.051	80.010	19.994	104.343	19.951	8.429	0.577
629.500	396.335	80.009	19.992	104.343	19.963	7.471	0.598
630.000	396.565	80.010	19.994	104.342	19.965	7.290	0.546
630.500	396.868	80.011	19.994	104.340	19.969	6.985	0.524
631.000	397.118	80.009	19.992	104.339	19.964	7.349	0.543
631.500	397.361	80.010	19.993	104.339	19.967	7.113	0.523
632.000	397.628	80.010	19.994	104.338	19.980	6.119	0.501
632.500	397.934	80.010	19.994	104.338	19.972	6.754	0.541
633.000	398.186	80.009	19.993	104.338	19.987	5.554	0.565
633.500	398.463	80.008	19.994	104.337	19.981	6.003	0.544
634.000	398.699	80.009	19.995	104.338	19.983	5.813	0.521
634.500	398.964	80.011	19.995	104.339	19.985	5.724	0.507
635.000	399.198	80.012	19.995	104.339	19.988	5.484	0.500
635.500	399.484	80.011	19.994	104.335	19.984	5.739	0.510
636.000	399.717	80.011	19.994	104.335	19.997	4.742	0.520
636.500	400.047	80.011	19.994	104.333	19.993	5.078	0.541
637.000	400.266	80.010	19.993	104.336	19.991	5.203	0.556
637.500	400.502	80.011	19.993	104.341	19.994	4.941	0.502
638.000	400.766	80.009	19.993	104.348	19.991	5.233	0.477
638.500	401.017	80.011	19.994	104.349	19.996	4.838	0.508
639.000	401.284	80.012	19.993	104.349	19.995	4.902	0.516
639.500	401.538	80.010	19.993	104.347	20.004	4.199	0.519
640.000	401.804	80.010	19.992	104.343	19.999	4.561	0.521
640.500	402.047	80.011	19.993	104.341	20.004	4.197	0.514
641.000	402.292	80.012	19.993	104.340	20.002	4.304	0.499
641.500	402.574	80.012	19.994	104.339	20.001	4.406	0.508
642.000	402.834	80.013	19.992	104.338	20.005	4.101	0.534
642.500	403.141	80.012	19.994	104.338	20.005	4.131	0.554
643.000	403.323	80.012	19.994	104.338	20.005	4.127	0.528
643.500	403.650	80.011	19.994	104.338	20.002	4.365	0.499
644.000	403.891	80.011	19.992	104.338	20.008	3.870	0.538
644.500	404.106	80.012	19.994	104.337	20.004	4.210	0.512
645.000	404.412	80.011	19.993	104.336	20.007	3.959	0.489
645.500	404.636	80.012	19.991	104.337	20.005	4.070	0.526
646.000	404.889	80.011	19.993	104.341	20.005	4.088	0.504
646.500	405.162	80.013	19.992	104.342	20.004	4.195	0.502
647.000	405.417	80.012	19.992	104.342	20.011	3.643	0.527
647.500	405.643	80.014	19.993	104.342	20.011	3.645	0.504
648.000	405.904	80.013	19.993	104.342	20.007	3.924	0.484
648.500	406.166	80.011	19.993	104.339	20.010	3.722	0.505
649.000	406.433	80.012	19.993	104.338	20.007	3.916	0.526
649.500	406.640	80.012	19.992	104.338	20.012	3.571	0.502
650.000	406.957	80.012	19.993	104.338	20.009	3.767	0.499
650.500	407.190	80.011	19.993	104.340	20.018	3.039	0.537
651.000	407.410	80.010	19.992	104.340	20.008	3.868	0.501
651.500	407.656	80.011	19.993	104.339	20.013	3.499	0.459
652.000	407.900	80.012	19.992	104.339	20.012	3.573	0.478
652.500	408.149	80.011	19.992	104.339	20.012	3.543	0.491
653.000	408.418	80.010	19.993	104.337	20.015	3.338	0.505
653.500	408.686	80.010	19.993	104.337	20.017	3.113	0.528
654.000	408.888	80.009	19.993	104.338	20.013	3.490	0.503
654.500	409.191	80.010	19.993	104.338	20.011	3.591	0.488
655.000	409.433	80.010	19.993	104.338	20.012	3.576	0.525
655.500	409.683	80.010	19.994	104.337	20.005	4.090	0.518
656.000	409.929	80.010	19.992	104.338	20.007	3.946	0.494
656.500	410.176	80.010	19.993	104.338	20.018	3.065	0.495
657.000	410.422	80.010	19.993	104.338	20.015	3.268	0.493
657.500	410.679	80.009	19.993	104.338	20.010	3.743	0.498
658.000	410.909	80.010	19.993	104.340	20.014	3.407	0.495
658.500	411.173	80.010	19.994	104.341	20.018	3.034	0.491
659.000	411.410	80.010	19.994	104.341	20.011	3.602	0.497
659.500	411.651	80.010	19.994	104.341	20.015	3.274	0.489
660.000	411.888	80.009	19.993	104.342	20.013	3.429	0.478
660.500	412.136	80.009	19.994	104.341	20.012	3.580	0.481
661.000	412.407	80.009	19.994	104.340	20.009	3.757	0.502
661.500	412.678	80.009	19.995	104.341	20.017	3.133	0.531
662.000	412.881	80.007	19.992	104.341	20.016	3.266	0.508
662.500	413.160	80.010	19.994	104.340	20.012	3.534	0.478
663.000	413.435	80.009	19.993	104.340	20.011	3.628	0.518
663.500	413.632	80.009	19.993	104.340	20.014	3.394	0.513
664.000	413.867	80.009	19.994	104.339	20.017	3.152	0.452
664.500	414.140	80.010	19.994	104.342	20.013	3.460	0.469
665.000	414.375	80.008	19.993	104.344	20.013	3.429	0.508
665.500	414.606	80.010	19.994	104.346	20.019	2.995	0.487
666.000	414.844	80.010	19.994	104.346	20.012	3.510	0.468
666.500	415.082	80.009	19.993	104.347	20.012	3.565	0.472
667.000	415.359	80.009	19.994	104.344	20.021	2.838	0.495
667.500	415.593	80.008	19.995	104.342	20.011	3.645	0.513
668.000	415.796	80.010	19.993	104.341	20.021	2.810	0.475
668.500	416.057	80.008	19.994	104.341	20.016	3.200	0.451
669.000	416.289	80.010	19.994	104.341	20.012	3.556	0.478
669.500	416.537	80.009	19.992	104.342	20.011	3.602	0.486
670.000	416.742	80.009	19.993	104.341	20.014	3.357	0.467
670.500	417.039	80.008	19.993	104.341	20.015	3.342	0.478
671.000	417.252	80.010	19.995	104.341	20.010	3.741	0.506
671.500	417.492	80.008	19.993	104.344	20.019	3.015	0.482
672.000	417.742	80.011	19.995	104.346	20.018	3.030	0.471
672.501	417.987	80.011	19.995	104.347	20.016	3.266	0.492
673.001	418.235	80.010	19.994	104.348	20.018	3.047	0.494
673.500	418.488	80.009	19.994	104.349	20.010	3.671	0.497
674.000	418.767	80.009	19.993	104.346	20.018	3.037	0.517
674.500	418.980	80.009	19.992	104.343	20.016	3.255	0.512
675.000	419.204	80.009	19.994	104.343	20.010	3.733	0.465
675.500	419.508	80.010	19.994	104.343	20.015	3.322	0.482
676.000	419.731	80.008	19.994	104.343	20.012	3.560	0.528
676.500	419.956	80.008	19.993	104.343	20.012	3.532	0.488
677.000	420.217	80.010	19.994	104.343	20.014	3.368	0.467
677.500	420.460	80.008	19.993	104.343	20.017	3.141	0.495
678.000	420.699	80.009	19.994	104.343	20.016	3.239	0.493
678.500	420.955	80.008	19.993	104.344	20.019	2.969	0.489
679.000	421.185	80.009	19.993	104.346	20.016	3.248	0.491
679.500	421.418	80.010	19.994	104.347	20.019	3.015	0.474
680.000	421.644	80.010	19.993	104.346	20.013	3.453	0.461
680.500	421.915	80.010	19.993	104.345	20.014	3.362	0.478
681.000	422.149	80.011	19.995	104.343	20.011	3.624	0.501
681.500	422.353	80.010	19.992	104.342	20.016	3.198	0.472
682.000	422.643	80.010	19.994	104.341	20.012	3.567	0.466
682.500	422.851	80.009	19.994	104.341	20.020	2.919	0.496
683.000	423.095	80.009	19.992	104.342	20.016	3.224	0.475
683.500	423.350	80.009	19.993	104.342	20.019	3.019	0.475
684.000	423.556	80.010	19.994	104.341	20.019	3.026	0.480
684.500	423.854	80.009	19.993	104.341	20.015	3.290	0.483
685.000	424.076	80.009	19.993	104.342	20.018	3.035	0.512
685.500	424.337	80.008	19.994	104.342	20.015	3.314	0.501
686.000	424.525	80.008	19.994	104.345	20.015	3.322	0.467
686.500	424.800	80.008	19.994	104.345	20.014	3.368	0.456
687.000	425.023	80.008	19.994	104.345	20.018	3.041	0.480
687.500	425.282	80.008	19.993	104.344	20.017	3.139	0.490
688.000	425.512	80.008	19.995	104.343	20.022	2.786	0.485
688.500	425.714	80.008	19.994	104.342	20.018	3.041	0.460
689.000	426.002	80.008	19.993	104.341	20.018	3.039	0.461
689.500	426.222	80.007	19.994	104.341	20.013	3.440	0.499
690.000	426.442	80.008	19.994	104.341	20.025	2.489	0.474
690.500	426.727	80.008	19.993	104.345	20.021	2.864	0.472
691.000	426.979	80.008	19.994	104.346	20.020	2.927	0.521
691.500	427.219	80.008	19.994	104.349	20.023	2.631	0.514
692.000	427.461	80.007	19.994	104.350	20.022	2.716	0.487
692.500	427.717	80.008	19.994	104.349	20.023	2.661	0.490
693.000	427.951	80.008	19.994	104.345	20.023	2.646	0.494
693.500	428.226	80.010	19.994	104.343	20.019	2.995	0.499
694.000	428.419	80.008	19.995	104.340	20.021	2.847	0.489
694.501	428.675	80.009	19.994	104.339	20.015	3.342	0.459
695.000	428.928	80.008	19.994	104.344	20.021	2.827	0.479
695.500	429.176	80.009	19.995	104.347	20.023	2.675	0.505
696.000	429.413	80.010	19.995	104.348	20.015	3.283	0.493
696.500	429.694	80.008	19.995	104.347	20.022	2.760	0.501
697.000	429.882	80.009	19.995	104.345	20.025	2.509	0.494
697.500	430.166	80.010	19.995	104.340	20.021	2.853	0.471
698.000	430.358	80.009	19.994	104.337	20.021	2.814	0.474
698.500	430.625	80.008	19.994	104.337	20.021	2.797	0.468
699.000	430.864	80.009	19.995	104.337	20.023	2.666	0.482
699.500	431.119	80.010	19.995	104.339	20.019	2.965	0.500
700.000	431.322	80.009	19.994	104.340	20.020	2.947	0.476
700.500	431.614	80.011	19.995	104.341	20.018	3.056	0.477
701.000	431.853	80.011	19.994	104.340	20.020	2.897	0.513
701.500	432.090	80.011	19.995	104.339	20.020	2.895	0.503
702.000	432.357	80.010	19.994	104.338	20.020	2.877	0.490
702.500	432.605	80.010	19.994	104.342	20.026	2.437	0.510
703.000	432.883	80.009	19.993	104.342	20.020	2.910	0.521
703.500	433.079	80.010	19.994	104.346	20.021	2.860	0.500
704.000	433.349	80.012	19.994	104.351	20.026	2.435	0.469
704.500	433.612	80.011	19.993	104.352	20.017	3.130	0.499
705.000	433.801	80.011	19.994	104.350	20.021	2.838	0.493
705.500	434.150	80.010	19.994	104.353	20.024	2.598	0.495
706.000	434.369	80.011	19.993	104.352	20.020	2.919	0.553
706.500	434.650	80.010	19.993	104.347	20.021	2.812	0.534
707.000	434.812	80.012	19.995	104.347	20.021	2.814	0.471
707.500	435.115	80.011	19.993	104.346	20.022	2.777	0.454
708.000	435.368	80.012	19.994	104.343	20.023	2.679	0.511
708.500	435.552	80.010	19.992	104.341	20.025	2.491	0.496
709.000	435.825	80.011	19.995	104.342	20.022	2.718	0.447
709.500	436.094	80.011	19.994	104.343	20.024	2.585	0.500
710.000	436.326	80.009	19.992	104.344	20.024	2.563	0.522
710.500	436.578	80.011	19.993	104.343	20.023	2.694	0.493
711.000	436.826	80.011	19.993	104.343	20.022	2.742	0.492
711.500	437.103	80.009	19.994	104.342	20.026	2.430	0.512
712.000	437.329	80.009	19.993	104.342	20.025	2.500	0.514
712.500	437.571	80.012	19.994	104.340	20.019	2.980	0.485
713.000	437.785	80.011	19.994	104.343	20.021	2.817	0.462
713.500	438.100	80.011	19.994	104.343	20.022	2.721	0.493
714.000	438.310	80.010	19.993	104.343	20.022	2.779	0.527
714.500	438.582	80.009	19.993	104.341	20.022	2.747	0.503
715.000	438.820	80.010	19.994	104.343	20.020	2.875	0.496
715.500	439.027	80.009	19.993	104.340	20.022	2.779	0.477
716.000	439.321	80.011	19.993	104.340	20.022	2.729	0.473
716.500	439.521	80.009	19.994	104.340	20.023	2.694	0.498
717.000	439.845	80.011	19.993	104.341	20.020	2.925	0.509
717.500	440.083	80.011	19.994	104.342	20.024	2.592	0.543
718.000	440.344	80.010	19.994	104.343	20.023	2.633	0.530
718.500	440.574	80.009	19.993	104.345	20.022	2.773	0.495
719.000	440.859	80.011	19.994	104.346	20.021	2.814	0.503
719.500	441.074	80.012	19.995	104.344	20.020	2.919	0.507
720.000	441.302	80.010	19.993	104.341	20.023	2.637	0.472
720.500	441.567	80.012	19.993	104.341	20.021	2.832	0.468
721.000	441.814	80.011	19.993	104.339	20.021	2.792	0.502
721.500	442.048	80.011	19.992	104.338	20.027	2.349	0.496
722.000	442.297	80.010	19.993	104.341	20.021	2.792	0.482
722.500	442.585	80.011	19.993	104.347	20.022	2.777	0.511
723.000	442.804	80.011	19.994	104.353	20.029	2.229	0.522
723.500	443.077	80.012	19.992	104.354	20.020	2.882	0.499
724.000	443.312	80.011	19.994	104.357	20.022	2.782	0.500
724.500	443.554	80.011	19.992	104.356	20.021	2.830	0.492
725.000	443.810	80.011	19.993	104.349	20.020	2.943	0.487
725.500	444.067	80.011	19.994	104.344	20.022	2.760	0.506
726.000	444.330	80.012	19.994	104.344	20.022	2.740	0.517
726.500	444.539	80.012	19.993	104.341	20.020	2.930	0.496
727.000	444.826	80.013	19.993	104.341	20.025	2.507	0.484
727.500	445.059	80.012	19.993	104.344	20.024	2.570	0.508
728.000	445.285	80.012	19.993	104.346	20.026	2.435	0.490
728.500	445.562	80.011	19.993	104.344	20.024	2.590	0.481
729.000	445.820	80.013	19.993	104.344	20.025	2.491	0.519
729.500	446.015	80.013	19.994	104.343	20.022	2.740	0.494
730.000	446.317	80.011	19.993	104.341	20.026	2.441	0.475
730.500	446.546	80.011	19.992	104.340	20.028	2.299	0.514
731.000	446.843	80.011	19.992	104.341	20.022	2.764	0.529
731.500	447.081	80.011	19.993	104.342	20.022	2.718	0.531
732.000	447.310	80.011	19.993	104.343	20.019	2.995	0.501
732.500	447.562	80.010	19.993	104.344	20.021	2.808	0.474
733.000	447.812	80.010	19.993	104.345	20.024	2.561	0.491
733.500	448.102	80.010	19.992	104.344	20.022	2.766	0.521
734.000	448.352	80.010	19.992	104.344	20.027	2.382	0.540
734.500	448.586	80.010	19.992	104.346	20.026	2.415	0.512
735.000	448.841	80.011	19.993	104.348	20.023	2.696	0.486
735.500	449.102	80.011	19.994	104.351	20.025	2.480	0.502
736.000	449.375	80.009	19.993	104.354	20.024	2.605	0.525
736.500	449.597	80.010	19.993	104.354	20.026	2.445	0.515
737.000	449.829	80.009	19.993	104.352	20.026	2.470	0.474
737.500	450.072	80.009	19.994	104.349	20.024	2.611	0.464
738.000	450.367	80.008	19.992	104.346	20.025	2.515	0.506
738.500	450.625	80.009	19.994	104.346	20.027	2.356	0.546
739.000	450.843	80.010	19.992	104.347	20.026	2.459	0.515
739.500	451.123	80.009	19.994	104.349	20.026	2.395	0.486
740.000	451.367	80.009	19.993	104.349	20.024	2.587	0.510
740.500	451.631	80.008	19.993	104.352	20.025	2.491	0.516
741.000	451.924	80.010	19.994	104.351	20.025	2.548	0.533
741.500	452.181	80.008	19.992	104.353	20.024	2.618	0.554
742.000	452.437	80.009	19.993	104.352	20.026	2.454	0.532
742.500	452.658	80.010	19.993	104.352	20.025	2.531	0.495
743.000	452.904	80.009	19.993	104.349	20.027	2.376	0.472
743.500	453.172	80.009	19.993	104.347	20.022	2.729	0.491
744.000	453.465	80.008	19.993	104.344	20.023	2.696	0.537
744.500	453.710	80.010	19.993	104.342	20.028	2.299	0.549
745.000	453.916	80.009	19.993	104.342	20.024	2.603	0.495
745.500	454.190	80.008	19.992	104.341	20.020	2.919	0.466
746.000	454.457	80.008	19.994	104.343	20.024	2.574	0.511
746.500	454.725	80.010	19.992	104.342	20.024	2.578	0.537
747.000	454.995	80.008	19.993	104.344	20.026	2.432	0.536
747.500	455.242	80.009	19.993	104.346	20.025	2.493	0.528
748.000	455.527	80.009	19.993	104.346	20.024	2.618	0.524
748.500	455.758	80.009	19.993	104.345	20.026	2.441	0.524
749.000	456.036	80.008	19.992	104.346	20.027	2.356	0.513
749.500	456.277	80.008	19.993	104.345	20.028	2.310	0.514
750.000	456.543	80.010	19.993	104.343	20.026	2.428	0.513
750.500	456.820	80.010	19.993	104.344	20.023	2.666	0.525
751.000	457.061	80.009	19.993	104.344	20.025	2.496	0.531
751.500	457.292	80.011	19.993	104.347	20.032	1.924	0.495
752.000	457.538	80.009	19.994	104.352	20.026	2.426	0.474
752.500	457.821	80.011	19.994	104.356	20.025	2.502	0.503
753.000	458.052	80.009	19.993	104.355	20.025	2.520	0.521
753.500	458.294	80.009	19.993	104.354	20.023	2.696	0.494
754.000	458.553	80.009	19.993	104.352	20.024	2.592	0.487
754.500	458.836	80.008	19.993	104.350	20.027	2.384	0.521
755.000	459.085	80.009	19.993	104.346	20.028	2.238	0.537
755.500	459.346	80.009	19.992	104.346	20.028	2.282	0.521
756.000	459.591	80.009	19.994	104.347	20.026	2.465	0.508
756.500	459.841	80.011	19.994	104.346	20.030	2.138	0.500
757.000	460.128	80.009	19.993	104.343	20.029	2.199	0.516
757.500	460.357	80.008	19.993	104.343	20.024	2.570	0.527
758.000	460.612	80.010	19.995	104.343	20.030	2.131	0.500
758.500	460.858	80.010	19.994	104.342	20.027	2.332	0.492
759.000	461.132	80.009	19.993	104.341	20.027	2.328	0.510
759.500	461.372	80.008	19.993	104.340	20.030	2.088	0.517
760.000	461.647	80.010	19.993	104.340	20.029	2.160	0.515
760.500	461.905	80.010	19.994	104.341	20.024	2.563	0.524
761.000	462.176	80.009	19.994	104.342	20.026	2.419	0.531
761.500	462.423	80.010	19.994	104.341	20.025	2.515	0.523
762.000	462.648	80.009	19.994	104.341	20.027	2.339	0.495
762.500	462.933	80.010	19.994	104.340	20.029	2.225	0.491
763.000	463.206	80.009	19.995	104.340	20.027	2.387	0.534
763.501	463.452	80.008	19.994	104.341	20.026	2.400	0.539
764.000	463.706	80.011	19.994	104.340	20.027	2.384	0.510
764.500	463.943	80.009	19.994	104.340	20.021	2.823	0.495
765.000	464.209	80.010	19.994	104.342	20.021	2.845	0.497
765.500	464.449	80.009	19.995	104.340	20.024	2.605	0.504
766.000	464.715	80.010	19.995	104.339	20.023	2.653	0.506
766.500	464.980	80.007	19.994	104.340	20.028	2.295	0.519
767.000	465.193	80.008	19.993	104.340	20.028	2.245	0.504
767.500	465.482	80.008	19.993	104.339	20.024	2.602	0.490
768.000	465.720	80.008	19.993	104.341	20.027	2.360	0.514
768.500	465.980	80.009	19.994	104.340	20.023	2.692	0.513
769.000	466.238	80.009	19.994	104.340	20.025	2.474	0.508
769.500	466.523	80.010	19.993	104.340	20.028	2.267	0.530
770.000	466.793	80.010	19.994	104.341	20.023	2.688	0.549
770.500	467.021	80.009	19.995	104.338	20.028	2.308	0.526
771.000	467.300	80.009	19.994	104.339	20.027	2.336	0.502
771.500	467.524	80.009	19.994	104.340	20.026	2.456	0.505
772.000	467.801	80.009	19.994	104.342	20.026	2.399	0.502
772.500	468.058	80.008	19.993	104.343	20.027	2.386	0.517
773.000	468.281	80.007	19.993	104.343	20.021	2.810	0.507
773.500	468.526	80.009	19.994	104.344	20.029	2.153	0.474
774.000	468.788	80.009	19.994	104.342	20.023	2.637	0.488
774.500	469.046	80.010	19.993	104.341	20.028	2.295	0.513
775.000	469.279	80.009	19.993	104.340	20.029	2.201	0.505
775.500	469.539	80.009	19.994	104.341	20.027	2.323	0.492
776.000	469.803	80.009	19.994	104.342	20.027	2.382	0.508
776.500	470.055	80.008	19.993	104.342	20.022	2.779	0.520
777.000	470.322	80.010	19.994	104.342	20.026	2.432	0.518
777.500	470.595	80.009	19.993	104.342	20.025	2.526	0.529
778.000	470.867	80.009	19.993	104.341	20.026	2.393	0.542
778.500	471.104	80.011	19.994	104.339	20.024	2.591	0.527
779.000	471.351	80.010	19.994	104.343	20.023	2.692	0.496
779.500	471.615	80.011	19.993	104.344	20.024	2.620	0.498
780.000	471.855	80.009	19.992	104.344	20.028	2.310	0.508
780.500	472.076	80.011	19.994	104.343	20.029	2.168	0.482
781.000	472.360	80.012	19.994	104.344	20.026	2.391	0.483
781.500	472.613	80.011	19.994	104.339	20.025	2.541	0.521
782.000	472.889	80.011	19.995	104.337	20.027	2.334	0.533
782.500	473.150	80.010	19.994	104.337	20.030	2.098	0.533
783.000	473.401	80.012	19.993	104.337	20.031	2.055	0.524
783.500	473.692	80.012	19.994	104.337	20.025	2.522	0.527
784.000	473.903	80.011	19.994	104.337	20.028	2.279	0.522
784.500	474.186	80.010	19.994	104.337	20.026	2.400	0.498
785.000	474.422	80.011	19.994	104.336	20.028	2.290	0.506
785.500	474.716	80.009	19.994	104.336	20.033	1.878	0.525
786.000	474.953	80.011	19.994	104.336	20.031	2.005	0.531
786.500	475.206	80.011	19.995	104.336	20.028	2.234	0.510
787.000	475.479	80.010	19.994	104.336	20.033	1.893	0.508
787.500	475.696	80.011	19.995	104.336	20.031	2.029	0.508
788.000	475.989	80.011	19.995	104.338	20.030	2.116	0.500
788.500	476.240	80.009	19.994	104.338	20.028	2.266	0.527
789.000	476.496	80.011	19.995	104.338	20.027	2.317	0.525
789.500	476.751	80.010	19.994	104.338	20.033	1.898	0.509
790.000	477.057	80.011	19.994	104.338	20.027	2.352	0.536
790.500	477.258	80.010	19.995	104.336	20.032	1.928	0.534
791.000	477.470	80.011	19.994	104.335	20.025	2.472	0.460
791.500	477.780	80.010	19.994	104.336	20.029	2.201	0.467
792.000	478.050	80.010	19.995	104.335	20.029	2.186	0.551
792.500	478.298	80.008	19.994	104.335	20.035	1.717	0.549
793.000	478.542	80.009	19.994	104.333	20.030	2.151	0.505
793.500	478.796	80.010	19.994	104.333	20.030	2.092	0.495
794.000	479.067	80.009	19.994	104.333	20.025	2.472	0.512
794.500	479.299	80.009	19.993	104.334	20.030	2.114	0.514
795.000	479.550	80.010	19.996	104.336	20.027	2.347	0.493
795.500	479.800	80.010	19.995	104.339	20.028	2.240	0.492
796.000	480.066	80.009	19.994	104.339	20.028	2.301	0.508
796.500	480.300	80.010	19.994	104.339	20.031	2.051	0.508
797.000	480.530	80.008	19.994	104.338	20.030	2.079	0.482
797.500	480.833	80.008	19.993	104.338	20.028	2.236	0.498
798.000	481.117	80.009	19.994	104.338	20.029	2.157	0.560
798.500	481.333	80.010	19.994	104.338	20.027	2.352	0.544
799.000	481.564	80.011	19.994	104.339	20.032	1.920	0.474
799.500	481.854	80.010	19.993	104.338	20.028	2.249	0.484
800.001	482.095	80.010	19.994	104.338	20.030	2.088	0.526
800.501	482.328	80.010	19.993	104.339	20.029	2.184	0.502
801.000	482.625	80.010	19.994	104.338	20.033	1.872	0.502
801.500	482.879	80.010	19.994	104.339	20.026	2.432	0.541
802.001	483.132	80.011	19.994	104.339	20.024	2.572	0.530
802.500	483.378	80.011	19.993	104.339	20.027	2.389	0.503
803.000	483.627	80.010	19.993	104.339	20.028	2.304	0.496
803.500	483.862	80.011	19.993	104.339	20.028	2.295	0.489
804.000	484.119	80.009	19.993	104.339	20.029	2.160	0.488
804.500	484.372	80.011	19.993	104.341	20.028	2.290	0.502
805.000	484.613	80.012	19.993	104.341	20.028	2.299	0.502
805.500	484.883	80.011	19.993	104.341	20.026	2.465	0.502
806.000	485.143	80.011	19.992	104.341	20.030	2.151	0.521
806.500	485.417	80.011	19.992	104.341	20.028	2.284	0.532
807.000	485.651	80.012	19.993	104.339	20.026	2.415	0.521
807.500	485.877	80.011	19.992	104.340	20.031	2.055	0.484
808.000	486.168	80.013	19.993	104.339	20.032	1.950	0.488
808.500	486.376	80.013	19.993	104.339	20.026	2.432	0.508
809.000	486.654	80.011	19.992	104.339	20.036	1.662	0.493
809.500	486.902	80.010	19.992	104.339	20.027	2.373	0.506
810.000	487.152	80.009	19.993	104.339	20.027	2.354	0.512
810.500	487.408	80.011	19.993	104.339	20.030	2.118	0.502
811.000	487.686	80.012	19.992	104.339	20.031	2.012	0.521
811.500	487.923	80.012	19.992	104.339	20.026	2.422	0.525
812.000	488.158	80.010	19.992	104.340	20.027	2.332	0.493
812.500	488.423	80.012	19.992	104.339	20.023	2.640	0.486
813.000	488.687	80.011	19.993	104.340	20.023	2.662	0.515
813.500	488.911	80.012	19.993	104.339	20.026	2.402	0.508
814.000	489.186	80.011	19.993	104.340	20.026	2.463	0.493
814.500	489.454	80.011	19.993	104.340	20.026	2.445	0.521
815.000	489.706	80.010	19.993	104.340	20.029	2.166	0.531
815.500	489.930	80.011	19.993	104.341	20.029	2.157	0.498
816.000	490.215	80.009	19.994	104.340	20.030	2.131	0.492
816.500	490.484	80.009	19.992	104.340	20.027	2.378	0.532
817.000	490.743	80.010	19.992	104.340	20.027	2.321	0.541
817.500	490.984	80.009	19.993	104.341	20.025	2.543	0.514
818.000	491.227	80.008	19.993	104.341	20.024	2.624	0.492
818.500	491.492	80.009	19.993	104.341	20.026	2.432	0.496
819.000	491.746	80.009	19.994	104.342	20.031	1.996	0.513
819.500	492.033	80.010	19.993	104.342	20.023	2.668	0.530
820.000	492.258	80.008	19.994	104.342	20.031	2.055	0.527
820.500	492.542	80.010	19.994	104.341	20.027	2.347	0.510
821.000	492.768	80.009	19.993	104.343	20.027	2.389	0.509
821.500	493.033	80.008	19.994	104.348	20.029	2.199	0.501
822.000	493.310	80.009	19.994	104.353	20.029	2.197	0.517
822.500	493.589	80.009	19.993	104.354	20.026	2.430	0.548
823.000	493.838	80.008	19.993	104.356	20.030	2.118	0.542
823.500	494.110	80.010	19.994	104.356	20.032	1.979	0.525
824.000	494.336	80.011	19.994	104.350	20.027	2.376	0.509
824.500	494.614	80.010	19.994	104.345	20.030	2.116	0.501
825.000	494.849	80.008	19.993	104.346	20.026	2.421	0.509
825.500	495.126	80.010	19.993	104.344	20.028	2.306	0.513
826.000	495.380	80.009	19.993	104.342	20.027	2.317	0.521
826.500	495.658	80.010	19.992	104.338	20.028	2.258	0.531
827.000	495.906	80.009	19.994	104.336	20.028	2.273	0.529
827.500	496.199	80.009	19.993	104.333	20.027	2.378	0.534
828.000	496.426	80.009	19.993	104.333	20.029	2.192	0.531
828.500	496.662	80.009	19.994	104.334	20.029	2.168	0.492
829.000	496.943	80.009	19.993	104.337	20.032	1.981	0.490
829.500	497.238	80.009	19.993	104.338	20.030	2.125	0.546
830.000	497.502	80.010	19.993	104.338	20.025	2.517	0.568
830.500	497.742	80.010	19.993	104.338	20.030	2.120	0.532
831.000	498.029	80.010	19.993	104.338	20.026	2.463	0.516
831.500	498.275	80.009	19.992	104.337	20.031	2.048	0.530
832.000	498.517	80.009	19.994	104.337	20.025	2.522	0.510
832.500	498.816	80.009	19.993	104.337	20.029	2.229	0.514
833.000	499.034	80.010	19.994	104.337	20.024	2.596	0.529
833.500	499.317	80.009	19.993	104.339	20.029	2.210	0.509
834.001	499.594	80.010	19.993	104.341	20.026	2.413	0.530
834.501	499.845	80.009	19.993	104.341	20.025	2.489	0.544
835.000	500.103	80.008	19.994	104.340	20.027	2.321	0.519
835.500	500.376	80.010	19.993	104.340	20.029	2.162	0.520
836.000	500.676	80.009	19.993	104.339	20.027	2.358	0.551
836.500	500.933	80.010	19.992	104.338	20.028	2.264	0.565
837.000	501.186	80.010	19.993	104.340	20.026	2.397	0.534
837.500	501.426	80.009	19.993	104.342	20.025	2.474	0.501
838.000	501.693	80.009	19.994	104.344	20.027	2.378	0.500
838.500	501.960	80.010	19.994	104.344	20.030	2.144	0.521
839.000	502.238	80.010	19.992	104.344	20.029	2.203	0.540
839.500	502.503	80.011	19.994	104.342	20.028	2.297	0.544
840.000	502.762	80.011	19.992	104.341	20.031	2.057	0.534
840.500	503.004	80.009	19.993	104.339	20.026	2.443	0.513
841.000	503.273	80.011	19.993	104.342	20.027	2.332	0.506
841.500	503.573	80.008	19.992	104.341	20.028	2.275	0.540
842.000	503.821	80.009	19.993	104.341	20.028	2.308	0.559
842.500	504.083	80.011	19.993	104.341	20.029	2.223	0.529
843.000	504.390	80.009	19.993	104.341	20.029	2.194	0.539
843.500	504.628	80.010	19.993	104.341	20.029	2.153	0.557
844.000	504.880	80.010	19.993	104.340	20.030	2.096	0.518
844.500	505.148	80.009	19.993	104.340	20.027	2.341	0.506
845.000	505.441	80.011	19.993	104.340	20.027	2.356	0.540
845.500	505.706	80.009	19.993	104.340	20.030	2.149	0.559
846.000	505.941	80.011	19.992	104.338	20.029	2.162	0.529
846.500	506.192	80.010	19.994	104.338	20.031	2.016	0.493
847.000	506.511	80.008	19.995	104.339	20.028	2.232	0.528
847.500	506.749	80.009	19.994	104.339	20.027	2.356	0.564
848.000	507.036	80.010	19.994	104.339	20.027	2.334	0.541
848.500	507.287	80.010	19.993	104.339	20.028	2.297	0.531
849.000	507.552	80.010	19.993	104.339	20.027	2.347	0.527
849.500	507.827	80.010	19.994	104.339	20.030	2.090	0.528
850.000	508.115	80.009	19.993	104.339	20.028	2.297	0.551
850.500	508.333	80.009	19.993	104.339	20.025	2.541	0.534
851.000	508.607	80.009	19.995	104.339	20.027	2.345	0.499
851.500	508.887	80.009	19.993	104.337	20.031	2.007	0.523
852.000	509.116	80.008	19.995	104.337	20.025	2.513	0.531
852.500	509.447	80.008	19.995	104.336	20.027	2.376	0.535
853.000	509.714	80.009	19.994	104.336	20.021	2.807	0.579
853.500	509.958	80.008	19.994	104.335	20.024	2.626	0.555
854.000	510.228	80.010	19.994	104.335	20.023	2.646	0.512
854.500	510.484	80.010	19.994	104.335	20.027	2.319	0.520
855.000	510.762	80.010	19.994	104.335	20.026	2.432	0.530
855.500	511.052	80.008	19.995	104.338	20.028	2.306	0.551
856.000	511.333	80.010	19.995	104.340	20.028	2.269	0.569
856.500	511.528	80.009	19.994	104.341	20.027	2.365	0.524
857.000	511.800	80.009	19.995	104.340	20.028	2.240	0.472
857.500	512.110	80.008	19.995	104.340	20.029	2.170	0.524
858.000	512.359	80.009	19.994	104.339	20.032	1.983	0.570
858.500	512.633	80.011	19.995	104.338	20.029	2.225	0.541
859.000	512.905	80.009	19.994	104.338	20.031	2.007	0.534
859.500	513.113	80.009	19.994	104.339	20.030	2.120	0.513
860.000	513.423	80.009	19.994	104.339	20.031	2.037	0.499
860.500	513.696	80.010	19.995	104.339	20.026	2.465	0.551
861.000	513.960	80.008	19.994	104.340	20.027	2.330	0.560
861.500	514.212	80.010	19.995	104.340	20.028	2.238	0.527
862.000	514.499	80.009	19.994	104.340	20.025	2.533	0.528
862.500	514.770	80.011	19.994	104.340	20.024	2.574	0.549
863.000	515.013	80.011	19.993	104.339	20.030	2.136	0.535
863.500	515.288	80.010	19.993	104.338	20.028	2.275	0.516
864.000	515.574	80.012	19.994	104.338	20.028	2.304	0.540
864.500	515.814	80.010	19.994	104.338	20.027	2.314	0.543
865.000	516.086	80.011	19.994	104.337	20.027	2.315	0.519
865.500	516.327	80.010	19.994	104.338	20.029	2.223	0.512
866.000	516.634	80.011	19.994	104.339	20.030	2.077	0.530
866.500	516.899	80.010	19.994	104.339	20.026	2.417	0.560
867.000	517.147	80.011	19.993	104.340	20.027	2.314	0.543
867.500	517.421	80.009	19.994	104.339	20.027	2.362	0.518
868.000	517.651	80.012	19.993	104.338	20.026	2.461	0.513
868.500	517.924	80.009	19.993	104.338	20.025	2.509	0.504
869.000	518.199	80.011	19.993	104.338	20.031	1.996	0.526
869.500	518.442	80.010	19.993	104.338	20.030	2.116	0.533
870.000	518.750	80.009	19.993	104.339	20.031	2.011	0.535
870.500	518.961	80.011	19.994	104.339	20.027	2.380	0.535
871.000	519.262	80.009	19.993	104.339	20.022	2.738	0.515
871.500	519.489	80.010	19.993	104.338	20.022	2.731	0.520
872.000	519.818	80.011	19.994	104.339	20.026	2.467	0.542
872.500	520.087	80.010	19.994	104.339	20.024	2.615	0.576
873.000	520.314	80.009	19.994	104.339	20.027	2.371	0.547
873.500	520.577	80.010	19.993	104.338	20.026	2.408	0.493
874.000	520.854	80.010	19.994	104.338	20.020	2.917	0.515
874.500	521.104	80.010	19.994	104.339	20.024	2.624	0.533
875.000	521.348	80.010	19.994	104.339	20.024	2.559	0.511
875.500	521.613	80.009	19.994	104.340	20.027	2.365	0.502
876.000	521.864	80.009	19.993	104.341	20.029	2.214	0.512
876.500	522.127	80.008	19.995	104.341	20.027	2.347	0.515
877.000	522.401	80.011	19.994	104.341	20.022	2.738	0.526
877.500	522.653	80.008	19.994	104.340	20.026	2.408	0.532
878.000	522.911	80.010	19.993	104.340	20.028	2.245	0.518
878.500	523.175	80.009	19.994	104.340	20.027	2.369	0.516
879.000	523.470	80.008	19.994	104.342	20.027	2.373	0.540
879.500	523.677	80.008	19.995	104.342	20.027	2.371	0.531
880.000	523.977	80.009	19.994	104.342	20.027	2.341	0.505
880.500	524.228	80.007	19.994	104.342	20.023	2.694	0.529
881.000	524.485	80.010	19.994	104.342	20.030	2.103	0.529
881.500	524.738	80.008	19.994	104.340	20.028	2.277	0.509
882.000	525.020	80.008	19.994	104.335	20.028	2.255	0.523
882.500	525.294	80.008	19.995	104.332	20.033	1.874	0.546
883.000	525.536	80.006	19.994	104.332	20.028	2.295	0.536
883.500	525.808	80.009	19.993	104.331	20.030	2.114	0.515
884.000	526.049	80.011	19.994	104.331	20.029	2.218	0.514
884.500	526.321	80.009	19.995	104.336	20.029	2.179	0.513
885.000	526.554	80.010	19.994	104.340	20.030	2.092	0.509
885.500	526.789	80.009	19.994	104.340	20.026	2.413	0.486
886.000	527.081	80.009	19.993	104.338	20.029	2.207	0.498
886.500	527.328	80.010	19.994	104.337	20.030	2.109	0.534
887.000	527.612	80.010	19.995	104.336	20.030	2.131	0.535
887.500	527.823	80.010	19.995	104.335	20.027	2.327	0.513
888.000	528.067	80.011	19.993	104.335	20.030	2.087	0.475
888.500	528.373	80.011	19.994	104.338	20.031	2.064	0.502
889.000	528.658	80.011	19.995	104.339	20.028	2.284	0.571
889.500	528.875	80.011	19.994	104.339	20.030	2.116	0.547
890.000	529.144	80.012	19.995	104.338	20.030	2.090	0.494
890.500	529.423	80.011	19.995	104.338	20.031	2.029	0.517
891.000	529.651	80.011	19.994	104.336	20.027	2.382	0.527
891.501	529.919	80.013	19.994	104.336	20.030	2.149	0.502
892.000	530.176	80.011	19.993	104.333	20.032	1.968	0.511
892.500	530.440	80.011	19.994	104.331	20.029	2.227	0.523
893.000	530.687	80.013	19.994	104.330	20.031	2.057	0.516
893.500	530.984	80.011	19.994	104.331	20.030	2.151	0.527
894.000	531.197	80.012	19.994	104.330	20.029	2.153	0.527
894.500	531.462	80.012	19.994	104.333	20.029	2.175	0.494
895.000	531.739	80.013	19.994	104.334	20.032	1.976	0.510
895.500	531.953	80.012	19.993	104.335	20.029	2.205	0.517
896.000	532.238	80.013	19.994	104.334	20.030	2.077	0.495
896.500	532.507	80.013	19.993	104.335	20.030	2.109	0.527
897.000	532.708	80.011	19.993	104.335	20.026	2.430	0.513
897.500	533.001	80.011	19.993	104.336	20.028	2.234	0.482
898.000	533.216	80.012	19.993	104.333	20.029	2.192	0.501
898.500	533.503	80.011	19.993	104.334	20.031	2.048	0.505
899.000	533.771	80.011	19.993	104.334	20.029	2.166	0.529
899.500	534.039	80.010	19.994	104.334	20.030	2.129	0.545
900.000	534.281	80.010	19.992	104.335	20.028	2.288	0.523
900.500	534.511	80.009	19.994	104.337	20.031	2.002	0.491
901.000	534.804	80.010	19.993	104.337	20.026	2.469	0.498
901.500	535.077	80.010	19.993	104.338	20.030	2.101	0.545
902.000	535.335	80.010	19.993	104.336	20.029	2.153	0.548
902.500	535.583	80.009	19.994	104.336	20.028	2.253	0.518
903.000	535.845	80.009	19.993	104.337	20.026	2.408	0.508
903.500	536.089	80.010	19.993	104.336	20.027	2.319	0.508
904.000	536.323	80.009	19.994	104.336	20.031	2.037	0.492
904.500	536.599	80.009	19.993	104.337	20.028	2.262	0.494
905.000	536.867	80.009	19.994	104.337	20.028	2.258	0.527
905.500	537.104	80.010	19.994	104.336	20.034	1.756	0.524
906.000	537.371	80.008	19.994	104.335	20.029	2.192	0.505
906.500	537.589	80.009	19.993	104.336	20.026	2.393	0.494
907.000	537.880	80.009	19.994	104.336	20.029	2.188	0.497
907.500	538.120	80.010	19.994	104.334	20.029	2.173	0.520
908.000	538.374	80.009	19.994	104.334	20.028	2.282	0.513
908.500	538.595	80.010	19.994	104.334	20.027	2.354	0.484
909.000	538.873	80.009	19.993	104.334	20.031	2.046	0.487
909.500	539.147	80.009	19.993	104.334	20.030	2.122	0.526
910.000	539.373	80.010	19.994	104.336	20.032	1.985	0.525
910.500	539.650	80.009	19.993	104.334	20.032	1.930	0.501
911.000	539.939	80.010	19.993	104.333	20.034	1.773	0.535
911.500	540.145	80.009	19.994	104.333	20.030	2.087	0.531
912.000	540.400	80.009	19.992	104.333	20.027	2.371	0.478
912.500	540.697	80.010	19.993	104.331	20.032	1.948	0.506
913.000	540.917	80.009	19.992	104.333	20.029	2.173	0.534
913.500	541.181	80.010	19.994	104.331	20.030	2.138	0.501
914.000	541.449	80.009	19.992	104.331	20.032	1.944	0.509
914.500	541.666	80.008	19.992	104.331	20.031	2.022	0.509
915.000	541.961	80.009	19.993	104.334	20.031	2.055	0.499
915.500	542.186	80.009	19.994	104.335	20.028	2.310	0.516
916.000	542.446	80.011	19.993	104.337	20.031	2.031	0.502
916.500	542.676	80.009	19.994	104.338	20.030	2.072	0.487
917.000	542.953	80.010	19.995	104.338	20.033	1.863	0.499
917.500	543.198	80.010	19.994	104.337	20.030	2.120	0.515
918.000	543.481	80.010	19.993	104.336	20.032	1.943	0.525
918.500	543.723	80.009	19.991	104.336	20.031	2.061	0.526
919.000	544.028	80.010	19.995	104.338	20.026	2.404	0.536
919.500	544.265	80.009	19.993	104.338	20.029	2.218	0.544
920.000	544.512	80.010	19.994	104.338	20.030	2.116	0.513
920.500	544.763	80.010	19.993	104.337	20.028	2.284	0.491
921.000	544.999	80.010	19.994	104.334	20.032	1.937	0.492
921.500	545.287	80.009	19.994	104.331	20.029	2.166	0.505
922.000	545.509	80.008	19.993	104.328	20.028	2.297	0.517
922.500	545.775	80.011	19.994	104.328	20.032	1.989	0.499
923.000	546.039	80.011	19.993	104.329	20.028	2.234	0.509
923.500	546.300	80.010	19.993	104.332	20.030	2.125	0.528
924.000	546.549	80.009	19.994	104.334	20.030	2.144	0.517
924.501	546.833	80.010	19.994	104.337	20.031	2.064	0.522
925.000	547.111	80.010	19.994	104.338	20.027	2.341	0.548
925.500	547.337	80.009	19.993	104.338	20.029	2.177	0.533
926.000	547.572	80.010	19.993	104.338	20.029	2.173	0.482
926.500	547.833	80.009	19.993	104.338	20.032	1.935	0.479
927.000	548.129	80.009	19.994	104.337	20.031	2.059	0.527
927.500	548.377	80.009	19.993	104.336	20.029	2.225	0.550
928.001	548.657	80.010	19.993	104.334	20.029	2.223	0.536
928.500	548.879	80.008	19.993	104.333	20.029	2.157	0.516
929.000	549.189	80.008	19.993	104.331	20.033	1.839	0.517
929.500	549.424	80.009	19.993	104.331	20.033	1.878	0.538
930.000	549.690	80.008	19.993	104.332	20.030	2.120	0.523
930.500	549.971	80.008	19.994	104.334	20.032	1.952	0.524
931.000	550.223	80.010	19.994	104.335	20.032	1.933	0.540
931.500	550.467	80.009	19.992	104.336	20.033	1.876	0.515
932.000	550.761	80.010	19.993	104.338	20.035	1.710	0.517
932.500	550.996	80.010	19.993	104.338	20.029	2.173	0.533
933.000	551.239	80.010	19.994	104.339	20.031	2.048	0.503
933.500	551.472	80.008	19.993	104.336	20.034	1.784	0.477
934.000	551.769	80.009	19.993	104.337	20.033	1.835	0.503
934.500	552.038	80.010	19.993	104.337	20.035	1.677	0.548
935.000	552.288	80.009	19.993	104.337	20.031	2.050	0.543
935.500	552.552	80.008	19.993	104.338	20.033	1.893	0.516
936.000	552.756	80.009	19.993	104.341	20.036	1.634	0.491
936.500	553.074	80.010	19.993	104.338	20.033	1.872	0.495
937.000	553.321	80.009	19.994	104.333	20.033	1.898	0.543
937.500	553.605	80.010	19.993	104.331	20.032	1.931	0.547
938.000	553.844	80.009	19.993	104.330	20.033	1.889	0.527
938.500	554.129	80.009	19.993	104.329	20.032	1.961	0.524
939.000	554.398	80.009	19.992	104.332	20.033	1.900	0.539
939.500	554.642	80.009	19.993	104.337	20.034	1.793	0.534
940.000	554.938	80.010	19.993	104.339	20.032	1.963	0.527
940.500	555.188	80.010	19.992	104.340	20.031	2.000	0.543
941.000	555.446	80.009	19.992	104.340	20.032	1.922	0.527
941.500	555.720	80.009	19.993	104.336	20.032	1.928	0.520
942.000	555.969	80.009	19.993	104.335	20.034	1.758	0.528
942.500	556.232	80.011	19.993	104.335	20.035	1.706	0.517
943.000	556.481	80.010	19.993	104.336	20.033	1.848	0.512
943.501	556.751	80.010	19.994	104.337	20.033	1.880	0.516
944.001	556.998	80.009	19.993	104.341	20.035	1.712	0.518
944.500	557.264	80.010	19.994	104.341	20.036	1.597	0.515
945.000	557.519	80.011	19.993	104.338	20.032	1.922	0.517
945.500	557.832	80.010	19.994	104.338	20.033	1.872	0.545
946.000	558.121	80.011	19.993	104.336	20.033	1.861	0.585
946.500	558.345	80.009	19.994	104.332	20.029	2.203	0.557
947.000	558.619	80.010	19.994	104.332	20.033	1.837	0.506
947.500	558.862	80.009	19.993	104.335	20.035	1.749	0.508
948.000	559.125	80.011	19.993	104.335	20.030	2.079	0.512
948.500	559.391	80.009	19.993	104.337	20.028	2.247	0.518
949.000	559.635	80.011	19.994	104.339	20.030	2.081	0.519
949.500	559.906	80.012	19.994	104.337	20.031	2.046	0.513
950.000	560.173	80.009	19.993	104.338	20.032	1.948	0.526
950.500	560.433	80.010	19.995	104.337	20.033	1.865	0.532
951.000	560.721	80.009	19.993	104.336	20.032	1.930	0.538
951.500	560.941	80.010	19.993	104.336	20.032	1.926	0.528
952.000	561.185	80.009	19.993	104.337	20.033	1.880	0.486
952.500	561.484	80.010	19.995	104.336	20.033	1.849	0.503
953.000	561.694	80.009	19.994	104.337	20.035	1.736	0.526
953.500	561.933	80.010	19.994	104.338	20.036	1.671	0.479
954.000	562.214	80.009	19.994	104.339	20.038	1.435	0.485
954.500	562.493	80.010	19.993	104.339	20.034	1.782	0.539
955.000	562.797	80.011	19.994	104.339	20.032	1.978	0.571
955.500	563.007	80.009	19.993	104.339	20.032	1.917	0.549
956.000	563.276	80.010	19.994	104.336	20.033	1.909	0.497
956.500	563.542	80.011	19.994	104.334	20.035	1.688	0.507
957.000	563.799	80.009	19.994	104.333	20.033	1.876	0.529
957.500	564.039	80.010	19.993	104.331	20.033	1.874	0.510
958.000	564.304	80.010	19.993	104.331	20.036	1.601	0.501
958.500	564.532	80.010	19.994	104.332	20.033	1.882	0.499
959.000	564.810	80.010	19.993	104.335	20.038	1.499	0.499
959.500	565.066	80.011	19.994	104.334	20.033	1.902	0.520
960.000	565.305	80.011	19.993	104.334	20.034	1.771	0.514
960.500	565.541	80.010	19.993	104.333	20.034	1.810	0.485
961.000	565.824	80.011	19.993	104.333	20.036	1.647	0.497
961.500	566.083	80.010	19.994	104.331	20.033	1.860	0.531
962.000	566.340	80.012	19.994	104.327	20.032	1.985	0.529
962.500	566.608	80.011	19.993	104.321	20.033	1.856	0.521
963.000	566.825	80.010	19.993	104.320	20.031	2.022	0.505
963.500	567.096	80.011	19.994	104.320	20.036	1.629	0.486
964.000	567.342	80.013	19.994	104.322	20.032	1.967	0.503
964.500	567.600	80.010	19.993	104.327	20.030	2.105	0.511
965.000	567.887	80.011	19.995	104.333	20.034	1.821	0.524
965.500	568.144	80.011	19.993	104.335	20.031	2.007	0.544
966.000	568.381	80.012	19.994	104.335	20.034	1.791	0.518
966.500	568.658	80.012	19.993	104.334	20.032	1.924	0.504
967.000	568.884	80.011	19.993	104.335	20.031	2.068	0.509
967.500	569.175	80.011	19.994	104.335	20.029	2.173	0.510
968.000	569.408	80.012	19.994	104.335	20.033	1.863	0.521
968.500	569.697	80.010	19.995	104.337	20.032	1.974	0.523
969.000	569.908	80.011	19.994	104.338	20.034	1.765	0.511
969.500	570.207	80.011	19.994	104.334	20.031	2.020	0.505
970.001	570.481	80.013	19.994	104.332	20.035	1.747	0.541
970.501	570.735	80.012	19.995	104.326	20.033	1.856	0.551
971.000	570.970	80.011	19.994	104.321	20.033	1.865	0.509
971.500	571.172	80.010	19.993	104.321	20.032	1.972	0.463
972.000	571.449	80.012	19.992	104.322	20.034	1.784	0.458
972.500	571.670	80.011	19.993	104.317	20.032	1.985	0.489
973.000	571.959	80.011	19.994	104.318	20.035	1.743	0.504
973.500	572.207	80.011	19.994	104.319	20.031	2.000	0.523
974.000	572.448	80.011	19.994	104.317	20.032	1.920	0.513
974.500	572.688	80.012	19.994	104.315	20.035	1.734	0.485
975.000	572.989	80.012	19.994	104.322	20.037	1.544	0.511
975.500	573.246	80.012	19.995	104.325	20.036	1.623	0.550
976.000	573.478	80.010	19.995	104.328	20.036	1.636	0.524
976.500	573.730	80.010	19.995	104.330	20.033	1.895	0.486
977.000	573.987	80.012	19.994	104.333	20.032	1.974	0.496
977.500	574.232	80.011	19.994	104.333	20.037	1.544	0.506
978.000	574.518	80.011	19.995	104.333	20.031	2.046	0.517
978.500	574.764	80.011	19.995	104.334	20.033	1.863	0.531
979.000	575.050	80.009	19.994	104.333	20.033	1.839	0.532
979.500	575.292	80.011	19.994	104.333	20.032	1.985	0.530
980.000	575.545	80.009	19.994	104.333	20.034	1.795	0.512
980.500	575.773	80.010	19.994	104.333	20.032	1.952	0.489
981.000	576.007	80.010	19.994	104.331	20.033	1.841	0.472
981.500	576.291	80.010	19.994	104.331	20.034	1.821	0.490
982.000	576.528	80.010	19.995	104.330	20.035	1.686	0.519
982.500	576.759	80.009	19.994	104.329	20.034	1.789	0.494
983.000	577.058	80.010	19.994	104.329	20.035	1.723	0.499
983.500	577.281	80.009	19.995	104.331	20.033	1.880	0.526
984.000	577.504	80.009	19.994	104.333	20.032	1.939	0.484
984.500	577.784	80.008	19.994	104.334	20.032	1.970	0.475
985.000	578.055	80.009	19.995	104.336	20.031	1.996	0.527
985.500	578.309	80.009	19.994	104.336	20.034	1.817	0.538
986.000	578.533	80.010	19.995	104.336	20.032	1.930	0.502
986.500	578.786	80.009	19.995	104.334	20.035	1.734	0.477
987.000	579.027	80.010	19.994	104.331	20.033	1.889	0.485
987.500	579.261	80.009	19.994	104.329	20.036	1.660	0.485
988.000	579.524	80.009	19.994	104.328	20.035	1.686	0.486
988.500	579.768	80.008	19.994	104.327	20.034	1.813	0.502
989.000	580.027	80.009	19.994	104.328	20.039	1.411	0.505
989.500	580.301	80.008	19.994	104.330	20.034	1.826	0.518
990.000	580.540	80.010	19.993	104.332	20.033	1.887	0.523
990.500	580.768	80.009	19.992	104.334	20.032	1.944	0.490
991.000	581.014	80.010	19.993	104.333	20.033	1.848	0.471
991.500	581.254	80.009	19.993	104.335	20.032	1.920	0.480
992.001	581.542	80.008	19.993	104.335	20.032	1.926	0.507
992.500	581.801	80.011	19.993	104.335	20.031	2.027	0.538
993.000	582.009	80.010	19.992	104.335	20.034	1.817	0.507
993.500	582.248	80.009	19.992	104.337	20.037	1.571	0.457
994.000	582.465	80.009	19.993	104.338	20.036	1.669	0.451
994.500	582.739	80.010	19.993	104.338	20.032	1.924	0.474
995.000	582.973	80.008	19.993	104.339	20.035	1.743	0.500
995.500	583.254	80.011	19.993	104.339	20.034	1.830	0.511
996.000	583.491	80.010	19.993	104.338	20.032	1.963	0.516
996.500	583.746	80.011	19.992	104.337	20.033	1.861	0.506
997.000	583.993	80.009	19.993	104.332	20.030	2.125	0.497
997.501	584.238	80.011	19.993	104.327	20.030	2.127	0.497
998.001	584.512	80.009	19.993	104.326	20.034	1.778	0.505
998.500	584.739	80.009	19.994	104.325	20.032	1.985	0.510
999.000	585.004	80.010	19.993	104.326	20.031	1.996	0.497
999.500	585.231	80.011	19.992	104.331	20.031	2.048	0.492
1000.000	585.483	80.010	19.993	104.336	20.028	2.256	0.485
1000.500	585.750	80.010	19.993	104.337	20.030	2.149	0.499
1001.000	585.971	80.010	19.993	104.340	20.032	1.970	0.503
1001.500	586.255	80.012	19.994	104.340	20.032	1.992	0.497
1002.000	586.530	80.010	19.992	104.340	20.032	1.981	0.532
1002.500	586.783	80.010	19.993	104.339	20.033	1.843	0.544
1003.000	587.020	80.009	19.993	104.339	20.034	1.821	0.509
1003.500	587.253	80.011	19.994	104.340	20.031	2.039	0.480
1004.000	587.496	80.011	19.993	104.340	20.032	1.959	0.472
1004.500	587.766	80.011	19.994	104.340	20.031	2.054	0.495
1005.000	588.016	80.010	19.993	104.340	20.031	2.000	0.517
1005.500	588.247	80.010	19.993	104.341	20.032	1.972	0.501
1006.000	588.489	80.011	19.993	104.340	20.031	2.035	0.477
1006.500	588.744	80.011	19.992	104.340	20.032	1.943	0.485
1007.000	589.006	80.010	19.994	104.340	20.037	1.573	0.507
1007.500	589.261	80.010	19.993	104.340	20.034	1.797	0.517
1008.000	589.518	80.009	19.993	104.340	20.030	2.079	0.515
1008.500	589.783	80.010	19.993	104.340	20.034	1.830	0.517
1009.000	590.009	80.010	19.994	104.340	20.035	1.738	0.507
1009.500	590.268	80.009	19.994	104.340	20.035	1.695	0.488
1010.001	590.522	80.010	19.993	104.341	20.039	1.363	0.499
1010.500	590.805	80.008	19.993	104.341	20.034	1.824	0.525
1011.000	591.023	80.009	19.993	104.341	20.034	1.786	0.519
1011.500	591.273	80.010	19.993	104.341	20.034	1.756	0.485
1012.000	591.532	80.008	19.994	104.340	20.036	1.647	0.488
1012.500	591.764	80.009	19.992	104.341	20.032	1.961	0.500
1013.000	592.028	80.010	19.993	104.340	20.032	1.944	0.494
1013.500	592.268	80.008	19.995	104.338	20.037	1.575	0.500
1014.000	592.523	80.010	19.994	104.330	20.036	1.638	0.499
1014.500	592.780	80.010	19.993	104.324	20.034	1.780	0.503
1015.000	593.035	80.006	19.993	104.320	20.033	1.867	0.512
1015.500	593.276	80.010	19.993	104.320	20.033	1.880	0.504
1016.000	593.550	80.009	19.994	104.323	20.033	1.885	0.505
1016.500	593.832	80.010	19.993	104.330	20.031	2.000	0.535
1017.000	594.072	80.009	19.992	104.332	20.030	2.083	0.539
1017.500	594.310	80.009	19.995	104.331	20.030	2.074	0.500
1018.000	594.560	80.009	19.994	104.327	20.034	1.806	0.483
1018.500	594.859	80.011	19.994	104.326	20.028	2.299	0.519
1019.000	595.112	80.011	19.994	104.326	20.030	2.135	0.551
1019.500	595.361	80.011	19.993	104.330	20.033	1.861	0.527
1020.000	595.651	80.012	19.993	104.335	20.033	1.895	0.521
1020.500	595.871	80.010	19.994	104.336	20.034	1.754	0.524
1021.000	596.137	80.010	19.994	104.335	20.030	2.074	0.498
1021.500	596.388	80.010	19.994	104.333	20.030	2.077	0.501
1022.000	596.638	80.010	19.993	104.333	20.031	2.059	0.509
1022.500	596.940	80.011	19.992	104.333	20.032	1.933	0.527
1023.000	597.180	80.011	19.993	104.336	20.030	2.081	0.547
1023.500	597.451	80.012	19.993	104.337	20.028	2.234	0.527
1024.000	597.689	80.012	19.994	104.338	20.031	2.070	0.510
1024.501	597.945	80.013	19.993	104.338	20.032	1.974	0.501
1025.001	598.191	80.011	19.994	104.337	20.032	1.933	0.498
1025.501	598.431	80.011	19.994	104.337	20.033	1.891	0.494
1026.001	598.658	80.011	19.993	104.337	20.036	1.608	0.477
1026.501	598.912	80.012	19.993	104.337	20.035	1.752	0.474
1027.000	599.184	80.011	19.994	104.337	20.035	1.701	0.503
1027.500	599.438	80.011	19.993	104.337	20.033	1.911	0.526
1028.000	599.695	80.012	19.993	104.337	20.030	2.129	0.519
1028.500	599.956	80.013	19.993	104.334	20.032	1.985	0.514
1029.000	600.167	80.012	19.993	104.330	20.034	1.830	0.495
1029.500	600.422	80.013	19.993	104.326	20.032	1.926	0.469
1030.001	600.688	80.011	19.993	104.326	20.034	1.824	0.493
1030.501	600.910	80.013	19.993	104.327	20.033	1.865	0.505
1031.000	601.164	80.012	19.994	104.329	20.036	1.647	0.482
1031.500	601.426	80.013	19.992	104.332	20.032	1.987	0.496
1032.000	601.691	80.014	19.992	104.337	20.032	1.939	0.521
1032.500	601.967	80.012	19.993	104.337	20.035	1.745	0.534
1033.000	602.200	80.012	19.992	104.336	20.033	1.845	0.525
1033.500	602.486	80.014	19.993	104.336	20.037	1.527	0.514
1034.000	602.750	80.012	19.993	104.336	20.037	1.577	0.535
1034.500	602.984	80.011	19.992	104.336	20.036	1.618	0.524
1035.000	603.252	80.012	19.993	104.336	20.035	1.675	0.500
1035.500	603.460	80.013	19.993	104.336	20.035	1.734	0.489
1036.000	603.737	80.011	19.994	104.337	20.034	1.819	0.481
1036.500	603.968	80.012	19.993	104.336	20.039	1.422	0.496
1037.000	604.229	80.012	19.995	104.336	20.037	1.542	0.500
1037.500	604.481	80.012	19.993	104.335	20.035	1.688	0.502
1038.000	604.750	80.010	19.993	104.334	20.036	1.671	0.517
1038.500	604.985	80.011	19.993	104.333	20.040	1.346	0.513
1039.001	605.246	80.011	19.994	104.334	20.038	1.490	0.501
1039.501	605.513	80.012	19.994	104.334	20.038	1.509	0.512
1040.001	605.773	80.012	19.993	104.335	20.037	1.562	0.527
1040.501	606.010	80.012	19.993	104.334	20.037	1.592	0.512
1041.000	606.245	80.010	19.994	104.333	20.037	1.590	0.484
1041.500	606.520	80.011	19.993	104.332	20.040	1.320	0.491
1042.000	606.762	80.010	19.993	104.331	20.039	1.361	0.513
1042.500	607.022	80.010	19.993	104.330	20.036	1.651	0.509
1043.001	607.249	80.011	19.993	104.333	20.039	1.365	0.495
1043.501	607.531	80.009	19.994	104.334	20.039	1.424	0.498
1044.001	607.816	80.010	19.993	104.335	20.035	1.693	0.538
1044.500	608.092	80.013	19.993	104.334	20.035	1.701	0.565
1045.000	608.328	80.010	19.993	104.334	20.035	1.727	0.537
1045.500	608.594	80.011	19.994	104.331	20.036	1.601	0.507
1046.000	608.855	80.012	19.994	104.330	20.037	1.584	0.515
1046.501	609.108	80.011	19.994	104.330	20.034	1.830	0.520
1047.001	609.399	80.012	19.994	104.331	20.035	1.732	0.529
1047.500	609.615	80.011	19.994	104.331	20.036	1.651	0.525
1048.000	609.865	80.013	19.995	104.333	20.037	1.555	0.487
1048.501	610.104	80.013	19.994	104.332	20.037	1.520	0.478
1049.001	610.364	80.012	19.994	104.332	20.034	1.786	0.494
1049.501	610.601	80.012	19.993	104.332	20.038	1.490	0.498
1050.000	610.848	80.012	19.995	104.330	20.036	1.671	0.490
1050.501	611.139	80.013	19.994	104.330	20.037	1.547	0.511
1051.001	611.358	80.013	19.994	104.331	20.035	1.680	0.524
1051.500	611.594	80.011	19.993	104.327	20.037	1.529	0.482
1052.000	611.880	80.012	19.993	104.324	20.038	1.466	0.489
1052.500	612.161	80.013	19.994	104.324	20.036	1.669	0.544
1053.000	612.408	80.013	19.993	104.326	20.037	1.566	0.547
1053.500	612.653	80.013	19.994	104.327	20.038	1.503	0.510
1054.000	612.880	80.012	19.993	104.331	20.038	1.512	0.482
1054.500	613.139	80.011	19.993	104.335	20.036	1.643	0.479
1055.000	613.400	80.011	19.993	104.337	20.036	1.623	0.503
1055.500	613.639	80.011	19.994	104.332	20.036	1.643	0.510
1056.000	613.912	80.013	19.993	104.328	20.037	1.544	0.506
1056.500	614.182	80.011	19.993	104.328	20.035	1.745	0.528
1057.000	614.452	80.012	19.993	104.326	20.037	1.531	0.541
1057.500	614.692	80.012	19.992	104.327	20.036	1.634	0.525
1058.001	614.930	80.012	19.993	104.332	20.038	1.501	0.494
1058.501	615.170	80.013	19.993	104.335	20.034	1.756	0.478
1059.001	615.435	80.013	19.993	104.335	20.034	1.786	0.491
1059.501	615.646	80.011	19.993	104.335	20.035	1.708	0.491
1060.001	615.926	80.013	19.994	104.335	20.036	1.649	0.484
1060.501	616.158	80.011	19.994	104.334	20.037	1.551	0.501
1061.001	616.450	80.011	19.993	104.333	20.037	1.525	0.518
1061.501	616.676	80.010	19.992	104.333	20.032	1.939	0.521
1062.000	616.928	80.011	19.993	104.335	20.035	1.704	0.498
1062.500	617.188	80.010	19.994	104.334	20.034	1.791	0.495
1063.000	617.458	80.010	19.994	104.330	20.037	1.527	0.520
1063.500	617.672	80.009	19.993	104.332	20.032	1.941	0.507
1064.000	617.925	80.011	19.993	104.330	20.038	1.499	0.476
1064.500	618.201	80.009	19.994	104.329	20.035	1.688	0.498
1065.000	618.398	80.009	19.994	104.332	20.042	1.182	0.501
1065.500	618.684	80.009	19.993	104.337	20.038	1.509	0.478
1066.000	618.938	80.009	19.993	104.337	20.038	1.514	0.511
1066.500	619.191	80.009	19.993	104.339	20.039	1.424	0.523
1067.000	619.452	80.009	19.994	104.340	20.035	1.695	0.510
1067.500	619.709	80.010	19.994	104.340	20.033	1.904	0.516
1068.001	619.961	80.009	19.994	104.339	20.035	1.717	0.514
1068.501	620.201	80.009	19.993	104.338	20.038	1.514	0.501
1069.001	620.449	80.008	19.993	104.337	20.036	1.658	0.490
1069.501	620.730	80.010	19.994	104.336	20.036	1.636	0.509
1070.001	620.961	80.009	19.994	104.335	20.035	1.712	0.520
1070.500	621.187	80.008	19.994	104.334	20.034	1.760	0.484
1071.000	621.458	80.009	19.994	104.336	20.037	1.586	0.477
1071.500	621.690	80.008	19.994	104.334	20.037	1.553	0.500
1072.000	621.948	80.010	19.995	104.333	20.036	1.599	0.497
1072.501	622.185	80.008	19.994	104.331	20.039	1.394	0.492
1073.001	622.489	80.010	19.995	104.332	20.038	1.468	0.517
1073.500	622.763	80.008	19.994	104.332	20.036	1.605	0.559
1074.001	622.984	80.009	19.995	104.335	20.037	1.558	0.537
1074.501	623.222	80.009	19.995	104.335	20.038	1.468	0.477
1075.001	623.465	80.009	19.994	104.334	20.038	1.464	0.471
1075.501	623.740	80.009	19.994	104.333	20.035	1.675	0.500
1076.001	623.983	80.008	19.994	104.332	20.036	1.610	0.518
1076.500	624.231	80.008	19.993	104.332	20.037	1.542	0.504
1077.000	624.498	80.009	19.995	104.332	20.036	1.647	0.503
1077.500	624.716	80.010	19.994	104.336	20.033	1.880	0.500
1078.000	625.004	80.009	19.993	104.337	20.037	1.549	0.496
1078.500	625.229	80.009	19.994	104.337	20.037	1.551	0.510
1079.000	625.494	80.009	19.994	104.330	20.038	1.501	0.501
1079.500	625.735	80.009	19.995	104.331	20.037	1.558	0.498
1080.000	625.978	80.011	19.994	104.330	20.036	1.621	0.495
1080.500	626.251	80.009	19.994	104.330	20.035	1.736	0.501
1081.000	626.476	80.009	19.995	104.332	20.034	1.819	0.507
1081.500	626.730	80.009	19.994	104.338	20.034	1.828	0.488
1082.000	626.998	80.010	19.994	104.339	20.036	1.619	0.500
1082.500	627.284	80.011	19.993	104.339	20.034	1.802	0.538
1083.001	627.529	80.009	19.994	104.339	20.036	1.603	0.542
1083.501	627.764	80.011	19.993	104.339	20.038	1.499	0.505
1084.000	628.042	80.011	19.994	104.339	20.037	1.531	0.496
1084.500	628.287	80.010	19.993	104.338	20.042	1.119	0.518
1085.000	628.551	80.010	19.993	104.338	20.036	1.658	0.516
1085.500	628.773	80.011	19.994	104.334	20.036	1.608	0.498
1086.000	629.057	80.010	19.993	104.331	20.036	1.595	0.496
1086.500	629.319	80.010	19.994	104.329	20.035	1.752	0.526
1087.000	629.584	80.010	19.994	104.328	20.034	1.771	0.537
1087.500	629.807	80.010	19.993	104.326	20.034	1.767	0.508
1088.000	630.066	80.011	19.993	104.329	20.038	1.514	0.485
1088.500	630.338	80.010	19.994	104.332	20.035	1.688	0.507
1089.000	630.574	80.010	19.992	104.333	20.036	1.607	0.519
1089.500	630.833	80.009	19.993	104.334	20.035	1.727	0.501
1090.000	631.092	80.009	19.994	104.338	20.036	1.603	0.507
1090.501	631.342	80.010	19.992	104.338	20.034	1.762	0.514
1091.001	631.571	80.009	19.994	104.338	20.037	1.527	0.494
1091.500	631.823	80.009	19.993	104.337	20.033	1.850	0.480
1092.000	632.076	80.011	19.994	104.337	20.035	1.680	0.493
1092.501	632.304	80.009	19.994	104.336	20.036	1.660	0.493
1093.001	632.599	80.009	19.993	104.336	20.038	1.494	0.502
1093.501	632.860	80.010	19.993	104.336	20.037	1.586	0.540
1094.001	633.120	80.010	19.993	104.337	20.040	1.276	0.538
1094.501	633.362	80.009	19.992	104.337	20.040	1.350	0.511
1095.001	633.607	80.008	19.994	104.337	20.036	1.632	0.495
1095.501	633.861	80.010	19.995	104.336	20.038	1.494	0.493
1096.000	634.110	80.009	19.993	104.336	20.036	1.673	0.500
1096.500	634.391	80.009	19.994	104.335	20.035	1.710	0.516
1097.000	634.665	80.010	19.994	104.336	20.037	1.584	0.543
1097.500	634.919	80.009	19.994	104.336	20.034	1.795	0.542
1098.000	635.222	80.010	19.994	104.337	20.037	1.520	0.542
1098.501	635.461	80.009	19.994	104.337	20.036	1.636	0.549
1099.001	635.696	80.009	19.993	104.335	20.035	1.738	0.508
1099.501	635.972	80.010	19.994	104.331	20.036	1.594	0.493
1100.000	636.216	80.008	19.993	104.326	20.033	1.910	0.515
1100.500	636.470	80.009	19.994	104.325	20.035	1.679	0.509
1101.000	636.720	80.008	19.993	104.326	20.034	1.817	0.501
1101.500	636.969	80.009	19.993	104.327	20.032	1.917	0.502
1102.000	637.191	80.009	19.993	104.331	20.034	1.821	0.486
1102.500	637.472	80.010	19.993	104.337	20.038	1.453	0.487
1103.000	637.734	80.010	19.994	104.337	20.036	1.614	0.523
1103.500	637.982	80.010	19.994	104.336	20.038	1.499	0.526
1104.000	638.234	80.009	19.994	104.336	20.035	1.701	0.505
1104.500	638.523	80.010	19.994	104.336	20.034	1.813	0.520
1105.000	638.776	80.011	19.993	104.336	20.035	1.749	0.541
1105.500	639.011	80.009	19.993	104.337	20.038	1.474	0.515
1106.000	639.261	80.012	19.994	104.336	20.037	1.527	0.487
1106.500	639.541	80.011	19.993	104.337	20.036	1.673	0.507
1107.001	639.776	80.011	19.993	104.335	20.034	1.789	0.522
1107.501	640.066	80.011	19.993	104.331	20.036	1.647	0.520
1108.000	640.287	80.011	19.993	104.330	20.035	1.693	0.518
1108.500	640.501	80.010	19.993	104.328	20.035	1.752	0.473
1109.001	640.816	80.012	19.993	104.329	20.034	1.760	0.482
1109.501	641.049	80.012	19.993	104.325	20.038	1.507	0.539
1110.001	641.276	80.012	19.994	104.322	20.034	1.767	0.504
1110.500	641.485	80.011	19.993	104.317	20.035	1.701	0.448
1111.000	641.788	80.012	19.994	104.312	20.035	1.708	0.474
1111.500	642.024	80.012	19.993	104.307	20.036	1.594	0.525
1112.001	642.286	80.011	19.992	104.310	20.033	1.852	0.519
1112.501	642.552	80.011	19.993	104.316	20.032	1.917	0.513
1113.001	642.798	80.011	19.993	104.321	20.034	1.789	0.520
1113.501	643.042	80.011	19.994	104.327	20.035	1.682	0.501
1114.001	643.278	80.011	19.993	104.332	20.035	1.723	0.485
1114.501	643.566	80.011	19.993	104.334	20.034	1.784	0.502
1115.000	643.806	80.011	19.994	104.332	20.034	1.811	0.526
1115.501	644.066	80.011	19.994	104.329	20.036	1.616	0.514
1116.001	644.306	80.011	19.993	104.330	20.039	1.387	0.500
1116.500	644.558	80.012	19.994	104.330	20.038	1.455	0.496
1117.000	644.775	80.011	19.993	104.331	20.036	1.618	0.481
1117.500	645.047	80.010	19.994	104.333	20.034	1.817	0.479
1118.000	645.310	80.011	19.993	104.336	20.036	1.638	0.512
1118.500	645.544	80.011	19.992	104.335	20.036	1.612	0.516
1119.000	645.779	80.011	19.993	104.335	20.037	1.553	0.483
1119.500	646.055	80.011	19.993	104.335	20.033	1.852	0.490
1120.000	646.286	80.012	19.993	104.332	20.032	1.937	0.509
1120.500	646.571	80.009	19.992	104.330	20.035	1.730	0.511
1121.000	646.803	80.010	19.993	104.327	20.034	1.793	0.517
1121.501	647.063	80.009	19.993	104.324	20.033	1.876	0.504
1122.001	647.337	80.010	19.993	104.323	20.033	1.856	0.513
1122.501	647.582	80.010	19.993	104.326	20.034	1.782	0.527
1123.000	647.798	80.010	19.993	104.327	20.036	1.618	0.490
1123.500	648.051	80.011	19.993	104.330	20.037	1.579	0.465
1124.000	648.317	80.010	19.993	104.334	20.036	1.653	0.494
1124.500	648.549	80.010	19.993	104.336	20.037	1.581	0.508
1125.001	648.820	80.010	19.993	104.336	20.038	1.435	0.500
1125.501	649.068	80.010	19.993	104.337	20.036	1.619	0.511
1126.001	649.344	80.012	19.992	104.339	20.032	1.928	0.522
1126.500	649.570	80.010	19.992	104.335	20.036	1.673	0.514
1127.000	649.807	80.010	19.992	104.328	20.035	1.749	0.482
1127.500	650.092	80.011	19.993	104.325	20.034	1.830	0.492
1128.001	650.383	80.011	19.994	104.324	20.034	1.773	0.549
1128.501	650.621	80.011	19.994	104.324	20.037	1.520	0.553
1129.001	650.843	80.011	19.993	104.328	20.035	1.693	0.495
1129.501	651.114	80.011	19.993	104.334	20.034	1.771	0.476
1130.000	651.358	80.012	19.993	104.338	20.036	1.673	0.504
1130.500	651.586	80.011	19.993	104.339	20.034	1.786	0.494
1131.000	651.858	80.012	19.993	104.339	20.033	1.874	0.486
1131.501	652.138	80.011	19.993	104.338	20.035	1.741	0.526
1132.001	652.383	80.011	19.993	104.338	20.034	1.830	0.539
1132.500	652.662	80.012	19.993	104.337	20.036	1.640	0.524
1133.000	652.897	80.012	19.993	104.333	20.035	1.743	0.519
1133.501	653.124	80.010	19.992	104.331	20.034	1.815	0.488
1134.001	653.375	80.012	19.993	104.331	20.036	1.608	0.470
1134.500	653.631	80.011	19.992	104.331	20.035	1.701	0.492
1135.001	653.924	80.013	19.993	104.332	20.034	1.763	0.528
1135.501	654.141	80.012	19.994	104.335	20.035	1.728	0.529
1136.000	654.403	80.012	19.993	104.337	20.035	1.747	0.494
1136.500	654.667	80.012	19.993	104.338	20.031	2.024	0.502
1137.000	654.941	80.013	19.993	104.338	20.036	1.643	0.531
1137.500	655.179	80.012	19.993	104.338	20.031	2.000	0.525
1138.000	655.422	80.012	19.993	104.339	20.031	2.002	0.497
1138.500	655.701	80.013	19.994	104.339	20.035	1.708	0.502
1139.000	655.941	80.012	19.994	104.339	20.036	1.671	0.520
1139.500	656.183	80.011	19.994	104.339	20.033	1.852	0.501
1140.000	656.467	80.011	19.993	104.339	20.034	1.760	0.505
1140.500	656.714	80.012	19.992	104.339	20.034	1.765	0.529
1141.000	656.960	80.012	19.993	104.336	20.034	1.758	0.511
1141.500	657.225	80.011	19.994	104.335	20.032	1.948	0.502
1142.000	657.462	80.011	19.993	104.335	20.034	1.804	0.506
1142.500	657.737	80.009	19.993	104.334	20.032	1.937	0.507
1143.000	657.964	80.010	19.993	104.334	20.032	1.970	0.507
1143.500	658.213	80.011	19.994	104.337	20.032	1.924	0.489
1144.000	658.468	80.011	19.993	104.337	20.032	1.961	0.490
1144.500	658.753	80.009	19.994	104.338	20.034	1.784	0.522
1145.001	658.973	80.010	19.993	104.336	20.031	2.042	0.522
1145.501	659.249	80.009	19.993	104.336	20.030	2.098	0.500
1146.001	659.483	80.010	19.994	104.335	20.031	2.066	0.504
1146.501	659.744	80.010	19.994	104.336	20.029	2.155	0.503
1147.001	659.989	80.009	19.993	104.337	20.029	2.203	0.500
1147.500	660.223	80.008	19.993	104.338	20.032	1.937	0.492
1148.000	660.509	80.009	19.994	104.337	20.033	1.874	0.500
1148.500	660.742	80.009	19.993	104.338	20.036	1.660	0.519
1149.000	661.026	80.008	19.994	104.338	20.031	2.057	0.518
1149.500	661.228	80.009	19.993	104.337	20.032	1.944	0.502
1150.000	661.518	80.010	19.993	104.336	20.033	1.909	0.489
1150.500	661.717	80.009	19.993	104.337	20.034	1.808	0.490
1151.000	662.003	80.010	19.994	104.336	20.034	1.756	0.487
1151.500	662.280	80.009	19.994	104.336	20.032	1.930	0.524
1152.000	662.500	80.008	19.993	104.336	20.034	1.830	0.530
1152.500	662.759	80.010	19.994	104.336	20.033	1.909	0.488
1153.000	662.990	80.010	19.993	104.336	20.036	1.601	0.484
1153.500	663.267	80.010	19.995	104.336	20.034	1.813	0.499
1154.001	663.506	80.008	19.993	104.336	20.033	1.847	0.512
1154.501	663.770	80.008	19.992	104.334	20.030	2.127	0.510
1155.000	664.009	80.010	19.994	104.334	20.032	1.987	0.503
1155.500	664.275	80.011	19.994	104.334	20.036	1.671	0.503
1156.001	664.530	80.010	19.994	104.334	20.031	2.063	0.513
1156.501	664.793	80.009	19.993	104.334	20.035	1.677	0.520
1157.000	665.003	80.010	19.994	104.336	20.034	1.793	0.496
1157.500	665.253	80.009	19.994	104.336	20.034	1.802	0.467
1158.001	665.480	80.009	19.995	104.336	20.034	1.830	0.468
1158.501	665.761	80.008	19.994	104.336	20.035	1.695	0.492
1159.001	666.029	80.008	19.994	104.336	20.034	1.775	0.529
1159.500	666.243	80.009	19.994	104.336	20.033	1.834	0.516
1160.000	666.525	80.009	19.994	104.336	20.032	1.924	0.489
1160.500	666.750	80.009	19.994	104.334	20.033	1.873	0.501
1161.000	667.034	80.008	19.994	104.328	20.034	1.769	0.508
1161.500	667.267	80.009	19.995	104.325	20.035	1.677	0.513
1162.000	667.525	80.008	19.993	104.325	20.032	1.948	0.504
1162.500	667.788	80.009	19.993	104.324	20.031	2.020	0.506
1163.000	668.049	80.009	19.993	104.327	20.032	1.913	0.523
1163.500	668.288	80.009	19.994	104.332	20.032	1.954	0.512
1164.000	668.529	80.010	19.994	104.334	20.030	2.109	0.490
1164.500	668.792	80.008	19.995	104.333	20.027	2.312	0.492
1165.000	669.051	80.010	19.994	104.327	20.032	1.957	0.513
1165.500	669.323	80.008	19.994	104.322	20.032	1.933	0.527
1166.000	669.556	80.008	19.995	104.320	20.032	1.974	0.518
1166.500	669.828	80.009	19.994	104.321	20.030	2.135	0.505
1167.000	670.049	80.010	19.993	104.324	20.033	1.909	0.499
1167.500	670.315	80.009	19.995	104.329	20.033	1.876	0.490
1168.000	670.551	80.010	19.995	104.334	20.034	1.773	0.494
1168.500	670.812	80.009	19.994	104.334	20.035	1.736	0.499
1169.000	671.052	80.008	19.995	104.335	20.036	1.645	0.499
1169.500	671.343	80.009	19.995	104.331	20.032	1.935	0.516
1170.000	671.568	80.008	19.994	104.328	20.033	1.863	0.523
1170.500	671.851	80.008	19.994	104.324	20.031	2.057	0.512
1171.000	672.104	80.009	19.995	104.323	20.029	2.172	0.522
1171.501	672.351	80.009	19.995	104.317	20.029	2.168	0.518
1172.001	672.636	80.009	19.994	104.316	20.030	2.122	0.516
1172.500	672.870	80.010	19.995	104.316	20.031	1.998	0.526
1173.000	673.118	80.010	19.994	104.314	20.028	2.234	0.501
1173.500	673.382	80.009	19.994	104.315	20.034	1.754	0.497
1174.000	673.670	80.009	19.994	104.319	20.033	1.869	0.531
1174.500	673.903	80.007	19.994	104.321	20.032	1.948	0.536
1175.000	674.183	80.008	19.995	104.324	20.032	1.915	0.517
1175.500	674.427	80.009	19.996	104.330	20.033	1.834	0.519
1176.000	674.661	80.010	19.994	104.330	20.033	1.872	0.501
1176.500	674.930	80.009	19.995	104.331	20.032	1.920	0.490
1177.000	675.192	80.009	19.994	104.331	20.033	1.865	0.517
1177.501	675.424	80.009	19.994	104.332	20.035	1.734	0.512
1178.001	675.645	80.007	19.993	104.333	20.034	1.832	0.473
1178.500	675.903	80.008	19.994	104.335	20.032	1.946	0.466
1179.000	676.172	80.009	19.994	104.335	20.032	1.944	0.503
1179.500	676.421	80.008	19.994	104.336	20.033	1.882	0.522
1180.000	676.686	80.010	19.994	104.334	20.033	1.876	0.516
1180.501	676.963	80.009	19.994	104.331	20.034	1.804	0.529
1181.001	677.196	80.009	19.994	104.330	20.034	1.784	0.526
1181.501	677.477	80.010	19.993	104.329	20.030	2.133	0.512
1182.001	677.725	80.009	19.994	104.328	20.033	1.887	0.521
1182.500	677.981	80.010	19.994	104.329	20.031	2.022	0.517
1183.000	678.241	80.011	19.994	104.332	20.030	2.096	0.510
1183.500	678.482	80.009	19.993	104.334	20.033	1.911	0.508
1184.000	678.730	80.009	19.994	104.336	20.031	2.022	0.495
1184.500	679.018	80.009	19.993	104.336	20.031	2.013	0.512
1185.000	679.241	80.009	19.993	104.336	20.034	1.806	0.524
1185.500	679.482	80.010	19.994	104.336	20.034	1.812	0.488
1186.000	679.703	80.010	19.993	104.336	20.037	1.590	0.463
1186.500	679.986	80.009	19.993	104.336	20.034	1.756	0.483
1187.000	680.207	80.010	19.994	104.336	20.032	1.930	0.503
1187.500	680.503	80.010	19.992	104.336	20.033	1.858	0.510
1188.000	680.738	80.012	19.993	104.336	20.035	1.725	0.525
1188.500	681.018	80.011	19.993	104.336	20.031	2.009	0.523
1189.000	681.203	80.011	19.992	104.336	20.033	1.882	0.490
1189.500	681.513	80.012	19.993	104.336	20.031	2.024	0.480
1190.000	681.729	80.010	19.993	104.335	20.034	1.778	0.510
1190.500	681.997	80.011	19.994	104.333	20.034	1.778	0.505
1191.000	682.299	80.012	19.993	104.330	20.032	1.952	0.527
1191.500	682.573	80.011	19.993	104.329	20.032	1.935	0.573
1192.000	682.735	80.013	19.993	104.328	20.029	2.164	0.506
1192.500	683.029	80.011	19.993	104.329	20.033	1.845	0.446
1193.000	683.277	80.011	19.993	104.330	20.033	1.887	0.499
1193.500	683.525	80.011	19.993	104.332	20.033	1.891	0.519
1194.000	683.783	80.012	19.992	104.331	20.034	1.773	0.501
1194.500	684.017	80.011	19.993	104.331	20.033	1.882	0.499
1195.000	684.266	80.012	19.993	104.329	20.033	1.858	0.488
1195.501	684.535	80.011	19.992	104.326	20.033	1.869	0.500
1196.001	684.757	80.011	19.993	104.325	20.035	1.710	0.504
1196.500	685.022	80.011	19.994	104.320	20.033	1.911	0.489
1197.000	685.273	80.011	19.994	104.317	20.035	1.721	0.502
1197.500	685.526	80.011	19.993	104.316	20.036	1.649	0.510
1198.000	685.758	80.011	19.993	104.316	20.034	1.813	0.495
1198.500	686.042	80.010	19.993	104.319	20.032	1.992	0.500
1199.000	686.264	80.012	19.993	104.325	20.033	1.871	0.511
1199.500	686.536	80.012	19.994	104.329	20.030	2.127	0.500
1200.000	686.815	80.011	19.993	104.332	20.028	2.251	0.522
1200.500	687.039	80.009	19.994	104.336	20.031	2.039	0.527
1201.000	687.339	80.010	19.993	104.335	20.031	2.018	0.514
1201.500	687.560	80.013	19.994	104.330	20.032	1.959	0.522
1202.001	687.808	80.011	19.993	104.326	20.031	2.015	0.495
1202.501	688.060	80.010	19.993	104.327	20.033	1.908	0.484
1203.000	688.284	80.011	19.994	104.328	20.031	1.993	0.488
1203.500	688.556	80.010	19.993	104.328	20.032	1.974	0.486
1204.000	688.825	80.010	19.993	104.331	20.029	2.177	0.519
1204.500	689.042	80.011	19.994	104.334	20.031	2.018	0.513
1205.000	689.307	80.009	19.993	104.328	20.034	1.832	0.484
1205.500	689.569	80.011	19.992	104.327	20.036	1.629	0.505
1206.000	689.797	80.010	19.993	104.328	20.035	1.697	0.508
1206.500	690.089	80.010	19.993	104.329	20.033	1.847	0.504
1207.000	690.310	80.010	19.993	104.330	20.033	1.841	0.517
1207.500	690.583	80.012	19.993	104.334	20.034	1.753	0.504
1208.000	690.880	80.012	19.993	104.335	20.032	1.980	0.532
1208.500	691.061	80.011	19.993	104.334	20.032	1.939	0.523
1209.000	691.357	80.011	19.992	104.335	20.031	2.033	0.477
1209.500	691.546	80.011	19.993	104.333	20.033	1.865	0.481
1210.000	691.835	80.011	19.993	104.331	20.034	1.828	0.482
1210.500	692.087	80.011	19.993	104.331	20.033	1.858	0.509
1211.000	692.375	80.012	19.993	104.332	20.033	1.909	0.540
1211.500	692.576	80.011	19.993	104.332	20.034	1.819	0.515
1212.000	692.838	80.011	19.992	104.331	20.032	1.963	0.476
1212.501	693.090	80.011	19.992	104.328	20.032	1.926	0.488
1213.001	693.320	80.011	19.993	104.326	20.035	1.721	0.497
1213.501	693.539	80.013	19.992	104.325	20.033	1.845	0.465
1214.001	693.824	80.011	19.992	104.323	20.032	1.989	0.477
1214.501	694.093	80.012	19.992	104.327	20.031	2.070	0.529
1215.001	694.330	80.012	19.993	104.332	20.033	1.904	0.530
1215.501	694.583	80.013	19.994	104.334	20.032	1.959	0.498
1216.000	694.852	80.013	19.993	104.334	20.028	2.253	0.506
1216.500	695.123	80.013	19.994	104.333	20.027	2.323	0.531
1217.000	695.374	80.013	19.993	104.330	20.031	2.048	0.531
1217.500	695.590	80.012	19.993	104.324	20.031	2.048	0.495
1218.001	695.833	80.014	19.992	104.318	20.032	1.970	0.463
1218.501	696.107	80.014	19.993	104.312	20.033	1.858	0.488
1219.000	696.361	80.013	19.992	104.312	20.029	2.181	0.522
1219.500	696.650	80.012	19.993	104.316	20.027	2.327	0.536
1220.000	696.906	80.013	19.993	104.320	20.029	2.177	0.544
1220.501	697.125	80.013	19.994	104.324	20.029	2.157	0.510
1221.001	697.359	80.013	19.993	104.328	20.028	2.253	0.464
1221.500	697.645	80.012	19.993	104.331	20.029	2.175	0.486
1222.000	697.921	80.013	19.993	104.331	20.029	2.218	0.541
1222.500	698.137	80.012	19.993	104.332	20.030	2.122	0.527
1223.000	698.376	80.012	19.993	104.334	20.032	1.985	0.474
1223.500	698.632	80.012	19.992	104.333	20.028	2.305	0.475
1224.000	698.878	80.013	19.993	104.329	20.028	2.281	0.498
1224.500	699.136	80.011	19.994	104.328	20.032	1.948	0.503
1225.000	699.401	80.011	19.993	104.328	20.027	2.323	0.514
1225.500	699.652	80.010	19.992	104.326	20.028	2.244	0.519
1226.001	699.908	80.011	19.993	104.326	20.028	2.281	0.511
1226.501	700.178	80.010	19.993	104.326	20.030	2.085	0.517
1227.000	700.386	80.009	19.993	104.324	20.028	2.257	0.503
1227.501	700.646	80.010	19.993	104.321	20.030	2.144	0.473
1228.001	700.891	80.011	19.994	104.322	20.029	2.214	0.486
1228.500	701.126	80.010	19.993	104.323	20.031	2.068	0.492
1229.000	701.422	80.010	19.993	104.323	20.033	1.889	0.505
1229.500	701.606	80.008	19.993	104.326	20.034	1.784	0.506
1230.000	701.884	80.008	19.994	104.327	20.034	1.830	0.471
1230.500	702.085	80.007	19.994	104.325	20.033	1.893	0.470
1231.000	702.366	80.010	19.994	104.323	20.033	1.860	0.481
1231.501	702.653	80.010	19.994	104.325	20.031	2.013	0.525
1232.001	702.872	80.010	19.994	104.323	20.033	1.884	0.537
1232.500	703.138	80.009	19.994	104.323	20.031	2.006	0.496
1233.001	703.353	80.010	19.994	104.324	20.034	1.762	0.483
1233.501	703.654	80.009	19.993	104.322	20.036	1.616	0.498
1234.000	703.878	80.010	19.994	104.318	20.032	1.965	0.521
1234.500	704.146	80.010	19.993	104.316	20.033	1.906	0.509
1235.000	704.370	80.010	19.994	104.318	20.035	1.704	0.492
1235.500	704.612	80.010	19.993	104.321	20.034	1.793	0.479
1236.000	704.872	80.010	19.994	104.320	20.035	1.691	0.483
1236.500	705.133	80.011	19.993	104.323	20.034	1.763	0.511
1237.000	705.376	80.010	19.993	104.323	20.031	2.029	0.512
1237.500	705.619	80.011	19.994	104.322	20.032	1.948	0.495
1238.001	705.843	80.010	19.994	104.318	20.033	1.885	0.477
1238.501	706.098	80.010	19.994	104.320	20.029	2.212	0.474
1239.000	706.367	80.009	19.995	104.320	20.029	2.199	0.502
1239.500	706.624	80.011	19.994	104.318	20.033	1.891	0.525
1240.000	706.875	80.010	19.993	104.316	20.031	2.026	0.517
1240.500	707.118	80.010	19.994	104.315	20.033	1.891	0.501
1241.001	707.386	80.012	19.994	104.315	20.035	1.708	0.502
1241.501	707.610	80.010	19.994	104.313	20.033	1.906	0.502
1242.000	707.888	80.011	19.993	104.315	20.032	1.952	0.497
1242.500	708.138	80.009	19.994	104.315	20.032	1.946	0.515
1243.000	708.377	80.009	19.995	104.313	20.031	2.068	0.508
1243.500	708.646	80.011	19.993	104.318	20.034	1.804	0.498
1244.000	708.888	80.011	19.993	104.321	20.033	1.869	0.510
1244.500	709.150	80.012	19.994	104.325	20.033	1.843	0.508
1245.000	709.383	80.011	19.993	104.329	20.034	1.812	0.500
1245.500	709.651	80.011	19.994	104.335	20.034	1.790	0.498
1246.001	709.869	80.011	19.993	104.336	20.033	1.882	0.493
1246.501	710.164	80.010	19.992	104.336	20.033	1.873	0.499
1247.000	710.437	80.010	19.994	104.336	20.031	2.033	0.541
1247.501	710.656	80.011	19.992	104.336	20.032	1.924	0.530
1248.001	710.918	80.011	19.994	104.337	20.034	1.799	0.487
1248.500	711.151	80.008	19.993	104.336	20.032	1.987	0.488
1249.000	711.453	80.012	19.993	104.334	20.032	1.985	0.515
1249.500	711.696	80.011	19.994	104.332	20.030	2.142	0.540
1250.000	711.946	80.011	19.995	104.332	20.027	2.334	0.519
1250.500	712.196	80.011	19.994	104.329	20.034	1.762	0.497
1251.000	712.417	80.009	19.994	104.324	20.031	2.035	0.485
1251.500	712.704	80.010	19.994	104.323	20.031	2.044	0.489
1252.000	712.913	80.009	19.993	104.324	20.031	2.057	0.503
1252.500	713.189	80.009	19.994	104.323	20.029	2.192	0.491
1253.000	713.442	80.010	19.994	104.327	20.027	2.362	0.507
1253.501	713.713	80.010	19.993	104.330	20.028	2.249	0.526
1254.001	713.952	80.011	19.994	104.329	20.029	2.194	0.517
1254.500	714.245	80.010	19.994	104.324	20.027	2.351	0.521
1255.000	714.479	80.010	19.994	104.320	20.028	2.233	0.529
1255.500	714.762	80.008	19.995	104.314	20.028	2.309	0.521
1256.000	714.997	80.011	19.993	104.310	20.028	2.246	0.517
1256.500	715.284	80.010	19.994	104.307	20.028	2.294	0.520
1257.000	715.528	80.009	19.995	104.308	20.026	2.412	0.527
1257.500	715.792	80.009	19.993	104.310	20.027	2.322	0.520
1258.000	716.090	80.008	19.994	104.317	20.027	2.366	0.535
1258.500	716.323	80.010	19.994	104.322	20.028	2.303	0.547
1259.000	716.614	80.009	19.995	104.328	20.027	2.355	0.527
1259.500	716.860	80.010	19.994	104.332	20.026	2.399	0.531
1260.000	717.133	80.010	19.994	104.334	20.027	2.336	0.529
1260.500	717.361	80.009	19.995	104.335	20.029	2.177	0.510
1261.001	717.612	80.009	19.995	104.335	20.028	2.294	0.489
1261.501	717.843	80.010	19.994	104.332	20.029	2.218	0.480
1262.000	718.136	80.009	19.994	104.333	20.030	2.148	0.504
1262.500	718.370	80.009	19.995	104.332	20.030	2.094	0.526
1263.000	718.636	80.010	19.994	104.328	20.029	2.227	0.514
1263.500	718.896	80.009	19.995	104.324	20.028	2.306	0.513
1264.001	719.142	80.007	19.995	104.323	20.028	2.273	0.516
1264.501	719.384	80.009	19.994	104.316	20.030	2.144	0.497
1265.000	719.639	80.009	19.995	104.315	20.029	2.199	0.493
1265.500	719.887	80.009	19.994	104.316	20.029	2.208	0.500
1266.000	720.166	80.010	19.995	104.313	20.029	2.175	0.515
1266.500	720.428	80.010	19.995	104.311	20.028	2.275	0.534
1267.000	720.653	80.009	19.995	104.311	20.028	2.253	0.514
1267.500	720.883	80.010	19.994	104.305	20.027	2.342	0.471
1268.000	721.157	80.011	19.994	104.303	20.026	2.397	0.479
1268.500	721.406	80.010	19.994	104.303	20.028	2.275	0.514
1269.000	721.636	80.010	19.994	104.307	20.029	2.153	0.501
1269.500	721.919	80.010	19.993	104.309	20.031	2.052	0.496
1270.000	722.178	80.011	19.994	104.309	20.029	2.181	0.528
1270.500	722.439	80.011	19.993	104.312	20.030	2.148	0.531
1271.000	722.668	80.010	19.994	104.316	20.030	2.142	0.505
1271.500	722.901	80.011	19.994	104.319	20.030	2.107	0.476
1272.000	723.177	80.011	19.993	104.318	20.030	2.107	0.485
1272.500	723.436	80.010	19.993	104.322	20.031	2.026	0.522
1273.000	723.706	80.010	19.994	104.325	20.032	1.948	0.532
1273.500	723.958	80.012	19.993	104.327	20.031	2.044	0.526
1274.000	724.194	80.012	19.992	104.327	20.030	2.085	0.505
1274.500	724.433	80.011	19.992	104.334	20.032	1.941	0.481
1275.000	724.696	80.012	19.994	104.337	20.030	2.113	0.489
1275.500	724.963	80.012	19.993	104.337	20.030	2.135	0.516
1276.001	725.229	80.011	19.993	104.337	20.030	2.109	0.531
1276.501	725.526	80.011	19.993	104.337	20.027	2.316	0.548
1277.000	725.737	80.012	19.994	104.335	20.031	2.067	0.536
1277.500	726.008	80.011	19.994	104.330	20.030	2.117	0.495
1278.000	726.226	80.012	19.993	104.323	20.028	2.296	0.485
1278.500	726.506	80.011	19.993	104.320	20.029	2.216	0.494
1279.000	726.770	80.011	19.993	104.317	20.029	2.192	0.521
1279.500	726.999	80.011	19.994	104.316	20.028	2.277	0.518
1280.000	727.277	80.012	19.993	104.316	20.028	2.306	0.500
1280.500	727.531	80.013	19.993	104.317	20.027	2.314	0.520
1281.000	727.793	80.011	19.993	104.314	20.027	2.334	0.524
1281.501	728.060	80.012	19.992	104.315	20.032	1.974	0.523
1282.001	728.281	80.011	19.993	104.311	20.030	2.091	0.508
1282.500	728.571	80.012	19.992	104.315	20.030	2.126	0.499
1283.000	728.770	80.013	19.993	104.319	20.027	2.366	0.500
1283.500	729.052	80.012	19.992	104.323	20.030	2.091	0.486
1284.001	729.352	80.011	19.992	104.317	20.029	2.174	0.532
1284.501	729.586	80.011	19.993	104.316	20.029	2.229	0.558
1285.000	729.854	80.011	19.992	104.313	20.030	2.087	0.517
1285.500	730.134	80.012	19.993	104.310	20.030	2.146	0.525
1286.000	730.381	80.010	19.994	104.309	20.031	2.017	0.538
1286.500	730.603	80.012	19.993	104.310	20.028	2.253	0.498
1287.000	730.902	80.011	19.993	104.314	20.029	2.229	0.495
1287.500	731.143	80.010	19.992	104.311	20.028	2.286	0.530
1288.000	731.428	80.011	19.993	104.309	20.026	2.449	0.533
1288.500	731.666	80.009	19.994	104.305	20.029	2.155	0.525
1289.001	731.907	80.012	19.994	104.310	20.027	2.373	0.501
1289.501	732.195	80.011	19.993	104.314	20.031	2.048	0.504
1290.000	732.422	80.012	19.993	104.320	20.030	2.098	0.522
1290.500	732.664	80.012	19.993	104.326	20.024	2.560	0.492
1291.000	732.954	80.012	19.993	104.328	20.026	2.467	0.501
1291.500	733.203	80.012	19.994	104.325	20.024	2.558	0.536
1292.001	733.488	80.013	19.994	104.320	20.025	2.502	0.536
1292.501	733.714	80.011	19.994	104.317	20.024	2.554	0.523
1293.001	733.960	80.011	19.993	104.310	20.027	2.349	0.492
1293.501	734.252	80.010	19.993	104.307	20.027	2.314	0.505
1294.001	734.481	80.011	19.993	104.305	20.029	2.214	0.530
1294.501	734.784	80.012	19.993	104.303	20.026	2.423	0.527
1295.000	735.031	80.012	19.994	104.299	20.025	2.539	0.541
1295.501	735.291	80.013	19.993	104.303	20.025	2.547	0.528
1296.001	735.535	80.012	19.993	104.310	20.024	2.567	0.505
1296.500	735.798	80.012	19.995	104.315	20.027	2.386	0.505
1297.001	736.079	80.011	19.993	104.318	20.026	2.415	0.525
1297.501	736.344	80.013	19.993	104.322	20.025	2.493	0.545
1298.001	736.577	80.014	19.992	104.325	20.025	2.508	0.522
1298.501	736.818	80.012	19.993	104.323	20.027	2.378	0.486
1299.000	737.108	80.013	19.994	104.323	20.026	2.391	0.503
1299.500	737.375	80.012	19.993	104.324	20.026	2.441	0.544
1300.000	737.657	80.016	19.993	104.320	20.026	2.426	0.553
1300.500	737.859	80.013	19.993	104.314	20.025	2.515	0.516
1301.000	738.153	80.012	19.992	104.309	20.028	2.251	0.490
1301.501	738.406	80.013	19.994	104.309	20.026	2.436	0.521
1302.001	738.663	80.012	19.993	104.312	20.024	2.569	0.528
1302.500	738.949	80.012	19.993	104.317	20.027	2.323	0.527
1303.000	739.195	80.013	19.993	104.323	20.025	2.528	0.538
1303.500	739.480	80.015	19.993	104.330	20.028	2.307	0.531
1304.000	739.735	80.011	19.993	104.330	20.027	2.366	0.535
1304.500	739.982	80.011	19.993	104.326	20.024	2.580	0.521
1305.000	740.214	80.012	19.992	104.323	20.027	2.318	0.491
1305.500	740.517	80.011	19.993	104.319	20.024	2.589	0.507
1306.001	740.762	80.011	19.992	104.319	20.023	2.644	0.542
1306.501	741.029	80.012	19.993	104.319	20.027	2.338	0.530
1307.001	741.290	80.012	19.993	104.321	20.022	2.715	0.520
1307.500	741.571	80.011	19.993	104.326	20.024	2.589	0.535
1308.000	741.811	80.012	19.994	104.331	20.025	2.497	0.532
1308.500	742.114	80.012	19.993	104.332	20.025	2.513	0.532
1309.000	742.332	80.012	19.994	104.332	20.028	2.231	0.532
1309.500	742.596	80.009	19.993	104.335	20.027	2.353	0.501
1310.000	742.869	80.011	19.992	104.335	20.026	2.392	0.509
1310.500	743.132	80.010	19.994	104.335	20.025	2.503	0.536
1311.000	743.437	80.010	19.993	104.333	20.022	2.724	0.552
