Sample ID:	C:\MCC\MCC Cal\Test\Feather_PillowA_Cover_MCC_30K_min_220106_R1.txt
Sample Weight (mg):	4.29
Heating Rate (C/s):	0.5
Combustor Temp (C):	900
N2 Flow Rate (cc/min):	80
O2 Flow Rate (cc/min):	20
Calibration File:	C:\MCC\MCC Cal\Coeff1 JN10440_30_210304.txt.txt
T Correction Coefficients:	0	1.024463	0
Time Shift (s):	14
*
Time (s)	Temperature (C)	N2 flow rate (cc/min)	O2 flow rate (cc/min)	Flow Rate (cc/min)	Oxygen (%)	HRR (W/g)	Heating rate (C/s)
0.000	110.495	80.010	19.993	104.228	19.959	-0.268	-0.030
0.500	110.530	80.008	19.993	104.228	19.960	-0.349	0.002
1.000	110.493	80.010	19.993	104.229	19.958	-0.224	0.015
1.500	110.546	80.009	19.993	104.229	19.958	-0.212	0.007
2.000	110.507	80.012	19.992	104.228	19.954	0.096	0.015
2.500	110.523	80.012	19.994	104.228	19.959	-0.280	-0.005
3.000	110.556	80.012	19.993	104.227	19.958	-0.222	0.013
3.500	110.510	80.011	19.993	104.227	19.958	-0.177	0.018
4.001	110.487	80.012	19.994	104.226	19.956	-0.039	-0.041
4.500	110.537	80.011	19.994	104.226	19.958	-0.204	-0.021
5.000	110.508	80.010	19.994	104.225	19.958	-0.214	0.023
5.500	110.491	80.012	19.994	104.222	19.962	-0.463	-0.013
6.000	110.522	80.011	19.993	104.219	19.958	-0.212	-0.016
6.500	110.510	80.010	19.994	104.217	19.957	-0.156	0.017
7.000	110.489	80.010	19.993	104.216	19.954	0.137	-0.007
7.500	110.509	80.010	19.993	104.215	19.957	-0.125	-0.017
8.001	110.497	80.011	19.994	104.218	19.960	-0.355	0.003
8.501	110.507	80.011	19.994	104.221	19.963	-0.578	0.003
9.000	110.474	80.010	19.994	104.222	19.961	-0.414	-0.013
9.501	110.538	80.010	19.993	104.222	19.962	-0.536	0.004
10.001	110.442	80.010	19.993	104.223	19.959	-0.239	0.000
10.500	110.514	80.010	19.994	104.221	19.957	-0.100	-0.028
11.000	110.475	80.010	19.994	104.220	19.959	-0.304	0.004
11.501	110.467	80.010	19.994	104.220	19.958	-0.198	-0.007
12.001	110.491	80.011	19.994	104.220	19.958	-0.173	-0.016
12.501	110.475	80.010	19.993	104.220	19.958	-0.218	0.012
13.001	110.485	80.011	19.993	104.222	19.962	-0.514	0.001
13.500	110.469	80.011	19.993	104.222	19.958	-0.195	-0.006
14.000	110.485	80.011	19.994	104.226	19.955	0.033	-0.003
14.500	110.426	80.011	19.994	104.231	19.958	-0.229	-0.022
15.000	110.483	80.010	19.994	104.236	19.956	-0.079	-0.023
15.500	110.467	80.010	19.994	104.242	19.952	0.295	0.019
16.000	110.447	80.010	19.994	104.249	19.951	0.351	0.003
16.500	110.466	80.010	19.994	104.253	19.951	0.368	-0.018
17.000	110.453	80.011	19.993	104.259	19.950	0.385	0.003
17.500	110.497	80.011	19.994	104.267	19.950	0.443	0.019
18.000	110.481	80.011	19.993	104.276	19.947	0.622	0.029
18.500	110.507	80.010	19.993	104.287	19.948	0.530	0.019
19.000	110.485	80.011	19.993	104.297	19.949	0.505	0.007
19.500	110.524	80.010	19.995	104.305	19.948	0.566	0.010
20.000	110.516	80.011	19.994	104.308	19.950	0.443	0.024
20.500	110.529	80.011	19.993	104.308	19.947	0.636	0.018
21.000	110.577	80.012	19.992	104.309	19.947	0.661	0.033
21.500	110.587	80.009	19.993	104.314	19.946	0.743	0.060
22.000	110.601	80.011	19.993	104.320	19.945	0.755	0.041
22.500	110.579	80.009	19.993	104.328	19.945	0.797	0.008
23.000	110.634	80.010	19.994	104.333	19.943	0.965	0.012
23.501	110.666	80.012	19.994	104.330	19.946	0.741	0.060
24.001	110.652	80.010	19.993	104.325	19.944	0.853	0.053
24.500	110.665	80.012	19.993	104.324	19.944	0.901	0.008
25.000	110.695	80.009	19.993	104.322	19.942	0.996	0.021
25.500	110.748	80.011	19.993	104.324	19.944	0.901	0.063
26.000	110.725	80.011	19.993	104.331	19.939	1.256	0.056
26.500	110.774	80.010	19.994	104.336	19.939	1.246	0.028
27.000	110.815	80.011	19.994	104.342	19.943	0.969	0.058
27.500	110.861	80.010	19.993	104.345	19.943	0.980	0.089
28.000	110.822	80.012	19.995	104.347	19.942	1.044	0.047
28.500	110.893	80.011	19.994	104.352	19.941	1.113	0.019
29.000	110.925	80.011	19.994	104.352	19.940	1.175	0.068
29.500	110.907	80.011	19.992	104.346	19.940	1.198	0.058
30.000	110.957	80.011	19.993	104.345	19.940	1.201	0.023
30.500	111.000	80.011	19.994	104.344	19.936	1.467	0.063
31.000	111.048	80.011	19.993	104.340	19.936	1.448	0.092
31.500	111.101	80.011	19.993	104.342	19.937	1.417	0.096
32.000	111.116	80.011	19.993	104.349	19.937	1.430	0.085
32.500	111.149	80.012	19.994	104.357	19.937	1.403	0.058
33.000	111.215	80.012	19.994	104.364	19.937	1.363	0.074
33.500	111.257	80.010	19.994	104.372	19.935	1.567	0.103
34.000	111.324	80.012	19.993	104.376	19.936	1.498	0.108
34.501	111.377	80.010	19.994	104.377	19.936	1.490	0.115
35.001	111.374	80.012	19.994	104.376	19.931	1.883	0.085
35.501	111.480	80.011	19.994	104.376	19.936	1.496	0.076
36.000	111.491	80.010	19.994	104.372	19.935	1.577	0.110
36.500	111.580	80.012	19.993	104.365	19.933	1.683	0.109
37.001	111.621	80.010	19.994	104.360	19.933	1.686	0.115
37.501	111.696	80.010	19.994	104.358	19.931	1.876	0.123
38.000	111.758	80.011	19.993	104.358	19.929	1.972	0.126
38.500	111.808	80.010	19.994	104.362	19.933	1.678	0.125
39.000	111.847	80.010	19.994	104.368	19.931	1.855	0.101
39.500	111.914	80.010	19.994	104.375	19.931	1.857	0.098
40.000	112.024	80.010	19.993	104.379	19.926	2.206	0.142
40.501	112.053	80.009	19.993	104.380	19.930	1.961	0.158
41.001	112.137	80.008	19.993	104.386	19.928	2.079	0.125
41.501	112.227	80.009	19.994	104.394	19.930	1.909	0.143
42.000	112.259	80.008	19.994	104.400	19.930	1.894	0.148
42.500	112.336	80.009	19.995	104.408	19.930	1.950	0.116
43.000	112.448	80.007	19.994	104.415	19.929	2.017	0.149
43.500	112.537	80.009	19.995	104.417	19.928	2.092	0.195
44.000	112.551	80.008	19.995	104.423	19.927	2.160	0.152
44.500	112.665	80.008	19.994	104.416	19.926	2.266	0.116
45.000	112.715	80.008	19.994	104.394	19.929	1.991	0.146
45.501	112.785	80.009	19.995	104.377	19.929	2.027	0.141
46.001	112.881	80.008	19.994	104.365	19.928	2.094	0.143
46.501	112.961	80.009	19.995	104.353	19.926	2.212	0.171
47.000	113.069	80.008	19.994	104.356	19.927	2.150	0.182
47.500	113.172	80.009	19.994	104.392	19.928	2.081	0.200
48.001	113.226	80.009	19.994	104.439	19.927	2.160	0.184
48.501	113.313	80.009	19.994	104.461	19.926	2.221	0.149
49.001	113.396	80.008	19.994	104.471	19.929	1.977	0.155
49.500	113.483	80.009	19.993	104.475	19.926	2.265	0.170
50.000	113.600	80.007	19.994	104.462	19.925	2.302	0.188
50.500	113.675	80.009	19.994	104.433	19.925	2.329	0.198
51.000	113.815	80.008	19.993	104.422	19.925	2.275	0.203
51.501	113.872	80.009	19.993	104.419	19.923	2.483	0.206
52.001	113.966	80.011	19.993	104.418	19.926	2.250	0.174
52.501	114.045	80.009	19.993	104.418	19.925	2.275	0.162
53.001	114.203	80.008	19.993	104.418	19.927	2.150	0.205
53.500	114.276	80.008	19.994	104.418	19.928	2.117	0.234
54.000	114.392	80.008	19.992	104.416	19.928	2.109	0.210
54.500	114.497	80.009	19.993	104.411	19.926	2.228	0.205
55.001	114.598	80.009	19.992	104.404	19.925	2.274	0.214
55.501	114.697	80.007	19.994	104.401	19.926	2.232	0.203
56.000	114.816	80.010	19.994	104.398	19.925	2.328	0.209
56.500	114.922	80.010	19.994	104.401	19.926	2.249	0.221
57.000	115.044	80.010	19.992	104.407	19.925	2.346	0.226
57.500	115.132	80.009	19.993	104.414	19.924	2.359	0.219
58.000	115.257	80.010	19.992	104.418	19.924	2.407	0.212
58.501	115.403	80.009	19.991	104.421	19.926	2.249	0.242
59.001	115.487	80.011	19.995	104.422	19.926	2.209	0.251
59.501	115.604	80.009	19.993	104.422	19.920	2.694	0.216
60.001	115.704	80.008	19.993	104.424	19.925	2.299	0.209
60.500	115.827	80.009	19.993	104.426	19.925	2.344	0.220
61.000	115.935	80.009	19.993	104.427	19.929	2.022	0.227
61.500	116.034	80.010	19.993	104.429	19.923	2.428	0.219
62.000	116.196	80.008	19.993	104.430	19.924	2.367	0.234
62.500	116.290	80.008	19.993	104.430	19.927	2.149	0.259
63.000	116.431	80.009	19.993	104.433	19.926	2.242	0.246
63.500	116.555	80.009	19.993	104.437	19.924	2.421	0.250
64.001	116.659	80.009	19.993	104.441	19.923	2.501	0.246
64.501	116.763	80.008	19.993	104.447	19.925	2.286	0.218
65.000	116.891	80.009	19.993	104.451	19.925	2.324	0.220
65.500	117.038	80.008	19.993	104.455	19.925	2.278	0.254
66.000	117.163	80.008	19.993	104.457	19.922	2.523	0.274
66.500	117.326	80.009	19.993	104.458	19.921	2.613	0.280
67.000	117.456	80.010	19.993	104.454	19.924	2.371	0.290
67.500	117.595	80.008	19.992	104.453	19.918	2.834	0.281
68.000	117.711	80.008	19.993	104.453	19.921	2.596	0.262
68.500	117.843	80.009	19.993	104.452	19.922	2.528	0.251
69.000	117.998	80.010	19.993	104.452	19.919	2.788	0.267
69.500	118.132	80.008	19.993	104.455	19.923	2.494	0.288
70.000	118.267	80.009	19.993	104.455	19.921	2.626	0.279
70.500	118.390	80.010	19.994	104.455	19.923	2.434	0.264
71.000	118.540	80.008	19.993	104.454	19.920	2.686	0.265
71.501	118.660	80.008	19.993	104.454	19.920	2.678	0.271
72.001	118.841	80.010	19.993	104.456	19.922	2.561	0.286
72.500	118.926	80.008	19.994	104.457	19.920	2.673	0.284
73.000	119.100	80.008	19.993	104.457	19.915	3.107	0.263
73.501	119.278	80.009	19.992	104.458	19.920	2.705	0.305
74.001	119.411	80.008	19.994	104.457	19.917	2.927	0.331
74.500	119.586	80.008	19.994	104.457	19.919	2.732	0.309
75.001	119.740	80.009	19.993	104.457	19.917	2.882	0.318
75.501	119.883	80.007	19.994	104.457	19.918	2.813	0.313
76.001	120.044	80.010	19.993	104.457	19.920	2.665	0.300
76.501	120.224	80.009	19.993	104.458	19.919	2.800	0.322
77.002	120.369	80.009	19.993	104.458	19.919	2.805	0.333
77.501	120.472	80.009	19.994	104.458	19.920	2.657	0.287
78.001	120.720	80.009	19.994	104.458	19.920	2.703	0.300
78.501	120.839	80.009	19.993	104.457	19.919	2.788	0.359
79.000	121.005	80.008	19.994	104.457	19.919	2.800	0.326
79.501	121.145	80.010	19.993	104.459	19.917	2.909	0.295
80.001	121.285	80.008	19.993	104.460	19.915	3.098	0.293
80.500	121.468	80.009	19.994	104.460	19.921	2.632	0.302
81.000	121.672	80.009	19.994	104.460	19.918	2.846	0.356
81.500	121.840	80.010	19.993	104.460	19.915	3.098	0.380
82.000	121.977	80.010	19.994	104.459	19.915	3.088	0.338
82.501	122.160	80.010	19.993	104.460	19.916	3.019	0.312
83.001	122.315	80.012	19.994	104.461	19.919	2.732	0.329
83.500	122.494	80.010	19.993	104.461	19.914	3.125	0.336
84.000	122.616	80.010	19.995	104.461	19.915	3.038	0.317
84.500	122.835	80.010	19.992	104.461	19.919	2.769	0.321
85.000	123.012	80.010	19.992	104.459	19.919	2.757	0.369
85.500	123.167	80.011	19.993	104.458	19.917	2.890	0.364
86.000	123.351	80.011	19.994	104.458	19.915	3.063	0.336
86.501	123.543	80.010	19.994	104.457	19.920	2.705	0.357
87.001	123.682	80.009	19.992	104.457	19.915	3.040	0.353
87.500	123.834	80.010	19.994	104.457	19.912	3.327	0.311
88.000	124.004	80.011	19.993	104.458	19.914	3.165	0.307
88.500	124.184	80.011	19.993	104.459	19.915	3.036	0.336
89.000	124.386	80.011	19.993	104.459	19.917	2.957	0.366
89.500	124.539	80.013	19.994	104.461	19.917	2.909	0.368
90.000	124.766	80.011	19.993	104.462	19.916	3.013	0.368
90.500	124.933	80.012	19.993	104.462	19.920	2.667	0.387
91.000	125.112	80.011	19.993	104.465	19.919	2.773	0.370
91.500	125.319	80.012	19.993	104.465	19.917	2.888	0.366
92.000	125.510	80.011	19.992	104.463	19.917	2.921	0.392
92.500	125.677	80.012	19.994	104.462	19.917	2.911	0.378
93.000	125.854	80.013	19.993	104.465	19.919	2.803	0.351
93.500	126.059	80.012	19.992	104.462	19.917	2.890	0.363
94.000	126.226	80.010	19.994	104.461	19.916	2.975	0.377
94.500	126.406	80.011	19.994	104.462	19.912	3.277	0.360
95.000	126.577	80.011	19.994	104.462	19.918	2.878	0.349
95.500	126.787	80.012	19.993	104.457	19.913	3.227	0.366
96.001	126.957	80.011	19.993	104.457	19.915	3.096	0.381
96.501	127.150	80.012	19.993	104.459	19.915	3.046	0.372
97.000	127.349	80.010	19.993	104.462	19.913	3.205	0.378
97.500	127.565	80.010	19.993	104.463	19.913	3.217	0.404
98.000	127.736	80.009	19.993	104.463	19.913	3.256	0.401
98.500	127.936	80.010	19.993	104.463	19.913	3.211	0.379
99.001	128.145	80.011	19.993	104.461	19.917	2.907	0.390
99.501	128.332	80.010	19.994	104.458	19.913	3.238	0.403
100.000	128.513	80.009	19.993	104.459	19.915	3.082	0.382
100.500	128.737	80.010	19.994	104.457	19.915	3.084	0.386
101.000	128.891	80.010	19.993	104.459	19.913	3.261	0.391
101.500	129.066	80.010	19.992	104.460	19.913	3.242	0.353
102.000	129.313	80.010	19.993	104.463	19.915	3.105	0.375
102.500	129.489	80.011	19.993	104.462	19.919	2.778	0.423
103.000	129.691	80.009	19.994	104.462	19.917	2.932	0.401
103.500	129.905	80.010	19.994	104.463	19.913	3.232	0.397
104.001	130.114	80.010	19.993	104.462	19.913	3.250	0.420
104.501	130.349	80.011	19.995	104.460	19.914	3.134	0.434
105.000	130.498	80.012	19.994	104.461	19.911	3.377	0.414
105.500	130.738	80.009	19.993	104.463	19.911	3.388	0.386
106.001	130.958	80.010	19.993	104.464	19.914	3.123	0.425
106.501	131.136	80.010	19.993	104.464	19.910	3.440	0.429
107.000	131.322	80.010	19.994	104.464	19.914	3.123	0.381
107.500	131.543	80.011	19.994	104.466	19.914	3.171	0.385
108.000	131.727	80.009	19.992	104.465	19.916	3.009	0.406
108.500	131.934	80.010	19.994	104.462	19.913	3.234	0.398
109.000	132.140	80.010	19.994	104.462	19.912	3.267	0.402
109.500	132.352	80.010	19.994	104.463	19.909	3.550	0.416
110.000	132.569	80.010	19.994	104.464	19.915	3.061	0.424
110.500	132.753	80.010	19.993	104.466	19.916	3.011	0.416
111.000	132.982	80.011	19.993	104.467	19.916	3.007	0.407
111.500	133.206	80.011	19.993	104.468	19.918	2.853	0.433
112.000	133.413	80.009	19.993	104.469	19.919	2.765	0.442
112.500	133.612	80.012	19.993	104.467	19.914	3.177	0.418
113.000	133.806	80.011	19.993	104.467	19.916	2.980	0.399
113.500	134.020	80.012	19.993	104.467	19.914	3.113	0.401
114.001	134.222	80.012	19.994	104.468	19.919	2.805	0.412
114.501	134.464	80.011	19.995	104.469	19.916	2.994	0.430
115.001	134.659	80.012	19.993	104.468	19.915	3.098	0.441
115.501	134.852	80.012	19.994	104.467	19.916	3.007	0.413
116.001	135.068	80.012	19.993	104.466	19.913	3.219	0.398
116.500	135.305	80.010	19.993	104.464	19.912	3.265	0.431
117.000	135.510	80.012	19.993	104.462	19.915	3.063	0.447
117.500	135.731	80.013	19.993	104.461	19.915	3.061	0.434
118.000	135.931	80.011	19.993	104.461	19.919	2.792	0.423
118.500	136.143	80.013	19.994	104.465	19.914	3.136	0.417
119.000	136.348	80.011	19.993	104.468	19.919	2.792	0.415
119.500	136.558	80.011	19.994	104.467	19.915	3.094	0.416
120.000	136.802	80.012	19.993	104.468	19.913	3.210	0.435
120.500	137.057	80.011	19.993	104.467	19.914	3.175	0.476
121.000	137.226	80.011	19.995	104.463	19.917	2.938	0.461
121.500	137.433	80.011	19.994	104.462	19.916	3.007	0.400
122.000	137.704	80.012	19.994	104.462	19.917	2.946	0.427
122.501	137.862	80.011	19.994	104.463	19.917	2.938	0.453
123.001	138.109	80.011	19.994	104.465	19.914	3.161	0.417
123.500	138.328	80.009	19.993	104.463	19.911	3.371	0.436
124.000	138.544	80.010	19.994	104.462	19.915	3.107	0.451
124.500	138.742	80.010	19.994	104.461	19.914	3.152	0.425
125.001	139.017	80.010	19.994	104.460	19.913	3.236	0.443
125.501	139.207	80.010	19.994	104.460	19.920	2.669	0.469
126.000	139.464	80.010	19.994	104.461	19.918	2.832	0.456
126.500	139.659	80.010	19.993	104.464	19.918	2.840	0.450
127.000	139.910	80.008	19.992	104.465	19.918	2.815	0.450
127.500	140.147	80.008	19.993	104.466	19.919	2.798	0.467
128.000	140.396	80.009	19.994	104.467	19.916	3.029	0.487
128.500	140.596	80.008	19.994	104.468	19.918	2.809	0.467
129.000	140.818	80.007	19.992	104.464	19.918	2.846	0.435
129.500	141.030	80.009	19.992	104.459	19.915	3.102	0.428
130.000	141.266	80.007	19.993	104.459	19.919	2.771	0.441
130.500	141.498	80.008	19.993	104.458	19.917	2.884	0.458
131.000	141.716	80.008	19.993	104.455	19.916	3.027	0.459
131.500	141.903	80.008	19.993	104.457	19.916	3.023	0.428
132.000	142.131	80.009	19.994	104.461	19.919	2.788	0.410
132.500	142.393	80.009	19.994	104.461	19.913	3.225	0.452
133.000	142.622	80.009	19.994	104.462	19.915	3.098	0.490
133.500	142.848	80.007	19.994	104.463	19.913	3.244	0.473
134.000	143.035	80.009	19.993	104.462	19.912	3.273	0.434
134.500	143.310	80.008	19.994	104.462	19.914	3.180	0.438
135.000	143.555	80.009	19.994	104.462	19.915	3.103	0.491
135.500	143.730	80.009	19.995	104.461	19.921	2.617	0.470
136.000	143.968	80.009	19.995	104.461	19.915	3.086	0.417
136.500	144.153	80.009	19.994	104.461	19.915	3.105	0.419
137.000	144.412	80.007	19.994	104.461	19.917	2.894	0.434
137.500	144.592	80.010	19.994	104.462	19.918	2.871	0.441
138.000	144.926	80.008	19.994	104.461	19.914	3.184	0.477
138.500	145.154	80.008	19.995	104.459	19.915	3.109	0.538
139.000	145.374	80.008	19.995	104.459	19.912	3.302	0.505
139.500	145.596	80.009	19.995	104.459	19.912	3.265	0.445
140.000	145.835	80.009	19.994	104.460	19.912	3.335	0.452
140.500	146.098	80.009	19.995	104.460	19.915	3.106	0.481
141.000	146.317	80.009	19.995	104.460	19.911	3.410	0.491
141.500	146.544	80.010	19.995	104.460	19.910	3.458	0.464
142.000	146.801	80.009	19.994	104.460	19.913	3.231	0.465
142.500	147.027	80.009	19.995	104.459	19.913	3.209	0.484
143.000	147.181	80.009	19.994	104.460	19.919	2.788	0.431
143.500	147.400	80.009	19.995	104.463	19.912	3.265	0.377
144.000	147.683	80.010	19.995	104.465	19.914	3.138	0.438
144.500	147.887	80.008	19.995	104.466	19.914	3.146	0.495
145.000	148.140	80.011	19.994	104.465	19.911	3.340	0.472
145.500	148.356	80.009	19.994	104.465	19.912	3.315	0.463
146.000	148.597	80.011	19.994	104.467	19.911	3.375	0.462
146.500	148.803	80.010	19.994	104.466	19.914	3.161	0.452
147.000	149.066	80.009	19.994	104.467	19.912	3.288	0.458
147.500	149.278	80.008	19.994	104.468	19.913	3.227	0.472
148.000	149.533	80.009	19.993	104.471	19.915	3.065	0.471
148.500	149.767	80.009	19.994	104.468	19.917	2.921	0.478
149.000	149.972	80.010	19.995	104.467	19.913	3.233	0.464
149.500	150.237	80.011	19.995	104.465	19.910	3.444	0.455
150.000	150.473	80.009	19.993	104.464	19.916	3.002	0.486
150.500	150.699	80.008	19.993	104.458	19.915	3.075	0.481
151.000	150.914	80.010	19.993	104.456	19.914	3.161	0.451
151.500	151.128	80.011	19.995	104.456	19.917	2.898	0.435
152.000	151.376	80.009	19.992	104.455	19.914	3.163	0.446
152.500	151.608	80.009	19.994	104.455	19.912	3.292	0.471
153.000	151.878	80.009	19.995	104.459	19.917	2.886	0.491
153.500	152.093	80.009	19.994	104.462	19.915	3.052	0.494
154.000	152.298	80.010	19.993	104.462	19.914	3.169	0.452
154.500	152.574	80.009	19.992	104.463	19.914	3.117	0.450
155.000	152.786	80.008	19.992	104.463	19.918	2.875	0.484
155.500	153.040	80.009	19.993	104.460	19.915	3.086	0.477
156.000	153.283	80.010	19.994	104.458	19.916	2.994	0.482
156.500	153.499	80.010	19.993	104.457	19.914	3.173	0.478
157.000	153.729	80.010	19.994	104.458	19.912	3.323	0.453
157.500	153.957	80.010	19.993	104.458	19.911	3.412	0.452
158.000	154.214	80.009	19.993	104.457	19.912	3.335	0.471
158.500	154.429	80.009	19.994	104.457	19.912	3.306	0.479
159.000	154.626	80.009	19.994	104.458	19.917	2.909	0.442
159.500	154.901	80.009	19.994	104.457	19.915	3.040	0.442
160.000	155.137	80.009	19.994	104.458	19.914	3.146	0.492
160.500	155.389	80.008	19.994	104.458	19.915	3.067	0.499
161.000	155.592	80.008	19.994	104.458	19.915	3.040	0.471
161.500	155.841	80.008	19.993	104.457	19.915	3.077	0.454
162.000	156.079	80.009	19.994	104.457	19.917	2.904	0.470
162.500	156.319	80.010	19.994	104.457	19.915	3.052	0.482
163.000	156.562	80.008	19.994	104.459	19.920	2.717	0.480
163.500	156.823	80.008	19.993	104.459	19.911	3.348	0.494
164.000	157.041	80.009	19.994	104.458	19.913	3.260	0.491
164.500	157.277	80.010	19.994	104.458	19.913	3.208	0.466
165.000	157.530	80.008	19.994	104.458	19.917	2.925	0.472
165.500	157.775	80.008	19.993	104.456	19.913	3.221	0.494
166.000	158.019	80.009	19.994	104.456	19.912	3.296	0.494
166.500	158.254	80.008	19.993	104.457	19.915	3.096	0.484
167.000	158.525	80.009	19.994	104.458	19.914	3.150	0.493
167.500	158.740	80.008	19.992	104.458	19.914	3.165	0.496
168.000	158.984	80.008	19.994	104.458	19.913	3.250	0.472
168.500	159.222	80.009	19.993	104.458	19.913	3.240	0.470
169.000	159.474	80.010	19.993	104.456	19.910	3.473	0.486
169.500	159.725	80.010	19.993	104.456	19.917	2.942	0.497
170.000	159.930	80.010	19.994	104.456	19.916	2.996	0.480
170.500	160.198	80.010	19.993	104.457	19.914	3.169	0.465
171.000	160.415	80.010	19.993	104.457	19.914	3.161	0.479
171.500	160.682	80.010	19.992	104.457	19.915	3.052	0.484
172.000	160.926	80.009	19.993	104.456	19.911	3.356	0.497
172.500	161.149	80.009	19.992	104.456	19.912	3.306	0.489
173.000	161.437	80.011	19.993	104.455	19.914	3.163	0.489
173.500	161.677	80.009	19.993	104.456	19.912	3.329	0.519
174.000	161.909	80.009	19.993	104.456	19.913	3.208	0.500
174.500	162.128	80.010	19.993	104.457	19.913	3.215	0.462
175.000	162.403	80.009	19.993	104.457	19.912	3.277	0.473
175.500	162.612	80.011	19.994	104.458	19.910	3.446	0.489
176.000	162.881	80.010	19.992	104.457	19.911	3.346	0.481
176.500	163.112	80.009	19.993	104.458	19.912	3.288	0.489
177.000	163.347	80.011	19.994	104.456	19.911	3.354	0.483
177.500	163.624	80.011	19.993	104.454	19.912	3.263	0.489
178.000	163.873	80.011	19.993	104.453	19.913	3.202	0.519
178.500	164.123	80.010	19.993	104.453	19.915	3.102	0.513
179.000	164.358	80.010	19.994	104.454	19.913	3.261	0.492
179.500	164.582	80.010	19.993	104.455	19.912	3.311	0.471
180.000	164.844	80.009	19.993	104.457	19.913	3.217	0.472
180.500	165.086	80.012	19.993	104.458	19.910	3.456	0.495
181.000	165.359	80.010	19.993	104.458	19.918	2.842	0.510
181.500	165.575	80.011	19.994	104.457	19.916	3.025	0.502
182.000	165.844	80.011	19.993	104.457	19.913	3.233	0.487
182.500	166.084	80.009	19.993	104.457	19.915	3.052	0.497
183.000	166.318	80.010	19.993	104.458	19.913	3.192	0.492
183.500	166.566	80.010	19.994	104.458	19.914	3.167	0.479
184.000	166.815	80.010	19.994	104.458	19.915	3.073	0.490
184.501	167.052	80.011	19.994	104.458	19.911	3.348	0.491
185.000	167.270	80.010	19.993	104.459	19.916	3.013	0.470
185.500	167.517	80.011	19.995	104.458	19.911	3.365	0.460
186.000	167.784	80.010	19.994	104.458	19.915	3.038	0.489
186.500	168.021	80.009	19.994	104.459	19.913	3.231	0.509
187.000	168.287	80.009	19.994	104.459	19.913	3.229	0.503
187.500	168.521	80.009	19.993	104.459	19.914	3.148	0.501
188.000	168.749	80.007	19.993	104.459	19.913	3.217	0.481
188.500	169.011	80.008	19.993	104.459	19.914	3.173	0.476
189.000	169.217	80.009	19.994	104.460	19.915	3.100	0.479
189.500	169.470	80.009	19.993	104.460	19.912	3.327	0.463
190.000	169.775	80.009	19.992	104.460	19.916	2.996	0.509
190.500	170.011	80.009	19.992	104.460	19.914	3.116	0.550
191.000	170.275	80.010	19.993	104.460	19.917	2.956	0.520
191.500	170.480	80.010	19.993	104.460	19.912	3.275	0.484
192.001	170.735	80.010	19.993	104.459	19.915	3.089	0.464
192.500	170.964	80.011	19.991	104.459	19.916	2.958	0.472
193.000	171.219	80.009	19.993	104.458	19.915	3.090	0.484
193.500	171.464	80.009	19.993	104.457	19.911	3.393	0.492
194.000	171.704	80.011	19.993	104.455	19.913	3.185	0.492
194.500	171.971	80.010	19.992	104.453	19.915	3.096	0.496
195.000	172.239	80.011	19.994	104.453	19.914	3.119	0.521
195.500	172.477	80.010	19.993	104.455	19.915	3.054	0.521
196.000	172.741	80.011	19.993	104.455	19.914	3.183	0.504
196.500	172.969	80.009	19.992	104.457	19.912	3.295	0.497
197.000	173.222	80.010	19.993	104.460	19.916	3.008	0.486
197.500	173.481	80.011	19.993	104.459	19.912	3.285	0.497
198.000	173.748	80.013	19.993	104.458	19.912	3.264	0.519
198.500	173.981	80.011	19.993	104.458	19.911	3.368	0.513
199.000	174.202	80.010	19.994	104.457	19.913	3.189	0.477
199.500	174.455	80.010	19.992	104.457	19.914	3.168	0.464
200.000	174.686	80.011	19.993	104.454	19.914	3.154	0.479
200.500	174.956	80.012	19.993	104.449	19.914	3.112	0.493
201.000	175.170	80.011	19.993	104.445	19.916	2.991	0.492
201.500	175.464	80.011	19.993	104.443	19.916	3.000	0.495
202.000	175.648	80.011	19.993	104.443	19.917	2.923	0.493
202.500	175.918	80.011	19.993	104.446	19.916	2.994	0.466
203.000	176.191	80.010	19.992	104.446	19.915	3.045	0.498
203.500	176.422	80.010	19.992	104.448	19.916	2.960	0.524
204.000	176.660	80.011	19.994	104.448	19.913	3.212	0.487
204.500	176.894	80.012	19.993	104.447	19.915	3.104	0.470
205.000	177.198	80.012	19.993	104.446	19.912	3.331	0.505
205.500	177.433	80.012	19.994	104.447	19.911	3.366	0.539
206.000	177.676	80.010	19.994	104.448	19.916	2.966	0.508
206.500	177.898	80.012	19.993	104.443	19.913	3.214	0.471
207.000	178.181	80.011	19.994	104.441	19.913	3.208	0.485
207.500	178.402	80.011	19.995	104.435	19.918	2.870	0.505
208.000	178.675	80.011	19.993	104.433	19.912	3.280	0.499
208.500	178.939	80.010	19.993	104.430	19.911	3.393	0.515
209.000	179.184	80.011	19.993	104.435	19.912	3.289	0.523
209.500	179.387	80.010	19.994	104.437	19.913	3.214	0.479
210.000	179.617	80.010	19.993	104.439	19.917	2.955	0.441
210.500	179.888	80.010	19.993	104.442	19.914	3.130	0.467
211.000	180.184	80.009	19.994	104.445	19.910	3.416	0.534
211.500	180.396	80.009	19.995	104.445	19.913	3.237	0.537
212.000	180.665	80.009	19.992	104.441	19.915	3.075	0.494
212.500	180.890	80.008	19.993	104.440	19.913	3.229	0.488
213.000	181.167	80.008	19.995	104.440	19.915	3.087	0.499
213.500	181.410	80.008	19.994	104.441	19.915	3.108	0.511
214.000	181.686	80.007	19.995	104.438	19.919	2.743	0.519
214.500	181.926	80.009	19.994	104.442	19.912	3.313	0.518
215.000	182.175	80.009	19.994	104.447	19.914	3.162	0.502
215.500	182.393	80.008	19.995	104.445	19.913	3.189	0.478
216.000	182.634	80.009	19.994	104.441	19.913	3.212	0.463
216.500	182.885	80.010	19.994	104.440	19.914	3.178	0.476
217.000	183.150	80.010	19.994	104.435	19.915	3.070	0.504
217.500	183.401	80.009	19.994	104.431	19.912	3.291	0.516
218.000	183.664	80.009	19.994	104.429	19.912	3.322	0.515
218.500	183.860	80.009	19.994	104.430	19.912	3.283	0.487
219.000	184.136	80.009	19.994	104.429	19.914	3.125	0.465
219.500	184.382	80.009	19.994	104.428	19.911	3.391	0.497
220.000	184.662	80.010	19.995	104.425	19.910	3.447	0.524
220.500	184.901	80.008	19.995	104.424	19.913	3.218	0.523
221.000	185.149	80.010	19.993	104.420	19.914	3.110	0.503
221.500	185.402	80.010	19.994	104.420	19.916	2.962	0.494
222.000	185.649	80.010	19.993	104.426	19.914	3.110	0.500
222.500	185.915	80.007	19.993	104.431	19.914	3.164	0.507
223.000	186.188	80.009	19.995	104.434	19.913	3.207	0.526
223.500	186.465	80.009	19.994	104.434	19.913	3.201	0.545
224.000	186.674	80.009	19.994	104.432	19.915	3.045	0.518
224.500	186.929	80.009	19.994	104.426	19.915	3.084	0.475
225.000	187.175	80.008	19.994	104.423	19.915	3.099	0.482
225.500	187.430	80.007	19.993	104.421	19.916	3.001	0.501
226.000	187.702	80.009	19.993	104.422	19.912	3.297	0.514
226.500	187.926	80.009	19.995	104.424	19.912	3.264	0.512
227.000	188.171	80.010	19.994	104.427	19.914	3.128	0.482
227.500	188.433	80.009	19.995	104.429	19.913	3.199	0.488
228.000	188.673	80.009	19.994	104.433	19.912	3.262	0.505
228.500	188.922	80.010	19.994	104.437	19.915	3.078	0.496
229.000	189.178	80.009	19.993	104.441	19.915	3.097	0.496
229.500	189.468	80.010	19.993	104.444	19.914	3.176	0.525
230.000	189.666	80.009	19.995	104.444	19.912	3.276	0.517
230.500	189.958	80.010	19.994	104.443	19.913	3.211	0.489
231.000	190.184	80.009	19.995	104.443	19.915	3.093	0.504
231.500	190.439	80.009	19.994	104.443	19.913	3.228	0.499
232.000	190.668	80.008	19.995	104.441	19.918	2.810	0.482
232.500	190.915	80.010	19.994	104.439	19.917	2.941	0.480
233.000	191.201	80.009	19.994	104.435	19.915	3.051	0.505
233.500	191.434	80.009	19.993	104.427	19.915	3.043	0.526
234.000	191.656	80.009	19.994	104.422	19.914	3.170	0.487
234.500	191.900	80.010	19.995	104.419	19.920	2.704	0.461
235.000	192.145	80.009	19.995	104.417	19.911	3.366	0.478
235.500	192.411	80.009	19.994	104.419	19.917	2.928	0.500
236.000	192.689	80.008	19.994	104.421	19.916	3.028	0.527
236.500	192.920	80.010	19.995	104.420	19.912	3.330	0.526
237.000	193.172	80.007	19.994	104.421	19.909	3.555	0.496
237.500	193.415	80.008	19.995	104.422	19.913	3.209	0.489
238.000	193.680	80.008	19.994	104.421	19.915	3.066	0.502
238.500	193.913	80.009	19.995	104.421	19.910	3.424	0.503
239.000	194.154	80.009	19.995	104.424	19.917	2.931	0.486
239.500	194.396	80.008	19.995	104.423	19.919	2.781	0.478
240.000	194.652	80.008	19.995	104.422	19.918	2.829	0.491
240.500	194.903	80.007	19.995	104.420	19.914	3.114	0.502
241.000	195.158	80.008	19.995	104.419	19.917	2.889	0.506
241.500	195.397	80.009	19.994	104.417	19.914	3.145	0.500
242.000	195.665	80.009	19.996	104.418	19.915	3.053	0.501
242.500	195.857	80.007	19.995	104.419	19.912	3.297	0.484
243.000	196.079	80.008	19.995	104.419	19.917	2.931	0.437
243.500	196.366	80.008	19.995	104.421	19.919	2.735	0.462
244.000	196.617	80.008	19.994	104.422	19.917	2.926	0.524
244.500	196.889	80.010	19.995	104.422	19.918	2.849	0.530
245.000	197.133	80.008	19.995	104.423	19.910	3.424	0.519
245.500	197.405	80.008	19.994	104.425	19.916	2.966	0.516
246.000	197.625	80.008	19.994	104.423	19.915	3.085	0.504
246.500	197.868	80.007	19.994	104.422	19.919	2.795	0.477
247.000	198.146	80.008	19.995	104.422	19.916	3.014	0.492
247.500	198.385	80.009	19.994	104.420	19.917	2.947	0.520
248.000	198.646	80.008	19.994	104.419	19.915	3.080	0.509
248.500	198.897	80.008	19.995	104.420	19.915	3.060	0.506
249.000	199.111	80.010	19.993	104.421	19.915	3.082	0.488
249.500	199.383	80.008	19.995	104.422	19.912	3.264	0.475
250.000	199.586	80.009	19.994	104.421	19.913	3.199	0.480
250.500	199.856	80.009	19.993	104.422	19.915	3.093	0.474
251.000	200.076	80.009	19.993	104.421	19.914	3.180	0.481
251.500	200.342	80.009	19.993	104.420	19.915	3.035	0.488
252.000	200.589	80.009	19.993	104.419	19.915	3.035	0.500
252.500	200.824	80.009	19.994	104.419	19.916	2.991	0.498
253.000	201.110	80.008	19.993	104.419	19.914	3.116	0.501
253.500	201.388	80.009	19.995	104.419	19.916	2.976	0.542
254.000	201.627	80.009	19.994	104.421	19.919	2.760	0.541
254.500	201.864	80.008	19.993	104.422	19.920	2.697	0.497
255.000	202.124	80.008	19.993	104.422	19.920	2.708	0.486
255.501	202.364	80.009	19.993	104.422	19.912	3.278	0.499
256.001	202.599	80.010	19.993	104.423	19.915	3.066	0.487
256.500	202.829	80.009	19.993	104.420	19.917	2.908	0.469
257.000	203.105	80.009	19.993	104.420	19.919	2.737	0.485
257.501	203.341	80.010	19.994	104.420	19.918	2.854	0.509
258.000	203.579	80.010	19.993	104.421	19.911	3.343	0.493
258.500	203.839	80.009	19.994	104.422	19.914	3.170	0.486
259.000	204.092	80.010	19.993	104.422	19.914	3.122	0.506
259.500	204.359	80.010	19.994	104.422	19.914	3.112	0.517
260.000	204.575	80.009	19.993	104.422	19.911	3.401	0.502
260.500	204.842	80.010	19.994	104.421	19.913	3.212	0.483
261.000	205.070	80.011	19.992	104.421	19.908	3.622	0.489
261.500	205.340	80.010	19.993	104.421	19.908	3.584	0.497
262.000	205.556	80.009	19.993	104.420	19.909	3.505	0.492
262.500	205.819	80.010	19.992	104.421	19.913	3.251	0.482
263.000	206.077	80.009	19.994	104.421	19.916	2.970	0.500
263.500	206.336	80.010	19.993	104.421	19.914	3.180	0.519
264.000	206.568	80.009	19.993	104.421	19.911	3.361	0.504
264.500	206.804	80.009	19.993	104.420	19.912	3.309	0.479
265.000	207.076	80.010	19.993	104.421	19.906	3.746	0.488
265.500	207.288	80.011	19.993	104.420	19.908	3.613	0.496
266.000	207.581	80.009	19.994	104.424	19.913	3.247	0.495
266.500	207.827	80.009	19.992	104.425	19.912	3.334	0.522
267.000	208.069	80.009	19.992	104.426	19.911	3.386	0.513
267.500	208.318	80.010	19.993	104.426	19.909	3.505	0.490
268.000	208.535	80.010	19.994	104.426	19.910	3.440	0.478
268.501	208.821	80.010	19.994	104.422	19.912	3.307	0.484
269.001	209.079	80.009	19.993	104.421	19.906	3.759	0.523
269.500	209.269	80.010	19.993	104.420	19.912	3.276	0.496
270.000	209.498	80.010	19.993	104.423	19.911	3.353	0.433
270.500	209.768	80.010	19.993	104.422	19.911	3.374	0.459
271.000	210.051	80.012	19.994	104.422	19.911	3.370	0.527
271.500	210.261	80.011	19.993	104.422	19.912	3.263	0.523
272.000	210.531	80.008	19.992	104.421	19.913	3.211	0.486
272.500	210.746	80.008	19.994	104.421	19.907	3.694	0.482
273.000	211.000	80.009	19.994	104.424	19.907	3.675	0.477
273.500	211.236	80.009	19.993	104.426	19.912	3.288	0.479
274.000	211.495	80.009	19.994	104.426	19.909	3.534	0.492
274.500	211.696	80.009	19.994	104.426	19.910	3.422	0.478
275.000	211.942	80.010	19.994	104.423	19.911	3.409	0.454
275.500	212.215	80.010	19.992	104.421	19.911	3.357	0.483
276.000	212.432	80.011	19.992	104.418	19.911	3.378	0.504
276.500	212.693	80.011	19.993	104.418	19.912	3.299	0.484
277.000	212.926	80.011	19.994	104.418	19.912	3.334	0.486
277.500	213.184	80.010	19.994	104.417	19.910	3.447	0.493
278.000	213.420	80.010	19.994	104.416	19.910	3.474	0.492
278.500	213.665	80.010	19.995	104.417	19.907	3.663	0.487
279.000	213.950	80.011	19.993	104.417	19.910	3.428	0.506
279.500	214.198	80.011	19.993	104.418	19.909	3.513	0.532
280.000	214.444	80.011	19.994	104.418	19.911	3.394	0.514
280.500	214.684	80.011	19.994	104.418	19.908	3.609	0.490
281.000	214.932	80.011	19.993	104.417	19.907	3.680	0.487
281.500	215.197	80.011	19.993	104.417	19.912	3.284	0.501
282.000	215.438	80.012	19.994	104.416	19.908	3.571	0.510
282.500	215.653	80.010	19.994	104.416	19.910	3.442	0.480
283.000	215.919	80.010	19.993	104.416	19.906	3.721	0.468
283.500	216.167	80.011	19.993	104.416	19.904	3.894	0.498
284.000	216.423	80.010	19.993	104.416	19.908	3.592	0.509
284.500	216.644	80.011	19.993	104.417	19.908	3.573	0.491
285.000	216.891	80.012	19.993	104.416	19.908	3.567	0.472
285.500	217.160	80.010	19.993	104.416	19.904	3.906	0.492
286.000	217.403	80.013	19.993	104.415	19.905	3.807	0.514
286.500	217.669	80.010	19.991	104.415	19.908	3.588	0.511
287.000	217.899	80.012	19.992	104.415	19.909	3.503	0.503
287.500	218.118	80.012	19.993	104.415	19.906	3.754	0.472
288.000	218.426	80.012	19.992	104.416	19.910	3.463	0.487
288.500	218.647	80.012	19.992	104.417	19.902	4.067	0.528
289.000	218.876	80.012	19.992	104.417	19.908	3.609	0.489
289.500	219.125	80.013	19.993	104.417	19.909	3.517	0.464
290.000	219.349	80.013	19.994	104.417	19.904	3.925	0.476
290.500	219.624	80.013	19.993	104.417	19.907	3.688	0.486
291.000	219.872	80.013	19.993	104.415	19.904	3.927	0.511
291.500	220.123	80.011	19.992	104.415	19.912	3.301	0.511
292.000	220.347	80.011	19.992	104.414	19.910	3.465	0.487
292.500	220.597	80.011	19.992	104.415	19.911	3.351	0.475
293.000	220.862	80.011	19.993	104.414	19.905	3.815	0.495
293.500	221.132	80.011	19.993	104.414	19.909	3.563	0.525
294.000	221.384	80.013	19.995	104.414	19.907	3.675	0.528
294.500	221.583	80.011	19.993	104.414	19.907	3.655	0.486
295.000	221.823	80.010	19.993	104.415	19.907	3.692	0.445
295.500	222.123	80.011	19.994	104.415	19.906	3.759	0.490
296.000	222.308	80.009	19.994	104.416	19.903	3.944	0.512
296.500	222.631	80.010	19.993	104.415	19.907	3.642	0.496
297.000	222.841	80.009	19.993	104.415	19.908	3.626	0.520
297.500	223.079	80.009	19.993	104.414	19.906	3.744	0.490
298.000	223.324	80.008	19.993	104.414	19.906	3.763	0.465
298.500	223.562	80.009	19.993	104.414	19.908	3.605	0.483
299.000	223.826	80.009	19.993	104.415	19.902	4.079	0.492
299.500	224.069	80.008	19.993	104.416	19.904	3.888	0.504
300.000	224.322	80.009	19.994	104.416	19.902	4.071	0.502
300.500	224.539	80.011	19.994	104.417	19.903	4.013	0.483
301.000	224.808	80.008	19.992	104.417	19.902	4.054	0.478
301.500	225.069	80.010	19.993	104.417	19.906	3.726	0.508
302.000	225.319	80.008	19.993	104.417	19.907	3.663	0.520
302.500	225.563	80.010	19.993	104.417	19.903	3.965	0.502
303.000	225.783	80.009	19.994	104.417	19.900	4.196	0.479
303.500	226.040	80.010	19.993	104.417	19.906	3.753	0.471
304.000	226.291	80.007	19.993	104.417	19.913	3.253	0.493
304.500	226.579	80.008	19.994	104.416	19.899	4.267	0.524
305.000	226.825	80.009	19.994	104.417	19.904	3.934	0.536
305.500	227.072	80.007	19.994	104.417	19.904	3.875	0.514
306.000	227.270	80.008	19.994	104.418	19.901	4.152	0.469
306.500	227.608	80.007	19.993	104.418	19.905	3.857	0.490
307.000	227.788	80.008	19.994	104.418	19.906	3.726	0.527
307.501	228.041	80.009	19.994	104.418	19.903	3.971	0.476
308.000	228.285	80.008	19.994	104.419	19.904	3.919	0.465
308.500	228.549	80.009	19.994	104.418	19.905	3.825	0.503
309.000	228.775	80.008	19.995	104.418	19.909	3.492	0.499
309.500	229.063	80.009	19.994	104.418	19.901	4.106	0.502
310.000	229.296	80.008	19.995	104.418	19.906	3.788	0.518
310.500	229.560	80.010	19.995	104.418	19.907	3.642	0.509
311.000	229.826	80.007	19.995	104.418	19.904	3.886	0.514
311.500	230.060	80.008	19.994	104.419	19.909	3.528	0.515
312.000	230.335	80.007	19.992	104.418	19.903	3.969	0.504
312.500	230.568	80.009	19.994	104.419	19.908	3.626	0.508
313.000	230.821	80.009	19.993	104.420	19.904	3.869	0.497
313.500	231.084	80.008	19.994	104.420	19.904	3.938	0.501
314.000	231.339	80.010	19.995	104.420	19.896	4.531	0.517
314.500	231.562	80.009	19.993	104.420	19.908	3.613	0.498
315.000	231.829	80.009	19.993	104.418	19.904	3.902	0.484
315.500	232.068	80.010	19.994	104.418	19.908	3.567	0.498
316.000	232.318	80.009	19.995	104.417	19.905	3.813	0.497
316.500	232.555	80.008	19.993	104.417	19.904	3.921	0.487
317.000	232.841	80.009	19.994	104.417	19.903	3.982	0.505
317.500	233.073	80.009	19.994	104.419	19.897	4.462	0.521
318.000	233.321	80.009	19.995	104.419	19.904	3.877	0.499
318.500	233.594	80.008	19.993	104.419	19.903	4.009	0.501
319.000	233.845	80.010	19.994	104.418	19.903	3.973	0.523
319.500	234.066	80.007	19.992	104.419	19.907	3.669	0.498
320.000	234.369	80.009	19.992	104.418	19.904	3.936	0.497
320.500	234.591	80.008	19.993	104.418	19.905	3.827	0.524
321.000	234.859	80.008	19.994	104.418	19.901	4.167	0.508
321.500	235.093	80.009	19.995	104.418	19.914	3.157	0.496
322.000	235.338	80.008	19.994	104.418	19.908	3.619	0.490
322.500	235.569	80.009	19.994	104.419	19.907	3.671	0.478
323.000	235.857	80.010	19.995	104.419	19.902	4.056	0.498
323.500	236.101	80.009	19.993	104.419	19.906	3.723	0.526
324.000	236.362	80.009	19.994	104.419	19.908	3.611	0.519
324.500	236.596	80.009	19.995	104.418	19.904	3.879	0.500
325.000	236.821	80.007	19.994	104.419	19.904	3.937	0.477
325.500	237.082	80.007	19.994	104.418	19.901	4.106	0.473
326.000	237.346	80.008	19.994	104.418	19.907	3.669	0.505
326.500	237.589	80.008	19.994	104.419	19.909	3.542	0.516
327.000	237.819	80.008	19.995	104.419	19.903	3.975	0.490
327.500	238.075	80.008	19.995	104.419	19.904	3.917	0.479
328.000	238.328	80.008	19.994	104.420	19.905	3.796	0.497
328.500	238.603	80.008	19.994	104.420	19.908	3.613	0.519
329.000	238.847	80.007	19.994	104.420	19.908	3.569	0.523
329.500	239.105	80.007	19.994	104.420	19.908	3.573	0.510
330.000	239.310	80.008	19.995	104.420	19.902	4.042	0.482
330.500	239.567	80.007	19.995	104.418	19.909	3.505	0.462
331.000	239.820	80.009	19.995	104.416	19.902	4.033	0.486
331.500	240.056	80.008	19.994	104.416	19.905	3.840	0.500
332.000	240.292	80.006	19.992	104.415	19.908	3.584	0.481
332.500	240.542	80.008	19.995	104.415	19.907	3.706	0.479
333.000	240.840	80.008	19.995	104.418	19.904	3.871	0.517
333.500	241.073	80.008	19.996	104.419	19.899	4.275	0.539
334.000	241.318	80.007	19.996	104.418	19.906	3.777	0.505
334.500	241.569	80.008	19.993	104.417	19.909	3.496	0.487
335.000	241.839	80.007	19.993	104.416	19.901	4.148	0.509
335.500	242.086	80.010	19.996	104.413	19.903	3.948	0.519
336.000	242.354	80.008	19.994	104.410	19.907	3.657	0.516
336.500	242.592	80.009	19.995	104.410	19.907	3.696	0.511
337.000	242.883	80.009	19.994	104.407	19.908	3.573	0.517
337.500	243.131	80.008	19.995	104.406	19.908	3.565	0.534
338.000	243.389	80.009	19.996	104.407	19.906	3.771	0.523
338.500	243.619	80.009	19.995	104.408	19.907	3.648	0.497
339.000	243.845	80.010	19.995	104.409	19.906	3.725	0.472
339.500	244.113	80.010	19.996	104.412	19.906	3.764	0.475
340.000	244.399	80.010	19.995	104.413	19.899	4.299	0.524
340.500	244.650	80.011	19.996	104.414	19.906	3.787	0.545
341.000	244.868	80.010	19.995	104.415	19.902	4.060	0.503
341.500	245.114	80.010	19.994	104.415	19.904	3.939	0.467
342.000	245.373	80.010	19.994	104.413	19.900	4.218	0.485
342.500	245.591	80.012	19.995	104.410	19.905	3.821	0.491
343.000	245.899	80.009	19.994	104.409	19.902	4.050	0.501
343.500	246.172	80.012	19.995	104.408	19.902	4.033	0.553
344.000	246.412	80.009	19.994	104.409	19.905	3.794	0.547
344.500	246.645	80.010	19.994	104.410	19.904	3.881	0.493
345.000	246.877	80.011	19.995	104.413	19.896	4.478	0.469
345.500	247.134	80.012	19.994	104.412	19.903	3.977	0.477
346.001	247.382	80.010	19.994	104.412	19.907	3.686	0.497
346.501	247.642	80.010	19.994	104.412	19.901	4.148	0.506
347.000	247.877	80.011	19.994	104.413	19.901	4.152	0.502
347.500	248.143	80.010	19.992	104.413	19.900	4.177	0.498
348.000	248.390	80.012	19.994	104.414	19.904	3.927	0.507
348.500	248.641	80.011	19.994	104.413	19.903	4.008	0.506
349.000	248.881	80.010	19.992	104.412	19.904	3.892	0.495
349.500	249.176	80.013	19.994	104.408	19.902	4.058	0.513
350.000	249.418	80.012	19.994	104.407	19.901	4.117	0.536
350.500	249.694	80.010	19.993	104.402	19.902	4.083	0.527
351.000	249.952	80.009	19.994	104.400	19.897	4.431	0.526
351.500	250.144	80.012	19.994	104.401	19.902	4.079	0.492
352.000	250.430	80.012	19.994	104.405	19.902	4.044	0.464
352.500	250.658	80.011	19.995	104.404	19.901	4.150	0.496
353.000	250.938	80.011	19.995	104.411	19.897	4.433	0.511
353.500	251.155	80.011	19.993	104.414	19.895	4.560	0.503
354.000	251.445	80.010	19.992	104.412	19.898	4.389	0.502
354.500	251.691	80.011	19.993	104.409	19.897	4.425	0.522
355.000	251.911	80.010	19.994	104.408	19.901	4.140	0.501
355.500	252.165	80.010	19.994	104.407	19.901	4.146	0.470
356.000	252.441	80.010	19.992	104.407	19.901	4.114	0.501
356.500	252.680	80.010	19.994	104.409	19.902	4.031	0.522
357.000	252.921	80.009	19.994	104.413	19.898	4.335	0.498
357.500	253.194	80.009	19.992	104.415	19.900	4.179	0.498
358.000	253.412	80.011	19.994	104.415	19.905	3.833	0.503
358.500	253.703	80.011	19.993	104.410	19.898	4.349	0.500
359.000	253.920	80.010	19.994	104.410	19.901	4.139	0.508
359.500	254.211	80.009	19.994	104.410	19.903	3.977	0.508
360.001	254.448	80.011	19.994	104.411	19.900	4.189	0.519
360.501	254.681	80.010	19.992	104.411	19.899	4.274	0.499
361.000	254.916	80.012	19.993	104.416	19.899	4.320	0.469
361.500	255.186	80.011	19.995	104.417	19.899	4.279	0.487
362.000	255.436	80.011	19.993	104.417	19.898	4.335	0.513
362.500	255.654	80.010	19.994	104.417	19.903	3.948	0.494
363.000	255.882	80.011	19.993	104.416	19.900	4.223	0.457
363.500	256.166	80.012	19.994	104.416	19.897	4.445	0.479
364.001	256.431	80.010	19.994	104.416	19.903	3.971	0.530
364.500	256.703	80.012	19.994	104.416	19.896	4.497	0.543
365.000	256.917	80.009	19.993	104.415	19.901	4.168	0.512
365.500	257.202	80.011	19.994	104.416	19.897	4.460	0.492
366.000	257.411	80.011	19.994	104.415	19.901	4.121	0.496
366.500	257.674	80.011	19.993	104.411	19.903	4.006	0.483
367.000	257.912	80.012	19.993	104.410	19.899	4.296	0.487
367.500	258.178	80.010	19.993	104.407	19.894	4.668	0.503
368.000	258.425	80.011	19.993	104.406	19.895	4.618	0.508
368.500	258.674	80.011	19.993	104.407	19.894	4.691	0.504
369.000	258.930	80.012	19.994	104.410	19.895	4.622	0.501
369.500	259.197	80.011	19.993	104.406	19.894	4.645	0.514
370.000	259.467	80.012	19.994	104.406	19.895	4.601	0.530
370.500	259.692	80.012	19.993	104.406	19.890	4.968	0.516
371.000	259.895	80.012	19.993	104.406	19.895	4.585	0.461
371.500	260.188	80.012	19.993	104.407	19.897	4.435	0.462
372.000	260.461	80.012	19.994	104.411	19.893	4.729	0.531
372.500	260.690	80.013	19.994	104.414	19.896	4.489	0.534
373.000	260.920	80.011	19.993	104.413	19.897	4.421	0.481
373.500	261.174	80.011	19.993	104.413	19.896	4.519	0.472
374.000	261.429	80.013	19.994	104.412	19.897	4.437	0.496
374.500	261.640	80.012	19.994	104.412	19.892	4.783	0.488
375.000	261.932	80.010	19.993	104.410	19.894	4.639	0.484
375.500	262.163	80.012	19.993	104.409	19.893	4.718	0.513
376.000	262.461	80.011	19.993	104.407	19.891	4.918	0.526
376.500	262.694	80.012	19.993	104.409	19.893	4.747	0.530
377.000	262.966	80.011	19.994	104.409	19.887	5.213	0.518
377.500	263.145	80.012	19.993	104.412	19.893	4.712	0.478
378.000	263.475	80.012	19.994	104.415	19.894	4.691	0.480
378.500	263.651	80.010	19.993	104.418	19.886	5.266	0.507
379.000	263.943	80.010	19.995	104.418	19.891	4.930	0.487
379.500	264.207	80.011	19.994	104.415	19.894	4.629	0.512
380.000	264.438	80.011	19.994	104.412	19.895	4.627	0.525
380.500	264.683	80.009	19.993	104.410	19.890	4.962	0.485
381.000	264.888	80.009	19.993	104.408	19.889	5.018	0.463
381.500	265.173	80.009	19.993	104.409	19.887	5.220	0.470
382.000	265.382	80.009	19.992	104.413	19.889	5.008	0.492
382.500	265.656	80.009	19.993	104.415	19.892	4.850	0.489
383.000	265.941	80.009	19.993	104.416	19.886	5.258	0.521
383.500	266.123	80.009	19.994	104.418	19.891	4.858	0.512
384.000	266.429	80.009	19.994	104.419	19.890	4.993	0.477
384.500	266.695	80.009	19.993	104.420	19.884	5.399	0.530
385.000	266.911	80.010	19.994	104.421	19.891	4.901	0.528
385.500	267.174	80.009	19.994	104.420	19.884	5.449	0.481
386.000	267.455	80.009	19.993	104.417	19.890	4.939	0.511
386.500	267.620	80.009	19.993	104.413	19.888	5.112	0.495
387.000	267.863	80.010	19.994	104.413	19.886	5.247	0.427
387.500	268.209	80.009	19.993	104.413	19.887	5.176	0.499
388.000	268.456	80.008	19.993	104.416	19.881	5.640	0.591
388.500	268.681	80.008	19.992	104.417	19.887	5.187	0.532
389.000	268.901	80.008	19.992	104.418	19.882	5.607	0.459
389.500	269.227	80.009	19.993	104.417	19.883	5.530	0.496
390.000	269.427	80.009	19.994	104.416	19.887	5.197	0.536
390.500	269.591	80.009	19.992	104.416	19.888	5.141	0.445
391.000	269.887	80.009	19.994	104.417	19.885	5.318	0.412
391.500	270.391	80.010	19.993	104.420	19.891	4.906	0.630
392.000	270.275	80.009	19.993	104.421	19.884	5.418	0.595
392.500	270.430	80.009	19.993	104.422	19.884	5.430	0.214
393.000	270.932	80.010	19.993	104.423	19.884	5.392	0.348
393.500	271.424	80.011	19.994	104.424	19.883	5.486	0.825
394.000	271.636	80.009	19.992	104.426	19.883	5.467	0.849
394.500	271.723	80.010	19.992	104.425	19.885	5.370	0.501
395.000	272.036	80.007	19.994	104.424	19.883	5.478	0.350
395.500	272.203	80.009	19.992	104.420	19.883	5.532	0.440
396.000	272.458	80.009	19.994	104.419	19.881	5.632	0.451
396.500	272.697	80.009	19.993	104.416	19.880	5.715	0.458
397.000	272.991	80.008	19.993	104.417	19.881	5.661	0.514
397.500	273.242	80.009	19.992	104.416	19.885	5.384	0.539
398.000	273.489	80.010	19.993	104.420	19.882	5.540	0.521
398.500	273.647	80.009	19.991	104.421	19.881	5.675	0.451
399.000	273.997	80.009	19.993	104.421	19.883	5.490	0.456
399.500	274.160	80.008	19.992	104.420	19.881	5.646	0.511
400.000	274.491	80.010	19.993	104.421	19.878	5.867	0.504
400.500	274.709	80.010	19.994	104.420	19.881	5.688	0.521
401.000	274.982	80.009	19.993	104.421	19.882	5.551	0.520
401.500	275.195	80.010	19.994	104.421	19.879	5.838	0.489
402.000	275.488	80.010	19.993	104.421	19.874	6.163	0.495
402.500	275.718	80.010	19.994	104.420	19.877	5.923	0.514
403.000	275.992	80.008	19.993	104.419	19.878	5.871	0.514
403.500	276.215	80.009	19.993	104.415	19.877	5.927	0.501
404.000	276.509	80.010	19.994	104.415	19.876	6.061	0.507
404.500	276.710	80.009	19.994	104.414	19.875	6.077	0.506
405.000	277.006	80.009	19.993	104.415	19.882	5.611	0.496
405.500	277.252	80.010	19.994	104.416	19.881	5.630	0.520
406.000	277.517	80.009	19.994	104.418	19.876	6.005	0.526
406.500	277.742	80.010	19.994	104.418	19.878	5.888	0.501
407.000	278.009	80.009	19.994	104.417	19.875	6.096	0.492
407.500	278.285	80.010	19.994	104.416	19.873	6.269	0.518
408.000	278.507	80.010	19.993	104.415	19.877	5.932	0.520
408.500	278.760	80.008	19.995	104.412	19.879	5.840	0.486
409.000	278.984	80.010	19.993	104.411	19.877	5.942	0.476
409.500	279.291	80.008	19.994	104.412	19.874	6.192	0.504
410.000	279.543	80.010	19.994	104.412	19.874	6.200	0.545
410.500	279.783	80.009	19.993	104.412	19.878	5.846	0.525
411.000	280.026	80.009	19.994	104.413	19.872	6.308	0.487
411.500	280.256	80.009	19.994	104.413	19.874	6.167	0.478
412.000	280.541	80.009	19.995	104.415	19.870	6.450	0.494
412.500	280.757	80.008	19.994	104.416	19.873	6.236	0.508
413.000	281.037	80.009	19.993	104.417	19.872	6.319	0.498
413.500	281.276	80.010	19.994	104.418	19.873	6.227	0.507
414.000	281.558	80.009	19.994	104.418	19.869	6.587	0.520
414.500	281.828	80.009	19.994	104.417	19.867	6.745	0.537
415.000	282.033	80.010	19.995	104.416	19.867	6.710	0.514
415.500	282.291	80.009	19.994	104.417	19.868	6.637	0.470
416.000	282.541	80.010	19.994	104.418	19.872	6.337	0.485
416.500	282.803	80.010	19.994	104.419	19.864	6.958	0.509
417.000	283.042	80.009	19.993	104.419	19.868	6.622	0.506
417.500	283.289	80.009	19.995	104.419	19.869	6.600	0.494
418.000	283.520	80.009	19.994	104.417	19.863	7.030	0.482
418.500	283.744	80.008	19.993	104.417	19.865	6.839	0.467
419.000	284.020	80.010	19.995	104.417	19.864	6.932	0.478
419.500	284.320	80.010	19.994	104.417	19.861	7.207	0.538
420.000	284.544	80.009	19.994	104.417	19.863	7.032	0.550
420.500	284.827	80.009	19.994	104.417	19.864	6.955	0.516
421.000	285.043	80.009	19.993	104.417	19.863	7.045	0.503
421.500	285.291	80.010	19.994	104.418	19.863	7.026	0.481
422.000	285.596	80.009	19.995	104.418	19.866	6.781	0.508
422.500	285.818	80.009	19.995	104.419	19.858	7.365	0.540
423.000	286.035	80.010	19.994	104.419	19.857	7.480	0.483
423.500	286.366	80.009	19.995	104.420	19.862	7.057	0.493
424.000	286.559	80.009	19.993	104.420	19.861	7.159	0.536
424.500	286.858	80.009	19.995	104.420	19.858	7.388	0.508
425.000	287.070	80.008	19.994	104.419	19.857	7.492	0.501
425.500	287.346	80.008	19.995	104.419	19.857	7.511	0.499
426.000	287.563	80.009	19.994	104.418	19.859	7.307	0.490
426.500	287.856	80.010	19.994	104.417	19.856	7.523	0.501
427.000	288.110	80.010	19.996	104.416	19.855	7.632	0.528
427.500	288.361	80.010	19.994	104.416	19.856	7.519	0.526
428.000	288.604	80.011	19.994	104.416	19.856	7.536	0.500
428.500	288.855	80.011	19.994	104.415	19.855	7.644	0.494
429.000	289.070	80.010	19.994	104.415	19.855	7.659	0.479
429.500	289.350	80.009	19.993	104.415	19.850	7.973	0.480
430.000	289.540	80.012	19.995	104.414	19.849	8.100	0.483
430.500	289.830	80.011	19.994	104.414	19.850	7.973	0.475
431.000	290.093	80.011	19.995	104.414	19.850	8.017	0.517
431.500	290.311	80.010	19.995	104.414	19.848	8.171	0.517
432.000	290.569	80.011	19.995	104.413	19.847	8.222	0.478
432.500	290.825	80.012	19.993	104.414	19.844	8.482	0.495
433.000	291.065	80.011	19.995	104.414	19.845	8.418	0.505
433.500	291.372	80.011	19.995	104.414	19.845	8.380	0.521
434.000	291.609	80.011	19.995	104.413	19.844	8.497	0.545
434.500	291.872	80.012	19.995	104.414	19.844	8.434	0.522
435.000	292.099	80.010	19.995	104.414	19.843	8.542	0.495
435.500	292.352	80.009	19.994	104.414	19.845	8.349	0.485
436.000	292.596	80.011	19.996	104.414	19.844	8.459	0.489
436.500	292.889	80.010	19.994	104.415	19.839	8.851	0.517
437.001	293.085	80.010	19.994	104.414	19.841	8.653	0.513
437.501	293.352	80.009	19.995	104.413	19.838	8.882	0.476
438.000	293.607	80.010	19.994	104.413	19.838	8.913	0.493
438.500	293.825	80.009	19.995	104.415	19.838	8.955	0.498
439.000	294.090	80.011	19.994	104.416	19.837	9.032	0.478
439.500	294.357	80.009	19.995	104.417	19.834	9.227	0.508
440.000	294.580	80.010	19.994	104.419	19.837	8.981	0.511
440.500	294.883	80.009	19.994	104.419	19.836	9.042	0.508
441.000	295.113	80.009	19.994	104.419	19.833	9.288	0.529
441.500	295.366	80.009	19.994	104.418	19.834	9.236	0.508
442.000	295.601	80.009	19.995	104.419	19.836	9.078	0.486
442.500	295.863	80.009	19.994	104.422	19.834	9.188	0.493
443.000	296.109	80.008	19.994	104.425	19.829	9.580	0.503
443.500	296.377	80.009	19.993	104.430	19.831	9.442	0.511
444.000	296.599	80.010	19.992	104.431	19.831	9.480	0.502
444.500	296.855	80.011	19.994	104.431	19.830	9.514	0.483
445.001	297.092	80.010	19.994	104.431	19.831	9.477	0.485
445.500	297.367	80.009	19.994	104.430	19.825	9.895	0.503
446.000	297.571	80.010	19.993	104.425	19.823	10.087	0.496
446.500	297.835	80.010	19.995	104.427	19.828	9.689	0.474
447.000	298.099	80.010	19.994	104.428	19.824	9.978	0.498
447.500	298.355	80.010	19.993	104.429	19.824	9.967	0.524
448.000	298.648	80.010	19.994	104.431	19.821	10.201	0.534
448.500	298.875	80.011	19.994	104.433	19.819	10.367	0.534
449.000	299.136	80.010	19.994	104.432	19.820	10.269	0.504
449.500	299.391	80.010	19.993	104.431	19.821	10.181	0.502
450.000	299.601	80.010	19.994	104.430	19.818	10.466	0.491
450.500	299.826	80.012	19.994	104.429	19.817	10.550	0.450
451.000	300.110	80.010	19.992	104.427	19.821	10.236	0.472
451.500	300.341	80.011	19.993	104.428	19.817	10.500	0.512
452.000	300.595	80.010	19.992	104.430	19.816	10.606	0.500
452.500	300.856	80.012	19.994	104.432	19.818	10.415	0.500
453.000	301.089	80.012	19.993	104.434	19.813	10.858	0.504
453.500	301.384	80.011	19.993	104.437	19.809	11.091	0.511
454.000	301.654	80.011	19.993	104.438	19.813	10.852	0.547
454.500	301.885	80.013	19.993	104.437	19.812	10.914	0.533
455.000	302.136	80.011	19.992	104.441	19.808	11.229	0.491
455.500	302.369	80.013	19.994	104.445	19.808	11.189	0.483
456.000	302.595	80.013	19.994	104.448	19.808	11.166	0.471
456.500	302.900	80.013	19.993	104.449	19.801	11.695	0.495
457.000	303.145	80.011	19.994	104.452	19.799	11.849	0.541
457.500	303.382	80.013	19.994	104.451	19.804	11.491	0.516
458.000	303.634	80.012	19.993	104.445	19.801	11.741	0.485
458.500	303.870	80.012	19.994	104.442	19.800	11.841	0.488
459.000	304.155	80.011	19.994	104.442	19.801	11.741	0.505
459.500	304.373	80.011	19.993	104.443	19.795	12.162	0.512
460.000	304.617	80.011	19.993	104.444	19.798	11.947	0.482
460.500	304.884	80.012	19.993	104.450	19.791	12.520	0.487
461.000	305.105	80.010	19.994	104.455	19.793	12.368	0.499
461.500	305.333	80.011	19.993	104.457	19.788	12.738	0.469
462.000	305.626	80.011	19.993	104.459	19.791	12.478	0.485
462.500	305.869	80.010	19.994	104.459	19.788	12.688	0.529
463.000	306.134	80.010	19.993	104.459	19.787	12.832	0.522
463.500	306.378	80.009	19.993	104.459	19.783	13.122	0.508
464.000	306.606	80.009	19.994	104.459	19.785	12.953	0.491
464.500	306.881	80.010	19.993	104.456	19.782	13.155	0.488
465.000	307.144	80.009	19.993	104.456	19.781	13.262	0.520
465.500	307.346	80.008	19.993	104.457	19.782	13.139	0.501
466.000	307.655	80.008	19.993	104.458	19.780	13.365	0.488
466.500	307.881	80.008	19.994	104.457	19.777	13.588	0.524
467.000	308.120	80.009	19.993	104.461	19.777	13.519	0.500
467.500	308.376	80.010	19.992	104.461	19.773	13.889	0.479
468.000	308.605	80.008	19.993	104.460	19.771	14.004	0.490
468.500	308.893	80.008	19.993	104.460	19.768	14.227	0.501
469.000	309.080	80.008	19.993	104.462	19.770	14.075	0.497
469.500	309.403	80.010	19.993	104.461	19.769	14.188	0.493
470.000	309.671	80.009	19.993	104.461	19.765	14.476	0.550
470.500	309.872	80.009	19.993	104.461	19.765	14.431	0.529
471.000	310.136	80.009	19.993	104.461	19.767	14.279	0.467
471.500	310.366	80.009	19.994	104.460	19.762	14.675	0.480
472.000	310.633	80.009	19.994	104.460	19.757	15.058	0.496
472.500	310.894	80.009	19.994	104.459	19.756	15.149	0.513
473.000	311.140	80.010	19.993	104.459	19.759	14.933	0.517
473.500	311.405	80.008	19.993	104.456	19.755	15.214	0.508
474.000	311.640	80.008	19.994	104.457	19.752	15.452	0.505
474.500	311.888	80.009	19.993	104.461	19.753	15.344	0.492
475.000	312.175	80.010	19.994	104.464	19.748	15.770	0.510
475.500	312.408	80.009	19.992	104.464	19.746	15.898	0.528
476.000	312.672	80.012	19.993	104.466	19.746	15.880	0.508
476.500	312.934	80.010	19.993	104.465	19.743	16.136	0.511
477.001	313.149	80.009	19.995	104.461	19.741	16.322	0.502
477.500	313.414	80.010	19.994	104.458	19.739	16.414	0.479
478.000	313.696	80.008	19.993	104.457	19.737	16.583	0.514
478.500	313.934	80.010	19.994	104.457	19.739	16.425	0.533
479.000	314.224	80.010	19.994	104.458	19.733	16.933	0.524
479.500	314.476	80.008	19.994	104.458	19.731	17.041	0.535
480.000	314.698	80.008	19.993	104.460	19.728	17.304	0.508
480.500	314.937	80.010	19.993	104.463	19.727	17.373	0.467
481.000	315.199	80.010	19.993	104.469	19.729	17.187	0.481
481.500	315.430	80.011	19.994	104.475	19.724	17.577	0.497
482.000	315.701	80.009	19.993	104.478	19.717	18.156	0.497
482.500	315.962	80.011	19.994	104.478	19.721	17.820	0.517
483.000	316.216	80.010	19.993	104.475	19.720	17.904	0.524
483.500	316.454	80.011	19.992	104.470	19.712	18.477	0.504
484.000	316.700	80.010	19.993	104.464	19.717	18.085	0.488
484.500	316.955	80.011	19.994	104.462	19.709	18.696	0.492
485.000	317.234	80.009	19.995	104.465	19.713	18.448	0.517
485.500	317.456	80.010	19.992	104.468	19.708	18.790	0.518
486.000	317.702	80.009	19.992	104.474	19.704	19.136	0.485
486.500	317.963	80.010	19.993	104.479	19.702	19.225	0.487
487.000	318.222	80.009	19.993	104.484	19.700	19.405	0.513
487.500	318.485	80.011	19.993	104.487	19.697	19.666	0.521
488.000	318.736	80.010	19.993	104.491	19.691	20.093	0.518
488.500	319.014	80.009	19.993	104.492	19.694	19.872	0.521
489.000	319.228	80.008	19.994	104.494	19.689	20.281	0.511
489.500	319.484	80.008	19.993	104.494	19.685	20.547	0.481
490.000	319.734	80.009	19.993	104.494	19.685	20.545	0.488
490.500	319.990	80.010	19.995	104.494	19.679	20.981	0.506
491.000	320.251	80.010	19.994	104.496	19.682	20.755	0.512
491.501	320.473	80.009	19.994	104.495	19.678	21.066	0.500
492.000	320.723	80.009	19.993	104.496	19.676	21.234	0.478
492.500	320.995	80.012	19.993	104.495	19.673	21.506	0.497
493.000	321.253	80.009	19.993	104.495	19.665	22.080	0.526
493.500	321.488	80.010	19.993	104.495	19.668	21.888	0.511
494.000	321.732	80.008	19.993	104.496	19.663	22.226	0.486
494.500	322.043	80.010	19.993	104.496	19.658	22.632	0.517
495.000	322.242	80.010	19.994	104.497	19.655	22.836	0.532
495.500	322.519	80.009	19.993	104.497	19.653	22.982	0.493
496.000	322.778	80.009	19.993	104.498	19.649	23.278	0.506
496.500	323.040	80.009	19.994	104.498	19.645	23.598	0.528
497.000	323.281	80.010	19.994	104.501	19.645	23.606	0.512
497.500	323.530	80.009	19.993	104.501	19.642	23.812	0.497
498.000	323.837	80.007	19.994	104.504	19.636	24.283	0.524
498.500	324.046	80.010	19.994	104.507	19.634	24.432	0.536
499.000	324.277	80.010	19.994	104.508	19.630	24.712	0.478
499.500	324.553	80.008	19.994	104.508	19.628	24.904	0.473
500.000	324.789	80.009	19.995	104.509	19.623	25.250	0.510
500.500	325.045	80.009	19.994	104.507	19.621	25.431	0.502
501.000	325.288	80.009	19.995	104.508	19.618	25.627	0.496
501.500	325.532	80.009	19.994	104.510	19.612	26.088	0.493
502.000	325.742	80.008	19.996	104.513	19.612	26.134	0.470
502.500	326.042	80.009	19.994	104.520	19.603	26.785	0.482
503.000	326.279	80.009	19.994	104.527	19.599	27.070	0.524
503.500	326.549	80.009	19.994	104.530	19.600	27.020	0.522
504.000	326.805	80.009	19.995	104.533	19.592	27.640	0.516
504.500	327.029	80.008	19.994	104.534	19.588	27.955	0.503
505.000	327.307	80.010	19.995	104.534	19.585	28.165	0.491
505.500	327.536	80.008	19.995	104.533	19.581	28.512	0.505
506.000	327.789	80.010	19.996	104.534	19.574	29.029	0.494
506.500	328.053	80.008	19.994	104.535	19.568	29.464	0.499
507.000	328.261	80.010	19.995	104.537	19.567	29.546	0.494
507.500	328.543	80.009	19.994	104.541	19.559	30.150	0.481
508.000	328.743	80.009	19.994	104.549	19.554	30.512	0.487
508.500	329.051	80.010	19.994	104.556	19.555	30.455	0.495
509.000	329.265	80.009	19.994	104.563	19.545	31.215	0.515
509.500	329.528	80.010	19.994	104.567	19.539	31.667	0.499
510.000	329.768	80.010	19.994	104.572	19.541	31.535	0.490
510.500	330.038	80.011	19.994	104.572	19.536	31.874	0.507
511.000	330.277	80.010	19.994	104.572	19.528	32.508	0.510
511.500	330.477	80.010	19.992	104.572	19.526	32.673	0.474
512.000	330.790	80.009	19.994	104.574	19.516	33.464	0.476
512.500	331.004	80.018	19.994	104.574	19.512	33.771	0.520
513.000	331.244	80.015	19.995	104.575	19.509	33.979	0.490
513.500	331.487	80.012	19.997	104.576	19.505	34.267	0.468
514.000	331.725	80.012	19.995	104.576	19.498	34.808	0.482
514.500	331.980	80.010	19.994	104.576	19.495	35.025	0.487
515.000	332.239	80.011	19.994	104.578	19.488	35.539	0.504
515.500	332.514	80.012	19.995	104.581	19.485	35.817	0.525
516.000	332.760	80.011	19.994	104.583	19.480	36.216	0.528
516.500	332.999	80.010	19.994	104.590	19.468	37.100	0.503
517.000	333.270	80.013	19.994	104.597	19.466	37.259	0.497
517.500	333.512	80.011	19.995	104.601	19.456	38.031	0.511
518.000	333.722	80.012	19.994	104.604	19.458	37.897	0.482
518.501	333.995	80.011	19.994	104.608	19.444	38.891	0.468
519.000	334.252	80.012	19.994	104.604	19.440	39.257	0.507
519.500	334.527	80.012	19.995	104.603	19.433	39.751	0.530
520.000	334.761	80.010	19.994	104.605	19.429	40.081	0.520
520.500	334.983	80.012	19.994	104.606	19.419	40.846	0.483
521.001	335.225	80.011	19.994	104.609	19.414	41.249	0.460
521.500	335.481	80.011	19.994	104.614	19.407	41.792	0.481
522.000	335.703	80.012	19.994	104.615	19.404	41.956	0.488
522.500	335.971	80.012	19.994	104.615	19.394	42.767	0.484
523.000	336.224	80.010	19.995	104.616	19.385	43.455	0.505
523.500	336.468	80.010	19.994	104.618	19.377	44.067	0.509
524.000	336.716	80.010	19.994	104.624	19.374	44.256	0.495
524.500	336.986	80.012	19.995	104.631	19.361	45.271	0.506
525.000	337.210	80.010	19.994	104.638	19.354	45.777	0.506
525.500	337.450	80.009	19.994	104.645	19.342	46.760	0.479
526.000	337.693	80.010	19.995	104.650	19.341	46.789	0.474
526.500	337.961	80.010	19.994	104.652	19.327	47.901	0.497
527.000	338.190	80.011	19.994	104.652	19.318	48.548	0.504
527.500	338.424	80.010	19.995	104.652	19.310	49.130	0.480
528.000	338.735	80.009	19.994	104.651	19.302	49.770	0.504
528.500	338.972	80.010	19.995	104.652	19.297	50.176	0.547
529.000	339.198	80.009	19.994	104.652	19.286	50.992	0.505
529.500	339.435	80.009	19.994	104.660	19.278	51.585	0.463
530.000	339.662	80.009	19.994	104.667	19.266	52.534	0.463
530.500	339.928	80.009	19.994	104.677	19.257	53.216	0.478
531.000	340.178	80.009	19.995	104.684	19.254	53.472	0.505
531.500	340.453	80.009	19.994	104.692	19.241	54.426	0.521
532.000	340.682	80.010	19.995	104.693	19.229	55.369	0.515
532.500	340.911	80.008	19.995	104.695	19.219	56.127	0.481
533.000	341.184	80.011	19.994	104.699	19.209	56.885	0.480
533.500	341.448	80.009	19.994	104.705	19.208	56.948	0.519
534.000	341.701	80.011	19.994	104.709	19.196	57.886	0.527
534.500	341.937	80.011	19.994	104.715	19.184	58.821	0.503
535.000	342.179	80.011	19.994	104.722	19.174	59.558	0.484
535.501	342.435	80.011	19.994	104.725	19.160	60.668	0.488
536.000	342.658	80.010	19.993	104.727	19.151	61.328	0.488
536.500	342.896	80.011	19.994	104.730	19.138	62.305	0.470
537.001	343.156	80.013	19.994	104.731	19.132	62.801	0.480
537.500	343.391	80.012	19.994	104.732	19.120	63.714	0.497
538.000	343.663	80.012	19.995	104.737	19.115	64.101	0.501
538.500	343.859	80.011	19.993	104.742	19.099	65.352	0.487
539.000	344.121	80.013	19.995	104.747	19.086	66.325	0.463
539.500	344.371	80.014	19.993	104.755	19.073	67.287	0.485
540.000	344.617	80.012	19.994	104.761	19.065	67.948	0.504
540.500	344.859	80.012	19.993	104.766	19.049	69.151	0.492
541.000	345.087	80.013	19.994	104.772	19.039	69.928	0.479
541.500	345.342	80.012	19.994	104.779	19.025	70.982	0.476
542.000	345.608	80.013	19.993	104.782	19.012	72.011	0.503
542.500	345.874	80.013	19.994	104.785	19.005	72.545	0.527
543.000	346.102	80.014	19.993	104.790	18.988	73.819	0.513
543.500	346.309	80.012	19.993	104.794	18.973	74.926	0.465
544.000	346.575	80.012	19.993	104.796	18.965	75.610	0.454
544.500	346.852	80.012	19.993	104.801	18.949	76.831	0.508
545.000	347.063	80.012	19.993	104.805	18.938	77.664	0.515
545.500	347.321	80.013	19.994	104.812	18.922	78.892	0.478
546.000	347.571	80.011	19.992	104.819	18.908	79.932	0.488
546.500	347.825	80.011	19.993	104.826	18.892	81.161	0.506
547.000	348.085	80.013	19.992	104.834	18.878	82.260	0.510
547.500	348.342	80.011	19.994	104.841	18.868	83.014	0.516
548.000	348.614	80.012	19.994	104.846	18.855	83.996	0.523
548.500	348.854	80.013	19.994	104.856	18.843	84.940	0.521
549.000	349.059	80.010	19.993	104.864	18.822	86.510	0.479
549.500	349.345	80.010	19.993	104.872	18.812	87.314	0.468
550.000	349.577	80.010	19.995	104.880	18.791	88.955	0.504
550.500	349.849	80.010	19.994	104.885	18.777	90.018	0.511
551.000	350.132	80.010	19.994	104.885	18.762	91.160	0.530
551.500	350.348	80.010	19.993	104.890	18.747	92.264	0.527
552.000	350.624	80.010	19.993	104.892	18.732	93.400	0.495
552.500	350.856	80.010	19.993	104.895	18.717	94.571	0.500
553.000	351.108	80.012	19.993	104.901	18.702	95.759	0.496
553.500	351.377	80.011	19.993	104.909	18.690	96.633	0.502
554.000	351.652	80.011	19.993	104.912	18.674	97.901	0.532
554.500	351.849	80.011	19.993	104.919	18.652	99.558	0.508
555.000	352.142	80.011	19.994	104.929	18.637	100.740	0.481
555.500	352.358	80.011	19.994	104.933	18.616	102.366	0.499
556.000	352.628	80.010	19.994	104.941	18.608	102.934	0.497
556.500	352.919	80.010	19.993	104.949	18.588	104.462	0.524
557.000	353.172	80.009	19.994	104.955	18.569	105.934	0.553
557.500	353.396	80.011	19.993	104.959	18.553	107.159	0.510
558.000	353.649	80.009	19.993	104.965	18.532	108.773	0.477
558.500	353.923	80.010	19.993	104.971	18.521	109.644	0.502
559.000	354.188	80.010	19.995	104.978	18.505	110.906	0.533
559.500	354.432	80.010	19.995	104.985	18.488	112.159	0.524
560.000	354.687	80.011	19.994	104.993	18.464	113.993	0.504
560.500	354.922	80.011	19.992	104.999	18.453	114.849	0.494
561.000	355.183	80.012	19.994	105.002	18.435	116.217	0.493
561.500	355.447	80.009	19.995	105.005	18.416	117.728	0.510
562.000	355.708	80.010	19.993	105.005	18.400	118.933	0.525
562.500	355.946	80.011	19.994	105.007	18.383	120.240	0.512
563.000	356.204	80.010	19.995	105.009	18.368	121.408	0.497
563.500	356.440	80.010	19.994	105.014	18.350	122.721	0.495
564.000	356.665	80.010	19.993	105.020	18.335	123.891	0.478
564.500	356.912	80.012	19.993	105.028	18.320	125.040	0.467
565.000	357.155	80.011	19.994	105.035	18.302	126.447	0.481
565.500	357.413	80.009	19.994	105.047	18.283	127.896	0.495
566.000	357.698	80.010	19.993	105.056	18.268	129.058	0.522
566.500	357.937	80.011	19.994	105.064	18.253	130.225	0.534
567.000	358.214	80.010	19.994	105.071	18.235	131.590	0.520
567.500	358.496	80.012	19.994	105.079	18.214	133.137	0.538
568.000	358.757	80.010	19.993	105.085	18.201	134.174	0.551
568.500	358.971	80.009	19.993	105.090	18.187	135.220	0.509
569.000	359.237	80.010	19.994	105.093	18.170	136.562	0.477
569.500	359.519	80.011	19.995	105.099	18.153	137.842	0.514
570.000	359.760	80.010	19.993	105.105	18.135	139.236	0.536
570.500	360.004	80.012	19.993	105.108	18.122	140.177	0.504
571.000	360.288	80.011	19.993	105.111	18.102	141.752	0.506
571.500	360.534	80.011	19.993	105.117	18.090	142.668	0.529
572.000	360.774	80.009	19.994	105.121	18.069	144.261	0.508
572.500	361.014	80.010	19.994	105.121	18.057	145.140	0.483
573.000	361.309	80.011	19.994	105.125	18.042	146.308	0.507
573.500	361.567	80.011	19.994	105.130	18.028	147.372	0.544
574.000	361.801	80.010	19.993	105.131	18.009	148.784	0.523
574.500	362.052	80.011	19.994	105.132	17.997	149.688	0.488
575.000	362.307	80.011	19.994	105.136	17.981	150.914	0.495
575.500	362.564	80.011	19.993	105.139	17.968	151.942	0.509
576.000	362.837	80.009	19.994	105.142	17.957	152.755	0.521
576.500	363.068	80.011	19.993	105.147	17.944	153.731	0.517
577.000	363.354	80.009	19.995	105.153	17.928	154.943	0.510
577.500	363.640	80.010	19.993	105.156	17.923	155.324	0.544
578.000	363.925	80.012	19.995	105.156	17.908	156.491	0.571
578.500	364.117	80.010	19.994	105.153	17.896	157.411	0.524
579.000	364.415	80.010	19.994	105.151	17.884	158.262	0.483
579.500	364.649	80.011	19.994	105.144	17.879	158.656	0.511
580.000	364.940	80.009	19.994	105.145	17.864	159.781	0.528
580.500	365.204	80.009	19.993	105.146	17.855	160.497	0.540
581.000	365.420	80.010	19.993	105.143	17.848	161.004	0.518
581.500	365.724	80.010	19.994	105.143	17.841	161.516	0.500
582.000	365.995	80.010	19.994	105.146	17.835	161.971	0.547
582.500	366.210	80.009	19.992	105.145	17.826	162.655	0.530
583.000	366.478	80.010	19.993	105.145	17.818	163.207	0.484
583.500	366.760	80.010	19.992	105.144	17.812	163.650	0.517
584.000	367.023	80.009	19.994	105.139	17.812	163.671	0.548
584.500	367.265	80.010	19.994	105.136	17.807	164.016	0.525
585.000	367.527	80.010	19.993	105.128	17.805	164.145	0.504
585.500	367.756	80.009	19.994	105.120	17.803	164.299	0.497
586.000	368.034	80.009	19.994	105.117	17.801	164.385	0.499
586.500	368.315	80.008	19.994	105.115	17.799	164.541	0.534
587.000	368.554	80.010	19.994	105.111	17.797	164.675	0.539
587.500	368.803	80.009	19.995	105.104	17.795	164.820	0.504
588.000	369.062	80.010	19.994	105.099	17.805	164.023	0.498
588.500	369.333	80.008	19.993	105.093	17.805	163.988	0.519
589.000	369.587	80.009	19.994	105.083	17.808	163.737	0.528
589.500	369.875	80.009	19.994	105.077	17.814	163.318	0.533
590.000	370.136	80.010	19.995	105.073	17.816	163.109	0.545
590.500	370.391	80.011	19.994	105.065	17.819	162.898	0.532
591.000	370.658	80.009	19.993	105.057	17.828	162.144	0.519
591.500	370.928	80.010	19.994	105.047	17.836	161.524	0.529
592.000	371.201	80.011	19.993	105.035	17.847	160.720	0.540
592.500	371.467	80.011	19.994	105.023	17.860	159.674	0.541
593.000	371.705	80.010	19.993	105.016	17.867	159.106	0.522
593.500	372.002	80.010	19.993	105.009	17.879	158.144	0.519
594.001	372.257	80.010	19.993	105.003	17.892	157.165	0.544
594.500	372.523	80.011	19.993	105.000	17.905	156.186	0.537
595.000	372.794	80.011	19.994	104.993	17.922	154.845	0.529
595.500	373.074	80.010	19.992	104.985	17.934	153.886	0.544
596.000	373.343	80.011	19.995	104.971	17.950	152.668	0.549
596.500	373.619	80.010	19.993	104.958	17.966	151.468	0.547
597.000	373.870	80.011	19.994	104.939	17.988	149.721	0.537
597.500	374.139	80.011	19.994	104.923	18.002	148.703	0.524
598.000	374.409	80.012	19.992	104.908	18.026	146.785	0.529
598.500	374.678	80.012	19.993	104.896	18.051	144.928	0.539
599.000	374.964	80.013	19.994	104.882	18.070	143.433	0.547
599.500	375.195	80.013	19.994	104.872	18.093	141.670	0.536
600.000	375.459	80.010	19.994	104.864	18.115	139.940	0.506
600.500	375.724	80.011	19.993	104.851	18.140	138.092	0.513
601.000	376.001	80.011	19.992	104.839	18.163	136.318	0.536
601.500	376.287	80.012	19.993	104.828	18.190	134.198	0.553
602.000	376.551	80.012	19.995	104.815	18.218	132.093	0.556
602.500	376.808	80.013	19.994	104.800	18.247	129.859	0.535
603.000	377.092	80.011	19.994	104.790	18.276	127.700	0.531
603.500	377.333	80.010	19.993	104.774	18.308	125.204	0.534
604.000	377.626	80.012	19.995	104.759	18.326	123.852	0.530
604.500	377.860	80.011	19.994	104.745	18.359	121.332	0.531
605.000	378.101	80.012	19.994	104.729	18.390	118.952	0.501
605.500	378.396	80.010	19.994	104.713	18.424	116.356	0.505
606.000	378.677	80.012	19.994	104.703	18.455	114.029	0.556
606.500	378.962	80.012	19.995	104.692	18.487	111.572	0.571
607.000	379.204	80.010	19.993	104.679	18.522	108.933	0.546
607.500	379.497	80.012	19.995	104.671	18.558	106.183	0.531
608.000	379.763	80.010	19.994	104.660	18.591	103.637	0.547
608.500	379.994	80.011	19.994	104.647	18.622	101.322	0.528
609.001	380.281	80.011	19.995	104.628	18.656	98.698	0.508
609.500	380.552	80.012	19.995	104.612	18.688	96.283	0.538
610.000	380.808	80.010	19.993	104.597	18.724	93.496	0.542
610.500	381.080	80.011	19.993	104.584	18.752	91.414	0.527
611.000	381.336	80.011	19.994	104.573	18.791	88.445	0.528
611.500	381.627	80.011	19.994	104.566	18.819	86.293	0.538
612.000	381.872	80.010	19.993	104.557	18.856	83.455	0.541
612.500	382.137	80.012	19.994	104.547	18.887	81.092	0.523
613.000	382.432	80.013	19.994	104.539	18.922	78.499	0.535
613.500	382.712	80.011	19.993	104.529	18.955	75.947	0.568
614.000	382.978	80.013	19.994	104.522	18.989	73.364	0.560
614.500	383.200	80.012	19.994	104.515	19.017	71.204	0.517
615.000	383.466	80.011	19.993	104.509	19.055	68.353	0.488
615.500	383.735	80.012	19.993	104.498	19.086	65.967	0.511
616.000	384.034	80.012	19.993	104.489	19.116	63.711	0.551
616.500	384.300	80.011	19.993	104.479	19.143	61.681	0.566
617.000	384.558	80.010	19.993	104.471	19.174	59.316	0.544
617.500	384.854	80.010	19.994	104.464	19.205	56.986	0.539
618.000	385.083	80.014	19.994	104.459	19.230	55.036	0.540
618.500	385.372	80.011	19.993	104.458	19.256	53.092	0.522
619.000	385.631	80.012	19.993	104.453	19.286	50.791	0.533
619.500	385.904	80.012	19.994	104.447	19.317	48.469	0.540
620.000	386.200	80.013	19.993	104.439	19.344	46.375	0.551
620.500	386.421	80.014	19.993	104.431	19.367	44.639	0.543
621.000	386.726	80.013	19.993	104.422	19.390	42.914	0.521
621.500	386.986	80.012	19.993	104.414	19.420	40.624	0.546
622.000	387.252	80.012	19.995	104.407	19.442	38.985	0.545
622.500	387.524	80.012	19.994	104.407	19.465	37.214	0.532
623.000	387.808	80.013	19.993	104.405	19.486	35.652	0.547
623.500	388.062	80.012	19.994	104.399	19.509	33.894	0.547
624.000	388.336	80.013	19.994	104.395	19.524	32.715	0.533
624.500	388.622	80.010	19.994	104.391	19.546	31.068	0.544
625.000	388.860	80.013	19.994	104.384	19.566	29.523	0.543
625.500	389.120	80.012	19.993	104.378	19.582	28.374	0.511
626.000	389.386	80.012	19.994	104.377	19.603	26.749	0.512
626.500	389.629	80.012	19.993	104.376	19.618	25.636	0.517
627.000	389.881	80.013	19.995	104.373	19.637	24.187	0.502
627.500	390.138	80.011	19.995	104.366	19.650	23.158	0.502
628.000	390.454	80.013	19.994	104.360	19.666	21.944	0.541
628.500	390.723	80.012	19.994	104.354	19.686	20.435	0.579
629.000	390.976	80.012	19.994	104.352	19.702	19.218	0.553
629.500	391.251	80.011	19.994	104.354	19.707	18.841	0.525
630.000	391.488	80.011	19.994	104.354	19.721	17.804	0.520
630.500	391.766	80.011	19.995	104.352	19.734	16.769	0.514
631.000	392.045	80.011	19.994	104.353	19.742	16.167	0.537
631.500	392.288	80.010	19.994	104.350	19.755	15.191	0.540
632.000	392.552	80.011	19.993	104.344	19.765	14.458	0.514
632.500	392.830	80.009	19.995	104.347	19.776	13.584	0.524
633.000	393.096	80.010	19.994	104.354	19.785	12.908	0.543
633.500	393.361	80.010	19.994	104.357	19.796	12.113	0.538
634.000	393.640	80.011	19.995	104.361	19.803	11.570	0.537
634.500	393.898	80.011	19.995	104.367	19.809	11.078	0.540
635.001	394.142	80.010	19.995	104.370	19.812	10.890	0.519
635.500	394.412	80.009	19.994	104.371	19.825	9.934	0.508
636.000	394.685	80.011	19.994	104.373	19.826	9.844	0.529
636.500	394.942	80.010	19.995	104.374	19.830	9.524	0.537
637.000	395.215	80.010	19.994	104.373	19.839	8.865	0.530
637.500	395.506	80.010	19.994	104.372	19.842	8.620	0.547
638.000	395.732	80.010	19.995	104.368	19.846	8.322	0.541
638.500	395.979	80.009	19.994	104.361	19.851	7.918	0.495
639.000	396.281	80.012	19.994	104.353	19.856	7.571	0.511
639.500	396.528	80.010	19.995	104.349	19.857	7.498	0.549
640.001	396.801	80.010	19.994	104.345	19.863	7.016	0.534
640.500	397.076	80.010	19.994	104.344	19.863	6.979	0.534
641.000	397.300	80.011	19.994	104.349	19.870	6.499	0.523
641.500	397.519	80.010	19.993	104.357	19.873	6.251	0.472
642.000	397.800	80.010	19.994	104.363	19.873	6.237	0.472
642.500	398.094	80.009	19.993	104.362	19.879	5.820	0.537
643.000	398.364	80.010	19.994	104.366	19.874	6.188	0.569
643.500	398.653	80.010	19.993	104.369	19.882	5.602	0.562
644.000	398.907	80.009	19.993	104.367	19.880	5.724	0.551
644.500	399.147	80.009	19.995	104.363	19.882	5.544	0.519
645.000	399.394	80.011	19.993	104.362	19.889	5.080	0.490
645.501	399.656	80.011	19.993	104.356	19.889	5.048	0.498
646.000	399.924	80.010	19.993	104.351	19.887	5.184	0.519
646.500	400.198	80.010	19.993	104.348	19.890	4.951	0.536
647.000	400.470	80.011	19.993	104.351	19.889	5.071	0.544
647.500	400.693	80.010	19.993	104.354	19.888	5.152	0.520
648.000	400.968	80.011	19.994	104.356	19.896	4.495	0.496
648.500	401.243	80.011	19.995	104.355	19.893	4.764	0.524
649.000	401.492	80.011	19.993	104.354	19.896	4.520	0.537
649.500	401.755	80.012	19.993	104.351	19.898	4.333	0.518
650.000	402.012	80.011	19.994	104.350	19.898	4.381	0.516
650.500	402.274	80.011	19.993	104.351	19.901	4.125	0.520
651.000	402.502	80.011	19.992	104.356	19.898	4.393	0.505
651.500	402.781	80.010	19.994	104.360	19.898	4.389	0.498
652.000	403.058	80.010	19.994	104.366	19.900	4.202	0.532
652.500	403.321	80.009	19.994	104.367	19.905	3.849	0.548
653.000	403.564	80.011	19.993	104.366	19.907	3.713	0.523
653.501	403.853	80.011	19.993	104.363	19.903	4.007	0.519
654.000	404.077	80.011	19.994	104.361	19.904	3.876	0.523
654.500	404.332	80.012	19.994	104.357	19.908	3.637	0.496
655.000	404.580	80.010	19.993	104.359	19.905	3.847	0.491
655.500	404.836	80.010	19.993	104.363	19.911	3.387	0.503
656.000	405.081	80.010	19.993	104.364	19.904	3.930	0.503
656.500	405.342	80.012	19.993	104.360	19.908	3.618	0.504
657.000	405.598	80.012	19.993	104.359	19.909	3.561	0.512
657.500	405.846	80.009	19.993	104.357	19.903	3.944	0.510
658.000	406.075	80.011	19.993	104.357	19.908	3.611	0.491
658.500	406.365	80.009	19.994	104.361	19.906	3.786	0.498
659.000	406.597	80.009	19.994	104.366	19.906	3.755	0.520
659.500	406.869	80.009	19.994	104.364	19.903	3.948	0.513
660.000	407.106	80.010	19.993	104.362	19.906	3.782	0.507
660.500	407.348	80.011	19.994	104.360	19.905	3.792	0.494
661.000	407.606	80.009	19.993	104.359	19.909	3.534	0.490
661.500	407.857	80.010	19.993	104.358	19.911	3.399	0.505
662.000	408.119	80.010	19.993	104.364	19.909	3.530	0.511
662.500	408.413	80.011	19.993	104.367	19.911	3.397	0.534
663.000	408.681	80.010	19.994	104.367	19.909	3.499	0.559
663.500	408.920	80.009	19.993	104.371	19.912	3.276	0.535
664.000	409.169	80.010	19.994	104.373	19.909	3.510	0.498
664.500	409.406	80.010	19.993	104.371	19.911	3.381	0.487
665.000	409.661	80.008	19.994	104.372	19.912	3.333	0.489
665.500	409.907	80.010	19.993	104.376	19.909	3.547	0.496
666.000	410.154	80.010	19.994	104.374	19.912	3.270	0.497
666.500	410.426	80.010	19.994	104.369	19.910	3.472	0.506
667.000	410.691	80.010	19.993	104.367	19.910	3.451	0.528
667.500	410.950	80.010	19.994	104.368	19.914	3.177	0.531
668.000	411.192	80.011	19.993	104.368	19.906	3.724	0.513
668.500	411.433	80.009	19.994	104.369	19.909	3.530	0.492
669.000	411.702	80.011	19.994	104.369	19.908	3.582	0.497
669.500	411.945	80.010	19.994	104.370	19.912	3.331	0.511
670.000	412.202	80.010	19.994	104.367	19.906	3.755	0.506
670.500	412.420	80.009	19.995	104.363	19.909	3.526	0.488
671.001	412.688	80.010	19.992	104.358	19.911	3.372	0.480
671.500	412.923	80.010	19.993	104.359	19.909	3.510	0.494
672.000	413.195	80.009	19.994	104.360	19.911	3.366	0.505
672.500	413.447	80.011	19.995	104.362	19.911	3.366	0.515
673.000	413.691	80.010	19.994	104.366	19.911	3.403	0.510
673.500	413.942	80.011	19.994	104.370	19.908	3.593	0.496
674.000	414.164	80.009	19.994	104.372	19.906	3.740	0.484
674.501	414.406	80.010	19.994	104.370	19.908	3.571	0.469
675.001	414.635	80.009	19.994	104.373	19.910	3.455	0.467
675.500	414.884	80.012	19.993	104.372	19.916	2.960	0.474
676.000	415.140	80.011	19.994	104.371	19.914	3.126	0.491
676.500	415.368	80.010	19.993	104.373	19.912	3.268	0.495
677.000	415.656	80.012	19.994	104.375	19.912	3.309	0.500
677.500	415.899	80.011	19.994	104.373	19.913	3.224	0.524
678.000	416.113	80.012	19.993	104.374	19.911	3.345	0.494
678.500	416.401	80.012	19.994	104.374	19.912	3.272	0.479
679.000	416.622	80.012	19.994	104.371	19.911	3.393	0.505
679.500	416.873	80.014	19.993	104.368	19.913	3.210	0.491
680.000	417.183	80.011	19.993	104.369	19.908	3.574	0.516
680.500	417.395	80.012	19.993	104.369	19.909	3.522	0.542
681.001	417.628	80.013	19.993	104.370	19.909	3.495	0.484
681.501	417.920	80.012	19.993	104.373	19.912	3.264	0.485
682.000	418.135	80.012	19.992	104.377	19.916	2.981	0.516
682.500	418.402	80.012	19.993	104.378	19.910	3.438	0.495
683.000	418.665	80.012	19.992	104.376	19.913	3.189	0.506
683.500	418.869	80.012	19.993	104.372	19.911	3.390	0.499
684.000	419.118	80.013	19.993	104.369	19.909	3.561	0.460
684.500	419.383	80.012	19.992	104.365	19.914	3.130	0.483
685.000	419.624	80.013	19.993	104.363	19.916	2.999	0.510
685.500	419.880	80.012	19.993	104.358	19.914	3.143	0.502
686.000	420.136	80.013	19.994	104.354	19.908	3.567	0.504
686.500	420.418	80.012	19.994	104.351	19.916	2.972	0.525
687.000	420.610	80.012	19.993	104.349	19.914	3.160	0.506
687.500	420.860	80.013	19.993	104.349	19.915	3.095	0.458
688.000	421.126	80.013	19.994	104.356	19.911	3.343	0.479
688.500	421.370	80.010	19.993	104.361	19.910	3.412	0.513
689.000	421.639	80.012	19.993	104.369	19.911	3.362	0.511
689.500	421.876	80.011	19.994	104.371	19.914	3.180	0.509
690.000	422.120	80.011	19.993	104.367	19.913	3.236	0.493
690.500	422.347	80.012	19.993	104.366	19.915	3.085	0.476
691.000	422.611	80.012	19.995	104.368	19.911	3.396	0.481
691.500	422.868	80.012	19.994	104.363	19.911	3.349	0.506
692.000	423.118	80.011	19.994	104.359	19.912	3.299	0.514
692.500	423.371	80.012	19.994	104.359	19.915	3.037	0.505
693.000	423.607	80.011	19.994	104.355	19.913	3.241	0.497
693.500	423.839	80.011	19.994	104.353	19.912	3.318	0.479
694.000	424.104	80.012	19.994	104.355	19.914	3.151	0.482
694.500	424.362	80.010	19.994	104.354	19.913	3.220	0.510
695.000	424.604	80.011	19.994	104.354	19.914	3.174	0.512
695.500	424.826	80.010	19.994	104.352	19.911	3.399	0.482
696.000	425.087	80.011	19.994	104.352	19.913	3.245	0.473
696.500	425.306	80.009	19.994	104.354	19.916	2.970	0.481
697.000	425.573	80.011	19.996	104.356	19.917	2.931	0.483
697.500	425.832	80.012	19.994	104.358	19.918	2.833	0.506
698.000	426.068	80.013	19.995	104.362	19.916	3.018	0.510
698.500	426.361	80.010	19.993	104.362	19.919	2.729	0.512
699.000	426.607	80.013	19.994	104.362	19.916	3.028	0.534
699.500	426.854	80.011	19.994	104.364	19.915	3.032	0.516
700.000	427.091	80.011	19.994	104.362	19.916	3.018	0.489
700.500	427.333	80.014	19.994	104.358	19.916	3.016	0.482
701.000	427.569	80.012	19.993	104.353	19.915	3.041	0.478
701.500	427.807	80.011	19.994	104.352	19.914	3.168	0.476
702.000	428.062	80.012	19.994	104.349	19.916	2.958	0.484
702.500	428.314	80.012	19.994	104.347	19.916	3.022	0.500
703.000	428.558	80.012	19.993	104.354	19.916	3.029	0.501
703.500	428.801	80.010	19.993	104.357	19.913	3.183	0.492
704.000	429.057	80.011	19.995	104.355	19.914	3.135	0.493
704.500	429.305	80.012	19.994	104.354	19.915	3.033	0.502
705.000	429.558	80.013	19.993	104.361	19.914	3.145	0.502
705.500	429.791	80.012	19.993	104.355	19.915	3.072	0.493
706.000	430.075	80.012	19.994	104.351	19.913	3.184	0.501
706.500	430.307	80.013	19.994	104.351	19.912	3.311	0.517
707.000	430.538	80.013	19.994	104.353	19.913	3.257	0.490
707.500	430.820	80.013	19.993	104.349	19.912	3.274	0.488
708.000	431.041	80.014	19.995	104.348	19.920	2.669	0.508
708.501	431.305	80.014	19.995	104.348	19.914	3.174	0.494
709.000	431.573	80.013	19.994	104.347	19.915	3.101	0.508
709.500	431.781	80.013	19.993	104.344	19.915	3.055	0.504
710.000	432.040	80.013	19.993	104.343	19.916	2.958	0.472
710.500	432.274	80.011	19.993	104.348	19.914	3.166	0.481
711.000	432.575	80.013	19.995	104.351	19.915	3.049	0.514
711.500	432.777	80.013	19.994	104.353	19.912	3.276	0.519
712.000	433.049	80.011	19.992	104.353	19.913	3.257	0.488
712.500	433.306	80.014	19.993	104.353	19.914	3.141	0.502
713.000	433.529	80.012	19.994	104.353	19.915	3.089	0.504
713.500	433.812	80.013	19.993	104.356	19.913	3.201	0.493
714.000	434.052	80.011	19.993	104.357	19.915	3.058	0.515
714.500	434.282	80.011	19.993	104.361	19.915	3.099	0.497
715.000	434.560	80.011	19.993	104.363	19.912	3.266	0.489
715.500	434.801	80.010	19.993	104.361	19.917	2.920	0.513
716.000	435.023	80.011	19.993	104.359	19.917	2.897	0.491
716.500	435.290	80.011	19.994	104.358	19.917	2.945	0.476
717.000	435.519	80.011	19.994	104.354	19.914	3.145	0.493
717.500	435.753	80.008	19.995	104.355	19.916	2.956	0.480
718.000	435.988	80.008	19.993	104.354	19.915	3.097	0.466
718.500	436.240	80.010	19.993	104.351	19.912	3.295	0.478
719.000	436.501	80.010	19.994	104.350	19.915	3.099	0.500
719.500	436.739	80.010	19.993	104.352	19.912	3.299	0.506
720.000	436.989	80.010	19.994	104.350	19.915	3.049	0.493
720.500	437.230	80.010	19.994	104.349	19.914	3.162	0.489
721.000	437.490	80.007	19.995	104.350	19.917	2.916	0.496
721.501	437.718	80.009	19.993	104.349	19.916	2.979	0.495
722.000	437.972	80.008	19.994	104.348	19.918	2.831	0.486
722.500	438.180	80.012	19.993	104.346	19.915	3.082	0.472
723.000	438.458	80.009	19.995	104.346	19.915	3.085	0.474
723.500	438.704	80.009	19.994	104.349	19.914	3.118	0.505
724.000	438.945	80.009	19.994	104.351	19.912	3.307	0.505
724.500	439.215	80.009	19.994	104.351	19.915	3.095	0.499
725.000	439.448	80.010	19.994	104.355	19.915	3.085	0.507
725.500	439.676	80.006	19.994	104.356	19.914	3.141	0.483
726.000	439.915	80.009	19.995	104.352	19.918	2.875	0.464
726.500	440.191	80.010	19.995	104.352	19.911	3.355	0.491
727.000	440.449	80.010	19.994	104.353	19.911	3.385	0.524
727.500	440.658	80.008	19.994	104.352	19.915	3.087	0.501
728.000	440.882	80.009	19.995	104.357	19.915	3.064	0.450
728.500	441.172	80.009	19.994	104.359	19.912	3.318	0.473
729.000	441.423	80.009	19.994	104.355	19.918	2.843	0.527
729.500	441.692	80.008	19.995	104.354	19.912	3.297	0.531
730.000	441.933	80.009	19.994	104.359	19.913	3.247	0.515
730.500	442.164	80.009	19.994	104.359	19.915	3.074	0.491
731.000	442.374	80.008	19.995	104.360	19.916	2.997	0.456
731.500	442.615	80.009	19.994	104.361	19.918	2.841	0.446
732.000	442.870	80.009	19.995	104.363	19.917	2.883	0.473
732.500	443.109	80.010	19.995	104.357	19.918	2.812	0.495
733.000	443.400	80.009	19.994	104.350	19.919	2.802	0.512
733.500	443.615	80.009	19.995	104.349	19.918	2.854	0.518
734.000	443.889	80.009	19.995	104.352	19.917	2.954	0.498
734.500	444.105	80.011	19.995	104.356	19.920	2.686	0.490
735.000	444.368	80.008	19.994	104.362	19.917	2.948	0.485
735.500	444.657	80.010	19.995	104.369	19.917	2.929	0.515
736.000	444.870	80.011	19.994	104.375	19.914	3.112	0.526
736.501	445.128	80.010	19.994	104.372	19.915	3.089	0.486
737.000	445.369	80.009	19.994	104.367	19.913	3.197	0.486
737.500	445.590	80.010	19.994	104.366	19.918	2.833	0.481
738.000	445.831	80.011	19.993	104.365	19.917	2.908	0.462
738.500	446.097	80.010	19.994	104.360	19.919	2.794	0.484
739.000	446.358	80.009	19.993	104.362	19.914	3.164	0.517
739.500	446.602	80.011	19.994	104.359	19.915	3.079	0.516
740.000	446.827	80.011	19.994	104.353	19.915	3.039	0.487
740.501	447.077	80.010	19.994	104.349	19.917	2.915	0.472
741.001	447.343	80.011	19.994	104.351	19.915	3.075	0.496
741.500	447.563	80.009	19.993	104.350	19.915	3.031	0.501
742.000	447.822	80.010	19.993	104.356	19.918	2.860	0.482
742.500	448.063	80.010	19.994	104.360	19.917	2.889	0.489
743.000	448.323	80.010	19.994	104.361	19.913	3.191	0.501
743.500	448.581	80.010	19.994	104.361	19.913	3.201	0.510
744.000	448.825	80.011	19.993	104.366	19.916	2.962	0.510
744.500	449.083	80.010	19.993	104.367	19.915	3.055	0.502
745.000	449.316	80.009	19.993	104.366	19.917	2.939	0.496
745.500	449.581	80.009	19.994	104.368	19.917	2.885	0.495
746.000	449.873	80.010	19.994	104.371	19.915	3.054	0.528
746.500	450.086	80.008	19.995	104.367	19.917	2.950	0.531
747.000	450.352	80.009	19.994	104.362	19.912	3.268	0.491
747.500	450.575	80.010	19.994	104.363	19.918	2.841	0.484
748.000	450.855	80.009	19.994	104.360	19.916	2.968	0.496
748.500	451.083	80.008	19.995	104.357	19.914	3.160	0.506
749.000	451.335	80.009	19.993	104.360	19.917	2.933	0.494
749.500	451.556	80.007	19.994	104.365	19.915	3.093	0.476
750.000	451.804	80.010	19.993	104.368	19.917	2.935	0.471
750.500	452.092	80.010	19.994	104.371	19.916	2.962	0.503
751.000	452.350	80.008	19.994	104.373	19.919	2.781	0.542
751.500	452.577	80.009	19.993	104.371	19.917	2.910	0.516
752.000	452.814	80.007	19.993	104.367	19.915	3.035	0.474
752.500	453.075	80.010	19.995	104.365	19.915	3.052	0.481
753.000	453.321	80.008	19.995	104.367	19.919	2.781	0.503
753.500	453.553	80.010	19.995	104.365	19.914	3.124	0.493
754.000	453.816	80.010	19.995	104.362	19.920	2.654	0.486
754.500	454.076	80.010	19.994	104.359	19.919	2.766	0.508
755.000	454.328	80.009	19.995	104.355	19.921	2.600	0.517
755.500	454.565	80.009	19.993	104.349	19.920	2.716	0.501
756.000	454.832	80.010	19.995	104.349	19.919	2.774	0.497
756.500	455.062	80.009	19.995	104.356	19.920	2.691	0.501
757.000	455.321	80.010	19.993	104.364	19.919	2.764	0.493
757.500	455.552	80.010	19.993	104.365	19.920	2.702	0.489
758.000	455.816	80.010	19.994	104.362	19.924	2.396	0.493
758.500	456.071	80.009	19.995	104.357	19.917	2.947	0.507
759.000	456.322	80.011	19.994	104.355	19.921	2.616	0.513
759.500	456.582	80.009	19.994	104.354	19.920	2.664	0.508
760.000	456.837	80.010	19.993	104.355	19.920	2.700	0.513
760.500	457.034	80.012	19.994	104.355	19.921	2.619	0.484
761.000	457.336	80.012	19.993	104.362	19.922	2.571	0.475
761.500	457.576	80.010	19.994	104.361	19.920	2.681	0.520
762.000	457.841	80.010	19.994	104.360	19.921	2.650	0.524
762.500	458.072	80.011	19.994	104.362	19.921	2.614	0.501
763.000	458.317	80.010	19.994	104.365	19.921	2.579	0.486
763.500	458.585	80.012	19.994	104.360	19.922	2.506	0.494
764.000	458.823	80.011	19.994	104.355	19.923	2.452	0.509
764.500	459.088	80.010	19.994	104.350	19.921	2.646	0.504
765.000	459.341	80.011	19.993	104.345	19.921	2.642	0.510
765.500	459.582	80.010	19.995	104.342	19.921	2.641	0.506
766.000	459.844	80.011	19.994	104.344	19.922	2.519	0.499
766.500	460.111	80.012	19.993	104.344	19.918	2.825	0.516
767.000	460.338	80.012	19.993	104.343	19.919	2.735	0.512
767.500	460.604	80.012	19.994	104.347	19.921	2.644	0.493
768.000	460.877	80.012	19.993	104.347	19.919	2.783	0.516
768.500	461.102	80.011	19.994	104.347	19.919	2.729	0.518
769.000	461.353	80.012	19.994	104.347	19.921	2.602	0.487
769.500	461.600	80.011	19.993	104.348	19.920	2.712	0.487
770.000	461.846	80.011	19.993	104.345	19.920	2.718	0.496
770.500	462.118	80.011	19.994	104.347	19.920	2.725	0.505
771.000	462.393	80.012	19.993	104.349	19.921	2.639	0.533
771.500	462.599	80.012	19.994	104.349	19.918	2.822	0.514
772.000	462.883	80.011	19.993	104.349	19.919	2.741	0.486
772.500	463.134	80.010	19.993	104.350	19.920	2.714	0.512
773.000	463.384	80.013	19.993	104.354	19.920	2.714	0.517
773.500	463.629	80.010	19.994	104.351	19.921	2.596	0.498
774.000	463.883	80.011	19.993	104.352	19.922	2.542	0.497
774.500	464.144	80.011	19.993	104.355	19.919	2.789	0.507
775.000	464.375	80.010	19.993	104.355	19.921	2.617	0.504
775.501	464.639	80.010	19.993	104.351	19.920	2.688	0.494
776.000	464.863	80.012	19.993	104.351	19.921	2.646	0.491
776.500	465.114	80.012	19.992	104.350	19.918	2.829	0.482
777.000	465.398	80.011	19.992	104.352	19.921	2.579	0.505
777.500	465.645	80.010	19.993	104.355	19.924	2.417	0.533
778.000	465.884	80.011	19.992	104.357	19.922	2.571	0.508
778.500	466.133	80.011	19.993	104.357	19.922	2.511	0.487
779.000	466.384	80.010	19.993	104.357	19.923	2.465	0.494
779.500	466.685	80.011	19.992	104.353	19.923	2.448	0.526
780.000	466.899	80.010	19.992	104.348	19.923	2.431	0.534
780.500	467.134	80.011	19.993	104.347	19.927	2.132	0.482
781.000	467.411	80.011	19.992	104.346	19.924	2.413	0.480
781.500	467.633	80.009	19.993	104.345	19.923	2.438	0.505
782.000	467.909	80.012	19.993	104.344	19.925	2.342	0.498
782.500	468.163	80.010	19.994	104.350	19.922	2.525	0.514
783.000	468.407	80.009	19.993	104.353	19.920	2.670	0.514
783.500	468.671	80.010	19.992	104.353	19.921	2.623	0.503
784.000	468.927	80.012	19.992	104.353	19.923	2.438	0.514
784.500	469.150	80.012	19.992	104.357	19.922	2.508	0.499
785.000	469.406	80.012	19.994	104.355	19.923	2.498	0.478
785.500	469.682	80.011	19.993	104.352	19.922	2.525	0.505
786.000	469.952	80.011	19.992	104.356	19.920	2.656	0.539
786.500	470.194	80.012	19.993	104.360	19.921	2.608	0.530
787.000	470.451	80.012	19.993	104.356	19.922	2.536	0.506
787.500	470.708	80.012	19.993	104.355	19.922	2.521	0.507
788.000	471.016	80.013	19.993	104.357	19.923	2.490	0.539
788.500	471.204	80.011	19.993	104.356	19.924	2.373	0.530
789.000	471.465	80.013	19.993	104.355	19.922	2.560	0.472
789.500	471.681	80.012	19.993	104.357	19.924	2.352	0.464
790.000	471.986	80.013	19.993	104.354	19.924	2.348	0.499
790.500	472.230	80.013	19.993	104.350	19.925	2.313	0.535
791.000	472.481	80.013	19.993	104.348	19.919	2.727	0.522
791.500	472.763	80.012	19.993	104.346	19.926	2.248	0.514
792.000	473.047	80.011	19.993	104.345	19.927	2.153	0.549
792.500	473.296	80.011	19.993	104.344	19.928	2.094	0.550
793.000	473.582	80.012	19.993	104.344	19.924	2.415	0.534
793.500	473.847	80.012	19.994	104.345	19.923	2.469	0.543
794.000	474.097	80.013	19.993	104.343	19.924	2.363	0.533
794.500	474.345	80.013	19.993	104.344	19.924	2.404	0.507
795.000	474.615	80.011	19.993	104.346	19.926	2.261	0.508
795.500	474.884	80.011	19.994	104.348	19.923	2.465	0.529
796.000	475.154	80.011	19.994	104.350	19.922	2.506	0.539
796.500	475.352	80.012	19.993	104.351	19.922	2.529	0.503
797.000	475.623	80.010	19.994	104.357	19.923	2.431	0.468
797.500	475.906	80.009	19.994	104.360	19.924	2.413	0.511
798.000	476.185	80.011	19.993	104.361	19.930	1.918	0.558
798.500	476.388	80.012	19.993	104.358	19.928	2.063	0.522
799.000	476.685	80.010	19.993	104.360	19.924	2.415	0.491
799.501	476.896	80.010	19.993	104.353	19.926	2.242	0.504
800.000	477.159	80.012	19.993	104.349	19.927	2.165	0.491
800.500	477.416	80.009	19.994	104.347	19.930	1.928	0.497
801.000	477.643	80.010	19.993	104.348	19.928	2.078	0.502
801.500	477.914	80.010	19.993	104.345	19.927	2.144	0.491
802.000	478.198	80.009	19.994	104.346	19.929	2.005	0.527
802.500	478.462	80.010	19.993	104.345	19.925	2.338	0.551
803.000	478.714	80.010	19.992	104.345	19.926	2.221	0.532
803.500	478.967	80.009	19.994	104.342	19.927	2.121	0.511
804.000	479.212	80.009	19.993	104.342	19.930	1.918	0.501
804.500	479.506	80.010	19.994	104.343	19.930	1.951	0.518
805.000	479.755	80.011	19.993	104.345	19.928	2.107	0.541
805.500	480.038	80.011	19.994	104.346	19.932	1.805	0.538
806.000	480.269	80.010	19.994	104.352	19.929	1.999	0.523
806.500	480.538	80.009	19.993	104.353	19.927	2.161	0.507
807.000	480.810	80.010	19.994	104.354	19.927	2.148	0.521
807.500	481.072	80.011	19.994	104.351	19.930	1.936	0.537
808.000	481.299	80.008	19.993	104.351	19.928	2.092	0.511
808.501	481.553	80.010	19.993	104.345	19.928	2.063	0.485
809.000	481.793	80.010	19.994	104.344	19.930	1.961	0.488
809.500	482.044	80.011	19.993	104.343	19.929	2.001	0.493
810.000	482.326	80.009	19.993	104.342	19.928	2.101	0.512
810.500	482.537	80.009	19.993	104.341	19.927	2.167	0.513
811.000	482.790	80.009	19.993	104.340	19.930	1.915	0.478
811.500	483.107	80.010	19.993	104.339	19.929	1.992	0.517
812.000	483.376	80.009	19.993	104.339	19.932	1.816	0.578
812.501	483.631	80.012	19.994	104.340	19.932	1.791	0.555
813.000	483.880	80.009	19.994	104.342	19.929	2.030	0.514
813.500	484.122	80.009	19.995	104.343	19.930	1.899	0.497
814.000	484.437	80.011	19.994	104.344	19.931	1.818	0.524
814.500	484.678	80.010	19.993	104.348	19.932	1.751	0.557
815.000	484.931	80.011	19.994	104.347	19.933	1.739	0.525
815.500	485.185	80.010	19.994	104.346	19.929	2.015	0.500
816.000	485.460	80.009	19.994	104.346	19.928	2.048	0.517
816.500	485.726	80.011	19.994	104.344	19.928	2.048	0.535
817.000	485.980	80.010	19.993	104.340	19.930	1.907	0.531
817.500	486.235	80.010	19.995	104.340	19.932	1.809	0.514
818.000	486.487	80.009	19.994	104.342	19.931	1.826	0.508
818.500	486.775	80.010	19.995	104.341	19.928	2.073	0.524
819.000	487.022	80.010	19.994	104.345	19.930	1.903	0.538
819.500	487.295	80.010	19.994	104.346	19.929	2.019	0.528
820.000	487.503	80.010	19.994	104.347	19.928	2.049	0.501
820.500	487.775	80.009	19.995	104.345	19.930	1.945	0.480
821.000	488.025	80.010	19.995	104.345	19.927	2.132	0.501
821.500	488.285	80.010	19.994	104.343	19.929	1.976	0.516
822.000	488.556	80.009	19.994	104.344	19.930	1.965	0.520
822.500	488.802	80.009	19.995	104.343	19.931	1.836	0.524
823.000	489.071	80.010	19.995	104.344	19.931	1.874	0.516
823.500	489.332	80.009	19.994	104.342	19.927	2.136	0.522
824.000	489.594	80.012	19.995	104.341	19.928	2.078	0.526
824.500	489.859	80.011	19.996	104.339	19.929	1.988	0.525
825.000	490.113	80.009	19.994	104.339	19.929	2.003	0.523
825.500	490.389	80.010	19.995	104.339	19.933	1.703	0.524
826.000	490.663	80.009	19.995	104.338	19.931	1.880	0.540
826.500	490.893	80.010	19.994	104.338	19.927	2.125	0.527
827.000	491.159	80.010	19.995	104.337	19.929	1.994	0.500
827.500	491.448	80.010	19.996	104.337	19.933	1.710	0.525
828.000	491.697	80.010	19.996	104.337	19.933	1.703	0.546
828.500	491.939	80.009	19.996	104.338	19.936	1.510	0.514
829.000	492.210	80.008	19.994	104.338	19.929	1.988	0.502
829.500	492.500	80.009	19.996	104.339	19.932	1.745	0.538
830.000	492.736	80.010	19.995	104.340	19.931	1.820	0.544
830.500	492.978	80.009	19.995	104.342	19.935	1.531	0.502
831.000	493.242	80.009	19.995	104.343	19.931	1.868	0.491
831.500	493.499	80.010	19.995	104.343	19.928	2.084	0.513
832.000	493.783	80.010	19.994	104.346	19.934	1.662	0.531
832.500	494.017	80.010	19.994	104.345	19.930	1.916	0.530
833.000	494.293	80.010	19.995	104.342	19.930	1.963	0.514
833.500	494.554	80.009	19.994	104.341	19.930	1.901	0.523
834.000	494.840	80.010	19.994	104.341	19.931	1.847	0.542
834.500	495.087	80.010	19.994	104.340	19.936	1.500	0.540
835.000	495.360	80.009	19.994	104.340	19.935	1.539	0.527
835.500	495.592	80.008	19.994	104.340	19.935	1.539	0.513
836.000	495.854	80.009	19.994	104.340	19.932	1.747	0.500
836.500	496.106	80.010	19.993	104.340	19.933	1.689	0.504
837.000	496.355	80.009	19.994	104.341	19.933	1.689	0.508
837.500	496.646	80.009	19.994	104.341	19.932	1.747	0.521
838.000	496.890	80.013	19.994	104.341	19.930	1.965	0.538
838.500	497.147	80.010	19.994	104.342	19.935	1.583	0.518
839.000	497.416	80.009	19.993	104.342	19.932	1.747	0.513
839.500	497.676	80.010	19.994	104.340	19.932	1.749	0.527
840.000	497.936	80.010	19.993	104.341	19.929	1.982	0.524
840.500	498.212	80.010	19.994	104.340	19.931	1.828	0.528
841.000	498.459	80.009	19.994	104.340	19.932	1.810	0.530
841.500	498.733	80.009	19.994	104.340	19.937	1.379	0.522
842.000	499.023	80.012	19.994	104.342	19.934	1.589	0.543
842.500	499.235	80.010	19.993	104.343	19.932	1.778	0.534
843.000	499.520	80.010	19.992	104.344	19.932	1.807	0.500
843.500	499.735	80.009	19.993	104.345	19.934	1.589	0.498
844.000	500.001	80.009	19.993	104.345	19.932	1.774	0.490
844.500	500.315	80.010	19.994	104.344	19.935	1.547	0.531
845.000	500.566	80.011	19.993	104.343	19.937	1.429	0.572
845.500	500.777	80.011	19.993	104.342	19.931	1.836	0.513
846.000	501.065	80.011	19.994	104.342	19.935	1.522	0.480
846.500	501.339	80.010	19.993	104.342	19.935	1.516	0.531
847.000	501.601	80.013	19.993	104.342	19.933	1.735	0.549
847.500	501.853	80.011	19.993	104.342	19.935	1.574	0.525
848.000	502.105	80.011	19.993	104.342	19.933	1.689	0.509
848.500	502.372	80.011	19.993	104.342	19.930	1.903	0.511
849.000	502.657	80.011	19.993	104.341	19.930	1.922	0.535
849.500	502.892	80.011	19.993	104.340	19.930	1.951	0.536
850.000	503.148	80.012	19.994	104.340	19.932	1.770	0.506
850.500	503.402	80.009	19.993	104.344	19.927	2.148	0.501
851.000	503.687	80.013	19.994	104.349	19.929	1.999	0.524
851.500	503.938	80.012	19.992	104.350	19.929	1.974	0.537
852.000	504.195	80.014	19.993	104.349	19.928	2.067	0.522
852.500	504.451	80.011	19.993	104.349	19.927	2.146	0.510
853.000	504.701	80.015	19.994	104.346	19.932	1.801	0.509
853.500	504.950	80.011	19.993	104.342	19.929	1.972	0.503
854.000	505.228	80.010	19.993	104.343	19.930	1.897	0.513
854.500	505.493	80.012	19.993	104.343	19.930	1.967	0.535
855.000	505.738	80.011	19.994	104.344	19.930	1.967	0.526
855.500	506.009	80.011	19.993	104.343	19.931	1.880	0.513
856.000	506.293	80.012	19.993	104.342	19.933	1.672	0.535
856.500	506.511	80.010	19.995	104.341	19.932	1.807	0.528
857.000	506.807	80.012	19.993	104.340	19.931	1.863	0.508
857.500	507.070	80.011	19.993	104.340	19.929	1.970	0.537
858.000	507.327	80.011	19.992	104.341	19.933	1.705	0.539
858.500	507.552	80.012	19.995	104.341	19.933	1.693	0.501
859.000	507.869	80.010	19.992	104.341	19.934	1.662	0.512
859.500	508.093	80.010	19.994	104.342	19.936	1.510	0.541
860.000	508.345	80.011	19.993	104.343	19.935	1.572	0.509
860.500	508.630	80.013	19.994	104.343	19.931	1.832	0.507
861.000	508.909	80.009	19.993	104.344	19.935	1.545	0.551
861.500	509.145	80.011	19.994	104.344	19.933	1.724	0.540
862.000	509.395	80.009	19.993	104.344	19.932	1.793	0.501
862.500	509.662	80.010	19.993	104.344	19.936	1.437	0.501
863.000	509.896	80.010	19.992	104.346	19.932	1.753	0.509
863.500	510.145	80.012	19.994	104.347	19.933	1.732	0.492
864.000	510.449	80.011	19.993	104.346	19.931	1.847	0.519
864.500	510.643	80.011	19.994	104.347	19.929	1.999	0.526
865.000	510.915	80.010	19.993	104.346	19.935	1.576	0.481
865.500	511.154	80.011	19.993	104.345	19.933	1.726	0.488
866.000	511.391	80.010	19.993	104.344	19.930	1.893	0.493
866.500	511.681	80.012	19.993	104.343	19.933	1.672	0.502
867.000	511.909	80.011	19.993	104.343	19.928	2.069	0.523
867.500	512.189	80.012	19.993	104.343	19.933	1.705	0.513
868.000	512.440	80.010	19.994	104.344	19.929	1.988	0.520
868.500	512.702	80.011	19.993	104.344	19.929	1.974	0.522
869.000	512.971	80.010	19.994	104.344	19.930	1.932	0.522
869.500	513.254	80.012	19.993	104.344	19.931	1.884	0.542
870.000	513.522	80.010	19.994	104.344	19.932	1.813	0.552
870.500	513.792	80.013	19.993	104.343	19.930	1.915	0.544
871.000	514.006	80.013	19.993	104.343	19.936	1.512	0.511
871.500	514.283	80.011	19.993	104.342	19.931	1.880	0.488
872.000	514.593	80.012	19.992	104.342	19.932	1.805	0.539
872.500	514.856	80.014	19.994	104.343	19.930	1.920	0.580
873.000	515.096	80.012	19.994	104.343	19.931	1.876	0.538
873.500	515.351	80.012	19.994	104.343	19.932	1.770	0.499
874.000	515.632	80.014	19.994	104.343	19.934	1.664	0.515
874.500	515.891	80.012	19.993	104.341	19.934	1.628	0.538
875.001	516.137	80.013	19.993	104.340	19.934	1.653	0.523
875.500	516.374	80.014	19.994	104.340	19.936	1.439	0.494
876.000	516.663	80.015	19.994	104.339	19.935	1.581	0.504
876.500	516.929	80.013	19.993	104.339	19.936	1.512	0.541
877.000	517.190	80.013	19.994	104.340	19.933	1.722	0.541
877.500	517.420	80.015	19.993	104.339	19.935	1.533	0.509
878.000	517.694	80.013	19.993	104.339	19.937	1.368	0.498
878.500	517.949	80.015	19.992	104.339	19.934	1.589	0.516
879.000	518.219	80.014	19.993	104.339	19.934	1.655	0.527
879.500	518.453	80.013	19.993	104.338	19.935	1.518	0.515
880.000	518.708	80.014	19.993	104.339	19.934	1.591	0.497
880.500	518.958	80.012	19.993	104.339	19.935	1.529	0.497
881.000	519.222	80.013	19.993	104.339	19.934	1.616	0.510
881.500	519.481	80.014	19.993	104.339	19.935	1.576	0.519
882.000	519.746	80.012	19.994	104.339	19.937	1.429	0.523
882.500	519.962	80.013	19.994	104.339	19.935	1.578	0.502
883.000	520.255	80.011	19.994	104.339	19.933	1.687	0.495
883.501	520.489	80.012	19.994	104.338	19.935	1.570	0.518
884.000	520.786	80.011	19.993	104.339	19.936	1.502	0.530
884.500	521.007	80.010	19.993	104.342	19.935	1.568	0.525
885.000	521.288	80.011	19.993	104.343	19.935	1.518	0.510
885.500	521.529	80.010	19.994	104.344	19.936	1.437	0.512
886.000	521.805	80.011	19.993	104.344	19.937	1.371	0.519
886.500	522.080	80.010	19.994	104.342	19.936	1.497	0.534
887.000	522.290	80.011	19.994	104.340	19.938	1.312	0.518
887.500	522.544	80.010	19.993	104.339	19.937	1.408	0.474
888.000	522.825	80.012	19.995	104.342	19.938	1.319	0.499
888.500	523.065	80.009	19.995	104.342	19.937	1.406	0.528
889.000	523.346	80.010	19.994	104.342	19.936	1.472	0.521
889.500	523.629	80.010	19.993	104.341	19.937	1.402	0.542
890.000	523.906	80.011	19.994	104.341	19.938	1.314	0.562
890.500	524.129	80.009	19.994	104.338	19.936	1.489	0.530
891.000	524.365	80.010	19.994	104.338	19.937	1.420	0.479
891.500	524.648	80.011	19.994	104.339	19.938	1.306	0.489
892.000	524.913	80.012	19.993	104.339	19.937	1.383	0.534
892.500	525.124	80.009	19.994	104.339	19.938	1.325	0.512
893.000	525.414	80.007	19.995	104.339	19.935	1.554	0.488
893.500	525.685	80.015	19.993	104.338	19.937	1.433	0.531
894.000	525.903	80.008	19.995	104.340	19.940	1.190	0.525
894.500	526.162	80.014	19.994	104.339	19.938	1.285	0.483
895.000	526.426	80.012	19.994	104.340	19.938	1.308	0.500
895.500	526.704	80.010	19.995	104.341	19.938	1.310	0.532
896.000	526.928	80.012	19.994	104.342	19.939	1.279	0.522
896.500	527.202	80.012	19.994	104.341	19.940	1.140	0.500
897.000	527.461	80.009	19.994	104.342	19.938	1.289	0.515
897.500	527.700	80.014	19.994	104.341	19.938	1.348	0.516
898.000	527.975	80.010	19.994	104.341	19.939	1.269	0.507
898.500	528.244	80.011	19.995	104.342	19.937	1.416	0.529
899.000	528.470	80.009	19.994	104.341	19.940	1.196	0.519
899.500	528.734	80.012	19.994	104.340	19.939	1.250	0.493
900.001	529.013	80.009	19.995	104.341	19.939	1.265	0.517
900.500	529.275	80.010	19.994	104.339	19.939	1.258	0.542
901.000	529.503	80.010	19.994	104.339	19.940	1.196	0.515
901.500	529.766	80.011	19.995	104.339	19.941	1.109	0.490
902.000	530.046	80.010	19.994	104.340	19.939	1.235	0.517
902.500	530.278	80.011	19.994	104.340	19.941	1.119	0.528
903.000	530.546	80.011	19.993	104.340	19.938	1.317	0.506
903.500	530.792	80.010	19.994	104.340	19.941	1.127	0.507
904.000	531.038	80.009	19.995	104.341	19.938	1.306	0.503
904.500	531.303	80.010	19.995	104.343	19.939	1.269	0.501
905.000	531.561	80.008	19.994	104.344	19.941	1.125	0.517
905.500	531.836	80.011	19.993	104.345	19.938	1.285	0.528
906.000	532.067	80.010	19.994	104.347	19.942	0.984	0.519
906.500	532.326	80.011	19.993	104.346	19.942	1.044	0.498
907.000	532.561	80.010	19.994	104.344	19.939	1.244	0.492
907.500	532.802	80.012	19.993	104.343	19.943	0.967	0.486
908.001	533.071	80.010	19.994	104.343	19.938	1.339	0.493
908.500	533.309	80.011	19.994	104.342	19.939	1.242	0.509
909.000	533.566	80.009	19.994	104.343	19.943	0.936	0.501
909.500	533.854	80.011	19.994	104.344	19.942	1.052	0.519
910.000	534.124	80.011	19.994	104.345	19.940	1.181	0.551
910.500	534.362	80.010	19.994	104.346	19.940	1.179	0.533
911.001	534.626	80.010	19.994	104.345	19.942	1.013	0.505
911.500	534.861	80.009	19.994	104.343	19.940	1.169	0.501
912.000	535.106	80.010	19.993	104.343	19.939	1.256	0.490
912.500	535.340	80.011	19.994	104.343	19.942	1.007	0.479
913.000	535.582	80.011	19.993	104.343	19.944	0.903	0.477
913.500	535.873	80.009	19.994	104.344	19.939	1.258	0.504
914.000	536.112	80.009	19.994	104.345	19.939	1.279	0.531
914.500	536.355	80.009	19.994	104.345	19.941	1.065	0.506
915.000	536.617	80.009	19.995	104.346	19.939	1.252	0.494
915.500	536.865	80.010	19.994	104.349	19.938	1.285	0.508
916.000	537.106	80.010	19.996	104.350	19.938	1.306	0.500
916.500	537.365	80.010	19.996	104.350	19.937	1.383	0.495
917.000	537.614	80.009	19.995	104.349	19.941	1.086	0.504
917.501	537.881	80.008	19.996	104.347	19.936	1.508	0.512
918.000	538.129	80.008	19.995	104.345	19.937	1.371	0.515
918.500	538.353	80.005	19.995	104.344	19.938	1.333	0.493
919.000	538.622	80.009	19.995	104.343	19.938	1.302	0.482
919.500	538.909	80.007	19.995	104.343	19.939	1.254	0.525
920.000	539.136	80.009	19.994	104.343	19.937	1.425	0.535
920.500	539.397	80.006	19.994	104.344	19.939	1.271	0.501
921.000	539.642	80.008	19.995	104.343	19.937	1.396	0.497
921.500	539.895	80.010	19.994	104.344	19.941	1.094	0.502
922.000	540.134	80.009	19.996	104.344	19.939	1.275	0.495
922.500	540.365	80.007	19.994	104.343	19.939	1.260	0.481
923.000	540.643	80.009	19.995	104.342	19.936	1.479	0.490
923.500	540.874	80.009	19.995	104.342	19.937	1.406	0.509
924.000	541.177	80.005	19.994	104.341	19.936	1.485	0.521
924.500	541.396	80.009	19.995	104.340	19.940	1.173	0.528
925.000	541.632	80.009	19.993	104.341	19.939	1.258	0.489
925.500	541.909	80.010	19.995	104.342	19.935	1.551	0.484
926.000	542.165	80.010	19.994	104.342	19.938	1.308	0.523
926.500	542.402	80.008	19.994	104.343	19.937	1.423	0.513
927.000	542.645	80.010	19.995	104.344	19.940	1.150	0.486
927.500	542.927	80.008	19.994	104.346	19.938	1.290	0.502
928.000	543.180	80.009	19.994	104.346	19.939	1.242	0.530
928.500	543.442	80.011	19.993	104.346	19.935	1.524	0.525
929.000	543.654	80.012	19.994	104.346	19.939	1.269	0.495
929.500	543.916	80.006	19.995	104.345	19.938	1.308	0.474
930.000	544.168	80.012	19.992	104.343	19.937	1.427	0.494
930.500	544.406	80.010	19.994	104.343	19.935	1.564	0.502
931.000	544.665	80.014	19.993	104.344	19.935	1.520	0.494
931.500	544.926	80.010	19.995	104.344	19.934	1.662	0.508
932.000	545.159	80.011	19.992	104.344	19.937	1.420	0.507
932.501	545.417	80.011	19.994	104.344	19.937	1.377	0.493
933.000	545.687	80.011	19.994	104.343	19.937	1.425	0.510
933.500	545.916	80.011	19.993	104.345	19.938	1.316	0.513
934.000	546.186	80.008	19.995	104.345	19.939	1.217	0.499
934.500	546.455	80.015	19.994	104.345	19.939	1.215	0.519
935.000	546.682	80.012	19.994	104.345	19.940	1.188	0.518
935.500	546.963	80.011	19.993	104.344	19.939	1.254	0.503
936.000	547.198	80.011	19.993	104.341	19.940	1.175	0.512
936.500	547.465	80.010	19.992	104.342	19.938	1.329	0.509
937.000	547.688	80.010	19.995	104.345	19.941	1.090	0.496
937.500	547.966	80.011	19.993	104.346	19.940	1.160	0.495
938.000	548.214	80.013	19.992	104.347	19.939	1.215	0.514
938.500	548.472	80.011	19.994	104.349	19.939	1.258	0.516
939.000	548.725	80.012	19.993	104.347	19.937	1.393	0.508
939.500	548.972	80.011	19.993	104.343	19.937	1.379	0.505
940.000	549.270	80.011	19.992	104.342	19.936	1.487	0.523
940.500	549.493	80.011	19.993	104.341	19.937	1.422	0.533
941.000	549.740	80.011	19.994	104.339	19.940	1.158	0.495
941.500	550.037	80.012	19.993	104.338	19.940	1.152	0.507
942.000	550.241	80.011	19.993	104.339	19.937	1.364	0.523
942.500	550.497	80.012	19.994	104.339	19.936	1.499	0.481
943.000	550.764	80.009	19.993	104.339	19.939	1.252	0.491
943.500	551.019	80.011	19.993	104.339	19.937	1.364	0.522
944.000	551.309	80.012	19.992	104.339	19.937	1.362	0.534
944.500	551.538	80.008	19.995	104.339	19.939	1.271	0.532
945.000	551.785	80.010	19.992	104.339	19.940	1.173	0.498
945.500	552.043	80.012	19.992	104.340	19.940	1.144	0.490
946.000	552.288	80.010	19.993	104.341	19.941	1.131	0.504
946.500	552.555	80.010	19.996	104.341	19.941	1.059	0.508
947.000	552.773	80.009	19.995	104.341	19.937	1.429	0.499
947.500	553.105	80.012	19.994	104.340	19.936	1.458	0.518
948.000	553.305	80.010	19.994	104.340	19.939	1.246	0.541
948.500	553.592	80.011	19.993	104.339	19.941	1.100	0.510
949.000	553.860	80.010	19.994	104.339	19.938	1.285	0.521
949.500	554.137	80.012	19.994	104.339	19.938	1.298	0.550
950.000	554.424	80.012	19.993	104.339	19.938	1.337	0.554
950.500	554.660	80.010	19.994	104.337	19.941	1.115	0.543
951.000	554.905	80.013	19.994	104.337	19.939	1.225	0.502
951.500	555.201	80.011	19.994	104.337	19.940	1.154	0.511
952.000	555.434	80.012	19.994	104.336	19.940	1.146	0.535
952.500	555.677	80.011	19.994	104.337	19.941	1.084	0.502
953.000	555.931	80.013	19.993	104.340	19.940	1.183	0.487
953.500	556.195	80.011	19.994	104.340	19.938	1.291	0.507
954.000	556.442	80.011	19.993	104.341	19.941	1.131	0.514
954.500	556.703	80.010	19.994	104.341	19.940	1.138	0.509
955.000	556.976	80.013	19.993	104.340	19.942	1.034	0.521
955.500	557.241	80.015	19.993	104.339	19.940	1.156	0.537
956.000	557.472	80.012	19.994	104.339	19.939	1.223	0.517
956.500	557.743	80.013	19.992	104.339	19.939	1.283	0.498
957.000	558.014	80.012	19.993	104.339	19.941	1.061	0.522
957.500	558.273	80.012	19.992	104.339	19.940	1.208	0.536
958.001	558.489	80.013	19.994	104.339	19.939	1.229	0.502
958.500	558.774	80.012	19.993	104.338	19.940	1.167	0.488
959.000	559.030	80.012	19.994	104.338	19.940	1.198	0.521
959.500	559.289	80.013	19.994	104.337	19.939	1.283	0.529
960.000	559.590	80.013	19.993	104.337	19.938	1.316	0.538
960.500	559.821	80.013	19.994	104.337	19.942	0.994	0.546
961.000	560.052	80.014	19.993	104.338	19.943	0.980	0.497
961.500	560.330	80.015	19.993	104.340	19.943	0.928	0.485
962.000	560.583	80.014	19.992	104.341	19.937	1.402	0.520
962.500	560.848	80.010	19.995	104.341	19.937	1.371	0.524
963.000	561.085	80.015	19.993	104.340	19.938	1.308	0.510
963.500	561.343	80.012	19.992	104.340	19.938	1.356	0.498
964.000	561.609	80.012	19.993	104.339	19.938	1.285	0.510
964.500	561.841	80.011	19.993	104.340	19.940	1.148	0.511
965.000	562.097	80.012	19.994	104.340	19.940	1.192	0.493
965.500	562.382	80.012	19.993	104.340	19.943	0.980	0.514
966.000	562.653	80.012	19.992	104.341	19.942	1.025	0.548
966.500	562.899	80.012	19.992	104.340	19.944	0.842	0.537
967.000	563.132	80.012	19.993	104.339	19.940	1.158	0.498
967.500	563.412	80.013	19.993	104.339	19.939	1.219	0.496
968.000	563.677	80.012	19.993	104.339	19.942	1.052	0.529
968.500	563.910	80.012	19.993	104.340	19.938	1.310	0.521
969.000	564.178	80.011	19.993	104.339	19.943	0.930	0.500
969.500	564.420	80.011	19.993	104.339	19.943	0.950	0.505
970.000	564.649	80.010	19.994	104.337	19.939	1.235	0.491
970.500	564.921	80.011	19.993	104.336	19.942	1.034	0.487
971.000	565.182	80.011	19.993	104.336	19.943	0.907	0.517
971.500	565.409	80.010	19.993	104.338	19.942	1.000	0.510
972.000	565.681	80.009	19.993	104.339	19.941	1.071	0.494
972.500	565.935	80.011	19.993	104.343	19.939	1.250	0.512
973.000	566.167	80.010	19.994	104.344	19.940	1.202	0.506
973.500	566.473	80.010	19.993	104.345	19.941	1.117	0.512
974.000	566.701	80.012	19.993	104.345	19.937	1.427	0.536
974.500	567.011	80.011	19.993	104.344	19.940	1.196	0.536
975.000	567.239	80.010	19.993	104.342	19.942	1.023	0.538
975.501	567.477	80.008	19.992	104.342	19.938	1.317	0.502
976.001	567.739	80.011	19.993	104.342	19.939	1.229	0.483
976.500	567.949	80.010	19.994	104.343	19.942	1.057	0.486
977.000	568.223	80.008	19.993	104.344	19.940	1.202	0.478
977.500	568.495	80.011	19.994	104.345	19.939	1.237	0.515
978.000	568.776	80.012	19.993	104.345	19.941	1.106	0.550
978.500	569.003	80.010	19.993	104.345	19.939	1.210	0.531
979.000	569.295	80.010	19.993	104.344	19.941	1.100	0.513
979.500	569.550	80.009	19.993	104.345	19.939	1.240	0.533
980.000	569.814	80.008	19.994	104.343	19.943	0.953	0.533
980.500	570.093	80.009	19.994	104.342	19.944	0.905	0.531
981.000	570.318	80.010	19.995	104.342	19.942	1.000	0.524
981.500	570.576	80.011	19.993	104.342	19.942	1.052	0.493
982.000	570.819	80.009	19.993	104.343	19.940	1.159	0.492
982.500	571.054	80.010	19.993	104.345	19.940	1.142	0.490
983.000	571.352	80.010	19.994	104.347	19.943	0.969	0.505
983.500	571.547	80.014	19.995	104.347	19.943	0.932	0.513
984.000	571.854	80.007	19.994	104.348	19.940	1.173	0.498
984.500	572.066	80.009	19.993	104.346	19.938	1.300	0.511
985.000	572.380	80.012	19.994	104.345	19.939	1.277	0.522
985.500	572.632	80.011	19.994	104.344	19.938	1.354	0.546
986.000	572.863	80.012	19.994	104.344	19.939	1.283	0.525
986.500	573.138	80.008	19.993	104.344	19.938	1.302	0.495
987.000	573.405	80.006	19.994	104.343	19.934	1.599	0.524
987.500	573.643	80.007	19.994	104.343	19.938	1.350	0.523
988.000	573.897	80.010	19.993	104.341	19.937	1.389	0.498
988.500	574.126	80.013	19.994	104.341	19.940	1.181	0.487
989.000	574.415	80.011	19.993	104.342	19.939	1.273	0.501
989.500	574.720	80.011	19.994	104.342	19.941	1.069	0.556
990.000	574.983	80.011	19.996	104.341	19.942	0.986	0.581
990.500	575.255	80.011	19.994	104.342	19.939	1.229	0.552
991.000	575.516	80.010	19.994	104.343	19.940	1.165	0.534
991.500	575.779	80.009	19.994	104.343	19.944	0.853	0.529
992.000	576.020	80.007	19.995	104.344	19.943	0.913	0.514
992.500	576.249	80.009	19.994	104.346	19.941	1.113	0.487
993.000	576.509	80.009	19.996	104.351	19.941	1.131	0.480
993.500	576.787	80.012	19.995	104.353	19.940	1.142	0.513
994.000	577.036	80.011	19.995	104.360	19.941	1.075	0.532
994.500	577.282	80.012	19.994	104.360	19.943	0.965	0.511
995.000	577.521	80.011	19.996	104.362	19.942	1.005	0.490
995.500	577.801	80.011	19.994	104.358	19.939	1.231	0.502
996.000	578.044	80.011	19.995	104.354	19.940	1.133	0.521
996.500	578.338	80.009	19.994	104.347	19.941	1.073	0.530
997.000	578.569	80.009	19.993	104.346	19.943	0.928	0.531
997.500	578.827	80.009	19.994	104.343	19.943	0.957	0.507
998.000	579.034	80.012	19.994	104.343	19.941	1.081	0.477
998.500	579.257	80.011	19.994	104.342	19.938	1.312	0.448
999.000	579.535	80.011	19.993	104.342	19.942	0.996	0.466
999.500	579.790	80.010	19.993	104.342	19.942	1.040	0.517
1000.000	580.037	80.009	19.994	104.343	19.943	0.961	0.517
1000.500	580.274	80.011	19.993	104.343	19.942	1.021	0.493
1001.001	580.508	80.008	19.993	104.343	19.942	1.029	0.477
1001.500	580.788	80.009	19.994	104.341	19.944	0.901	0.493
1002.000	581.052	80.009	19.993	104.341	19.942	1.032	0.529
1002.500	581.321	80.009	19.995	104.341	19.943	0.965	0.538
1003.000	581.583	80.008	19.993	104.340	19.942	1.040	0.532
1003.500	581.830	80.012	19.996	104.340	19.937	1.362	0.521
1004.000	582.144	80.009	19.992	104.342	19.943	0.921	0.535
1004.500	582.366	80.012	19.995	104.342	19.941	1.075	0.548
1005.000	582.620	80.008	19.994	104.342	19.941	1.121	0.506
1005.500	582.842	80.010	19.995	104.341	19.942	1.000	0.476
1006.000	583.075	80.011	19.993	104.341	19.941	1.088	0.466
1006.500	583.354	80.010	19.994	104.341	19.946	0.686	0.484
1007.000	583.625	80.009	19.994	104.340	19.943	0.957	0.531
1007.500	583.831	80.010	19.994	104.339	19.942	0.990	0.513
1008.000	584.073	80.010	19.995	104.340	19.940	1.194	0.462
1008.500	584.347	80.011	19.994	104.341	19.944	0.838	0.482
1009.000	584.579	80.009	19.993	104.341	19.943	0.944	0.511
1009.500	584.831	80.009	19.993	104.342	19.946	0.722	0.495
1010.000	585.063	80.011	19.993	104.343	19.942	1.009	0.484
1010.500	585.327	80.013	19.994	104.344	19.942	1.027	0.490
1011.000	585.598	80.012	19.996	104.342	19.939	1.212	0.516
1011.500	585.853	80.010	19.993	104.342	19.942	1.011	0.531
1012.000	586.073	80.013	19.993	104.342	19.943	0.965	0.501
1012.500	586.338	80.010	19.994	104.347	19.945	0.821	0.480
1013.000	586.599	80.010	19.994	104.346	19.943	0.925	0.505
1013.500	586.829	80.010	19.994	104.344	19.943	0.919	0.508
1014.000	587.072	80.012	19.994	104.343	19.942	1.057	0.482
1014.500	587.355	80.011	19.996	104.342	19.941	1.113	0.500
1015.000	587.583	80.010	19.993	104.335	19.940	1.171	0.519
1015.500	587.876	80.013	19.993	104.335	19.941	1.077	0.516
1016.000	588.132	80.011	19.996	104.338	19.943	0.913	0.535
1016.500	588.356	80.012	19.996	104.338	19.942	1.056	0.515
1017.000	588.670	80.013	19.991	104.338	19.942	1.029	0.509
1017.500	588.883	80.012	19.996	104.338	19.942	1.007	0.533
1018.000	589.201	80.013	19.993	104.340	19.939	1.240	0.529
1018.500	589.437	80.012	19.995	104.340	19.944	0.851	0.542
1019.000	589.691	80.012	19.993	104.340	19.942	1.021	0.522
1019.500	589.963	80.009	19.996	104.341	19.942	1.040	0.508
1020.000	590.224	80.011	19.995	104.340	19.941	1.125	0.530
1020.500	590.480	80.012	19.993	104.339	19.942	0.992	0.526
1021.000	590.755	80.011	19.996	104.338	19.943	0.917	0.524
1021.500	591.001	80.010	19.995	104.338	19.941	1.100	0.525
1022.000	591.251	80.010	19.996	104.337	19.940	1.169	0.508
1022.500	591.571	80.011	19.995	104.338	19.941	1.081	0.533
1023.000	591.819	80.012	19.994	104.339	19.945	0.797	0.570
1023.500	592.097	80.013	19.995	104.339	19.942	1.050	0.547
1024.001	592.377	80.013	19.994	104.339	19.940	1.200	0.542
1024.500	592.595	80.011	19.996	104.344	19.941	1.100	0.528
1025.000	592.849	80.011	19.995	104.347	19.940	1.165	0.485
1025.500	593.188	80.010	19.995	104.347	19.941	1.079	0.533
1026.000	593.468	80.012	19.995	104.346	19.939	1.281	0.606
1026.500	593.749	80.010	19.994	104.346	19.939	1.275	0.589
1027.000	594.015	80.009	19.994	104.341	19.938	1.302	0.554
1027.500	594.282	80.013	19.994	104.336	19.940	1.181	0.540
1028.000	594.567	80.012	19.993	104.337	19.940	1.200	0.542
1028.500	594.841	80.015	19.994	104.337	19.940	1.140	0.556
1029.000	595.073	80.010	19.995	104.340	19.943	0.980	0.533
1029.500	595.359	80.012	19.994	104.343	19.940	1.185	0.512
1030.000	595.651	80.016	19.991	104.345	19.941	1.092	0.548
1030.500	595.929	80.011	19.994	104.345	19.940	1.188	0.574
1031.001	596.197	80.008	19.993	104.345	19.939	1.265	0.558
1031.501	596.446	80.013	19.994	104.342	19.942	1.019	0.531
1032.000	596.737	80.010	19.994	104.340	19.943	0.963	0.528
1032.500	597.012	80.013	19.994	104.338	19.941	1.088	0.553
1033.000	597.282	80.011	19.994	104.340	19.943	0.969	0.556
1033.500	597.583	80.014	19.996	104.340	19.941	1.088	0.558
1034.000	597.829	80.009	19.994	104.341	19.939	1.265	0.559
1034.500	598.135	80.013	19.994	104.340	19.937	1.383	0.550
1035.000	598.403	80.011	19.991	104.341	19.940	1.163	0.563
1035.500	598.690	80.012	19.992	104.339	19.940	1.154	0.564
1036.000	598.951	80.011	19.996	104.339	19.940	1.148	0.552
1036.501	599.248	80.013	19.993	104.340	19.941	1.113	0.554
1037.001	599.514	80.020	19.989	104.341	19.939	1.225	0.561
1037.500	599.804	80.012	19.991	104.344	19.938	1.304	0.559
1038.000	600.082	80.011	19.993	104.347	19.940	1.152	0.561
1038.500	600.347	80.011	19.990	104.347	19.937	1.373	0.556
1039.000	600.645	80.015	19.995	104.347	19.941	1.092	0.554
1039.501	600.911	80.011	19.996	104.347	19.941	1.088	0.563
1040.002	601.181	80.008	19.992	104.344	19.935	1.556	0.550
1040.501	601.461	80.008	19.995	104.341	19.939	1.254	0.543
1041.000	601.756	80.015	19.992	104.344	19.940	1.136	0.563
1041.500	602.041	80.004	19.997	104.343	19.942	1.038	0.577
1042.000	602.283	80.010	19.995	104.344	19.940	1.156	0.554
1042.500	602.559	80.010	19.992	104.349	19.938	1.300	0.523
1043.000	602.871	80.012	19.992	104.351	19.936	1.508	0.553
1043.500	603.119	80.013	19.990	104.350	19.942	1.052	0.574
1044.000	603.396	80.010	19.993	104.352	19.939	1.252	0.543
1044.500	603.671	80.010	19.993	104.350	19.941	1.111	0.539
1045.000	603.954	80.009	19.996	104.346	19.941	1.106	0.555
1045.500	604.261	80.013	19.992	104.343	19.938	1.360	0.573
1046.000	604.524	80.015	19.993	104.342	19.940	1.196	0.580
1046.500	604.785	80.007	19.991	104.342	19.939	1.215	0.547
1047.000	605.085	80.014	19.988	104.346	19.941	1.092	0.542
1047.500	605.334	80.008	19.997	104.348	19.942	1.038	0.555
1048.000	605.610	80.007	19.986	104.348	19.942	1.025	0.537
1048.500	605.892	80.007	19.994	104.349	19.941	1.123	0.542
1049.000	606.189	80.008	19.993	104.346	19.942	1.038	0.568
1049.500	606.452	80.013	19.992	104.343	19.944	0.876	0.569
1050.000	606.723	80.010	19.992	104.341	19.940	1.194	0.547
1050.500	607.013	80.009	20.000	104.342	19.939	1.229	0.547
1051.000	607.219	80.011	19.993	104.341	19.938	1.319	0.529
1051.500	607.542	80.005	19.995	104.342	19.937	1.421	0.512
1052.000	607.788	80.010	19.990	104.342	19.939	1.233	0.549
1052.500	608.096	80.010	19.994	104.342	19.937	1.385	0.562
1053.000	608.402	80.011	19.994	104.344	19.941	1.094	0.584
1053.500	608.669	80.015	19.998	104.347	19.936	1.460	0.594
1054.000	608.937	80.008	19.994	104.349	19.939	1.256	0.554
1054.500	609.214	80.008	19.995	104.349	19.941	1.127	0.540
1055.000	609.517	80.009	19.991	104.348	19.942	1.000	0.563
1055.500	609.786	80.009	19.989	104.348	19.939	1.225	0.576
1056.000	610.046	80.011	19.993	104.346	19.940	1.171	0.550
1056.500	610.284	80.008	19.993	104.345	19.941	1.094	0.514
1057.000	610.557	80.009	19.993	104.346	19.941	1.084	0.505
1057.500	610.839	80.012	19.993	104.349	19.942	1.048	0.533
1058.000	611.137	80.010	19.994	104.350	19.941	1.094	0.567
1058.500	611.398	80.010	19.993	104.349	19.942	1.032	0.570
1059.000	611.706	80.010	19.997	104.348	19.937	1.373	0.564
1059.500	611.950	80.009	19.992	104.348	19.942	1.005	0.560
1060.000	612.229	80.010	19.993	104.346	19.945	0.757	0.538
1060.500	612.498	80.009	19.992	104.345	19.943	0.926	0.536
1061.000	612.800	80.008	19.993	104.346	19.942	1.009	0.559
1061.500	613.037	80.005	19.994	104.346	19.942	1.000	0.555
1062.000	613.362	80.013	19.992	104.345	19.942	0.986	0.551
1062.500	613.631	80.010	19.993	104.345	19.942	1.027	0.578
1063.000	613.882	80.005	19.994	104.345	19.941	1.081	0.557
1063.500	614.193	80.011	19.992	104.344	19.940	1.163	0.540
1064.000	614.482	80.010	19.991	104.343	19.940	1.206	0.580
1064.500	614.707	80.001	19.997	104.346	19.942	1.023	0.557
1065.000	614.995	80.005	19.994	104.342	19.940	1.200	0.514
1065.500	615.269	80.008	19.990	104.341	19.940	1.156	0.537
1066.000	615.529	80.009	19.989	104.342	19.939	1.242	0.548
1066.500	615.842	80.006	19.991	104.343	19.940	1.161	0.554
1067.000	616.085	80.011	19.992	104.342	19.942	1.032	0.564
1067.500	616.399	80.014	19.988	104.345	19.941	1.081	0.556
1068.000	616.680	80.009	19.997	104.349	19.942	0.998	0.576
1068.500	616.888	80.013	19.993	104.353	19.939	1.267	0.542
1069.000	617.178	80.009	19.989	104.353	19.941	1.113	0.493
1069.500	617.451	80.017	19.989	104.353	19.943	0.923	0.530
1070.000	617.738	80.011	19.987	104.354	19.942	1.032	0.562
1070.500	618.004	80.017	19.992	104.353	19.942	1.027	0.557
1071.000	618.289	80.007	19.993	104.350	19.941	1.117	0.552
1071.500	618.553	80.013	19.990	104.348	19.938	1.348	0.550
1072.000	618.773	80.006	19.999	104.347	19.940	1.156	0.516
1072.500	619.083	80.017	19.996	104.345	19.940	1.144	0.507
1073.000	619.351	80.012	19.993	104.343	19.938	1.294	0.554
1073.500	619.648	80.011	19.993	104.340	19.941	1.102	0.572
1074.000	619.894	80.011	19.994	104.340	19.942	1.017	0.554
1074.500	620.197	80.009	19.992	104.339	19.940	1.208	0.546
1075.000	620.439	80.008	19.999	104.340	19.937	1.387	0.546
1075.500	620.716	80.013	19.987	104.338	19.940	1.200	0.532
1076.000	620.977	80.013	19.991	104.340	19.941	1.100	0.529
1076.500	621.235	80.012	19.991	104.341	19.940	1.146	0.528
1077.000	621.520	80.012	19.993	104.342	19.944	0.890	0.531
1077.500	621.747	80.010	19.993	104.342	19.943	0.923	0.527
1078.000	622.034	80.008	19.992	104.343	19.942	1.007	0.513
1078.500	622.282	80.011	19.993	104.342	19.943	0.950	0.525
1079.000	622.571	80.011	19.994	104.342	19.941	1.086	0.536
1079.500	622.830	80.005	19.994	104.341	19.943	0.938	0.543
1080.000	623.093	80.010	19.993	104.341	19.942	1.021	0.535
1080.500	623.340	80.010	19.997	104.341	19.944	0.863	0.516
1081.000	623.645	80.013	19.992	104.340	19.944	0.851	0.531
1081.500	623.863	80.006	20.001	104.341	19.943	0.919	0.537
1082.000	624.181	80.010	19.996	104.339	19.942	1.046	0.529
1082.500	624.422	80.013	19.992	104.340	19.940	1.144	0.547
1083.000	624.678	80.006	19.994	104.340	19.942	1.057	0.528
1083.500	624.988	80.013	19.991	104.341	19.938	1.285	0.532
1084.000	625.232	80.016	19.992	104.340	19.942	0.984	0.560
1084.500	625.507	80.015	19.992	104.342	19.942	1.005	0.537
1085.000	625.726	80.005	20.005	104.342	19.944	0.892	0.507
1085.500	626.013	80.005	20.005	104.339	19.942	1.007	0.500
1086.000	626.305	80.009	19.992	104.336	19.943	0.907	0.542
1086.500	626.533	80.011	19.997	104.337	19.940	1.144	0.550
1087.000	626.819	80.015	19.993	104.335	19.945	0.792	0.517
1087.500	627.064	80.008	19.991	104.334	19.942	1.038	0.522
1088.000	627.361	80.011	19.995	104.337	19.942	1.029	0.537
1088.500	627.593	80.009	19.994	104.339	19.941	1.094	0.536
1089.000	627.853	80.009	19.995	104.338	19.940	1.169	0.510
1089.500	628.114	80.016	19.994	104.340	19.941	1.127	0.506
1090.000	628.399	80.009	19.992	104.341	19.943	0.959	0.534
1090.500	628.650	80.008	19.993	104.340	19.941	1.073	0.541
1091.000	628.874	80.009	19.996	104.340	19.942	1.048	0.505
1091.500	629.176	80.014	19.991	104.341	19.942	1.056	0.501
1092.000	629.461	80.008	19.994	104.342	19.940	1.202	0.557
1092.500	629.718	80.013	19.992	104.341	19.942	1.017	0.564
1093.000	629.994	80.015	19.993	104.342	19.941	1.067	0.537
1093.500	630.217	80.011	19.992	104.342	19.943	0.963	0.516
1094.000	630.504	80.012	19.993	104.343	19.946	0.751	0.504
1094.500	630.759	80.026	19.993	104.342	19.945	0.761	0.526
1095.000	631.015	80.011	19.996	104.345	19.944	0.905	0.527
1095.500	631.249	80.008	19.994	104.344	19.947	0.665	0.501
1096.000	631.493	80.002	19.999	104.342	19.941	1.119	0.484
1096.500	631.760	80.012	19.990	104.338	19.943	0.967	0.494
1097.001	632.049	80.009	19.998	104.338	19.941	1.081	0.533
1097.500	632.282	80.006	19.993	104.333	19.943	0.948	0.539
1098.000	632.557	80.013	19.997	104.331	19.940	1.165	0.515
1098.500	632.810	80.002	19.996	104.333	19.941	1.061	0.518
1099.000	633.072	80.011	19.991	104.333	19.940	1.171	0.522
1099.500	633.311	80.012	19.995	104.334	19.943	0.940	0.508
1100.000	633.579	80.012	19.994	104.335	19.945	0.828	0.504
1100.500	633.876	80.006	19.995	104.336	19.940	1.148	0.536
1101.000	634.112	80.009	19.995	104.337	19.942	1.042	0.549
1101.500	634.362	80.017	19.992	104.338	19.942	1.029	0.510
1102.000	634.628	80.017	19.992	104.337	19.943	0.946	0.501
1102.500	634.893	80.005	19.995	104.339	19.943	0.921	0.523
1103.000	635.129	80.013	19.993	104.337	19.943	0.934	0.516
1103.500	635.387	80.012	19.993	104.336	19.942	1.013	0.498
1104.000	635.633	80.012	19.994	104.339	19.945	0.794	0.499
1104.500	635.935	80.016	19.996	104.339	19.944	0.836	0.526
1105.000	636.197	80.014	19.994	104.338	19.944	0.876	0.556
1105.500	636.492	80.008	19.995	104.340	19.947	0.645	0.560
1106.000	636.721	80.000	19.994	104.339	19.946	0.745	0.540
1106.500	636.939	80.010	19.992	104.338	19.944	0.853	0.485
1107.000	637.195	80.002	19.997	104.337	19.946	0.703	0.461
1107.500	637.490	80.008	19.995	104.335	19.946	0.684	0.512
1108.000	637.753	80.014	19.995	104.335	19.944	0.905	0.554
1108.500	637.936	80.007	19.998	104.336	19.948	0.597	0.502
1109.000	638.242	80.007	19.995	104.335	19.945	0.819	0.468
1109.500	638.505	80.020	19.992	104.335	19.945	0.797	0.529
1110.000	638.762	80.015	19.994	104.337	19.942	0.994	0.544
1110.500	639.013	80.020	19.993	104.336	19.945	0.765	0.514
1111.000	639.257	80.018	19.994	104.337	19.943	0.913	0.502
1111.500	639.511	80.011	19.993	104.341	19.945	0.819	0.497
1112.000	639.779	80.018	19.993	104.341	19.945	0.805	0.510
1112.500	640.032	80.006	19.989	104.344	19.944	0.869	0.521
1113.000	640.292	80.006	19.993	104.349	19.943	0.948	0.518
1113.500	640.518	80.009	19.992	104.348	19.944	0.873	0.499
1114.000	640.776	80.011	19.992	104.347	19.946	0.728	0.485
1114.500	641.036	80.010	19.994	104.347	19.946	0.736	0.501
1115.000	641.292	80.013	19.993	104.344	19.947	0.663	0.517
1115.500	641.557	80.010	19.994	104.340	19.949	0.497	0.518
1116.000	641.781	80.008	19.997	104.338	19.948	0.595	0.505
1116.500	642.046	80.012	19.994	104.336	19.949	0.453	0.489
1117.000	642.305	80.013	19.996	104.337	19.945	0.817	0.506
1117.500	642.530	80.009	20.001	104.336	19.947	0.634	0.504
1118.000	642.794	80.009	19.996	104.335	19.950	0.391	0.486
1118.500	643.049	80.012	19.994	104.336	19.950	0.447	0.504
1119.000	643.332	80.013	19.995	104.338	19.946	0.713	0.529
1119.500	643.583	80.011	19.994	104.338	19.948	0.582	0.536
1120.000	643.831	80.013	19.994	104.340	19.947	0.674	0.516
1120.500	644.051	80.013	19.993	104.342	19.948	0.574	0.484
1121.000	644.317	80.013	19.995	104.342	19.943	0.971	0.477
1121.500	644.566	80.012	19.997	104.343	19.946	0.690	0.500
1122.000	644.802	80.012	19.994	104.338	19.943	0.950	0.500
1122.500	645.077	80.012	19.994	104.335	19.945	0.790	0.498
1123.000	645.297	80.012	19.995	104.334	19.947	0.632	0.503
1123.500	645.544	80.009	19.991	104.334	19.947	0.668	0.481
1124.000	645.768	80.015	19.997	104.334	19.947	0.668	0.469
1124.500	646.022	80.010	19.997	104.339	19.946	0.734	0.474
1125.000	646.272	80.017	19.992	104.339	19.946	0.701	0.491
1125.500	646.535	80.013	19.991	104.339	19.945	0.799	0.508
1126.000	646.778	80.014	19.991	104.336	19.948	0.549	0.509
1126.500	646.991	80.012	19.997	104.336	19.950	0.439	0.481
1127.000	647.266	80.010	19.997	104.335	19.948	0.584	0.473
1127.500	647.536	80.010	19.989	104.335	19.949	0.516	0.517
1128.000	647.796	80.021	19.989	104.336	19.947	0.645	0.537
1128.500	648.035	80.015	19.991	104.342	19.947	0.651	0.514
1129.000	648.305	80.014	19.992	104.342	19.949	0.522	0.505
1129.500	648.541	80.012	19.991	104.343	19.948	0.570	0.508
1130.000	648.768	80.012	19.993	104.339	19.946	0.734	0.484
1130.500	649.032	80.013	19.994	104.338	19.945	0.805	0.477
1131.000	649.278	80.015	19.994	104.335	19.942	0.994	0.501
1131.500	649.557	80.011	19.998	104.335	19.948	0.576	0.517
1132.000	649.839	80.019	19.992	104.335	19.945	0.759	0.542
1132.500	650.064	80.011	19.999	104.341	19.949	0.522	0.534
1133.000	650.306	80.016	19.988	104.338	19.944	0.869	0.487
1133.500	650.552	80.020	19.991	104.339	19.943	0.911	0.478
1134.000	650.816	80.013	19.996	104.338	19.948	0.541	0.499
1134.500	651.069	80.017	19.992	104.340	19.945	0.809	0.514
1135.001	651.297	80.009	19.995	104.337	19.946	0.695	0.499
1135.502	651.538	80.016	19.993	104.338	19.946	0.707	0.475
1136.001	651.774	80.004	19.991	104.337	19.949	0.514	0.473
1136.500	652.063	80.009	19.993	104.338	19.945	0.763	0.501
1137.000	652.320	80.012	19.993	104.336	19.947	0.657	0.535
1137.500	652.580	80.005	19.997	104.336	19.948	0.547	0.531
1138.000	652.822	80.017	19.992	104.335	19.948	0.557	0.510
1138.500	653.079	80.006	19.993	104.337	19.950	0.376	0.501
1139.000	653.322	80.015	19.993	104.335	19.957	-0.085	0.499
1139.501	653.606	80.013	19.991	104.336	19.944	0.894	0.514
1140.001	653.822	80.017	19.992	104.334	19.955	0.058	0.514
1140.501	654.073	80.004	19.994	104.331	19.947	0.620	0.484
1141.000	654.330	80.010	19.992	104.328	19.947	0.607	0.487
1141.500	654.551	80.008	19.997	104.325	19.950	0.445	0.493
1142.000	654.816	80.008	19.993	104.324	19.947	0.641	0.482
1142.500	655.072	80.011	19.995	104.325	19.950	0.379	0.504
1143.000	655.329	80.010	19.998	104.329	19.942	0.984	0.517
1143.500	655.576	80.013	19.990	104.330	19.946	0.715	0.509
1144.000	655.845	80.013	19.990	104.334	19.946	0.751	0.510
1144.501	656.049	80.012	19.992	104.337	19.947	0.659	0.494
1145.001	656.321	80.005	19.993	104.339	19.947	0.636	0.475
1145.500	656.541	80.005	19.999	104.338	19.946	0.703	0.485
1146.000	656.830	80.003	19.993	104.336	19.952	0.264	0.501
1146.500	657.097	80.018	19.993	104.333	19.945	0.819	0.532
1147.001	657.310	80.003	19.990	104.331	19.947	0.632	0.518
1147.501	657.601	80.008	19.992	104.330	19.944	0.861	0.492
1148.001	657.828	80.006	19.990	104.331	19.949	0.491	0.511
1148.501	658.054	80.004	19.995	104.334	19.948	0.547	0.485
1149.000	658.307	80.012	19.995	104.337	19.947	0.653	0.466
1149.500	658.598	80.010	19.996	104.334	19.947	0.643	0.512
1150.000	658.813	80.018	19.991	104.332	19.949	0.485	0.525
1150.500	659.060	80.011	19.995	104.332	19.947	0.672	0.484
1151.000	659.339	80.021	19.991	104.332	19.946	0.724	0.494
1151.500	659.580	80.017	19.996	104.335	19.951	0.372	0.523
1152.000	659.843	80.011	19.994	104.339	19.947	0.622	0.512
1152.500	660.103	80.009	19.997	104.341	19.942	1.000	0.514
1153.000	660.293	80.011	19.995	104.341	19.949	0.478	0.487
1153.500	660.583	80.009	19.993	104.342	19.947	0.655	0.465
1154.001	660.808	80.015	19.993	104.339	19.946	0.734	0.497
1154.501	661.082	80.009	19.992	104.337	19.947	0.605	0.507
1155.000	661.344	80.016	19.992	104.338	19.945	0.755	0.518
1155.500	661.567	80.013	19.994	104.335	19.947	0.676	0.511
1156.000	661.905	80.010	19.993	104.335	19.946	0.740	0.523
1156.500	662.094	80.002	20.001	104.334	19.947	0.630	0.544
1157.001	662.373	80.006	19.993	104.334	19.951	0.356	0.497
1157.501	662.679	80.008	19.993	104.332	19.948	0.541	0.526
1158.000	662.822	80.026	19.993	104.336	19.944	0.875	0.517
1158.500	663.084	80.022	19.992	104.338	19.951	0.366	0.428
1159.001	663.348	80.019	19.991	104.342	19.948	0.543	0.466
1159.501	663.573	80.010	19.992	104.345	19.948	0.551	0.507
1160.000	663.874	80.027	19.991	104.344	19.944	0.878	0.507
1160.500	664.109	80.012	19.999	104.348	19.948	0.545	0.531
1161.001	664.303	80.006	20.005	104.345	19.948	0.588	0.483
1161.501	664.539	80.004	20.002	104.337	19.947	0.640	0.430
1162.000	664.848	79.998	19.992	104.334	19.946	0.728	0.488
1162.500	665.075	80.021	19.993	104.332	19.947	0.615	0.540
1163.000	665.321	80.021	19.988	104.329	19.948	0.570	0.505
1163.500	665.572	80.014	19.994	104.334	19.945	0.815	0.485
1164.000	665.840	80.027	19.996	104.339	19.946	0.686	0.508
1164.500	666.148	80.019	19.995	104.342	19.948	0.591	0.548
1165.001	666.330	80.007	19.993	104.346	19.946	0.749	0.533
1165.501	666.561	80.010	19.994	104.343	19.946	0.684	0.452
1166.001	666.863	80.015	19.992	104.337	19.948	0.576	0.473
1166.501	667.068	79.998	19.995	104.338	19.945	0.824	0.520
1167.000	667.309	80.016	19.991	104.336	19.945	0.819	0.476
1167.500	667.598	80.004	19.993	104.336	19.946	0.736	0.488
1168.001	667.848	79.998	19.997	104.338	19.946	0.724	0.535
1168.501	668.066	80.006	19.995	104.339	19.948	0.549	0.504
1169.000	668.291	80.005	19.994	104.333	19.946	0.730	0.455
1169.500	668.592	80.013	19.991	104.334	19.945	0.801	0.484
1170.000	668.765	80.016	19.996	104.332	19.944	0.876	0.500
1170.500	669.008	80.007	19.993	104.329	19.945	0.799	0.445
1171.000	669.266	80.009	19.994	104.331	19.946	0.707	0.458
1171.500	669.578	80.011	19.999	104.328	19.947	0.655	0.535
1172.000	669.817	80.010	19.994	104.322	19.950	0.395	0.561
1172.501	670.031	79.995	19.995	104.323	19.947	0.655	0.503
1173.001	670.290	80.011	19.994	104.322	19.948	0.557	0.463
1173.500	670.526	80.014	19.995	104.322	19.946	0.736	0.483
1174.001	670.840	80.017	19.994	104.329	19.947	0.638	0.522
1174.501	671.011	80.014	19.995	104.339	19.944	0.876	0.518
1175.000	671.299	80.015	19.993	104.339	19.946	0.751	0.472
1175.501	671.524	80.002	19.996	104.343	19.948	0.562	0.486
1176.001	671.768	80.013	19.994	104.341	19.944	0.876	0.492
1176.501	672.000	80.013	19.992	104.340	19.945	0.819	0.473
1177.000	672.277	80.004	19.994	104.338	19.948	0.539	0.492
1177.500	672.531	80.019	19.992	104.339	19.948	0.593	0.520
1178.000	672.757	80.006	19.995	104.340	19.947	0.674	0.506
1178.500	672.993	80.013	19.994	104.343	19.944	0.846	0.471
1179.000	673.279	80.007	19.994	104.343	19.946	0.736	0.492
1179.500	673.574	80.004	19.994	104.343	19.947	0.666	0.552
1180.001	673.776	80.008	19.995	104.342	19.947	0.668	0.539
1180.501	673.992	80.000	19.993	104.338	19.947	0.659	0.457
1181.001	674.274	80.005	19.993	104.337	19.950	0.414	0.458
1181.501	674.445	80.005	20.004	104.335	19.948	0.570	0.475
1182.001	674.750	80.012	19.992	104.332	19.944	0.871	0.465
1182.501	675.018	80.016	19.993	104.333	19.944	0.832	0.525
1183.000	675.250	80.023	19.994	104.336	19.945	0.809	0.536
1183.500	675.483	80.010	19.994	104.338	19.944	0.832	0.482
1184.000	675.742	80.009	19.994	104.341	19.945	0.774	0.479
1184.500	676.016	80.016	19.993	104.343	19.946	0.715	0.513
1185.000	676.230	80.008	19.995	104.342	19.948	0.570	0.511
1185.500	676.530	80.012	19.994	104.340	19.945	0.826	0.501
1186.001	676.742	80.009	19.994	104.339	19.946	0.680	0.513
1186.501	676.997	80.012	19.995	104.340	19.941	1.088	0.489
1187.000	677.223	80.009	19.996	104.340	19.947	0.674	0.474
1187.500	677.461	80.009	19.994	104.339	19.945	0.763	0.473
1188.000	677.717	80.014	19.995	104.340	19.949	0.497	0.478
1188.500	677.931	80.006	19.996	104.342	19.948	0.580	0.482
1189.001	678.205	80.009	19.994	104.338	19.943	0.913	0.479
1189.501	678.447	80.015	19.991	104.339	19.947	0.620	0.502
1190.000	678.712	80.012	19.994	104.340	19.942	0.990	0.511
1190.500	678.942	80.016	19.995	104.340	19.941	1.129	0.501
1191.000	679.191	80.012	19.994	104.340	19.944	0.865	0.488
1191.500	679.446	80.015	19.993	104.341	19.945	0.826	0.492
1192.000	679.701	80.007	19.996	104.342	19.946	0.734	0.507
1192.500	679.916	80.007	19.994	104.341	19.942	1.004	0.490
1193.000	680.180	80.013	19.991	104.339	19.944	0.882	0.475
1193.500	680.414	80.012	19.994	104.339	19.945	0.811	0.488
1194.000	680.679	80.009	19.993	104.340	19.945	0.797	0.498
1194.500	680.938	80.010	19.994	104.340	19.944	0.865	0.511
1195.000	681.159	80.015	19.994	104.341	19.942	1.034	0.502
1195.500	681.395	80.011	19.993	104.344	19.943	0.961	0.468
1196.001	681.653	80.009	19.993	104.344	19.947	0.622	0.476
1196.501	681.874	80.016	19.994	104.341	19.946	0.747	0.487
1197.001	682.129	80.011	19.987	104.341	19.944	0.875	0.478
1197.501	682.359	80.001	19.993	104.342	19.942	1.056	0.480
1198.001	682.643	80.013	19.992	104.340	19.941	1.115	0.499
1198.501	682.869	80.010	19.994	104.340	19.944	0.871	0.512
1199.001	683.110	80.003	19.991	104.341	19.944	0.836	0.489
1199.501	683.344	80.025	19.990	104.336	19.945	0.761	0.471
1200.000	683.597	80.006	19.994	104.335	19.943	0.934	0.481
1200.500	683.802	80.006	19.994	104.337	19.943	0.928	0.472
1201.000	684.109	80.006	19.992	104.336	19.946	0.715	0.485
1201.500	684.346	80.010	19.990	104.337	19.946	0.688	0.528
1202.000	684.651	80.010	19.994	104.342	19.944	0.855	0.543
1202.500	684.788	80.006	19.993	104.340	19.945	0.826	0.492
1203.001	685.061	80.014	19.995	104.339	19.946	0.744	0.427
1203.501	685.318	80.018	19.993	104.339	19.947	0.626	0.470
1204.000	685.622	80.004	19.995	104.339	19.947	0.672	0.546
1204.500	685.881	80.009	19.996	104.336	19.948	0.568	0.562
1205.000	686.071	80.005	19.998	104.336	19.944	0.878	0.506
1205.500	686.366	80.018	19.993	104.333	19.948	0.584	0.467
1206.000	686.616	80.017	19.990	104.330	19.951	0.347	0.515
1206.500	686.816	80.013	19.996	104.325	19.944	0.880	0.498
1207.000	687.082	80.014	19.993	104.324	19.952	0.277	0.458
1207.500	687.300	80.010	20.000	104.324	19.946	0.680	0.475
1208.000	687.577	80.014	19.994	104.326	19.946	0.682	0.490
1208.500	687.822	80.016	19.995	104.328	19.949	0.468	0.508
1209.001	688.038	80.013	19.997	104.332	19.947	0.605	0.491
1209.501	688.312	80.016	19.994	104.334	19.950	0.428	0.476
1210.001	688.580	80.020	19.995	104.333	19.946	0.688	0.517
1210.500	688.800	80.005	19.994	104.336	19.947	0.616	0.515
1211.000	689.037	80.017	19.997	104.335	19.946	0.693	0.472
1211.500	689.342	80.030	19.996	104.335	19.946	0.688	0.499
1212.000	689.549	80.029	20.000	104.337	19.946	0.697	0.527
1212.500	689.782	80.023	20.002	104.337	19.948	0.549	0.476
1213.000	690.061	80.032	19.996	104.333	19.942	1.015	0.476
1213.500	690.301	80.009	19.999	104.335	19.948	0.570	0.516
1214.000	690.540	80.014	19.992	104.334	19.945	0.761	0.499
1214.500	690.802	80.015	19.997	104.334	19.949	0.487	0.490
1215.001	691.053	80.021	19.992	104.334	19.943	0.952	0.507
1215.501	691.300	80.012	19.997	104.338	19.945	0.803	0.506
1216.000	691.528	80.009	19.995	104.334	19.948	0.591	0.487
1216.500	691.798	80.003	19.997	104.333	19.947	0.636	0.486
1217.000	692.018	80.009	19.995	104.330	19.945	0.788	0.494
1217.500	692.288	80.025	19.993	104.330	19.947	0.628	0.490
1218.000	692.516	80.013	19.993	104.333	19.942	1.002	0.494
1218.501	692.776	80.015	19.994	104.337	19.946	0.740	0.493
1219.001	693.043	80.015	19.992	104.339	19.944	0.857	0.507
1219.500	693.246	80.006	19.997	104.342	19.947	0.624	0.498
1220.000	693.554	80.009	19.994	104.341	19.947	0.611	0.490
1220.500	693.799	80.005	19.995	104.338	19.946	0.707	0.532
1221.000	694.007	80.018	19.996	104.336	19.947	0.676	0.504
1221.500	694.274	80.001	19.995	104.335	19.949	0.474	0.464
1222.000	694.549	80.014	19.993	104.333	19.944	0.905	0.508
1222.500	694.815	80.028	19.991	104.335	19.944	0.859	0.542
1223.001	695.044	80.011	19.993	104.338	19.946	0.692	0.518
1223.501	695.313	80.015	19.992	104.339	19.943	0.940	0.496
1224.000	695.540	80.012	19.995	104.341	19.948	0.601	0.497
1224.501	695.810	80.007	19.994	104.342	19.946	0.711	0.496
1225.001	696.054	80.008	19.993	104.341	19.943	0.952	0.505
1225.500	696.304	80.005	20.001	104.338	19.944	0.861	0.504
1226.000	696.565	80.006	19.993	104.336	19.944	0.886	0.503
1226.500	696.821	80.022	19.991	104.335	19.946	0.695	0.514
1227.000	697.061	80.006	19.994	104.338	19.943	0.915	0.506
1227.501	697.318	80.009	19.993	104.338	19.942	1.011	0.497
1228.001	697.553	80.002	19.997	104.338	19.946	0.745	0.495
1228.500	697.768	80.014	19.993	104.336	19.942	1.025	0.471
1229.000	698.047	80.000	19.993	104.336	19.943	0.950	0.472
1229.500	698.308	80.011	19.993	104.331	19.945	0.815	0.517
1230.000	698.576	80.016	19.993	104.330	19.941	1.079	0.534
1230.500	698.860	80.009	19.995	104.330	19.944	0.903	0.541
1231.000	699.024	80.013	19.994	104.330	19.944	0.888	0.500
1231.500	699.280	80.003	19.995	104.330	19.944	0.888	0.434
1232.000	699.565	80.007	19.992	104.330	19.943	0.919	0.480
1232.500	699.831	80.008	19.993	104.330	19.945	0.815	0.546
1233.000	700.054	80.011	19.992	104.331	19.946	0.740	0.520
1233.500	700.305	79.997	19.996	104.335	19.941	1.102	0.481
1234.000	700.552	80.011	19.998	104.333	19.945	0.763	0.486
1234.501	700.818	80.008	19.995	104.335	19.943	0.907	0.506
1235.001	701.064	80.017	19.995	104.334	19.946	0.753	0.512
1235.500	701.325	80.011	19.993	104.335	19.944	0.861	0.509
1236.000	701.547	80.010	19.993	104.334	19.946	0.709	0.496
1236.500	701.790	80.011	19.993	104.337	19.944	0.871	0.474
1237.000	702.054	80.011	19.993	104.337	19.945	0.792	0.486
1237.500	702.197	80.009	19.994	104.340	19.945	0.780	0.457
1238.000	702.531	80.017	19.994	104.339	19.944	0.886	0.442
1238.500	702.749	80.010	19.992	104.339	19.946	0.720	0.514
1239.000	703.028	80.004	19.994	104.339	19.944	0.865	0.524
1239.500	703.255	80.010	19.994	104.338	19.944	0.846	0.502
1240.000	703.501	80.018	19.992	104.337	19.942	1.027	0.489
1240.500	703.742	80.006	19.994	104.341	19.946	0.742	0.479
1241.001	704.013	80.010	19.992	104.338	19.945	0.755	0.499
1241.501	704.244	80.014	19.992	104.339	19.944	0.844	0.507
1242.000	704.496	80.016	19.993	104.342	19.945	0.799	0.493
1242.500	704.729	79.995	19.994	104.345	19.945	0.807	0.484
1243.000	705.015	80.006	19.994	104.339	19.947	0.634	0.502
1243.500	705.188	80.009	19.993	104.342	19.945	0.772	0.490
1244.001	705.443	80.006	19.994	104.341	19.944	0.873	0.443
1244.501	705.715	80.011	19.992	104.339	19.946	0.705	0.477
1245.000	705.953	80.018	19.991	104.340	19.946	0.684	0.518
1245.500	706.197	80.015	19.996	104.348	19.950	0.433	0.496
1246.000	706.438	80.013	19.995	104.349	19.943	0.973	0.484
1246.500	706.623	80.012	19.995	104.350	19.946	0.717	0.455
1247.001	706.899	80.009	19.992	104.350	19.944	0.830	0.444
1247.501	707.102	80.010	19.994	104.348	19.943	0.936	0.470
1248.000	707.375	80.017	19.993	104.341	19.944	0.867	0.477
1248.500	707.653	80.003	19.996	104.337	19.943	0.967	0.514
1249.000	707.896	80.008	19.997	104.334	19.944	0.857	0.536
1249.500	708.125	80.007	19.996	104.333	19.946	0.738	0.496
1250.000	708.336	80.011	19.994	104.334	19.946	0.715	0.456
1250.500	708.601	80.004	19.995	104.336	19.946	0.736	0.458
1251.000	708.863	80.007	19.996	104.335	19.947	0.632	0.501
1251.500	709.076	80.011	19.993	104.337	19.946	0.707	0.501
1252.000	709.339	80.009	19.992	104.339	19.946	0.713	0.476
1252.501	709.542	80.015	19.992	104.337	19.945	0.774	0.471
1253.001	709.797	80.014	19.993	104.335	19.945	0.809	0.462
1253.500	710.008	80.011	19.995	104.336	19.947	0.670	0.462
1254.000	710.230	80.012	19.994	104.334	19.945	0.828	0.449
1254.500	710.521	80.011	19.994	104.334	19.943	0.973	0.473
1255.000	710.785	80.009	19.993	104.335	19.946	0.753	0.534
1255.501	711.029	80.009	19.995	104.336	19.943	0.919	0.531
1256.001	711.259	80.011	19.989	104.336	19.946	0.734	0.491
1256.500	711.477	80.011	19.993	104.339	19.946	0.693	0.461
1257.000	711.787	80.016	19.993	104.338	19.944	0.859	0.488
1257.500	711.967	80.011	19.995	104.339	19.947	0.649	0.509
1258.000	712.239	80.014	19.994	104.340	19.946	0.751	0.471
1258.500	712.451	80.011	19.992	104.338	19.947	0.611	0.468
1259.000	712.691	80.010	19.994	104.338	19.944	0.840	0.468
1259.501	712.951	80.012	19.993	104.339	19.945	0.782	0.476
1260.001	713.190	80.018	19.991	104.338	19.942	1.009	0.499
1260.500	713.407	80.011	19.994	104.340	19.943	0.921	0.477
1261.000	713.705	80.014	19.994	104.342	19.945	0.755	0.486
1261.500	713.897	80.008	19.992	104.343	19.943	0.940	0.503
1262.000	714.165	80.011	19.995	104.343	19.946	0.734	0.475
1262.500	714.405	80.009	19.992	104.343	19.940	1.140	0.484
1263.000	714.675	80.007	19.992	104.340	19.944	0.838	0.509
1263.501	714.925	80.008	19.994	104.341	19.946	0.711	0.515
1264.001	715.194	80.016	19.991	104.341	19.945	0.786	0.520
1264.501	715.423	80.013	19.993	104.344	19.946	0.717	0.508
1265.001	715.720	80.013	19.993	104.344	19.945	0.794	0.512
1265.500	715.959	80.010	19.992	104.347	19.949	0.470	0.531
1266.001	716.239	80.014	19.993	104.346	19.946	0.699	0.528
1266.501	716.471	80.011	19.990	104.348	19.943	0.928	0.516
1267.000	716.699	80.008	19.993	104.343	19.944	0.896	0.486
1267.500	716.948	80.011	19.994	104.342	19.943	0.923	0.468
1268.000	717.183	80.016	19.993	104.341	19.946	0.699	0.480
1268.501	717.430	80.014	19.993	104.342	19.947	0.645	0.483
1269.001	717.648	80.011	19.990	104.341	19.943	0.932	0.474
1269.500	717.905	80.013	19.994	104.342	19.944	0.890	0.471
1270.000	718.171	80.008	19.992	104.343	19.943	0.940	0.499
1270.501	718.429	80.016	19.990	104.342	19.944	0.859	0.523
1271.001	718.688	80.007	19.992	104.340	19.944	0.834	0.521
1271.501	718.886	80.011	19.995	104.339	19.943	0.979	0.487
1272.001	719.145	80.011	19.994	104.338	19.944	0.842	0.457
1272.501	719.412	80.013	19.993	104.339	19.945	0.826	0.491
1273.000	719.647	80.014	19.994	104.339	19.943	0.909	0.514
1273.500	719.897	80.015	19.995	104.341	19.946	0.740	0.493
1274.000	720.146	80.007	19.997	104.341	19.944	0.873	0.492
1274.500	720.377	80.017	19.994	104.336	19.944	0.844	0.490
1275.000	720.655	80.011	19.994	104.335	19.941	1.115	0.495
1275.501	720.879	80.005	19.994	104.334	19.942	1.038	0.506
1276.001	721.176	80.009	19.993	104.333	19.942	0.988	0.511
1276.500	721.447	80.009	19.994	104.333	19.943	0.909	0.545
1277.000	721.644	80.015	19.995	104.339	19.945	0.821	0.518
1277.500	721.915	80.011	19.996	104.340	19.942	0.996	0.468
1278.000	722.167	79.999	19.998	104.337	19.941	1.102	0.495
1278.500	722.401	80.005	20.002	104.335	19.942	0.990	0.505
1279.000	722.683	80.013	19.990	104.332	19.939	1.260	0.501
1279.500	722.928	80.023	19.992	104.332	19.939	1.212	0.521
1280.001	723.196	80.008	19.992	104.329	19.943	0.938	0.520
1280.501	723.465	80.000	19.996	104.331	19.942	1.031	0.525
1281.000	723.687	80.006	19.995	104.329	19.941	1.100	0.514
1281.501	723.911	80.000	19.995	104.331	19.939	1.248	0.469
1282.001	724.187	80.008	19.995	104.328	19.942	1.054	0.473
1282.501	724.445	80.004	19.996	104.330	19.939	1.229	0.517
1283.001	724.661	80.011	19.994	104.328	19.942	0.990	0.504
1283.501	724.923	80.008	19.994	104.331	19.942	1.013	0.476
1284.001	725.198	80.010	19.994	104.332	19.944	0.873	0.507
1284.500	725.465	80.011	19.993	104.334	19.939	1.235	0.540
1285.000	725.690	80.004	19.996	104.334	19.939	1.268	0.517
1285.500	725.929	80.009	19.995	104.336	19.941	1.058	0.478
1286.000	726.185	80.001	19.994	104.333	19.939	1.227	0.480
1286.500	726.481	80.016	19.994	104.331	19.938	1.333	0.524
1287.000	726.731	80.010	19.995	104.331	19.941	1.104	0.549
1287.500	726.981	80.020	19.993	104.328	19.938	1.350	0.523
1288.000	727.229	80.020	19.993	104.328	19.937	1.362	0.499
1288.500	727.481	80.018	19.996	104.333	19.938	1.316	0.499
1289.000	727.728	80.014	19.992	104.333	19.938	1.323	0.499
1289.500	727.957	80.012	19.995	104.331	19.941	1.077	0.488
1290.000	728.239	80.015	19.994	104.334	19.938	1.323	0.493
1290.500	728.451	80.014	19.994	104.330	19.936	1.444	0.502
1291.000	728.717	80.013	19.993	104.327	19.938	1.357	0.486
1291.501	729.011	80.019	19.992	104.330	19.939	1.238	0.519
1292.001	729.244	80.004	19.994	104.334	19.938	1.346	0.543
1292.501	729.499	80.017	19.994	104.332	19.938	1.310	0.508
1293.001	729.811	80.015	19.995	104.340	19.942	1.054	0.528
1293.501	730.021	80.012	19.995	104.341	19.940	1.146	0.544
1294.000	730.257	80.027	19.997	104.339	19.941	1.129	0.484
1294.500	730.548	80.011	19.990	104.337	19.938	1.296	0.487
1295.000	730.821	80.011	19.995	104.338	19.941	1.121	0.545
1295.501	730.997	80.001	19.997	104.334	19.944	0.857	0.507
1296.001	731.314	80.021	19.993	104.329	19.941	1.059	0.471
1296.500	731.532	80.010	19.994	104.332	19.940	1.183	0.514
1297.000	731.788	80.013	19.995	104.328	19.943	0.967	0.505
1297.500	732.061	80.009	19.997	104.326	19.941	1.084	0.502
1298.000	732.296	80.016	19.997	104.325	19.943	0.942	0.518
1298.500	732.558	80.010	19.995	104.328	19.940	1.167	0.502
1299.000	732.818	80.003	19.995	104.324	19.942	1.013	0.509
1299.501	733.098	80.018	19.992	104.328	19.943	0.913	0.531
1300.001	733.353	80.007	19.994	104.333	19.943	0.925	0.538
1300.501	733.585	80.017	19.993	104.347	19.943	0.907	0.511
1301.001	733.862	80.011	19.994	104.364	19.941	1.123	0.498
1301.500	734.118	80.009	19.992	104.378	19.941	1.079	0.521
1302.001	734.366	80.019	19.993	104.385	19.940	1.150	0.519
1302.501	734.585	80.003	19.994	104.387	19.944	0.892	0.486
1303.000	734.880	80.011	19.995	104.376	19.939	1.248	0.490
1303.500	735.138	80.016	19.995	104.359	19.940	1.187	0.533
1304.001	735.388	80.015	19.994	104.348	19.943	0.975	0.531
1304.501	735.618	80.009	19.993	104.342	19.941	1.092	0.494
1305.001	735.875	80.005	19.995	104.338	19.941	1.108	0.483
1305.500	736.136	80.002	19.997	104.338	19.938	1.318	0.502
1306.000	736.383	79.997	19.996	104.338	19.941	1.100	0.513
1306.500	736.686	80.006	19.995	104.335	19.941	1.086	0.530
1307.001	736.908	80.008	19.995	104.335	19.941	1.100	0.538
1307.501	737.181	80.020	19.993	104.335	19.941	1.079	0.510
1308.001	737.439	80.004	19.994	104.337	19.940	1.162	0.513
1308.501	737.704	79.995	19.996	104.337	19.944	0.902	0.527
1309.000	737.991	80.005	19.993	104.336	19.941	1.071	0.537
1309.500	738.215	80.011	19.996	104.337	19.945	0.765	0.531
1310.000	738.447	80.008	19.995	104.338	19.941	1.083	0.483
1310.500	738.698	80.004	19.998	104.337	19.943	0.938	0.470
1311.000	738.995	80.012	19.990	104.333	19.940	1.183	0.516
1311.500	739.229	80.008	19.991	104.337	19.945	0.813	0.540
1312.000	739.502	80.011	19.992	104.337	19.945	0.824	0.519
1312.500	739.715	79.996	19.996	104.339	19.943	0.940	0.496
1313.000	740.012	80.006	19.998	104.334	19.946	0.695	0.498
1313.500	740.247	80.010	19.995	104.339	19.943	0.963	0.520
1314.000	740.465	80.009	19.996	104.338	19.941	1.127	0.492
1314.500	740.709	79.994	19.998	104.337	19.940	1.148	0.458
1315.000	740.967	80.002	20.001	104.331	19.941	1.088	0.482
1315.501	741.236	80.007	19.996	104.334	19.943	0.957	0.515
1316.001	741.534	80.010	19.991	104.334	19.941	1.063	0.547
1316.500	741.741	80.017	19.993	104.334	19.942	1.050	0.536
1317.001	742.007	80.012	19.993	104.331	19.943	0.911	0.489
1317.501	742.267	80.012	19.995	104.331	19.939	1.215	0.499
1318.000	742.521	80.009	19.995	104.325	19.943	0.921	0.520
1318.500	742.750	80.005	19.994	104.316	19.942	1.042	0.499
1319.000	743.004	80.011	19.994	104.307	19.939	1.254	0.483
1319.500	743.244	80.008	19.994	104.303	19.937	1.410	0.488
1320.000	743.543	80.010	19.993	104.301	19.939	1.267	0.517
