Sample ID:	C:\MCC\MCC Cal\Test\PVC_R06_MCC_30K_min_211014_R1.txt
Sample Weight (mg):	4.8
Heating Rate (C/s):	0.5
Combustor Temp (C):	900
N2 Flow Rate (cc/min):	80
O2 Flow Rate (cc/min):	20
Calibration File:	C:\MCC\MCC Cal\Coeff1 JN10440_30_210304.txt.txt
T Correction Coefficients:	0	1.024463	0
Time Shift (s):	14
*
Time (s)	Temperature (C)	N2 flow rate (cc/min)	O2 flow rate (cc/min)	Flow Rate (cc/min)	Oxygen (%)	HRR (W/g)	Heating rate (C/s)
0.000	107.192	79.993	19.998	102.703	20.322	-0.176	0.004
0.500	107.195	79.994	19.996	102.707	20.321	-0.128	-0.005
1.000	107.182	79.995	19.996	102.713	20.318	0.113	-0.007
1.500	107.218	79.996	19.998	102.716	20.316	0.243	0.006
2.000	107.225	79.992	19.999	102.716	20.317	0.154	0.033
2.500	107.216	79.993	19.998	102.712	20.320	-0.048	0.021
3.000	107.229	79.993	19.997	102.709	20.320	-0.056	0.001
3.500	107.193	79.993	19.996	102.709	20.321	-0.113	-0.010
4.000	107.179	79.994	19.996	102.709	20.321	-0.087	-0.037
4.500	107.194	79.995	19.997	102.709	20.319	0.048	-0.024
5.000	107.180	79.994	19.996	102.711	20.319	0.050	0.001
5.500	107.166	79.993	19.996	102.714	20.321	-0.093	-0.014
6.000	107.157	79.994	19.997	102.714	20.319	0.020	-0.026
6.500	107.172	79.993	19.996	102.716	20.319	0.030	-0.008
7.000	107.168	79.992	19.998	102.718	20.314	0.370	0.008
7.500	107.199	79.992	19.996	102.719	20.311	0.532	0.019
8.000	107.181	79.995	19.996	102.720	20.316	0.248	0.021
8.500	107.204	79.992	19.997	102.722	20.316	0.208	0.009
9.000	107.186	79.993	19.997	102.725	20.321	-0.093	0.005
9.500	107.172	79.992	19.995	102.728	20.316	0.191	-0.014
10.000	107.206	79.992	19.997	102.727	20.316	0.221	-0.006
10.500	107.211	79.992	19.996	102.728	20.316	0.191	0.029
11.000	107.221	79.993	19.997	102.726	20.314	0.319	0.027
11.500	107.190	79.991	19.994	102.728	20.315	0.315	-0.003
12.000	107.221	79.993	19.997	102.733	20.310	0.641	-0.011
12.500	107.210	79.993	19.995	102.741	20.316	0.235	0.010
13.000	107.174	79.993	19.997	102.748	20.313	0.400	-0.013
13.500	107.252	79.992	19.997	102.761	20.315	0.293	-0.003
14.000	107.247	79.992	19.997	102.766	20.311	0.552	0.057
14.500	107.275	79.991	19.995	102.768	20.310	0.634	0.048
15.000	107.253	79.992	19.996	102.775	20.310	0.613	0.015
15.500	107.254	79.994	19.996	102.782	20.312	0.508	-0.008
16.000	107.264	79.994	19.995	102.785	20.308	0.721	-0.005
16.500	107.293	79.995	19.996	102.791	20.310	0.650	0.025
17.000	107.257	79.994	19.997	102.796	20.306	0.867	0.016
17.500	107.303	79.994	19.995	102.799	20.309	0.687	0.002
18.000	107.297	79.994	19.996	102.808	20.306	0.864	0.025
18.500	107.356	79.992	19.996	102.816	20.301	1.212	0.046
19.000	107.346	79.995	19.994	102.824	20.306	0.874	0.051
19.500	107.365	79.995	19.995	102.834	20.306	0.910	0.029
20.000	107.412	79.993	19.995	102.847	20.302	1.160	0.038
20.500	107.422	79.995	19.996	102.853	20.303	1.087	0.061
21.000	107.451	79.995	19.995	102.857	20.302	1.147	0.048
21.500	107.449	79.994	19.995	102.857	20.299	1.375	0.033
22.000	107.526	79.994	19.995	102.855	20.300	1.302	0.051
22.500	107.502	79.994	19.998	102.850	20.295	1.651	0.064
23.000	107.575	79.995	19.996	102.846	20.298	1.421	0.051
23.500	107.604	79.992	19.995	102.849	20.294	1.658	0.075
24.000	107.666	79.993	19.996	102.857	20.300	1.295	0.096
24.500	107.665	79.993	19.995	102.865	20.293	1.734	0.076
25.000	107.720	79.994	19.996	102.871	20.301	1.250	0.057
25.500	107.753	79.995	19.997	102.871	20.294	1.719	0.071
26.000	107.803	79.993	19.997	102.863	20.298	1.445	0.086
26.500	107.868	79.993	19.994	102.853	20.292	1.825	0.099
27.000	107.924	79.994	19.996	102.844	20.295	1.627	0.118
27.500	107.928	79.993	19.996	102.841	20.299	1.373	0.090
28.000	108.001	79.994	19.995	102.842	20.293	1.734	0.069
28.500	108.007	79.994	19.996	102.842	20.298	1.406	0.078
29.000	108.092	79.995	19.995	102.840	20.302	1.186	0.085
29.500	108.172	79.994	19.997	102.834	20.299	1.354	0.128
30.000	108.212	79.995	19.996	102.822	20.296	1.584	0.142
30.500	108.250	79.995	19.997	102.811	20.295	1.645	0.099
31.000	108.289	79.994	19.996	102.807	20.304	1.037	0.077
31.500	108.365	79.994	19.998	102.805	20.298	1.388	0.096
32.000	108.439	79.993	19.997	102.810	20.304	1.023	0.133
32.499	108.494	79.994	19.995	102.814	20.296	1.551	0.140
33.000	108.528	79.994	19.996	102.819	20.300	1.306	0.108
33.500	108.636	79.994	19.995	102.817	20.304	1.029	0.116
33.999	108.659	79.996	19.996	102.817	20.299	1.381	0.137
34.499	108.708	79.994	19.995	102.813	20.300	1.266	0.101
34.999	108.749	79.994	19.995	102.810	20.299	1.379	0.080
35.499	108.818	79.993	19.993	102.807	20.303	1.110	0.100
35.999	108.851	79.993	19.998	102.806	20.300	1.272	0.106
36.499	108.905	79.995	19.995	102.804	20.305	0.962	0.095
36.999	108.992	79.994	19.998	102.807	20.301	1.198	0.114
37.499	109.000	79.993	19.995	102.812	20.298	1.426	0.118
38.000	109.111	79.995	19.997	102.815	20.299	1.327	0.107
38.500	109.160	79.995	19.997	102.817	20.301	1.203	0.139
39.000	109.238	79.996	19.996	102.822	20.302	1.155	0.144
39.500	109.281	79.994	19.996	102.824	20.300	1.262	0.125
39.999	109.303	79.996	19.998	102.822	20.302	1.179	0.093
40.499	109.398	79.995	19.996	102.819	20.302	1.172	0.090
40.999	109.462	79.995	19.996	102.820	20.300	1.264	0.137
41.499	109.525	79.995	19.995	102.819	20.300	1.313	0.143
41.999	109.562	79.996	19.996	102.819	20.296	1.526	0.114
42.499	109.627	79.998	19.997	102.823	20.300	1.302	0.101
42.999	109.705	79.995	19.995	102.828	20.298	1.435	0.123
43.499	109.764	79.996	19.994	102.836	20.297	1.465	0.140
44.000	109.849	79.996	19.996	102.845	20.298	1.394	0.140
44.500	109.895	79.996	19.995	102.854	20.294	1.687	0.137
44.999	109.981	79.996	19.996	102.861	20.298	1.389	0.132
45.499	110.019	79.996	19.997	102.869	20.296	1.572	0.128
45.999	110.125	79.995	19.997	102.873	20.300	1.259	0.134
46.499	110.177	79.995	19.993	102.874	20.298	1.420	0.151
46.999	110.239	79.995	19.993	102.874	20.296	1.565	0.136
47.499	110.316	79.998	19.996	102.876	20.292	1.839	0.127
47.999	110.374	79.996	19.996	102.880	20.293	1.752	0.137
48.499	110.488	79.996	19.997	102.885	20.293	1.762	0.154
48.999	110.566	79.996	19.996	102.885	20.293	1.767	0.182
49.499	110.641	79.997	19.996	102.885	20.292	1.802	0.172
49.999	110.702	79.997	19.995	102.882	20.292	1.812	0.145
50.499	110.793	79.996	19.995	102.882	20.288	2.086	0.144
50.999	110.870	79.996	19.997	102.884	20.293	1.734	0.160
51.499	110.947	79.995	19.999	102.891	20.292	1.851	0.161
51.999	111.026	79.995	19.995	102.898	20.290	1.951	0.155
52.499	111.118	79.995	19.998	102.901	20.292	1.795	0.164
53.000	111.228	79.994	19.996	102.901	20.293	1.741	0.187
53.500	111.294	79.996	19.996	102.896	20.293	1.738	0.189
53.999	111.388	79.996	19.997	102.892	20.294	1.719	0.168
54.499	111.499	79.995	19.998	102.893	20.291	1.919	0.182
54.999	111.610	79.993	19.996	102.898	20.289	2.042	0.213
55.499	111.679	79.993	19.997	102.901	20.286	2.235	0.201
55.999	111.772	79.992	19.996	102.908	20.291	1.923	0.171
56.499	111.879	79.994	19.996	102.912	20.289	2.047	0.181
56.999	111.995	79.992	19.996	102.911	20.289	2.005	0.212
57.499	112.039	79.994	19.996	102.910	20.290	1.951	0.191
57.999	112.194	79.992	19.997	102.910	20.290	1.972	0.179
58.499	112.276	79.994	19.996	102.910	20.286	2.250	0.218
58.999	112.368	79.995	19.998	102.909	20.289	2.055	0.205
59.499	112.468	79.992	19.997	102.909	20.291	1.901	0.183
59.999	112.581	79.993	19.998	102.908	20.289	2.033	0.203
60.499	112.677	79.993	19.997	102.906	20.285	2.272	0.211
60.999	112.814	79.992	19.996	102.906	20.286	2.207	0.221
61.499	112.886	79.992	19.996	102.906	20.285	2.281	0.221
61.999	112.963	79.993	19.997	102.906	20.286	2.244	0.179
62.499	113.109	79.993	19.996	102.909	20.287	2.139	0.186
62.999	113.242	79.994	19.996	102.911	20.283	2.410	0.251
63.499	113.335	79.992	19.997	102.911	20.285	2.320	0.253
63.999	113.456	79.992	19.996	102.912	20.284	2.342	0.220
64.499	113.574	79.992	19.997	102.913	20.285	2.266	0.226
64.999	113.665	79.994	19.996	102.916	20.286	2.214	0.224
65.499	113.787	79.993	19.995	102.916	20.288	2.118	0.211
65.999	113.895	79.994	19.996	102.916	20.287	2.161	0.222
66.499	114.066	79.995	19.997	102.916	20.283	2.439	0.255
66.999	114.158	79.994	19.996	102.915	20.284	2.333	0.271
67.499	114.290	79.993	19.996	102.916	20.287	2.131	0.243
67.999	114.408	79.993	19.996	102.919	20.285	2.322	0.237
68.499	114.520	79.994	19.996	102.926	20.287	2.150	0.240
68.999	114.628	79.994	19.996	102.934	20.285	2.276	0.225
69.499	114.757	79.993	19.997	102.938	20.278	2.773	0.229
69.999	114.876	79.993	19.997	102.935	20.284	2.326	0.243
70.500	115.024	79.993	19.996	102.934	20.285	2.289	0.258
71.000	115.180	79.992	19.996	102.930	20.287	2.139	0.286
71.499	115.303	79.992	19.997	102.925	20.282	2.519	0.291
71.999	115.410	79.993	19.996	102.929	20.282	2.462	0.254
72.499	115.553	79.992	19.995	102.935	20.279	2.695	0.240
72.999	115.647	79.992	19.997	102.940	20.287	2.170	0.243
73.499	115.821	79.993	19.997	102.944	20.283	2.430	0.252
73.999	115.938	79.993	19.997	102.942	20.285	2.270	0.280
74.499	116.071	79.993	19.996	102.935	20.284	2.354	0.270
74.999	116.221	79.992	19.997	102.928	20.284	2.352	0.266
75.499	116.357	79.992	19.997	102.928	20.289	2.055	0.284
75.999	116.473	79.991	19.997	102.930	20.281	2.543	0.269
76.499	116.629	79.991	19.997	102.933	20.285	2.321	0.262
76.999	116.758	79.993	19.996	102.935	20.283	2.458	0.278
77.499	116.906	79.992	19.997	102.937	20.283	2.415	0.281
77.999	117.055	79.992	19.997	102.937	20.287	2.165	0.287
78.499	117.210	79.993	19.996	102.932	20.287	2.189	0.300
78.999	117.356	79.991	19.996	102.934	20.286	2.234	0.303
79.499	117.517	79.992	19.997	102.940	20.285	2.300	0.304
79.999	117.666	79.991	19.999	102.944	20.285	2.295	0.308
80.499	117.808	79.992	19.997	102.946	20.284	2.393	0.300
80.999	117.958	79.992	19.996	102.950	20.280	2.605	0.292
81.499	118.109	79.992	19.996	102.951	20.286	2.241	0.297
81.999	118.241	79.991	19.997	102.952	20.285	2.260	0.292
82.499	118.415	79.990	19.996	102.953	20.283	2.441	0.294
82.999	118.560	79.991	19.997	102.953	20.288	2.119	0.313
83.499	118.673	79.992	19.996	102.951	20.284	2.343	0.288
83.999	118.844	79.991	19.997	102.948	20.281	2.555	0.271
84.499	119.043	79.992	19.997	102.947	20.284	2.358	0.327
84.999	119.194	79.992	19.999	102.945	20.286	2.213	0.361
85.499	119.322	79.993	19.997	102.946	20.287	2.161	0.315
85.999	119.506	79.992	19.997	102.947	20.286	2.221	0.295
86.499	119.645	79.990	19.996	102.950	20.284	2.375	0.318
86.999	119.836	79.994	19.997	102.950	20.283	2.449	0.327
87.499	119.975	79.991	19.994	102.951	20.282	2.494	0.330
87.999	120.135	79.992	19.997	102.951	20.285	2.323	0.314
88.499	120.281	79.993	19.997	102.952	20.279	2.693	0.303
88.999	120.453	79.991	19.998	102.952	20.285	2.301	0.312
89.499	120.610	79.990	19.996	102.954	20.283	2.453	0.323
89.999	120.773	79.992	19.996	102.955	20.285	2.293	0.324
90.499	120.931	79.991	19.996	102.955	20.286	2.238	0.320
90.999	121.112	79.991	19.997	102.955	20.282	2.490	0.330
91.499	121.272	79.991	19.995	102.955	20.284	2.369	0.340
91.999	121.477	79.992	19.997	102.956	20.286	2.247	0.353
92.499	121.633	79.991	19.996	102.958	20.284	2.334	0.363
92.999	121.762	79.991	19.995	102.958	20.281	2.564	0.323
93.499	121.962	79.992	19.996	102.959	20.280	2.639	0.307
93.999	122.157	79.992	19.996	102.959	20.284	2.373	0.362
94.499	122.290	79.992	19.995	102.960	20.282	2.479	0.362
94.999	122.452	79.992	19.995	102.960	20.283	2.448	0.311
95.499	122.637	79.993	19.998	102.962	20.284	2.379	0.321
95.999	122.821	79.991	19.997	102.962	20.285	2.277	0.358
96.499	122.987	79.993	19.995	102.962	20.279	2.700	0.359
96.999	123.171	79.992	19.995	102.966	20.279	2.691	0.350
97.499	123.356	79.994	19.996	102.970	20.282	2.507	0.360
97.999	123.564	79.994	19.996	102.974	20.278	2.729	0.381
98.499	123.730	79.995	19.996	102.979	20.279	2.683	0.383
98.999	123.912	79.994	19.997	102.982	20.282	2.479	0.361
99.499	124.079	79.993	19.996	102.983	20.281	2.557	0.348
99.999	124.244	79.995	19.996	102.981	20.283	2.445	0.341
100.499	124.441	79.995	19.995	102.978	20.279	2.666	0.347
101.000	124.611	79.996	19.996	102.977	20.281	2.564	0.364
101.500	124.810	79.993	19.996	102.977	20.281	2.547	0.368
102.000	124.988	79.995	19.995	102.973	20.279	2.672	0.373
102.500	125.190	79.995	19.995	102.974	20.284	2.341	0.378
102.999	125.391	79.994	19.995	102.975	20.280	2.635	0.392
103.499	125.586	79.996	19.996	102.975	20.279	2.688	0.399
103.999	125.740	79.996	19.997	102.976	20.280	2.621	0.372
104.499	125.991	79.994	19.996	102.978	20.279	2.668	0.378
104.999	126.158	79.995	19.996	102.980	20.279	2.707	0.412
105.499	126.331	79.995	19.995	102.982	20.282	2.486	0.378
105.999	126.559	79.994	19.998	102.981	20.283	2.440	0.370
106.499	126.720	79.994	19.995	102.983	20.284	2.371	0.395
106.999	126.919	79.994	19.995	102.981	20.282	2.501	0.375
107.499	127.110	79.994	19.996	102.978	20.280	2.607	0.375
107.999	127.326	79.996	19.996	102.979	20.287	2.191	0.398
108.499	127.519	79.995	19.996	102.977	20.280	2.646	0.408
109.000	127.661	79.994	19.996	102.975	20.280	2.648	0.372
109.500	127.914	79.995	19.996	102.976	20.284	2.336	0.365
109.999	128.082	79.995	19.997	102.976	20.280	2.657	0.408
110.499	128.273	79.995	19.997	102.972	20.287	2.176	0.390
110.999	128.505	79.993	19.996	102.969	20.286	2.258	0.391
111.499	128.706	79.995	19.998	102.966	20.282	2.525	0.428
111.999	128.909	79.994	19.996	102.971	20.279	2.690	0.418
112.499	129.110	79.995	19.997	102.971	20.286	2.236	0.404
112.999	129.307	79.995	19.996	102.971	20.280	2.597	0.402
113.499	129.544	79.994	19.996	102.969	20.279	2.676	0.416
113.999	129.732	79.995	19.996	102.967	20.278	2.752	0.429
114.499	129.973	79.994	19.996	102.963	20.280	2.633	0.427
114.999	130.129	79.995	19.996	102.961	20.280	2.620	0.413
115.499	130.331	79.995	19.996	102.961	20.279	2.689	0.377
115.999	130.571	79.996	19.996	102.964	20.283	2.416	0.400
116.499	130.745	79.994	19.995	102.968	20.281	2.532	0.428
116.999	130.959	79.993	19.996	102.970	20.279	2.694	0.401
117.499	131.149	79.993	19.996	102.971	20.277	2.863	0.396
117.999	131.399	79.993	19.996	102.975	20.277	2.846	0.421
118.499	131.613	79.993	19.995	102.975	20.280	2.597	0.452
118.999	131.847	79.994	19.995	102.971	20.280	2.635	0.457
119.499	132.050	79.997	19.996	102.969	20.282	2.488	0.443
119.999	132.264	79.995	19.995	102.966	20.281	2.592	0.426
120.499	132.471	79.993	19.996	102.961	20.278	2.746	0.419
120.999	132.688	79.999	19.995	102.959	20.280	2.655	0.423
121.499	132.871	79.995	19.995	102.958	20.279	2.726	0.412
122.000	133.087	79.995	19.995	102.960	20.278	2.781	0.399
122.500	133.313	79.994	19.996	102.966	20.278	2.748	0.421
122.999	133.533	79.997	19.995	102.970	20.275	2.974	0.444
123.499	133.744	79.996	19.996	102.970	20.280	2.624	0.439
124.000	133.988	79.997	19.995	102.948	20.280	2.646	0.443
124.500	134.202	79.998	19.997	102.923	20.275	2.965	0.456
124.999	134.379	79.995	19.993	102.904	20.280	2.614	0.425
125.499	134.600	79.997	19.997	102.892	20.276	2.926	0.395
125.999	134.827	79.997	19.997	102.891	20.280	2.607	0.422
126.499	135.041	79.997	19.997	102.915	20.280	2.625	0.444
126.999	135.254	79.997	19.995	102.964	20.284	2.379	0.434
127.499	135.486	79.996	19.996	103.006	20.282	2.499	0.436
127.999	135.674	79.998	19.994	103.026	20.284	2.353	0.432
128.500	135.898	79.994	19.994	103.033	20.281	2.535	0.416
129.000	136.119	79.994	19.995	103.038	20.285	2.275	0.428
129.500	136.370	79.995	19.994	103.013	20.283	2.403	0.459
130.000	136.598	79.996	19.994	102.989	20.282	2.468	0.476
130.500	136.832	79.995	19.995	102.983	20.283	2.427	0.470
131.000	137.058	79.996	19.993	102.977	20.279	2.683	0.461
131.500	137.268	79.995	19.996	102.975	20.279	2.673	0.448
132.000	137.491	79.994	19.994	102.977	20.279	2.711	0.435
132.500	137.704	79.995	19.996	102.974	20.282	2.486	0.435
133.000	137.907	79.996	19.995	102.973	20.286	2.223	0.426
133.500	138.154	79.993	19.994	102.977	20.285	2.325	0.433
134.000	138.364	79.994	19.999	102.977	20.285	2.295	0.454
134.500	138.642	79.995	19.994	102.973	20.283	2.432	0.473
135.000	138.863	79.994	19.996	102.975	20.283	2.458	0.493
135.500	139.070	79.995	19.998	102.976	20.279	2.701	0.463
136.000	139.290	79.992	19.993	102.972	20.284	2.367	0.427
136.500	139.539	79.994	19.995	102.971	20.283	2.417	0.447
137.000	139.743	79.995	19.997	102.972	20.279	2.688	0.461
137.500	139.980	79.994	19.995	102.972	20.282	2.525	0.447
138.000	140.229	79.992	19.998	102.973	20.279	2.694	0.464
138.500	140.431	79.994	19.996	102.975	20.282	2.497	0.469
139.000	140.694	79.996	19.998	102.977	20.277	2.852	0.458
139.500	140.905	79.992	19.997	102.979	20.280	2.596	0.469
140.000	141.156	79.995	19.997	102.980	20.280	2.607	0.468
140.500	141.389	79.993	19.997	102.978	20.284	2.375	0.473
141.000	141.602	79.992	19.997	102.974	20.276	2.900	0.465
141.500	141.862	79.995	19.998	102.972	20.280	2.614	0.459
142.000	142.056	79.995	19.997	102.967	20.285	2.264	0.464
142.500	142.294	79.994	19.997	102.963	20.282	2.462	0.443
143.000	142.574	79.994	19.998	102.966	20.286	2.236	0.475
143.500	142.819	79.995	19.997	102.967	20.283	2.454	0.521
144.000	143.012	79.994	19.996	102.966	20.279	2.698	0.481
144.500	143.269	79.994	19.994	102.965	20.285	2.280	0.444
145.000	143.511	79.993	19.998	102.964	20.284	2.373	0.475
145.500	143.751	79.989	19.996	102.958	20.283	2.461	0.491
146.000	143.974	79.993	19.997	102.959	20.278	2.771	0.472
146.500	144.215	79.991	19.996	102.957	20.282	2.520	0.463
147.000	144.507	79.992	19.999	102.959	20.277	2.823	0.499
147.500	144.698	79.994	19.997	102.960	20.283	2.461	0.508
148.000	144.968	79.994	19.996	102.960	20.286	2.238	0.472
148.500	145.201	79.995	19.995	102.963	20.282	2.468	0.482
149.000	145.403	79.992	19.997	102.967	20.282	2.473	0.469
149.500	145.685	79.995	19.995	102.966	20.285	2.297	0.459
150.000	145.900	79.994	19.997	102.971	20.283	2.395	0.490
150.500	146.157	79.994	19.998	102.978	20.286	2.197	0.485
151.000	146.390	79.993	19.998	102.978	20.285	2.299	0.481
151.500	146.633	79.992	19.996	102.978	20.286	2.193	0.483
152.000	146.841	79.993	19.996	102.980	20.282	2.505	0.463
152.500	147.094	79.992	19.995	102.974	20.283	2.434	0.456
153.000	147.355	79.993	19.995	102.968	20.282	2.495	0.488
153.500	147.585	79.994	19.994	102.963	20.282	2.505	0.502
154.000	147.794	79.993	19.996	102.961	20.284	2.332	0.465
154.500	148.047	79.994	19.994	102.962	20.287	2.167	0.450
155.000	148.275	79.994	19.996	102.968	20.286	2.217	0.471
155.500	148.535	79.992	19.996	102.973	20.287	2.146	0.485
156.000	148.765	79.992	19.993	102.980	20.281	2.588	0.489
156.500	149.064	79.992	19.996	102.985	20.286	2.226	0.509
157.000	149.265	79.993	19.997	102.989	20.287	2.150	0.514
157.500	149.506	79.993	19.996	102.989	20.289	2.056	0.472
158.000	149.786	79.993	19.995	102.987	20.283	2.436	0.482
158.500	150.009	79.991	19.995	102.985	20.284	2.377	0.512
159.000	150.287	79.992	19.997	102.982	20.287	2.143	0.502
159.500	150.518	79.993	19.996	102.975	20.285	2.267	0.505
160.000	150.750	79.993	19.996	102.970	20.284	2.326	0.486
160.500	150.986	79.991	19.996	102.970	20.285	2.269	0.465
161.000	151.218	79.993	19.997	102.968	20.287	2.173	0.468
161.500	151.474	79.992	19.997	102.964	20.287	2.187	0.478
162.000	151.744	79.992	19.997	102.966	20.285	2.315	0.507
162.500	151.987	79.992	19.996	102.968	20.285	2.261	0.519
163.000	152.221	79.993	19.996	102.967	20.284	2.347	0.495
163.500	152.519	79.991	19.996	102.964	20.283	2.447	0.505
164.000	152.737	79.993	19.995	102.967	20.281	2.530	0.524
164.500	152.969	79.991	19.996	102.966	20.287	2.172	0.483
165.000	153.223	79.992	19.997	102.962	20.284	2.339	0.468
165.500	153.501	79.991	19.997	102.959	20.286	2.193	0.509
166.000	153.703	79.992	19.997	102.958	20.288	2.083	0.505
166.500	153.959	79.991	19.999	102.955	20.286	2.243	0.469
167.000	154.202	79.991	19.997	102.953	20.287	2.185	0.479
167.500	154.405	79.992	19.999	102.955	20.286	2.228	0.473
168.000	154.701	79.991	19.996	102.956	20.289	2.048	0.473
168.500	154.960	79.993	19.996	102.962	20.290	1.952	0.527
169.000	155.188	79.992	19.996	102.966	20.288	2.085	0.520
169.500	155.410	79.991	19.998	102.966	20.288	2.102	0.468
170.000	155.678	79.990	19.996	102.965	20.289	2.042	0.470
170.500	155.960	79.992	19.998	102.967	20.292	1.848	0.520
171.000	156.193	79.992	19.997	102.961	20.287	2.170	0.532
171.500	156.452	79.992	19.996	102.957	20.288	2.118	0.503
172.000	156.689	79.992	19.997	102.963	20.289	2.035	0.494
172.500	156.897	79.990	19.997	102.962	20.294	1.705	0.471
173.000	157.167	79.993	19.998	102.958	20.290	1.946	0.462
173.500	157.449	79.992	19.998	102.959	20.292	1.825	0.515
174.000	157.676	79.992	19.997	102.960	20.286	2.209	0.531
174.500	157.964	79.992	19.998	102.954	20.288	2.068	0.511
175.000	158.173	79.992	19.997	102.952	20.288	2.109	0.506
175.500	158.449	79.993	19.998	102.952	20.294	1.664	0.492
176.000	158.689	79.992	19.997	102.951	20.291	1.916	0.501
176.500	158.965	79.994	19.998	102.948	20.286	2.200	0.516
177.000	159.161	79.993	19.998	102.947	20.294	1.666	0.494
177.500	159.383	79.994	19.998	102.947	20.287	2.153	0.445
178.000	159.647	79.993	19.997	102.951	20.293	1.779	0.452
178.500	159.890	79.994	19.997	102.951	20.292	1.831	0.496
179.000	160.191	79.995	19.994	102.952	20.295	1.627	0.525
179.500	160.418	79.995	19.996	102.952	20.286	2.192	0.537
180.000	160.659	79.995	19.998	102.951	20.295	1.653	0.498
180.500	160.869	79.993	19.996	102.948	20.292	1.829	0.459
181.000	161.184	79.993	19.996	102.949	20.287	2.139	0.488
181.500	161.408	79.996	19.996	102.948	20.292	1.827	0.532
182.000	161.676	79.996	19.995	102.948	20.291	1.879	0.515
182.500	161.879	79.994	19.997	102.948	20.291	1.874	0.481
183.000	162.128	79.994	19.997	102.949	20.293	1.753	0.461
183.500	162.414	79.996	19.997	102.950	20.292	1.809	0.494
184.000	162.664	79.995	19.995	102.951	20.292	1.803	0.536
184.500	162.916	79.994	19.995	102.951	20.291	1.914	0.519
185.000	163.153	79.995	19.996	102.951	20.295	1.591	0.495
185.500	163.407	79.995	19.996	102.950	20.292	1.827	0.490
186.000	163.677	79.996	19.996	102.948	20.288	2.113	0.507
186.500	163.899	79.993	19.997	102.942	20.294	1.719	0.509
187.000	164.210	79.994	19.995	102.938	20.290	1.938	0.513
187.500	164.463	79.995	19.996	102.937	20.290	1.942	0.548
188.000	164.714	79.995	19.996	102.937	20.289	2.022	0.534
188.500	164.933	79.994	19.995	102.937	20.287	2.170	0.486
189.000	165.154	79.994	19.995	102.943	20.293	1.744	0.455
189.500	165.450	79.995	19.996	102.945	20.288	2.124	0.479
190.000	165.704	79.994	19.996	102.943	20.291	1.901	0.533
190.500	165.954	79.993	19.996	102.940	20.290	1.983	0.527
191.000	166.220	79.994	19.996	102.941	20.285	2.269	0.510
191.500	166.463	79.993	19.996	102.941	20.285	2.293	0.513
192.000	166.688	79.994	19.996	102.942	20.293	1.784	0.489
192.500	166.956	79.994	19.997	102.945	20.294	1.664	0.481
193.000	167.219	79.994	19.996	102.947	20.283	2.457	0.512
193.500	167.440	79.994	19.996	102.948	20.296	1.556	0.507
194.000	167.643	79.995	19.997	102.948	20.288	2.081	0.454
194.500	167.946	79.994	19.996	102.946	20.290	1.970	0.465
195.000	168.180	79.995	19.996	102.941	20.292	1.793	0.522
195.500	168.440	79.994	19.996	102.935	20.291	1.869	0.516
196.000	168.669	79.995	19.996	102.929	20.289	2.014	0.492
196.500	168.935	79.994	19.996	102.930	20.291	1.897	0.492
197.000	169.177	79.994	19.996	102.932	20.292	1.801	0.501
197.500	169.452	79.994	19.996	102.937	20.291	1.864	0.512
198.000	169.718	79.994	19.997	102.943	20.290	1.955	0.529
198.500	169.934	79.993	19.995	102.948	20.291	1.881	0.512
199.000	170.180	79.993	19.997	102.948	20.295	1.621	0.472
199.500	170.437	79.995	19.997	102.949	20.297	1.517	0.482
200.000	170.688	79.995	19.995	102.950	20.291	1.864	0.505
200.500	170.915	79.995	19.996	102.951	20.294	1.660	0.493
201.000	171.188	79.995	19.996	102.951	20.295	1.645	0.489
201.500	171.373	79.994	19.996	102.952	20.296	1.578	0.479
202.000	171.660	79.995	19.995	102.948	20.297	1.461	0.465
202.500	171.912	79.996	19.995	102.942	20.291	1.895	0.505
203.000	172.161	79.994	19.996	102.939	20.287	2.125	0.520
203.500	172.379	79.993	19.995	102.938	20.290	1.938	0.484
204.000	172.652	79.995	19.996	102.931	20.293	1.740	0.479
204.500	172.914	79.995	19.995	102.927	20.298	1.424	0.513
205.000	173.142	79.995	19.995	102.929	20.292	1.797	0.512
205.500	173.386	79.996	19.995	102.927	20.288	2.092	0.481
206.000	173.680	79.995	19.996	102.920	20.293	1.779	0.505
206.500	173.902	79.995	19.996	102.923	20.292	1.825	0.527
207.000	174.132	79.995	19.996	102.925	20.288	2.062	0.484
207.500	174.383	79.994	19.996	102.923	20.291	1.919	0.466
208.000	174.648	79.996	19.995	102.924	20.296	1.565	0.498
208.500	174.881	79.995	19.995	102.926	20.290	1.942	0.508
209.000	175.176	79.996	19.996	102.925	20.292	1.804	0.513
209.500	175.414	79.996	19.997	102.924	20.295	1.636	0.530
210.000	175.645	79.995	19.996	102.929	20.295	1.654	0.501
210.500	175.891	79.994	19.996	102.931	20.292	1.842	0.472
211.000	176.125	79.994	19.996	102.932	20.295	1.604	0.478
211.500	176.362	79.995	19.996	102.932	20.297	1.504	0.476
212.000	176.588	79.993	19.995	102.931	20.292	1.827	0.468
212.500	176.909	79.993	19.995	102.926	20.291	1.916	0.505
213.000	177.113	79.994	19.996	102.923	20.289	2.021	0.536
213.500	177.358	79.995	19.996	102.921	20.295	1.625	0.487
214.000	177.647	79.991	19.995	102.921	20.286	2.199	0.491
214.500	177.868	79.992	19.997	102.927	20.299	1.346	0.522
215.000	178.121	79.994	19.996	102.931	20.299	1.372	0.492
215.500	178.380	79.992	19.996	102.935	20.292	1.801	0.493
216.000	178.615	79.994	19.996	102.941	20.290	1.940	0.503
216.500	178.857	79.993	19.995	102.940	20.299	1.343	0.486
217.000	179.093	79.994	19.996	102.935	20.293	1.788	0.477
217.500	179.376	79.992	19.994	102.930	20.296	1.569	0.499
218.000	179.609	79.993	19.996	102.925	20.293	1.765	0.518
218.500	179.869	79.993	19.997	102.919	20.294	1.704	0.505
219.000	180.135	79.993	19.996	102.921	20.294	1.691	0.509
219.500	180.361	79.992	19.994	102.923	20.298	1.393	0.508
220.000	180.618	79.991	19.994	102.924	20.292	1.804	0.487
220.500	180.864	79.992	19.994	102.926	20.295	1.634	0.493
221.000	181.086	79.994	19.996	102.932	20.293	1.773	0.485
221.500	181.334	79.992	19.996	102.934	20.293	1.775	0.469
222.000	181.573	79.992	19.996	102.933	20.294	1.704	0.479
222.500	181.856	79.993	19.995	102.933	20.291	1.886	0.504
223.000	182.113	79.992	19.995	102.929	20.299	1.365	0.531
223.500	182.338	79.994	19.996	102.923	20.295	1.650	0.511
224.000	182.594	79.994	19.996	102.919	20.297	1.478	0.482
224.500	182.866	79.993	19.997	102.919	20.296	1.571	0.505
225.000	183.125	79.993	19.997	102.922	20.298	1.420	0.529
225.500	183.336	79.993	19.996	102.927	20.299	1.372	0.500
226.000	183.596	79.993	19.997	102.927	20.295	1.602	0.470
226.500	183.851	79.993	19.997	102.925	20.296	1.532	0.493
227.000	184.072	79.994	19.997	102.923	20.296	1.528	0.496
227.500	184.325	79.993	19.995	102.920	20.293	1.784	0.475
228.000	184.602	79.991	19.994	102.915	20.291	1.875	0.502
228.500	184.826	79.993	19.996	102.916	20.294	1.708	0.516
229.000	185.118	79.993	19.997	102.916	20.294	1.678	0.509
229.500	185.387	79.993	19.996	102.916	20.297	1.506	0.539
230.000	185.587	79.993	19.997	102.915	20.291	1.901	0.515
230.500	185.894	79.993	19.995	102.918	20.298	1.448	0.488
231.000	186.139	79.994	19.995	102.924	20.298	1.430	0.529
231.500	186.394	79.993	19.997	102.931	20.294	1.673	0.526
232.000	186.624	79.992	19.995	102.936	20.292	1.849	0.493
232.500	186.919	79.993	19.996	102.937	20.293	1.752	0.505
233.000	187.097	79.993	19.998	102.933	20.292	1.791	0.500
233.500	187.387	79.993	19.998	102.925	20.292	1.847	0.471
234.000	187.632	79.994	19.995	102.918	20.294	1.669	0.501
234.500	187.904	79.992	19.996	102.913	20.293	1.771	0.526
235.000	188.139	79.992	19.997	102.911	20.295	1.615	0.512
235.500	188.385	79.993	19.997	102.912	20.292	1.812	0.494
236.000	188.641	79.992	19.997	102.915	20.292	1.817	0.491
236.500	188.872	79.992	19.996	102.919	20.298	1.413	0.494
237.000	189.147	79.993	19.996	102.925	20.298	1.433	0.497
237.500	189.391	79.992	19.996	102.933	20.299	1.354	0.513
238.000	189.621	79.992	19.996	102.935	20.296	1.532	0.496
238.500	189.851	79.993	19.997	102.934	20.297	1.500	0.467
239.000	190.117	79.993	19.996	102.931	20.296	1.543	0.478
239.500	190.391	79.993	19.997	102.928	20.294	1.669	0.518
240.000	190.603	79.995	19.998	102.925	20.297	1.476	0.513
240.500	190.895	79.994	19.995	102.923	20.294	1.662	0.495
241.000	191.113	79.994	19.997	102.923	20.302	1.178	0.507
241.500	191.335	79.993	19.998	102.926	20.293	1.778	0.475
242.000	191.611	79.993	19.995	102.924	20.293	1.732	0.469
242.500	191.821	79.994	19.995	102.922	20.295	1.595	0.492
243.000	192.095	79.992	19.997	102.922	20.293	1.728	0.485
243.500	192.329	79.992	19.998	102.920	20.298	1.430	0.496
244.000	192.548	79.993	19.999	102.916	20.297	1.498	0.481
244.500	192.800	79.993	19.998	102.915	20.293	1.738	0.462
245.000	193.080	79.992	19.998	102.914	20.298	1.400	0.501
245.500	193.367	79.992	19.997	102.917	20.298	1.424	0.549
246.000	193.573	79.993	19.999	102.919	20.291	1.865	0.530
246.500	193.782	79.993	19.997	102.920	20.292	1.808	0.454
247.000	194.044	79.992	19.996	102.920	20.295	1.608	0.443
247.500	194.305	79.992	19.996	102.920	20.296	1.578	0.497
248.000	194.560	79.992	19.996	102.916	20.293	1.767	0.520
248.500	194.785	79.994	19.995	102.914	20.293	1.780	0.498
249.000	195.057	79.993	19.998	102.912	20.289	2.016	0.489
249.500	195.295	79.993	19.995	102.913	20.292	1.821	0.503
250.000	195.537	79.990	19.997	102.914	20.293	1.752	0.495
250.500	195.766	79.992	19.998	102.914	20.298	1.441	0.475
251.000	196.050	79.992	19.996	102.915	20.297	1.522	0.492
251.500	196.323	79.993	19.998	102.918	20.297	1.521	0.535
252.000	196.547	79.994	19.998	102.917	20.291	1.869	0.527
252.500	196.798	79.992	19.999	102.916	20.299	1.348	0.486
253.000	197.020	79.991	19.998	102.915	20.293	1.747	0.474
253.500	197.311	79.992	19.996	102.914	20.295	1.598	0.493
254.000	197.524	79.993	19.998	102.912	20.292	1.823	0.508
254.500	197.776	79.993	19.999	102.911	20.295	1.649	0.485
255.000	198.020	79.992	19.996	102.911	20.297	1.513	0.480
255.500	198.274	79.993	19.997	102.912	20.294	1.715	0.497
256.000	198.509	79.993	19.997	102.912	20.297	1.515	0.494
256.500	198.755	79.993	19.999	102.912	20.295	1.608	0.485
257.000	199.013	79.995	19.997	102.913	20.299	1.376	0.492
257.500	199.237	79.993	19.996	102.914	20.303	1.098	0.492
258.000	199.466	79.996	19.997	102.914	20.294	1.673	0.467
258.500	199.735	79.993	19.998	102.913	20.299	1.356	0.476
259.000	199.982	79.993	19.998	102.913	20.301	1.189	0.507
259.500	200.249	79.995	19.998	102.911	20.303	1.087	0.515
260.000	200.480	79.993	19.996	102.911	20.295	1.598	0.507
260.500	200.713	79.993	19.997	102.911	20.306	0.892	0.481
261.000	201.000	79.993	19.999	102.911	20.298	1.432	0.492
261.500	201.215	79.994	19.998	102.912	20.292	1.823	0.511
262.000	201.456	79.990	19.998	102.913	20.298	1.395	0.479
262.500	201.681	79.994	19.998	102.913	20.289	1.999	0.461
263.000	201.966	79.993	19.996	102.913	20.299	1.367	0.488
263.500	202.212	79.993	19.998	102.913	20.297	1.478	0.520
264.000	202.452	79.991	19.997	102.912	20.298	1.448	0.509
264.500	202.720	79.995	19.998	102.912	20.291	1.921	0.497
265.000	202.954	79.994	19.996	102.913	20.295	1.654	0.505
265.500	203.225	79.995	19.997	102.914	20.296	1.576	0.504
266.000	203.484	79.995	19.997	102.915	20.294	1.660	0.517
266.500	203.710	79.997	19.997	102.915	20.298	1.398	0.507
267.000	203.974	79.993	19.996	102.915	20.300	1.294	0.488
267.500	204.217	79.993	19.996	102.913	20.296	1.580	0.498
268.000	204.452	79.994	19.997	102.913	20.296	1.539	0.492
268.500	204.699	79.994	19.995	102.912	20.297	1.474	0.480
269.000	204.975	79.994	19.997	102.912	20.299	1.322	0.503
269.500	205.208	79.995	19.996	102.912	20.299	1.335	0.516
270.000	205.470	79.994	19.996	102.912	20.296	1.543	0.502
270.500	205.710	79.992	19.996	102.912	20.301	1.228	0.499
271.000	205.972	79.993	19.996	102.912	20.298	1.400	0.502
271.500	206.220	79.994	19.995	102.913	20.296	1.528	0.506
272.000	206.425	79.993	19.995	102.913	20.301	1.191	0.482
272.500	206.728	79.994	19.996	102.915	20.301	1.228	0.481
273.000	206.961	79.995	19.996	102.915	20.302	1.150	0.522
273.500	207.208	79.992	19.995	102.915	20.300	1.320	0.508
274.000	207.444	79.992	19.998	102.916	20.300	1.317	0.482
274.500	207.705	79.992	19.997	102.915	20.301	1.235	0.490
275.000	207.974	79.994	19.995	102.913	20.296	1.543	0.513
275.500	208.196	79.992	19.995	102.912	20.297	1.489	0.510
276.000	208.432	79.994	19.996	102.912	20.295	1.635	0.474
276.500	208.666	79.993	19.994	102.909	20.301	1.189	0.464
277.000	208.917	79.994	19.995	102.908	20.301	1.229	0.477
277.500	209.147	79.993	19.996	102.908	20.297	1.509	0.483
278.000	209.447	79.993	19.994	102.907	20.294	1.667	0.506
278.500	209.647	79.994	19.997	102.907	20.302	1.166	0.515
279.000	209.942	79.995	19.997	102.908	20.300	1.276	0.497
279.500	210.159	79.993	19.994	102.910	20.306	0.886	0.503
280.000	210.426	79.994	19.993	102.913	20.300	1.261	0.498
280.500	210.635	79.995	19.996	102.914	20.298	1.404	0.480
281.000	210.866	79.995	19.997	102.915	20.298	1.393	0.458
281.500	211.129	79.995	19.994	102.916	20.300	1.268	0.467
282.000	211.393	79.993	19.993	102.916	20.297	1.482	0.511
282.500	211.631	79.994	19.996	102.913	20.306	0.873	0.515
283.000	211.856	79.993	19.994	102.913	20.302	1.148	0.483
283.500	212.111	79.995	19.995	102.913	20.302	1.124	0.471
284.000	212.378	79.995	19.995	102.913	20.303	1.055	0.501
284.500	212.617	79.996	19.996	102.914	20.302	1.122	0.514
285.000	212.886	79.996	19.994	102.914	20.302	1.146	0.507
285.500	213.115	79.994	19.997	102.913	20.306	0.912	0.503
286.000	213.376	79.997	19.997	102.912	20.301	1.196	0.494
286.500	213.617	79.996	19.996	102.907	20.302	1.181	0.496
287.000	213.873	79.997	19.998	102.906	20.303	1.085	0.499
287.500	214.143	79.992	19.995	102.905	20.299	1.359	0.512
288.000	214.360	79.992	19.995	102.904	20.300	1.283	0.507
288.500	214.618	79.995	19.996	102.902	20.300	1.276	0.481
289.000	214.847	79.994	19.995	102.900	20.299	1.335	0.481
289.500	215.064	79.994	19.995	102.899	20.298	1.411	0.467
290.000	215.325	79.994	19.995	102.900	20.300	1.292	0.462
290.500	215.573	79.992	19.996	102.902	20.299	1.331	0.493
291.000	215.800	79.992	19.995	102.904	20.301	1.211	0.492
291.500	216.021	79.993	19.996	102.909	20.299	1.341	0.461
292.000	216.290	79.992	19.996	102.909	20.295	1.613	0.469
292.500	216.554	79.993	19.997	102.906	20.301	1.239	0.512
293.000	216.761	79.993	19.997	102.904	20.295	1.600	0.502
293.500	217.009	79.995	19.999	102.904	20.301	1.213	0.463
294.000	217.273	79.993	19.996	102.905	20.302	1.164	0.484
294.500	217.499	79.992	19.995	102.906	20.294	1.682	0.501
295.000	217.761	79.993	19.997	102.908	20.296	1.552	0.489
295.500	217.972	79.993	19.995	102.908	20.297	1.472	0.480
296.000	218.252	79.993	19.996	102.906	20.299	1.339	0.482
296.500	218.477	79.994	19.997	102.906	20.300	1.315	0.498
297.000	218.760	79.992	19.996	102.907	20.298	1.400	0.506
297.500	219.012	79.992	19.996	102.908	20.302	1.166	0.521
298.000	219.241	79.993	19.996	102.909	20.295	1.595	0.508
298.500	219.491	79.993	19.995	102.910	20.299	1.357	0.480
299.000	219.727	79.992	19.996	102.910	20.302	1.172	0.482
299.500	219.965	79.993	19.997	102.909	20.301	1.224	0.480
300.000	220.228	79.993	19.995	102.906	20.304	1.053	0.488
300.500	220.427	79.994	19.997	102.904	20.304	1.051	0.481
301.000	220.676	79.993	19.995	102.905	20.296	1.565	0.455
301.500	220.936	79.994	19.998	102.905	20.303	1.118	0.479
302.000	221.180	79.994	19.996	102.905	20.295	1.602	0.507
302.500	221.392	79.994	19.996	102.908	20.301	1.248	0.480
303.000	221.624	79.993	19.994	102.908	20.306	0.884	0.450
303.500	221.887	79.992	19.995	102.908	20.298	1.437	0.469
304.000	222.145	79.994	19.997	102.908	20.300	1.300	0.508
304.500	222.392	79.994	19.995	102.908	20.304	1.018	0.513
305.000	222.638	79.995	19.996	102.908	20.300	1.314	0.499
305.500	222.875	79.994	19.996	102.910	20.296	1.528	0.488
306.000	223.103	79.993	19.995	102.909	20.297	1.476	0.474
306.500	223.352	79.994	19.996	102.904	20.302	1.131	0.470
307.000	223.587	79.995	19.996	102.903	20.300	1.270	0.480
307.500	223.840	79.993	19.995	102.904	20.296	1.565	0.486
308.000	224.085	79.992	19.993	102.901	20.300	1.311	0.493
308.500	224.320	79.994	19.995	102.902	20.300	1.318	0.489
309.000	224.548	79.993	19.995	102.907	20.298	1.424	0.471
309.500	224.805	79.994	19.995	102.909	20.298	1.437	0.474
310.000	225.064	79.992	19.997	102.905	20.296	1.528	0.501
310.500	225.313	79.993	19.996	102.901	20.299	1.366	0.512
311.000	225.563	79.994	19.995	102.897	20.302	1.144	0.504
311.500	225.761	79.994	19.995	102.895	20.298	1.435	0.473
312.000	226.026	79.993	19.996	102.895	20.301	1.240	0.455
312.500	226.268	79.994	19.996	102.898	20.296	1.570	0.485
313.000	226.512	79.993	19.996	102.904	20.298	1.400	0.496
313.500	226.776	79.993	19.996	102.906	20.296	1.574	0.497
314.000	226.988	79.995	19.996	102.900	20.297	1.455	0.492
314.500	227.239	79.994	19.996	102.894	20.297	1.470	0.470
315.000	227.472	79.993	19.999	102.887	20.294	1.713	0.474
315.500	227.767	79.993	19.997	102.885	20.295	1.644	0.506
316.000	227.964	79.992	19.997	102.886	20.299	1.350	0.510
316.500	228.244	79.993	19.997	102.886	20.298	1.441	0.485
317.000	228.482	79.995	19.998	102.886	20.298	1.416	0.498
317.500	228.721	79.993	19.998	102.890	20.299	1.385	0.498
318.000	228.975	79.993	19.995	102.890	20.296	1.535	0.485
318.500	229.239	79.993	19.998	102.891	20.300	1.257	0.505
319.000	229.505	79.993	19.996	102.893	20.295	1.620	0.524
319.500	229.739	79.992	19.996	102.895	20.298	1.446	0.515
320.000	229.975	79.991	19.997	102.893	20.295	1.615	0.485
320.500	230.195	79.993	19.997	102.888	20.302	1.155	0.463
321.000	230.460	79.993	19.996	102.883	20.290	1.952	0.471
321.500	230.698	79.992	19.998	102.880	20.290	1.975	0.494
322.000	230.933	79.992	19.997	102.879	20.296	1.550	0.488
322.500	231.175	79.994	19.996	102.878	20.291	1.908	0.475
323.000	231.403	79.992	19.994	102.884	20.299	1.348	0.474
323.500	231.626	79.992	19.997	102.889	20.290	1.969	0.460
324.000	231.904	79.990	19.995	102.894	20.291	1.862	0.475
324.500	232.091	79.991	19.996	102.898	20.294	1.702	0.483
325.000	232.351	79.991	19.998	102.899	20.299	1.380	0.457
325.500	232.615	79.992	19.995	102.899	20.296	1.569	0.486
326.000	232.829	79.992	19.998	102.894	20.288	2.099	0.501
326.500	233.073	79.992	19.995	102.890	20.294	1.659	0.468
327.000	233.300	79.992	19.997	102.892	20.291	1.860	0.464
327.500	233.604	79.992	19.997	102.896	20.298	1.450	0.501
328.000	233.834	79.992	19.996	102.891	20.288	2.101	0.533
328.500	234.029	79.992	19.996	102.895	20.286	2.257	0.479
329.000	234.287	79.992	19.997	102.902	20.295	1.615	0.439
329.500	234.502	79.993	19.998	102.901	20.289	2.029	0.463
330.000	234.766	79.993	19.997	102.896	20.292	1.832	0.476
330.500	235.043	79.992	19.995	102.904	20.294	1.700	0.510
331.000	235.279	79.993	19.995	102.905	20.293	1.736	0.527
331.500	235.521	79.992	19.997	102.901	20.293	1.752	0.495
332.000	235.758	79.992	19.996	102.899	20.290	1.940	0.479
332.500	236.026	79.994	19.994	102.902	20.288	2.080	0.492
333.000	236.241	79.992	19.995	102.899	20.289	2.008	0.494
333.500	236.481	79.994	19.996	102.899	20.287	2.142	0.469
334.000	236.732	79.994	19.996	102.902	20.288	2.094	0.473
334.500	236.980	79.995	20.000	102.902	20.280	2.609	0.495
335.000	237.224	79.993	19.995	102.905	20.289	2.025	0.495
335.500	237.478	79.993	19.995	102.907	20.284	2.348	0.495
336.000	237.733	79.994	19.995	102.907	20.286	2.199	0.504
336.500	237.957	79.993	19.995	102.903	20.284	2.353	0.494
337.000	238.209	79.993	19.996	102.903	20.285	2.311	0.478
337.500	238.390	79.993	19.993	102.901	20.280	2.654	0.454
338.000	238.705	79.993	19.995	102.903	20.279	2.683	0.464
338.500	238.909	79.993	19.997	102.903	20.281	2.539	0.507
339.000	239.146	79.995	19.996	102.907	20.276	2.891	0.480
339.500	239.380	79.994	19.997	102.910	20.279	2.696	0.456
340.000	239.664	79.995	19.994	102.910	20.279	2.683	0.495
340.500	239.888	79.993	19.996	102.910	20.275	2.971	0.513
341.000	240.100	79.994	19.996	102.912	20.275	2.986	0.472
341.500	240.355	79.995	19.997	102.912	20.274	3.055	0.451
342.000	240.564	79.993	19.996	102.911	20.274	3.038	0.465
342.500	240.844	79.993	19.995	102.910	20.279	2.676	0.477
343.000	241.084	79.994	19.997	102.909	20.275	2.941	0.505
343.500	241.337	79.993	19.996	102.908	20.270	3.301	0.506
344.000	241.610	79.992	19.998	102.906	20.277	2.819	0.510
344.500	241.857	79.992	19.996	102.908	20.274	3.025	0.523
345.000	242.115	79.993	19.999	102.911	20.271	3.203	0.512
345.500	242.347	79.992	19.997	102.913	20.275	2.941	0.498
346.000	242.629	79.992	19.997	102.915	20.273	3.099	0.502
346.500	242.897	79.994	19.997	102.916	20.270	3.269	0.531
347.000	243.171	79.994	19.996	102.916	20.267	3.503	0.546
347.500	243.381	79.992	19.997	102.915	20.273	3.082	0.513
348.000	243.626	79.992	19.998	102.914	20.267	3.466	0.469
348.500	243.853	79.991	19.993	102.915	20.276	2.884	0.463
349.000	244.138	79.993	19.998	102.914	20.267	3.529	0.492
349.500	244.338	79.994	19.998	102.915	20.269	3.384	0.498
350.000	244.608	79.992	19.997	102.915	20.266	3.586	0.478
350.500	244.906	79.992	19.997	102.916	20.261	3.924	0.519
351.000	245.139	79.994	19.998	102.917	20.270	3.303	0.550
351.500	245.364	79.993	19.997	102.922	20.269	3.375	0.495
352.000	245.631	79.994	19.996	102.926	20.271	3.240	0.475
352.500	245.871	79.994	19.997	102.927	20.268	3.453	0.500
353.000	246.151	79.995	19.998	102.925	20.273	3.090	0.513
353.500	246.405	79.993	19.996	102.923	20.262	3.818	0.527
354.000	246.641	79.994	19.997	102.920	20.265	3.614	0.512
354.500	246.852	79.993	19.996	102.915	20.261	3.902	0.469
355.000	247.112	79.993	19.998	102.918	20.259	4.030	0.459
355.500	247.401	79.994	19.996	102.922	20.257	4.161	0.510
356.000	247.654	79.995	19.996	102.922	20.261	3.926	0.545
356.500	247.894	79.994	19.995	102.922	20.255	4.332	0.518
357.000	248.146	79.996	19.999	102.923	20.255	4.321	0.493
357.500	248.404	79.994	19.997	102.920	20.249	4.717	0.501
358.000	248.665	79.995	19.994	102.916	20.254	4.367	0.515
358.500	248.885	79.996	19.996	102.918	20.251	4.586	0.500
359.000	249.173	79.996	19.995	102.918	20.247	4.838	0.494
359.500	249.423	79.995	19.997	102.917	20.244	5.044	0.523
360.000	249.694	79.996	19.997	102.916	20.248	4.758	0.530
360.500	249.976	79.996	19.992	102.916	20.241	5.257	0.537
361.000	250.204	79.996	19.992	102.915	20.245	4.953	0.531
361.500	250.472	79.995	19.996	102.912	20.239	5.359	0.502
362.000	250.708	79.996	19.994	102.912	20.241	5.247	0.500
362.500	251.004	79.995	19.998	102.911	20.236	5.570	0.518
363.000	251.247	79.996	19.994	102.913	20.237	5.481	0.536
363.500	251.495	79.996	19.994	102.914	20.237	5.526	0.515
364.000	251.725	79.995	19.993	102.918	20.232	5.833	0.484
364.500	251.979	79.996	19.996	102.919	20.231	5.912	0.481
365.000	252.229	79.997	19.995	102.919	20.226	6.242	0.494
365.500	252.509	79.996	19.996	102.917	20.220	6.627	0.517
366.000	252.763	79.995	19.996	102.915	20.226	6.240	0.532
366.500	253.001	79.994	19.996	102.912	20.220	6.666	0.513
367.000	253.282	79.996	19.997	102.911	20.222	6.516	0.506
367.500	253.534	79.994	19.995	102.911	20.215	6.957	0.526
368.000	253.774	79.995	19.996	102.911	20.221	6.590	0.512
368.500	254.041	79.995	19.997	102.911	20.219	6.707	0.500
369.000	254.286	79.994	19.998	102.911	20.220	6.629	0.510
369.500	254.537	79.993	19.996	102.912	20.213	7.134	0.504
370.000	254.807	79.993	19.998	102.911	20.215	6.963	0.509
370.500	255.006	79.993	19.995	102.910	20.222	6.535	0.495
371.000	255.311	79.993	19.997	102.907	20.212	7.143	0.486
371.500	255.517	79.993	19.996	102.907	20.213	7.104	0.507
372.000	255.819	79.995	19.996	102.906	20.211	7.237	0.509
372.500	256.108	79.992	19.996	102.907	20.211	7.273	0.550
373.000	256.322	79.994	19.996	102.903	20.215	7.006	0.547
373.500	256.592	79.993	19.996	102.906	20.212	7.154	0.494
374.000	256.834	79.994	19.996	102.905	20.211	7.212	0.498
374.500	257.089	79.993	19.994	102.906	20.206	7.583	0.504
375.000	257.344	79.994	19.996	102.905	20.211	7.217	0.504
375.500	257.592	79.994	19.996	102.910	20.209	7.369	0.507
376.000	257.845	79.993	19.995	102.910	20.205	7.629	0.502
376.500	258.092	79.993	19.994	102.910	20.206	7.559	0.501
377.000	258.383	79.992	19.998	102.911	20.205	7.646	0.519
377.500	258.616	79.994	19.998	102.911	20.209	7.344	0.531
378.000	258.913	79.995	19.997	102.910	20.203	7.764	0.527
378.500	259.146	79.993	19.997	102.910	20.206	7.596	0.530
379.000	259.396	79.994	19.995	102.909	20.209	7.399	0.507
379.500	259.655	79.993	19.996	102.909	20.204	7.740	0.497
380.000	259.915	79.994	19.997	102.909	20.203	7.796	0.514
380.500	260.172	79.994	19.996	102.909	20.206	7.547	0.517
381.000	260.401	79.994	19.996	102.909	20.193	8.423	0.501
381.500	260.655	79.993	19.994	102.910	20.206	7.562	0.485
382.000	260.928	79.993	19.996	102.910	20.202	7.824	0.505
382.500	261.152	79.993	19.996	102.910	20.202	7.822	0.512
383.000	261.406	79.996	19.997	102.911	20.205	7.642	0.487
383.500	261.647	79.993	19.995	102.914	20.200	8.000	0.487
384.000	261.923	79.994	19.994	102.915	20.197	8.167	0.506
384.500	262.187	79.994	19.996	102.915	20.198	8.102	0.529
385.000	262.431	79.993	19.996	102.916	20.199	8.074	0.524
385.500	262.658	79.992	19.995	102.916	20.201	7.913	0.489
386.000	262.917	79.993	19.995	102.914	20.201	7.928	0.479
386.500	263.191	79.993	19.994	102.914	20.201	7.913	0.509
387.000	263.465	79.993	19.996	102.914	20.203	7.779	0.540
387.500	263.714	79.994	19.996	102.914	20.200	7.989	0.536
388.000	263.999	79.996	19.997	102.915	20.201	7.939	0.528
388.500	264.232	79.994	19.996	102.916	20.198	8.082	0.526
389.000	264.451	79.992	19.995	102.916	20.197	8.152	0.485
389.500	264.738	79.993	19.995	102.916	20.194	8.358	0.478
390.000	264.937	79.992	19.996	102.916	20.196	8.234	0.496
390.500	265.222	79.995	19.996	102.915	20.200	7.970	0.486
391.000	265.475	79.994	19.996	102.915	20.199	8.076	0.511
391.500	265.714	79.993	19.995	102.914	20.209	7.399	0.514
392.000	265.946	79.994	19.996	102.914	20.201	7.930	0.481
392.500	266.208	79.994	19.997	102.914	20.196	8.275	0.483
393.000	266.481	79.995	19.997	102.914	20.199	8.024	0.515
393.500	266.686	79.994	19.997	102.913	20.197	8.174	0.507
394.000	266.935	79.994	19.995	102.914	20.199	8.023	0.466
394.500	267.195	79.995	19.997	102.913	20.195	8.290	0.482
395.000	267.447	79.994	19.995	102.913	20.199	8.024	0.511
395.500	267.695	79.994	19.996	102.912	20.194	8.341	0.506
396.000	267.956	79.992	19.995	102.912	20.198	8.095	0.504
396.500	268.192	79.994	19.997	102.914	20.199	8.057	0.503
397.000	268.412	79.995	19.996	102.915	20.199	8.064	0.476
397.500	268.701	79.993	19.994	102.915	20.199	8.038	0.482
398.000	268.938	79.992	19.992	102.918	20.199	8.022	0.517
398.500	269.205	79.992	19.996	102.918	20.205	7.660	0.515
399.000	269.408	79.993	19.998	102.917	20.195	8.332	0.487
399.500	269.643	79.991	19.994	102.917	20.199	8.065	0.454
400.000	269.947	79.992	19.995	102.917	20.203	7.753	0.488
400.500	270.212	79.991	19.996	102.917	20.197	8.203	0.554
401.000	270.425	79.993	19.997	102.917	20.202	7.864	0.523
401.500	270.683	79.993	19.995	102.917	20.195	8.296	0.475
402.000	270.960	79.993	19.996	102.917	20.195	8.313	0.504
402.500	271.225	79.991	19.994	102.917	20.197	8.205	0.539
403.000	271.492	79.993	19.996	102.917	20.201	7.906	0.536
403.500	271.762	79.992	19.997	102.918	20.193	8.415	0.534
404.000	272.012	79.993	19.998	102.920	20.201	7.892	0.528
404.500	272.287	79.990	19.996	102.914	20.200	7.953	0.523
405.000	272.509	79.991	19.996	102.876	20.196	8.247	0.511
405.500	272.765	79.991	19.997	102.853	20.204	7.713	0.488
406.000	273.004	79.991	19.996	102.842	20.203	7.750	0.487
406.500	273.263	79.991	19.995	102.840	20.200	7.965	0.497
407.000	273.484	79.991	19.995	102.846	20.201	7.936	0.489
407.500	273.715	79.991	19.996	102.888	20.203	7.773	0.466
408.000	274.004	79.992	19.996	102.932	20.200	7.981	0.486
408.500	274.273	79.992	19.997	102.977	20.210	7.298	0.539
409.000	274.495	79.991	19.996	102.982	20.206	7.605	0.524
409.500	274.780	79.992	19.997	102.983	20.210	7.308	0.499
410.000	275.008	79.993	19.997	102.981	20.209	7.410	0.510
410.500	275.266	79.993	19.996	102.960	20.206	7.609	0.499
411.000	275.508	79.993	19.996	102.931	20.212	7.175	0.493
411.500	275.810	79.993	19.996	102.930	20.211	7.246	0.522
412.000	276.030	79.994	19.998	102.931	20.206	7.550	0.533
412.500	276.265	79.995	19.996	102.930	20.215	6.993	0.488
413.000	276.524	79.993	19.996	102.930	20.213	7.103	0.475
413.500	276.750	79.995	19.997	102.924	20.210	7.340	0.490
414.000	276.983	79.993	19.996	102.919	20.213	7.110	0.472
414.500	277.229	79.994	19.996	102.917	20.214	7.055	0.469
415.000	277.526	79.995	19.997	102.916	20.215	6.999	0.511
415.500	277.748	79.994	19.996	102.914	20.207	7.504	0.531
416.000	278.023	79.993	19.996	102.915	20.215	7.001	0.508
416.500	278.272	79.994	19.997	102.916	20.211	7.253	0.510
417.000	278.500	79.995	19.996	102.917	20.214	7.072	0.500
417.500	278.767	79.994	19.995	102.918	20.212	7.196	0.486
418.000	278.985	79.995	19.995	102.922	20.211	7.243	0.490
418.500	279.248	79.993	19.996	102.928	20.212	7.169	0.483
419.000	279.507	79.994	19.994	102.930	20.210	7.345	0.501
419.500	279.744	79.995	19.997	102.930	20.212	7.208	0.509
420.000	280.030	79.994	19.997	102.936	20.204	7.683	0.510
420.500	280.259	79.995	19.997	102.939	20.204	7.700	0.519
421.000	280.496	79.993	19.994	102.939	20.212	7.164	0.490
421.500	280.772	79.994	19.997	102.943	20.212	7.196	0.489
422.000	281.019	79.993	19.995	102.947	20.211	7.243	0.518
422.500	281.226	79.994	19.995	102.947	20.212	7.196	0.488
423.000	281.500	79.993	19.998	102.949	20.210	7.345	0.468
423.500	281.724	79.994	19.996	102.949	20.209	7.350	0.490
424.000	281.969	79.994	19.997	102.950	20.209	7.374	0.483
424.500	282.249	79.991	19.995	102.951	20.208	7.423	0.497
425.000	282.505	79.993	19.998	102.951	20.208	7.436	0.531
425.500	282.769	79.993	19.997	102.950	20.209	7.409	0.528
426.000	283.038	79.993	19.995	102.950	20.204	7.726	0.526
426.500	283.269	79.994	19.997	102.949	20.208	7.456	0.517
427.000	283.552	79.992	19.997	102.950	20.206	7.597	0.507
427.500	283.769	79.993	19.996	102.954	20.204	7.726	0.507
428.000	284.014	79.992	19.999	102.954	20.204	7.700	0.481
428.500	284.278	79.993	19.996	102.955	20.205	7.654	0.486
429.000	284.519	79.993	19.996	102.959	20.203	7.814	0.507
429.500	284.747	79.993	19.994	102.962	20.205	7.636	0.487
430.000	284.968	79.995	19.998	102.959	20.203	7.781	0.459
430.500	285.193	79.995	19.997	102.965	20.202	7.866	0.447
431.000	285.475	79.994	19.998	102.972	20.198	8.112	0.477
431.500	285.707	79.994	19.996	102.977	20.201	7.953	0.511
432.000	285.995	79.996	19.998	102.980	20.199	8.089	0.517
432.500	286.242	79.993	19.998	102.988	20.197	8.162	0.528
433.000	286.479	79.992	19.997	102.987	20.200	7.975	0.510
433.500	286.694	79.995	19.995	102.985	20.203	7.761	0.468
434.000	286.976	79.994	19.997	102.984	20.195	8.332	0.474
434.500	287.209	79.993	19.994	102.984	20.194	8.410	0.506
435.000	287.469	79.994	19.997	102.984	20.197	8.168	0.504
435.500	287.706	79.994	19.996	102.986	20.194	8.406	0.495
436.000	287.926	79.994	19.997	102.992	20.190	8.631	0.477
436.500	288.213	79.995	19.998	102.996	20.191	8.571	0.482
437.000	288.434	79.994	19.997	103.003	20.192	8.495	0.507
437.500	288.676	79.994	19.995	103.009	20.183	9.108	0.485
438.000	288.944	79.995	19.997	103.015	20.186	8.942	0.487
438.500	289.179	79.995	19.996	103.018	20.181	9.291	0.507
439.000	289.447	79.994	19.997	103.022	20.184	9.084	0.503
439.500	289.719	79.996	19.997	103.024	20.182	9.196	0.521
440.000	289.946	79.994	19.996	103.026	20.180	9.337	0.519
440.500	290.177	79.995	19.996	103.028	20.184	9.076	0.479
441.000	290.456	79.995	19.995	103.030	20.181	9.273	0.484
441.500	290.703	79.994	19.997	103.036	20.178	9.453	0.518
442.000	290.956	79.995	19.998	103.043	20.176	9.572	0.513
442.500	291.147	79.995	19.995	103.050	20.180	9.331	0.471
443.000	291.470	79.993	19.998	103.058	20.180	9.321	0.479
443.500	291.710	79.994	19.996	103.064	20.174	9.737	0.539
444.000	291.937	79.995	19.995	103.067	20.166	10.276	0.515
444.500	292.190	79.995	19.998	103.071	20.166	10.302	0.474
445.000	292.439	79.994	19.997	103.072	20.166	10.267	0.490
445.500	292.679	79.993	19.996	103.076	20.163	10.469	0.495
446.000	292.933	79.993	19.998	103.076	20.156	10.927	0.492
446.500	293.169	79.993	19.997	103.078	20.157	10.880	0.492
447.000	293.413	79.994	19.994	103.082	20.157	10.894	0.485
447.500	293.667	79.995	19.997	103.090	20.151	11.244	0.489
448.000	293.934	79.993	19.993	103.095	20.150	11.342	0.509
448.500	294.159	79.993	19.994	103.100	20.151	11.303	0.507
449.000	294.402	79.992	19.996	103.103	20.149	11.393	0.480
449.500	294.670	79.993	19.995	103.101	20.145	11.674	0.489
450.000	294.928	79.992	19.995	103.101	20.141	11.923	0.518
450.500	295.156	79.993	19.997	103.101	20.133	12.447	0.506
451.000	295.426	79.993	19.997	103.104	20.139	12.096	0.492
451.500	295.662	79.992	19.995	103.107	20.134	12.391	0.502
452.000	295.905	79.992	19.996	103.111	20.128	12.829	0.492
452.500	296.125	79.993	19.997	103.112	20.133	12.447	0.471
453.000	296.402	79.991	19.996	103.112	20.128	12.771	0.480
453.500	296.621	79.993	19.995	103.113	20.129	12.752	0.496
454.000	296.873	79.993	19.996	103.112	20.126	12.935	0.483
454.500	297.129	79.993	19.995	103.109	20.125	13.015	0.490
455.000	297.408	79.993	19.996	103.109	20.121	13.237	0.522
455.500	297.677	79.993	19.994	103.108	20.119	13.402	0.541
456.000	297.937	79.993	19.995	103.110	20.114	13.720	0.538
456.500	298.160	79.993	19.996	103.105	20.116	13.558	0.506
457.000	298.393	79.994	19.997	103.098	20.110	13.992	0.470
457.500	298.676	79.994	19.995	103.091	20.110	13.966	0.487
458.000	298.925	79.993	19.998	103.086	20.105	14.324	0.524
458.500	299.165	79.992	19.995	103.077	20.100	14.653	0.510
459.000	299.372	79.993	19.999	103.074	20.102	14.529	0.468
459.500	299.613	79.991	19.994	103.071	20.099	14.688	0.448
460.000	299.878	79.993	19.995	103.062	20.099	14.685	0.477
460.500	300.158	79.993	19.998	103.049	20.097	14.813	0.526
461.000	300.386	79.991	19.995	103.032	20.096	14.895	0.527
461.500	300.641	79.992	19.996	103.013	20.090	15.327	0.495
462.000	300.879	79.991	19.995	102.993	20.095	14.966	0.488
462.500	301.122	79.992	19.996	102.978	20.094	15.014	0.487
463.000	301.350	79.993	19.997	102.965	20.093	15.081	0.476
463.500	301.639	79.993	19.995	102.952	20.096	14.930	0.494
464.000	301.865	79.992	19.996	102.939	20.092	15.185	0.516
464.500	302.129	79.991	19.995	102.923	20.096	14.921	0.503
465.000	302.380	79.992	19.995	102.903	20.092	15.209	0.503
465.500	302.613	79.993	19.996	102.879	20.092	15.176	0.499
466.000	302.848	79.993	19.995	102.857	20.089	15.400	0.476
466.500	303.116	79.992	19.997	102.834	20.092	15.190	0.486
467.000	303.366	79.993	19.996	102.814	20.096	14.945	0.511
467.500	303.629	79.992	19.998	102.796	20.098	14.809	0.516
468.000	303.855	79.992	19.995	102.780	20.092	15.161	0.501
468.500	304.094	79.994	19.998	102.769	20.099	14.705	0.477
469.000	304.353	79.990	19.995	102.761	20.096	14.933	0.481
469.500	304.600	79.992	19.997	102.756	20.102	14.552	0.502
470.000	304.842	79.992	19.995	102.756	20.102	14.536	0.497
470.500	305.084	79.992	19.997	102.753	20.100	14.630	0.486
471.000	305.331	79.992	19.995	102.749	20.098	14.814	0.487
471.500	305.578	79.992	19.996	102.750	20.100	14.631	0.492
472.000	305.816	79.992	19.998	102.751	20.103	14.490	0.490
472.500	306.053	79.992	19.995	102.753	20.098	14.792	0.480
473.000	306.331	79.992	19.995	102.758	20.106	14.242	0.495
473.500	306.575	79.993	19.995	102.765	20.099	14.718	0.518
474.000	306.831	79.993	19.996	102.772	20.102	14.518	0.511
474.500	307.082	79.991	19.996	102.779	20.104	14.370	0.504
475.000	307.337	79.994	19.994	102.784	20.109	14.039	0.506
475.500	307.549	79.992	19.994	102.790	20.116	13.569	0.486
476.000	307.783	79.993	19.997	102.796	20.112	13.888	0.456
476.500	308.077	79.994	19.996	102.801	20.111	13.893	0.487
477.000	308.333	79.991	19.995	102.812	20.115	13.658	0.539
477.500	308.558	79.994	19.996	102.820	20.115	13.690	0.516
478.000	308.755	79.993	19.995	102.826	20.116	13.612	0.452
478.500	309.044	79.993	19.996	102.833	20.118	13.476	0.454
479.000	309.259	79.994	19.997	102.836	20.124	13.042	0.495
479.500	309.506	79.993	19.995	102.836	20.120	13.352	0.484
480.000	309.764	79.993	19.996	102.838	20.119	13.389	0.484
480.500	310.018	79.991	19.995	102.840	20.119	13.409	0.508
481.000	310.254	79.993	19.996	102.845	20.126	12.947	0.501
481.500	310.498	79.995	19.997	102.853	20.124	13.074	0.485
482.000	310.784	79.992	19.996	102.857	20.125	12.972	0.505
482.500	311.005	79.993	19.996	102.863	20.131	12.608	0.518
483.000	311.291	79.993	19.995	102.870	20.127	12.864	0.507
483.500	311.535	79.993	19.997	102.874	20.133	12.427	0.518
484.000	311.785	79.993	19.996	102.876	20.131	12.585	0.512
484.500	312.060	79.994	19.995	102.877	20.133	12.488	0.510
485.000	312.276	79.993	19.995	102.877	20.130	12.669	0.508
485.500	312.524	79.995	19.996	102.879	20.131	12.607	0.478
486.000	312.822	79.994	19.996	102.879	20.136	12.287	0.505
486.500	313.073	79.993	19.995	102.877	20.133	12.485	0.547
487.000	313.318	79.994	19.996	102.876	20.136	12.271	0.522
487.500	313.572	79.993	19.995	102.876	20.139	12.049	0.498
488.000	313.829	79.992	19.994	102.873	20.140	12.014	0.505
488.500	314.081	79.993	19.995	102.877	20.137	12.160	0.509
489.000	314.373	79.994	19.996	102.881	20.142	11.886	0.526
489.500	314.645	79.995	19.997	102.884	20.133	12.453	0.554
490.000	314.846	79.994	19.996	102.889	20.144	11.687	0.518
490.500	315.111	79.994	19.995	102.892	20.148	11.474	0.470
491.000	315.390	79.995	19.995	102.889	20.142	11.825	0.505
491.500	315.633	79.995	19.997	102.886	20.145	11.658	0.533
492.000	315.901	79.995	19.996	102.883	20.148	11.437	0.517
492.500	316.145	79.995	19.996	102.878	20.146	11.572	0.512
493.000	316.424	79.993	19.996	102.877	20.148	11.419	0.517
493.500	316.669	79.995	19.997	102.882	20.147	11.497	0.523
494.000	316.921	79.996	19.997	102.889	20.148	11.421	0.510
494.500	317.173	79.996	19.997	102.890	20.148	11.474	0.501
495.000	317.437	79.994	19.996	102.890	20.147	11.516	0.510
495.500	317.708	79.992	19.997	102.890	20.146	11.578	0.525
496.000	317.945	79.995	19.996	102.886	20.148	11.456	0.521
496.500	318.230	79.994	19.996	102.879	20.155	10.981	0.515
497.000	318.463	79.993	19.996	102.878	20.154	11.082	0.520
497.500	318.721	79.994	19.997	102.877	20.148	11.458	0.505
498.000	318.997	79.995	19.996	102.875	20.151	11.221	0.513
498.500	319.255	79.993	19.997	102.873	20.158	10.785	0.534
499.000	319.485	79.994	19.997	102.873	20.154	11.037	0.511
499.500	319.756	79.994	19.996	102.872	20.152	11.210	0.494
500.000	320.044	79.995	19.997	102.873	20.154	11.043	0.530
500.500	320.290	79.994	19.996	102.874	20.156	10.912	0.547
501.000	320.579	79.996	19.997	102.874	20.159	10.703	0.535
501.500	320.832	79.995	19.998	102.875	20.152	11.189	0.539
502.000	321.090	79.995	19.997	102.876	20.159	10.717	0.526
502.500	321.342	79.993	19.996	102.875	20.157	10.845	0.510
503.000	321.614	79.993	19.998	102.869	20.160	10.617	0.517
503.500	321.894	79.993	19.997	102.873	20.161	10.606	0.538
504.000	322.150	79.994	19.997	102.879	20.162	10.494	0.544
504.500	322.423	79.993	19.998	102.878	20.165	10.300	0.532
505.000	322.658	79.994	19.997	102.880	20.166	10.211	0.518
505.500	322.918	79.994	19.997	102.887	20.165	10.315	0.501
506.000	323.176	79.993	19.996	102.883	20.162	10.546	0.507
506.500	323.421	79.994	19.997	102.878	20.167	10.189	0.511
507.000	323.697	79.993	19.996	102.875	20.170	9.961	0.512
507.500	323.966	79.993	19.996	102.869	20.170	9.986	0.533
508.000	324.253	79.993	19.996	102.866	20.168	10.119	0.550
508.500	324.485	79.994	19.996	102.858	20.168	10.085	0.538
509.000	324.759	79.993	19.996	102.850	20.162	10.509	0.513
509.500	325.043	79.993	19.996	102.846	20.172	9.864	0.532
510.000	325.260	79.993	19.997	102.842	20.171	9.940	0.529
510.500	325.555	79.993	19.997	102.834	20.176	9.563	0.506
511.000	325.814	79.995	19.996	102.833	20.172	9.824	0.533
511.500	326.066	79.994	19.997	102.836	20.173	9.772	0.533
512.000	326.358	79.994	19.996	102.839	20.175	9.639	0.528
512.500	326.601	79.995	19.996	102.844	20.174	9.681	0.539
513.000	326.859	79.995	19.996	102.851	20.172	9.844	0.518
513.500	327.136	79.995	19.995	102.852	20.170	9.989	0.518
514.000	327.375	79.996	19.996	102.835	20.176	9.602	0.525
514.500	327.647	79.994	19.995	102.814	20.169	10.029	0.513
515.000	327.882	79.994	19.996	102.803	20.177	9.495	0.510
515.500	328.169	79.994	19.996	102.797	20.170	9.943	0.515
516.000	328.448	79.994	19.998	102.796	20.179	9.376	0.544
516.500	328.715	79.995	19.995	102.814	20.175	9.624	0.556
517.000	328.957	79.996	19.996	102.859	20.178	9.425	0.528
517.500	329.246	79.996	19.997	102.886	20.176	9.551	0.520
518.000	329.532	79.995	19.997	102.892	20.180	9.312	0.553
518.500	329.751	79.995	19.996	102.893	20.185	8.941	0.540
519.000	330.030	79.996	19.998	102.892	20.184	9.041	0.502
519.500	330.307	79.995	19.997	102.866	20.183	9.128	0.527
520.000	330.550	79.994	19.996	102.845	20.191	8.567	0.538
520.500	330.831	79.994	19.997	102.840	20.185	8.993	0.522
521.000	331.087	79.996	19.998	102.838	20.186	8.915	0.531
521.500	331.324	79.995	19.997	102.836	20.186	8.880	0.515
522.000	331.568	79.995	19.996	102.833	20.189	8.704	0.487
522.500	331.857	79.996	19.997	102.832	20.186	8.924	0.506
523.000	332.077	79.992	19.995	102.832	20.189	8.692	0.521
523.500	332.335	79.994	19.997	102.832	20.189	8.710	0.494
524.000	332.599	79.994	19.997	102.832	20.189	8.729	0.500
524.500	332.850	79.993	19.997	102.834	20.187	8.836	0.518
525.000	333.124	79.993	19.997	102.832	20.196	8.230	0.520
525.500	333.390	79.994	19.997	102.828	20.189	8.690	0.532
526.000	333.657	79.991	19.997	102.823	20.196	8.255	0.537
526.500	333.921	79.992	19.998	102.817	20.196	8.238	0.532
527.000	334.151	79.993	19.997	102.812	20.200	7.958	0.512
527.500	334.421	79.993	19.998	102.807	20.196	8.202	0.497
528.000	334.671	79.991	19.998	102.804	20.197	8.158	0.510
528.500	334.925	79.990	19.997	102.803	20.200	7.971	0.512
529.000	335.191	79.992	19.997	102.800	20.197	8.191	0.512
529.500	335.438	79.992	19.996	102.797	20.199	8.022	0.516
530.000	335.712	79.992	19.998	102.796	20.195	8.281	0.517
530.500	335.920	79.992	19.998	102.795	20.193	8.405	0.501
531.000	336.185	79.993	19.997	102.795	20.200	7.957	0.477
531.500	336.443	79.990	19.996	102.797	20.196	8.220	0.498
532.000	336.684	79.991	19.996	102.798	20.201	7.930	0.511
532.500	336.943	79.994	19.997	102.800	20.203	7.734	0.499
533.000	337.187	79.991	19.997	102.800	20.202	7.841	0.502
533.500	337.414	79.993	19.997	102.797	20.197	8.141	0.487
534.000	337.689	79.993	19.997	102.789	20.194	8.374	0.487
534.500	337.925	79.992	19.996	102.784	20.198	8.129	0.507
535.000	338.191	79.993	19.997	102.783	20.204	7.677	0.507
535.500	338.415	79.992	19.995	102.782	20.203	7.770	0.496
536.000	338.662	79.994	19.997	102.782	20.201	7.921	0.480
536.500	338.927	79.993	19.996	102.784	20.201	7.876	0.492
537.000	339.199	79.992	19.996	102.785	20.205	7.661	0.524
537.500	339.435	79.994	19.996	102.782	20.206	7.553	0.522
538.000	339.653	79.992	19.997	102.781	20.204	7.684	0.481
538.500	339.950	79.991	19.995	102.779	20.206	7.542	0.485
539.000	340.158	79.994	19.996	102.781	20.196	8.203	0.510
539.500	340.447	79.991	19.995	102.783	20.205	7.629	0.501
540.000	340.659	79.993	19.996	102.778	20.201	7.911	0.499
540.500	340.891	79.993	19.997	102.772	20.208	7.408	0.473
541.000	341.162	79.993	19.996	102.771	20.209	7.356	0.473
541.500	341.384	79.992	19.995	102.771	20.205	7.626	0.498
542.000	341.647	79.995	19.996	102.770	20.204	7.680	0.489
542.500	341.870	79.993	19.997	102.774	20.202	7.804	0.485
543.000	342.121	79.994	19.996	102.776	20.203	7.789	0.480
543.500	342.361	79.993	19.995	102.779	20.210	7.293	0.482
544.000	342.637	79.994	19.997	102.776	20.201	7.894	0.504
544.500	342.863	79.992	19.995	102.771	20.207	7.532	0.509
545.000	343.071	79.992	19.995	102.767	20.201	7.907	0.468
545.500	343.358	79.992	19.995	102.767	20.206	7.594	0.464
546.000	343.545	79.993	19.996	102.769	20.205	7.646	0.485
546.500	343.802	79.994	19.997	102.773	20.206	7.561	0.459
547.000	344.066	79.993	19.996	102.777	20.209	7.364	0.483
547.500	344.233	79.992	19.995	102.776	20.214	7.062	0.475
548.000	344.511	79.993	19.996	102.772	20.208	7.453	0.438
548.500	344.744	79.993	19.996	102.766	20.208	7.427	0.478
549.000	345.010	79.992	19.995	102.758	20.208	7.452	0.505
549.500	345.270	79.993	19.997	102.760	20.200	7.937	0.512
550.000	345.507	79.992	19.996	102.767	20.207	7.485	0.511
550.500	345.756	79.993	19.997	102.770	20.200	7.954	0.492
551.000	345.976	79.993	19.996	102.774	20.210	7.278	0.477
551.500	346.241	79.993	19.996	102.779	20.207	7.513	0.477
552.000	346.520	79.993	19.996	102.776	20.209	7.390	0.514
552.500	346.743	79.993	19.997	102.774	20.202	7.841	0.523
553.000	346.990	79.993	19.995	102.778	20.215	6.972	0.487
553.500	347.219	79.994	19.996	102.781	20.210	7.333	0.473
554.000	347.489	79.993	19.995	102.781	20.213	7.087	0.487
554.500	347.736	79.992	19.997	102.785	20.209	7.391	0.508
555.000	347.962	79.992	19.996	102.786	20.207	7.502	0.495
555.500	348.246	79.993	19.998	102.786	20.208	7.439	0.491
556.000	348.503	79.994	19.997	102.787	20.212	7.146	0.525
556.500	348.764	79.992	19.996	102.791	20.210	7.319	0.530
557.000	348.966	79.993	19.996	102.791	20.209	7.397	0.491
557.500	349.275	79.993	19.997	102.793	20.217	6.804	0.487
558.000	349.561	79.990	19.996	102.793	20.213	7.102	0.553
558.500	349.722	79.993	19.996	102.793	20.214	7.006	0.521
559.000	350.014	79.993	19.996	102.794	20.217	6.811	0.450
559.500	350.254	79.992	19.997	102.794	20.210	7.311	0.493
560.000	350.555	79.993	19.997	102.796	20.210	7.302	0.537
560.500	350.821	79.993	19.996	102.797	20.217	6.833	0.554
561.000	351.013	79.992	19.996	102.798	20.215	6.997	0.512
561.500	351.268	79.993	19.996	102.797	20.218	6.769	0.452
562.000	351.587	79.994	19.996	102.797	20.212	7.138	0.511
562.500	351.831	79.992	19.998	102.797	20.216	6.894	0.569
563.000	352.077	79.993	19.996	102.795	20.217	6.837	0.526
563.500	352.306	79.992	19.993	102.796	20.213	7.077	0.482
564.000	352.562	79.993	19.996	102.796	20.222	6.529	0.480
564.500	352.809	79.993	19.995	102.798	20.219	6.696	0.494
565.000	353.074	79.994	19.998	102.801	20.217	6.819	0.508
565.500	353.340	79.994	19.996	102.802	20.212	7.202	0.521
566.000	353.606	79.993	19.997	102.802	20.226	6.211	0.532
566.500	353.866	79.994	19.996	102.804	20.219	6.709	0.530
567.000	354.144	79.994	19.996	102.803	20.225	6.277	0.532
567.500	354.397	79.994	19.995	102.804	20.224	6.359	0.534
568.000	354.661	79.994	19.996	102.805	20.213	7.074	0.524
568.500	354.847	79.993	19.995	102.809	20.226	6.235	0.483
569.000	355.181	79.995	19.996	102.809	20.224	6.359	0.485
569.500	355.423	79.994	19.995	102.807	20.223	6.465	0.548
570.000	355.703	79.995	19.996	102.804	20.221	6.582	0.550
570.500	355.896	79.995	19.995	102.802	20.224	6.389	0.497
571.000	356.216	79.995	19.996	102.799	20.230	5.983	0.492
571.500	356.465	79.996	19.996	102.803	20.227	6.185	0.541
572.000	356.775	79.995	19.996	102.809	20.227	6.172	0.564
572.500	356.980	79.995	19.996	102.814	20.227	6.181	0.537
573.000	357.201	79.996	19.996	102.817	20.227	6.155	0.471
573.500	357.478	79.995	19.995	102.821	20.230	5.994	0.462
574.000	357.677	79.994	19.994	102.822	20.232	5.842	0.487
574.500	358.002	79.995	19.996	102.823	20.229	6.063	0.500
575.000	358.264	79.995	19.996	102.823	20.232	5.845	0.556
575.500	358.583	79.996	19.995	102.827	20.232	5.810	0.584
576.000	358.794	79.995	19.995	102.830	20.226	6.264	0.555
576.500	359.085	79.995	19.996	102.830	20.228	6.075	0.516
577.000	359.321	79.994	19.995	102.827	20.230	5.980	0.515
577.500	359.562	79.994	19.996	102.825	20.227	6.171	0.502
578.000	360.061	79.995	19.995	102.823	20.237	5.528	0.608
578.500	359.834	79.994	19.996	102.823	20.234	5.675	0.506
579.000	360.000	79.993	19.996	102.824	20.230	5.969	0.106
579.500	360.552	79.995	19.995	102.829	20.231	5.869	0.328
580.000	361.010	79.995	19.996	102.834	20.234	5.677	0.864
580.500	361.481	79.993	19.996	102.837	20.234	5.706	0.970
581.000	361.761	79.995	19.998	102.837	20.231	5.897	0.840
581.500	361.899	79.996	19.997	102.837	20.231	5.908	0.584
582.000	361.728	79.993	19.995	102.839	20.234	5.693	0.193
582.500	362.168	79.993	19.996	102.838	20.237	5.528	0.118
583.000	362.429	79.994	19.995	102.834	20.237	5.476	0.485
583.500	362.654	79.993	19.996	102.832	20.232	5.806	0.593
584.000	363.026	79.994	19.997	102.831	20.236	5.554	0.542
584.500	363.135	79.994	19.996	102.830	20.233	5.793	0.539
585.000	363.523	79.994	19.996	102.834	20.241	5.248	0.488
585.500	363.746	79.991	19.996	102.844	20.235	5.626	0.554
586.000	363.962	79.992	19.996	102.852	20.234	5.698	0.525
586.500	364.305	79.994	19.996	102.855	20.236	5.558	0.499
587.000	364.514	79.993	19.997	102.856	20.233	5.789	0.556
587.500	364.780	79.993	19.996	102.853	20.233	5.779	0.514
588.000	365.081	79.994	19.996	102.849	20.237	5.521	0.521
588.500	365.259	79.993	19.996	102.845	20.238	5.425	0.523
589.000	365.635	79.994	19.997	102.846	20.243	5.078	0.516
589.500	365.799	79.995	19.997	102.850	20.244	5.017	0.547
590.000	366.091	79.994	19.995	102.853	20.239	5.352	0.498
590.500	366.352	79.996	19.997	102.851	20.237	5.474	0.504
591.000	366.613	79.994	19.996	102.852	20.242	5.151	0.538
591.500	366.865	79.995	19.996	102.848	20.239	5.333	0.518
592.000	367.161	79.994	19.996	102.843	20.240	5.329	0.531
592.500	367.389	79.995	19.996	102.840	20.239	5.346	0.536
593.000	367.667	79.995	19.996	102.839	20.235	5.637	0.515
593.500	367.967	79.995	19.997	102.841	20.243	5.124	0.542
594.000	368.190	79.995	19.996	102.846	20.242	5.137	0.550
594.500	368.437	79.994	19.996	102.847	20.245	4.976	0.496
595.000	368.756	79.995	19.996	102.848	20.235	5.614	0.518
595.500	369.004	79.995	19.996	102.850	20.241	5.261	0.567
596.000	369.242	79.994	19.996	102.848	20.237	5.471	0.527
596.500	369.547	79.996	19.997	102.842	20.242	5.161	0.515
597.000	369.777	79.994	19.995	102.847	20.245	4.950	0.539
597.500	370.008	79.995	19.996	102.849	20.246	4.929	0.498
598.000	370.300	79.996	19.997	102.848	20.247	4.831	0.492
598.500	370.546	79.993	19.994	102.852	20.239	5.335	0.531
599.000	370.831	79.996	19.996	102.858	20.245	4.933	0.535
599.500	371.076	79.995	19.996	102.858	20.247	4.805	0.530
600.000	371.303	79.995	19.995	102.856	20.243	5.118	0.501
600.500	371.595	79.995	19.996	102.856	20.252	4.470	0.495
601.000	371.808	79.994	19.995	102.850	20.251	4.583	0.512
601.500	372.171	79.996	19.995	102.843	20.249	4.691	0.541
602.000	372.387	79.995	19.995	102.838	20.248	4.789	0.578
602.500	372.636	79.995	19.997	102.837	20.248	4.778	0.522
603.000	372.906	79.994	19.998	102.838	20.251	4.563	0.492
603.500	373.168	79.994	19.996	102.837	20.247	4.846	0.525
604.000	373.465	79.994	19.996	102.838	20.248	4.776	0.545
604.500	373.687	79.995	19.996	102.840	20.254	4.370	0.539
605.000	373.997	79.993	19.997	102.846	20.248	4.792	0.526
605.500	374.211	79.993	19.995	102.851	20.248	4.732	0.528
606.000	374.519	79.991	19.996	102.852	20.243	5.073	0.523
606.500	374.743	79.993	19.997	102.853	20.252	4.467	0.527
607.000	374.993	79.991	19.995	102.852	20.252	4.489	0.503
607.500	375.317	79.993	19.998	102.849	20.253	4.461	0.523
608.000	375.553	79.993	19.998	102.844	20.246	4.894	0.567
608.500	375.822	79.993	19.996	102.845	20.244	5.040	0.533
609.000	376.052	79.991	19.995	102.844	20.246	4.900	0.502
609.500	376.321	79.991	19.996	102.842	20.255	4.273	0.499
610.000	376.640	79.991	19.997	102.841	20.250	4.628	0.544
610.500	376.926	79.993	19.997	102.843	20.245	4.935	0.596
611.000	377.150	79.993	19.998	102.841	20.251	4.557	0.557
611.500	377.401	79.993	19.997	102.845	20.247	4.834	0.492
612.000	377.624	79.995	19.998	102.850	20.254	4.385	0.475
612.500	377.900	79.992	19.997	102.851	20.253	4.458	0.487
613.000	378.140	79.992	19.997	102.855	20.248	4.732	0.507
613.500	378.379	79.992	19.997	102.855	20.243	5.090	0.498
614.000	378.687	79.991	19.997	102.851	20.251	4.595	0.513
614.500	378.966	79.993	19.997	102.845	20.256	4.233	0.567
615.000	379.192	79.992	19.997	102.847	20.251	4.587	0.546
615.500	379.476	79.993	19.998	102.847	20.249	4.693	0.508
616.000	379.720	79.993	19.999	102.850	20.245	4.971	0.519
616.500	379.966	79.992	19.997	102.858	20.247	4.813	0.509
617.000	380.225	79.992	19.998	102.865	20.254	4.387	0.497
617.500	380.537	79.993	19.998	102.860	20.250	4.633	0.538
618.000	380.766	79.993	19.998	102.852	20.245	4.989	0.556
618.500	381.021	79.992	19.998	102.847	20.244	5.041	0.512
619.000	381.258	79.993	19.996	102.841	20.251	4.567	0.488
619.500	381.584	79.993	19.995	102.838	20.247	4.806	0.528
620.000	381.781	79.992	19.997	102.843	20.245	4.973	0.543
620.500	382.069	79.992	19.997	102.847	20.245	4.962	0.504
621.000	382.304	79.995	19.998	102.851	20.245	4.985	0.504
621.500	382.561	79.993	19.997	102.857	20.251	4.586	0.508
622.000	382.837	79.993	19.997	102.858	20.244	5.062	0.513
622.500	383.122	79.993	19.996	102.860	20.248	4.779	0.547
623.000	383.343	79.994	19.995	102.864	20.245	4.943	0.534
623.500	383.619	79.994	19.998	102.868	20.242	5.150	0.502
624.000	383.841	79.994	19.998	102.868	20.238	5.408	0.497
624.500	384.133	79.993	19.996	102.870	20.243	5.076	0.505
625.000	384.374	79.993	19.996	102.869	20.241	5.219	0.524
625.500	384.652	79.994	19.996	102.867	20.240	5.328	0.526
626.000	384.901	79.996	19.997	102.861	20.240	5.308	0.523
626.500	385.170	79.993	19.996	102.857	20.243	5.129	0.522
627.000	385.402	79.995	19.998	102.855	20.245	4.969	0.509
627.500	385.685	79.994	19.996	102.855	20.236	5.544	0.508
628.000	385.912	79.994	19.997	102.856	20.238	5.401	0.513
628.500	386.184	79.993	19.998	102.858	20.236	5.547	0.504
629.000	386.487	79.994	19.996	102.861	20.239	5.340	0.537
629.500	386.700	79.994	19.997	102.864	20.240	5.310	0.546
630.000	386.958	79.993	19.995	102.865	20.236	5.588	0.493
630.500	387.260	79.993	19.995	102.865	20.231	5.919	0.516
631.000	387.478	79.994	19.997	102.868	20.236	5.552	0.540
631.500	387.784	79.994	19.996	102.872	20.235	5.658	0.522
632.000	388.024	79.993	19.996	102.874	20.227	6.181	0.535
632.500	388.293	79.992	19.996	102.877	20.231	5.911	0.528
633.000	388.549	79.994	19.996	102.877	20.232	5.829	0.517
633.500	388.810	79.992	19.995	102.875	20.230	5.969	0.521
634.000	389.052	79.992	19.995	102.867	20.228	6.082	0.510
634.500	389.288	79.993	19.996	102.857	20.229	6.065	0.491
635.000	389.545	79.993	19.995	102.854	20.224	6.361	0.486
635.500	389.839	79.991	19.996	102.850	20.224	6.352	0.522
636.000	390.102	79.994	19.996	102.848	20.224	6.361	0.554
636.500	390.347	79.992	19.996	102.855	20.227	6.189	0.533
637.000	390.596	79.993	19.996	102.862	20.221	6.545	0.501
637.500	390.801	79.994	19.996	102.864	20.222	6.502	0.474
638.000	391.090	79.993	19.996	102.870	20.224	6.348	0.474
638.500	391.374	79.993	19.997	102.869	20.221	6.576	0.534
639.000	391.620	79.992	19.996	102.868	20.218	6.753	0.552
639.500	391.896	79.992	19.996	102.863	20.219	6.703	0.526
640.000	392.142	79.993	19.996	102.858	20.213	7.113	0.522
640.500	392.381	79.993	19.996	102.853	20.217	6.830	0.503
641.000	392.649	79.992	19.997	102.857	20.214	7.056	0.496
641.500	392.901	79.991	19.996	102.854	20.213	7.125	0.513
642.000	393.204	79.993	19.997	102.853	20.210	7.294	0.537
642.500	393.437	79.992	19.995	102.858	20.210	7.331	0.545
643.000	393.690	79.994	19.997	102.862	20.212	7.162	0.511
643.500	393.941	79.993	19.995	102.862	20.209	7.366	0.495
644.000	394.189	79.993	19.996	102.868	20.210	7.323	0.502
644.500	394.500	79.993	19.995	102.874	20.205	7.664	0.529
645.000	394.707	79.994	19.997	102.871	20.199	8.024	0.539
645.500	394.996	79.994	19.996	102.868	20.199	8.031	0.507
646.000	395.226	79.994	19.997	102.865	20.205	7.653	0.507
646.500	395.458	79.995	19.997	102.862	20.200	7.955	0.490
647.000	395.757	79.994	19.997	102.862	20.201	7.876	0.497
647.500	395.991	79.992	19.996	102.864	20.203	7.761	0.532
648.000	396.262	79.993	19.996	102.864	20.192	8.525	0.519
648.500	396.517	79.995	19.997	102.864	20.200	7.954	0.516
649.000	396.775	79.995	19.995	102.862	20.197	8.162	0.520
649.500	397.009	79.994	19.996	102.855	20.192	8.520	0.502
650.000	397.308	79.994	19.994	102.848	20.194	8.362	0.512
650.500	397.521	79.994	19.995	102.852	20.189	8.703	0.523
651.000	397.764	79.994	19.995	102.855	20.186	8.886	0.484
651.500	398.032	79.994	19.995	102.856	20.189	8.687	0.483
652.000	398.296	79.994	19.994	102.864	20.188	8.767	0.521
652.500	398.547	79.996	19.996	102.867	20.189	8.686	0.524
653.000	398.832	79.994	19.995	102.865	20.188	8.758	0.526
653.500	399.068	79.995	19.997	102.864	20.190	8.611	0.528
654.000	399.343	79.994	19.996	102.866	20.180	9.278	0.516
654.500	399.607	79.996	19.995	102.865	20.179	9.380	0.525
655.000	399.843	79.994	19.995	102.867	20.178	9.413	0.520
655.500	400.117	79.995	19.994	102.867	20.176	9.552	0.505
656.000	400.339	79.993	19.995	102.868	20.179	9.393	0.503
656.500	400.575	79.994	19.997	102.868	20.172	9.875	0.477
657.000	400.840	79.995	19.995	102.865	20.175	9.662	0.480
657.500	401.075	79.994	19.996	102.865	20.170	9.992	0.501
658.000	401.331	79.992	19.994	102.868	20.170	9.991	0.495
658.500	401.599	79.992	19.996	102.868	20.168	10.089	0.507
659.000	401.845	79.993	19.994	102.868	20.170	9.948	0.519
659.500	402.078	79.993	19.994	102.873	20.162	10.508	0.496
660.000	402.362	79.993	19.995	102.875	20.164	10.389	0.498
660.500	402.612	79.993	19.994	102.876	20.162	10.521	0.526
661.000	402.876	79.994	19.995	102.875	20.164	10.390	0.524
661.500	403.110	79.995	19.996	102.874	20.160	10.644	0.506
662.000	403.384	79.994	19.996	102.870	20.154	11.031	0.503
662.500	403.642	79.993	19.996	102.865	20.148	11.451	0.520
663.000	403.908	79.994	19.996	102.864	20.150	11.332	0.528
663.500	404.123	79.994	19.995	102.865	20.151	11.251	0.503
664.000	404.381	79.995	19.996	102.863	20.145	11.648	0.477
664.500	404.659	79.995	19.997	102.862	20.147	11.530	0.504
665.000	404.897	79.995	19.996	102.861	20.148	11.433	0.526
665.500	405.119	79.994	19.996	102.860	20.148	11.474	0.488
666.000	405.424	79.994	19.997	102.858	20.141	11.888	0.493
666.500	405.639	79.995	19.997	102.858	20.136	12.245	0.524
667.000	405.882	79.995	19.997	102.859	20.135	12.298	0.489
667.500	406.149	79.995	19.997	102.857	20.137	12.153	0.484
668.000	406.396	79.994	19.995	102.859	20.134	12.398	0.512
668.500	406.642	79.992	19.996	102.860	20.134	12.400	0.503
669.000	406.875	79.995	19.996	102.856	20.134	12.365	0.486
669.500	407.126	79.995	19.996	102.852	20.126	12.949	0.481
670.000	407.434	79.995	19.996	102.852	20.126	12.932	0.521
670.500	407.654	79.994	19.995	102.850	20.129	12.723	0.544
671.000	407.877	79.997	19.997	102.847	20.120	13.298	0.485
671.500	408.152	79.994	19.996	102.850	20.124	13.053	0.470
672.000	408.388	79.996	19.997	102.856	20.118	13.429	0.505
672.500	408.673	79.995	19.997	102.857	20.115	13.685	0.516
673.000	408.931	79.995	19.997	102.858	20.110	13.961	0.532
673.500	409.173	79.995	19.996	102.864	20.113	13.786	0.522
674.000	409.418	79.996	19.995	102.867	20.111	13.895	0.494
674.500	409.656	79.996	19.997	102.867	20.110	14.019	0.485
675.000	409.901	79.998	19.998	102.868	20.105	14.347	0.483
675.500	410.148	79.996	19.996	102.863	20.103	14.455	0.488
676.000	410.411	79.994	19.995	102.858	20.108	14.094	0.501
676.500	410.667	79.994	19.997	102.858	20.099	14.722	0.514
677.000	410.909	79.994	19.996	102.858	20.091	15.280	0.508
677.500	411.180	79.994	19.996	102.859	20.098	14.774	0.505
678.000	411.430	79.994	19.995	102.862	20.092	15.201	0.517
678.500	411.642	79.995	19.996	102.865	20.088	15.481	0.491
679.000	411.916	79.996	19.997	102.864	20.085	15.659	0.474
679.500	412.171	79.995	19.996	102.865	20.078	16.143	0.508
680.000	412.454	79.995	19.995	102.867	20.076	16.246	0.533
680.500	412.658	79.994	19.995	102.869	20.075	16.301	0.512
681.000	412.919	79.996	19.996	102.869	20.070	16.694	0.476
681.500	413.167	79.994	19.996	102.869	20.065	17.016	0.488
682.000	413.391	79.995	19.996	102.870	20.064	17.081	0.491
682.500	413.661	79.996	19.997	102.869	20.059	17.415	0.483
683.000	413.892	79.995	19.997	102.870	20.057	17.517	0.497
683.500	414.167	79.993	19.995	102.867	20.058	17.456	0.503
684.000	414.431	79.994	19.996	102.864	20.049	18.054	0.522
684.500	414.656	79.994	19.998	102.860	20.050	18.035	0.514
685.000	414.911	79.991	19.996	102.857	20.042	18.510	0.485
685.500	415.169	79.994	19.997	102.857	20.047	18.181	0.497
686.000	415.393	79.994	19.996	102.857	20.043	18.487	0.497
686.500	415.674	79.993	19.996	102.860	20.035	19.012	0.493
687.000	415.909	79.993	19.997	102.867	20.039	18.747	0.510
687.500	416.172	79.994	19.996	102.875	20.028	19.498	0.507
688.000	416.409	79.992	19.997	102.876	20.025	19.652	0.499
688.500	416.673	79.992	19.996	102.874	20.027	19.559	0.501
689.000	416.934	79.993	19.996	102.868	20.017	20.227	0.513
689.500	417.169	79.992	19.996	102.866	20.018	20.121	0.510
690.000	417.407	79.993	19.996	102.860	20.012	20.550	0.485
690.500	417.656	79.992	19.997	102.860	20.009	20.769	0.480
691.000	417.935	79.994	19.998	102.865	20.001	21.271	0.508
691.500	418.159	79.994	19.997	102.871	19.994	21.734	0.516
692.000	418.432	79.993	19.998	102.871	20.001	21.308	0.500
692.500	418.698	79.992	19.996	102.872	20.001	21.289	0.518
693.000	418.936	79.993	19.995	102.872	19.986	22.288	0.521
693.500	419.168	79.992	19.996	102.872	19.985	22.357	0.487
694.000	419.397	79.992	19.995	102.872	19.981	22.648	0.465
694.500	419.668	79.993	19.996	102.872	19.974	23.113	0.480
695.000	419.909	79.993	19.997	102.870	19.972	23.213	0.506
695.500	420.161	79.992	19.995	102.870	19.972	23.236	0.503
696.000	420.408	79.992	19.996	102.870	19.961	23.925	0.496
696.500	420.644	79.992	19.997	102.867	19.959	24.092	0.491
697.000	420.897	79.993	19.999	102.867	19.954	24.444	0.486
697.500	421.173	79.993	19.997	102.868	19.950	24.724	0.508
698.000	421.422	79.992	19.998	102.869	19.945	25.020	0.527
698.500	421.669	79.993	19.997	102.869	19.945	25.024	0.511
699.000	421.912	79.992	19.997	102.870	19.942	25.254	0.493
699.500	422.148	79.993	19.997	102.870	19.934	25.740	0.484
700.000	422.384	79.993	19.998	102.872	19.926	26.329	0.475
700.500	422.668	79.992	19.996	102.872	19.921	26.626	0.496
701.000	422.930	79.993	19.999	102.875	19.918	26.861	0.534
701.500	423.163	79.990	19.997	102.875	19.911	27.279	0.521
702.000	423.444	79.993	19.997	102.876	19.912	27.257	0.505
702.500	423.688	79.992	19.997	102.874	19.904	27.759	0.519
703.000	423.875	79.992	19.996	102.874	19.898	28.148	0.478
703.500	424.196	79.991	19.997	102.872	19.899	28.122	0.469
704.000	424.402	79.992	19.997	102.873	19.886	28.990	0.517
704.500	424.679	79.993	19.997	102.873	19.887	28.897	0.505
705.000	424.915	79.992	19.997	102.873	19.882	29.221	0.498
705.500	425.166	79.992	19.996	102.873	19.877	29.579	0.500
706.000	425.445	79.993	19.997	102.873	19.867	30.269	0.508
706.500	425.731	79.993	19.999	102.873	19.859	30.804	0.547
707.000	425.953	79.993	19.997	102.874	19.858	30.838	0.536
707.500	426.163	79.991	19.997	102.873	19.853	31.151	0.470
708.000	426.434	79.993	19.999	102.872	19.846	31.656	0.457
708.500	426.700	79.993	19.997	102.872	19.839	32.136	0.509
709.000	426.943	79.992	19.997	102.871	19.834	32.477	0.523
709.500	427.222	79.993	19.996	102.870	19.828	32.820	0.515
710.000	427.436	79.994	19.997	102.871	19.819	33.423	0.508
710.500	427.719	79.993	19.998	102.872	19.820	33.414	0.495
711.000	427.958	79.993	19.997	102.873	19.810	34.023	0.509
711.500	428.186	79.992	19.996	102.874	19.799	34.774	0.495
712.000	428.418	79.991	19.996	102.874	19.804	34.438	0.464
712.500	428.731	79.992	19.996	102.870	19.797	34.937	0.502
713.000	428.923	79.993	19.996	102.869	19.792	35.285	0.525
713.500	429.178	79.993	19.998	102.870	19.783	35.878	0.476
714.000	429.438	79.993	19.996	102.869	19.781	35.979	0.481
714.500	429.686	79.993	19.996	102.867	19.777	36.252	0.512
715.000	429.970	79.992	19.996	102.869	19.769	36.772	0.520
715.500	430.225	79.992	19.996	102.869	19.760	37.416	0.535
716.000	430.476	79.992	19.997	102.867	19.752	37.915	0.523
716.500	430.690	79.992	19.995	102.867	19.751	38.018	0.486
717.000	430.925	79.991	19.997	102.870	19.746	38.351	0.457
717.500	431.179	79.992	19.995	102.872	19.738	38.842	0.468
718.000	431.430	79.992	19.996	102.874	19.734	39.148	0.497
718.500	431.677	79.993	19.996	102.876	19.728	39.565	0.502
719.000	431.948	79.991	19.996	102.877	19.722	39.969	0.508
719.500	432.212	79.992	19.996	102.877	19.717	40.276	0.526
720.000	432.392	79.993	19.997	102.877	19.708	40.871	0.490
720.500	432.643	79.992	19.995	102.877	19.704	41.119	0.438
721.000	432.937	79.992	19.997	102.877	19.695	41.735	0.488
721.500	433.206	79.992	19.996	102.874	19.693	41.864	0.554
722.000	433.412	79.991	19.996	102.872	19.690	42.057	0.519
722.500	433.669	79.992	19.995	102.872	19.685	42.392	0.469
723.000	433.907	79.993	19.997	102.871	19.674	43.133	0.479
723.500	434.157	79.993	19.996	102.872	19.665	43.719	0.491
724.000	434.442	79.992	19.996	102.875	19.664	43.848	0.512
724.500	434.685	79.993	19.995	102.875	19.656	44.384	0.532
725.000	434.941	79.993	19.997	102.873	19.653	44.582	0.514
725.500	435.224	79.991	19.995	102.873	19.644	45.147	0.519
726.000	435.475	79.993	19.995	102.872	19.640	45.415	0.536
726.500	435.710	79.993	19.996	102.872	19.636	45.708	0.510
727.000	435.957	79.994	19.998	102.875	19.630	46.075	0.484
727.500	436.225	79.992	19.995	102.876	19.625	46.435	0.499
728.000	436.432	79.993	19.996	102.876	19.619	46.833	0.495
728.500	436.689	79.993	19.996	102.875	19.616	47.056	0.470
729.000	436.970	79.993	19.997	102.874	19.605	47.727	0.501
729.500	437.191	79.995	19.996	102.875	19.599	48.146	0.520
730.000	437.430	79.993	19.995	102.874	19.591	48.697	0.481
730.500	437.677	79.993	19.995	102.873	19.591	48.708	0.473
731.000	437.938	79.995	19.996	102.872	19.585	49.079	0.497
731.500	438.178	79.994	19.996	102.868	19.580	49.413	0.505
732.000	438.433	79.994	19.996	102.864	19.574	49.824	0.498
732.500	438.671	79.994	19.995	102.862	19.574	49.825	0.494
733.000	438.907	79.994	19.996	102.862	19.566	50.358	0.483
733.500	439.184	79.995	19.997	102.862	19.557	51.000	0.493
734.000	439.426	79.994	19.997	102.866	19.551	51.367	0.516
734.500	439.648	79.994	19.996	102.871	19.545	51.802	0.492
735.000	439.926	79.994	19.995	102.874	19.541	52.039	0.482
735.500	440.215	79.994	19.996	102.873	19.536	52.368	0.533
736.000	440.458	79.993	19.998	102.873	19.528	52.891	0.549
736.500	440.681	79.994	19.995	102.873	19.526	53.054	0.499
737.000	440.967	79.993	19.995	102.871	19.522	53.332	0.488
737.500	441.181	79.994	19.996	102.871	19.515	53.807	0.504
738.000	441.457	79.995	19.996	102.871	19.511	54.018	0.494
738.500	441.706	79.994	19.996	102.870	19.513	53.942	0.508
739.000	441.979	79.993	19.996	102.871	19.503	54.609	0.524
739.500	442.211	79.994	19.996	102.871	19.497	54.992	0.514
740.000	442.504	79.992	19.996	102.871	19.486	55.695	0.514
740.500	442.727	79.994	19.997	102.873	19.489	55.486	0.520
741.000	443.004	79.993	19.995	102.874	19.481	56.027	0.508
741.500	443.255	79.994	19.996	102.873	19.476	56.361	0.514
742.000	443.550	79.993	19.995	102.873	19.469	56.838	0.537
742.500	443.770	79.994	19.997	102.873	19.464	57.202	0.531
743.000	444.030	79.993	19.996	102.872	19.457	57.640	0.498
743.500	444.288	79.995	19.996	102.871	19.455	57.816	0.499
744.000	444.539	79.994	19.995	102.869	19.445	58.470	0.514
744.500	444.779	79.995	19.997	102.870	19.438	58.934	0.500
745.000	445.060	79.995	19.997	102.870	19.431	59.363	0.506
745.500	445.320	79.994	19.996	102.874	19.427	59.647	0.531
746.000	445.598	79.993	19.995	102.876	19.419	60.210	0.539
746.500	445.845	79.994	19.996	102.881	19.417	60.305	0.532
747.000	446.078	79.995	19.996	102.882	19.405	61.112	0.502
747.500	446.328	79.993	19.995	102.881	19.405	61.150	0.482
748.000	446.556	79.995	19.995	102.877	19.399	61.559	0.480
748.500	446.840	79.994	19.995	102.876	19.391	62.041	0.495
749.000	447.088	79.995	19.996	102.871	19.388	62.286	0.522
749.500	447.328	79.996	19.996	102.871	19.380	62.815	0.511
750.000	447.607	79.994	19.995	102.871	19.379	62.900	0.503
750.500	447.876	79.997	19.996	102.869	19.372	63.327	0.533
751.000	448.115	79.997	19.996	102.869	19.366	63.755	0.528
751.500	448.385	79.996	19.996	102.870	19.365	63.779	0.508
752.000	448.650	79.996	19.996	102.871	19.359	64.195	0.522
752.500	448.900	79.996	19.996	102.871	19.351	64.720	0.525
753.000	449.129	79.996	19.995	102.869	19.344	65.205	0.497
753.500	449.404	79.996	19.995	102.867	19.341	65.416	0.492
754.000	449.633	79.996	19.995	102.865	19.334	65.841	0.504
754.500	449.890	79.997	19.996	102.864	19.332	66.000	0.495
755.000	450.169	79.996	19.995	102.864	19.325	66.487	0.511
755.500	450.461	79.995	19.995	102.868	19.314	67.183	0.554
756.000	450.675	79.996	19.996	102.869	19.304	67.854	0.539
756.500	450.942	79.996	19.995	102.874	19.306	67.773	0.493
757.000	451.157	79.995	19.995	102.879	19.302	68.011	0.482
757.500	451.461	79.997	19.997	102.883	19.293	68.639	0.500
758.000	451.710	79.995	19.996	102.886	19.290	68.798	0.535
758.500	451.941	79.996	19.995	102.888	19.290	68.815	0.516
759.000	452.207	79.996	19.996	102.884	19.289	68.897	0.488
759.500	452.414	79.996	19.997	102.879	19.280	69.481	0.485
760.000	452.662	79.994	19.996	102.875	19.278	69.634	0.464
760.500	452.951	79.994	19.997	102.871	19.279	69.570	0.496
761.000	453.212	79.994	19.998	102.870	19.275	69.809	0.544
761.500	453.456	79.993	19.997	102.868	19.273	69.942	0.528
762.000	453.690	79.992	19.995	102.862	19.275	69.851	0.491
762.500	453.947	79.993	19.996	102.855	19.280	69.486	0.485
763.000	454.217	79.992	19.996	102.848	19.274	69.918	0.509
763.500	454.501	79.993	19.997	102.841	19.274	69.918	0.540
764.000	454.738	79.992	19.996	102.837	19.280	69.476	0.537
764.500	455.032	79.993	19.995	102.842	19.281	69.414	0.526
765.000	455.300	79.991	19.997	102.849	19.283	69.271	0.547
765.500	455.541	79.992	19.997	102.852	19.291	68.757	0.535
766.000	455.763	79.993	19.996	102.853	19.292	68.680	0.486
766.500	456.051	79.991	19.996	102.861	19.297	68.378	0.486
767.000	456.323	79.992	19.998	102.863	19.300	68.138	0.535
767.500	456.539	79.993	19.996	102.864	19.296	68.449	0.524
768.000	456.817	79.992	19.996	102.868	19.307	67.715	0.491
768.500	457.066	79.993	19.997	102.876	19.302	68.032	0.511
769.000	457.307	79.992	19.997	102.876	19.307	67.693	0.509
769.500	457.532	79.993	19.997	102.876	19.314	67.263	0.478
770.000	457.794	79.993	19.996	102.876	19.311	67.416	0.476
770.500	458.065	79.992	19.995	102.877	19.320	66.833	0.510
771.000	458.321	79.994	19.997	102.876	19.318	66.994	0.530
771.500	458.609	79.992	19.997	102.877	19.327	66.384	0.535
772.000	458.875	79.992	19.997	102.880	19.331	66.104	0.549
772.500	459.158	79.992	19.997	102.881	19.338	65.594	0.552
773.000	459.431	79.993	19.997	102.881	19.343	65.259	0.552
773.500	459.653	79.992	19.996	102.881	19.348	64.918	0.525
774.000	459.903	79.993	19.996	102.879	19.352	64.678	0.484
774.500	460.161	79.993	19.996	102.878	19.360	64.125	0.490
775.000	460.390	79.993	19.996	102.878	19.362	64.037	0.498
775.500	460.651	79.994	19.996	102.877	19.370	63.461	0.489
776.000	460.917	79.993	19.996	102.874	19.370	63.441	0.509
776.500	461.163	79.993	19.996	102.875	19.376	63.089	0.519
777.000	461.395	79.993	19.996	102.873	19.381	62.750	0.494
777.500	461.633	79.993	19.997	102.876	19.379	62.854	0.474
778.000	461.934	79.993	19.996	102.885	19.388	62.292	0.505
778.500	462.208	79.993	19.997	102.890	19.391	62.050	0.557
779.000	462.469	79.992	19.996	102.889	19.395	61.810	0.555
779.500	462.718	79.993	19.995	102.892	19.399	61.568	0.522
780.000	462.998	79.993	19.996	102.892	19.406	61.052	0.519
780.500	463.237	79.993	19.996	102.890	19.402	61.301	0.524
781.000	463.478	79.993	19.995	102.891	19.412	60.624	0.499
781.500	463.760	79.994	19.996	102.893	19.416	60.389	0.501
782.000	464.024	79.993	19.997	102.890	19.420	60.121	0.535
782.500	464.257	79.992	19.996	102.887	19.426	59.709	0.522
783.000	464.521	79.992	19.996	102.883	19.424	59.814	0.497
783.500	464.752	79.994	19.997	102.879	19.428	59.586	0.496
784.000	465.009	79.993	19.996	102.878	19.434	59.153	0.492
784.500	465.295	79.993	19.996	102.878	19.438	58.930	0.516
785.000	465.499	79.992	19.996	102.877	19.438	58.911	0.517
785.500	465.775	79.992	19.996	102.873	19.440	58.758	0.485
786.000	466.031	79.992	19.997	102.872	19.447	58.324	0.506
786.500	466.271	79.992	19.995	102.872	19.447	58.327	0.514
787.000	466.548	79.993	19.997	102.872	19.446	58.409	0.506
787.500	466.794	79.993	19.997	102.873	19.446	58.361	0.520
788.000	467.033	79.993	19.996	102.880	19.455	57.761	0.504
788.500	467.304	79.992	19.996	102.883	19.452	58.017	0.498
789.000	467.566	79.993	19.997	102.882	19.465	57.150	0.522
789.500	467.851	79.993	19.997	102.881	19.461	57.413	0.540
790.000	468.091	79.992	19.996	102.880	19.470	56.768	0.536
790.500	468.341	79.993	19.997	102.874	19.472	56.636	0.508
791.000	468.595	79.991	19.998	102.867	19.480	56.091	0.497
791.500	468.884	79.992	19.997	102.863	19.483	55.910	0.524
792.000	469.140	79.993	19.998	102.855	19.488	55.576	0.544
792.500	469.371	79.992	19.997	102.850	19.497	54.949	0.516
793.000	469.622	79.992	19.997	102.848	19.502	54.605	0.484
793.500	469.876	79.993	19.998	102.846	19.508	54.253	0.494
794.000	470.138	79.992	19.998	102.841	19.515	53.753	0.511
794.500	470.369	79.991	19.997	102.843	19.518	53.581	0.505
795.000	470.669	79.991	19.997	102.840	19.522	53.321	0.512
795.500	470.926	79.992	19.997	102.839	19.528	52.928	0.544
796.000	471.161	79.992	19.998	102.841	19.528	52.920	0.525
796.500	471.418	79.991	19.998	102.849	19.536	52.369	0.492
797.000	471.679	79.991	19.998	102.855	19.540	52.137	0.505
797.500	471.912	79.992	19.997	102.861	19.543	51.893	0.506
798.000	472.185	79.992	19.998	102.864	19.549	51.529	0.500
798.500	472.429	79.992	19.997	102.875	19.548	51.597	0.511
799.000	472.670	79.993	19.997	102.879	19.556	51.065	0.502
799.500	472.935	79.992	19.997	102.880	19.564	50.523	0.496
800.000	473.202	79.991	19.997	102.881	19.566	50.395	0.519
800.500	473.490	79.992	19.998	102.884	19.573	49.894	0.543
801.000	473.729	79.991	19.997	102.880	19.575	49.795	0.541
801.500	473.983	79.993	19.997	102.876	19.587	48.987	0.510
802.000	474.259	79.994	19.997	102.876	19.593	48.573	0.512
802.500	474.523	79.992	19.997	102.873	19.597	48.288	0.535
803.000	474.786	79.992	19.996	102.863	19.603	47.863	0.534
803.500	475.053	79.992	19.997	102.854	19.608	47.539	0.528
804.000	475.279	79.993	19.996	102.849	19.610	47.442	0.511
804.500	475.560	79.993	19.996	102.846	19.611	47.363	0.500
805.000	475.798	79.992	19.997	102.846	19.620	46.718	0.513
805.500	476.040	79.994	19.997	102.853	19.620	46.773	0.500
806.000	476.274	79.992	19.996	102.861	19.626	46.369	0.478
806.500	476.561	79.993	19.996	102.868	19.630	46.065	0.498
807.000	476.773	79.993	19.996	102.873	19.639	45.458	0.510
807.500	477.056	79.995	19.995	102.876	19.636	45.701	0.497
808.000	477.323	79.994	19.996	102.877	19.639	45.487	0.523
808.500	477.552	79.993	19.995	102.877	19.641	45.346	0.523
809.000	477.820	79.994	19.996	102.876	19.640	45.403	0.497
809.500	478.053	79.995	19.995	102.875	19.642	45.278	0.499
810.000	478.348	79.995	19.997	102.874	19.649	44.787	0.515
810.500	478.594	79.994	19.996	102.873	19.651	44.653	0.534
811.000	478.853	79.995	19.996	102.873	19.653	44.547	0.523
811.500	479.114	79.994	19.995	102.872	19.661	44.036	0.513
812.000	479.343	79.995	19.996	102.871	19.655	44.399	0.505
812.500	479.620	79.994	19.995	102.868	19.662	43.949	0.498
813.000	479.841	79.994	19.997	102.861	19.664	43.795	0.502
813.500	480.121	79.994	19.996	102.854	19.665	43.759	0.499
814.000	480.354	79.994	19.996	102.848	19.662	43.963	0.507
814.500	480.629	79.994	19.995	102.841	19.667	43.605	0.511
815.000	480.885	79.994	19.995	102.837	19.675	43.103	0.520
815.500	481.104	79.995	19.996	102.838	19.679	42.775	0.503
816.000	481.380	79.993	19.996	102.837	19.686	42.359	0.484
816.500	481.629	79.993	19.996	102.836	19.687	42.260	0.510
817.000	481.926	79.994	19.997	102.836	19.689	42.161	0.536
817.500	482.183	79.994	19.997	102.836	19.698	41.507	0.551
818.000	482.378	79.993	19.996	102.841	19.699	41.458	0.503
818.500	482.645	79.993	19.996	102.847	19.702	41.255	0.457
819.000	482.907	79.993	19.997	102.849	19.703	41.174	0.495
819.500	483.157	79.993	19.996	102.849	19.710	40.726	0.521
820.000	483.408	79.993	19.995	102.847	19.717	40.268	0.507
820.500	483.658	79.993	19.996	102.846	19.710	40.693	0.501
821.000	483.899	79.992	19.997	102.846	19.717	40.245	0.496
821.500	484.181	79.993	19.996	102.852	19.716	40.340	0.507
822.000	484.401	79.992	19.996	102.856	19.718	40.186	0.512
822.500	484.638	79.992	19.997	102.858	19.723	39.829	0.480
823.000	484.898	79.993	19.997	102.857	19.722	39.951	0.477
823.500	485.162	79.993	19.995	102.859	19.725	39.726	0.510
824.000	485.398	79.992	19.996	102.857	19.731	39.354	0.512
824.500	485.652	79.992	19.996	102.859	19.731	39.304	0.495
825.000	485.941	79.994	19.996	102.863	19.736	38.959	0.517
825.500	486.129	79.994	19.996	102.863	19.737	38.943	0.510
826.000	486.392	79.992	19.996	102.857	19.741	38.655	0.464
826.500	486.600	79.994	19.997	102.855	19.739	38.782	0.461
827.000	486.831	79.994	19.996	102.853	19.741	38.623	0.455
827.500	487.102	79.995	19.997	102.852	19.742	38.592	0.471
828.000	487.326	79.993	19.996	102.849	19.746	38.312	0.498
828.500	487.558	79.994	19.996	102.849	19.747	38.228	0.476
829.000	487.750	79.995	19.996	102.849	19.751	37.983	0.440
829.500	488.027	79.994	19.996	102.846	19.749	38.119	0.446
830.000	488.240	79.993	19.996	102.842	19.754	37.816	0.479
830.500	488.491	79.995	19.995	102.843	19.754	37.794	0.477
831.000	488.727	79.996	19.996	102.843	19.752	37.908	0.475
831.500	488.982	79.994	19.996	102.839	19.757	37.572	0.489
832.000	489.221	79.995	19.995	102.846	19.764	37.148	0.493
832.500	489.471	79.997	19.996	102.852	19.768	36.842	0.492
833.000	489.718	79.996	19.995	102.850	19.775	36.372	0.493
833.500	489.959	79.994	19.996	102.849	19.778	36.218	0.492
834.000	490.192	79.994	19.995	102.852	19.785	35.733	0.480
834.500	490.470	79.994	19.995	102.844	19.791	35.315	0.492
835.000	490.679	79.996	19.995	102.837	19.798	34.864	0.499
835.500	490.908	79.994	19.995	102.836	19.803	34.521	0.462
836.000	491.131	79.995	19.995	102.835	19.808	34.165	0.445
836.500	491.392	79.993	19.996	102.833	19.817	33.599	0.468
837.000	491.643	79.994	19.996	102.832	19.818	33.501	0.498
837.500	491.833	79.994	19.995	102.833	19.823	33.196	0.477
838.000	492.096	79.994	19.995	102.834	19.827	32.880	0.447
838.500	492.320	79.995	19.996	102.835	19.831	32.669	0.470
839.000	492.589	79.994	19.994	102.836	19.838	32.190	0.490
839.500	492.781	79.994	19.995	102.844	19.847	31.599	0.477
840.000	493.053	79.994	19.996	102.853	19.844	31.776	0.463
840.500	493.272	79.994	19.995	102.860	19.851	31.312	0.478
841.000	493.493	79.992	19.996	102.867	19.856	30.999	0.466
841.500	493.718	79.992	19.995	102.874	19.858	30.822	0.443
842.000	493.983	79.992	19.996	102.874	19.860	30.677	0.468
842.500	494.223	79.993	19.995	102.875	19.863	30.482	0.497
843.000	494.448	79.992	19.995	102.875	19.873	29.818	0.485
843.500	494.695	79.992	19.996	102.875	19.878	29.530	0.469
844.000	494.958	79.993	19.996	102.873	19.881	29.276	0.491
844.500	495.155	79.992	19.995	102.865	19.888	28.813	0.485
845.000	495.379	79.992	19.995	102.858	19.892	28.539	0.440
845.500	495.635	79.993	19.996	102.849	19.898	28.148	0.450
846.000	495.866	79.994	19.997	102.842	19.900	28.039	0.484
846.500	496.089	79.992	19.996	102.837	19.906	27.633	0.471
847.000	496.366	79.992	19.996	102.837	19.911	27.294	0.477
847.500	496.559	79.991	19.996	102.838	19.912	27.229	0.485
848.000	496.804	79.992	19.996	102.839	19.919	26.764	0.453
848.500	497.043	79.992	19.996	102.842	19.926	26.305	0.461
849.000	497.271	79.993	19.996	102.850	19.925	26.359	0.476
849.500	497.503	79.991	19.995	102.858	19.932	25.870	0.464
850.000	497.770	79.993	19.997	102.865	19.935	25.699	0.479
850.500	498.004	79.994	19.996	102.872	19.946	24.983	0.499
851.000	498.214	79.992	19.997	102.876	19.949	24.765	0.472
851.500	498.466	79.994	19.997	102.874	19.950	24.718	0.453
852.000	498.685	79.993	19.997	102.867	19.952	24.583	0.467
852.500	498.934	79.993	19.996	102.859	19.955	24.383	0.470
853.000	499.170	79.994	19.997	102.850	19.966	23.635	0.477
853.500	499.443	79.993	19.998	102.850	19.966	23.583	0.497
854.000	499.658	79.994	19.995	102.847	19.972	23.211	0.499
854.500	499.924	79.993	19.997	102.846	19.972	23.198	0.485
855.000	500.153	79.993	19.996	102.846	19.980	22.659	0.488
855.500	500.426	79.994	19.997	102.847	19.981	22.612	0.498
856.000	500.631	79.992	19.995	102.841	19.988	22.115	0.490
856.500	500.898	79.993	19.996	102.841	19.991	21.925	0.475
857.000	501.102	79.993	19.997	102.841	19.995	21.659	0.471
857.500	501.341	79.993	19.997	102.842	19.996	21.600	0.457
858.000	501.594	79.994	19.996	102.843	20.002	21.244	0.467
858.500	501.829	79.994	19.998	102.842	20.004	21.055	0.490
859.000	502.086	79.992	19.996	102.840	20.006	20.926	0.490
859.500	502.344	79.994	19.997	102.844	20.012	20.527	0.503
860.000	502.545	79.994	19.996	102.846	20.016	20.245	0.487
860.500	502.787	79.993	19.996	102.844	20.017	20.181	0.451
861.000	503.046	79.994	19.997	102.844	20.026	19.620	0.472
861.500	503.299	79.993	19.996	102.849	20.027	19.517	0.506
862.000	503.519	79.993	19.997	102.851	20.028	19.489	0.492
862.500	503.765	79.992	19.997	102.850	20.029	19.426	0.469
863.000	504.016	79.992	19.996	102.850	20.037	18.896	0.482
863.500	504.274	79.993	19.997	102.849	20.042	18.542	0.503
864.000	504.509	79.992	19.996	102.845	20.043	18.482	0.501
864.500	504.769	79.995	19.997	102.838	20.053	17.774	0.494
865.000	505.006	79.994	19.998	102.838	20.051	17.932	0.496
865.500	505.276	79.992	19.996	102.839	20.053	17.816	0.502
866.000	505.468	79.995	19.997	102.839	20.057	17.543	0.484
866.500	505.767	79.994	19.996	102.838	20.059	17.398	0.477
867.000	505.980	79.993	19.998	102.844	20.060	17.342	0.502
867.500	506.233	79.994	19.996	102.849	20.067	16.880	0.489
868.000	506.493	79.993	19.997	102.852	20.072	16.498	0.489
868.500	506.746	79.993	19.997	102.855	20.069	16.729	0.513
869.000	507.001	79.994	19.997	102.863	20.076	16.286	0.511
869.500	507.233	79.992	19.996	102.859	20.082	15.842	0.498
870.000	507.485	79.992	19.996	102.854	20.083	15.794	0.485
870.500	507.713	79.994	19.996	102.851	20.087	15.556	0.481
871.000	507.932	79.992	19.997	102.851	20.089	15.409	0.463
871.500	508.205	79.993	19.998	102.848	20.089	15.366	0.470
872.000	508.432	79.993	19.996	102.847	20.091	15.235	0.496
872.500	508.683	79.992	19.997	102.845	20.099	14.733	0.489
873.000	508.927	79.993	19.996	102.844	20.099	14.701	0.487
873.500	509.203	79.992	19.997	102.841	20.099	14.703	0.508
874.000	509.426	79.993	19.998	102.840	20.104	14.388	0.510
874.500	509.666	79.992	19.997	102.841	20.108	14.150	0.481
875.000	509.901	79.992	19.998	102.847	20.117	13.535	0.468
875.500	510.185	79.993	19.996	102.849	20.115	13.659	0.497
876.000	510.386	79.993	19.997	102.849	20.118	13.455	0.502
876.500	510.666	79.993	19.997	102.846	20.121	13.225	0.483
877.000	510.908	79.994	19.997	102.841	20.121	13.225	0.501
877.500	511.162	79.992	19.997	102.836	20.126	12.891	0.509
878.000	511.413	79.992	19.998	102.837	20.127	12.833	0.500
878.500	511.667	79.991	19.998	102.841	20.129	12.696	0.505
879.000	511.922	79.992	19.997	102.845	20.137	12.166	0.507
879.500	512.170	79.992	19.997	102.848	20.137	12.181	0.506
880.000	512.416	79.992	19.998	102.848	20.139	12.078	0.498
880.500	512.593	79.990	19.997	102.844	20.142	11.842	0.459
881.000	512.854	79.992	19.997	102.841	20.142	11.818	0.431
881.500	513.137	79.993	19.998	102.837	20.148	11.435	0.491
882.000	513.370	79.992	19.997	102.834	20.147	11.529	0.530
882.500	513.633	79.993	19.997	102.834	20.150	11.340	0.506
883.000	513.888	79.993	19.997	102.834	20.150	11.327	0.507
883.500	514.175	79.994	19.998	102.835	20.156	10.933	0.530
884.000	514.459	79.994	19.997	102.836	20.156	10.946	0.557
884.500	514.684	79.994	19.997	102.836	20.161	10.588	0.540
885.000	514.915	79.993	19.998	102.836	20.157	10.874	0.482
885.500	515.185	79.993	19.998	102.838	20.163	10.451	0.478
886.000	515.423	79.994	19.998	102.839	20.163	10.425	0.504
886.500	515.693	79.993	19.998	102.838	20.171	9.928	0.509
887.000	515.943	79.994	19.997	102.838	20.168	10.116	0.514
887.500	516.240	79.993	19.997	102.837	20.170	9.983	0.533
888.000	516.478	79.993	19.997	102.835	20.171	9.916	0.541
888.500	516.724	79.993	19.997	102.832	20.173	9.786	0.510
889.000	516.990	79.995	19.998	102.831	20.174	9.732	0.498
889.500	517.246	79.995	19.997	102.832	20.174	9.726	0.516
890.000	517.515	79.994	19.996	102.833	20.177	9.541	0.524
890.500	517.748	79.994	19.997	102.833	20.180	9.308	0.514
891.000	517.992	79.994	19.996	102.835	20.184	9.072	0.489
891.500	518.224	79.994	19.996	102.836	20.182	9.187	0.476
892.000	518.522	79.995	19.997	102.836	20.188	8.756	0.503
892.500	518.766	79.993	19.997	102.836	20.186	8.901	0.536
893.000	519.041	79.995	19.997	102.836	20.192	8.540	0.530
893.500	519.306	79.992	19.996	102.836	20.191	8.590	0.529
894.000	519.549	79.994	19.996	102.836	20.195	8.338	0.524
894.500	519.811	79.993	19.995	102.836	20.198	8.074	0.507
895.000	520.058	79.994	19.995	102.836	20.199	8.071	0.507
895.500	520.332	79.993	19.996	102.837	20.200	7.974	0.515
896.000	520.597	79.994	19.996	102.845	20.203	7.755	0.530
896.500	520.823	79.994	19.995	102.851	20.204	7.681	0.515
897.000	521.116	79.994	19.996	102.856	20.204	7.675	0.505
897.500	521.342	79.993	19.997	102.857	20.208	7.438	0.519
898.000	521.587	79.993	19.996	102.858	20.207	7.488	0.495
898.500	521.859	79.995	19.996	102.850	20.208	7.420	0.494
899.000	522.101	79.994	19.996	102.843	20.213	7.103	0.515
899.500	522.366	79.994	19.997	102.838	20.214	7.042	0.511
900.000	522.596	79.995	19.996	102.838	20.212	7.175	0.502
900.500	522.855	79.993	19.997	102.836	20.221	6.536	0.492
901.000	523.131	79.994	19.996	102.836	20.217	6.819	0.512
901.500	523.382	79.994	19.996	102.837	20.222	6.502	0.531
902.000	523.672	79.993	19.996	102.837	20.225	6.269	0.534
902.500	523.916	79.994	19.996	102.837	20.224	6.360	0.538
903.000	524.190	79.993	19.995	102.845	20.229	6.048	0.526
903.500	524.438	79.993	19.996	102.848	20.226	6.230	0.520
904.000	524.700	79.994	19.996	102.850	20.230	5.945	0.515
904.500	524.989	79.994	19.995	102.853	20.229	6.002	0.531
905.000	525.231	79.994	19.996	102.856	20.228	6.104	0.542
905.500	525.492	79.994	19.996	102.849	20.233	5.778	0.517
906.000	525.759	79.994	19.995	102.846	20.233	5.739	0.515
906.500	526.027	79.993	19.996	102.843	20.232	5.839	0.531
907.000	526.282	79.993	19.996	102.843	20.235	5.648	0.529
907.500	526.536	79.994	19.994	102.840	20.239	5.364	0.516
908.000	526.812	79.992	19.995	102.839	20.242	5.194	0.519
908.500	527.039	79.994	19.997	102.840	20.243	5.101	0.516
909.000	527.336	79.995	19.996	102.840	20.247	4.797	0.514
909.500	527.601	79.995	19.996	102.839	20.245	4.958	0.543
910.000	527.878	79.994	19.995	102.840	20.248	4.792	0.552
910.500	528.135	79.994	19.995	102.840	20.250	4.629	0.538
911.000	528.427	79.994	19.995	102.840	20.249	4.686	0.541
911.500	528.668	79.994	19.996	102.838	20.249	4.721	0.541
912.000	528.915	79.995	19.995	102.837	20.255	4.277	0.511
912.500	529.214	79.995	19.995	102.835	20.253	4.421	0.517
913.000	529.461	79.995	19.995	102.838	20.258	4.110	0.546
913.500	529.764	79.995	19.996	102.842	20.255	4.303	0.548
914.000	529.995	79.995	19.995	102.842	20.263	3.780	0.542
914.500	530.256	79.995	19.997	102.842	20.258	4.090	0.514
915.000	530.576	79.994	19.995	102.842	20.260	3.973	0.537
915.500	530.816	79.995	19.996	102.838	20.260	3.975	0.570
916.000	531.053	79.994	19.996	102.835	20.260	3.938	0.518
916.500	531.328	79.995	19.995	102.836	20.266	3.541	0.495
917.000	531.589	79.995	19.996	102.838	20.263	3.737	0.524
917.500	531.857	79.995	19.996	102.837	20.268	3.400	0.532
918.000	532.150	79.993	19.996	102.837	20.270	3.276	0.545
918.500	532.383	79.995	19.996	102.836	20.266	3.547	0.544
919.000	532.655	79.994	19.996	102.835	20.268	3.450	0.515
919.500	532.905	79.993	19.996	102.833	20.265	3.660	0.513
920.000	533.189	79.992	19.996	102.833	20.267	3.493	0.528
920.500	533.420	79.991	19.995	102.833	20.271	3.252	0.525
921.000	533.715	79.993	19.996	102.833	20.274	3.046	0.520
921.500	534.009	79.993	19.996	102.835	20.275	2.948	0.557
922.000	534.280	79.992	19.996	102.836	20.269	3.330	0.577
922.500	534.555	79.994	19.995	102.837	20.277	2.854	0.556
923.000	534.801	79.993	19.997	102.837	20.277	2.828	0.534
923.500	535.074	79.993	19.996	102.841	20.277	2.798	0.520
924.000	535.345	79.993	19.996	102.839	20.278	2.744	0.532
924.500	535.627	79.993	19.996	102.838	20.274	3.024	0.549
925.000	535.908	79.993	19.996	102.839	20.276	2.896	0.558
925.500	536.164	79.994	19.996	102.839	20.281	2.581	0.550
926.000	536.427	79.993	19.997	102.837	20.278	2.757	0.528
926.500	536.705	79.993	19.995	102.837	20.279	2.705	0.530
927.000	536.973	79.993	19.996	102.837	20.280	2.639	0.544
927.500	537.221	79.993	19.995	102.836	20.278	2.787	0.531
928.000	537.477	79.991	19.995	102.835	20.280	2.616	0.510
928.500	537.766	79.994	19.996	102.835	20.281	2.539	0.524
929.000	538.020	79.993	19.995	102.833	20.286	2.244	0.544
929.500	538.280	79.993	19.996	102.833	20.285	2.261	0.529
930.000	538.596	79.994	19.997	102.833	20.285	2.307	0.546
930.500	538.784	79.994	19.996	102.833	20.286	2.240	0.540
931.000	539.105	79.995	19.996	102.833	20.284	2.366	0.506
931.500	539.374	79.992	19.996	102.834	20.284	2.350	0.549
932.000	539.647	79.993	19.997	102.835	20.284	2.366	0.566
932.500	539.868	79.992	19.995	102.837	20.284	2.346	0.518
933.000	540.115	79.994	19.995	102.838	20.289	2.010	0.481
933.500	540.384	79.994	19.995	102.839	20.288	2.094	0.492
934.000	540.664	79.993	19.996	102.841	20.289	2.031	0.532
934.500	540.907	79.993	19.997	102.841	20.291	1.910	0.536
935.000	541.202	79.992	19.995	102.838	20.296	1.562	0.531
935.500	541.460	79.992	19.996	102.837	20.290	1.948	0.545
936.000	541.726	79.993	19.996	102.835	20.293	1.725	0.538
936.500	542.004	79.993	19.996	102.833	20.293	1.747	0.534
937.000	542.255	79.994	19.997	102.833	20.296	1.569	0.536
937.500	542.508	79.993	19.996	102.834	20.294	1.701	0.516
938.000	542.795	79.993	19.996	102.835	20.297	1.499	0.522
938.500	543.020	79.992	19.996	102.835	20.297	1.477	0.526
939.000	543.287	79.992	19.996	102.835	20.299	1.327	0.502
939.500	543.555	79.993	19.996	102.834	20.299	1.338	0.513
940.000	543.852	79.993	19.997	102.834	20.301	1.190	0.550
940.500	544.090	79.993	19.997	102.834	20.299	1.332	0.550
941.000	544.353	79.991	19.996	102.834	20.296	1.579	0.518
941.500	544.604	79.992	19.997	102.834	20.301	1.195	0.508
942.000	544.894	79.993	19.996	102.835	20.301	1.253	0.528
942.500	545.150	79.993	19.997	102.835	20.299	1.332	0.543
943.000	545.407	79.992	19.997	102.834	20.301	1.201	0.530
943.500	545.636	79.994	19.997	102.829	20.302	1.173	0.500
944.000	545.917	79.991	19.998	102.823	20.300	1.308	0.498
944.500	546.182	79.993	19.996	102.822	20.304	0.993	0.527
945.000	546.426	79.992	19.996	102.825	20.304	1.042	0.527
945.500	546.686	79.993	19.998	102.829	20.300	1.281	0.507
946.000	546.949	79.993	19.997	102.833	20.300	1.299	0.513
946.500	547.204	79.993	19.997	102.839	20.301	1.192	0.520
947.000	547.461	79.994	19.997	102.838	20.304	0.993	0.515
947.500	547.761	79.993	19.997	102.835	20.304	0.990	0.535
948.000	548.004	79.991	19.996	102.833	20.307	0.827	0.550
948.500	548.253	79.991	19.998	102.834	20.308	0.745	0.517
949.000	548.515	79.992	19.996	102.834	20.304	1.023	0.502
949.500	548.762	79.991	19.997	102.835	20.307	0.814	0.510
950.000	549.031	79.994	19.997	102.835	20.303	1.086	0.512
950.500	549.300	79.994	19.997	102.835	20.301	1.236	0.527
951.000	549.525	79.992	19.997	102.834	20.304	1.038	0.517
951.500	549.810	79.993	19.997	102.835	20.306	0.869	0.502
952.000	550.098	79.991	19.997	102.835	20.307	0.812	0.541
952.500	550.329	79.993	19.997	102.835	20.309	0.680	0.546
953.000	550.615	79.992	19.996	102.839	20.309	0.702	0.518
953.500	550.848	79.993	19.997	102.842	20.308	0.721	0.518
954.000	551.091	79.991	19.997	102.846	20.307	0.795	0.497
954.500	551.378	79.992	19.997	102.851	20.307	0.814	0.503
955.000	551.624	79.991	19.996	102.856	20.312	0.515	0.531
955.500	551.877	79.991	19.997	102.852	20.310	0.593	0.516
956.000	552.149	79.992	19.998	102.856	20.309	0.665	0.512
956.500	552.424	79.992	19.996	102.860	20.313	0.424	0.536
957.000	552.690	79.993	19.996	102.859	20.316	0.235	0.544
957.500	552.973	79.992	19.997	102.854	20.315	0.259	0.545
958.000	553.246	79.992	19.997	102.857	20.315	0.298	0.553
958.500	553.500	79.993	19.996	102.852	20.314	0.347	0.542
959.000	553.733	79.992	19.996	102.846	20.312	0.495	0.507
959.500	554.033	79.991	19.996	102.844	20.313	0.397	0.509
960.000	554.302	79.991	19.996	102.848	20.313	0.395	0.551
960.500	554.564	79.991	19.996	102.851	20.316	0.213	0.551
961.000	554.871	79.993	19.997	102.853	20.318	0.117	0.550
961.500	555.155	79.992	19.996	102.854	20.320	-0.039	0.579
962.000	555.407	79.992	19.997	102.856	20.320	-0.041	0.563
962.500	555.681	79.994	19.997	102.855	20.316	0.228	0.531
963.000	555.965	79.992	19.996	102.851	20.315	0.313	0.542
963.500	556.235	79.992	19.997	102.852	20.315	0.311	0.556
964.000	556.508	79.994	19.996	102.849	20.319	0.011	0.549
964.500	556.788	79.995	19.997	102.845	20.318	0.080	0.548
965.000	557.054	79.994	19.995	102.843	20.316	0.232	0.549
965.500	557.346	79.994	19.996	102.844	20.318	0.057	0.552
966.000	557.607	79.992	19.996	102.840	20.315	0.254	0.556
966.500	557.886	79.993	19.996	102.840	20.319	0.013	0.547
967.000	558.191	79.994	19.997	102.840	20.319	-0.006	0.562
967.500	558.432	79.993	19.997	102.840	20.319	0.032	0.565
968.000	558.703	79.994	19.996	102.836	20.322	-0.195	0.529
968.500	558.979	79.993	19.996	102.835	20.323	-0.246	0.529
969.000	559.269	79.994	19.996	102.836	20.320	-0.056	0.556
969.500	559.526	79.992	19.997	102.836	20.324	-0.348	0.556
970.000	559.836	79.993	19.997	102.837	20.322	-0.169	0.557
970.500	560.125	79.992	19.997	102.839	20.322	-0.178	0.583
971.000	560.392	79.992	19.996	102.844	20.321	-0.120	0.577
971.500	560.691	79.993	19.998	102.844	20.325	-0.400	0.561
972.000	560.948	79.991	19.998	102.844	20.322	-0.193	0.561
972.500	561.237	79.992	19.996	102.844	20.327	-0.530	0.551
973.000	561.545	79.992	19.996	102.843	20.322	-0.208	0.572
973.500	561.838	79.992	19.997	102.838	20.325	-0.380	0.599
974.000	562.063	79.994	19.997	102.837	20.321	-0.141	0.559
974.500	562.375	79.992	19.997	102.836	20.319	0.039	0.527
975.000	562.629	79.992	19.996	102.836	20.324	-0.341	0.551
975.500	562.917	79.993	19.996	102.836	20.325	-0.356	0.554
976.000	563.226	79.992	19.996	102.836	20.324	-0.302	0.569
976.500	563.472	79.993	19.997	102.836	20.326	-0.419	0.577
977.000	563.713	79.993	19.997	102.836	20.322	-0.198	0.521
977.500	564.046	79.993	19.997	102.839	20.322	-0.215	0.530
978.000	564.296	79.992	19.996	102.840	20.323	-0.263	0.578
978.500	564.593	79.993	19.997	102.838	20.322	-0.191	0.565
979.000	564.841	79.993	19.996	102.836	20.324	-0.298	0.547
979.500	565.124	79.992	19.997	102.836	20.325	-0.393	0.538
980.000	565.396	79.992	19.997	102.833	20.325	-0.352	0.542
980.500	565.640	79.992	19.997	102.832	20.323	-0.282	0.536
981.000	565.983	79.993	19.997	102.833	20.325	-0.402	0.552
981.500	566.272	79.994	19.996	102.835	20.321	-0.102	0.609
982.000	566.549	79.993	19.995	102.834	20.326	-0.461	0.599
982.500	566.839	79.992	19.995	102.833	20.327	-0.485	0.566
983.000	567.091	79.993	19.996	102.833	20.324	-0.285	0.555
983.500	567.373	79.992	19.996	102.833	20.323	-0.237	0.538
984.000	567.622	79.996	19.995	102.833	20.325	-0.361	0.532
984.500	567.927	79.994	19.995	102.833	20.324	-0.343	0.542
985.000	568.216	79.994	19.995	102.833	20.324	-0.345	0.574
985.500	568.493	79.994	19.995	102.833	20.330	-0.700	0.580
986.000	568.758	79.994	19.995	102.833	20.323	-0.222	0.554
986.500	569.048	79.994	19.995	102.833	20.329	-0.673	0.548
987.000	569.351	79.994	19.996	102.833	20.326	-0.447	0.574
987.500	569.612	79.994	19.995	102.833	20.324	-0.348	0.579
988.000	569.869	79.995	19.995	102.833	20.325	-0.415	0.541
988.500	570.194	79.993	19.995	102.833	20.332	-0.834	0.550
989.000	570.467	79.994	19.996	102.832	20.324	-0.345	0.590
989.500	570.731	79.995	19.996	102.831	20.326	-0.469	0.568
990.000	570.978	79.994	19.996	102.832	20.330	-0.695	0.524
990.500	571.215	79.994	19.996	102.832	20.323	-0.239	0.498
991.000	571.507	79.995	19.997	102.833	20.329	-0.636	0.506
991.500	571.762	79.995	19.995	102.837	20.329	-0.639	0.538
992.000	572.082	79.995	19.995	102.840	20.326	-0.456	0.561
992.500	572.357	79.994	19.995	102.840	20.327	-0.493	0.585
993.000	572.634	79.994	19.995	102.839	20.327	-0.548	0.573
993.500	572.878	79.994	19.995	102.839	20.332	-0.828	0.537
994.000	573.178	79.994	19.996	102.836	20.327	-0.545	0.532
994.500	573.449	79.994	19.996	102.833	20.330	-0.713	0.557
995.000	573.749	79.993	19.995	102.833	20.330	-0.728	0.571
995.500	574.049	79.993	19.995	102.835	20.331	-0.813	0.585
996.000	574.343	79.993	19.995	102.835	20.330	-0.699	0.597
996.500	574.624	79.993	19.996	102.833	20.331	-0.760	0.585
997.000	574.869	79.993	19.996	102.834	20.328	-0.615	0.551
997.500	575.178	79.993	19.996	102.835	20.329	-0.624	0.540
998.000	575.443	79.991	19.996	102.834	20.331	-0.754	0.564
998.500	575.700	79.991	19.995	102.833	20.329	-0.671	0.549
999.000	575.996	79.991	19.997	102.833	20.328	-0.587	0.538
999.500	576.266	79.993	19.998	102.833	20.334	-0.982	0.559
1000.000	576.535	79.991	19.996	102.832	20.330	-0.695	0.552
1000.500	576.804	79.992	19.996	102.833	20.333	-0.941	0.538
1001.000	577.064	79.991	19.996	102.834	20.333	-0.939	0.534
1001.500	577.354	79.991	19.996	102.836	20.332	-0.865	0.540
1002.000	577.603	79.992	19.996	102.835	20.333	-0.917	0.545
1002.500	577.904	79.992	19.997	102.836	20.331	-0.773	0.545
1003.000	578.166	79.992	19.995	102.835	20.333	-0.947	0.556
1003.500	578.420	79.992	19.996	102.835	20.329	-0.678	0.539
1004.000	578.694	79.993	19.997	102.834	20.334	-1.001	0.522
1004.500	578.983	79.990	19.997	102.834	20.331	-0.786	0.546
1005.000	579.245	79.991	19.996	102.832	20.334	-1.004	0.557
1005.500	579.528	79.992	19.996	102.830	20.330	-0.736	0.548
1006.000	579.808	79.994	19.996	102.830	20.336	-1.114	0.554
1006.500	580.040	79.993	19.996	102.831	20.334	-0.956	0.537
1007.000	580.361	79.993	19.996	102.829	20.333	-0.906	0.533
1007.500	580.614	79.993	19.996	102.827	20.332	-0.856	0.564
1008.000	580.869	79.993	19.996	102.829	20.332	-0.862	0.541
1008.500	581.119	79.993	19.995	102.830	20.331	-0.813	0.507
1009.000	581.412	79.992	19.997	102.828	20.335	-1.019	0.524
1009.500	581.720	79.992	19.996	102.830	20.334	-1.014	0.572
1010.000	581.974	79.993	19.996	102.834	20.333	-0.889	0.581
1010.500	582.226	79.993	19.996	102.834	20.332	-0.841	0.534
1011.000	582.478	79.992	19.996	102.834	20.330	-0.704	0.505
1011.500	582.756	79.992	19.997	102.834	20.331	-0.769	0.517
1012.000	583.019	79.993	19.996	102.835	20.331	-0.786	0.536
1012.500	583.290	79.993	19.995	102.835	20.332	-0.880	0.537
1013.000	583.589	79.991	19.995	102.835	20.332	-0.832	0.552
1013.500	583.822	79.993	19.995	102.835	20.333	-0.893	0.551
1014.000	584.092	79.991	19.994	102.835	20.334	-1.008	0.518
1014.500	584.364	79.992	19.995	102.835	20.336	-1.099	0.522
1015.000	584.624	79.993	19.997	102.835	20.332	-0.819	0.537
1015.500	584.883	79.994	19.996	102.836	20.337	-1.201	0.526
1016.000	585.167	79.993	19.995	102.836	20.335	-1.049	0.531
1016.500	585.391	79.993	19.995	102.837	20.335	-1.065	0.525
1017.000	585.679	79.994	19.996	102.837	20.335	-1.067	0.510
1017.500	585.939	79.993	19.994	102.837	20.336	-1.145	0.530
1018.000	586.206	79.992	19.996	102.837	20.334	-0.954	0.538
1018.500	586.476	79.994	19.995	102.836	20.337	-1.217	0.532
1019.000	586.726	79.994	19.995	102.835	20.339	-1.343	0.528
1019.500	587.008	79.992	19.995	102.835	20.336	-1.136	0.526
1020.000	587.275	79.993	19.996	102.835	20.339	-1.325	0.540
1020.500	587.500	79.994	19.996	102.836	20.338	-1.264	0.521
1021.000	587.764	79.991	19.995	102.836	20.334	-0.962	0.491
1021.500	588.056	79.992	19.996	102.835	20.337	-1.206	0.522
1022.000	588.284	79.993	19.994	102.828	20.336	-1.125	0.538
1022.500	588.540	79.993	19.995	102.827	20.337	-1.175	0.502
1023.000	588.850	79.992	19.997	102.826	20.337	-1.188	0.525
1023.500	589.070	79.993	19.996	102.828	20.339	-1.308	0.548
1024.000	589.368	79.992	19.996	102.830	20.338	-1.229	0.524
1024.499	589.609	79.992	19.995	102.837	20.335	-1.084	0.528
1024.999	589.894	79.991	19.995	102.838	20.339	-1.312	0.533
1025.499	590.128	79.991	19.996	102.837	20.339	-1.343	0.523
1025.999	590.385	79.991	19.995	102.836	20.336	-1.141	0.505
1026.499	590.665	79.992	19.996	102.835	20.338	-1.260	0.514
1026.999	590.915	79.992	19.996	102.835	20.342	-1.516	0.534
1027.499	591.190	79.992	19.995	102.835	20.336	-1.147	0.527
1027.999	591.435	79.990	19.994	102.835	20.339	-1.317	0.522
1028.499	591.721	79.992	19.995	102.835	20.341	-1.447	0.525
1028.999	591.989	79.991	19.996	102.835	20.335	-1.067	0.543
1029.499	592.233	79.990	19.996	102.834	20.339	-1.310	0.533
1029.999	592.491	79.990	19.996	102.833	20.341	-1.427	0.507
1030.499	592.795	79.992	19.996	102.833	20.341	-1.455	0.532
1030.999	593.042	79.991	19.996	102.834	20.339	-1.342	0.556
1031.499	593.306	79.991	19.997	102.835	20.341	-1.438	0.531
1031.999	593.536	79.991	19.997	102.837	20.342	-1.492	0.503
1032.499	593.816	79.991	19.997	102.838	20.343	-1.616	0.502
1033.000	594.088	79.990	19.997	102.837	20.339	-1.345	0.531
1033.500	594.362	79.991	19.997	102.836	20.341	-1.441	0.549
1033.999	594.625	79.992	19.996	102.836	20.340	-1.369	0.541
1034.499	594.866	79.991	19.997	102.837	20.344	-1.642	0.520
1034.999	595.146	79.994	19.996	102.839	20.342	-1.530	0.513
1035.499	595.394	79.991	19.996	102.840	20.344	-1.670	0.524
1035.999	595.647	79.991	19.996	102.840	20.338	-1.241	0.514
1036.499	595.897	79.992	19.996	102.839	20.340	-1.397	0.503
1036.999	596.146	79.993	19.997	102.838	20.338	-1.254	0.501
1037.499	596.460	79.992	19.996	102.838	20.339	-1.299	0.530
1037.999	596.706	79.991	19.996	102.838	20.338	-1.219	0.562
1038.499	597.003	79.993	19.996	102.838	20.343	-1.564	0.552
1038.999	597.213	79.993	19.996	102.838	20.340	-1.360	0.525
1039.499	597.472	79.992	19.995	102.837	20.340	-1.380	0.488
1039.999	597.708	79.994	19.996	102.837	20.341	-1.436	0.482
1040.499	597.985	79.995	19.997	102.838	20.344	-1.671	0.504
1040.999	598.221	79.993	19.996	102.838	20.339	-1.304	0.514
1041.499	598.482	79.995	19.996	102.838	20.338	-1.232	0.505
1041.999	598.721	79.995	19.996	102.837	20.344	-1.636	0.498
1042.499	598.964	79.994	19.996	102.837	20.342	-1.543	0.491
1042.999	599.257	79.994	19.996	102.833	20.339	-1.312	0.509
1043.499	599.499	79.993	19.997	102.825	20.344	-1.679	0.536
1043.999	599.746	79.994	19.996	102.822	20.342	-1.505	0.512
1044.499	600.068	79.992	19.996	102.822	20.345	-1.688	0.529
1044.999	600.304	79.993	19.996	102.822	20.347	-1.829	0.564
1045.499	600.578	79.994	19.996	102.823	20.344	-1.668	0.534
1045.999	600.815	79.994	19.997	102.831	20.347	-1.862	0.510
1046.499	601.072	79.994	19.997	102.834	20.346	-1.816	0.503
1046.999	601.288	79.993	19.996	102.834	20.347	-1.825	0.483
1047.499	601.548	79.993	19.996	102.834	20.344	-1.625	0.474
1047.999	601.819	79.992	19.996	102.832	20.343	-1.603	0.503
1048.499	602.081	79.993	19.996	102.827	20.349	-2.003	0.532
1048.999	602.327	79.994	19.996	102.819	20.342	-1.519	0.521
1049.499	602.576	79.993	19.996	102.816	20.346	-1.805	0.501
1049.999	602.830	79.994	19.996	102.815	20.348	-1.944	0.499
1050.499	603.090	79.994	19.996	102.817	20.343	-1.568	0.508
1050.999	603.345	79.994	19.996	102.823	20.346	-1.779	0.515
1051.499	603.587	79.994	19.997	102.828	20.342	-1.549	0.506
1051.999	603.827	79.994	19.997	102.831	20.347	-1.875	0.490
1052.500	604.079	79.992	19.996	102.828	20.345	-1.729	0.487
1053.000	604.349	79.992	19.997	102.826	20.347	-1.866	0.506
1053.499	604.622	79.992	19.997	102.826	20.346	-1.814	0.533
1053.999	604.871	79.993	19.997	102.826	20.347	-1.858	0.533
1054.499	605.126	79.994	19.997	102.827	20.347	-1.821	0.513
1054.999	605.337	79.994	19.996	102.830	20.349	-2.005	0.485
1055.499	605.616	79.994	19.997	102.832	20.347	-1.832	0.478
1055.999	605.900	79.991	19.997	102.832	20.345	-1.747	0.527
1056.499	606.151	79.992	19.997	102.833	20.347	-1.866	0.549
1056.999	606.389	79.992	19.996	102.833	20.350	-2.081	0.512
1057.499	606.630	79.991	19.997	102.833	20.347	-1.868	0.484
1057.999	606.864	79.992	19.997	102.832	20.352	-2.161	0.477
1058.499	607.183	79.992	19.997	102.832	20.348	-1.931	0.514
1058.999	607.423	79.992	19.997	102.832	20.343	-1.555	0.556
1059.499	607.654	79.991	19.997	102.832	20.347	-1.853	0.515
1059.999	607.938	79.993	19.998	102.832	20.350	-2.025	0.493
1060.499	608.194	79.994	19.999	102.833	20.346	-1.790	0.528
1060.999	608.427	79.993	19.998	102.833	20.348	-1.903	0.515
1061.499	608.701	79.992	19.997	102.833	20.350	-2.085	0.498
1061.999	608.964	79.993	19.997	102.833	20.349	-1.990	0.522
1062.499	609.219	79.993	19.996	102.833	20.347	-1.844	0.527
1062.999	609.460	79.994	19.997	102.833	20.349	-2.012	0.507
1063.499	609.760	79.992	19.997	102.834	20.344	-1.638	0.518
1064.000	609.965	79.994	19.997	102.834	20.347	-1.881	0.523
1064.500	610.221	79.993	19.997	102.833	20.346	-1.808	0.483
1064.999	610.483	79.994	19.997	102.831	20.344	-1.675	0.490
1065.499	610.731	79.995	19.997	102.831	20.349	-1.961	0.515
1065.999	610.994	79.994	19.996	102.830	20.347	-1.862	0.510
1066.499	611.238	79.995	19.998	102.829	20.351	-2.109	0.509
1066.999	611.475	79.993	19.995	102.831	20.351	-2.139	0.494
1067.499	611.738	79.993	19.996	102.833	20.346	-1.814	0.491
1067.999	611.968	79.994	19.996	102.833	20.345	-1.747	0.496
1068.499	612.239	79.994	19.995	102.833	20.345	-1.694	0.497
1068.999	612.506	79.995	19.996	102.833	20.354	-2.337	0.519
1069.499	612.734	79.995	19.996	102.832	20.350	-2.059	0.516
1069.999	613.006	79.995	19.997	102.832	20.349	-1.998	0.498
1070.499	613.237	79.994	19.995	102.832	20.348	-1.938	0.501
1070.999	613.503	79.994	19.996	102.832	20.344	-1.670	0.500
1071.499	613.770	79.995	19.995	102.832	20.349	-1.981	0.515
1071.999	614.019	79.994	19.995	102.831	20.352	-2.175	0.525
1072.499	614.259	79.993	19.997	102.831	20.348	-1.896	0.503
1072.999	614.519	79.994	19.995	102.831	20.348	-1.953	0.495
1073.499	614.765	79.995	19.995	102.832	20.347	-1.872	0.503
1073.999	615.033	79.993	19.996	102.832	20.350	-2.027	0.510
1074.499	615.259	79.994	19.995	102.832	20.351	-2.131	0.503
1074.999	615.496	79.994	19.995	102.833	20.351	-2.151	0.478
1075.499	615.779	79.992	19.995	102.833	20.349	-2.003	0.492
1075.999	616.061	79.992	19.995	102.835	20.349	-1.964	0.543
1076.499	616.285	79.993	19.996	102.840	20.349	-2.005	0.535
1076.999	616.542	79.992	19.995	102.842	20.353	-2.283	0.494
1077.499	616.789	79.993	19.996	102.844	20.353	-2.268	0.493
1077.999	617.058	79.993	19.996	102.844	20.353	-2.229	0.509
1078.499	617.328	79.992	19.995	102.845	20.351	-2.096	0.527
1078.999	617.548	79.991	19.995	102.840	20.350	-2.086	0.515
1079.499	617.813	79.991	19.996	102.839	20.350	-2.075	0.488
1079.999	618.070	79.992	19.996	102.838	20.352	-2.183	0.504
1080.499	618.328	79.991	19.997	102.838	20.354	-2.296	0.519
1080.999	618.585	79.991	19.996	102.836	20.352	-2.194	0.515
1081.499	618.810	79.992	19.996	102.837	20.352	-2.213	0.498
1081.999	619.083	79.990	19.995	102.837	20.353	-2.233	0.489
1082.499	619.317	79.993	19.996	102.837	20.352	-2.207	0.502
1082.999	619.622	79.991	19.996	102.837	20.348	-1.918	0.523
1083.499	619.850	79.991	19.996	102.838	20.346	-1.805	0.536
1083.999	620.090	79.993	19.995	102.838	20.350	-2.059	0.500
1084.500	620.355	79.992	19.997	102.837	20.349	-2.016	0.486
1085.000	620.597	79.992	19.997	102.836	20.352	-2.198	0.506
1085.499	620.844	79.992	19.996	102.837	20.348	-1.907	0.498
1085.999	621.105	79.992	19.996	102.834	20.356	-2.472	0.498
1086.499	621.347	79.991	19.995	102.834	20.353	-2.281	0.506
1086.999	621.589	79.992	19.997	102.834	20.354	-2.294	0.494
1087.499	621.849	79.991	19.996	102.834	20.354	-2.342	0.493
1087.999	622.101	79.992	19.995	102.833	20.356	-2.440	0.507
1088.499	622.363	79.991	19.997	102.835	20.353	-2.281	0.513
1088.999	622.632	79.991	19.995	102.836	20.356	-2.427	0.523
1089.499	622.878	79.992	19.996	102.836	20.354	-2.294	0.523
1089.999	623.142	79.991	19.995	102.836	20.355	-2.376	0.513
1090.499	623.366	79.992	19.996	102.839	20.353	-2.246	0.499
1091.000	623.642	79.991	19.996	102.843	20.355	-2.390	0.494
1091.500	623.898	79.992	19.996	102.843	20.352	-2.170	0.516
1091.999	624.128	79.992	19.997	102.843	20.355	-2.383	0.509
1092.499	624.389	79.992	19.996	102.843	20.353	-2.270	0.489
1092.999	624.655	79.992	19.996	102.841	20.351	-2.146	0.509
1093.499	624.875	79.992	19.996	102.837	20.348	-1.916	0.506
1093.999	625.099	79.991	19.996	102.837	20.354	-2.303	0.465
1094.499	625.384	79.991	19.996	102.837	20.354	-2.305	0.477
1094.999	625.632	79.992	19.996	102.837	20.352	-2.166	0.521
1095.499	625.902	79.992	19.995	102.837	20.352	-2.220	0.525
1095.999	626.151	79.991	19.995	102.837	20.352	-2.198	0.518
1096.499	626.374	79.991	19.995	102.837	20.347	-1.859	0.495
1096.999	626.661	79.992	19.996	102.837	20.356	-2.481	0.491
1097.499	626.903	79.993	19.996	102.837	20.354	-2.300	0.520
1097.999	627.147	79.994	19.995	102.837	20.349	-2.010	0.507
1098.499	627.401	79.991	19.995	102.837	20.351	-2.110	0.491
1098.999	627.685	79.992	19.995	102.837	20.349	-1.997	0.518
1099.499	627.896	79.990	19.996	102.837	20.353	-2.268	0.517
1100.000	628.192	79.992	19.996	102.839	20.353	-2.234	0.501
1100.500	628.413	79.992	19.995	102.841	20.353	-2.266	0.512
1100.999	628.655	79.991	19.995	102.842	20.353	-2.264	0.490
1101.499	628.925	79.991	19.996	102.842	20.350	-2.042	0.487
1101.999	629.175	79.992	19.995	102.842	20.352	-2.181	0.516
1102.499	629.432	79.992	19.996	102.840	20.353	-2.287	0.514
1102.999	629.671	79.991	19.995	102.838	20.353	-2.224	0.501
1103.499	629.912	79.991	19.996	102.837	20.349	-1.955	0.488
1103.999	630.167	79.991	19.996	102.838	20.349	-1.983	0.488
1104.499	630.451	79.992	19.995	102.838	20.351	-2.098	0.517
1104.999	630.695	79.993	19.996	102.839	20.351	-2.125	0.533
1105.499	630.982	79.992	19.995	102.839	20.355	-2.388	0.530
1105.999	631.224	79.993	19.995	102.839	20.353	-2.238	0.530
1106.499	631.416	79.992	19.995	102.838	20.351	-2.151	0.481
1106.999	631.695	79.994	19.995	102.838	20.350	-2.053	0.453
1107.499	631.942	79.994	19.995	102.836	20.354	-2.346	0.498
1107.999	632.207	79.992	19.996	102.835	20.354	-2.327	0.519
1108.499	632.427	79.992	19.996	102.835	20.353	-2.224	0.499
1108.999	632.696	79.991	19.996	102.835	20.353	-2.270	0.487
1109.499	632.912	79.993	19.998	102.832	20.356	-2.455	0.487
1109.999	633.193	79.992	19.994	102.831	20.354	-2.338	0.491
1110.499	633.435	79.992	19.995	102.828	20.351	-2.123	0.510
1110.999	633.711	79.991	19.995	102.822	20.351	-2.107	0.521
1111.499	633.954	79.992	19.996	102.817	20.355	-2.368	0.518
1111.999	634.200	79.993	19.996	102.820	20.351	-2.114	0.504
1112.499	634.478	79.994	19.996	102.824	20.352	-2.209	0.506
1112.999	634.676	79.991	19.996	102.827	20.352	-2.207	0.500
1113.499	634.965	79.992	19.995	102.834	20.349	-1.990	0.482
1113.999	635.197	79.993	19.996	102.839	20.351	-2.138	0.504
1114.499	635.467	79.992	19.996	102.838	20.353	-2.235	0.511
1114.999	635.706	79.992	19.995	102.834	20.353	-2.274	0.505
1115.499	635.993	79.991	19.996	102.834	20.355	-2.372	0.518
1115.999	636.249	79.994	19.997	102.834	20.353	-2.248	0.535
1116.499	636.488	79.992	19.996	102.834	20.354	-2.296	0.519
1116.999	636.729	79.991	19.995	102.836	20.355	-2.396	0.487
1117.499	637.012	79.993	19.997	102.839	20.354	-2.336	0.502
1117.999	637.254	79.992	19.995	102.839	20.355	-2.403	0.525
1118.499	637.511	79.992	19.995	102.838	20.354	-2.301	0.512
1118.999	637.744	79.993	19.996	102.837	20.356	-2.488	0.494
1119.499	637.994	79.995	19.996	102.835	20.356	-2.442	0.486
1119.999	638.235	79.993	19.997	102.829	20.356	-2.437	0.487
1120.499	638.489	79.994	19.997	102.829	20.354	-2.307	0.493
1120.999	638.763	79.993	19.996	102.829	20.354	-2.340	0.511
1121.499	639.013	79.993	19.996	102.829	20.356	-2.464	0.526
1121.999	639.227	79.993	19.997	102.831	20.354	-2.299	0.494
1122.499	639.469	79.994	19.997	102.834	20.356	-2.464	0.459
1122.999	639.751	79.992	19.996	102.834	20.355	-2.374	0.490
1123.499	640.031	79.994	19.996	102.834	20.357	-2.535	0.543
1123.999	640.263	79.994	19.996	102.834	20.353	-2.281	0.538
1124.499	640.509	79.993	19.997	102.833	20.352	-2.205	0.495
1124.999	640.756	79.994	19.998	102.832	20.354	-2.313	0.485
1125.499	641.013	79.994	19.997	102.832	20.354	-2.338	0.498
1125.999	641.250	79.994	19.997	102.832	20.354	-2.313	0.499
1126.499	641.515	79.995	19.996	102.831	20.352	-2.222	0.498
1126.999	641.747	79.993	19.997	102.831	20.355	-2.387	0.500
1127.499	641.996	79.993	19.997	102.831	20.351	-2.116	0.489
1127.999	642.212	79.993	19.997	102.831	20.354	-2.342	0.473
1128.499	642.513	79.993	19.996	102.831	20.352	-2.188	0.491
1128.999	642.778	79.993	19.996	102.831	20.353	-2.246	0.541
1129.499	643.013	79.993	19.996	102.832	20.355	-2.368	0.533
1129.999	643.254	79.994	19.996	102.832	20.356	-2.472	0.488
1130.499	643.476	79.994	19.996	102.832	20.353	-2.229	0.469
1130.999	643.786	79.993	19.996	102.833	20.352	-2.198	0.497
1131.499	643.994	79.993	19.996	102.833	20.356	-2.453	0.525
1132.000	644.274	79.995	19.996	102.833	20.352	-2.157	0.503
1132.500	644.528	79.993	19.996	102.833	20.357	-2.535	0.511
1132.999	644.797	79.993	19.996	102.833	20.357	-2.505	0.528
1133.499	645.040	79.994	19.996	102.836	20.357	-2.533	0.518
1133.999	645.287	79.992	19.996	102.838	20.359	-2.672	0.501
1134.499	645.522	79.991	19.996	102.838	20.356	-2.440	0.486
1134.999	645.777	79.992	19.996	102.838	20.356	-2.438	0.486
1135.499	646.046	79.993	19.996	102.838	20.355	-2.372	0.507
1135.999	646.276	79.992	19.996	102.836	20.353	-2.268	0.511
1136.499	646.542	79.992	19.997	102.835	20.356	-2.451	0.497
1136.999	646.815	79.993	19.996	102.835	20.357	-2.535	0.517
1137.499	647.052	79.993	19.996	102.835	20.355	-2.422	0.525
1137.999	647.298	79.992	19.996	102.834	20.357	-2.546	0.496
1138.499	647.529	79.993	19.997	102.834	20.356	-2.444	0.480
1138.999	647.801	79.994	19.996	102.833	20.356	-2.474	0.490
1139.499	648.096	79.992	19.998	102.833	20.351	-2.105	0.536
1139.999	648.291	79.992	19.996	102.833	20.356	-2.457	0.528
1140.499	648.541	79.994	19.997	102.834	20.356	-2.429	0.467
1140.999	648.832	79.992	19.997	102.834	20.352	-2.220	0.493
1141.499	649.073	79.994	19.997	102.835	20.355	-2.407	0.536
1141.999	649.329	79.994	19.996	102.837	20.350	-2.047	0.514
1142.499	649.589	79.994	19.997	102.842	20.350	-2.072	0.507
1142.999	649.822	79.994	19.997	102.843	20.354	-2.346	0.504
1143.499	650.077	79.993	19.996	102.843	20.357	-2.535	0.490
1143.999	650.328	79.992	19.996	102.843	20.358	-2.603	0.497
1144.499	650.629	79.993	19.996	102.840	20.360	-2.700	0.529
1144.999	650.858	79.996	19.996	102.835	20.357	-2.509	0.541
1145.499	651.138	79.994	19.997	102.834	20.353	-2.235	0.519
1145.999	651.392	79.994	19.996	102.834	20.351	-2.138	0.521
1146.499	651.647	79.994	19.996	102.834	20.350	-2.060	0.522
1146.999	651.865	79.994	19.995	102.834	20.354	-2.329	0.491
1147.499	652.163	79.992	19.997	102.836	20.351	-2.123	0.495
1147.999	652.396	79.994	19.997	102.835	20.349	-2.014	0.524
1148.499	652.676	79.995	19.996	102.834	20.348	-1.896	0.522
1148.999	652.911	79.993	19.996	102.834	20.350	-2.079	0.514
1149.499	653.156	79.993	19.997	102.834	20.352	-2.162	0.497
1149.999	653.448	79.994	19.996	102.833	20.350	-2.062	0.509
1150.499	653.682	79.994	19.998	102.833	20.351	-2.088	0.532
1151.000	653.963	79.992	19.997	102.831	20.350	-2.060	0.521
1151.500	654.189	79.993	19.996	102.831	20.348	-1.936	0.510
1151.999	654.452	79.992	19.996	102.831	20.349	-1.999	0.498
1152.499	654.666	79.992	19.997	102.831	20.351	-2.090	0.483
1152.999	654.968	79.992	19.997	102.831	20.352	-2.177	0.496
1153.499	655.235	79.993	19.997	102.833	20.350	-2.079	0.543
1153.999	655.461	79.992	19.997	102.833	20.352	-2.174	0.531
1154.499	655.764	79.993	19.997	102.833	20.350	-2.027	0.511
1154.999	655.972	79.992	19.997	102.833	20.353	-2.272	0.520
1155.499	656.239	79.990	19.997	102.833	20.352	-2.200	0.493
1155.999	656.439	79.992	19.997	102.833	20.351	-2.101	0.471
1156.499	656.772	79.991	19.995	102.832	20.353	-2.244	0.501
1156.999	656.984	79.991	19.996	102.833	20.348	-1.914	0.539
1157.500	657.304	79.991	19.997	102.833	20.348	-1.894	0.538
1158.000	657.539	79.991	19.996	102.833	20.352	-2.164	0.543
1158.499	657.756	79.991	19.997	102.834	20.352	-2.161	0.503
1158.999	658.056	79.992	19.996	102.835	20.352	-2.205	0.485
1159.499	658.312	79.992	19.995	102.836	20.348	-1.921	0.537
1159.999	658.536	79.991	19.996	102.836	20.352	-2.160	0.518
1160.499	658.801	79.991	19.997	102.836	20.349	-2.018	0.484
1160.999	659.051	79.993	19.996	102.836	20.348	-1.936	0.502
1161.499	659.276	79.992	19.996	102.834	20.350	-2.071	0.495
1161.999	659.519	79.992	19.996	102.834	20.348	-1.910	0.472
1162.499	659.767	79.993	19.996	102.834	20.352	-2.220	0.479
1162.999	660.013	79.990	19.995	102.831	20.350	-2.057	0.492
1163.499	660.305	79.991	19.995	102.831	20.352	-2.168	0.516
1163.999	660.546	79.992	19.995	102.833	20.350	-2.034	0.536
1164.499	660.817	79.992	19.995	102.833	20.350	-2.049	0.523
1164.999	661.063	79.992	19.997	102.834	20.352	-2.168	0.514
1165.499	661.329	79.992	19.995	102.838	20.353	-2.270	0.514
1165.999	661.588	79.992	19.995	102.840	20.354	-2.351	0.519
1166.499	661.834	79.992	19.995	102.840	20.350	-2.083	0.515
1166.999	662.063	79.993	19.995	102.839	20.354	-2.340	0.490
1167.499	662.345	79.992	19.996	102.839	20.350	-2.059	0.493
1167.999	662.618	79.992	19.995	102.837	20.353	-2.227	0.533
1168.499	662.851	79.993	19.996	102.833	20.351	-2.101	0.530
1168.999	663.116	79.993	19.996	102.833	20.353	-2.257	0.502
1169.499	663.373	79.992	19.995	102.833	20.350	-2.062	0.510
1169.999	663.621	79.991	19.995	102.833	20.352	-2.194	0.514
1170.499	663.878	79.993	19.996	102.829	20.350	-2.023	0.506
1170.999	664.108	79.993	19.997	102.827	20.351	-2.090	0.496
1171.499	664.361	79.992	19.996	102.827	20.350	-2.075	0.484
1172.000	664.631	79.993	19.995	102.826	20.349	-2.012	0.503
1172.500	664.867	79.992	19.998	102.826	20.355	-2.422	0.515
1172.999	665.107	79.992	19.997	102.829	20.354	-2.301	0.492
1173.499	665.392	79.993	19.995	102.832	20.353	-2.270	0.500
1173.999	665.634	79.993	19.997	102.832	20.354	-2.324	0.526
1174.499	665.905	79.993	19.996	102.832	20.351	-2.136	0.520
1174.999	666.151	79.993	19.997	102.832	20.354	-2.342	0.515
1175.499	666.406	79.992	19.996	102.835	20.351	-2.114	0.509
1175.999	666.663	79.994	19.996	102.834	20.351	-2.127	0.507
1176.499	666.941	79.995	19.997	102.835	20.352	-2.190	0.523
1176.999	667.182	79.993	19.996	102.836	20.354	-2.301	0.527
1177.499	667.434	79.992	19.996	102.836	20.354	-2.342	0.506
1177.999	667.696	79.992	19.996	102.834	20.356	-2.433	0.503
1178.499	667.936	79.993	19.997	102.834	20.354	-2.348	0.508
1178.999	668.173	79.990	19.996	102.832	20.347	-1.886	0.489
1179.499	668.450	79.992	19.996	102.831	20.351	-2.138	0.495
1179.999	668.731	79.993	19.996	102.833	20.353	-2.223	0.536
1180.499	668.962	79.993	19.996	102.834	20.354	-2.292	0.535
1180.999	669.215	79.992	19.996	102.834	20.356	-2.444	0.498
1181.499	669.447	79.993	19.995	102.833	20.358	-2.570	0.484
1181.999	669.729	79.992	19.996	102.833	20.348	-1.923	0.500
1182.499	670.017	79.992	19.995	102.831	20.348	-1.949	0.542
1182.999	670.233	79.992	19.996	102.830	20.349	-1.988	0.537
1183.499	670.505	79.992	19.995	102.830	20.348	-1.894	0.496
1183.999	670.769	79.993	19.996	102.832	20.353	-2.275	0.512
1184.499	671.010	79.993	19.996	102.833	20.355	-2.383	0.521
1184.999	671.269	79.992	19.996	102.834	20.355	-2.388	0.503
1185.499	671.499	79.993	19.998	102.833	20.351	-2.120	0.494
1185.999	671.786	79.993	19.995	102.833	20.353	-2.272	0.503
1186.499	672.043	79.991	19.996	102.834	20.353	-2.231	0.530
1186.999	672.302	79.992	19.996	102.834	20.350	-2.083	0.530
1187.499	672.525	79.992	19.996	102.835	20.354	-2.333	0.499
1187.999	672.800	79.991	19.995	102.835	20.353	-2.235	0.490
1188.499	673.041	79.991	19.996	102.835	20.352	-2.168	0.507
1188.999	673.340	79.993	19.996	102.835	20.353	-2.253	0.528
1189.499	673.582	79.993	19.996	102.834	20.353	-2.285	0.540
1189.999	673.860	79.990	19.997	102.833	20.350	-2.051	0.531
1190.499	674.106	79.992	19.996	102.833	20.353	-2.257	0.523
1190.999	674.359	79.992	19.996	102.831	20.357	-2.527	0.512
1191.499	674.606	79.991	19.996	102.832	20.354	-2.320	0.499
1191.999	674.861	79.992	19.996	102.833	20.354	-2.303	0.501
1192.499	675.116	79.992	19.996	102.835	20.357	-2.498	0.506
1192.999	675.375	79.992	19.996	102.836	20.355	-2.372	0.512
1193.499	675.642	79.992	19.995	102.838	20.352	-2.211	0.520
1193.999	675.931	79.992	19.995	102.838	20.353	-2.266	0.541
1194.499	676.166	79.993	19.996	102.837	20.354	-2.350	0.540
1194.999	676.421	79.992	19.996	102.835	20.351	-2.123	0.507
1195.499	676.648	79.993	19.997	102.834	20.352	-2.190	0.485
1195.999	676.871	79.993	19.995	102.834	20.355	-2.366	0.466
1196.499	677.166	79.995	19.996	102.833	20.355	-2.370	0.484
1196.999	677.407	79.995	19.996	102.833	20.355	-2.409	0.527
1197.499	677.699	79.994	19.996	102.833	20.353	-2.231	0.534
1197.999	677.973	79.993	19.995	102.833	20.353	-2.259	0.550
1198.500	678.195	79.995	19.996	102.833	20.352	-2.159	0.532
1199.000	678.469	79.995	19.995	102.831	20.353	-2.272	0.496
1199.499	678.720	79.994	19.995	102.832	20.351	-2.129	0.510
1199.999	678.966	79.994	19.996	102.832	20.355	-2.377	0.511
1200.499	679.229	79.995	19.996	102.830	20.352	-2.175	0.503
1200.999	679.482	79.994	19.995	102.825	20.351	-2.088	0.512
1201.499	679.759	79.994	19.997	102.823	20.353	-2.238	0.523
1201.999	679.992	79.995	19.996	102.823	20.353	-2.262	0.520
1202.499	680.245	79.995	19.996	102.823	20.352	-2.166	0.498
1202.999	680.526	79.994	19.997	102.825	20.349	-1.970	0.510
1203.499	680.745	79.994	19.997	102.830	20.349	-1.970	0.517
1203.999	680.970	79.994	19.996	102.835	20.351	-2.148	0.472
1204.499	681.268	79.994	19.997	102.835	20.354	-2.312	0.483
1204.999	681.529	79.993	19.996	102.835	20.356	-2.455	0.541
1205.499	681.779	79.993	19.996	102.834	20.348	-1.888	0.535
1205.999	682.066	79.992	19.994	102.834	20.351	-2.118	0.524
1206.499	682.305	79.994	19.997	102.834	20.351	-2.105	0.531
1206.999	682.568	79.994	19.995	102.831	20.355	-2.416	0.514
1207.499	682.808	79.994	19.995	102.831	20.352	-2.212	0.502
1207.999	683.065	79.993	19.996	102.830	20.357	-2.505	0.500
1208.499	683.308	79.993	19.995	102.829	20.355	-2.413	0.499
1208.999	683.571	79.994	19.996	102.828	20.351	-2.146	0.503
1209.499	683.810	79.994	19.996	102.829	20.351	-2.112	0.504
1209.999	684.093	79.993	19.997	102.826	20.354	-2.344	0.511
1210.499	684.379	79.993	19.996	102.827	20.352	-2.190	0.545
1210.999	684.607	79.993	19.996	102.827	20.351	-2.136	0.542
1211.499	684.813	79.993	19.997	102.828	20.355	-2.412	0.474
1211.999	685.116	79.993	19.997	102.826	20.354	-2.335	0.472
1212.499	685.312	79.993	19.996	102.827	20.356	-2.477	0.504
1212.999	685.599	79.992	19.997	102.826	20.355	-2.361	0.491
1213.499	685.883	79.992	19.998	102.827	20.352	-2.220	0.527
1213.999	686.126	79.993	19.997	102.827	20.354	-2.305	0.549
1214.499	686.365	79.992	19.996	102.830	20.353	-2.232	0.505
1214.999	686.632	79.992	19.997	102.833	20.353	-2.262	0.494
1215.499	686.885	79.992	19.997	102.833	20.351	-2.106	0.513
1215.999	687.128	79.992	19.996	102.833	20.356	-2.459	0.508
1216.499	687.372	79.992	19.997	102.833	20.353	-2.283	0.491
1216.999	687.604	79.993	19.997	102.834	20.352	-2.183	0.481
1217.499	687.853	79.992	19.996	102.834	20.355	-2.373	0.478
1217.999	688.145	79.992	19.997	102.834	20.353	-2.223	0.511
1218.499	688.415	79.994	19.996	102.835	20.355	-2.386	0.552
1218.999	688.672	79.993	19.997	102.835	20.355	-2.420	0.544
1219.499	688.918	79.995	19.997	102.835	20.357	-2.503	0.515
1219.999	689.155	79.992	19.994	102.835	20.354	-2.336	0.493
1220.500	689.417	79.995	19.996	102.833	20.353	-2.275	0.491
1221.000	689.699	79.994	19.996	102.831	20.354	-2.294	0.522
1221.499	689.909	79.994	19.996	102.829	20.354	-2.349	0.518
1221.999	690.229	79.994	19.996	102.829	20.354	-2.299	0.511
1222.499	690.495	79.993	19.996	102.830	20.353	-2.251	0.559
1222.999	690.735	79.994	19.996	102.832	20.356	-2.444	0.546
1223.500	691.012	79.994	19.996	102.833	20.352	-2.166	0.511
1224.000	691.227	79.995	19.996	102.834	20.352	-2.195	0.505
1224.499	691.474	79.994	19.996	102.829	20.349	-2.010	0.477
1224.999	691.733	79.995	19.997	102.821	20.353	-2.244	0.484
1225.499	691.985	79.994	19.995	102.816	20.355	-2.411	0.508
1225.999	692.243	79.995	19.995	102.814	20.355	-2.407	0.510
1226.499	692.528	79.995	19.996	102.814	20.353	-2.238	0.527
1226.999	692.768	79.995	19.995	102.819	20.354	-2.327	0.534
1227.499	693.011	79.995	19.996	102.823	20.353	-2.257	0.504
1228.000	693.256	79.994	19.995	102.824	20.354	-2.334	0.486
1228.500	693.515	79.993	19.995	102.827	20.355	-2.405	0.496
1228.999	693.764	79.996	19.997	102.825	20.355	-2.396	0.505
1229.499	694.006	79.995	19.996	102.824	20.360	-2.751	0.499
1229.999	694.279	79.995	19.996	102.825	20.356	-2.466	0.503
1230.499	694.516	79.993	19.996	102.829	20.353	-2.286	0.513
1230.999	694.775	79.993	19.996	102.824	20.356	-2.442	0.503
1231.499	695.065	79.994	19.996	102.819	20.355	-2.362	0.522
1231.999	695.295	79.994	19.996	102.817	20.355	-2.358	0.535
1232.499	695.565	79.994	19.997	102.818	20.356	-2.488	0.510
1232.999	695.791	79.993	19.997	102.813	20.352	-2.179	0.498
1233.499	696.038	79.991	19.997	102.815	20.357	-2.503	0.484
1233.999	696.299	79.992	19.997	102.820	20.360	-2.711	0.491
1234.499	696.532	79.992	19.995	102.821	20.357	-2.524	0.501
1234.999	696.787	79.992	19.998	102.821	20.353	-2.283	0.491
1235.499	697.071	79.992	19.998	102.826	20.359	-2.624	0.513
1235.999	697.302	79.993	19.998	102.829	20.352	-2.190	0.527
1236.499	697.530	79.990	19.997	102.831	20.357	-2.499	0.487
1236.999	697.812	79.992	19.998	102.832	20.357	-2.555	0.484
1237.499	698.086	79.993	19.998	102.832	20.357	-2.538	0.533
1237.999	698.331	79.992	19.996	102.832	20.355	-2.357	0.538
1238.499	698.555	79.992	19.997	102.830	20.358	-2.612	0.495
1238.999	698.825	79.992	19.998	102.825	20.358	-2.581	0.482
1239.499	699.070	79.991	19.998	102.824	20.360	-2.718	0.504
1239.999	699.354	79.992	19.996	102.824	20.359	-2.645	0.522
1240.499	699.544	79.991	19.997	102.822	20.358	-2.608	0.501
1240.999	699.816	79.992	19.998	102.822	20.360	-2.710	0.468
1241.499	700.081	79.992	19.996	102.827	20.358	-2.612	0.499
1241.999	700.328	79.992	19.998	102.823	20.358	-2.564	0.524
1242.499	700.584	79.993	19.997	102.819	20.365	-3.031	0.507
1242.999	700.888	79.992	19.997	102.819	20.365	-3.070	0.532
1243.499	701.098	79.992	19.997	102.821	20.368	-3.250	0.537
1243.999	701.360	79.992	19.997	102.818	20.356	-2.446	0.493
1244.499	701.618	79.992	19.996	102.823	20.361	-2.783	0.496
1244.999	701.860	79.991	19.996	102.827	20.361	-2.812	0.510
1245.499	702.147	79.993	19.997	102.828	20.364	-3.000	0.515
1245.999	702.371	79.993	19.997	102.825	20.361	-2.818	0.520
1246.499	702.584	79.993	19.996	102.825	20.360	-2.751	0.474
1247.000	702.880	79.993	19.997	102.821	20.362	-2.831	0.473
1247.500	703.137	79.992	19.996	102.817	20.364	-2.970	0.531
1247.999	703.385	79.993	19.996	102.815	20.364	-3.000	0.529
1248.499	703.632	79.994	19.995	102.818	20.360	-2.740	0.500
1248.999	703.901	79.992	19.995	102.822	20.363	-2.913	0.505
1249.499	704.114	79.992	19.996	102.826	20.363	-2.946	0.499
1249.999	704.381	79.993	19.996	102.825	20.364	-2.961	0.481
1250.499	704.613	79.993	19.997	102.819	20.363	-2.929	0.490
1250.999	704.856	79.992	19.996	102.814	20.362	-2.866	0.487
1251.500	705.156	79.993	19.995	102.814	20.361	-2.768	0.509
1252.000	705.369	79.993	19.996	102.814	20.364	-2.973	0.528
1252.499	705.646	79.992	19.996	102.817	20.362	-2.857	0.502
1252.999	705.887	79.995	19.996	102.822	20.361	-2.777	0.504
1253.499	706.100	79.993	19.996	102.825	20.365	-3.072	0.485
1253.999	706.385	79.993	19.996	102.822	20.364	-3.022	0.476
1254.499	706.591	79.993	19.996	102.822	20.362	-2.849	0.495
1254.999	706.856	79.993	19.996	102.823	20.361	-2.788	0.481
1255.499	707.095	79.992	19.996	102.825	20.362	-2.840	0.488
1255.999	707.357	79.993	19.997	102.824	20.362	-2.877	0.503
1256.499	707.636	79.993	19.995	102.822	20.362	-2.825	0.521
1256.999	707.894	79.995	19.995	102.816	20.361	-2.773	0.539
1257.499	708.172	79.995	19.995	102.813	20.362	-2.827	0.536
1257.999	708.329	79.993	19.997	102.814	20.361	-2.766	0.486
1258.499	708.604	79.993	19.996	102.815	20.364	-3.006	0.433
1258.999	708.831	79.993	19.997	102.820	20.358	-2.595	0.466
1259.499	709.127	79.993	19.996	102.825	20.364	-2.994	0.512
1260.000	709.321	79.993	19.997	102.826	20.358	-2.558	0.507
1260.500	709.597	79.993	19.996	102.819	20.363	-2.903	0.480
1260.999	709.838	79.994	19.996	102.820	20.366	-3.129	0.493
1261.499	710.091	79.992	19.997	102.816	20.363	-2.926	0.506
1261.999	710.323	79.992	19.995	102.812	20.357	-2.524	0.490
1262.499	710.551	79.995	19.996	102.810	20.361	-2.764	0.473
1262.999	710.839	79.993	19.995	102.814	20.361	-2.777	0.488
1263.499	711.067	79.993	19.997	102.815	20.362	-2.862	0.516
1264.000	711.308	79.993	19.996	102.814	20.361	-2.764	0.492
1264.500	711.542	79.992	19.996	102.814	20.361	-2.771	0.472
1264.999	711.792	79.992	19.996	102.817	20.360	-2.742	0.479
1265.499	712.048	79.992	19.996	102.818	20.364	-3.001	0.495
1265.999	712.291	79.992	19.997	102.815	20.358	-2.612	0.503
1266.499	712.539	79.992	19.997	102.816	20.360	-2.718	0.495
1266.999	712.746	79.993	19.996	102.815	20.360	-2.740	0.473
1267.499	713.007	79.993	19.997	102.809	20.359	-2.668	0.461
1267.999	713.244	79.993	19.996	102.806	20.362	-2.855	0.483
1268.499	713.495	79.992	19.995	102.805	20.364	-2.971	0.494
1268.999	713.723	79.993	19.996	102.802	20.365	-3.038	0.484
1269.499	713.974	79.991	19.996	102.804	20.362	-2.881	0.479
1269.999	714.182	79.992	19.996	102.809	20.364	-2.983	0.469
1270.499	714.462	79.993	19.996	102.811	20.358	-2.620	0.473
1270.999	714.691	79.992	19.996	102.812	20.363	-2.944	0.499
1271.499	714.972	79.992	19.996	102.818	20.365	-3.049	0.509
1271.999	715.216	79.993	19.996	102.823	20.360	-2.753	0.517
1272.499	715.489	79.993	19.996	102.826	20.363	-2.933	0.521
1272.999	715.735	79.993	19.997	102.828	20.362	-2.859	0.519
1273.500	715.970	79.994	19.997	102.830	20.361	-2.777	0.500
1274.000	716.194	79.994	19.996	102.824	20.357	-2.548	0.470
1274.499	716.475	79.993	19.996	102.816	20.362	-2.870	0.482
1274.999	716.734	79.993	19.996	102.811	20.361	-2.818	0.523
1275.499	717.019	79.993	19.996	102.806	20.362	-2.836	0.542
1275.999	717.210	79.994	19.996	102.808	20.363	-2.945	0.510
1276.499	717.475	79.992	19.996	102.814	20.363	-2.920	0.466
1276.999	717.745	79.993	19.995	102.821	20.360	-2.740	0.495
1277.499	717.938	79.993	19.995	102.826	20.364	-2.968	0.499
1277.999	718.210	79.994	19.996	102.825	20.362	-2.879	0.464
1278.499	718.444	79.994	19.995	102.824	20.363	-2.939	0.485
1278.999	718.653	79.995	19.996	102.818	20.364	-2.974	0.474
1279.499	718.936	79.994	19.995	102.811	20.364	-2.985	0.467
1279.999	719.187	79.994	19.996	102.808	20.362	-2.831	0.513
1280.499	719.384	79.995	19.996	102.813	20.363	-2.898	0.491
1280.999	719.658	79.994	19.995	102.810	20.365	-3.037	0.460
1281.499	719.917	79.995	19.995	102.812	20.365	-3.025	0.502
1281.999	720.153	79.995	19.995	102.813	20.366	-3.142	0.514
1282.499	720.396	79.994	19.996	102.810	20.363	-2.949	0.486
1282.999	720.659	79.995	19.995	102.811	20.363	-2.910	0.493
1283.499	720.908	79.994	19.994	102.816	20.364	-2.975	0.509
1283.999	721.167	79.995	19.996	102.821	20.362	-2.844	0.510
1284.499	721.385	79.992	19.995	102.826	20.365	-3.025	0.492
1284.999	721.623	79.995	19.995	102.826	20.367	-3.195	0.467
1285.499	721.886	79.994	19.995	102.821	20.366	-3.101	0.478
1285.999	722.126	79.995	19.995	102.817	20.364	-3.021	0.502
1286.499	722.375	79.995	19.995	102.811	20.367	-3.177	0.496
1286.999	722.567	79.993	19.995	102.807	20.365	-3.081	0.465
1287.499	722.841	79.992	19.996	102.809	20.368	-3.244	0.454
1287.999	723.102	79.994	19.995	102.813	20.365	-3.036	0.500
1288.499	723.332	79.994	19.996	102.817	20.365	-3.062	0.513
1288.999	723.587	79.993	19.995	102.823	20.367	-3.203	0.488
1289.499	723.839	79.994	19.995	102.826	20.365	-3.051	0.496
1289.999	724.080	79.992	19.994	102.830	20.363	-2.940	0.500
1290.499	724.319	79.993	19.995	102.833	20.361	-2.792	0.486
1290.999	724.575	79.994	19.995	102.834	20.361	-2.794	0.488
1291.499	724.839	79.993	19.995	102.828	20.364	-2.966	0.508
1291.999	725.075	79.993	19.995	102.823	20.364	-2.966	0.510
1292.499	725.348	79.994	19.995	102.818	20.364	-2.988	0.504
1292.999	725.577	79.994	19.996	102.812	20.363	-2.955	0.506
1293.499	725.820	79.994	19.996	102.804	20.361	-2.773	0.487
1293.999	726.070	79.994	19.995	102.805	20.366	-3.122	0.482
1294.499	726.334	79.994	19.997	102.807	20.365	-3.081	0.503
1294.999	726.563	79.994	19.995	102.807	20.367	-3.218	0.504
1295.499	726.818	79.994	19.996	102.804	20.366	-3.153	0.489
1295.999	727.085	79.994	19.996	102.804	20.368	-3.229	0.503
1296.499	727.320	79.995	19.997	102.803	20.363	-2.934	0.512
1296.999	727.580	79.994	19.997	102.805	20.361	-2.758	0.498
1297.499	727.818	79.995	19.997	102.804	20.362	-2.860	0.496
1297.999	728.086	79.994	19.995	102.804	20.365	-3.053	0.502
1298.499	728.351	79.995	19.997	102.804	20.361	-2.778	0.520
1298.999	728.556	79.995	19.996	102.808	20.359	-2.662	0.501
1299.499	728.804	79.993	19.996	102.811	20.362	-2.884	0.462
1299.999	729.075	79.995	19.996	102.816	20.361	-2.803	0.486
1300.499	729.314	79.994	19.995	102.824	20.365	-3.036	0.515
1300.999	729.569	79.995	19.997	102.827	20.363	-2.899	0.502
1301.499	729.792	79.994	19.997	102.822	20.362	-2.856	0.486
1301.999	730.076	79.995	19.996	102.819	20.358	-2.619	0.492
1302.499	730.325	79.996	19.997	102.813	20.361	-2.778	0.520
1302.999	730.596	79.994	19.996	102.806	20.361	-2.760	0.526
1303.499	730.819	79.996	19.997	102.805	20.361	-2.781	0.507
1303.999	731.080	79.996	19.997	102.807	20.364	-2.988	0.489
1304.499	731.332	79.995	19.996	102.809	20.362	-2.849	0.499
1304.999	731.543	79.996	19.996	102.814	20.363	-2.938	0.488
1305.500	731.816	79.996	19.996	102.817	20.365	-3.062	0.473
1306.000	732.053	79.996	19.996	102.819	20.364	-2.996	0.497
1306.499	732.311	79.997	19.996	102.819	20.363	-2.898	0.503
1306.999	732.566	79.995	19.996	102.812	20.365	-3.055	0.504
1307.499	732.788	79.995	19.996	102.808	20.366	-3.105	0.495
1307.999	733.072	79.995	19.996	102.805	20.364	-2.957	0.492
1308.499	733.322	79.995	19.997	102.800	20.364	-2.998	0.520
1309.000	733.559	79.996	19.996	102.798	20.365	-3.047	0.511
1309.500	733.822	79.996	19.997	102.799	20.363	-2.953	0.494
1309.999	734.067	79.995	19.995	102.801	20.364	-2.971	0.504
1310.499	734.307	79.994	19.996	102.807	20.364	-2.973	0.496
1310.999	734.548	79.993	19.996	102.810	20.365	-3.060	0.483
1311.499	734.795	79.994	19.996	102.809	20.365	-3.060	0.485
1311.999	735.052	79.995	19.996	102.806	20.366	-3.105	0.496
1312.499	735.303	79.994	19.996	102.804	20.365	-3.047	0.506
1312.999	735.530	79.993	19.997	102.796	20.368	-3.238	0.493
1313.499	735.834	79.994	19.996	102.794	20.367	-3.162	0.505
1313.999	736.050	79.992	19.997	102.800	20.365	-3.031	0.525
1314.499	736.317	79.992	19.995	102.806	20.370	-3.373	0.501
1314.999	736.571	79.993	19.996	102.809	20.367	-3.220	0.502
1315.499	736.759	79.992	19.997	102.811	20.365	-3.036	0.482
1315.999	737.044	79.993	19.997	102.814	20.368	-3.238	0.458
1316.499	737.319	79.993	19.995	102.815	20.365	-3.066	0.516
1316.999	737.576	79.993	19.996	102.817	20.365	-3.069	0.546
1317.499	737.811	79.992	19.997	102.819	20.369	-3.327	0.512
1317.999	738.080	79.993	19.996	102.822	20.366	-3.147	0.498
1318.499	738.346	79.993	19.996	102.825	20.367	-3.218	0.519
1318.999	738.612	79.992	19.996	102.823	20.368	-3.238	0.533
1319.499	738.822	79.991	19.997	102.817	20.366	-3.132	0.504
1319.999	739.117	79.991	19.997	102.812	20.370	-3.416	0.491
1320.499	739.362	79.992	19.996	102.808	20.368	-3.273	0.523
1320.999	739.632	79.994	19.997	102.805	20.368	-3.273	0.527
1321.499	739.879	79.994	19.997	102.801	20.369	-3.327	0.516
1322.000	740.159	79.993	19.997	102.800	20.366	-3.134	0.522
1322.500	740.394	79.992	19.997	102.800	20.369	-3.294	0.521
1323.000	740.651	79.991	19.996	102.801	20.366	-3.099	0.503
1323.500	740.890	79.993	19.997	102.799	20.366	-3.142	0.494
1323.999	741.165	79.991	19.997	102.798	20.368	-3.282	0.505
1324.499	741.410	79.993	19.998	102.801	20.370	-3.369	0.517
1324.999	741.663	79.993	19.996	102.807	20.370	-3.371	0.509
1325.499	741.961	79.992	19.997	102.810	20.371	-3.468	0.525
1325.999	742.164	79.992	19.996	102.810	20.366	-3.123	0.526
1326.499	742.397	79.993	19.998	102.809	20.367	-3.199	0.468
1326.999	742.702	79.991	19.997	102.806	20.368	-3.261	0.487
1327.500	742.971	79.991	19.998	102.800	20.366	-3.122	0.556
1328.000	743.216	79.991	19.997	102.801	20.364	-3.021	0.544
1328.499	743.463	79.991	19.997	102.806	20.370	-3.401	0.503
1328.999	743.712	79.991	19.997	102.809	20.367	-3.208	0.494
