Sample ID:	C:\MCC\MCC Cal\Test\PVC_R06_MCC_30K_min_211014_R3.txt
Sample Weight (mg):	4.6
Heating Rate (C/s):	0.5
Combustor Temp (C):	900
N2 Flow Rate (cc/min):	80
O2 Flow Rate (cc/min):	20
Calibration File:	C:\MCC\MCC Cal\Coeff1 JN10440_30_210304.txt.txt
T Correction Coefficients:	0	1.024463	0
Time Shift (s):	14
*
Time (s)	Temperature (C)	N2 flow rate (cc/min)	O2 flow rate (cc/min)	Flow Rate (cc/min)	Oxygen (%)	HRR (W/g)	Heating rate (C/s)
0.000	108.377	79.992	19.995	102.697	20.429	0.095	-0.006
0.500	108.357	79.993	19.995	102.697	20.431	-0.095	-0.031
1.000	108.344	79.994	19.995	102.690	20.428	0.145	-0.035
1.500	108.372	79.991	19.996	102.686	20.428	0.151	-0.009
2.000	108.366	79.993	19.995	102.688	20.430	-0.006	0.018
2.500	108.397	79.992	19.996	102.691	20.430	0.006	0.023
3.000	108.358	79.993	19.995	102.691	20.431	-0.044	0.009
3.500	108.374	79.991	19.995	102.693	20.430	-0.010	-0.015
4.000	108.391	79.993	19.995	102.695	20.430	0.029	0.005
4.500	108.415	79.993	19.995	102.689	20.429	0.039	0.037
5.000	108.361	79.993	19.995	102.684	20.431	-0.068	0.005
5.500	108.358	79.992	19.995	102.682	20.430	0.002	-0.044
6.000	108.374	79.993	19.995	102.679	20.429	0.042	-0.022
6.500	108.388	79.994	19.996	102.679	20.428	0.166	0.021
7.000	108.375	79.992	19.995	102.680	20.431	-0.060	0.015
7.500	108.381	79.993	19.995	102.686	20.427	0.187	-0.003
8.000	108.392	79.992	19.995	102.690	20.427	0.220	0.005
8.500	108.380	79.993	19.995	102.691	20.429	0.037	0.008
9.000	108.355	79.994	19.995	102.691	20.427	0.207	-0.019
9.500	108.380	79.991	19.996	102.692	20.427	0.238	-0.018
10.000	108.364	79.993	19.994	102.685	20.429	0.068	0.004
10.501	108.350	79.993	19.995	102.683	20.429	0.048	-0.011
11.001	108.398	79.993	19.995	102.685	20.431	-0.052	0.002
11.500	108.366	79.993	19.994	102.689	20.430	-0.008	0.025
12.000	108.373	79.993	19.996	102.692	20.430	-0.015	-0.004
12.500	108.365	79.994	19.995	102.695	20.431	-0.054	-0.013
13.000	108.364	79.992	19.995	102.697	20.430	0.008	-0.006
13.500	108.353	79.992	19.995	102.695	20.430	0.014	-0.011
14.000	108.327	79.993	19.995	102.692	20.428	0.147	-0.024
14.500	108.349	79.993	19.996	102.687	20.428	0.114	-0.020
15.000	108.324	79.992	19.996	102.688	20.428	0.129	-0.003
15.500	108.352	79.992	19.995	102.694	20.431	-0.073	-0.000
16.000	108.328	79.991	19.996	102.698	20.429	0.093	0.004
16.500	108.349	79.992	19.996	102.702	20.431	-0.100	0.000
17.000	108.374	79.991	19.995	102.706	20.431	-0.056	0.022
17.500	108.348	79.992	19.996	102.709	20.428	0.116	0.023
18.000	108.337	79.992	19.995	102.708	20.428	0.118	-0.019
18.500	108.351	79.993	19.996	102.708	20.427	0.182	-0.017
19.000	108.334	79.993	19.997	102.708	20.429	0.058	0.001
19.500	108.346	79.992	19.996	102.708	20.430	-0.012	-0.004
20.000	108.311	79.993	19.995	102.706	20.429	0.100	-0.014
20.500	108.337	79.992	19.997	102.700	20.432	-0.112	-0.017
21.000	108.317	79.992	19.995	102.699	20.430	0.025	-0.002
21.500	108.305	79.990	19.996	102.698	20.426	0.284	-0.013
22.000	108.309	79.991	19.997	102.700	20.430	0.012	-0.020
22.500	108.314	79.992	19.997	102.702	20.427	0.203	0.001
23.000	108.341	79.993	19.996	102.709	20.425	0.342	0.021
23.500	108.333	79.991	19.997	102.715	20.428	0.114	0.025
24.000	108.314	79.992	19.997	102.722	20.426	0.261	-0.004
24.500	108.355	79.993	19.996	102.729	20.427	0.184	-0.002
25.000	108.354	79.992	19.997	102.734	20.426	0.300	0.031
25.500	108.378	79.993	19.997	102.738	20.424	0.389	0.031
26.000	108.350	79.992	19.997	102.740	20.424	0.427	0.010
26.500	108.337	79.992	19.996	102.742	20.428	0.170	-0.022
27.001	108.375	79.993	19.997	102.742	20.424	0.435	-0.008
27.500	108.370	79.993	19.997	102.740	20.421	0.605	0.028
28.000	108.401	79.992	19.996	102.742	20.423	0.504	0.030
28.500	108.426	79.993	19.997	102.742	20.423	0.489	0.041
29.000	108.424	79.993	19.995	102.741	20.423	0.518	0.039
29.500	108.434	79.993	19.995	102.743	20.421	0.609	0.016
30.000	108.452	79.994	19.995	102.747	20.422	0.551	0.018
30.500	108.448	79.994	19.995	102.747	20.421	0.624	0.021
31.000	108.462	79.993	19.996	102.747	20.421	0.630	0.012
31.500	108.480	79.995	19.995	102.744	20.424	0.435	0.021
32.000	108.502	79.994	19.996	102.739	20.419	0.744	0.036
32.500	108.489	79.994	19.995	102.741	20.420	0.679	0.025
33.000	108.530	79.994	19.995	102.729	20.419	0.779	0.018
33.500	108.526	79.995	19.995	102.717	20.418	0.804	0.033
34.000	108.553	79.994	19.995	102.713	20.417	0.918	0.031
34.500	108.600	79.995	19.995	102.717	20.416	0.957	0.049
35.000	108.622	79.995	19.996	102.715	20.418	0.826	0.071
35.500	108.626	79.994	19.996	102.735	20.417	0.901	0.047
36.000	108.654	79.993	19.995	102.785	20.417	0.880	0.029
36.500	108.699	79.995	19.995	102.825	20.415	1.067	0.052
37.001	108.716	79.995	19.996	102.840	20.415	1.048	0.067
37.501	108.745	79.994	19.995	102.848	20.415	1.027	0.054
38.000	108.775	79.995	19.994	102.850	20.414	1.137	0.053
38.500	108.793	79.995	19.994	102.824	20.413	1.205	0.053
39.000	108.836	79.994	19.994	102.800	20.410	1.369	0.054
39.500	108.826	79.995	19.995	102.792	20.412	1.243	0.047
40.000	108.888	79.994	19.995	102.791	20.411	1.323	0.042
40.500	108.916	79.996	19.996	102.789	20.409	1.468	0.071
41.000	108.974	79.992	19.994	102.788	20.412	1.243	0.088
41.500	108.976	79.993	19.995	102.788	20.409	1.483	0.073
42.000	109.031	79.994	19.995	102.794	20.411	1.325	0.059
42.500	109.080	79.994	19.995	102.802	20.410	1.377	0.080
43.000	109.119	79.995	19.995	102.810	20.407	1.578	0.096
43.500	109.182	79.994	19.995	102.817	20.407	1.627	0.095
44.000	109.219	79.994	19.995	102.825	20.406	1.700	0.102
44.500	109.258	79.994	19.995	102.828	20.407	1.625	0.088
45.000	109.344	79.994	19.996	102.828	20.406	1.650	0.100
45.500	109.356	79.994	19.995	102.826	20.406	1.675	0.111
46.000	109.409	79.992	19.996	102.826	20.405	1.716	0.082
46.500	109.472	79.994	19.996	102.822	20.402	1.921	0.091
47.000	109.481	79.993	19.995	102.821	20.406	1.681	0.093
47.500	109.558	79.994	19.995	102.821	20.406	1.647	0.079
48.000	109.610	79.992	19.995	102.823	20.405	1.780	0.108
48.500	109.662	79.994	19.996	102.823	20.403	1.904	0.117
49.000	109.736	79.992	19.996	102.827	20.404	1.786	0.115
49.500	109.735	79.993	19.996	102.830	20.405	1.765	0.099
50.000	109.781	79.995	19.995	102.830	20.404	1.825	0.059
50.500	109.882	79.994	19.996	102.831	20.405	1.775	0.096
51.000	109.931	79.994	19.996	102.835	20.398	2.230	0.149
51.500	110.014	79.994	19.995	102.839	20.403	1.916	0.141
52.000	110.026	79.994	19.996	102.844	20.402	1.988	0.113
52.500	110.132	79.993	19.996	102.850	20.400	2.067	0.107
53.000	110.153	79.993	19.995	102.858	20.399	2.180	0.123
53.500	110.250	79.993	19.995	102.863	20.398	2.212	0.122
54.000	110.313	79.994	19.995	102.867	20.400	2.089	0.139
54.500	110.386	79.993	19.996	102.869	20.399	2.143	0.148
55.000	110.479	79.993	19.996	102.878	20.398	2.232	0.151
55.500	110.570	79.994	19.995	102.884	20.399	2.191	0.175
56.000	110.627	79.995	19.995	102.891	20.395	2.462	0.166
56.500	110.703	79.994	19.994	102.894	20.394	2.497	0.140
57.000	110.766	79.995	19.994	102.899	20.394	2.513	0.136
57.500	110.815	79.994	19.994	102.900	20.393	2.584	0.126
58.000	110.930	79.995	19.994	102.903	20.393	2.602	0.138
58.500	111.025	79.995	19.995	102.907	20.390	2.822	0.187
59.000	111.096	79.995	19.994	102.916	20.390	2.803	0.188
59.500	111.209	79.993	19.995	102.924	20.390	2.807	0.176
60.000	111.326	79.995	19.995	102.927	20.387	2.971	0.207
60.500	111.379	79.994	19.996	102.932	20.388	2.966	0.199
61.000	111.501	79.995	19.995	102.936	20.389	2.832	0.172
61.500	111.624	79.995	19.995	102.939	20.387	3.008	0.210
62.000	111.679	79.996	19.995	102.941	20.387	3.022	0.212
62.500	111.812	79.995	19.994	102.945	20.388	2.906	0.183
63.000	111.906	79.995	19.995	102.947	20.384	3.204	0.207
63.500	112.018	79.996	19.994	102.946	20.388	2.966	0.216
64.000	112.130	79.996	19.994	102.947	20.386	3.059	0.215
64.500	112.229	79.995	19.994	102.947	20.387	3.024	0.217
65.000	112.375	79.995	19.994	102.946	20.384	3.188	0.228
65.500	112.473	79.995	19.994	102.947	20.383	3.291	0.244
66.000	112.567	79.993	19.994	102.948	20.380	3.486	0.219
66.500	112.702	79.994	19.994	102.950	20.381	3.388	0.211
67.000	112.830	79.995	19.994	102.953	20.381	3.430	0.246
67.500	112.947	79.994	19.994	102.953	20.382	3.324	0.254
68.000	113.067	79.994	19.994	102.954	20.383	3.264	0.241
68.500	113.212	79.993	19.995	102.954	20.386	3.098	0.251
69.000	113.359	79.993	19.995	102.952	20.383	3.303	0.278
69.500	113.499	79.992	19.994	102.950	20.382	3.324	0.289
70.000	113.576	79.994	19.994	102.952	20.383	3.268	0.252
70.500	113.763	79.992	19.995	102.952	20.380	3.477	0.240
71.000	113.868	79.993	19.995	102.957	20.384	3.239	0.278
71.500	113.984	79.992	19.995	102.957	20.382	3.344	0.257
72.000	114.159	79.993	19.994	102.957	20.382	3.382	0.257
72.500	114.304	79.992	19.995	102.958	20.383	3.297	0.306
73.000	114.465	79.992	19.994	102.957	20.386	3.050	0.313
73.500	114.618	79.992	19.994	102.954	20.386	3.108	0.310
74.000	114.751	79.993	19.995	102.954	20.383	3.303	0.300
74.500	114.917	79.991	19.994	102.954	20.382	3.326	0.292
75.000	115.031	79.993	19.995	102.956	20.381	3.388	0.289
75.500	115.216	79.992	19.994	102.957	20.384	3.198	0.290
76.000	115.365	79.991	19.996	102.958	20.381	3.387	0.317
76.500	115.525	79.992	19.995	102.958	20.383	3.254	0.322
77.000	115.657	79.993	19.995	102.959	20.386	3.097	0.300
77.500	115.840	79.992	19.995	102.956	20.382	3.384	0.303
78.000	116.003	79.992	19.995	102.960	20.384	3.214	0.331
78.500	116.171	79.991	19.995	102.965	20.381	3.388	0.339
79.000	116.339	79.991	19.996	102.971	20.384	3.218	0.333
79.500	116.493	79.993	19.995	102.972	20.384	3.216	0.329
80.000	116.644	79.991	19.996	102.978	20.383	3.268	0.314
80.500	116.824	79.992	19.994	102.977	20.383	3.274	0.318
81.000	116.995	79.993	19.994	102.971	20.383	3.312	0.341
81.500	117.172	79.992	19.995	102.966	20.380	3.460	0.350
82.000	117.372	79.991	19.995	102.969	20.381	3.406	0.363
82.500	117.569	79.992	19.995	102.969	20.382	3.365	0.387
83.000	117.712	79.992	19.995	102.969	20.382	3.356	0.368
83.500	117.898	79.992	19.996	102.973	20.382	3.367	0.334
84.000	118.083	79.993	19.995	102.979	20.380	3.462	0.350
84.500	118.261	79.992	19.996	102.978	20.381	3.417	0.367
85.000	118.438	79.994	19.995	102.973	20.380	3.458	0.359
85.500	118.619	79.993	19.996	102.966	20.381	3.388	0.357
86.000	118.835	79.991	19.996	102.960	20.378	3.654	0.377
86.500	119.012	79.992	19.996	102.952	20.379	3.540	0.395
87.000	119.201	79.993	19.996	102.949	20.376	3.760	0.380
87.500	119.368	79.994	19.995	102.948	20.380	3.482	0.361
88.000	119.575	79.992	19.996	102.954	20.377	3.731	0.365
88.500	119.761	79.993	19.995	102.959	20.380	3.458	0.384
89.000	119.945	79.993	19.996	102.964	20.380	3.460	0.381
89.500	120.144	79.992	19.995	102.969	20.380	3.479	0.376
90.000	120.359	79.992	19.994	102.972	20.379	3.590	0.399
90.500	120.543	79.992	19.996	102.968	20.382	3.386	0.407
91.000	120.753	79.992	19.995	102.966	20.384	3.212	0.396
91.500	120.935	79.994	19.995	102.964	20.380	3.520	0.393
92.000	121.112	79.993	19.995	102.964	20.381	3.439	0.376
92.500	121.306	79.992	19.995	102.966	20.381	3.456	0.365
93.000	121.525	79.992	19.995	102.971	20.381	3.418	0.392
93.500	121.737	79.993	19.995	102.976	20.379	3.569	0.422
94.000	121.910	79.992	19.995	102.981	20.381	3.402	0.408
94.500	122.127	79.992	19.996	102.977	20.378	3.658	0.388
95.000	122.357	79.992	19.996	102.975	20.379	3.570	0.419
95.500	122.555	79.993	19.996	102.975	20.380	3.512	0.437
96.000	122.777	79.993	19.996	102.975	20.375	3.847	0.424
96.500	122.986	79.991	19.995	102.975	20.380	3.505	0.425
97.000	123.162	79.991	19.996	102.979	20.377	3.737	0.408
97.500	123.432	79.991	19.996	102.983	20.381	3.402	0.416
98.000	123.624	79.991	19.995	102.984	20.378	3.659	0.454
98.500	123.798	79.993	19.995	102.985	20.377	3.685	0.414
99.000	124.040	79.992	19.995	102.985	20.376	3.777	0.390
99.500	124.239	79.991	19.995	102.983	20.378	3.599	0.428
100.000	124.412	79.992	19.996	102.981	20.377	3.686	0.407
100.500	124.611	79.991	19.995	102.980	20.379	3.586	0.372
101.000	124.885	79.990	19.996	102.979	20.379	3.568	0.422
101.500	125.086	79.992	19.996	102.975	20.377	3.735	0.474
102.000	125.296	79.991	19.996	102.975	20.377	3.680	0.443
102.500	125.533	79.992	19.995	102.976	20.373	3.979	0.429
103.000	125.784	79.990	19.996	102.978	20.380	3.462	0.467
103.500	125.963	79.991	19.996	102.978	20.376	3.806	0.459
104.000	126.200	79.992	19.996	102.983	20.377	3.701	0.423
104.500	126.433	79.991	19.996	102.983	20.378	3.624	0.443
105.001	126.658	79.992	19.996	102.981	20.377	3.693	0.464
105.501	126.860	79.991	19.996	102.980	20.375	3.817	0.442
106.000	127.075	79.992	19.997	102.978	20.379	3.595	0.422
106.500	127.337	79.992	19.997	102.978	20.377	3.690	0.447
107.000	127.563	79.991	19.996	102.979	20.381	3.450	0.483
107.500	127.775	79.991	19.996	102.979	20.378	3.645	0.463
108.000	127.995	79.992	19.996	102.978	20.378	3.616	0.435
108.500	128.210	79.992	19.997	102.978	20.378	3.657	0.434
109.000	128.472	79.992	19.996	102.977	20.380	3.483	0.456
109.500	128.744	79.993	19.996	102.975	20.380	3.515	0.506
110.000	128.930	79.993	19.996	102.975	20.378	3.641	0.496
110.500	129.137	79.992	19.997	102.975	20.379	3.591	0.425
111.000	129.393	79.992	19.997	102.975	20.375	3.821	0.428
111.500	129.633	79.991	19.997	102.972	20.378	3.643	0.479
112.000	129.872	79.993	19.996	102.972	20.379	3.591	0.487
112.500	130.103	79.994	19.995	102.971	20.378	3.647	0.475
113.000	130.344	79.992	19.997	102.968	20.379	3.575	0.472
113.500	130.544	79.993	19.997	102.968	20.378	3.599	0.456
114.000	130.813	79.992	19.997	102.967	20.381	3.401	0.455
114.500	131.023	79.992	19.997	102.964	20.379	3.566	0.475
115.000	131.239	79.992	19.998	102.958	20.383	3.250	0.452
115.500	131.474	79.992	19.997	102.955	20.379	3.591	0.438
116.000	131.713	79.992	19.996	102.950	20.380	3.500	0.463
116.500	131.966	79.991	19.997	102.951	20.379	3.583	0.483
117.000	132.224	79.994	19.996	102.952	20.379	3.589	0.501
117.500	132.459	79.992	19.997	102.953	20.379	3.541	0.502
118.000	132.687	79.992	19.997	102.957	20.380	3.510	0.478
118.500	132.938	79.993	19.996	102.961	20.379	3.569	0.471
119.000	133.182	79.992	19.995	102.959	20.379	3.540	0.487
119.500	133.439	79.993	19.997	102.957	20.377	3.678	0.498
120.000	133.661	79.993	19.996	102.958	20.379	3.585	0.489
120.500	133.926	79.993	19.995	102.955	20.381	3.434	0.483
121.001	134.179	79.992	19.995	102.952	20.381	3.455	0.503
121.501	134.403	79.992	19.995	102.951	20.381	3.389	0.498
122.000	134.693	79.992	19.995	102.955	20.380	3.505	0.496
122.500	134.922	79.993	19.995	102.957	20.380	3.473	0.517
123.000	135.149	79.993	19.995	102.955	20.380	3.484	0.488
123.500	135.399	79.992	19.995	102.957	20.380	3.468	0.466
124.000	135.647	79.993	19.995	102.958	20.382	3.326	0.487
124.500	135.890	79.993	19.995	102.953	20.381	3.415	0.495
125.000	136.151	79.993	19.996	102.950	20.384	3.239	0.498
125.500	136.413	79.993	19.996	102.950	20.383	3.308	0.514
126.000	136.663	79.992	19.995	102.948	20.383	3.260	0.517
126.500	136.945	79.994	19.995	102.948	20.383	3.296	0.522
127.000	137.145	79.993	19.994	102.952	20.386	3.085	0.507
127.500	137.405	79.993	19.994	102.952	20.383	3.259	0.471
128.000	137.688	79.993	19.994	102.954	20.382	3.324	0.501
128.500	137.955	79.992	19.995	102.955	20.384	3.196	0.546
129.000	138.187	79.991	19.995	102.954	20.386	3.049	0.525
129.500	138.401	79.993	19.995	102.950	20.382	3.333	0.473
130.000	138.678	79.993	19.995	102.949	20.381	3.393	0.468
130.500	138.905	79.992	19.995	102.947	20.383	3.302	0.497
131.000	139.187	79.994	19.995	102.947	20.384	3.192	0.507
131.500	139.430	79.991	19.995	102.946	20.385	3.169	0.517
132.000	139.663	79.993	19.995	102.947	20.384	3.200	0.501
132.500	139.949	79.993	19.994	102.946	20.384	3.227	0.498
133.000	140.237	79.994	19.995	102.946	20.384	3.207	0.546
133.500	140.464	79.993	19.995	102.953	20.383	3.304	0.545
134.000	140.718	79.993	19.995	102.945	20.385	3.147	0.498
134.500	140.961	79.994	19.994	102.922	20.380	3.465	0.488
135.000	141.213	79.993	19.995	102.905	20.382	3.354	0.496
135.500	141.477	79.994	19.994	102.897	20.387	3.022	0.506
136.000	141.747	79.994	19.994	102.897	20.387	3.031	0.525
136.500	141.977	79.994	19.994	102.934	20.382	3.358	0.517
137.000	142.245	79.995	19.994	102.972	20.385	3.130	0.500
137.500	142.537	79.993	19.994	102.996	20.383	3.283	0.529
138.000	142.755	79.995	19.994	103.006	20.383	3.273	0.534
138.500	143.052	79.992	19.995	102.999	20.385	3.130	0.512
139.000	143.299	79.994	19.995	102.969	20.384	3.209	0.530
139.500	143.558	79.994	19.995	102.956	20.386	3.101	0.525
140.000	143.850	79.994	19.996	102.949	20.387	3.033	0.529
140.500	144.089	79.995	19.994	102.947	20.386	3.046	0.540
141.000	144.355	79.994	19.995	102.948	20.386	3.085	0.517
141.500	144.604	79.995	19.995	102.948	20.383	3.261	0.510
142.000	144.888	79.996	19.995	102.947	20.384	3.197	0.524
142.500	145.125	79.994	19.995	102.947	20.385	3.149	0.527
143.000	145.382	79.995	19.994	102.947	20.386	3.105	0.508
143.500	145.620	79.994	19.995	102.946	20.384	3.194	0.494
144.000	145.900	79.994	19.995	102.947	20.382	3.335	0.506
144.500	146.157	79.993	19.995	102.950	20.387	3.027	0.528
145.000	146.439	79.994	19.996	102.950	20.385	3.147	0.538
145.500	146.647	79.993	19.995	102.949	20.386	3.046	0.514
146.000	146.899	79.994	19.996	102.948	20.384	3.246	0.475
146.500	147.207	79.994	19.995	102.947	20.384	3.232	0.510
147.000	147.450	79.993	19.996	102.944	20.388	2.930	0.555
147.500	147.725	79.992	19.996	102.942	20.387	3.031	0.534
148.000	147.945	79.992	19.995	102.942	20.386	3.075	0.507
148.500	148.218	79.992	19.995	102.942	20.386	3.046	0.494
149.000	148.499	79.993	19.995	102.942	20.385	3.162	0.523
149.500	148.761	79.992	19.995	102.943	20.384	3.201	0.548
150.000	149.003	79.992	19.995	102.942	20.384	3.218	0.523
150.500	149.215	79.992	19.995	102.942	20.386	3.056	0.479
151.000	149.485	79.993	19.995	102.942	20.387	2.996	0.469
151.500	149.735	79.992	19.995	102.938	20.385	3.174	0.501
152.000	150.004	79.992	19.996	102.938	20.383	3.250	0.519
152.500	150.300	79.993	19.995	102.937	20.384	3.232	0.542
153.000	150.544	79.992	19.996	102.936	20.385	3.147	0.553
153.500	150.817	79.993	19.995	102.935	20.387	3.006	0.528
154.000	151.074	79.993	19.995	102.940	20.386	3.100	0.523
154.500	151.295	79.993	19.996	102.940	20.386	3.071	0.505
155.000	151.538	79.993	19.995	102.939	20.387	3.031	0.471
155.500	151.791	79.991	19.996	102.939	20.388	2.965	0.480
156.000	152.036	79.992	19.995	102.937	20.386	3.062	0.497
156.500	152.325	79.992	19.995	102.935	20.386	3.102	0.516
157.000	152.603	79.991	19.995	102.932	20.386	3.044	0.550
157.500	152.819	79.991	19.995	102.930	20.388	2.916	0.530
158.000	153.028	79.991	19.995	102.932	20.387	3.007	0.460
158.500	153.361	79.992	19.995	102.934	20.389	2.853	0.484
159.000	153.628	79.993	19.995	102.930	20.388	2.924	0.571
159.500	153.858	79.992	19.994	102.931	20.390	2.808	0.549
160.000	154.117	79.991	19.996	102.932	20.387	3.023	0.493
160.500	154.329	79.993	19.995	102.927	20.389	2.852	0.480
161.000	154.620	79.992	19.995	102.926	20.388	2.941	0.487
161.500	154.868	79.991	19.996	102.930	20.389	2.856	0.521
162.000	155.103	79.992	19.995	102.930	20.388	2.914	0.511
162.500	155.392	79.992	19.996	102.931	20.389	2.887	0.504
163.000	155.655	79.993	19.996	102.934	20.390	2.811	0.538
163.500	155.843	79.993	19.996	102.934	20.387	2.970	0.501
164.000	156.137	79.992	19.996	102.930	20.391	2.719	0.467
164.500	156.410	79.992	19.995	102.932	20.391	2.732	0.525
165.000	156.693	79.993	19.995	102.932	20.390	2.767	0.561
165.500	156.899	79.994	19.996	102.930	20.392	2.661	0.522
166.000	157.173	79.993	19.995	102.928	20.390	2.819	0.484
166.500	157.411	79.992	19.996	102.929	20.391	2.719	0.496
167.000	157.646	79.993	19.995	102.928	20.387	2.990	0.493
167.500	157.909	79.991	19.994	102.929	20.391	2.744	0.486
168.000	158.200	79.991	19.996	102.930	20.388	2.933	0.526
168.500	158.431	79.993	19.995	102.928	20.390	2.767	0.537
169.000	158.705	79.993	19.996	102.929	20.387	2.997	0.513
169.500	158.950	79.992	19.997	102.931	20.385	3.119	0.512
170.000	159.192	79.992	19.995	102.928	20.390	2.821	0.504
170.500	159.442	79.990	19.995	102.924	20.388	2.943	0.490
171.000	159.691	79.992	19.995	102.924	20.389	2.864	0.495
171.500	159.979	79.992	19.996	102.921	20.387	2.997	0.518
172.000	160.236	79.994	19.995	102.917	20.388	2.918	0.541
172.500	160.483	79.992	19.996	102.914	20.387	2.968	0.525
173.000	160.724	79.993	19.996	102.913	20.390	2.804	0.497
173.500	160.998	79.992	19.996	102.911	20.390	2.821	0.501
174.000	161.217	79.991	19.996	102.908	20.387	2.976	0.504
174.500	161.492	79.991	19.996	102.906	20.390	2.804	0.494
175.000	161.729	79.991	19.996	102.907	20.390	2.798	0.503
175.500	162.017	79.992	19.996	102.909	20.387	2.993	0.518
176.000	162.246	79.991	19.996	102.911	20.391	2.738	0.521
176.500	162.546	79.991	19.997	102.912	20.384	3.198	0.524
177.000	162.779	79.991	19.995	102.913	20.389	2.842	0.531
177.500	163.003	79.991	19.996	102.912	20.389	2.868	0.495
178.000	163.289	79.991	19.995	102.911	20.389	2.871	0.483
178.500	163.527	79.991	19.996	102.909	20.391	2.728	0.517
179.000	163.794	79.991	19.996	102.908	20.389	2.891	0.514
179.500	163.974	79.991	19.995	102.908	20.389	2.829	0.476
180.000	164.244	79.991	19.996	102.907	20.390	2.782	0.448
180.500	164.506	79.990	19.996	102.907	20.393	2.614	0.491
181.000	164.802	79.991	19.996	102.907	20.390	2.767	0.545
181.500	165.035	79.990	19.997	102.907	20.390	2.786	0.543
182.000	165.307	79.989	19.996	102.907	20.391	2.715	0.516
182.500	165.526	79.991	19.995	102.908	20.390	2.779	0.498
183.000	165.811	79.991	19.996	102.909	20.389	2.842	0.498
183.500	166.047	79.991	19.996	102.909	20.390	2.761	0.513
184.000	166.243	79.991	19.996	102.909	20.390	2.784	0.477
184.500	166.530	79.992	19.995	102.910	20.392	2.676	0.458
185.000	166.795	79.991	19.996	102.909	20.391	2.732	0.518
185.500	167.037	79.992	19.995	102.909	20.390	2.802	0.529
186.000	167.268	79.992	19.995	102.909	20.393	2.587	0.490
186.500	167.526	79.992	19.995	102.909	20.391	2.736	0.481
187.000	167.766	79.991	19.996	102.909	20.392	2.655	0.493
187.500	168.019	79.992	19.995	102.909	20.391	2.715	0.496
188.000	168.276	79.992	19.996	102.910	20.390	2.790	0.502
188.500	168.555	79.992	19.996	102.909	20.392	2.686	0.523
189.000	168.783	79.992	19.995	102.910	20.391	2.697	0.521
189.500	169.020	79.993	19.996	102.913	20.391	2.707	0.486
190.000	169.296	79.993	19.996	102.913	20.390	2.769	0.489
190.500	169.523	79.993	19.996	102.912	20.389	2.869	0.508
191.000	169.782	79.993	19.996	102.912	20.390	2.769	0.495
191.500	170.058	79.994	19.995	102.911	20.395	2.473	0.510
192.000	170.320	79.993	19.996	102.907	20.390	2.780	0.536
192.500	170.562	79.993	19.995	102.907	20.389	2.871	0.521
193.000	170.813	79.993	19.996	102.907	20.392	2.664	0.498
193.500	171.015	79.994	19.995	102.908	20.390	2.825	0.473
194.000	171.283	79.993	19.995	102.910	20.390	2.761	0.461
194.500	171.559	79.992	19.996	102.911	20.392	2.684	0.507
195.000	171.786	79.993	19.996	102.910	20.391	2.730	0.524
195.500	172.070	79.994	19.996	102.908	20.388	2.910	0.507
196.000	172.293	79.993	19.996	102.908	20.390	2.776	0.509
196.500	172.601	79.993	19.996	102.904	20.394	2.540	0.519
197.000	172.800	79.993	19.996	102.903	20.389	2.834	0.519
197.500	173.057	79.994	19.996	102.903	20.389	2.831	0.482
198.000	173.295	79.992	19.997	102.903	20.393	2.554	0.475
198.500	173.575	79.993	19.996	102.903	20.389	2.895	0.507
199.000	173.752	79.993	19.996	102.905	20.389	2.873	0.487
199.500	174.055	79.991	19.996	102.905	20.391	2.738	0.468
200.000	174.341	79.994	19.995	102.906	20.389	2.885	0.535
200.500	174.536	79.991	19.996	102.903	20.391	2.714	0.535
201.000	174.804	79.992	19.995	102.900	20.392	2.650	0.472
201.500	175.045	79.993	19.996	102.900	20.390	2.788	0.486
202.000	175.303	79.991	19.997	102.898	20.391	2.701	0.504
202.500	175.540	79.991	19.996	102.896	20.391	2.740	0.497
203.000	175.812	79.992	19.996	102.897	20.390	2.770	0.502
203.500	175.999	79.991	19.996	102.900	20.389	2.881	0.484
204.000	176.304	79.992	19.996	102.900	20.387	2.973	0.476
204.500	176.512	79.992	19.996	102.902	20.389	2.873	0.503
205.000	176.757	79.990	19.996	102.905	20.386	3.041	0.483
205.500	177.033	79.992	19.996	102.909	20.387	3.033	0.487
206.000	177.250	79.991	19.995	102.906	20.384	3.210	0.507
206.500	177.514	79.993	19.997	102.904	20.387	2.989	0.486
207.000	177.748	79.993	19.996	102.903	20.390	2.827	0.489
207.500	177.995	79.993	19.996	102.903	20.387	2.987	0.490
208.000	178.243	79.993	19.996	102.901	20.389	2.848	0.488
208.500	178.502	79.993	19.996	102.904	20.392	2.660	0.501
209.000	178.737	79.994	19.996	102.906	20.394	2.492	0.500
209.500	178.992	79.993	19.996	102.906	20.389	2.842	0.492
210.000	179.220	79.994	19.996	102.903	20.390	2.803	0.487
210.500	179.473	79.993	19.995	102.900	20.391	2.747	0.482
211.000	179.713	79.995	19.996	102.899	20.388	2.939	0.487
211.500	179.888	79.994	19.996	102.896	20.390	2.780	0.454
212.000	180.224	79.994	19.995	102.895	20.386	3.092	0.463
212.500	180.443	79.994	19.995	102.897	20.385	3.111	0.533
213.000	180.683	79.993	19.996	102.900	20.389	2.871	0.507
213.500	180.972	79.994	19.995	102.901	20.391	2.757	0.494
214.000	181.204	79.996	19.994	102.897	20.390	2.795	0.525
214.500	181.474	79.995	19.994	102.892	20.389	2.857	0.512
215.000	181.702	79.995	19.995	102.888	20.389	2.879	0.500
215.500	181.927	79.995	19.995	102.887	20.389	2.846	0.475
216.000	182.132	79.994	19.996	102.883	20.391	2.741	0.441
216.500	182.412	79.994	19.995	102.889	20.398	2.215	0.458
217.000	182.637	79.996	19.995	102.895	20.393	2.585	0.495
217.500	182.921	79.995	19.995	102.899	20.400	2.122	0.507
218.000	183.130	79.994	19.995	102.901	20.387	2.981	0.501
218.500	183.345	79.995	19.995	102.903	20.390	2.788	0.459
219.000	183.627	79.994	19.995	102.902	20.392	2.619	0.460
219.500	183.858	79.994	19.995	102.901	20.387	2.985	0.505
220.000	184.112	79.995	19.994	102.898	20.388	2.954	0.499
220.500	184.352	79.995	19.994	102.893	20.388	2.964	0.489
221.000	184.577	79.995	19.995	102.892	20.389	2.871	0.479
221.500	184.862	79.994	19.995	102.891	20.389	2.869	0.487
222.000	185.069	79.995	19.994	102.892	20.386	3.066	0.501
222.500	185.317	79.995	19.995	102.893	20.391	2.753	0.474
223.000	185.595	79.994	19.995	102.893	20.387	2.977	0.491
223.500	185.825	79.994	19.995	102.888	20.387	2.969	0.516
224.000	186.134	79.993	19.995	102.883	20.391	2.739	0.523
224.500	186.392	79.994	19.996	102.881	20.389	2.875	0.553
225.000	186.611	79.993	19.995	102.879	20.388	2.919	0.522
225.500	186.835	79.994	19.996	102.882	20.401	2.054	0.460
226.000	187.130	79.994	19.996	102.886	20.397	2.306	0.481
226.500	187.327	79.994	19.995	102.892	20.402	1.969	0.505
227.000	187.672	79.993	19.995	102.894	20.392	2.664	0.517
227.500	187.866	79.992	19.996	102.895	20.395	2.467	0.541
228.000	188.138	79.992	19.996	102.893	20.404	1.797	0.503
228.500	188.366	79.993	19.995	102.890	20.402	1.950	0.483
229.000	188.576	79.994	19.995	102.889	20.397	2.283	0.469
229.500	188.842	79.992	19.996	102.891	20.389	2.845	0.457
230.000	189.053	79.992	19.995	102.888	20.392	2.629	0.476
230.500	189.291	79.991	19.995	102.891	20.398	2.267	0.463
231.000	189.534	79.992	19.995	102.895	20.390	2.797	0.465
231.500	189.804	79.993	19.995	102.893	20.387	2.995	0.497
232.000	190.062	79.991	19.995	102.887	20.389	2.857	0.521
232.500	190.300	79.993	19.996	102.884	20.390	2.797	0.512
233.000	190.513	79.993	19.995	102.881	20.390	2.762	0.473
233.500	190.812	79.992	19.996	102.877	20.385	3.112	0.481
234.000	191.031	79.993	19.995	102.878	20.385	3.138	0.515
234.500	191.298	79.992	19.995	102.881	20.388	2.962	0.502
235.000	191.544	79.991	19.996	102.885	20.385	3.155	0.500
235.500	191.776	79.992	19.997	102.888	20.387	2.998	0.495
236.000	192.061	79.993	19.996	102.889	20.384	3.186	0.497
236.500	192.260	79.992	19.996	102.889	20.385	3.116	0.501
237.000	192.558	79.991	19.995	102.892	20.393	2.553	0.490
237.500	192.812	79.993	19.996	102.891	20.386	3.039	0.524
238.000	193.039	79.992	19.996	102.893	20.392	2.644	0.517
238.500	193.290	79.994	19.996	102.895	20.393	2.567	0.479
239.000	193.547	79.992	19.997	102.890	20.388	2.962	0.493
239.500	193.777	79.993	19.996	102.884	20.384	3.236	0.498
240.000	194.009	79.992	19.995	102.881	20.386	3.047	0.474
240.500	194.261	79.993	19.995	102.878	20.385	3.120	0.473
241.000	194.518	79.991	19.995	102.879	20.385	3.122	0.496
241.500	194.761	79.992	19.995	102.886	20.387	3.013	0.505
242.000	194.965	79.993	19.994	102.890	20.388	2.961	0.474
242.500	195.255	79.992	19.996	102.891	20.388	2.950	0.470
243.000	195.511	79.992	19.995	102.887	20.389	2.853	0.520
243.500	195.737	79.995	19.995	102.886	20.389	2.884	0.514
244.000	196.020	79.994	19.994	102.883	20.386	3.050	0.495
244.500	196.218	79.993	19.995	102.880	20.390	2.778	0.495
245.000	196.520	79.992	19.995	102.882	20.389	2.894	0.491
245.500	196.747	79.992	19.995	102.885	20.389	2.882	0.515
246.000	196.999	79.992	19.995	102.886	20.387	3.000	0.504
246.500	197.197	79.992	19.995	102.882	20.388	2.921	0.465
247.000	197.417	79.994	19.994	102.883	20.389	2.832	0.434
247.500	197.661	79.993	19.994	102.881	20.386	3.052	0.441
248.000	198.026	79.993	19.995	102.880	20.391	2.725	0.536
248.500	198.195	79.993	19.995	102.880	20.390	2.768	0.572
249.000	198.419	79.993	19.994	102.884	20.389	2.844	0.464
249.500	198.756	79.993	19.995	102.882	20.390	2.795	0.477
250.000	198.898	79.993	19.995	102.882	20.390	2.813	0.519
250.500	199.171	79.993	19.995	102.880	20.388	2.954	0.447
251.000	199.360	79.992	19.996	102.876	20.391	2.706	0.439
251.500	199.621	79.993	19.995	102.871	20.391	2.704	0.456
252.000	199.878	79.993	19.995	102.871	20.391	2.721	0.484
252.500	200.091	79.994	19.995	102.870	20.393	2.594	0.494
253.000	200.360	79.991	19.995	102.869	20.389	2.849	0.476
253.500	200.618	79.993	19.995	102.870	20.392	2.629	0.505
254.000	200.895	79.992	19.995	102.871	20.391	2.712	0.531
254.500	201.140	79.992	19.994	102.871	20.391	2.692	0.528
255.000	201.384	79.992	19.995	102.872	20.395	2.460	0.505
255.500	201.622	79.992	19.995	102.872	20.392	2.656	0.486
256.000	201.878	79.992	19.996	102.873	20.393	2.609	0.488
256.500	202.144	79.991	19.994	102.873	20.394	2.514	0.508
257.000	202.387	79.992	19.995	102.874	20.391	2.737	0.515
257.500	202.607	79.991	19.995	102.874	20.390	2.791	0.485
258.000	202.848	79.991	19.996	102.874	20.392	2.652	0.462
258.500	203.106	79.991	19.995	102.874	20.391	2.731	0.480
259.000	203.346	79.991	19.995	102.878	20.392	2.619	0.498
259.500	203.572	79.991	19.996	102.882	20.391	2.704	0.482
260.000	203.816	79.990	19.996	102.887	20.392	2.623	0.469
260.500	204.079	79.991	19.996	102.891	20.392	2.634	0.489
261.000	204.307	79.992	19.995	102.890	20.392	2.646	0.499
261.500	204.560	79.991	19.996	102.883	20.392	2.654	0.486
262.000	204.795	79.990	19.996	102.878	20.392	2.632	0.485
262.500	205.064	79.992	19.996	102.873	20.394	2.478	0.496
263.000	205.321	79.992	19.996	102.870	20.391	2.739	0.515
263.500	205.534	79.991	19.996	102.872	20.390	2.793	0.498
264.000	205.791	79.992	19.996	102.876	20.390	2.773	0.470
264.500	206.037	79.993	19.996	102.876	20.390	2.814	0.486
265.000	206.289	79.991	19.996	102.875	20.393	2.559	0.500
265.500	206.559	79.990	19.995	102.874	20.391	2.719	0.510
266.000	206.812	79.994	19.996	102.872	20.393	2.615	0.523
266.500	207.026	79.992	19.996	102.869	20.393	2.586	0.495
267.000	207.293	79.992	19.995	102.869	20.393	2.551	0.474
267.500	207.529	79.993	19.996	102.870	20.393	2.586	0.492
268.000	207.768	79.993	19.995	102.871	20.390	2.775	0.489
268.500	208.039	79.992	19.996	102.871	20.393	2.551	0.493
269.000	208.280	79.993	19.995	102.871	20.391	2.700	0.511
269.500	208.510	79.994	19.995	102.868	20.391	2.688	0.491
270.000	208.748	79.993	19.995	102.866	20.389	2.841	0.469
270.500	209.005	79.994	19.995	102.866	20.392	2.638	0.482
271.000	209.246	79.994	19.996	102.866	20.389	2.834	0.497
271.500	209.489	79.993	19.996	102.866	20.392	2.648	0.491
272.000	209.720	79.992	19.995	102.868	20.392	2.673	0.479
272.500	209.954	79.993	19.995	102.868	20.390	2.762	0.470
273.000	210.243	79.995	19.995	102.864	20.391	2.721	0.494
273.500	210.453	79.993	19.995	102.864	20.393	2.576	0.511
274.000	210.707	79.993	19.995	102.861	20.394	2.493	0.481
274.500	210.932	79.993	19.996	102.860	20.393	2.551	0.471
275.000	211.187	79.995	19.995	102.860	20.391	2.740	0.480
275.500	211.405	79.996	19.996	102.862	20.394	2.539	0.477
276.000	211.640	79.994	19.996	102.861	20.395	2.435	0.463
276.500	211.901	79.993	19.995	102.864	20.391	2.690	0.474
277.000	212.104	79.993	19.995	102.863	20.394	2.543	0.480
277.500	212.346	79.995	19.995	102.865	20.393	2.584	0.455
278.000	212.588	79.994	19.995	102.865	20.395	2.421	0.465
278.500	212.823	79.993	19.995	102.865	20.394	2.522	0.480
279.000	213.072	79.994	19.995	102.864	20.393	2.603	0.480
279.500	213.314	79.994	19.995	102.864	20.391	2.717	0.487
280.000	213.603	79.994	19.996	102.863	20.392	2.681	0.511
280.500	213.826	79.994	19.996	102.864	20.391	2.733	0.521
281.000	214.050	79.993	19.996	102.864	20.391	2.727	0.479
281.500	214.299	79.992	19.995	102.865	20.392	2.679	0.460
282.000	214.533	79.993	19.995	102.868	20.390	2.822	0.478
282.500	214.795	79.992	19.995	102.870	20.393	2.549	0.490
283.000	215.033	79.994	19.995	102.866	20.392	2.659	0.498
283.500	215.263	79.994	19.996	102.863	20.391	2.744	0.484
284.000	215.482	79.993	19.995	102.862	20.393	2.588	0.458
284.500	215.766	79.994	19.996	102.860	20.391	2.748	0.476
285.000	215.974	79.993	19.995	102.853	20.390	2.793	0.498
285.500	216.190	79.993	19.996	102.851	20.390	2.797	0.458
286.000	216.463	79.993	19.996	102.854	20.389	2.893	0.456
286.500	216.676	79.993	19.995	102.854	20.393	2.555	0.487
287.000	216.908	79.993	19.997	102.854	20.394	2.493	0.465
287.500	217.175	79.993	19.996	102.859	20.393	2.561	0.472
288.000	217.413	79.992	19.996	102.865	20.393	2.617	0.502
288.500	217.682	79.994	19.996	102.865	20.390	2.812	0.506
289.000	217.875	79.993	19.996	102.864	20.391	2.742	0.484
289.500	218.116	79.994	19.996	102.864	20.389	2.847	0.448
290.000	218.373	79.993	19.997	102.862	20.389	2.851	0.466
290.500	218.623	79.994	19.996	102.861	20.390	2.812	0.503
291.000	218.840	79.994	19.997	102.861	20.390	2.783	0.487
291.500	219.084	79.993	19.996	102.863	20.387	2.974	0.464
292.000	219.357	79.992	19.997	102.865	20.389	2.870	0.489
292.500	219.548	79.993	19.997	102.867	20.390	2.822	0.491
293.000	219.802	79.994	19.996	102.867	20.390	2.783	0.455
293.500	220.070	79.995	19.996	102.867	20.388	2.940	0.483
294.000	220.290	79.993	19.996	102.866	20.390	2.785	0.505
294.500	220.462	79.994	19.996	102.864	20.387	2.996	0.440
295.000	220.725	79.995	19.996	102.864	20.389	2.828	0.413
295.500	220.972	79.995	19.996	102.864	20.392	2.679	0.472
296.000	221.250	79.994	19.996	102.861	20.391	2.712	0.518
296.500	221.488	79.993	19.996	102.861	20.392	2.642	0.521
297.000	221.712	79.995	19.996	102.861	20.390	2.768	0.489
297.500	221.935	79.995	19.996	102.861	20.395	2.466	0.454
298.000	222.221	79.995	19.995	102.862	20.390	2.785	0.478
298.500	222.386	79.995	19.996	102.865	20.393	2.615	0.480
299.000	222.643	79.996	19.995	102.864	20.391	2.716	0.436
299.500	222.886	79.994	19.996	102.864	20.394	2.501	0.461
300.000	223.142	79.996	19.996	102.864	20.393	2.571	0.500
300.500	223.393	79.995	19.996	102.863	20.393	2.567	0.503
301.000	223.645	79.996	19.995	102.862	20.392	2.677	0.505
301.500	223.873	79.995	19.996	102.861	20.391	2.708	0.491
302.000	224.105	79.996	19.995	102.861	20.390	2.810	0.470
302.500	224.325	79.994	19.995	102.858	20.392	2.654	0.456
303.000	224.567	79.995	19.994	102.856	20.393	2.559	0.457
303.500	224.779	79.995	19.995	102.856	20.393	2.599	0.458
304.000	225.023	79.995	19.995	102.857	20.392	2.619	0.455
304.500	225.308	79.996	19.995	102.858	20.392	2.638	0.493
305.000	225.534	79.994	19.994	102.862	20.392	2.663	0.520
305.500	225.801	79.993	19.996	102.864	20.391	2.745	0.502
306.000	225.950	79.993	19.994	102.864	20.390	2.774	0.455
306.500	226.257	79.994	19.994	102.865	20.392	2.638	0.436
307.000	226.518	79.993	19.994	102.864	20.389	2.863	0.512
307.500	226.714	79.993	19.994	102.865	20.391	2.716	0.513
308.000	226.946	79.994	19.995	102.866	20.387	2.996	0.442
308.500	227.201	79.992	19.996	102.866	20.390	2.768	0.457
309.000	227.435	79.993	19.995	102.867	20.391	2.723	0.488
309.500	227.695	79.991	19.996	102.869	20.392	2.658	0.492
310.000	227.952	79.993	19.995	102.869	20.393	2.596	0.506
310.500	228.198	79.992	19.994	102.869	20.389	2.855	0.510
311.000	228.502	79.993	19.995	102.870	20.393	2.570	0.527
311.500	228.701	79.994	19.995	102.870	20.392	2.623	0.527
312.000	228.935	79.993	19.996	102.869	20.386	3.083	0.468
312.500	229.194	79.993	19.995	102.870	20.391	2.706	0.463
313.000	229.444	79.993	19.996	102.870	20.389	2.891	0.501
313.500	229.684	79.993	19.995	102.869	20.387	3.000	0.499
314.000	229.942	79.993	19.995	102.867	20.387	2.969	0.494
314.500	230.163	79.992	19.995	102.866	20.385	3.160	0.489
315.000	230.472	79.991	19.995	102.866	20.387	3.010	0.505
315.500	230.676	79.992	19.996	102.866	20.383	3.290	0.522
316.000	230.883	79.993	19.995	102.868	20.384	3.184	0.462
316.500	231.158	79.992	19.996	102.869	20.383	3.263	0.446
317.000	231.414	79.993	19.996	102.870	20.383	3.302	0.507
317.500	231.639	79.992	19.995	102.869	20.383	3.269	0.506
318.000	231.837	79.992	19.996	102.869	20.384	3.234	0.452
318.500	232.079	79.991	19.996	102.869	20.381	3.441	0.432
319.000	232.313	79.991	19.996	102.869	20.382	3.377	0.458
319.500	232.543	79.992	19.996	102.868	20.382	3.342	0.469
320.000	232.804	79.993	19.995	102.868	20.383	3.247	0.477
320.500	233.069	79.991	19.996	102.868	20.381	3.387	0.509
321.000	233.294	79.991	19.996	102.869	20.382	3.344	0.508
321.500	233.570	79.992	19.995	102.869	20.379	3.538	0.495
322.000	233.779	79.992	19.995	102.869	20.383	3.305	0.493
322.500	234.020	79.992	19.995	102.868	20.380	3.458	0.468
323.000	234.324	79.993	19.996	102.867	20.384	3.226	0.497
323.500	234.510	79.993	19.996	102.866	20.380	3.485	0.517
324.000	234.784	79.993	19.995	102.865	20.381	3.398	0.475
324.500	235.028	79.992	19.995	102.866	20.378	3.619	0.490
325.000	235.253	79.993	19.995	102.866	20.376	3.801	0.493
325.500	235.501	79.993	19.995	102.868	20.377	3.725	0.470
326.000	235.815	79.992	19.995	102.869	20.378	3.644	0.517
326.500	235.966	79.993	19.994	102.869	20.377	3.685	0.513
327.000	236.194	79.992	19.994	102.869	20.376	3.747	0.422
327.500	236.560	79.993	19.994	102.869	20.376	3.787	0.487
328.000	236.703	79.993	19.995	102.869	20.375	3.847	0.552
328.500	236.956	79.991	19.995	102.869	20.374	3.884	0.453
329.000	237.190	79.992	19.995	102.869	20.374	3.892	0.442
329.500	237.443	79.992	19.995	102.869	20.373	3.975	0.487
330.000	237.638	79.992	19.995	102.870	20.370	4.170	0.467
330.500	237.902	79.993	19.995	102.870	20.372	4.037	0.453
331.000	238.161	79.993	19.994	102.870	20.372	4.031	0.491
331.500	238.406	79.993	19.994	102.870	20.370	4.193	0.514
332.000	238.611	79.993	19.995	102.869	20.369	4.277	0.477
332.500	238.949	79.994	19.994	102.868	20.369	4.244	0.497
333.000	239.299	79.994	19.994	102.867	20.367	4.412	0.615
333.500	239.318	79.993	19.995	102.865	20.368	4.300	0.528
334.000	239.562	79.993	19.996	102.865	20.369	4.226	0.316
334.500	239.843	79.992	19.995	102.866	20.367	4.424	0.394
335.000	240.072	79.993	19.995	102.866	20.368	4.315	0.517
335.500	240.339	79.992	19.995	102.867	20.365	4.528	0.503
336.000	240.587	79.992	19.995	102.869	20.366	4.441	0.506
336.500	240.792	79.993	19.994	102.870	20.364	4.578	0.484
337.000	241.051	79.993	19.995	102.869	20.365	4.528	0.459
337.500	241.316	79.993	19.995	102.870	20.362	4.735	0.493
338.000	241.541	79.992	19.996	102.870	20.364	4.633	0.506
338.500	241.819	79.993	19.996	102.872	20.359	4.962	0.496
339.000	242.042	79.993	19.996	102.873	20.356	5.142	0.502
339.500	242.272	79.992	19.994	102.874	20.359	4.943	0.477
340.000	242.557	79.992	19.994	102.873	20.354	5.314	0.485
340.500	242.844	79.992	19.995	102.873	20.352	5.420	0.544
341.000	243.048	79.993	19.995	102.870	20.356	5.133	0.531
341.500	243.326	79.992	19.995	102.869	20.351	5.479	0.486
342.000	243.538	79.992	19.995	102.872	20.351	5.508	0.486
342.500	243.780	79.992	19.995	102.873	20.352	5.454	0.472
343.000	244.043	79.993	19.996	102.873	20.347	5.785	0.480
343.500	244.295	79.992	19.995	102.873	20.346	5.876	0.510
344.000	244.501	79.992	19.995	102.873	20.349	5.623	0.486
344.500	244.832	79.994	19.995	102.870	20.346	5.830	0.497
345.000	245.037	79.993	19.995	102.871	20.347	5.764	0.536
345.500	245.304	79.994	19.996	102.871	20.345	5.907	0.504
346.000	245.541	79.992	19.996	102.870	20.342	6.133	0.488
346.500	245.769	79.993	19.995	102.871	20.339	6.319	0.484
347.000	246.045	79.992	19.995	102.870	20.338	6.454	0.484
347.500	246.301	79.993	19.995	102.869	20.341	6.230	0.518
348.000	246.550	79.992	19.995	102.873	20.342	6.116	0.519
348.500	246.813	79.994	19.995	102.880	20.343	6.067	0.508
349.000	247.013	79.995	19.995	102.885	20.335	6.615	0.487
349.500	247.286	79.994	19.996	102.890	20.332	6.858	0.468
350.000	247.576	79.994	19.996	102.891	20.331	6.936	0.518
350.500	247.787	79.995	19.995	102.887	20.328	7.131	0.532
351.000	248.026	79.994	19.995	102.879	20.333	6.760	0.476
351.500	248.269	79.993	19.995	102.873	20.328	7.118	0.466
352.000	248.510	79.993	19.995	102.868	20.331	6.930	0.483
352.500	248.775	79.993	19.995	102.868	20.342	6.128	0.495
353.000	249.051	79.993	19.995	102.869	20.326	7.240	0.524
353.500	249.291	79.994	19.995	102.870	20.326	7.250	0.529
354.000	249.522	79.994	19.995	102.870	20.324	7.385	0.494
354.500	249.774	79.993	19.995	102.869	20.326	7.240	0.477
355.000	250.028	79.995	19.996	102.868	20.324	7.389	0.494
355.500	250.298	79.995	19.996	102.868	20.333	6.747	0.515
356.000	250.525	79.995	19.996	102.868	20.320	7.659	0.511
356.500	250.777	79.994	19.996	102.870	20.315	8.017	0.488
357.000	251.035	79.994	19.995	102.870	20.320	7.669	0.494
357.500	251.262	79.994	19.996	102.870	20.312	8.241	0.497
358.000	251.510	79.994	19.996	102.869	20.312	8.234	0.480
358.500	251.751	79.994	19.995	102.868	20.308	8.479	0.482
359.000	252.035	79.995	19.996	102.866	20.311	8.309	0.507
359.500	252.275	79.996	19.997	102.866	20.310	8.379	0.525
360.000	252.625	79.995	19.995	102.865	20.308	8.508	0.557
360.500	252.765	79.993	19.997	102.865	20.309	8.417	0.540
361.000	253.057	79.994	19.996	102.865	20.306	8.667	0.461
361.500	253.289	79.992	19.996	102.866	20.306	8.645	0.478
362.000	253.549	79.993	19.996	102.866	20.301	8.995	0.508
362.500	253.795	79.994	19.996	102.867	20.302	8.918	0.499
363.000	254.049	79.993	19.996	102.868	20.299	9.133	0.503
363.500	254.316	79.994	19.996	102.873	20.303	8.868	0.510
364.000	254.558	79.993	19.997	102.873	20.301	9.009	0.514
364.500	254.814	79.994	19.997	102.873	20.298	9.183	0.503
365.000	255.068	79.994	19.995	102.872	20.297	9.263	0.504
365.500	255.289	79.994	19.996	102.874	20.296	9.334	0.493
366.000	255.542	79.993	19.996	102.872	20.294	9.475	0.475
366.500	255.790	79.994	19.995	102.872	20.290	9.773	0.488
367.000	256.070	79.995	19.996	102.872	20.289	9.814	0.514
367.500	256.359	79.994	19.995	102.872	20.289	9.852	0.548
368.000	256.627	79.994	19.996	102.868	20.289	9.839	0.563
368.500	256.874	79.994	19.995	102.867	20.288	9.881	0.536
369.000	257.114	79.994	19.995	102.867	20.284	10.172	0.500
369.500	257.315	79.993	19.995	102.867	20.286	10.079	0.464
370.000	257.606	79.994	19.995	102.867	20.286	10.065	0.467
370.500	257.834	79.993	19.995	102.867	20.287	9.966	0.506
371.000	258.045	79.993	19.996	102.867	20.284	10.166	0.479
371.500	258.339	79.994	19.996	102.867	20.286	10.071	0.472
372.000	258.578	79.993	19.995	102.867	20.282	10.353	0.519
372.500	258.815	79.993	19.995	102.865	20.278	10.583	0.505
373.000	259.170	79.994	19.996	102.864	20.281	10.371	0.534
373.500	259.378	79.994	19.995	102.863	20.281	10.413	0.577
374.000	259.636	79.994	19.995	102.862	20.280	10.446	0.514
374.500	259.854	79.994	19.994	102.863	20.279	10.527	0.471
375.000	260.116	79.993	19.995	102.866	20.280	10.444	0.478
375.500	260.344	79.995	19.995	102.866	20.278	10.591	0.485
376.000	260.609	79.994	19.995	102.868	20.278	10.599	0.491
376.500	260.863	79.995	19.995	102.868	20.279	10.541	0.506
377.000	261.094	79.994	19.996	102.868	20.276	10.773	0.502
377.500	261.357	79.994	19.995	102.868	20.280	10.487	0.489
378.000	261.602	79.995	19.996	102.868	20.276	10.742	0.501
378.500	261.819	79.993	19.995	102.867	20.279	10.508	0.485
379.000	262.047	79.993	19.995	102.867	20.278	10.630	0.454
379.500	262.365	79.994	19.996	102.867	20.279	10.547	0.495
380.000	262.651	79.994	19.996	102.867	20.278	10.595	0.575
380.500	262.832	79.995	19.996	102.866	20.277	10.696	0.535
381.000	263.062	79.995	19.996	102.866	20.278	10.609	0.439
381.500	263.361	79.995	19.995	102.866	20.279	10.551	0.470
382.000	263.615	79.993	19.995	102.866	20.278	10.586	0.541
382.500	263.886	79.994	19.995	102.865	20.276	10.744	0.539
383.000	264.110	79.994	19.996	102.866	20.277	10.684	0.510
383.500	264.382	79.993	19.996	102.866	20.279	10.510	0.495
384.000	264.617	79.993	19.995	102.866	20.279	10.559	0.501
384.500	264.887	79.993	19.996	102.866	20.279	10.522	0.506
385.000	265.144	79.993	19.996	102.867	20.280	10.439	0.516
385.500	265.373	79.993	19.996	102.867	20.277	10.691	0.507
386.000	265.620	79.992	19.996	102.867	20.278	10.621	0.481
386.500	265.848	79.992	19.995	102.867	20.280	10.499	0.475
387.000	266.147	79.992	19.996	102.867	20.282	10.361	0.502
387.500	266.394	79.991	19.996	102.867	20.282	10.352	0.536
388.000	266.653	79.991	19.996	102.868	20.282	10.328	0.525
388.500	266.909	79.992	19.996	102.868	20.283	10.286	0.510
389.000	267.108	79.992	19.996	102.869	20.283	10.274	0.485
389.500	267.393	79.990	19.996	102.870	20.282	10.354	0.469
390.000	267.702	79.991	19.995	102.870	20.283	10.247	0.539
390.500	267.917	79.992	19.995	102.869	20.284	10.176	0.559
391.000	268.167	79.993	19.996	102.870	20.285	10.151	0.495
391.500	268.411	79.992	19.994	102.868	20.285	10.128	0.480
392.000	268.648	79.992	19.996	102.869	20.283	10.284	0.488
392.500	268.911	79.992	19.995	102.868	20.287	9.955	0.491
393.000	269.155	79.992	19.995	102.868	20.285	10.153	0.503
393.500	269.393	79.992	19.995	102.869	20.283	10.257	0.495
394.000	269.679	79.992	19.995	102.869	20.285	10.089	0.503
394.500	269.958	79.992	19.995	102.871	20.291	9.722	0.544
395.000	270.132	79.992	19.995	102.873	20.289	9.845	0.509
395.500	270.459	79.993	19.995	102.874	20.291	9.731	0.477
396.000	270.721	79.992	19.995	102.875	20.289	9.816	0.545
396.500	270.903	79.992	19.995	102.874	20.292	9.654	0.517
397.000	271.242	79.992	19.995	102.873	20.291	9.669	0.483
397.500	271.473	79.993	19.995	102.871	20.292	9.657	0.546
398.000	271.687	79.993	19.994	102.869	20.290	9.787	0.508
398.500	272.010	79.991	19.995	102.870	20.290	9.772	0.491
399.000	272.197	79.993	19.994	102.869	20.291	9.721	0.524
399.500	272.492	79.993	19.995	102.869	20.298	9.182	0.496
400.000	272.693	79.992	19.996	102.869	20.291	9.672	0.489
400.500	273.017	79.993	19.994	102.870	20.300	9.057	0.510
401.000	273.188	79.993	19.994	102.869	20.292	9.610	0.510
401.500	273.432	79.992	19.995	102.871	20.295	9.397	0.455
402.000	273.722	79.992	19.995	102.875	20.297	9.314	0.474
402.500	273.958	79.994	19.995	102.881	20.292	9.649	0.530
403.000	274.178	79.993	19.995	102.884	20.292	9.639	0.491
403.500	274.459	79.993	19.995	102.890	20.293	9.533	0.478
404.000	274.701	79.993	19.994	102.892	20.294	9.495	0.512
404.500	274.918	79.992	19.994	102.892	20.293	9.582	0.491
405.000	275.192	79.992	19.996	102.892	20.293	9.571	0.475
405.500	275.447	79.993	19.995	102.896	20.295	9.418	0.509
406.000	275.769	79.993	19.996	102.895	20.294	9.528	0.553
406.500	276.005	79.994	19.995	102.897	20.296	9.336	0.568
407.000	276.182	79.993	19.995	102.895	20.298	9.193	0.485
407.500	276.491	79.993	19.994	102.895	20.296	9.351	0.449
408.000	276.766	79.994	19.995	102.891	20.296	9.342	0.535
408.500	276.936	79.991	19.996	102.888	20.298	9.192	0.514
409.000	277.179	79.992	19.997	102.888	20.295	9.407	0.429
409.500	277.493	79.993	19.996	102.891	20.295	9.455	0.486
410.000	277.713	79.993	19.996	102.893	20.297	9.258	0.546
410.500	278.015	79.993	19.995	102.897	20.296	9.342	0.528
411.000	278.211	79.993	19.994	102.900	20.295	9.442	0.510
411.500	278.502	79.992	19.996	102.900	20.296	9.322	0.492
412.000	278.724	79.990	19.995	102.900	20.295	9.456	0.500
412.500	278.979	79.992	19.995	102.900	20.293	9.567	0.496
413.000	279.217	79.991	19.995	102.898	20.293	9.551	0.485
413.500	279.418	79.994	19.995	102.900	20.295	9.399	0.466
414.000	279.657	79.992	19.996	102.901	20.296	9.391	0.439
414.500	279.893	79.992	19.996	102.904	20.298	9.245	0.458
415.000	280.188	79.992	19.995	102.910	20.294	9.506	0.503
415.500	280.406	79.993	19.995	102.913	20.292	9.611	0.522
416.000	280.674	79.992	19.996	102.915	20.293	9.575	0.500
416.500	280.904	79.992	19.996	102.915	20.294	9.467	0.492
417.000	281.194	79.991	19.995	102.913	20.294	9.470	0.509
417.500	281.450	79.992	19.996	102.908	20.291	9.731	0.533
418.000	281.649	79.992	19.996	102.907	20.291	9.677	0.500
418.500	281.909	79.991	19.996	102.908	20.292	9.674	0.457
419.000	282.189	79.992	19.996	102.911	20.290	9.798	0.500
419.500	282.392	79.992	19.995	102.916	20.291	9.703	0.512
420.000	282.661	79.992	19.995	102.921	20.289	9.860	0.478
420.500	282.919	79.991	19.995	102.924	20.289	9.880	0.500
421.000	283.152	79.991	19.995	102.928	20.289	9.832	0.509
421.500	283.387	79.992	19.995	102.931	20.290	9.784	0.479
422.000	283.694	79.992	19.994	102.930	20.289	9.841	0.505
422.500	283.929	79.992	19.996	102.928	20.287	9.992	0.542
423.000	284.165	79.992	19.996	102.932	20.287	9.983	0.507
423.500	284.420	79.992	19.995	102.934	20.285	10.098	0.481
424.000	284.683	79.994	19.995	102.936	20.285	10.110	0.504
424.500	284.927	79.992	19.995	102.939	20.285	10.143	0.512
425.000	285.168	79.993	19.995	102.944	20.283	10.277	0.496
425.500	285.463	79.993	19.996	102.948	20.283	10.244	0.511
426.000	285.669	79.992	19.995	102.951	20.278	10.607	0.518
426.500	285.876	79.992	19.995	102.956	20.279	10.551	0.456
427.000	286.185	79.993	19.996	102.961	20.279	10.566	0.464
427.500	286.424	79.993	19.995	102.969	20.279	10.555	0.532
428.000	286.706	79.993	19.994	102.973	20.278	10.632	0.535
428.500	286.914	79.994	19.995	102.977	20.277	10.686	0.505
429.000	287.190	79.995	19.995	102.979	20.272	11.029	0.487
429.500	287.421	79.994	19.995	102.982	20.272	11.025	0.496
430.000	287.670	79.995	19.995	102.982	20.269	11.244	0.494
430.500	287.894	79.994	19.995	102.985	20.271	11.126	0.477
431.000	288.159	79.994	19.995	102.988	20.267	11.371	0.481
431.500	288.402	79.995	19.995	102.992	20.267	11.363	0.498
432.000	288.669	79.995	19.995	102.996	20.265	11.545	0.509
432.500	288.924	79.995	19.995	103.003	20.263	11.694	0.516
433.000	289.157	79.994	19.995	103.008	20.260	11.857	0.505
433.500	289.403	79.994	19.994	103.013	20.260	11.851	0.483
434.000	289.630	79.994	19.996	103.018	20.257	12.070	0.476
434.500	289.914	79.995	19.995	103.024	20.257	12.070	0.492
435.000	290.185	79.994	19.994	103.025	20.256	12.167	0.533
435.500	290.440	79.994	19.995	103.026	20.250	12.553	0.540
436.000	290.675	79.994	19.995	103.028	20.249	12.629	0.508
436.500	290.924	79.993	19.994	103.030	20.249	12.644	0.487
437.000	291.200	79.996	19.995	103.034	20.247	12.768	0.504
437.500	291.447	79.994	19.995	103.036	20.244	12.979	0.524
438.000	291.687	79.993	19.995	103.039	20.244	12.982	0.505
438.500	291.933	79.994	19.995	103.037	20.244	12.971	0.487
439.000	292.193	79.992	19.995	103.035	20.241	13.212	0.496
439.500	292.455	79.994	19.995	103.034	20.237	13.511	0.514
440.000	292.652	79.994	19.994	103.035	20.236	13.594	0.491
440.500	292.935	79.992	19.995	103.034	20.234	13.700	0.469
441.000	293.157	79.993	19.994	103.035	20.230	13.992	0.492
441.500	293.422	79.993	19.996	103.035	20.231	13.917	0.495
442.000	293.675	79.994	19.997	103.031	20.226	14.227	0.503
442.500	293.919	79.994	19.995	103.028	20.223	14.455	0.508
443.000	294.144	79.993	19.996	103.026	20.222	14.536	0.483
443.500	294.413	79.994	19.996	103.025	20.217	14.849	0.482
444.000	294.666	79.994	19.997	103.025	20.218	14.823	0.508
444.500	294.906	79.993	19.996	103.024	20.216	14.957	0.507
445.000	295.144	79.993	19.996	103.025	20.214	15.066	0.486
445.500	295.408	79.993	19.996	103.026	20.210	15.399	0.490
446.000	295.659	79.994	19.996	103.029	20.211	15.302	0.508
446.500	295.881	79.993	19.996	103.030	20.208	15.529	0.494
447.000	296.150	79.993	19.996	103.031	20.206	15.638	0.482
447.500	296.399	79.992	19.996	103.030	20.206	15.663	0.505
448.000	296.615	79.993	19.996	103.029	20.203	15.824	0.492
448.500	296.848	79.992	19.995	103.029	20.201	15.995	0.457
449.000	297.100	79.992	19.995	103.034	20.196	16.317	0.467
449.500	297.351	79.993	19.996	103.040	20.195	16.406	0.494
450.000	297.594	79.995	19.996	103.046	20.194	16.475	0.498
450.500	297.829	79.993	19.996	103.050	20.190	16.718	0.486
451.000	298.146	79.994	19.996	103.052	20.187	16.947	0.515
451.500	298.351	79.992	19.996	103.048	20.185	17.053	0.537
452.000	298.623	79.995	19.996	103.042	20.185	17.060	0.500
452.500	298.875	79.993	19.995	103.035	20.183	17.187	0.501
453.000	299.136	79.994	19.995	103.033	20.182	17.288	0.519
453.500	299.357	79.993	19.995	103.029	20.179	17.511	0.497
454.000	299.618	79.994	19.996	103.026	20.176	17.670	0.482
454.500	299.827	79.994	19.995	103.022	20.175	17.755	0.477
455.000	300.113	79.994	19.996	103.014	20.175	17.782	0.483
455.500	300.316	79.995	19.994	103.005	20.176	17.701	0.492
456.000	300.583	79.993	19.995	102.993	20.173	17.912	0.479
456.500	300.837	79.994	19.995	102.979	20.175	17.779	0.495
457.000	301.073	79.996	19.995	102.968	20.174	17.874	0.505
457.500	301.334	79.995	19.995	102.953	20.169	18.173	0.494
458.000	301.515	79.995	19.995	102.937	20.168	18.272	0.470
458.500	301.804	79.995	19.995	102.918	20.173	17.899	0.456
459.000	302.026	79.996	19.995	102.900	20.168	18.241	0.490
459.500	302.266	79.995	19.995	102.878	20.170	18.098	0.487
460.000	302.537	79.996	19.995	102.861	20.170	18.091	0.487
460.500	302.768	79.995	19.995	102.845	20.168	18.271	0.506
461.000	303.027	79.996	19.995	102.832	20.168	18.281	0.496
461.500	303.268	79.994	19.996	102.819	20.170	18.113	0.495
462.000	303.499	79.995	19.995	102.809	20.169	18.172	0.486
462.500	303.748	79.994	19.994	102.794	20.171	18.084	0.476
463.000	304.000	79.995	19.995	102.779	20.170	18.131	0.491
463.500	304.244	79.996	19.996	102.767	20.170	18.141	0.499
464.000	304.441	79.995	19.996	102.758	20.171	18.084	0.469
464.500	304.712	79.994	19.994	102.752	20.169	18.183	0.454
465.000	304.939	79.995	19.995	102.752	20.170	18.167	0.483
465.500	305.157	79.993	19.995	102.751	20.170	18.158	0.472
466.000	305.411	79.994	19.995	102.752	20.170	18.129	0.458
466.500	305.667	79.993	19.996	102.755	20.172	18.004	0.491
467.000	305.905	79.993	19.996	102.755	20.173	17.904	0.502
467.500	306.150	79.992	19.996	102.759	20.173	17.955	0.489
468.000	306.385	79.991	19.995	102.759	20.173	17.895	0.481
468.500	306.617	79.992	19.995	102.760	20.174	17.850	0.473
469.000	306.864	79.993	19.996	102.760	20.177	17.650	0.473
469.500	307.092	79.993	19.996	102.761	20.177	17.683	0.477
470.000	307.332	79.992	19.996	102.761	20.176	17.731	0.472
470.500	307.614	79.991	19.995	102.768	20.179	17.523	0.495
471.000	307.804	79.993	19.996	102.774	20.181	17.387	0.497
471.500	308.075	79.993	19.995	102.778	20.179	17.495	0.467
472.000	308.354	79.991	19.997	102.786	20.176	17.712	0.506
472.500	308.603	79.991	19.996	102.792	20.179	17.504	0.539
473.000	308.818	79.991	19.997	102.798	20.182	17.331	0.496
473.500	309.058	79.990	19.996	102.799	20.182	17.317	0.459
474.000	309.327	79.990	19.996	102.803	20.183	17.236	0.482
474.500	309.557	79.992	19.995	102.808	20.183	17.200	0.504
475.000	309.787	79.991	19.995	102.813	20.187	16.945	0.480
475.500	310.030	79.992	19.997	102.815	20.189	16.809	0.466
476.000	310.294	79.994	19.996	102.822	20.188	16.873	0.489
476.500	310.523	79.992	19.997	102.825	20.189	16.828	0.500
477.000	310.795	79.992	19.995	102.826	20.189	16.845	0.497
477.500	311.043	79.992	19.996	102.827	20.191	16.677	0.510
478.000	311.272	79.991	19.997	102.833	20.194	16.471	0.498
478.500	311.517	79.992	19.996	102.838	20.193	16.514	0.476
479.000	311.809	79.991	19.996	102.839	20.195	16.414	0.505
479.500	312.065	79.991	19.996	102.845	20.204	15.790	0.542
480.000	312.315	79.992	19.997	102.851	20.198	16.213	0.527
480.500	312.539	79.993	19.996	102.851	20.199	16.132	0.490
481.000	312.790	79.992	19.996	102.850	20.205	15.728	0.475
481.500	313.071	79.992	19.997	102.852	20.208	15.513	0.504
482.000	313.321	79.993	19.996	102.853	20.210	15.345	0.531
482.500	313.554	79.992	19.996	102.851	20.206	15.596	0.506
483.000	313.839	79.994	19.996	102.852	20.200	16.080	0.501
483.500	314.060	79.992	19.996	102.856	20.198	16.205	0.512
484.000	314.341	79.992	19.996	102.860	20.201	15.989	0.504
484.500	314.586	79.993	19.995	102.862	20.204	15.772	0.514
485.000	314.797	79.993	19.995	102.864	20.202	15.914	0.491
485.500	315.077	79.994	19.995	102.864	20.203	15.809	0.473
486.000	315.410	79.992	19.996	102.866	20.204	15.760	0.552
486.500	315.627	79.993	19.995	102.866	20.207	15.530	0.582
487.000	315.840	79.993	19.996	102.864	20.207	15.546	0.490
487.500	316.110	79.993	19.995	102.860	20.204	15.772	0.456
488.000	316.362	79.992	19.995	102.860	20.209	15.430	0.502
488.500	316.620	79.992	19.996	102.860	20.208	15.482	0.516
489.000	316.853	79.993	19.995	102.858	20.206	15.639	0.501
489.500	317.116	79.993	19.995	102.859	20.207	15.537	0.494
490.000	317.361	79.993	19.996	102.863	20.212	15.231	0.502
490.500	317.637	79.993	19.994	102.864	20.205	15.728	0.514
491.000	317.871	79.992	19.995	102.864	20.211	15.298	0.515
491.500	318.137	79.992	19.994	102.865	20.221	14.553	0.505
492.000	318.440	79.992	19.995	102.865	20.208	15.507	0.535
492.500	318.710	79.994	19.995	102.863	20.213	15.128	0.571
493.000	318.937	79.992	19.995	102.862	20.216	14.930	0.535
493.500	319.127	79.991	19.995	102.861	20.216	14.943	0.457
494.000	319.403	79.992	19.995	102.862	20.212	15.181	0.441
494.500	319.722	79.992	19.995	102.863	20.213	15.146	0.531
495.000	319.903	79.993	19.995	102.863	20.216	14.916	0.548
495.500	320.155	79.992	19.994	102.864	20.214	15.054	0.466
496.000	320.424	79.993	19.996	102.865	20.222	14.485	0.476
496.500	320.662	79.991	19.995	102.864	20.216	14.947	0.514
497.000	320.919	79.994	19.995	102.862	20.215	15.007	0.502
497.500	321.227	79.992	19.996	102.862	20.217	14.888	0.530
498.000	321.548	79.993	19.995	102.862	20.223	14.463	0.597
498.500	321.725	79.992	19.995	102.862	20.228	14.060	0.564
499.000	321.980	79.992	19.995	102.863	20.218	14.783	0.465
499.500	322.263	79.992	19.995	102.865	20.228	14.120	0.485
500.000	322.566	79.992	19.995	102.866	20.233	13.726	0.562
500.500	322.744	79.992	19.995	102.866	20.224	14.356	0.534
501.000	323.135	79.992	19.995	102.864	20.227	14.128	0.525
501.500	323.355	79.992	19.996	102.863	20.236	13.557	0.590
502.000	323.474	79.992	19.996	102.861	20.237	13.430	0.475
502.500	323.756	79.992	19.995	102.859	20.229	14.054	0.370
503.000	324.034	79.991	19.995	102.859	20.231	13.903	0.481
503.500	324.338	79.992	19.996	102.861	20.229	14.032	0.571
504.000	324.703	79.991	19.996	102.857	20.228	14.085	0.625
504.500	324.748	79.992	19.995	102.854	20.234	13.690	0.540
505.000	325.448	79.991	19.996	102.852	20.232	13.793	0.578
505.500	325.344	79.992	19.995	102.850	20.230	13.940	0.671
506.000	325.427	79.992	19.996	102.851	20.228	14.062	0.287
506.500	326.116	79.993	19.996	102.855	20.234	13.694	0.375
507.000	326.402	79.992	19.996	102.858	20.228	14.110	0.873
507.500	326.247	79.992	19.995	102.855	20.232	13.802	0.553
508.000	326.522	79.992	19.995	102.852	20.233	13.707	0.126
508.500	327.105	79.994	19.995	102.846	20.234	13.639	0.489
509.000	327.350	79.993	19.994	102.839	20.232	13.791	0.843
509.500	327.286	79.993	19.994	102.834	20.234	13.642	0.504
510.000	327.522	79.992	19.995	102.833	20.237	13.476	0.177
510.500	327.958	79.994	19.995	102.831	20.237	13.464	0.422
511.000	328.232	79.994	19.996	102.831	20.236	13.502	0.691
511.500	328.530	79.993	19.995	102.831	20.241	13.154	0.641
512.000	328.697	79.993	19.994	102.832	20.237	13.437	0.518
512.500	329.020	79.995	19.994	102.832	20.242	13.093	0.477
513.000	329.287	79.993	19.994	102.831	20.239	13.284	0.540
513.500	329.470	79.995	19.994	102.831	20.238	13.369	0.520
514.000	329.759	79.993	19.995	102.827	20.239	13.288	0.461
514.500	330.039	79.994	19.994	102.827	20.237	13.445	0.520
515.000	330.378	79.994	19.995	102.826	20.252	12.416	0.594
515.500	330.518	79.995	19.994	102.827	20.249	12.619	0.549
516.000	330.832	79.995	19.994	102.827	20.248	12.723	0.466
516.500	331.053	79.996	19.994	102.829	20.253	12.307	0.495
517.000	331.346	79.994	19.995	102.829	20.257	12.035	0.525
517.500	331.581	79.995	19.994	102.829	20.250	12.570	0.521
518.000	331.871	79.995	19.995	102.827	20.243	13.007	0.527
518.500	332.117	79.993	19.993	102.825	20.248	12.698	0.530
519.000	332.425	79.994	19.995	102.824	20.249	12.618	0.545
519.500	332.587	79.994	19.994	102.818	20.253	12.358	0.512
520.000	332.967	79.994	19.994	102.817	20.250	12.570	0.506
520.500	333.147	79.993	19.995	102.816	20.244	12.970	0.551
521.000	333.460	79.994	19.995	102.815	20.246	12.821	0.527
521.500	333.704	79.994	19.994	102.811	20.244	12.960	0.525
522.000	333.992	79.993	19.995	102.810	20.245	12.889	0.544
522.500	334.283	79.994	19.994	102.806	20.248	12.657	0.555
523.000	334.526	79.994	19.994	102.801	20.250	12.535	0.557
523.500	334.826	79.993	19.994	102.797	20.252	12.427	0.538
524.000	335.069	79.992	19.993	102.797	20.250	12.577	0.542
524.500	335.309	79.993	19.994	102.796	20.254	12.285	0.513
525.000	335.634	79.993	19.994	102.797	20.249	12.624	0.524
525.500	335.912	79.993	19.995	102.796	20.251	12.482	0.584
526.000	336.157	79.994	19.994	102.796	20.251	12.495	0.563
526.500	336.402	79.993	19.995	102.794	20.252	12.426	0.507
527.000	336.683	79.994	19.995	102.793	20.252	12.383	0.508
527.500	336.982	79.994	19.995	102.791	20.249	12.634	0.553
528.000	337.202	79.993	19.994	102.790	20.252	12.395	0.549
528.500	337.479	79.993	19.995	102.790	20.254	12.268	0.508
529.000	337.741	79.993	19.994	102.789	20.250	12.527	0.518
529.500	337.989	79.993	19.995	102.789	20.254	12.301	0.524
530.000	338.246	79.994	19.995	102.787	20.254	12.245	0.507
530.500	338.502	79.994	19.995	102.780	20.254	12.258	0.509
531.000	338.786	79.994	19.995	102.774	20.252	12.378	0.527
531.500	339.072	79.995	19.995	102.773	20.251	12.455	0.555
532.000	339.294	79.995	19.995	102.773	20.252	12.422	0.539
532.500	339.566	79.994	19.996	102.771	20.253	12.303	0.501
533.000	339.840	79.995	19.995	102.773	20.255	12.228	0.520
533.500	340.083	79.993	19.996	102.774	20.255	12.197	0.531
534.000	340.343	79.994	19.995	102.772	20.256	12.106	0.510
534.500	340.633	79.994	19.994	102.769	20.258	11.998	0.527
535.000	340.935	79.995	19.996	102.767	20.258	11.975	0.571
535.500	341.166	79.994	19.996	102.769	20.257	12.045	0.562
536.000	341.453	79.994	19.996	102.771	20.259	11.944	0.526
536.500	341.688	79.994	19.994	102.766	20.255	12.175	0.520
537.000	341.959	79.995	19.995	102.762	20.257	12.048	0.514
537.500	342.226	79.994	19.996	102.763	20.255	12.189	0.522
538.000	342.479	79.995	19.994	102.763	20.256	12.100	0.529
538.500	342.737	79.995	19.994	102.762	20.258	11.969	0.516
539.000	343.022	79.994	19.995	102.763	20.258	12.016	0.527
539.500	343.234	79.995	19.995	102.765	20.257	12.077	0.520
540.000	343.489	79.995	19.996	102.769	20.260	11.855	0.482
540.500	343.728	79.996	19.996	102.770	20.261	11.761	0.480
541.000	343.976	79.995	19.995	102.771	20.262	11.717	0.490
541.500	344.257	79.995	19.994	102.770	20.259	11.941	0.508
542.000	344.511	79.996	19.995	102.771	20.259	11.926	0.532
542.500	344.761	79.996	19.995	102.765	20.261	11.775	0.520
543.000	345.031	79.995	19.994	102.763	20.261	11.770	0.512
543.500	345.243	79.995	19.994	102.758	20.260	11.834	0.501
544.000	345.551	79.995	19.995	102.758	20.261	11.799	0.501
544.500	345.817	79.996	19.995	102.755	20.264	11.605	0.547
545.000	346.102	79.994	19.994	102.756	20.262	11.746	0.562
545.500	346.315	79.994	19.996	102.755	20.264	11.561	0.524
546.000	346.555	79.995	19.995	102.760	20.266	11.439	0.476
546.500	346.853	79.993	19.995	102.762	20.263	11.631	0.496
547.000	347.089	79.993	19.994	102.761	20.264	11.603	0.536
547.500	347.306	79.994	19.995	102.765	20.265	11.508	0.493
548.000	347.602	79.992	19.995	102.771	20.267	11.391	0.483
548.500	347.865	79.993	19.995	102.772	20.266	11.414	0.536
549.000	348.125	79.992	19.995	102.772	20.269	11.238	0.541
549.500	348.373	79.991	19.995	102.774	20.270	11.168	0.516
550.000	348.616	79.992	19.995	102.775	20.270	11.133	0.500
550.500	348.881	79.994	19.995	102.775	20.272	11.005	0.499
551.000	349.164	79.992	19.995	102.776	20.273	10.976	0.528
551.500	349.417	79.992	19.996	102.779	20.272	10.986	0.542
552.000	349.672	79.993	19.995	102.784	20.272	11.022	0.522
552.500	349.938	79.993	19.995	102.785	20.274	10.845	0.514
553.000	350.177	79.993	19.995	102.786	20.270	11.139	0.513
553.500	350.449	79.993	19.996	102.787	20.274	10.856	0.509
554.000	350.686	79.992	19.995	102.788	20.272	11.003	0.510
554.500	350.926	79.993	19.995	102.788	20.272	10.999	0.493
555.000	351.204	79.991	19.995	102.787	20.277	10.641	0.497
555.500	351.448	79.993	19.996	102.786	20.273	10.953	0.520
556.000	351.700	79.991	19.995	102.786	20.270	11.136	0.509
556.500	351.975	79.992	19.996	102.787	20.274	10.906	0.511
557.000	352.206	79.992	19.996	102.787	20.278	10.568	0.517
557.500	352.489	79.992	19.995	102.792	20.276	10.745	0.510
558.000	352.758	79.990	19.995	102.799	20.279	10.522	0.533
558.500	353.032	79.991	19.995	102.801	20.280	10.474	0.548
559.000	353.296	79.992	19.995	102.804	20.281	10.395	0.541
559.500	353.506	79.991	19.995	102.804	20.278	10.583	0.506
560.000	353.797	79.992	19.996	102.800	20.280	10.472	0.487
560.500	354.069	79.991	19.995	102.795	20.281	10.408	0.532
561.000	354.298	79.991	19.995	102.793	20.280	10.456	0.531
561.500	354.552	79.991	19.995	102.791	20.283	10.263	0.492
562.000	354.788	79.991	19.996	102.792	20.282	10.316	0.487
562.500	355.073	79.992	19.996	102.798	20.283	10.268	0.505
563.000	355.332	79.992	19.995	102.805	20.283	10.255	0.532
563.500	355.599	79.991	19.996	102.812	20.283	10.251	0.536
564.000	355.824	79.992	19.995	102.818	20.282	10.304	0.509
564.500	356.091	79.991	19.997	102.824	20.283	10.288	0.492
565.000	356.338	79.992	19.996	102.826	20.279	10.530	0.503
565.500	356.563	79.993	19.996	102.827	20.285	10.111	0.493
566.000	356.850	79.992	19.996	102.827	20.284	10.157	0.491
566.500	357.113	79.992	19.995	102.828	20.286	10.080	0.531
567.000	357.359	79.992	19.996	102.828	20.288	9.926	0.529
567.500	357.694	79.991	19.996	102.828	20.288	9.922	0.545
568.000	357.902	79.993	19.996	102.831	20.289	9.833	0.562
568.500	358.158	79.991	19.996	102.834	20.290	9.786	0.504
569.000	358.385	79.992	19.997	102.837	20.288	9.939	0.474
569.500	358.639	79.992	19.997	102.840	20.287	9.978	0.482
570.000	358.848	79.992	19.996	102.841	20.289	9.860	0.472
570.500	359.107	79.991	19.996	102.839	20.290	9.752	0.465
571.000	359.392	79.991	19.995	102.837	20.291	9.669	0.506
571.500	359.626	79.992	19.995	102.836	20.291	9.688	0.532
572.000	359.939	79.992	19.996	102.832	20.299	9.156	0.533
572.500	360.165	79.992	19.996	102.835	20.294	9.514	0.543
573.000	360.418	79.993	19.996	102.838	20.300	9.068	0.509
573.500	360.695	79.993	19.995	102.844	20.306	8.638	0.504
574.000	360.941	79.993	19.995	102.847	20.298	9.188	0.527
574.500	361.143	79.992	19.996	102.853	20.289	9.865	0.486
575.000	361.454	79.991	19.995	102.852	20.295	9.443	0.480
575.500	361.736	79.992	19.996	102.856	20.295	9.416	0.553
576.000	361.965	79.993	19.995	102.856	20.292	9.656	0.552
576.500	362.207	79.993	19.995	102.858	20.292	9.596	0.491
577.000	362.436	79.992	19.996	102.860	20.294	9.464	0.471
577.500	362.711	79.992	19.995	102.863	20.295	9.447	0.487
578.000	362.951	79.992	19.995	102.864	20.295	9.422	0.509
578.500	363.196	79.993	19.995	102.862	20.292	9.636	0.500
579.000	363.437	79.993	19.994	102.863	20.291	9.671	0.486
579.500	363.706	79.992	19.995	102.861	20.292	9.634	0.498
580.000	363.945	79.992	19.994	102.861	20.292	9.596	0.509
580.500	364.231	79.991	19.995	102.861	20.296	9.366	0.517
581.000	364.510	79.992	19.995	102.864	20.304	8.818	0.545
581.500	364.750	79.993	19.995	102.864	20.309	8.410	0.542
582.000	364.974	79.991	19.994	102.867	20.293	9.540	0.491
582.500	365.258	79.991	19.994	102.869	20.298	9.187	0.486
583.000	365.464	79.992	19.995	102.870	20.296	9.348	0.500
583.500	365.734	79.992	19.994	102.873	20.296	9.360	0.483
584.000	365.978	79.991	19.995	102.873	20.304	8.818	0.494
584.500	366.260	79.991	19.994	102.873	20.312	8.240	0.520
585.000	366.475	79.991	19.994	102.873	20.309	8.414	0.512
585.500	366.742	79.992	19.995	102.872	20.300	9.084	0.490
586.000	366.965	79.991	19.994	102.871	20.298	9.198	0.486
586.500	367.204	79.991	19.994	102.871	20.300	9.043	0.476
587.000	367.495	79.992	19.995	102.872	20.298	9.220	0.496
587.500	367.698	79.993	19.995	102.873	20.297	9.288	0.512
588.000	367.961	79.992	19.995	102.874	20.309	8.414	0.480
588.500	368.243	79.992	19.994	102.874	20.302	8.917	0.506
589.000	368.497	79.992	19.994	102.873	20.293	9.555	0.541
589.500	368.792	79.993	19.995	102.873	20.297	9.283	0.543
590.000	369.028	79.993	19.995	102.871	20.296	9.327	0.540
590.500	369.302	79.993	19.994	102.871	20.296	9.345	0.520
591.000	369.522	79.994	19.995	102.873	20.298	9.234	0.502
591.500	369.760	79.994	19.995	102.874	20.297	9.268	0.476
592.000	370.010	79.993	19.995	102.875	20.296	9.355	0.473
592.500	370.219	79.994	19.995	102.875	20.295	9.437	0.473
593.000	370.496	79.995	19.995	102.873	20.298	9.178	0.473
593.500	370.720	79.993	19.994	102.871	20.299	9.174	0.494
594.000	371.089	79.994	19.995	102.870	20.300	9.105	0.547
594.500	371.210	79.994	19.994	102.872	20.297	9.250	0.541
595.000	371.492	79.996	19.995	102.872	20.299	9.168	0.446
595.500	371.754	79.993	19.995	102.874	20.296	9.375	0.473
596.000	372.001	79.996	19.994	102.877	20.296	9.372	0.526
596.500	372.209	79.995	19.995	102.879	20.296	9.356	0.483
597.000	372.507	79.994	19.995	102.878	20.295	9.414	0.481
597.500	372.781	79.995	19.994	102.882	20.298	9.222	0.539
598.000	372.999	79.994	19.995	102.884	20.297	9.257	0.532
598.500	373.249	79.994	19.996	102.888	20.299	9.146	0.480
599.000	373.511	79.995	19.995	102.893	20.297	9.313	0.490
599.500	373.782	79.995	19.995	102.894	20.298	9.197	0.523
600.000	374.035	79.994	19.994	102.897	20.301	8.988	0.529
600.500	374.287	79.995	19.995	102.900	20.298	9.197	0.514
601.000	374.508	79.993	19.995	102.900	20.296	9.384	0.489
601.500	374.712	79.994	19.995	102.899	20.297	9.281	0.449
602.000	374.970	79.993	19.994	102.894	20.300	9.047	0.444
602.500	375.244	79.994	19.995	102.886	20.297	9.269	0.497
603.000	375.513	79.994	19.996	102.882	20.296	9.346	0.537
603.500	375.876	79.994	19.996	102.874	20.300	9.079	0.588
604.000	375.996	79.993	19.995	102.870	20.297	9.284	0.557
604.500	376.251	79.993	19.995	102.873	20.301	8.994	0.429
605.000	376.497	79.993	19.995	102.877	20.299	9.173	0.438
605.500	376.801	79.994	19.994	102.881	20.297	9.267	0.526
606.000	377.008	79.993	19.995	102.888	20.295	9.437	0.531
606.500	377.270	79.993	19.995	102.893	20.298	9.203	0.490
607.000	377.508	79.991	19.995	102.896	20.296	9.383	0.484
607.500	377.763	79.992	19.995	102.897	20.297	9.311	0.496
608.000	378.023	79.995	19.995	102.897	20.292	9.599	0.505
608.500	378.232	79.993	19.994	102.894	20.294	9.504	0.492
609.000	378.481	79.994	19.995	102.890	20.294	9.485	0.463
609.500	378.743	79.994	19.995	102.887	20.293	9.536	0.484
610.000	378.984	79.993	19.995	102.888	20.291	9.683	0.507
610.500	379.252	79.995	19.994	102.890	20.298	9.225	0.506
611.000	379.494	79.993	19.994	102.892	20.293	9.589	0.510
611.500	379.787	79.994	19.995	102.895	20.293	9.587	0.523
612.000	380.042	79.994	19.995	102.900	20.296	9.324	0.541
612.500	380.265	79.994	19.995	102.900	20.293	9.546	0.513
613.000	380.501	79.995	19.995	102.898	20.291	9.679	0.469
613.500	380.755	79.994	19.994	102.893	20.293	9.586	0.474
614.000	381.003	79.994	19.995	102.892	20.289	9.816	0.495
614.500	381.298	79.994	19.995	102.891	20.291	9.696	0.523
615.000	381.501	79.994	19.995	102.892	20.290	9.762	0.521
615.500	381.744	79.994	19.995	102.894	20.292	9.613	0.472
616.000	382.009	79.993	19.995	102.900	20.288	9.882	0.477
616.500	382.261	79.996	19.994	102.900	20.291	9.735	0.513
617.000	382.525	79.995	19.994	102.895	20.292	9.608	0.516
617.500	382.783	79.996	19.994	102.891	20.288	9.935	0.519
618.000	383.033	79.995	19.995	102.890	20.287	10.000	0.515
618.500	383.288	79.995	19.995	102.889	20.286	10.041	0.506
619.000	383.535	79.995	19.995	102.887	20.285	10.124	0.503
619.500	383.775	79.995	19.995	102.890	20.286	10.025	0.495
620.000	384.013	79.995	19.995	102.894	20.282	10.360	0.483
620.500	384.246	79.995	19.995	102.895	20.291	9.691	0.474
621.000	384.514	79.995	19.995	102.894	20.285	10.101	0.485
621.500	384.759	79.995	19.996	102.899	20.283	10.246	0.507
622.000	384.998	79.996	19.994	102.903	20.287	10.002	0.499
622.500	385.220	79.994	19.994	102.902	20.293	9.570	0.473
623.000	385.533	79.995	19.995	102.901	20.281	10.390	0.498
623.500	385.768	79.995	19.994	102.897	20.281	10.431	0.541
624.000	386.035	79.994	19.995	102.894	20.279	10.531	0.525
624.500	386.272	79.995	19.995	102.892	20.279	10.572	0.503
625.000	386.514	79.994	19.995	102.888	20.277	10.679	0.491
625.500	386.771	79.995	19.994	102.887	20.277	10.658	0.489
626.000	387.042	79.996	19.995	102.889	20.275	10.828	0.514
626.500	387.267	79.994	19.995	102.892	20.276	10.764	0.512
627.000	387.535	79.994	19.995	102.893	20.275	10.792	0.494
627.500	387.745	79.992	19.995	102.898	20.276	10.779	0.486
628.000	388.074	79.994	19.995	102.899	20.276	10.742	0.509
628.500	388.299	79.992	19.995	102.896	20.275	10.812	0.546
629.000	388.569	79.992	19.995	102.892	20.272	10.995	0.524
629.500	388.797	79.992	19.996	102.893	20.270	11.190	0.496
630.000	389.030	79.992	19.995	102.894	20.271	11.108	0.480
630.500	389.283	79.991	19.995	102.894	20.270	11.137	0.474
631.000	389.568	79.992	19.996	102.896	20.268	11.326	0.512
631.500	389.797	79.992	19.996	102.898	20.265	11.544	0.525
632.000	390.031	79.993	19.996	102.896	20.266	11.476	0.488
632.500	390.337	79.993	19.997	102.895	20.262	11.718	0.502
633.000	390.568	79.992	19.995	102.891	20.262	11.689	0.539
633.500	390.790	79.992	19.995	102.891	20.262	11.717	0.496
634.000	391.060	79.992	19.996	102.887	20.263	11.657	0.473
634.500	391.279	79.993	19.996	102.884	20.263	11.685	0.490
635.000	391.565	79.993	19.995	102.883	20.259	11.935	0.497
635.500	391.784	79.991	19.995	102.888	20.255	12.241	0.505
636.000	392.105	79.992	19.996	102.892	20.261	11.804	0.523
636.500	392.308	79.992	19.995	102.896	20.267	11.370	0.532
637.000	392.583	79.992	19.995	102.895	20.265	11.491	0.501
637.500	392.832	79.993	19.994	102.891	20.255	12.226	0.501
638.000	393.090	79.993	19.995	102.886	20.262	11.709	0.516
638.500	393.358	79.992	19.995	102.885	20.260	11.854	0.516
639.000	393.556	79.992	19.995	102.887	20.263	11.651	0.496
639.500	393.885	79.992	19.995	102.892	20.259	11.957	0.496
640.000	394.122	79.993	19.996	102.897	20.257	12.096	0.546
640.500	394.394	79.992	19.996	102.899	20.245	12.892	0.538
641.000	394.662	79.993	19.995	102.892	20.244	12.975	0.525
641.500	394.945	79.992	19.996	102.885	20.245	12.917	0.545
642.000	395.178	79.995	19.995	102.880	20.236	13.558	0.534
642.500	395.446	79.993	19.995	102.875	20.236	13.537	0.509
643.000	395.688	79.993	19.995	102.874	20.237	13.502	0.505
643.500	395.927	79.992	19.995	102.876	20.235	13.615	0.495
644.000	396.218	79.993	19.995	102.878	20.233	13.755	0.506
644.500	396.431	79.994	19.996	102.882	20.238	13.388	0.517
645.000	396.705	79.993	19.995	102.887	20.230	13.946	0.496
645.500	396.961	79.993	19.996	102.892	20.235	13.638	0.509
646.000	397.200	79.993	19.995	102.895	20.228	14.112	0.512
646.500	397.443	79.993	19.996	102.899	20.225	14.312	0.488
647.000	397.675	79.992	19.995	102.901	20.224	14.353	0.478
647.500	397.954	79.994	19.996	102.894	20.222	14.495	0.493
648.000	398.196	79.993	19.995	102.887	20.221	14.596	0.516
648.500	398.441	79.992	19.996	102.885	20.219	14.733	0.504
649.000	398.704	79.993	19.996	102.879	20.222	14.505	0.497
649.500	398.980	79.992	19.995	102.878	20.217	14.883	0.524
650.000	399.197	79.992	19.996	102.882	20.216	14.933	0.516
650.500	399.442	79.992	19.996	102.887	20.216	14.940	0.478
651.000	399.689	79.993	19.995	102.887	20.213	15.162	0.477
651.500	399.933	79.992	19.996	102.892	20.212	15.187	0.491
652.000	400.214	79.992	19.996	102.891	20.208	15.495	0.508
652.500	400.484	79.993	19.996	102.893	20.205	15.707	0.538
653.000	400.731	79.990	19.996	102.892	20.204	15.761	0.534
653.500	400.958	79.991	19.995	102.898	20.203	15.842	0.496
654.000	401.219	79.992	19.995	102.898	20.203	15.863	0.481
654.500	401.441	79.992	19.995	102.900	20.200	16.071	0.485
655.000	401.724	79.993	19.997	102.894	20.199	16.130	0.494
655.500	401.952	79.991	19.995	102.894	20.199	16.153	0.508
656.000	402.202	79.992	19.996	102.886	20.197	16.295	0.494
656.500	402.473	79.992	19.996	102.884	20.194	16.438	0.500
657.000	402.728	79.992	19.994	102.887	20.191	16.688	0.524
657.500	403.008	79.992	19.996	102.892	20.191	16.676	0.531
658.000	403.240	79.993	19.996	102.893	20.187	16.924	0.524
658.500	403.519	79.991	19.997	102.899	20.187	16.961	0.511
659.000	403.755	79.992	19.997	102.903	20.184	17.161	0.513
659.500	403.983	79.993	19.996	102.901	20.181	17.358	0.490
660.000	404.222	79.992	19.996	102.898	20.178	17.574	0.466
660.500	404.482	79.992	19.996	102.895	20.176	17.697	0.482
661.000	404.799	79.993	19.996	102.889	20.177	17.664	0.538
661.500	405.048	79.992	19.997	102.885	20.175	17.814	0.572
662.000	405.274	79.992	19.997	102.885	20.171	18.089	0.521
662.500	405.533	79.992	19.996	102.883	20.169	18.220	0.480
663.000	405.800	79.992	19.996	102.882	20.169	18.194	0.505
663.500	406.043	79.993	19.996	102.880	20.161	18.749	0.518
664.000	406.318	79.992	19.995	102.880	20.163	18.604	0.514
664.500	406.539	79.992	19.997	102.876	20.159	18.918	0.507
665.000	406.767	79.993	19.996	102.876	20.156	19.108	0.472
665.500	407.046	79.992	19.995	102.882	20.152	19.411	0.478
666.000	407.302	79.991	19.996	102.889	20.151	19.434	0.521
666.500	407.534	79.993	19.995	102.889	20.150	19.515	0.512
667.000	407.774	79.992	19.996	102.890	20.149	19.629	0.480
667.500	408.050	79.993	19.996	102.889	20.146	19.792	0.494
668.000	408.311	79.992	19.996	102.882	20.143	19.994	0.526
668.500	408.541	79.992	19.996	102.877	20.139	20.318	0.514
669.000	408.812	79.995	19.996	102.882	20.137	20.429	0.496
669.500	409.050	79.993	19.995	102.884	20.132	20.812	0.505
670.000	409.313	79.995	19.995	102.886	20.129	20.987	0.505
670.500	409.550	79.994	19.995	102.885	20.126	21.230	0.500
671.000	409.812	79.994	19.995	102.884	20.126	21.234	0.499
671.500	410.078	79.993	19.995	102.877	20.121	21.557	0.514
672.000	410.302	79.995	19.995	102.874	20.121	21.527	0.509
672.500	410.564	79.994	19.995	102.873	20.116	21.920	0.488
673.000	410.848	79.994	19.994	102.872	20.115	21.987	0.516
673.500	411.073	79.994	19.995	102.872	20.112	22.199	0.527
674.000	411.332	79.994	19.995	102.877	20.107	22.553	0.497
674.500	411.596	79.995	19.995	102.875	20.103	22.851	0.503
675.000	411.804	79.996	19.995	102.877	20.103	22.834	0.497
675.500	412.055	79.995	19.996	102.879	20.099	23.122	0.465
676.000	412.314	79.995	19.995	102.879	20.096	23.314	0.484
676.500	412.549	79.994	19.993	102.876	20.093	23.481	0.502
677.000	412.825	79.995	19.995	102.875	20.087	23.952	0.503
677.500	413.077	79.995	19.994	102.873	20.085	24.091	0.520
678.000	413.329	79.994	19.995	102.873	20.083	24.244	0.516
678.500	413.599	79.995	19.995	102.877	20.082	24.251	0.513
679.000	413.812	79.994	19.995	102.882	20.079	24.481	0.503
679.500	414.036	79.994	19.996	102.885	20.077	24.597	0.460
680.000	414.298	79.996	19.995	102.888	20.071	25.080	0.461
680.500	414.538	79.995	19.995	102.891	20.065	25.502	0.493
681.000	414.783	79.995	19.995	102.885	20.063	25.618	0.493
681.500	415.027	79.995	19.996	102.884	20.058	25.965	0.487
682.000	415.312	79.995	19.994	102.883	20.060	25.823	0.509
682.500	415.524	79.994	19.994	102.881	20.052	26.390	0.513
683.000	415.780	79.995	19.996	102.878	20.048	26.688	0.483
683.500	416.058	79.994	19.995	102.878	20.047	26.727	0.501
684.000	416.330	79.994	19.994	102.874	20.041	27.119	0.542
684.500	416.519	79.994	19.996	102.871	20.041	27.131	0.506
685.000	416.796	79.996	19.995	102.872	20.037	27.446	0.464
685.500	417.018	79.994	19.994	102.873	20.034	27.612	0.483
686.000	417.304	79.995	19.995	102.875	20.028	28.059	0.503
686.500	417.552	79.994	19.995	102.875	20.026	28.206	0.521
687.000	417.806	79.994	19.994	102.878	20.019	28.692	0.518
687.500	418.050	79.994	19.996	102.877	20.016	28.858	0.500
688.000	418.305	79.994	19.996	102.876	20.014	29.020	0.499
688.500	418.543	79.994	19.994	102.874	20.009	29.407	0.496
689.000	418.803	79.995	19.995	102.874	20.004	29.719	0.495
689.500	419.025	79.992	19.995	102.870	19.998	30.128	0.490
690.000	419.273	79.994	19.995	102.869	19.997	30.227	0.476
690.500	419.509	79.995	19.995	102.868	19.988	30.817	0.477
691.000	419.781	79.994	19.996	102.869	19.989	30.766	0.496
691.500	419.994	79.994	19.995	102.869	19.981	31.302	0.497
692.000	420.242	79.993	19.994	102.870	19.981	31.345	0.473
692.500	420.508	79.993	19.995	102.871	19.970	32.070	0.487
693.000	420.732	79.993	19.995	102.871	19.965	32.416	0.502
693.500	421.024	79.993	19.994	102.871	19.968	32.263	0.503
694.000	421.267	79.993	19.995	102.871	19.963	32.602	0.526
694.500	421.500	79.994	19.995	102.870	19.955	33.133	0.506
695.000	421.701	79.994	19.995	102.870	19.955	33.137	0.454
695.500	421.968	79.994	19.994	102.869	19.947	33.682	0.451
696.000	422.190	79.993	19.995	102.870	19.946	33.791	0.479
696.500	422.453	79.994	19.995	102.869	19.938	34.298	0.488
697.000	422.672	79.995	19.995	102.869	19.935	34.546	0.483
697.500	422.912	79.995	19.996	102.869	19.927	35.069	0.470
698.000	423.161	79.995	19.996	102.870	19.924	35.330	0.474
698.500	423.416	79.996	19.995	102.869	19.920	35.556	0.497
699.000	423.658	79.996	19.995	102.870	19.915	35.971	0.501
699.500	423.894	79.995	19.994	102.870	19.908	36.395	0.487
700.000	424.138	79.995	19.996	102.869	19.905	36.641	0.479
700.500	424.378	79.995	19.995	102.869	19.896	37.237	0.482
701.000	424.613	79.995	19.995	102.869	19.893	37.469	0.480
701.500	424.878	79.994	19.994	102.869	19.892	37.548	0.488
702.000	425.083	79.995	19.994	102.872	19.884	38.132	0.485
702.500	425.333	79.995	19.994	102.872	19.880	38.344	0.462
703.000	425.579	79.995	19.994	102.874	19.875	38.743	0.475
703.500	425.850	79.996	19.994	102.874	19.871	39.027	0.506
704.000	426.048	79.995	19.995	102.874	19.864	39.489	0.493
704.500	426.322	79.994	19.994	102.871	19.862	39.651	0.471
705.000	426.512	79.996	19.994	102.874	19.856	40.054	0.468
705.500	426.792	79.994	19.995	102.877	19.851	40.380	0.467
706.000	427.028	79.994	19.994	102.877	19.845	40.829	0.494
706.500	427.288	79.995	19.993	102.878	19.839	41.211	0.506
707.000	427.529	79.993	19.995	102.878	19.831	41.768	0.498
707.500	427.753	79.993	19.995	102.874	19.828	42.034	0.483
708.000	427.985	79.994	19.995	102.870	19.828	41.985	0.460
708.500	428.248	79.994	19.995	102.870	19.819	42.645	0.475
709.000	428.493	79.993	19.995	102.870	19.818	42.708	0.502
709.500	428.734	79.994	19.994	102.876	19.809	43.311	0.497
710.000	428.985	79.993	19.995	102.877	19.804	43.665	0.489
710.500	429.219	79.993	19.996	102.880	19.798	44.100	0.488
711.000	429.479	79.992	19.996	102.880	19.795	44.304	0.490
711.500	429.691	79.992	19.995	102.880	19.788	44.773	0.483
712.000	429.940	79.994	19.995	102.875	19.783	45.152	0.467
712.500	430.175	79.995	19.995	102.874	19.780	45.373	0.473
713.000	430.424	79.992	19.995	102.874	19.775	45.703	0.484
713.500	430.670	79.992	19.995	102.876	19.770	46.023	0.489
714.000	430.914	79.993	19.995	102.884	19.764	46.489	0.492
714.500	431.181	79.992	19.994	102.888	19.760	46.754	0.500
715.000	431.414	79.993	19.995	102.892	19.756	47.024	0.506
715.500	431.655	79.994	19.996	102.896	19.749	47.530	0.487
716.000	431.910	79.992	19.995	102.894	19.746	47.738	0.485
716.500	432.159	79.993	19.996	102.886	19.740	48.127	0.500
717.000	432.398	79.993	19.994	102.882	19.734	48.541	0.496
717.500	432.668	79.992	19.995	102.878	19.727	49.061	0.499
718.000	432.924	79.993	19.996	102.873	19.724	49.264	0.517
718.500	433.147	79.993	19.996	102.872	19.718	49.664	0.503
719.000	433.406	79.994	19.997	102.875	19.714	49.973	0.480
719.500	433.675	79.994	19.996	102.876	19.709	50.306	0.505
720.000	433.920	79.994	19.995	102.878	19.706	50.523	0.521
720.500	434.205	79.993	19.996	102.878	19.700	50.956	0.522
721.000	434.445	79.994	19.995	102.877	19.696	51.204	0.528
721.500	434.676	79.995	19.995	102.875	19.694	51.370	0.498
722.000	434.946	79.993	19.995	102.874	19.684	52.060	0.486
722.500	435.212	79.994	19.996	102.872	19.677	52.556	0.518
723.000	435.448	79.992	19.996	102.871	19.672	52.921	0.519
723.500	435.713	79.993	19.995	102.876	19.671	52.974	0.501
724.000	435.959	79.994	19.997	102.875	19.666	53.324	0.506
724.500	436.215	79.991	19.995	102.876	19.662	53.610	0.506
725.000	436.480	79.993	19.996	102.875	19.655	54.106	0.512
725.500	436.687	79.993	19.996	102.875	19.646	54.713	0.497
726.000	436.949	79.992	19.996	102.870	19.644	54.861	0.470
726.500	437.218	79.994	19.996	102.869	19.639	55.178	0.500
727.000	437.449	79.993	19.995	102.867	19.633	55.612	0.515
727.500	437.727	79.994	19.995	102.867	19.628	55.991	0.504
728.000	437.950	79.994	19.995	102.867	19.623	56.285	0.505
728.500	438.266	79.994	19.995	102.867	19.618	56.672	0.520
729.000	438.481	79.993	19.995	102.867	19.614	56.935	0.535
729.500	438.709	79.993	19.995	102.867	19.607	57.389	0.487
730.000	438.979	79.994	19.995	102.869	19.605	57.578	0.470
730.500	439.249	79.995	19.996	102.873	19.597	58.108	0.519
731.000	439.485	79.992	19.995	102.878	19.595	58.280	0.524
731.500	439.724	79.994	19.995	102.878	19.588	58.769	0.491
732.000	439.986	79.994	19.995	102.879	19.584	59.026	0.488
732.500	440.259	79.994	19.995	102.879	19.578	59.473	0.518
733.000	440.522	79.993	19.995	102.877	19.575	59.672	0.536
733.500	440.756	79.994	19.995	102.879	19.570	59.993	0.516
734.000	441.045	79.995	19.995	102.881	19.566	60.255	0.510
734.500	441.271	79.994	19.995	102.882	19.560	60.680	0.519
735.000	441.524	79.993	19.996	102.882	19.556	61.017	0.497
735.500	441.755	79.994	19.995	102.881	19.551	61.320	0.482
736.000	442.043	79.994	19.995	102.875	19.545	61.759	0.501
736.500	442.282	79.994	19.996	102.875	19.538	62.214	0.522
737.000	442.500	79.993	19.996	102.878	19.534	62.528	0.492
737.500	442.780	79.994	19.996	102.876	19.531	62.724	0.478
738.000	443.022	79.994	19.996	102.875	19.525	63.138	0.510
738.500	443.292	79.994	19.996	102.875	19.521	63.416	0.517
739.000	443.540	79.992	19.995	102.874	19.517	63.713	0.514
739.500	443.771	79.992	19.996	102.870	19.511	64.108	0.498
740.000	444.063	79.994	19.995	102.870	19.506	64.465	0.501
740.500	444.314	79.993	19.995	102.870	19.504	64.592	0.533
741.000	444.554	79.993	19.996	102.869	19.497	65.102	0.517
741.500	444.787	79.992	19.996	102.869	19.494	65.332	0.482
742.000	445.041	79.992	19.996	102.868	19.490	65.597	0.480
742.500	445.324	79.992	19.995	102.868	19.484	66.024	0.512
743.000	445.516	79.992	19.995	102.868	19.481	66.222	0.506
743.500	445.800	79.993	19.996	102.868	19.474	66.676	0.475
744.000	446.038	79.993	19.996	102.868	19.472	66.826	0.499
744.500	446.321	79.992	19.995	102.868	19.468	67.136	0.521
745.000	446.564	79.993	19.996	102.873	19.463	67.490	0.524
745.500	446.831	79.993	19.996	102.874	19.459	67.772	0.518
746.000	447.039	79.993	19.996	102.875	19.455	68.038	0.493
746.500	447.308	79.993	19.997	102.875	19.450	68.375	0.476
747.000	447.547	79.992	19.996	102.875	19.443	68.877	0.493
747.500	447.787	79.992	19.996	102.872	19.440	69.072	0.494
748.000	448.070	79.992	19.996	102.876	19.436	69.333	0.501
748.500	448.291	79.992	19.996	102.880	19.435	69.420	0.513
749.000	448.584	79.994	19.996	102.880	19.430	69.789	0.510
749.500	448.828	79.992	19.996	102.880	19.424	70.189	0.526
750.001	449.067	79.993	19.997	102.877	19.421	70.391	0.510
750.501	449.286	79.993	19.996	102.872	19.418	70.617	0.470
751.000	449.534	79.993	19.996	102.868	19.415	70.823	0.463
751.500	449.805	79.992	19.997	102.870	19.412	71.044	0.493
752.000	450.063	79.993	19.996	102.869	19.409	71.221	0.524
752.500	450.323	79.992	19.997	102.869	19.410	71.159	0.524
753.000	450.551	79.995	19.997	102.868	19.409	71.270	0.503
753.500	450.808	79.995	19.996	102.868	19.404	71.608	0.487
754.000	451.067	79.994	19.995	102.866	19.405	71.488	0.500
754.500	451.300	79.993	19.997	102.865	19.403	71.627	0.504
755.000	451.564	79.994	19.996	102.864	19.406	71.421	0.494
755.500	451.796	79.994	19.995	102.864	19.406	71.443	0.497
756.000	452.086	79.995	19.995	102.864	19.407	71.397	0.509
756.500	452.281	79.993	19.995	102.865	19.406	71.425	0.503
757.000	452.531	79.995	19.996	102.866	19.409	71.265	0.465
757.500	452.806	79.995	19.995	102.867	19.409	71.246	0.485
758.000	453.042	79.994	19.996	102.868	19.407	71.356	0.518
758.500	453.289	79.995	19.996	102.868	19.410	71.144	0.497
759.000	453.569	79.994	19.995	102.868	19.411	71.090	0.505
759.500	453.827	79.994	19.996	102.868	19.411	71.072	0.532
760.000	454.099	79.994	19.995	102.870	19.413	70.984	0.534
760.500	454.314	79.995	19.995	102.872	19.418	70.637	0.509
761.000	454.594	79.994	19.994	102.874	19.421	70.390	0.492
761.500	454.894	79.994	19.995	102.875	19.420	70.454	0.538
762.000	455.122	79.996	19.994	102.877	19.422	70.363	0.554
762.500	455.402	79.994	19.995	102.875	19.426	70.089	0.518
763.000	455.629	79.993	19.995	102.873	19.428	69.914	0.508
763.500	455.931	79.994	19.994	102.873	19.436	69.391	0.518
764.000	456.158	79.995	19.994	102.871	19.436	69.336	0.528
764.500	456.437	79.995	19.994	102.870	19.446	68.664	0.517
765.000	456.654	79.994	19.995	102.871	19.453	68.155	0.502
765.500	456.914	79.993	19.995	102.870	19.458	67.827	0.487
766.000	457.168	79.995	19.995	102.869	19.457	67.919	0.495
766.500	457.435	79.992	19.996	102.867	19.467	67.219	0.517
767.000	457.671	79.993	19.995	102.868	19.474	66.714	0.512
767.500	457.948	79.994	19.995	102.867	19.475	66.631	0.508
768.000	458.190	79.995	19.994	102.868	19.484	66.029	0.516
768.500	458.474	79.994	19.994	102.873	19.489	65.695	0.522
769.000	458.760	79.994	19.994	102.876	19.497	65.109	0.548
769.500	459.013	79.994	19.994	102.877	19.503	64.690	0.555
770.000	459.248	79.993	19.994	102.877	19.510	64.239	0.514
770.500	459.564	79.995	19.995	102.878	19.518	63.623	0.520
771.000	459.789	79.994	19.995	102.880	19.531	62.715	0.546
771.500	460.081	79.993	19.995	102.885	19.535	62.421	0.529
772.000	460.307	79.993	19.995	102.886	19.544	61.830	0.518
772.500	460.564	79.994	19.993	102.886	19.553	61.158	0.501
773.000	460.865	79.995	19.995	102.886	19.555	61.045	0.521
773.500	461.105	79.995	19.995	102.887	19.562	60.573	0.549
774.000	461.373	79.994	19.994	102.883	19.569	60.049	0.524
774.500	461.666	79.994	19.993	102.885	19.574	59.674	0.534
775.000	461.911	79.994	19.995	102.891	19.577	59.488	0.549
775.500	462.124	79.994	19.995	102.897	19.581	59.193	0.498
776.000	462.374	79.993	19.994	102.899	19.585	58.969	0.461
776.500	462.661	79.993	19.994	102.904	19.585	58.970	0.500
777.000	462.882	79.994	19.994	102.908	19.586	58.867	0.522
777.500	463.155	79.996	19.995	102.910	19.592	58.443	0.501
778.000	463.421	79.993	19.995	102.910	19.597	58.104	0.516
778.500	463.643	79.994	19.995	102.909	19.595	58.251	0.514
779.000	463.914	79.995	19.995	102.909	19.600	57.933	0.491
779.500	464.187	79.996	19.995	102.907	19.602	57.788	0.518
780.000	464.406	79.995	19.994	102.905	19.607	57.405	0.518
780.500	464.658	79.995	19.995	102.899	19.609	57.304	0.481
781.000	464.931	79.995	19.995	102.893	19.610	57.264	0.498
781.500	465.182	79.995	19.995	102.885	19.616	56.827	0.525
782.000	465.463	79.994	19.994	102.879	19.618	56.661	0.528
782.500	465.735	79.995	19.995	102.869	19.626	56.143	0.543
783.000	465.993	79.995	19.994	102.864	19.631	55.745	0.542
783.500	466.246	79.995	19.995	102.856	19.642	54.998	0.521
784.000	466.503	79.995	19.995	102.851	19.649	54.502	0.511
784.500	466.755	79.996	19.995	102.845	19.654	54.164	0.509
785.000	466.999	79.996	19.996	102.841	19.661	53.632	0.502
785.500	467.270	79.995	19.995	102.835	19.666	53.287	0.506
786.000	467.528	79.994	19.995	102.834	19.672	52.904	0.522
786.500	467.777	79.996	19.994	102.831	19.675	52.657	0.518
787.000	468.029	79.995	19.995	102.835	19.679	52.384	0.504
787.500	468.299	79.994	19.994	102.841	19.682	52.161	0.512
788.000	468.531	79.995	19.994	102.850	19.687	51.821	0.512
788.500	468.820	79.995	19.995	102.857	19.689	51.676	0.511
789.000	469.042	79.995	19.995	102.866	19.688	51.801	0.516
789.500	469.258	79.995	19.995	102.876	19.687	51.878	0.475
790.000	469.580	79.994	19.994	102.885	19.693	51.413	0.488
790.500	469.805	79.994	19.994	102.892	19.693	51.400	0.543
791.000	470.094	79.994	19.995	102.898	19.696	51.247	0.530
791.500	470.364	79.993	19.995	102.905	19.700	50.908	0.536
792.000	470.628	79.993	19.996	102.905	19.705	50.581	0.546
792.500	470.884	79.993	19.995	102.906	19.708	50.410	0.527
793.000	471.122	79.992	19.995	102.904	19.712	50.078	0.507
793.500	471.369	79.993	19.995	102.897	19.719	49.630	0.489
794.000	471.663	79.994	19.995	102.887	19.721	49.484	0.513
794.500	471.922	79.994	19.994	102.879	19.730	48.839	0.547
795.000	472.108	79.993	19.994	102.870	19.733	48.603	0.499
795.500	472.368	79.992	19.994	102.860	19.739	48.224	0.446
796.000	472.642	79.993	19.994	102.853	19.743	47.930	0.490
796.500	472.908	79.993	19.995	102.849	19.746	47.696	0.537
797.000	473.208	79.994	19.994	102.844	19.749	47.531	0.553
797.500	473.468	79.992	19.994	102.841	19.750	47.455	0.563
798.000	473.720	79.994	19.994	102.845	19.754	47.174	0.536
798.500	474.016	79.992	19.995	102.851	19.757	46.936	0.530
799.000	474.247	79.993	19.994	102.859	19.759	46.822	0.537
799.500	474.529	79.991	19.994	102.870	19.759	46.806	0.520
800.000	474.798	79.993	19.995	102.882	19.762	46.614	0.532
800.500	475.067	79.995	19.994	102.889	19.765	46.399	0.544
801.000	475.290	79.993	19.995	102.891	19.767	46.276	0.515
801.500	475.587	79.994	19.994	102.892	19.765	46.401	0.506
802.000	475.881	79.993	19.995	102.888	19.767	46.261	0.555
802.500	476.138	79.994	19.995	102.882	19.770	46.038	0.571
803.000	476.358	79.995	19.994	102.879	19.770	46.030	0.514
803.500	476.621	79.993	19.995	102.876	19.768	46.145	0.480
804.000	476.888	79.994	19.995	102.874	19.769	46.124	0.506
804.500	477.192	79.993	19.995	102.871	19.769	46.102	0.550
805.000	477.431	79.994	19.995	102.870	19.770	46.040	0.557
805.500	477.740	79.993	19.995	102.868	19.768	46.159	0.545
806.000	477.972	79.994	19.996	102.868	19.771	45.941	0.545
806.500	478.250	79.994	19.995	102.868	19.771	45.975	0.526
807.000	478.475	79.993	19.995	102.869	19.774	45.756	0.506
807.500	478.739	79.993	19.996	102.868	19.773	45.841	0.496
808.000	479.043	79.993	19.995	102.867	19.770	46.043	0.529
808.500	479.309	79.994	19.995	102.866	19.770	46.046	0.569
809.000	479.578	79.994	19.996	102.865	19.770	46.071	0.553
809.500	479.865	79.994	19.995	102.865	19.766	46.319	0.546
810.000	480.107	79.993	19.995	102.864	19.773	45.858	0.543
810.500	480.364	79.993	19.995	102.864	19.771	45.968	0.514
811.000	480.643	79.995	19.996	102.862	19.776	45.615	0.517
811.500	480.901	79.993	19.996	102.856	19.776	45.648	0.536
812.000	481.202	79.993	19.995	102.851	19.776	45.622	0.548
812.500	481.458	79.994	19.995	102.844	19.779	45.413	0.559
813.000	481.768	79.993	19.995	102.838	19.784	45.098	0.562
813.500	482.031	79.994	19.995	102.832	19.785	45.012	0.569
814.000	482.257	79.993	19.996	102.832	19.784	45.086	0.531
814.500	482.554	79.993	19.996	102.830	19.787	44.837	0.506
815.000	482.829	79.994	19.995	102.830	19.787	44.828	0.548
815.500	483.067	79.993	19.994	102.833	19.788	44.818	0.542
816.000	483.332	79.993	19.996	102.837	19.789	44.733	0.508
816.500	483.586	79.992	19.996	102.843	19.793	44.420	0.511
817.000	483.886	79.994	19.996	102.849	19.796	44.257	0.537
817.500	484.117	79.992	19.996	102.856	19.796	44.195	0.542
818.000	484.396	79.992	19.996	102.860	19.793	44.409	0.521
818.500	484.645	79.992	19.996	102.864	19.797	44.153	0.519
819.000	484.937	79.993	19.994	102.865	19.799	43.994	0.534
819.500	485.180	79.994	19.995	102.867	19.801	43.905	0.538
820.000	485.466	79.992	19.995	102.867	19.802	43.837	0.532
820.500	485.735	79.993	19.995	102.867	19.800	43.972	0.542
821.000	486.035	79.991	19.995	102.866	19.801	43.912	0.562
821.500	486.263	79.992	19.995	102.862	19.799	43.993	0.548
822.000	486.537	79.991	19.996	102.859	19.802	43.811	0.515
822.500	486.837	79.993	19.995	102.854	19.801	43.888	0.538
823.000	487.089	79.992	19.996	102.849	19.807	43.492	0.563
823.500	487.325	79.991	19.996	102.850	19.808	43.362	0.520
824.000	487.631	79.993	19.996	102.854	19.808	43.401	0.515
824.500	487.870	79.991	19.996	102.857	19.811	43.195	0.544
825.000	488.179	79.993	19.995	102.862	19.815	42.903	0.547
825.500	488.430	79.991	19.996	102.867	19.814	42.943	0.554
826.000	488.698	79.992	19.995	102.865	19.819	42.616	0.540
826.500	488.935	79.992	19.995	102.863	19.822	42.404	0.512
827.000	489.241	79.993	19.995	102.859	19.824	42.247	0.524
827.500	489.486	79.991	19.996	102.852	19.827	42.042	0.547
828.000	489.769	79.992	19.995	102.845	19.830	41.846	0.540
828.500	490.059	79.991	19.996	102.841	19.832	41.702	0.550
829.000	490.324	79.992	19.995	102.840	19.837	41.351	0.563
829.500	490.565	79.994	19.995	102.842	19.838	41.311	0.530
830.000	490.856	79.991	19.995	102.849	19.841	41.073	0.519
830.500	491.102	79.992	19.995	102.855	19.844	40.857	0.534
831.000	491.378	79.994	19.995	102.863	19.847	40.643	0.530
831.500	491.648	79.993	19.996	102.862	19.848	40.582	0.534
832.000	491.906	79.993	19.995	102.862	19.852	40.334	0.537
832.500	492.176	79.993	19.995	102.862	19.851	40.393	0.528
833.000	492.469	79.993	19.995	102.860	19.857	39.987	0.546
833.500	492.729	79.993	19.995	102.860	19.861	39.705	0.558
834.000	492.946	79.991	19.994	102.864	19.862	39.636	0.515
834.500	493.205	79.994	19.996	102.865	19.860	39.736	0.477
835.000	493.486	79.994	19.996	102.865	19.869	39.142	0.508
835.500	493.759	79.993	19.996	102.866	19.871	38.999	0.547
836.000	494.018	79.993	19.996	102.863	19.872	38.914	0.543
836.500	494.313	79.994	19.996	102.862	19.877	38.615	0.543
837.000	494.579	79.992	19.996	102.862	19.880	38.379	0.557
837.500	494.851	79.994	19.997	102.862	19.883	38.143	0.550
838.000	495.129	79.993	19.995	102.863	19.889	37.727	0.544
838.500	495.402	79.993	19.996	102.863	19.892	37.550	0.550
839.000	495.650	79.992	19.995	102.857	19.894	37.404	0.536
839.500	495.872	79.993	19.996	102.849	19.902	36.850	0.496
840.000	496.207	79.994	19.995	102.847	19.906	36.523	0.514
840.500	496.421	79.993	19.995	102.843	19.909	36.347	0.552
841.000	496.698	79.992	19.996	102.843	19.915	35.908	0.520
841.500	496.928	79.992	19.996	102.845	19.918	35.714	0.499
842.000	497.246	79.990	19.996	102.851	19.921	35.505	0.528
842.500	497.491	79.993	19.996	102.853	19.924	35.289	0.556
843.000	497.782	79.993	19.997	102.857	19.931	34.838	0.550
843.500	498.031	79.993	19.996	102.860	19.931	34.840	0.538
844.000	498.279	79.992	19.995	102.865	19.934	34.586	0.519
844.500	498.594	79.993	19.996	102.865	19.938	34.311	0.530
845.000	498.835	79.993	19.996	102.862	19.943	33.968	0.559
845.500	499.072	79.994	19.995	102.859	19.948	33.624	0.517
846.000	499.324	79.993	19.996	102.859	19.951	33.443	0.484
846.500	499.604	79.993	19.996	102.859	19.954	33.204	0.511
847.000	499.854	79.994	19.995	102.860	19.961	32.685	0.531
847.500	500.117	79.993	19.996	102.863	19.962	32.613	0.521
848.000	500.405	79.993	19.996	102.861	19.969	32.140	0.533
848.500	500.662	79.993	19.995	102.856	19.970	32.093	0.548
849.000	500.941	79.993	19.996	102.855	19.974	31.823	0.540
849.500	501.191	79.993	19.996	102.849	19.975	31.722	0.532
850.000	501.450	79.992	19.995	102.845	19.982	31.224	0.519
850.500	501.750	79.994	19.996	102.844	19.986	30.975	0.534
851.000	501.963	79.994	19.996	102.842	19.990	30.686	0.536
851.500	502.234	79.994	19.995	102.836	19.994	30.423	0.499
852.000	502.517	79.994	19.995	102.836	19.997	30.230	0.519
852.500	502.784	79.994	19.995	102.840	20.000	30.024	0.551
853.000	503.025	79.992	19.996	102.846	20.006	29.588	0.529
853.500	503.302	79.993	19.995	102.846	20.010	29.295	0.513
854.000	503.577	79.993	19.995	102.852	20.015	28.973	0.535
854.500	503.844	79.993	19.995	102.857	20.016	28.888	0.547
855.000	504.122	79.994	19.995	102.856	20.020	28.596	0.544
855.500	504.379	79.995	19.995	102.854	20.025	28.221	0.540
856.000	504.620	79.995	19.995	102.853	20.026	28.197	0.516
856.500	504.886	79.993	19.995	102.846	20.028	28.025	0.502
857.000	505.151	79.995	19.995	102.843	20.035	27.524	0.519
857.500	505.396	79.995	19.994	102.840	20.042	27.091	0.521
858.000	505.691	79.995	19.995	102.836	20.042	27.035	0.525
858.500	505.946	79.995	19.994	102.836	20.047	26.727	0.545
859.000	506.206	79.996	19.994	102.837	20.050	26.487	0.533
859.500	506.439	79.997	19.995	102.836	20.053	26.328	0.504
860.000	506.735	79.996	19.995	102.832	20.057	26.009	0.511
860.500	506.979	79.995	19.995	102.831	20.060	25.774	0.534
861.000	507.241	79.995	19.994	102.835	20.062	25.651	0.523
861.500	507.487	79.996	19.995	102.840	20.066	25.384	0.507
862.000	507.741	79.994	19.995	102.844	20.072	24.974	0.504
862.500	508.008	79.997	19.995	102.846	20.075	24.741	0.510
863.000	508.285	79.995	19.995	102.846	20.075	24.735	0.532
863.500	508.519	79.997	19.994	102.843	20.081	24.362	0.528
864.000	508.796	79.995	19.995	102.838	20.084	24.157	0.511
864.500	509.064	79.996	19.995	102.835	20.089	23.783	0.527
865.000	509.334	79.996	19.995	102.833	20.092	23.549	0.542
865.500	509.567	79.995	19.994	102.833	20.097	23.216	0.521
866.000	509.849	79.995	19.995	102.833	20.099	23.112	0.510
866.500	510.093	79.996	19.994	102.833	20.101	22.950	0.520
867.000	510.319	79.995	19.994	102.830	20.103	22.774	0.497
867.500	510.589	79.995	19.995	102.831	20.107	22.505	0.483
868.000	510.846	79.996	19.994	102.831	20.114	22.061	0.512
868.500	511.102	79.995	19.994	102.829	20.114	22.018	0.520
869.000	511.367	79.996	19.995	102.829	20.117	21.857	0.517
869.500	511.605	79.996	19.994	102.829	20.119	21.668	0.512
870.000	511.849	79.995	19.995	102.828	20.128	21.057	0.492
870.500	512.142	79.993	19.995	102.830	20.130	20.923	0.510
871.000	512.351	79.993	19.995	102.834	20.130	20.900	0.520
871.500	512.619	79.993	19.996	102.835	20.136	20.496	0.490
872.000	512.871	79.994	19.996	102.837	20.135	20.542	0.498
872.500	513.131	79.993	19.995	102.837	20.139	20.264	0.516
873.000	513.395	79.994	19.995	102.838	20.143	19.999	0.518
873.500	513.650	79.995	19.995	102.835	20.143	19.984	0.521
874.000	513.911	79.994	19.996	102.835	20.148	19.696	0.518
874.500	514.207	79.993	19.996	102.833	20.153	19.288	0.537
875.000	514.469	79.993	19.995	102.832	20.156	19.126	0.557
875.500	514.705	79.995	19.995	102.828	20.158	18.971	0.528
876.000	514.974	79.994	19.995	102.828	20.162	18.697	0.501
876.500	515.241	79.992	19.995	102.827	20.163	18.622	0.520
877.000	515.473	79.994	19.995	102.829	20.165	18.450	0.518
877.500	515.799	79.993	19.995	102.830	20.165	18.457	0.529
878.000	516.000	79.993	19.994	102.832	20.170	18.134	0.542
878.500	516.295	79.994	19.995	102.831	20.175	17.792	0.511
879.000	516.581	79.994	19.994	102.832	20.177	17.619	0.539
879.500	516.825	79.993	19.994	102.830	20.178	17.610	0.555
880.000	517.048	79.993	19.995	102.829	20.179	17.480	0.498
880.500	517.341	79.994	19.994	102.829	20.183	17.233	0.492
881.000	517.590	79.991	19.995	102.829	20.182	17.285	0.530
881.500	517.852	79.993	19.995	102.829	20.188	16.877	0.526
882.000	518.135	79.993	19.995	102.830	20.190	16.707	0.527
882.500	518.379	79.996	19.995	102.829	20.196	16.336	0.536
883.000	518.632	79.992	19.995	102.829	20.196	16.351	0.513
883.500	518.882	79.994	19.995	102.829	20.195	16.398	0.500
884.000	519.194	79.994	19.995	102.829	20.200	16.028	0.532
884.500	519.397	79.993	19.995	102.830	20.205	15.703	0.539
885.000	519.673	79.994	19.995	102.831	20.206	15.655	0.497
885.500	519.923	79.994	19.993	102.832	20.208	15.469	0.503
886.000	520.176	79.994	19.995	102.832	20.209	15.396	0.515
886.500	520.426	79.994	19.995	102.833	20.214	15.071	0.503
887.000	520.704	79.994	19.994	102.833	20.215	14.971	0.515
887.500	520.973	79.994	19.995	102.835	20.214	15.046	0.537
888.000	521.231	79.993	19.995	102.835	20.222	14.526	0.537
888.500	521.461	79.993	19.994	102.834	20.222	14.512	0.508
889.000	521.745	79.993	19.994	102.835	20.225	14.269	0.501
889.500	521.997	79.994	19.995	102.833	20.227	14.133	0.525
890.000	522.258	79.993	19.995	102.830	20.229	14.021	0.525
890.500	522.495	79.994	19.994	102.830	20.233	13.762	0.506
891.000	522.727	79.993	19.994	102.830	20.236	13.565	0.483
891.500	523.019	79.993	19.993	102.830	20.239	13.302	0.496
892.000	523.259	79.994	19.994	102.830	20.238	13.368	0.528
892.500	523.516	79.995	19.995	102.831	20.237	13.436	0.514
893.000	523.768	79.993	19.995	102.831	20.238	13.395	0.503
893.500	524.040	79.993	19.994	102.832	20.243	13.032	0.517
894.000	524.287	79.994	19.994	102.832	20.247	12.740	0.522
894.500	524.574	79.994	19.995	102.832	20.249	12.639	0.527
895.000	524.784	79.993	19.995	102.831	20.247	12.755	0.515
895.500	525.030	79.993	19.994	102.831	20.251	12.515	0.476
896.000	525.327	79.993	19.995	102.830	20.252	12.385	0.500
896.500	525.555	79.994	19.995	102.830	20.255	12.223	0.534
897.000	525.800	79.992	19.994	102.830	20.254	12.248	0.499
897.500	526.085	79.994	19.994	102.830	20.260	11.869	0.502
898.000	526.314	79.993	19.995	102.830	20.261	11.796	0.522
898.500	526.588	79.994	19.996	102.830	20.263	11.622	0.508
899.000	526.837	79.993	19.995	102.829	20.263	11.635	0.513
899.500	527.096	79.992	19.996	102.829	20.267	11.353	0.515
900.000	527.373	79.993	19.996	102.829	20.262	11.739	0.522
900.500	527.584	79.993	19.996	102.829	20.268	11.323	0.512
901.000	527.861	79.991	19.995	102.829	20.267	11.352	0.488
901.500	528.113	79.992	19.994	102.831	20.272	11.018	0.509
902.000	528.360	79.992	19.997	102.831	20.273	10.956	0.515
902.500	528.613	79.992	19.995	102.831	20.274	10.854	0.500
903.000	528.912	79.991	19.996	102.831	20.274	10.908	0.526
903.500	529.109	79.992	19.996	102.832	20.278	10.610	0.524
904.000	529.388	79.991	19.995	102.832	20.281	10.388	0.486
904.500	529.637	79.993	19.997	102.832	20.282	10.355	0.502
905.000	529.873	79.990	19.997	102.832	20.282	10.332	0.506
905.500	530.183	79.993	19.996	102.832	20.282	10.320	0.516
906.000	530.374	79.991	19.996	102.831	20.285	10.131	0.524
906.500	530.668	79.992	19.995	102.831	20.285	10.094	0.493
907.000	530.925	79.992	19.996	102.829	20.288	9.905	0.518
907.500	531.158	79.991	19.995	102.827	20.288	9.884	0.520
908.000	531.409	79.992	19.995	102.827	20.287	9.949	0.487
908.500	531.655	79.993	19.996	102.827	20.292	9.646	0.491
909.000	531.943	79.991	19.996	102.827	20.294	9.485	0.515
909.500	532.148	79.994	19.995	102.830	20.293	9.562	0.513
910.000	532.434	79.991	19.996	102.830	20.295	9.410	0.492
910.500	532.679	79.992	19.996	102.827	20.299	9.131	0.511
911.000	532.934	79.993	19.995	102.825	20.297	9.276	0.516
911.500	533.159	79.994	19.996	102.824	20.295	9.398	0.490
912.000	533.451	79.994	19.996	102.824	20.301	8.988	0.498
912.500	533.678	79.995	19.995	102.824	20.304	8.754	0.518
913.000	533.927	79.994	19.996	102.827	20.302	8.945	0.498
913.500	534.208	79.994	19.996	102.829	20.303	8.855	0.503
914.000	534.470	79.994	19.995	102.828	20.304	8.810	0.536
914.500	534.708	79.994	19.995	102.827	20.305	8.719	0.522
915.000	534.959	79.994	19.995	102.826	20.303	8.833	0.495
915.500	535.230	79.995	19.995	102.826	20.303	8.841	0.505
916.000	535.499	79.995	19.995	102.826	20.305	8.684	0.531
916.500	535.743	79.994	19.996	102.826	20.309	8.466	0.527
917.000	535.994	79.994	19.995	102.827	20.309	8.435	0.504
917.500	536.243	79.994	19.995	102.829	20.310	8.386	0.497
918.000	536.531	79.995	19.995	102.830	20.311	8.321	0.518
918.500	536.775	79.993	19.995	102.830	20.312	8.214	0.535
919.000	536.973	79.997	19.996	102.829	20.313	8.187	0.487
919.500	537.251	79.994	19.995	102.828	20.314	8.083	0.459
920.000	537.478	79.994	19.996	102.825	20.318	7.824	0.490
920.500	537.713	79.994	19.994	102.825	20.318	7.838	0.484
921.000	537.992	79.994	19.995	102.825	20.317	7.878	0.488
921.500	538.250	79.994	19.995	102.826	20.316	7.932	0.525
922.000	538.489	79.993	19.996	102.826	20.320	7.693	0.517
922.500	538.771	79.995	19.995	102.827	20.317	7.897	0.509
923.000	539.008	79.994	19.995	102.825	20.322	7.563	0.520
923.500	539.228	79.994	19.995	102.824	20.320	7.698	0.488
924.000	539.483	79.994	19.996	102.824	20.321	7.621	0.466
924.500	539.786	79.994	19.996	102.824	20.321	7.577	0.516
925.000	540.015	79.993	19.996	102.825	20.320	7.698	0.544
925.501	540.295	79.993	19.995	102.826	20.324	7.376	0.520
926.000	540.540	79.994	19.996	102.825	20.324	7.416	0.517
926.500	540.774	79.993	19.997	102.822	20.326	7.265	0.502
927.000	541.027	79.993	19.995	102.821	20.325	7.335	0.483
927.500	541.282	79.993	19.995	102.820	20.327	7.186	0.498
928.000	541.522	79.993	19.996	102.818	20.328	7.081	0.502
928.500	541.769	79.993	19.996	102.820	20.328	7.117	0.491
929.000	542.048	79.993	19.996	102.821	20.330	6.962	0.507
929.500	542.257	79.991	19.995	102.819	20.329	7.049	0.507
930.000	542.509	79.992	19.996	102.820	20.332	6.853	0.474
930.500	542.766	79.992	19.996	102.822	20.329	7.017	0.485
931.000	543.030	79.992	19.996	102.822	20.335	6.623	0.515
931.500	543.263	79.994	19.997	102.822	20.334	6.715	0.509
932.000	543.538	79.994	19.996	102.822	20.335	6.592	0.502
932.500	543.764	79.991	19.996	102.822	20.336	6.530	0.504
933.000	544.004	79.993	19.996	102.822	20.333	6.784	0.483
933.500	544.312	79.992	19.996	102.820	20.336	6.573	0.507
934.000	544.541	79.993	19.997	102.821	20.335	6.604	0.543
934.500	544.795	79.995	19.996	102.823	20.340	6.302	0.510
935.000	545.020	79.993	19.996	102.823	20.339	6.374	0.481
935.500	545.271	79.995	19.996	102.822	20.338	6.440	0.477
936.000	545.540	79.994	19.996	102.824	20.339	6.341	0.498
936.500	545.772	79.992	19.995	102.823	20.338	6.446	0.510
937.000	546.008	79.994	19.996	102.820	20.339	6.343	0.484
937.500	546.319	79.996	19.997	102.820	20.341	6.198	0.508
938.000	546.529	79.995	19.995	102.819	20.345	5.901	0.534
938.500	546.765	79.993	19.996	102.819	20.338	6.390	0.483
939.000	547.026	79.995	19.996	102.820	20.343	6.036	0.471
939.500	547.312	79.994	19.996	102.824	20.343	6.057	0.522
940.000	547.566	79.995	19.995	102.823	20.344	6.015	0.544
940.500	547.789	79.994	19.996	102.822	20.345	5.928	0.509
941.000	548.036	79.994	19.994	102.816	20.342	6.117	0.474
941.500	548.316	79.993	19.994	102.811	20.344	5.986	0.498
942.000	548.552	79.994	19.996	102.809	20.346	5.866	0.521
942.500	548.820	79.996	19.995	102.810	20.349	5.634	0.510
943.000	549.039	79.996	19.995	102.811	20.345	5.904	0.496
943.500	549.323	79.994	19.993	102.816	20.347	5.809	0.495
944.000	549.579	79.997	19.995	102.817	20.346	5.829	0.521
944.500	549.822	79.996	19.994	102.818	20.344	5.995	0.519
945.000	550.112	79.996	19.995	102.818	20.347	5.771	0.516
945.500	550.357	79.996	19.994	102.818	20.349	5.684	0.534
946.000	550.633	79.995	19.995	102.819	20.352	5.448	0.529
946.500	550.855	79.996	19.994	102.823	20.348	5.721	0.510
947.000	551.135	79.994	19.993	102.822	20.349	5.655	0.500
947.500	551.346	79.995	19.994	102.822	20.349	5.636	0.496
948.000	551.612	79.995	19.996	102.822	20.348	5.740	0.484
948.500	551.856	79.995	19.995	102.824	20.350	5.568	0.494
949.000	552.081	79.994	19.995	102.825	20.349	5.679	0.490
949.500	552.363	79.995	19.994	102.827	20.351	5.537	0.489
950.000	552.605	79.994	19.995	102.828	20.351	5.508	0.516
950.500	552.870	79.994	19.995	102.828	20.351	5.504	0.515
951.000	553.153	79.995	19.994	102.829	20.349	5.666	0.527
951.500	553.373	79.993	19.994	102.829	20.351	5.517	0.525
952.000	553.640	79.994	19.995	102.828	20.355	5.251	0.496
952.500	553.915	79.992	19.994	102.828	20.350	5.585	0.515
953.000	554.164	79.993	19.994	102.828	20.357	5.116	0.533
953.500	554.434	79.993	19.994	102.825	20.358	5.054	0.521
954.000	554.674	79.991	19.995	102.820	20.357	5.085	0.514
954.500	554.900	79.993	19.995	102.820	20.355	5.228	0.488
955.000	555.175	79.992	19.995	102.821	20.353	5.361	0.484
955.500	555.423	79.993	19.995	102.821	20.356	5.153	0.512
956.000	555.660	79.993	19.995	102.823	20.358	5.000	0.504
956.500	555.926	79.992	19.994	102.828	20.356	5.135	0.494
957.000	556.184	79.991	19.993	102.830	20.357	5.081	0.514
957.500	556.446	79.993	19.995	102.828	20.354	5.284	0.522
958.000	556.717	79.993	19.995	102.828	20.361	4.841	0.527
958.500	556.947	79.993	19.996	102.830	20.357	5.058	0.517
959.000	557.209	79.994	19.995	102.830	20.360	4.890	0.496
959.500	557.465	79.993	19.996	102.830	20.357	5.097	0.505
960.000	557.704	79.993	19.996	102.831	20.357	5.100	0.506
960.500	557.972	79.993	19.995	102.829	20.361	4.810	0.501
961.000	558.224	79.992	19.995	102.826	20.359	4.949	0.514
961.500	558.511	79.992	19.994	102.821	20.361	4.804	0.530
962.000	558.754	79.991	19.995	102.817	20.362	4.774	0.534
962.500	558.982	79.991	19.995	102.817	20.358	4.990	0.500
963.000	559.266	79.992	19.995	102.817	20.358	5.027	0.491
963.500	559.488	79.992	19.995	102.819	20.362	4.760	0.509
964.000	559.753	79.993	19.996	102.825	20.363	4.669	0.497
964.500	560.012	79.992	19.993	102.829	20.364	4.607	0.505
965.000	560.298	79.992	19.996	102.830	20.357	5.083	0.534
965.500	560.531	79.994	19.995	102.831	20.360	4.913	0.532
966.000	560.799	79.993	19.994	102.831	20.364	4.584	0.511
966.500	561.047	79.992	19.994	102.830	20.359	4.982	0.509
967.000	561.345	79.993	19.996	102.827	20.359	4.984	0.530
967.500	561.593	79.993	19.996	102.825	20.359	4.980	0.546
968.000	561.828	79.994	19.995	102.823	20.355	5.206	0.515
968.500	562.098	79.994	19.995	102.823	20.359	4.965	0.494
969.000	562.372	79.992	19.994	102.824	20.362	4.731	0.524
969.500	562.624	79.993	19.994	102.827	20.357	5.060	0.535
970.000	562.896	79.993	19.995	102.829	20.362	4.733	0.525
970.500	563.126	79.992	19.994	102.831	20.358	4.999	0.513
971.000	563.387	79.992	19.994	102.829	20.364	4.616	0.497
971.500	563.634	79.992	19.995	102.828	20.361	4.821	0.499
972.000	563.870	79.993	19.994	102.828	20.365	4.552	0.495
972.500	564.146	79.993	19.993	102.828	20.362	4.759	0.498
973.000	564.396	79.993	19.995	102.828	20.359	4.961	0.519
973.500	564.635	79.992	19.995	102.830	20.361	4.837	0.508
974.000	564.875	79.992	19.994	102.830	20.361	4.803	0.484
974.500	565.195	79.992	19.994	102.830	20.365	4.516	0.520
975.000	565.400	79.994	19.994	102.829	20.367	4.426	0.542
975.500	565.632	79.993	19.995	102.830	20.366	4.487	0.481
976.000	565.875	79.993	19.994	102.829	20.364	4.601	0.456
976.500	566.144	79.994	19.995	102.828	20.367	4.397	0.494
977.000	566.398	79.993	19.995	102.824	20.366	4.482	0.517
977.500	566.657	79.993	19.995	102.823	20.365	4.503	0.517
978.000	566.909	79.995	19.996	102.823	20.368	4.310	0.512
978.500	567.162	79.994	19.994	102.822	20.364	4.611	0.509
979.000	567.417	79.993	19.994	102.825	20.369	4.251	0.507
979.500	567.672	79.991	19.993	102.828	20.367	4.425	0.508
980.000	567.913	79.993	19.994	102.827	20.367	4.359	0.503
980.500	568.173	79.991	19.994	102.825	20.366	4.452	0.499
981.000	568.408	79.993	19.994	102.822	20.367	4.412	0.498
981.500	568.654	79.994	19.995	102.815	20.367	4.400	0.488
982.000	568.922	79.993	19.995	102.808	20.367	4.379	0.497
982.500	569.115	79.993	19.995	102.809	20.365	4.518	0.487
983.000	569.425	79.991	19.995	102.811	20.364	4.607	0.482
983.500	569.620	79.992	19.994	102.815	20.368	4.350	0.504
984.000	569.882	79.992	19.994	102.822	20.371	4.112	0.481
984.500	570.168	79.993	19.995	102.827	20.366	4.447	0.503
985.000	570.409	79.992	19.996	102.828	20.364	4.609	0.537
985.500	570.691	79.992	19.995	102.828	20.367	4.406	0.525
986.000	570.891	79.994	19.996	102.829	20.371	4.116	0.502
986.500	571.158	79.993	19.994	102.827	20.369	4.236	0.474
987.000	571.426	79.992	19.994	102.828	20.367	4.422	0.501
987.500	571.672	79.992	19.995	102.828	20.372	4.014	0.525
988.000	571.937	79.992	19.994	102.827	20.366	4.456	0.513
988.500	572.207	79.993	19.996	102.827	20.369	4.280	0.523
989.000	572.438	79.992	19.996	102.827	20.368	4.305	0.518
989.500	572.698	79.992	19.994	102.824	20.366	4.481	0.496
990.000	572.946	79.991	19.994	102.821	20.370	4.162	0.500
990.500	573.255	79.992	19.995	102.821	20.371	4.114	0.533
991.000	573.495	79.992	19.995	102.820	20.369	4.233	0.553
991.500	573.704	79.993	19.994	102.820	20.371	4.092	0.499
992.000	574.043	79.991	19.995	102.824	20.371	4.146	0.499
992.500	574.270	79.993	19.995	102.827	20.372	4.034	0.557
993.000	574.553	79.993	19.996	102.827	20.368	4.340	0.538
993.500	574.774	79.994	19.996	102.827	20.369	4.249	0.507
994.000	575.036	79.993	19.995	102.825	20.373	3.975	0.494
994.500	575.311	79.993	19.996	102.825	20.372	4.079	0.510
995.000	575.584	79.993	19.996	102.825	20.373	3.943	0.542
995.500	575.828	79.994	19.996	102.823	20.372	4.059	0.532
996.000	576.096	79.995	19.995	102.824	20.373	3.951	0.514
996.500	576.319	79.993	19.995	102.825	20.375	3.847	0.502
997.000	576.580	79.993	19.993	102.825	20.374	3.884	0.488
997.500	576.815	79.993	19.996	102.824	20.376	3.781	0.490
998.000	577.049	79.994	19.996	102.825	20.372	4.025	0.482
998.500	577.293	79.994	19.996	102.826	20.371	4.089	0.473
999.000	577.560	79.994	19.994	102.826	20.372	4.031	0.494
999.500	577.789	79.994	19.996	102.826	20.374	3.884	0.504
1000.000	578.105	79.995	19.995	102.824	20.369	4.226	0.521
1000.500	578.319	79.996	19.996	102.822	20.369	4.239	0.538
1001.000	578.542	79.995	19.994	102.820	20.372	4.077	0.483
1001.500	578.823	79.994	19.996	102.816	20.372	4.079	0.471
1002.000	579.061	79.994	19.996	102.810	20.373	3.957	0.512
1002.500	579.335	79.994	19.996	102.807	20.370	4.162	0.515
1003.000	579.559	79.993	19.995	102.809	20.375	3.856	0.505
1003.500	579.835	79.993	19.995	102.810	20.372	4.044	0.499
1004.000	580.091	79.994	19.996	102.812	20.369	4.255	0.516
1004.500	580.346	79.994	19.996	102.817	20.373	3.973	0.522
1005.000	580.555	79.995	19.996	102.816	20.372	4.023	0.488
1005.500	580.828	79.993	19.996	102.812	20.375	3.818	0.473
1006.000	581.083	79.992	19.996	102.807	20.376	3.780	0.504
1006.500	581.296	79.992	19.996	102.806	20.373	3.967	0.498
1007.000	581.560	79.994	19.996	102.805	20.375	3.849	0.472
1007.500	581.845	79.994	19.996	102.810	20.372	4.015	0.513
1008.000	582.101	79.993	19.994	102.810	20.373	4.002	0.545
1008.500	582.339	79.993	19.995	102.815	20.375	3.805	0.517
1009.000	582.609	79.994	19.995	102.819	20.376	3.758	0.501
1009.500	582.876	79.995	19.995	102.822	20.375	3.803	0.522
1010.000	583.108	79.994	19.996	102.819	20.375	3.820	0.518
1010.500	583.362	79.993	19.995	102.821	20.376	3.795	0.493
1011.000	583.581	79.994	19.997	102.819	20.372	4.038	0.480
1011.500	583.872	79.993	19.995	102.814	20.375	3.858	0.492
1012.000	584.115	79.993	19.996	102.810	20.375	3.820	0.522
1012.500	584.383	79.993	19.995	102.813	20.376	3.777	0.522
1013.000	584.587	79.992	19.995	102.812	20.373	3.962	0.491
1013.500	584.850	79.994	19.996	102.807	20.370	4.189	0.469
1014.000	585.092	79.994	19.995	102.806	20.374	3.935	0.486
1014.500	585.362	79.994	19.996	102.809	20.377	3.727	0.509
1015.000	585.587	79.994	19.997	102.809	20.372	4.013	0.503
1015.500	585.830	79.994	19.995	102.812	20.375	3.810	0.481
1016.000	586.133	79.994	19.996	102.820	20.375	3.839	0.507
1016.500	586.351	79.995	19.995	102.824	20.373	3.984	0.533
1017.000	586.565	79.993	19.995	102.821	20.374	3.909	0.477
1017.500	586.842	79.994	19.996	102.820	20.371	4.098	0.462
1018.000	587.095	79.995	19.995	102.819	20.374	3.872	0.511
1018.500	587.342	79.996	19.996	102.818	20.374	3.885	0.515
1019.000	587.604	79.995	19.996	102.819	20.376	3.737	0.504
1019.500	587.835	79.995	19.995	102.821	20.377	3.721	0.501
1020.000	588.083	79.995	19.996	102.820	20.374	3.938	0.486
1020.500	588.332	79.995	19.996	102.818	20.376	3.779	0.488
1021.000	588.583	79.993	19.995	102.816	20.376	3.764	0.498
1021.500	588.847	79.995	19.996	102.816	20.380	3.505	0.508
1022.000	589.112	79.994	19.995	102.812	20.374	3.882	0.522
1022.500	589.370	79.994	19.996	102.809	20.378	3.619	0.526
1023.000	589.624	79.995	19.995	102.808	20.377	3.677	0.517
1023.500	589.870	79.994	19.996	102.805	20.376	3.743	0.506
1024.000	590.087	79.994	19.996	102.801	20.375	3.841	0.481
1024.500	590.348	79.996	19.996	102.801	20.378	3.619	0.471
1025.000	590.605	79.994	19.995	102.801	20.380	3.511	0.498
1025.500	590.861	79.995	19.997	102.800	20.380	3.455	0.515
1026.000	591.114	79.993	19.994	102.800	20.374	3.890	0.511
1026.500	591.370	79.994	19.997	102.801	20.377	3.718	0.509
1027.000	591.593	79.995	19.995	102.804	20.376	3.791	0.494
1027.500	591.879	79.993	19.994	102.805	20.380	3.466	0.493
1028.000	592.127	79.995	19.995	102.808	20.378	3.611	0.521
1028.500	592.349	79.994	19.996	102.813	20.376	3.752	0.502
1029.000	592.653	79.995	19.997	102.816	20.377	3.691	0.498
1029.500	592.869	79.994	19.996	102.812	20.376	3.801	0.523
1030.001	593.101	79.994	19.996	102.814	20.375	3.847	0.484
1030.501	593.385	79.994	19.996	102.812	20.373	3.961	0.482
1031.000	593.652	79.993	19.995	102.811	20.374	3.880	0.533
1031.500	593.866	79.995	19.996	102.812	20.376	3.774	0.516
1032.000	594.116	79.991	19.995	102.818	20.375	3.826	0.473
1032.500	594.365	79.993	19.996	102.818	20.377	3.720	0.482
1033.000	594.640	79.992	19.994	102.819	20.373	3.969	0.512
1033.500	594.884	79.992	19.996	102.821	20.379	3.538	0.521
1034.000	595.165	79.991	19.994	102.822	20.378	3.639	0.522
1034.500	595.387	79.992	19.996	102.822	20.377	3.708	0.514
1035.000	595.666	79.992	19.995	102.821	20.379	3.563	0.501
1035.500	595.919	79.994	19.995	102.821	20.373	3.942	0.516
1036.000	596.179	79.992	19.996	102.821	20.377	3.720	0.523
1036.500	596.385	79.994	19.995	102.821	20.377	3.667	0.490
1037.000	596.648	79.994	19.994	102.822	20.378	3.600	0.467
1037.501	596.932	79.993	19.995	102.823	20.375	3.847	0.508
1038.001	597.158	79.993	19.996	102.822	20.374	3.915	0.528
1038.500	597.437	79.995	19.995	102.821	20.374	3.913	0.508
1039.000	597.654	79.994	19.996	102.820	20.375	3.828	0.501
1039.500	597.904	79.994	19.995	102.820	20.379	3.530	0.482
1040.000	598.172	79.993	19.996	102.819	20.372	4.062	0.493
1040.500	598.443	79.993	19.994	102.824	20.373	3.969	0.528
1041.000	598.686	79.992	19.994	102.824	20.376	3.764	0.526
1041.500	598.950	79.992	19.996	102.822	20.380	3.511	0.510
1042.000	599.175	79.993	19.995	102.821	20.381	3.422	0.497
1042.500	599.414	79.993	19.995	102.822	20.377	3.710	0.476
1043.000	599.636	79.994	19.996	102.820	20.379	3.549	0.463
1043.500	599.948	79.994	19.996	102.822	20.378	3.601	0.498
1044.000	600.179	79.992	19.995	102.824	20.377	3.719	0.538
1044.500	600.415	79.993	19.995	102.822	20.381	3.393	0.505
1045.000	600.676	79.993	19.995	102.824	20.377	3.692	0.482
1045.500	600.948	79.995	19.994	102.824	20.379	3.565	0.515
1046.000	601.206	79.993	19.995	102.824	20.374	3.919	0.532
1046.500	601.436	79.993	19.995	102.824	20.376	3.785	0.509
1047.000	601.680	79.993	19.994	102.824	20.380	3.474	0.481
1047.500	601.944	79.993	19.996	102.821	20.375	3.822	0.491
1048.000	602.189	79.993	19.996	102.817	20.376	3.783	0.508
1048.500	602.442	79.993	19.995	102.817	20.381	3.445	0.503
1049.000	602.701	79.994	19.996	102.817	20.379	3.555	0.505
1049.500	602.952	79.994	19.995	102.817	20.379	3.539	0.511
1050.000	603.193	79.994	19.995	102.819	20.378	3.661	0.501
1050.500	603.451	79.994	19.995	102.824	20.380	3.518	0.495
1051.000	603.687	79.993	19.995	102.823	20.379	3.559	0.497
1051.500	603.940	79.993	19.995	102.821	20.376	3.785	0.492
1052.000	604.206	79.993	19.995	102.818	20.376	3.793	0.504
1052.500	604.442	79.993	19.994	102.816	20.379	3.572	0.510
1053.000	604.712	79.994	19.994	102.812	20.375	3.833	0.504
1053.500	604.951	79.994	19.995	102.812	20.376	3.752	0.508
1054.000	605.208	79.993	19.995	102.815	20.371	4.083	0.503
1054.500	605.502	79.993	19.995	102.815	20.375	3.849	0.523
1055.000	605.692	79.994	19.995	102.815	20.376	3.743	0.517
1055.500	605.945	79.995	19.996	102.818	20.378	3.648	0.463
1056.000	606.226	79.993	19.996	102.818	20.379	3.567	0.488
1056.500	606.471	79.993	19.995	102.817	20.381	3.404	0.530
1057.000	606.733	79.994	19.995	102.820	20.380	3.464	0.517
1057.500	606.990	79.993	19.994	102.823	20.376	3.754	0.513
1058.000	607.263	79.994	19.994	102.821	20.380	3.507	0.525
1058.501	607.529	79.993	19.995	102.817	20.380	3.458	0.535
1059.001	607.742	79.994	19.995	102.813	20.380	3.505	0.509
1059.500	607.983	79.994	19.996	102.814	20.377	3.702	0.467
1060.000	608.234	79.993	19.996	102.814	20.379	3.561	0.474
1060.500	608.500	79.993	19.995	102.812	20.381	3.418	0.505
1061.000	608.742	79.994	19.995	102.814	20.379	3.561	0.512
1061.501	609.006	79.992	19.995	102.818	20.382	3.368	0.507
1062.001	609.243	79.993	19.996	102.812	20.383	3.267	0.503
1062.500	609.495	79.993	19.995	102.809	20.383	3.281	0.494
1063.000	609.775	79.993	19.996	102.809	20.382	3.377	0.511
1063.500	610.020	79.994	19.996	102.809	20.382	3.323	0.529
1064.000	610.260	79.994	19.995	102.804	20.383	3.276	0.505
1064.500	610.509	79.994	19.996	102.807	20.379	3.576	0.487
1065.000	610.774	79.994	19.996	102.811	20.382	3.340	0.501
1065.500	611.024	79.990	19.994	102.814	20.382	3.342	0.515
1066.000	611.280	79.994	19.995	102.815	20.378	3.601	0.511
1066.500	611.523	79.993	19.996	102.820	20.381	3.397	0.502
1067.000	611.775	79.992	19.995	102.821	20.383	3.298	0.497
1067.500	612.053	79.993	19.995	102.816	20.381	3.397	0.513
1068.000	612.255	79.992	19.995	102.812	20.383	3.285	0.505
1068.500	612.519	79.994	19.995	102.811	20.380	3.497	0.473
1069.000	612.789	79.992	19.995	102.812	20.381	3.418	0.500
1069.500	613.034	79.993	19.996	102.812	20.381	3.433	0.524
1070.000	613.314	79.993	19.995	102.812	20.382	3.354	0.520
1070.500	613.563	79.993	19.996	102.814	20.384	3.203	0.527
1071.000	613.798	79.993	19.995	102.815	20.380	3.512	0.507
1071.500	614.056	79.993	19.994	102.815	20.380	3.474	0.488
1072.000	614.342	79.994	19.995	102.816	20.380	3.485	0.518
1072.500	614.583	79.992	19.994	102.819	20.380	3.507	0.536
1073.000	614.850	79.993	19.995	102.819	20.379	3.582	0.518
1073.500	615.101	79.994	19.994	102.820	20.383	3.284	0.513
1074.000	615.328	79.992	19.995	102.813	20.387	2.988	0.498
1074.500	615.612	79.995	19.994	102.806	20.385	3.149	0.494
1075.000	615.875	79.993	19.995	102.803	20.384	3.226	0.529
1075.500	616.147	79.994	19.994	102.802	20.385	3.153	0.541
1076.000	616.396	79.995	19.995	102.804	20.378	3.629	0.528
1076.500	616.629	79.995	19.994	102.806	20.381	3.426	0.502
1077.000	616.882	79.994	19.994	102.815	20.380	3.507	0.484
1077.500	617.139	79.994	19.994	102.820	20.383	3.310	0.498
1078.000	617.363	79.995	19.995	102.824	20.381	3.428	0.496
1078.500	617.633	79.995	19.996	102.821	20.382	3.366	0.487
1079.000	617.889	79.994	19.995	102.818	20.381	3.441	0.510
1079.500	618.128	79.994	19.995	102.812	20.382	3.364	0.510
1080.000	618.400	79.995	19.995	102.808	20.381	3.387	0.503
1080.500	618.611	79.996	19.995	102.806	20.379	3.522	0.498
1081.000	618.895	79.996	19.994	102.807	20.382	3.377	0.489
1081.500	619.125	79.993	19.995	102.810	20.385	3.155	0.504
1082.000	619.386	79.996	19.996	102.813	20.386	3.037	0.502
1082.500	619.633	79.995	19.994	102.815	20.385	3.139	0.500
1083.000	619.879	79.994	19.995	102.813	20.381	3.425	0.501
1083.500	620.151	79.994	19.995	102.810	20.385	3.114	0.505
1084.000	620.400	79.996	19.996	102.807	20.384	3.205	0.520
1084.500	620.672	79.994	19.996	102.804	20.385	3.164	0.522
1085.000	620.929	79.995	19.995	102.806	20.383	3.251	0.525
1085.500	621.195	79.994	19.995	102.811	20.381	3.439	0.526
1086.000	621.394	79.993	19.995	102.813	20.385	3.116	0.494
1086.500	621.688	79.993	19.995	102.820	20.388	2.921	0.479
1087.000	621.905	79.994	19.995	102.824	20.383	3.275	0.502
1087.500	622.187	79.994	19.996	102.823	20.383	3.261	0.505
1088.000	622.440	79.992	19.996	102.823	20.382	3.364	0.517
1088.500	622.690	79.993	19.996	102.825	20.385	3.132	0.519
1089.000	622.929	79.994	19.995	102.822	20.383	3.296	0.496
1089.500	623.209	79.994	19.996	102.818	20.383	3.279	0.504
1090.001	623.464	79.993	19.996	102.819	20.386	3.095	0.527
1090.501	623.702	79.993	19.995	102.815	20.380	3.510	0.514
1091.000	623.970	79.993	19.995	102.809	20.378	3.605	0.500
1091.500	624.235	79.994	19.996	102.808	20.378	3.634	0.520
1092.000	624.498	79.993	19.996	102.807	20.384	3.239	0.531
1092.500	624.720	79.993	19.996	102.802	20.384	3.208	0.507
1093.000	624.982	79.994	19.995	102.802	20.381	3.450	0.484
1093.500	625.268	79.994	19.995	102.803	20.384	3.182	0.516
1094.000	625.481	79.995	19.995	102.800	20.382	3.313	0.524
1094.500	625.740	79.994	19.995	102.799	20.386	3.047	0.486
1095.000	625.994	79.993	19.997	102.798	20.387	3.033	0.493
1095.500	626.234	79.994	19.996	102.801	20.381	3.435	0.504
1096.000	626.493	79.993	19.995	102.802	20.381	3.414	0.497
1096.500	626.756	79.994	19.995	102.808	20.383	3.251	0.510
1097.000	627.016	79.993	19.994	102.812	20.382	3.332	0.522
1097.500	627.266	79.995	19.994	102.818	20.383	3.261	0.516
1098.000	627.511	79.995	19.994	102.818	20.382	3.375	0.502
1098.500	627.780	79.994	19.995	102.814	20.381	3.429	0.504
1099.001	628.022	79.994	19.995	102.815	20.384	3.181	0.513
1099.501	628.289	79.994	19.994	102.816	20.384	3.197	0.511
1100.000	628.536	79.994	19.995	102.814	20.382	3.346	0.512
1100.500	628.787	79.994	19.994	102.816	20.381	3.431	0.506
1101.000	629.083	79.994	19.995	102.817	20.382	3.342	0.522
1101.500	629.313	79.995	19.994	102.811	20.379	3.584	0.536
1102.000	629.537	79.994	19.994	102.805	20.382	3.377	0.490
1102.500	629.810	79.995	19.994	102.801	20.382	3.316	0.475
1103.000	630.062	79.995	19.994	102.796	20.383	3.308	0.511
1103.500	630.296	79.996	19.994	102.797	20.383	3.265	0.506
1104.000	630.549	79.996	19.994	102.801	20.383	3.296	0.487
1104.500	630.786	79.997	19.995	102.808	20.382	3.350	0.488
1105.000	631.071	79.994	19.994	102.814	20.386	3.075	0.506
1105.500	631.302	79.997	19.995	102.820	20.380	3.487	0.520
1106.000	631.538	79.996	19.995	102.822	20.385	3.121	0.492
1106.500	631.850	79.996	19.994	102.820	20.383	3.266	0.507
1107.000	632.057	79.996	19.995	102.816	20.384	3.241	0.533
1107.500	632.311	79.995	19.995	102.813	20.385	3.166	0.490
1108.000	632.598	79.996	19.994	102.807	20.385	3.162	0.501
1108.500	632.854	79.997	19.994	102.800	20.383	3.248	0.542
1109.000	633.113	79.996	19.996	102.804	20.383	3.296	0.529
1109.500	633.315	79.996	19.994	102.802	20.381	3.423	0.488
1110.000	633.604	79.995	19.996	102.799	20.380	3.472	0.476
1110.500	633.861	79.995	19.995	102.801	20.382	3.330	0.518
1111.000	634.101	79.996	19.995	102.806	20.384	3.218	0.522
1111.500	634.363	79.995	19.996	102.807	20.381	3.382	0.500
1112.000	634.656	79.995	19.996	102.813	20.385	3.133	0.528
1112.500	634.926	79.994	19.996	102.819	20.383	3.247	0.559
1113.000	635.147	79.994	19.996	102.820	20.381	3.384	0.527
1113.500	635.411	79.994	19.995	102.820	20.380	3.493	0.488
1114.000	635.677	79.993	19.997	102.815	20.382	3.331	0.508
1114.500	635.933	79.994	19.996	102.812	20.383	3.276	0.526
1115.000	636.159	79.993	19.995	102.807	20.384	3.197	0.501
1115.500	636.420	79.993	19.996	102.806	20.385	3.112	0.484
1116.000	636.689	79.993	19.995	102.800	20.386	3.091	0.509
1116.500	636.922	79.994	19.996	102.799	20.383	3.243	0.516
1117.000	637.214	79.993	19.995	102.796	20.383	3.288	0.513
1117.500	637.470	79.992	19.996	102.796	20.381	3.404	0.536
1118.000	637.702	79.992	19.996	102.798	20.383	3.263	0.518
1118.500	637.963	79.994	19.996	102.804	20.381	3.425	0.491
1119.000	638.212	79.993	19.996	102.810	20.380	3.496	0.501
1119.500	638.460	79.993	19.995	102.812	20.381	3.400	0.503
1120.000	638.725	79.992	19.996	102.811	20.380	3.460	0.505
1120.500	638.956	79.993	19.997	102.810	20.381	3.437	0.504
1121.000	639.236	79.992	19.996	102.805	20.382	3.338	0.503
1121.500	639.501	79.992	19.996	102.799	20.384	3.232	0.528
1122.000	639.731	79.994	19.996	102.799	20.385	3.162	0.520
1122.500	640.012	79.994	19.995	102.798	20.387	3.023	0.503
1123.000	640.242	79.993	19.997	102.797	20.380	3.456	0.511
1123.500	640.518	79.993	19.996	102.796	20.385	3.170	0.508
1124.000	640.743	79.993	19.996	102.801	20.377	3.665	0.504
1124.500	640.990	79.993	19.995	102.802	20.385	3.118	0.487
1125.000	641.260	79.993	19.996	102.808	20.384	3.232	0.495
1125.500	641.555	79.993	19.995	102.807	20.381	3.398	0.541
1126.000	641.770	79.993	19.997	102.805	20.381	3.387	0.537
1126.500	642.048	79.993	19.996	102.803	20.384	3.193	0.501
1127.000	642.280	79.994	19.995	102.803	20.382	3.357	0.501
1127.500	642.528	79.994	19.995	102.798	20.384	3.239	0.495
1128.000	642.848	79.994	19.995	102.797	20.384	3.174	0.524
1128.500	643.106	79.994	19.995	102.797	20.385	3.153	0.574
1129.000	643.305	79.994	19.997	102.795	20.383	3.272	0.517
1129.500	643.586	79.995	19.995	102.791	20.381	3.439	0.468
1130.000	643.859	79.996	19.996	102.796	20.380	3.491	0.517
1130.500	644.067	79.993	19.996	102.802	20.384	3.228	0.517
1131.000	644.319	79.995	19.996	102.802	20.380	3.464	0.470
1131.500	644.586	79.994	19.994	102.803	20.384	3.226	0.490
1132.000	644.853	79.995	19.996	102.804	20.383	3.276	0.527
1132.500	645.101	79.993	19.995	102.799	20.381	3.394	0.525
1133.000	645.364	79.993	19.994	102.795	20.388	2.946	0.513
1133.500	645.619	79.994	19.995	102.800	20.386	3.093	0.515
1134.000	645.877	79.994	19.995	102.802	20.382	3.317	0.515
1134.500	646.093	79.995	19.994	102.804	20.383	3.245	0.493
1135.000	646.415	79.995	19.996	102.808	20.384	3.215	0.506
1135.500	646.669	79.994	19.995	102.811	20.385	3.122	0.557
1136.000	646.876	79.994	19.994	102.808	20.386	3.041	0.519
1136.500	647.180	79.994	19.995	102.806	20.382	3.319	0.486
1137.000	647.399	79.994	19.995	102.806	20.382	3.356	0.517
1137.500	647.699	79.993	19.995	102.800	20.383	3.254	0.521
1138.000	647.930	79.994	19.994	102.797	20.383	3.310	0.525
1138.500	648.207	79.995	19.994	102.796	20.384	3.240	0.520
1139.000	648.470	79.995	19.995	102.801	20.387	3.025	0.524
1139.500	648.740	79.995	19.996	102.800	20.384	3.205	0.536
1140.001	648.964	79.994	19.994	102.805	20.386	3.100	0.514
1140.501	649.225	79.995	19.995	102.807	20.387	2.975	0.490
1141.000	649.494	79.994	19.995	102.807	20.382	3.369	0.507
1141.500	649.755	79.993	19.996	102.805	20.386	3.035	0.530
1142.000	650.036	79.993	19.995	102.807	20.385	3.104	0.536
1142.500	650.295	79.993	19.994	102.807	20.386	3.046	0.541
1143.000	650.558	79.993	19.995	102.807	20.384	3.220	0.531
1143.500	650.801	79.994	19.995	102.808	20.387	3.002	0.514
1144.000	651.093	79.993	19.995	102.805	20.386	3.069	0.521
1144.500	651.309	79.992	19.995	102.806	20.386	3.058	0.522
1145.000	651.567	79.993	19.995	102.803	20.386	3.035	0.491
1145.500	651.819	79.994	19.994	102.803	20.387	3.029	0.492
1146.000	652.103	79.992	19.995	102.810	20.384	3.180	0.523
1146.500	652.381	79.993	19.995	102.815	20.387	3.017	0.549
1147.000	652.646	79.992	19.995	102.815	20.391	2.729	0.553
1147.500	652.868	79.993	19.995	102.822	20.388	2.925	0.515
1148.000	653.131	79.992	19.994	102.823	20.391	2.714	0.486
1148.500	653.437	79.992	19.994	102.818	20.390	2.789	0.527
1149.000	653.627	79.993	19.994	102.814	20.386	3.052	0.533
1149.500	653.913	79.993	19.995	102.810	20.385	3.119	0.486
1150.000	654.168	79.994	19.996	102.805	20.384	3.239	0.509
1150.500	654.417	79.992	19.996	102.799	20.385	3.133	0.523
1151.000	654.672	79.993	19.994	102.796	20.387	2.965	0.504
1151.500	654.919	79.994	19.996	102.796	20.385	3.172	0.503
1152.000	655.205	79.994	19.995	102.798	20.388	2.961	0.518
1152.500	655.460	79.992	19.995	102.797	20.384	3.189	0.537
1153.000	655.731	79.994	19.995	102.797	20.382	3.336	0.533
1153.500	655.959	79.992	19.995	102.800	20.384	3.195	0.512
1154.000	656.244	79.993	19.995	102.798	20.381	3.425	0.506
1154.500	656.493	79.993	19.995	102.798	20.384	3.228	0.524
1155.000	656.762	79.993	19.994	102.800	20.383	3.296	0.526
1155.500	656.966	79.993	19.995	102.803	20.383	3.255	0.495
1156.000	657.243	79.993	19.995	102.802	20.385	3.122	0.477
1156.500	657.460	79.992	19.994	102.807	20.379	3.553	0.488
1157.000	657.707	79.995	19.995	102.811	20.383	3.247	0.480
1157.500	657.997	79.994	19.995	102.808	20.381	3.391	0.501
1158.000	658.249	79.993	19.994	102.807	20.381	3.394	0.539
1158.500	658.496	79.994	19.994	102.805	20.384	3.222	0.521
1159.000	658.762	79.994	19.996	102.800	20.383	3.299	0.506
1159.500	659.006	79.994	19.995	102.794	20.385	3.166	0.511
1160.000	659.261	79.994	19.994	102.794	20.388	2.926	0.504
1160.500	659.521	79.996	19.995	102.795	20.383	3.278	0.507
1161.000	659.721	79.993	19.995	102.800	20.389	2.874	0.488
1161.500	660.004	79.994	19.994	102.801	20.387	2.992	0.472
1162.000	660.245	79.995	19.995	102.801	20.386	3.046	0.503
1162.500	660.512	79.994	19.994	102.803	20.387	2.989	0.515
1163.000	660.762	79.994	19.995	102.801	20.386	3.064	0.512
1163.500	660.950	79.995	19.994	102.797	20.385	3.134	0.478
1164.000	661.193	79.995	19.995	102.797	20.382	3.329	0.434
1164.500	661.458	79.994	19.994	102.799	20.381	3.448	0.470
1165.000	661.725	79.995	19.995	102.798	20.384	3.193	0.520
1165.500	661.977	79.995	19.995	102.800	20.383	3.274	0.525
1166.000	662.226	79.995	19.994	102.800	20.386	3.102	0.510
1166.500	662.492	79.995	19.995	102.805	20.385	3.148	0.508
1167.000	662.721	79.994	19.993	102.807	20.384	3.199	0.505
1167.500	662.963	79.996	19.995	102.808	20.388	2.907	0.483
1168.000	663.219	79.992	19.994	102.806	20.388	2.926	0.485
1168.500	663.432	79.993	19.994	102.808	20.387	2.996	0.484
1169.000	663.677	79.994	19.995	102.802	20.385	3.156	0.463
1169.500	663.930	79.994	19.994	102.796	20.387	2.976	0.478
1170.000	664.165	79.994	19.995	102.795	20.387	3.005	0.494
1170.500	664.429	79.995	19.993	102.794	20.385	3.166	0.493
1171.000	664.676	79.994	19.994	102.792	20.388	2.901	0.504
1171.501	664.929	79.993	19.994	102.793	20.386	3.089	0.505
1172.001	665.185	79.994	19.993	102.796	20.384	3.203	0.505
1172.500	665.436	79.993	19.995	102.804	20.388	2.945	0.508
1173.000	665.656	79.993	19.993	102.809	20.386	3.090	0.489
1173.500	665.933	79.995	19.993	102.815	20.382	3.380	0.484
1174.000	666.185	79.993	19.994	102.818	20.389	2.893	0.513
1174.500	666.460	79.995	19.993	102.820	20.387	3.000	0.528
1175.000	666.684	79.994	19.994	102.813	20.385	3.104	0.513
1175.500	666.928	79.995	19.995	102.806	20.392	2.671	0.483
1176.000	667.199	79.994	19.994	102.801	20.387	2.980	0.492
1176.500	667.398	79.994	19.995	102.799	20.388	2.916	0.493
1177.000	667.699	79.993	19.995	102.794	20.383	3.251	0.485
1177.500	667.936	79.993	19.995	102.793	20.386	3.071	0.519
1178.001	668.209	79.993	19.994	102.797	20.388	2.961	0.524
1178.501	668.433	79.992	19.994	102.795	20.384	3.239	0.503
1179.000	668.686	79.994	19.995	102.794	20.385	3.118	0.487
1179.500	668.925	79.995	19.996	102.794	20.383	3.278	0.485
1180.000	669.163	79.994	19.994	102.794	20.386	3.046	0.485
1180.500	669.450	79.994	19.995	102.790	20.390	2.766	0.501
1181.000	669.679	79.994	19.996	102.790	20.388	2.914	0.520
1181.500	669.947	79.994	19.995	102.794	20.387	2.996	0.506
1182.001	670.188	79.995	19.995	102.794	20.384	3.230	0.503
1182.501	670.443	79.993	19.995	102.794	20.385	3.137	0.503
1183.000	670.689	79.995	19.995	102.793	20.383	3.276	0.498
1183.500	670.910	79.993	19.994	102.793	20.387	3.029	0.484
1184.000	671.178	79.995	19.994	102.789	20.383	3.307	0.478
1184.500	671.459	79.995	19.997	102.789	20.385	3.164	0.519
1185.000	671.695	79.994	19.996	102.789	20.386	3.065	0.533
1185.500	671.934	79.996	19.996	102.790	20.388	2.907	0.496
1186.000	672.174	79.994	19.994	102.791	20.388	2.899	0.477
1186.500	672.406	79.997	19.995	102.791	20.388	2.957	0.476
1187.000	672.708	79.996	19.994	102.790	20.388	2.961	0.503
1187.500	672.899	79.995	19.995	102.789	20.385	3.127	0.513
1188.000	673.165	79.996	19.996	102.790	20.384	3.189	0.475
1188.500	673.410	79.996	19.995	102.797	20.389	2.865	0.484
1189.000	673.687	79.995	19.994	102.797	20.385	3.106	0.517
1189.500	673.931	79.996	19.995	102.800	20.385	3.135	0.522
1190.000	674.188	79.996	19.997	102.801	20.383	3.284	0.511
1190.501	674.459	79.995	19.994	102.798	20.385	3.137	0.514
1191.001	674.676	79.995	19.994	102.790	20.385	3.108	0.508
1191.500	674.941	79.995	19.994	102.789	20.383	3.267	0.485
1192.000	675.201	79.996	19.995	102.788	20.379	3.533	0.503
1192.500	675.426	79.994	19.994	102.790	20.384	3.199	0.505
1193.000	675.732	79.995	19.994	102.792	20.384	3.174	0.508
1193.500	675.952	79.996	19.994	102.794	20.380	3.518	0.528
1194.000	676.179	79.994	19.995	102.795	20.384	3.239	0.486
1194.500	676.423	79.995	19.995	102.796	20.387	2.998	0.459
1195.000	676.684	79.993	19.995	102.796	20.377	3.730	0.488
1195.500	676.956	79.995	19.995	102.795	20.382	3.348	0.519
1196.000	677.175	79.994	19.995	102.794	20.385	3.166	0.512
1196.500	677.412	79.993	19.995	102.794	20.389	2.843	0.474
1197.001	677.681	79.993	19.995	102.791	20.386	3.093	0.481
1197.501	677.976	79.993	19.996	102.788	20.387	3.019	0.536
1198.000	678.182	79.993	19.994	102.789	20.383	3.305	0.533
1198.500	678.437	79.992	19.994	102.794	20.388	2.911	0.481
1199.000	678.675	79.992	19.996	102.801	20.389	2.866	0.477
1199.500	678.959	79.993	19.996	102.804	20.383	3.278	0.508
1200.000	679.191	79.992	19.995	102.808	20.386	3.061	0.519
1200.500	679.452	79.994	19.995	102.811	20.386	3.052	0.504
1201.000	679.696	79.993	19.996	102.806	20.385	3.172	0.499
1201.500	679.971	79.993	19.994	102.800	20.382	3.373	0.512
1202.000	680.196	79.994	19.995	102.801	20.381	3.444	0.509
1202.500	680.501	79.993	19.995	102.799	20.384	3.193	0.515
1203.000	680.704	79.993	19.996	102.795	20.381	3.423	0.519
1203.500	680.953	79.992	19.995	102.795	20.383	3.264	0.480
1204.000	681.234	79.992	19.996	102.796	20.383	3.297	0.491
1204.500	681.475	79.993	19.995	102.794	20.377	3.698	0.526
1205.000	681.709	79.992	19.994	102.792	20.386	3.083	0.498
1205.500	681.972	79.993	19.997	102.792	20.386	3.093	0.486
1206.000	682.215	79.993	19.996	102.793	20.384	3.210	0.502
1206.500	682.455	79.991	19.996	102.796	20.384	3.195	0.495
1207.000	682.715	79.992	19.996	102.797	20.384	3.237	0.492
1207.500	682.927	79.993	19.996	102.797	20.382	3.328	0.486
1208.000	683.227	79.993	19.996	102.797	20.381	3.383	0.492
1208.500	683.456	79.992	19.996	102.796	20.381	3.417	0.521
1209.000	683.757	79.992	19.995	102.791	20.386	3.100	0.529
1209.500	683.996	79.992	19.996	102.790	20.387	3.029	0.534
1210.000	684.263	79.993	19.996	102.790	20.384	3.177	0.523
1210.500	684.480	79.992	19.996	102.789	20.386	3.092	0.495
1211.000	684.737	79.993	19.996	102.790	20.387	3.007	0.479
1211.500	684.989	79.992	19.997	102.793	20.382	3.367	0.492
1212.000	685.296	79.991	19.995	102.794	20.380	3.452	0.534
1212.500	685.550	79.993	19.996	102.794	20.376	3.779	0.560
1213.000	685.809	79.993	19.997	102.794	20.379	3.572	0.537
1213.500	686.032	79.992	19.995	102.793	20.381	3.423	0.497
1214.000	686.282	79.993	19.996	102.792	20.380	3.510	0.478
1214.500	686.540	79.991	19.996	102.796	20.380	3.454	0.491
1215.000	686.797	79.992	19.996	102.797	20.380	3.479	0.511
1215.500	687.041	79.992	19.994	102.799	20.377	3.707	0.508
1216.000	687.287	79.992	19.996	102.799	20.383	3.295	0.496
1216.500	687.526	79.992	19.996	102.798	20.377	3.701	0.488
1217.000	687.783	79.991	19.994	102.793	20.378	3.661	0.491
1217.500	688.037	79.993	19.996	102.791	20.381	3.389	0.503
1218.000	688.301	79.992	19.995	102.791	20.385	3.120	0.514
1218.500	688.538	79.991	19.995	102.799	20.382	3.356	0.509
1219.000	688.805	79.993	19.995	102.801	20.386	3.064	0.502
1219.500	689.087	79.992	19.996	102.803	20.382	3.315	0.527
1220.000	689.358	79.992	19.996	102.804	20.380	3.475	0.551
1220.500	689.590	79.992	19.997	102.802	20.378	3.614	0.529
1221.000	689.842	79.992	19.994	102.795	20.381	3.392	0.494
1221.500	690.083	79.993	19.995	102.794	20.384	3.226	0.489
1222.000	690.333	79.995	19.996	102.792	20.384	3.201	0.492
1222.500	690.584	79.994	19.996	102.792	20.380	3.473	0.495
1223.000	690.880	79.994	19.994	102.794	20.381	3.441	0.524
1223.500	691.111	79.994	19.995	102.795	20.379	3.568	0.537
1224.000	691.347	79.992	19.994	102.796	20.385	3.104	0.497
1224.500	691.608	79.991	19.995	102.797	20.387	3.019	0.482
1225.000	691.861	79.993	19.994	102.797	20.386	3.083	0.505
1225.500	692.101	79.993	19.996	102.797	20.381	3.450	0.504
1226.000	692.336	79.992	19.994	102.797	20.391	2.729	0.484
1226.500	692.614	79.992	19.994	102.797	20.381	3.439	0.494
1227.000	692.854	79.991	19.995	102.798	20.385	3.164	0.515
1227.500	693.133	79.992	19.995	102.800	20.384	3.203	0.519
1228.000	693.338	79.992	19.993	102.803	20.379	3.547	0.501
1228.500	693.619	79.991	19.995	102.807	20.388	2.948	0.484
1229.000	693.864	79.991	19.996	102.807	20.382	3.313	0.506
1229.500	694.132	79.990	19.994	102.805	20.389	2.853	0.520
1230.000	694.336	79.992	19.995	102.803	20.379	3.549	0.493
1230.500	694.616	79.990	19.995	102.799	20.383	3.276	0.478
1231.000	694.883	79.991	19.994	102.794	20.389	2.878	0.515
1231.500	695.157	79.993	19.995	102.793	20.384	3.222	0.544
1232.000	695.368	79.993	19.997	102.793	20.381	3.413	0.513
1232.500	695.621	79.994	19.996	102.793	20.378	3.628	0.474
1233.000	695.931	79.992	19.996	102.797	20.382	3.348	0.513
1233.500	696.169	79.992	19.994	102.801	20.378	3.628	0.556
1234.000	696.415	79.992	19.994	102.802	20.384	3.228	0.516
1234.500	696.686	79.992	19.995	102.802	20.379	3.588	0.500
1235.000	696.917	79.992	19.995	102.801	20.382	3.377	0.510
1235.500	697.200	79.992	19.994	102.798	20.379	3.547	0.508
1236.000	697.439	79.994	19.995	102.796	20.381	3.384	0.518
1236.500	697.701	79.995	19.994	102.797	20.378	3.635	0.511
1237.000	697.942	79.993	19.996	102.803	20.381	3.386	0.502
1237.500	698.194	79.994	19.995	102.805	20.380	3.459	0.498
1238.000	698.441	79.993	19.995	102.804	20.380	3.481	0.496
1238.500	698.736	79.993	19.995	102.806	20.382	3.376	0.521
1239.000	698.932	79.994	19.994	102.803	20.377	3.703	0.517
1239.500	699.226	79.994	19.994	102.798	20.384	3.228	0.491
1240.000	699.476	79.995	19.995	102.797	20.383	3.278	0.517
1240.500	699.697	79.994	19.996	102.797	20.383	3.311	0.507
1241.000	700.025	79.994	19.995	102.794	20.382	3.328	0.510
1241.500	700.231	79.996	19.995	102.794	20.382	3.369	0.541
1242.000	700.477	79.996	19.995	102.793	20.379	3.566	0.493
1242.500	700.746	79.995	19.995	102.791	20.382	3.378	0.483
1243.000	700.984	79.995	19.995	102.791	20.385	3.168	0.511
1243.500	701.249	79.994	19.996	102.798	20.386	3.046	0.505
1244.000	701.501	79.995	19.994	102.804	20.381	3.434	0.510
1244.500	701.770	79.994	19.994	102.811	20.383	3.280	0.519
1245.000	701.945	79.995	19.996	102.813	20.387	2.970	0.483
1245.500	702.242	79.994	19.995	102.812	20.378	3.629	0.458
1246.000	702.511	79.993	19.995	102.805	20.380	3.496	0.519
1246.500	702.732	79.994	19.994	102.799	20.385	3.119	0.528
1247.000	702.998	79.995	19.995	102.791	20.388	2.938	0.489
1247.500	703.261	79.993	19.995	102.789	20.382	3.378	0.508
1248.000	703.504	79.995	19.994	102.788	20.384	3.220	0.517
1248.500	703.770	79.995	19.996	102.788	20.378	3.614	0.508
1249.000	704.013	79.995	19.996	102.789	20.382	3.338	0.509
1249.501	704.267	79.993	19.994	102.789	20.383	3.270	0.503
1250.001	704.511	79.994	19.997	102.788	20.381	3.403	0.498
1250.500	704.778	79.993	19.993	102.789	20.386	3.042	0.504
1251.000	705.010	79.994	19.995	102.789	20.382	3.332	0.505
1251.500	705.276	79.994	19.995	102.790	20.386	3.083	0.499
1252.000	705.508	79.993	19.996	102.790	20.381	3.398	0.498
1252.500	705.764	79.994	19.995	102.791	20.381	3.396	0.493
1253.000	706.014	79.994	19.995	102.790	20.378	3.655	0.497
1253.500	706.281	79.994	19.996	102.790	20.384	3.220	0.512
1254.000	706.525	79.994	19.995	102.789	20.380	3.496	0.514
1254.500	706.786	79.993	19.995	102.788	20.384	3.195	0.507
1255.000	707.031	79.993	19.994	102.788	20.380	3.460	0.505
1255.500	707.285	79.994	19.994	102.787	20.385	3.150	0.503
1256.000	707.530	79.993	19.996	102.787	20.380	3.456	0.499
1256.500	707.808	79.994	19.996	102.787	20.378	3.606	0.511
1257.000	708.038	79.993	19.994	102.787	20.379	3.558	0.516
1257.500	708.305	79.995	19.995	102.787	20.375	3.850	0.502
1258.000	708.582	79.993	19.993	102.788	20.388	2.961	0.520
1258.501	708.837	79.993	19.994	102.789	20.386	3.042	0.538
1259.001	709.086	79.993	19.995	102.789	20.377	3.720	0.518
1259.500	709.329	79.994	19.995	102.790	20.384	3.233	0.498
1260.000	709.557	79.993	19.995	102.791	20.385	3.129	0.482
1260.500	709.794	79.996	19.997	102.791	20.384	3.206	0.468
1261.000	710.028	79.994	19.995	102.791	20.383	3.282	0.468
1261.500	710.260	79.994	19.994	102.791	20.377	3.682	0.468
1262.000	710.580	79.994	19.993	102.790	20.382	3.374	0.510
1262.500	710.783	79.995	19.994	102.789	20.381	3.386	0.538
1263.000	711.056	79.995	19.994	102.791	20.380	3.492	0.500
1263.500	711.296	79.994	19.995	102.790	20.380	3.487	0.495
1264.000	711.545	79.996	19.996	102.791	20.380	3.504	0.501
1264.500	711.800	79.996	19.995	102.792	20.380	3.514	0.496
1265.000	712.061	79.996	19.994	102.792	20.378	3.630	0.509
1265.500	712.312	79.996	19.995	102.790	20.380	3.492	0.514
1266.000	712.583	79.994	19.995	102.791	20.383	3.290	0.517
1266.500	712.804	79.997	19.995	102.790	20.386	3.052	0.507
1267.000	713.069	79.995	19.993	102.789	20.376	3.786	0.489
1267.500	713.306	79.994	19.994	102.788	20.380	3.471	0.494
1268.000	713.545	79.994	19.993	102.789	20.384	3.179	0.489
1268.500	713.793	79.995	19.994	102.788	20.379	3.548	0.482
1269.000	714.038	79.995	19.993	102.788	20.377	3.705	0.490
1269.500	714.252	79.995	19.995	102.788	20.383	3.251	0.476
1270.000	714.522	79.994	19.994	102.789	20.381	3.396	0.471
1270.501	714.734	79.996	19.995	102.793	20.383	3.301	0.483
1271.001	715.033	79.993	19.994	102.793	20.380	3.454	0.496
1271.500	715.293	79.994	19.994	102.793	20.381	3.396	0.535
1272.000	715.538	79.995	19.997	102.793	20.387	2.992	0.532
1272.500	715.800	79.996	19.996	102.792	20.383	3.307	0.506
1273.000	716.072	79.995	19.995	102.790	20.384	3.203	0.520
1273.500	716.311	79.995	19.994	102.790	20.382	3.349	0.522
1274.000	716.527	79.993	19.994	102.790	20.384	3.218	0.483
1274.500	716.834	79.994	19.994	102.790	20.380	3.492	0.489
1275.000	717.104	79.992	19.995	102.790	20.388	2.940	0.550
1275.500	717.313	79.993	19.995	102.790	20.381	3.396	0.527
1276.000	717.530	79.993	19.995	102.790	20.384	3.195	0.452
1276.500	717.782	79.993	19.995	102.792	20.384	3.206	0.448
1277.000	718.043	79.995	19.997	102.793	20.387	3.023	0.491
1277.500	718.290	79.993	19.995	102.793	20.387	2.994	0.510
1278.000	718.523	79.992	19.995	102.793	20.386	3.100	0.494
1278.500	718.754	79.992	19.996	102.793	20.378	3.610	0.472
1279.000	719.026	79.992	19.996	102.791	20.383	3.297	0.483
1279.500	719.274	79.993	19.995	102.792	20.382	3.324	0.511
1280.001	719.526	79.993	19.996	102.792	20.382	3.363	0.510
1280.501	719.776	79.991	19.996	102.792	20.382	3.315	0.501
1281.000	720.016	79.991	19.994	102.793	20.382	3.344	0.496
1281.500	720.236	79.992	19.996	102.792	20.380	3.475	0.475
1282.000	720.482	79.993	19.994	102.791	20.382	3.349	0.463
1282.500	720.741	79.991	19.994	102.791	20.387	2.971	0.486
1283.000	721.006	79.991	19.994	102.791	20.382	3.320	0.514
1283.500	721.231	79.993	19.995	102.791	20.380	3.463	0.507
1284.000	721.481	79.992	19.996	102.793	20.379	3.558	0.482
1284.500	721.732	79.992	19.996	102.793	20.377	3.717	0.488
1285.000	722.016	79.992	19.995	102.793	20.381	3.384	0.518
1285.500	722.216	79.993	19.994	102.794	20.380	3.459	0.510
1286.000	722.521	79.993	19.996	102.793	20.381	3.435	0.495
1286.500	722.748	79.993	19.995	102.792	20.380	3.456	0.519
1287.000	723.023	79.993	19.994	102.795	20.385	3.162	0.517
1287.501	723.252	79.993	19.995	102.795	20.383	3.257	0.503
1288.001	723.501	79.993	19.996	102.793	20.380	3.487	0.491
1288.500	723.762	79.992	19.995	102.790	20.378	3.647	0.494
1289.000	724.046	79.993	19.996	102.788	20.377	3.684	0.527
1289.500	724.250	79.991	19.994	102.786	20.381	3.401	0.517
1290.000	724.490	79.993	19.995	102.786	20.381	3.382	0.466
1290.500	724.772	79.993	19.994	102.788	20.378	3.616	0.483
1291.000	724.992	79.993	19.995	102.792	20.377	3.709	0.512
1291.500	725.266	79.992	19.995	102.795	20.381	3.444	0.498
1292.000	725.505	79.991	19.994	102.795	20.380	3.477	0.504
1292.500	725.742	79.991	19.995	102.794	20.382	3.318	0.494
1293.000	725.981	79.993	19.996	102.794	20.385	3.168	0.476
1293.500	726.255	79.993	19.994	102.794	20.381	3.438	0.495
1294.000	726.513	79.992	19.994	102.793	20.374	3.902	0.522
1294.500	726.694	79.993	19.995	102.791	20.380	3.452	0.485
1295.000	726.974	79.992	19.994	102.791	20.381	3.417	0.450
1295.500	727.249	79.993	19.995	102.791	20.381	3.430	0.508
1296.000	727.506	79.992	19.995	102.790	20.381	3.409	0.543
1296.500	727.774	79.992	19.996	102.789	20.380	3.459	0.529
1297.000	727.964	79.992	19.995	102.796	20.379	3.552	0.492
1297.500	728.252	79.993	19.996	102.798	20.378	3.616	0.468
1298.000	728.503	79.993	19.996	102.799	20.380	3.490	0.509
1298.500	728.738	79.992	19.995	102.800	20.381	3.423	0.512
1299.000	729.009	79.993	19.996	102.798	20.380	3.494	0.496
1299.500	729.244	79.992	19.995	102.791	20.381	3.446	0.506
1300.000	729.480	79.994	19.996	102.789	20.377	3.728	0.488
1300.500	729.741	79.992	19.996	102.786	20.385	3.144	0.484
1301.000	729.957	79.993	19.997	102.786	20.377	3.720	0.487
1301.500	730.270	79.993	19.997	102.786	20.378	3.606	0.503
1302.000	730.467	79.994	19.996	102.788	20.380	3.516	0.520
1302.500	730.717	79.992	19.995	102.788	20.373	3.952	0.479
1303.000	730.988	79.993	19.995	102.788	20.380	3.498	0.484
1303.500	731.267	79.993	19.997	102.787	20.379	3.550	0.535
1304.000	731.495	79.993	19.996	102.787	20.378	3.643	0.529
1304.500	731.750	79.992	19.995	102.787	20.379	3.568	0.495
1305.000	732.005	79.992	19.996	102.786	20.377	3.666	0.496
1305.500	732.260	79.992	19.995	102.786	20.379	3.568	0.510
1306.000	732.517	79.993	19.994	102.786	20.379	3.544	0.511
1306.500	732.784	79.993	19.998	102.786	20.379	3.533	0.517
1307.000	733.030	79.993	19.997	102.787	20.383	3.291	0.518
1307.500	733.246	79.991	19.997	102.787	20.378	3.630	0.488
1308.000	733.561	79.990	19.995	102.790	20.380	3.506	0.497
1308.501	733.753	79.992	19.996	102.790	20.375	3.827	0.519
1309.001	733.997	79.993	19.997	102.790	20.375	3.838	0.471
1309.500	734.243	79.992	19.995	102.789	20.375	3.807	0.463
1310.000	734.531	79.993	19.996	102.789	20.380	3.454	0.512
1310.500	734.785	79.992	19.995	102.788	20.374	3.923	0.538
1311.000	735.012	79.993	19.997	102.788	20.380	3.459	0.512
1311.500	735.257	79.991	19.995	102.790	20.382	3.334	0.477
1312.000	735.504	79.993	19.996	102.790	20.372	4.031	0.482
1312.500	735.763	79.992	19.994	102.792	20.379	3.546	0.499
1313.000	736.008	79.992	19.995	102.792	20.381	3.403	0.505
1313.500	736.243	79.993	19.995	102.792	20.379	3.560	0.492
1314.000	736.480	79.994	19.997	102.792	20.379	3.587	0.476
1314.500	736.716	79.994	19.995	102.792	20.379	3.542	0.472
1315.000	736.961	79.993	19.995	102.790	20.381	3.386	0.477
1315.500	737.259	79.993	19.996	102.789	20.385	3.108	0.512
1316.000	737.470	79.992	19.995	102.790	20.381	3.397	0.526
1316.500	737.735	79.993	19.995	102.788	20.378	3.598	0.492
1317.000	737.979	79.991	19.994	102.788	20.379	3.546	0.493
1317.500	738.205	79.993	19.995	102.789	20.378	3.633	0.489
1318.000	738.476	79.992	19.995	102.789	20.380	3.461	0.483
1318.500	738.738	79.994	19.996	102.788	20.375	3.813	0.515
1319.000	738.976	79.995	19.996	102.788	20.380	3.520	0.517
1319.500	739.241	79.994	19.995	102.788	20.378	3.634	0.502
1320.000	739.510	79.993	19.994	102.788	20.377	3.665	0.519
1320.500	739.768	79.993	19.994	102.787	20.375	3.806	0.530
1321.000	740.019	79.995	19.995	102.787	20.377	3.728	0.518
1321.500	740.234	79.994	19.994	102.786	20.374	3.900	0.487
1322.000	740.518	79.995	19.994	102.787	20.376	3.776	0.483
1322.500	740.799	79.994	19.995	102.787	20.379	3.568	0.533
1323.000	741.020	79.994	19.994	102.788	20.380	3.512	0.534
1323.500	741.296	79.994	19.994	102.788	20.376	3.759	0.499
1324.000	741.538	79.995	19.995	102.787	20.372	4.030	0.507
1324.500	741.802	79.994	19.993	102.788	20.377	3.709	0.512
1325.000	742.051	79.995	19.994	102.787	20.377	3.715	0.509
1325.500	742.278	79.995	19.994	102.787	20.375	3.813	0.495
1326.000	742.531	79.995	19.994	102.786	20.378	3.657	0.478
1326.500	742.785	79.994	19.994	102.785	20.376	3.749	0.494
1327.000	743.035	79.995	19.995	102.785	20.377	3.678	0.506
1327.500	743.283	79.993	19.995	102.785	20.374	3.923	0.501
1328.000	743.572	79.996	19.994	102.785	20.374	3.896	0.518
