Sample ID:	C:\MCC\MCC Cal\Test\nylon_MCC_30K_min_220329_R1.txt
Sample Weight (mg):	4.58
Heating Rate (C/s):	0.5
Combustor Temp (C):	900
N2 Flow Rate (cc/min):	80
O2 Flow Rate (cc/min):	20
Calibration File:	C:\MCC\MCC Cal\Coeff1 JN10440_30_210304.txt.txt
T Correction Coefficients:	0	1.024463	0
Time Shift (s):	14
*
Time (s)	Temperature (C)	N2 flow rate (cc/min)	O2 flow rate (cc/min)	Flow Rate (cc/min)	Oxygen (%)	HRR (W/g)	Heating rate (C/s)
0.000	111.526	80.010	19.994	103.669	20.054	-0.163	-0.024
0.500	111.559	80.012	19.993	103.668	20.058	-0.431	-0.009
1.000	111.543	80.010	19.995	103.665	20.061	-0.647	0.022
1.500	111.558	80.011	19.994	103.664	20.058	-0.410	0.008
2.000	111.524	80.011	19.995	103.664	20.054	-0.134	-0.010
2.500	111.546	80.010	19.994	103.665	20.055	-0.188	-0.016
3.000	111.536	80.011	19.995	103.666	20.056	-0.297	-0.000
3.500	111.523	80.010	19.994	103.667	20.058	-0.426	-0.005
4.000	111.506	80.010	19.993	103.667	20.055	-0.229	-0.027
4.500	111.488	80.010	19.994	103.667	20.059	-0.470	-0.033
5.000	111.498	80.010	19.993	103.667	20.059	-0.484	-0.022
5.500	111.524	80.010	19.992	103.668	20.060	-0.542	0.014
6.000	111.516	80.010	19.993	103.668	20.062	-0.694	0.028
6.500	111.467	80.010	19.993	103.668	20.056	-0.284	-0.019
7.000	111.522	80.010	19.992	103.669	20.052	-0.033	-0.026
7.500	111.524	80.011	19.993	103.668	20.057	-0.338	0.031
8.000	111.520	80.011	19.993	103.662	20.055	-0.206	0.027
8.500	111.510	80.012	19.993	103.658	20.054	-0.159	-0.008
9.000	111.496	80.011	19.993	103.658	20.054	-0.175	-0.019
9.500	111.487	80.010	19.992	103.658	20.057	-0.389	-0.023
10.001	111.468	80.010	19.993	103.659	20.058	-0.426	-0.025
10.501	111.493	80.011	19.994	103.666	20.057	-0.356	-0.011
11.000	111.490	80.011	19.994	103.672	20.056	-0.255	0.014
11.500	111.516	80.013	19.993	103.675	20.058	-0.438	0.022
12.000	111.486	80.011	19.992	103.676	20.055	-0.220	0.009
12.501	111.457	80.011	19.993	103.681	20.053	-0.101	-0.032
13.001	111.494	80.012	19.992	103.688	20.056	-0.272	-0.025
13.500	111.508	80.012	19.992	103.695	20.056	-0.280	0.030
14.000	111.488	80.012	19.993	103.704	20.057	-0.366	0.023
14.500	111.460	80.012	19.992	103.713	20.057	-0.333	-0.027
15.000	111.502	80.013	19.992	103.720	20.051	0.031	-0.017
15.500	111.479	80.012	19.992	103.726	20.051	0.088	0.016
16.000	111.490	80.012	19.993	103.734	20.051	0.088	0.003
16.500	111.475	80.012	19.992	103.736	20.045	0.490	-0.008
17.000	111.490	80.013	19.993	103.745	20.047	0.321	-0.001
17.500	111.496	80.013	19.992	103.739	20.049	0.197	0.011
18.000	111.510	80.013	19.991	103.714	20.047	0.315	0.020
18.500	111.480	80.013	19.992	103.691	20.044	0.572	0.001
19.000	111.491	80.013	19.992	103.676	20.046	0.403	-0.017
19.500	111.529	80.013	19.993	103.664	20.045	0.471	0.016
20.000	111.547	80.011	19.991	103.674	20.041	0.737	0.053
20.500	111.532	80.012	19.992	103.704	20.044	0.576	0.029
21.000	111.529	80.012	19.994	103.768	20.042	0.720	-0.008
21.500	111.529	80.012	19.993	103.817	20.040	0.835	-0.010
22.000	111.544	80.011	19.994	103.847	20.038	0.977	0.006
22.500	111.583	80.011	19.993	103.863	20.038	0.977	0.035
23.000	111.599	80.011	19.993	103.874	20.037	1.033	0.055
23.500	111.660	80.011	19.993	103.847	20.036	1.156	0.066
24.000	111.647	80.010	19.992	103.830	20.037	1.059	0.062
24.500	111.699	80.012	19.991	103.825	20.033	1.360	0.044
25.000	111.720	80.011	19.992	103.828	20.032	1.415	0.056
25.500	111.776	80.010	19.993	103.833	20.032	1.409	0.075
26.000	111.799	80.010	19.993	103.841	20.033	1.358	0.078
26.500	111.818	80.009	19.993	103.850	20.028	1.670	0.060
27.001	111.876	80.009	19.992	103.857	20.030	1.535	0.060
27.500	111.930	80.010	19.993	103.863	20.029	1.633	0.094
28.000	111.943	80.009	19.992	103.866	20.027	1.777	0.089
28.500	111.985	80.010	19.992	103.866	20.026	1.862	0.061
29.000	112.046	80.009	19.993	103.860	20.029	1.603	0.079
29.500	112.070	80.009	19.993	103.856	20.023	2.037	0.094
30.000	112.093	80.009	19.993	103.856	20.024	1.963	0.066
30.500	112.156	80.010	19.992	103.856	20.025	1.899	0.066
31.000	112.232	80.009	19.994	103.853	20.021	2.170	0.112
31.500	112.277	80.010	19.993	103.853	20.025	1.874	0.130
32.001	112.313	80.008	19.992	103.850	20.022	2.119	0.101
32.501	112.371	80.008	19.994	103.848	20.019	2.356	0.087
33.000	112.434	80.009	19.993	103.848	20.022	2.109	0.108
33.500	112.509	80.008	19.992	103.851	20.019	2.344	0.130
34.000	112.546	80.009	19.993	103.858	20.022	2.148	0.125
34.500	112.614	80.009	19.993	103.865	20.021	2.204	0.109
35.001	112.690	80.009	19.992	103.867	20.023	2.062	0.125
35.501	112.746	80.010	19.993	103.867	20.021	2.171	0.138
36.000	112.793	80.010	19.992	103.868	20.019	2.323	0.117
36.500	112.873	80.010	19.993	103.867	20.018	2.373	0.115
37.001	112.981	80.009	19.992	103.866	20.018	2.409	0.157
37.501	113.024	80.010	19.993	103.866	20.020	2.278	0.170
38.000	113.095	80.009	19.993	103.866	20.020	2.278	0.133
38.500	113.151	80.009	19.992	103.862	20.018	2.374	0.121
39.000	113.242	80.008	19.993	103.857	20.019	2.339	0.137
39.500	113.337	80.009	19.991	103.853	20.018	2.387	0.167
40.000	113.421	80.009	19.993	103.852	20.021	2.179	0.183
40.500	113.488	80.008	19.992	103.850	20.019	2.333	0.165
41.000	113.534	80.010	19.993	103.853	20.018	2.409	0.132
41.500	113.630	80.011	19.993	103.857	20.022	2.106	0.127
42.000	113.727	80.009	19.993	103.859	20.021	2.162	0.167
42.501	113.832	80.008	19.992	103.857	20.024	2.000	0.198
43.001	113.875	80.010	19.992	103.852	20.021	2.187	0.176
43.501	113.993	80.008	19.992	103.847	20.021	2.216	0.155
44.000	114.088	80.009	19.993	103.841	20.020	2.238	0.187
44.500	114.139	80.010	19.993	103.839	20.019	2.300	0.179
45.000	114.229	80.009	19.994	103.839	20.021	2.164	0.144
45.500	114.330	80.010	19.993	103.837	20.023	2.078	0.166
46.000	114.385	80.010	19.992	103.835	20.022	2.107	0.173
46.501	114.481	80.009	19.992	103.836	20.022	2.096	0.153
47.001	114.575	80.009	19.993	103.835	20.020	2.222	0.170
47.501	114.658	80.010	19.992	103.836	20.020	2.267	0.184
48.000	114.805	80.010	19.993	103.841	20.019	2.349	0.204
48.501	114.906	80.009	19.992	103.844	20.020	2.283	0.239
49.001	114.996	80.010	19.992	103.848	20.021	2.156	0.220
49.501	115.059	80.011	19.992	103.848	20.019	2.298	0.172
50.001	115.204	80.009	19.993	103.849	20.019	2.335	0.180
50.501	115.265	80.008	19.993	103.852	20.020	2.257	0.207
51.000	115.389	80.011	19.993	103.857	20.019	2.347	0.196
51.500	115.494	80.009	19.994	103.859	20.022	2.113	0.208
52.000	115.586	80.009	19.992	103.863	20.020	2.251	0.213
52.501	115.692	80.008	19.993	103.863	20.020	2.271	0.197
53.001	115.793	80.009	19.993	103.861	20.021	2.197	0.202
53.500	115.885	80.008	19.991	103.857	20.020	2.236	0.200
54.000	115.970	80.009	19.993	103.853	20.019	2.324	0.185
54.500	116.091	80.009	19.993	103.848	20.018	2.380	0.192
55.000	116.232	80.008	19.993	103.849	20.022	2.096	0.234
55.500	116.347	80.009	19.993	103.849	20.018	2.368	0.259
56.000	116.439	80.008	19.993	103.853	20.023	2.053	0.231
56.500	116.572	80.009	19.993	103.857	20.023	2.016	0.216
57.000	116.660	80.010	19.994	103.860	20.025	1.874	0.223
57.500	116.752	80.009	19.994	103.857	20.024	1.950	0.201
58.000	116.904	80.008	19.993	103.856	20.025	1.901	0.212
58.500	116.980	80.008	19.993	103.856	20.024	2.002	0.236
59.000	117.100	80.009	19.994	103.857	20.024	2.002	0.212
59.500	117.258	80.010	19.994	103.859	20.022	2.125	0.237
60.001	117.405	80.010	19.994	103.863	20.022	2.141	0.292
60.501	117.495	80.008	19.994	103.865	20.018	2.380	0.271
61.000	117.598	80.007	19.993	103.865	20.023	2.075	0.214
61.500	117.727	80.012	19.994	103.864	20.019	2.304	0.212
62.000	117.806	80.008	19.994	103.863	20.021	2.193	0.220
62.500	117.995	80.010	19.994	103.863	20.018	2.374	0.239
63.000	118.064	80.011	19.994	103.863	20.020	2.261	0.263
63.500	118.210	80.009	19.994	103.863	20.020	2.261	0.236
64.000	118.329	80.009	19.994	103.864	20.018	2.374	0.240
64.500	118.460	80.010	19.994	103.865	20.020	2.283	0.257
65.000	118.580	80.009	19.994	103.866	20.020	2.234	0.251
65.500	118.667	80.008	19.994	103.865	20.018	2.388	0.230
66.001	118.807	80.008	19.995	103.865	20.017	2.489	0.217
66.501	118.985	80.011	19.994	103.865	20.020	2.275	0.272
67.000	119.073	80.009	19.993	103.865	20.020	2.285	0.292
67.501	119.163	80.009	19.994	103.864	20.017	2.456	0.223
68.001	119.315	80.009	19.994	103.866	20.017	2.495	0.210
68.501	119.481	80.010	19.995	103.866	20.019	2.314	0.279
69.000	119.612	80.010	19.993	103.865	20.021	2.164	0.307
69.500	119.709	80.009	19.993	103.865	20.019	2.341	0.263
70.000	119.865	80.010	19.992	103.865	20.017	2.464	0.241
70.501	120.014	80.011	19.995	103.865	20.018	2.402	0.279
71.001	120.210	80.011	19.995	103.866	20.015	2.590	0.324
71.500	120.342	80.011	19.995	103.870	20.014	2.705	0.336
72.000	120.427	80.011	19.994	103.872	20.017	2.503	0.273
72.500	120.578	80.011	19.993	103.874	20.014	2.715	0.227
73.000	120.704	80.012	19.994	103.874	20.014	2.649	0.257
73.500	120.835	80.010	19.993	103.876	20.015	2.612	0.267
74.000	120.985	80.010	19.993	103.874	20.015	2.627	0.269
74.500	121.128	80.012	19.993	103.872	20.016	2.540	0.287
75.000	121.238	80.011	19.993	103.871	20.017	2.452	0.273
75.500	121.434	80.011	19.993	103.873	20.020	2.254	0.279
76.000	121.550	80.013	19.992	103.871	20.019	2.343	0.309
76.501	121.741	80.013	19.993	103.870	20.021	2.166	0.310
77.001	121.868	80.013	19.993	103.869	20.020	2.246	0.312
77.501	122.004	80.012	19.993	103.868	20.018	2.378	0.291
78.000	122.165	80.010	19.992	103.869	20.017	2.452	0.280
78.500	122.301	80.009	19.993	103.869	20.016	2.526	0.296
79.000	122.482	80.011	19.992	103.869	20.015	2.592	0.307
79.500	122.599	80.010	19.993	103.870	20.015	2.610	0.308
80.001	122.793	80.011	19.992	103.870	20.012	2.845	0.305
80.501	122.900	80.011	19.993	103.867	20.016	2.530	0.307
81.000	123.098	80.011	19.996	103.868	20.013	2.742	0.303
81.501	123.207	80.010	19.994	103.874	20.017	2.493	0.306
82.001	123.372	80.011	19.993	103.880	20.015	2.637	0.291
82.500	123.516	80.009	19.994	103.880	20.015	2.618	0.291
83.000	123.669	80.009	19.993	103.883	20.015	2.641	0.302
83.500	123.840	80.010	19.994	103.881	20.011	2.922	0.310
84.000	123.995	80.010	19.993	103.876	20.015	2.638	0.325
84.500	124.108	80.010	19.993	103.869	20.013	2.731	0.297
85.000	124.303	80.009	19.995	103.868	20.014	2.655	0.288
85.500	124.453	80.013	19.994	103.866	20.015	2.616	0.326
86.000	124.640	80.009	19.994	103.868	20.015	2.637	0.340
86.500	124.819	80.011	19.993	103.871	20.015	2.620	0.352
87.000	124.911	80.010	19.994	103.872	20.014	2.659	0.319
87.500	125.081	80.010	19.994	103.874	20.018	2.410	0.267
88.001	125.238	80.009	19.994	103.880	20.016	2.522	0.294
88.501	125.403	80.011	19.994	103.884	20.015	2.585	0.324
89.000	125.552	80.011	19.994	103.883	20.015	2.602	0.318
89.500	125.742	80.010	19.995	103.883	20.013	2.760	0.327
90.000	125.923	80.009	19.994	103.882	20.016	2.544	0.355
90.500	126.099	80.010	19.994	103.880	20.015	2.597	0.364
91.000	126.260	80.011	19.994	103.875	20.013	2.748	0.347
91.500	126.478	80.007	19.994	103.877	20.016	2.573	0.358
92.000	126.552	80.010	19.995	103.884	20.013	2.760	0.335
92.500	126.741	80.009	19.995	103.888	20.015	2.612	0.277
93.000	126.872	80.009	19.994	103.891	20.014	2.684	0.292
93.500	127.047	80.010	19.994	103.894	20.014	2.682	0.313
94.000	127.196	80.011	19.994	103.895	20.014	2.657	0.315
94.500	127.363	80.012	19.994	103.890	20.014	2.710	0.320
95.000	127.534	80.010	19.995	103.893	20.016	2.517	0.327
95.500	127.725	80.009	19.994	103.888	20.012	2.807	0.350
96.000	127.901	80.010	19.994	103.885	20.013	2.751	0.365
96.500	128.093	80.011	19.994	103.885	20.012	2.789	0.367
97.000	128.244	80.012	19.993	103.884	20.015	2.599	0.355
97.500	128.380	80.013	19.993	103.876	20.013	2.770	0.315
98.000	128.588	80.007	19.993	103.877	20.017	2.476	0.315
98.500	128.759	80.011	19.993	103.881	20.015	2.583	0.361
99.000	128.936	80.011	19.992	103.882	20.016	2.509	0.363
99.500	129.094	80.012	19.993	103.884	20.014	2.696	0.342
100.000	129.231	80.011	19.994	103.889	20.015	2.638	0.315
100.500	129.463	80.012	19.994	103.892	20.015	2.636	0.332
101.000	129.632	80.010	19.992	103.892	20.017	2.461	0.385
101.500	129.842	80.010	19.992	103.894	20.016	2.523	0.390
102.000	130.021	80.011	19.992	103.890	20.018	2.431	0.383
102.500	130.156	80.012	19.993	103.888	20.019	2.340	0.352
103.000	130.359	80.011	19.993	103.885	20.016	2.568	0.327
103.500	130.525	80.010	19.993	103.884	20.016	2.564	0.354
104.000	130.704	80.011	19.992	103.881	20.016	2.560	0.357
104.500	130.864	80.012	19.993	103.886	20.018	2.398	0.342
105.000	131.055	80.011	19.993	103.889	20.020	2.256	0.345
105.501	131.256	80.013	19.993	103.892	20.022	2.149	0.371
106.001	131.393	80.012	19.991	103.894	20.018	2.378	0.365
106.500	131.599	80.013	19.993	103.898	20.019	2.308	0.341
107.000	131.768	80.013	19.993	103.899	20.020	2.240	0.359
107.500	131.918	80.013	19.992	103.898	20.022	2.080	0.347
108.000	132.126	80.012	19.993	103.899	20.018	2.407	0.339
108.500	132.304	80.009	19.992	103.899	20.016	2.567	0.372
109.000	132.477	80.010	19.992	103.900	20.017	2.456	0.368
109.500	132.638	80.012	19.993	103.900	20.015	2.581	0.342
110.001	132.851	80.010	19.993	103.901	20.019	2.304	0.354
110.501	132.989	80.010	19.993	103.901	20.018	2.410	0.362
111.000	133.206	80.010	19.993	103.900	20.020	2.262	0.353
111.500	133.389	80.010	19.993	103.899	20.017	2.480	0.378
112.000	133.591	80.010	19.992	103.899	20.019	2.328	0.393
112.501	133.747	80.009	19.992	103.899	20.015	2.607	0.372
113.001	133.956	80.008	19.992	103.899	20.019	2.309	0.361
113.500	134.152	80.012	19.993	103.899	20.016	2.513	0.385
114.000	134.326	80.009	19.993	103.897	20.016	2.519	0.388
114.500	134.505	80.009	19.992	103.896	20.016	2.539	0.361
115.000	134.699	80.010	19.992	103.895	20.017	2.482	0.363
115.500	134.886	80.008	19.992	103.890	20.013	2.751	0.377
116.000	135.093	80.011	19.994	103.885	20.014	2.684	0.387
116.500	135.279	80.008	19.992	103.880	20.016	2.556	0.393
117.000	135.461	80.008	19.994	103.875	20.016	2.513	0.381
117.500	135.646	80.011	19.993	103.869	20.015	2.618	0.368
118.000	135.839	80.010	19.993	103.868	20.013	2.749	0.373
118.501	136.052	80.011	19.994	103.866	20.014	2.648	0.391
119.001	136.255	80.010	19.994	103.871	20.017	2.459	0.411
119.501	136.419	80.009	19.993	103.875	20.013	2.752	0.392
120.001	136.627	80.011	19.994	103.874	20.013	2.776	0.370
120.501	136.797	80.009	19.993	103.877	20.014	2.711	0.375
121.000	136.984	80.010	19.993	103.883	20.012	2.855	0.368
121.500	137.221	80.010	19.993	103.887	20.011	2.867	0.390
122.001	137.392	80.010	19.993	103.890	20.015	2.636	0.416
122.501	137.566	80.011	19.992	103.897	20.014	2.659	0.377
123.000	137.769	80.010	19.993	103.902	20.014	2.651	0.360
123.500	137.959	80.009	19.994	103.903	20.014	2.661	0.385
124.000	138.164	80.011	19.992	103.903	20.017	2.435	0.394
124.500	138.330	80.009	19.994	103.904	20.012	2.826	0.383
125.000	138.530	80.010	19.993	103.903	20.013	2.752	0.369
125.500	138.726	80.011	19.994	103.904	20.013	2.772	0.381
126.001	138.886	80.009	19.992	103.898	20.014	2.663	0.376
126.501	139.091	80.011	19.994	103.896	20.014	2.692	0.361
127.001	139.278	80.009	19.994	103.896	20.016	2.540	0.378
127.500	139.474	80.011	19.994	103.897	20.015	2.587	0.388
128.000	139.637	80.011	19.993	103.896	20.016	2.511	0.371
128.500	139.892	80.011	19.993	103.901	20.015	2.587	0.388
129.000	140.093	80.011	19.993	103.903	20.016	2.511	0.437
129.500	140.297	80.011	19.992	103.903	20.017	2.494	0.431
130.000	140.464	80.011	19.994	103.899	20.014	2.710	0.388
130.500	140.716	80.010	19.993	103.893	20.013	2.751	0.395
131.000	140.889	80.011	19.993	103.892	20.015	2.587	0.422
131.500	141.025	80.010	19.993	103.891	20.015	2.610	0.367
132.000	141.307	80.010	19.992	103.890	20.015	2.643	0.364
132.500	141.448	80.011	19.993	103.895	20.020	2.291	0.421
133.000	141.636	80.009	19.993	103.901	20.015	2.622	0.376
133.500	141.829	80.011	19.993	103.901	20.016	2.566	0.355
134.000	142.059	80.010	19.993	103.896	20.015	2.595	0.403
134.500	142.227	80.010	19.993	103.889	20.014	2.710	0.411
135.000	142.410	80.012	19.993	103.886	20.018	2.414	0.374
135.500	142.666	80.010	19.993	103.886	20.017	2.486	0.395
136.000	142.869	80.011	19.992	103.887	20.016	2.562	0.449
136.500	143.082	80.009	19.994	103.893	20.014	2.692	0.437
137.000	143.272	80.011	19.994	103.899	20.012	2.795	0.409
137.500	143.476	80.011	19.993	103.901	20.015	2.634	0.399
138.000	143.742	80.012	19.993	103.901	20.011	2.861	0.432
138.500	143.921	80.010	19.992	103.902	20.014	2.715	0.457
139.000	144.124	80.011	19.992	103.902	20.011	2.902	0.414
139.500	144.307	80.010	19.993	103.903	20.011	2.879	0.384
140.000	144.540	80.009	19.992	103.903	20.014	2.659	0.401
140.500	144.712	80.010	19.992	103.901	20.015	2.626	0.410
141.000	144.932	80.011	19.995	103.899	20.013	2.778	0.398
141.500	145.170	80.010	19.994	103.900	20.014	2.712	0.425
142.000	145.370	80.009	19.994	103.900	20.015	2.624	0.448
142.500	145.574	80.010	19.994	103.901	20.014	2.678	0.421
143.000	145.810	80.009	19.995	103.897	20.014	2.649	0.422
143.500	145.998	80.010	19.994	103.899	20.012	2.814	0.432
144.000	146.225	80.011	19.994	103.898	20.011	2.865	0.420
144.500	146.416	80.010	19.993	103.899	20.013	2.746	0.416
145.000	146.642	80.012	19.992	103.899	20.014	2.657	0.417
145.500	146.852	80.010	19.994	103.904	20.013	2.741	0.426
146.000	147.067	80.011	19.994	103.905	20.014	2.669	0.431
146.500	147.299	80.011	19.992	103.906	20.013	2.768	0.436
147.000	147.481	80.008	19.993	103.905	20.011	2.908	0.430
147.500	147.657	80.011	19.993	103.899	20.014	2.702	0.386
148.000	147.930	80.010	19.993	103.896	20.012	2.858	0.403
148.500	148.107	80.010	19.993	103.891	20.013	2.774	0.450
149.000	148.319	80.009	19.993	103.887	20.011	2.885	0.420
149.500	148.511	80.010	19.993	103.882	20.010	2.971	0.396
150.000	148.757	80.011	19.992	103.882	20.009	3.015	0.421
150.500	148.964	80.010	19.994	103.880	20.008	3.076	0.446
151.000	149.153	80.010	19.993	103.883	20.013	2.760	0.425
151.500	149.339	80.011	19.993	103.886	20.012	2.803	0.385
152.000	149.584	80.010	19.994	103.892	20.013	2.741	0.403
152.500	149.823	80.011	19.993	103.895	20.013	2.776	0.458
153.000	149.979	80.010	19.993	103.893	20.012	2.851	0.440
153.500	150.259	80.012	19.993	103.889	20.015	2.628	0.415
154.000	150.449	80.013	19.995	103.888	20.014	2.653	0.453
154.500	150.655	80.010	19.993	103.884	20.013	2.744	0.433
155.000	150.907	80.010	19.993	103.886	20.011	2.877	0.427
155.500	151.109	80.011	19.993	103.890	20.013	2.750	0.456
156.000	151.308	80.011	19.993	103.895	20.014	2.709	0.427
156.500	151.553	80.010	19.993	103.896	20.014	2.707	0.422
157.000	151.743	80.009	19.993	103.897	20.009	3.020	0.439
157.500	151.958	80.010	19.994	103.896	20.013	2.765	0.420
158.000	152.170	80.011	19.994	103.899	20.013	2.783	0.416
158.500	152.423	80.010	19.993	103.900	20.011	2.865	0.446
159.000	152.606	80.010	19.993	103.901	20.015	2.592	0.451
159.500	152.849	80.011	19.993	103.904	20.016	2.511	0.431
160.000	153.055	80.009	19.993	103.905	20.015	2.631	0.438
160.500	153.267	80.011	19.993	103.904	20.017	2.474	0.433
161.000	153.490	80.011	19.994	103.903	20.013	2.762	0.426
161.500	153.684	80.010	19.994	103.902	20.015	2.577	0.426
162.001	153.907	80.013	19.994	103.902	20.018	2.408	0.417
162.500	154.126	80.009	19.993	103.899	20.017	2.470	0.429
163.000	154.320	80.010	19.993	103.898	20.015	2.618	0.428
163.500	154.515	80.011	19.992	103.893	20.015	2.591	0.401
164.000	154.763	80.010	19.994	103.888	20.015	2.599	0.416
164.500	155.010	80.008	19.994	103.886	20.013	2.731	0.469
165.000	155.211	80.010	19.993	103.883	20.016	2.511	0.471
165.500	155.418	80.011	19.993	103.879	20.012	2.824	0.428
166.000	155.658	80.011	19.993	103.878	20.010	2.998	0.427
166.500	155.857	80.010	19.993	103.876	20.010	2.955	0.443
167.000	156.093	80.012	19.995	103.870	20.013	2.719	0.437
167.500	156.313	80.011	19.993	103.868	20.008	3.074	0.446
168.000	156.546	80.010	19.994	103.866	20.010	2.971	0.455
168.500	156.757	80.011	19.994	103.865	20.012	2.834	0.448
169.001	156.954	80.011	19.993	103.866	20.010	2.998	0.426
169.500	157.203	80.011	19.993	103.866	20.010	2.953	0.427
170.000	157.449	80.012	19.993	103.871	20.012	2.856	0.470
170.500	157.616	80.010	19.993	103.874	20.009	3.054	0.454
171.000	157.847	80.012	19.992	103.878	20.011	2.881	0.406
171.500	158.084	80.009	19.993	103.885	20.013	2.772	0.433
172.000	158.296	80.010	19.993	103.891	20.012	2.811	0.459
172.500	158.494	80.010	19.994	103.892	20.013	2.776	0.429
173.000	158.761	80.011	19.993	103.895	20.008	3.089	0.437
173.500	158.997	80.010	19.992	103.896	20.011	2.926	0.484
174.000	159.226	80.011	19.993	103.894	20.010	2.986	0.484
174.500	159.446	80.010	19.993	103.891	20.009	3.004	0.457
175.000	159.691	80.012	19.993	103.890	20.013	2.751	0.457
175.500	159.885	80.011	19.993	103.891	20.013	2.741	0.452
176.000	160.187	80.012	19.995	103.893	20.012	2.816	0.468
176.500	160.388	80.013	19.993	103.895	20.015	2.608	0.500
177.000	160.593	80.010	19.993	103.898	20.014	2.655	0.454
177.500	160.820	80.010	19.994	103.901	20.012	2.833	0.419
178.000	161.063	80.012	19.993	103.900	20.013	2.746	0.451
178.500	161.312	80.010	19.994	103.902	20.013	2.720	0.481
179.000	161.537	80.012	19.993	103.903	20.014	2.670	0.483
179.500	161.755	80.014	19.993	103.902	20.012	2.814	0.458
180.000	161.934	80.015	19.994	103.901	20.013	2.721	0.420
180.500	162.197	80.012	19.993	103.901	20.012	2.849	0.420
181.000	162.392	80.014	19.994	103.897	20.014	2.702	0.450
181.500	162.649	80.013	19.993	103.897	20.016	2.567	0.455
182.000	162.882	80.014	19.994	103.897	20.017	2.483	0.471
182.500	163.074	80.012	19.994	103.897	20.012	2.846	0.458
183.000	163.344	80.013	19.994	103.900	20.013	2.743	0.443
183.500	163.532	80.013	19.993	103.903	20.013	2.772	0.460
184.001	163.792	80.013	19.993	103.903	20.012	2.844	0.453
184.500	164.052	80.011	19.995	103.904	20.014	2.715	0.483
185.000	164.280	80.012	19.993	103.906	20.011	2.883	0.504
185.500	164.515	80.015	19.994	103.903	20.013	2.762	0.476
186.000	164.742	80.012	19.994	103.901	20.010	2.943	0.462
186.500	164.981	80.013	19.994	103.895	20.015	2.645	0.464
187.000	165.209	80.011	19.994	103.888	20.009	3.003	0.467
187.500	165.481	80.012	19.994	103.880	20.012	2.809	0.483
188.000	165.707	80.011	19.994	103.873	20.013	2.768	0.499
188.500	165.928	80.011	19.993	103.866	20.012	2.844	0.472
189.000	166.182	80.012	19.994	103.865	20.012	2.832	0.461
189.500	166.407	80.010	19.993	103.863	20.012	2.820	0.477
190.000	166.646	80.008	19.993	103.867	20.015	2.612	0.472
190.500	166.882	80.011	19.994	103.875	20.013	2.783	0.469
191.000	167.112	80.010	19.994	103.881	20.018	2.400	0.471
191.500	167.329	80.010	19.994	103.882	20.013	2.719	0.456
192.000	167.590	80.009	19.995	103.887	20.019	2.326	0.462
192.500	167.772	80.009	19.994	103.884	20.015	2.614	0.461
193.000	168.045	80.011	19.995	103.882	20.015	2.596	0.449
193.500	168.278	80.010	19.995	103.883	20.017	2.440	0.480
194.000	168.515	80.010	19.995	103.890	20.018	2.423	0.488
194.500	168.777	80.010	19.994	103.895	20.018	2.415	0.485
195.000	169.014	80.012	19.994	103.899	20.018	2.394	0.499
195.500	169.240	80.010	19.993	103.895	20.016	2.569	0.481
196.000	169.487	80.011	19.994	103.886	20.019	2.306	0.468
196.500	169.738	80.009	19.993	103.877	20.018	2.405	0.485
197.000	169.958	80.010	19.993	103.872	20.019	2.298	0.484
197.500	170.186	80.010	19.994	103.873	20.016	2.563	0.460
198.000	170.375	80.009	19.992	103.887	20.017	2.446	0.433
198.500	170.672	80.010	19.993	103.900	20.021	2.213	0.452
199.000	170.882	80.010	19.993	103.909	20.016	2.532	0.496
199.500	171.122	80.011	19.993	103.907	20.018	2.419	0.478
200.000	171.381	80.009	19.991	103.899	20.018	2.390	0.474
200.500	171.597	80.008	19.994	103.884	20.013	2.748	0.487
201.000	171.849	80.011	19.995	103.875	20.016	2.514	0.471
201.500	172.093	80.012	19.995	103.875	20.019	2.314	0.482
202.000	172.319	80.007	19.995	103.878	20.020	2.223	0.483
202.500	172.549	80.009	19.994	103.884	20.020	2.242	0.463
203.000	172.851	80.011	19.994	103.887	20.017	2.488	0.494
203.500	173.053	80.009	19.994	103.886	20.018	2.426	0.518
204.000	173.256	80.012	19.993	103.878	20.018	2.433	0.454
204.501	173.527	80.009	19.994	103.874	20.018	2.377	0.439
205.001	173.791	80.010	19.993	103.872	20.020	2.291	0.504
205.500	174.025	80.010	19.993	103.873	20.018	2.402	0.517
206.000	174.252	80.011	19.994	103.874	20.017	2.441	0.480
206.500	174.490	80.008	19.992	103.876	20.017	2.468	0.463
207.000	174.779	80.010	19.992	103.878	20.017	2.479	0.496
207.500	175.021	80.009	19.993	103.875	20.017	2.495	0.529
208.000	175.250	80.010	19.993	103.872	20.018	2.371	0.501
208.500	175.457	80.011	19.993	103.873	20.019	2.295	0.454
209.000	175.696	80.008	19.993	103.879	20.018	2.373	0.441
209.500	175.966	80.012	19.993	103.878	20.015	2.632	0.477
210.000	176.176	80.010	19.992	103.878	20.017	2.489	0.494
210.500	176.437	80.009	19.992	103.876	20.017	2.466	0.476
211.000	176.672	80.009	19.992	103.874	20.015	2.581	0.483
211.500	176.909	80.011	19.992	103.866	20.018	2.413	0.484
212.000	177.131	80.011	19.993	103.864	20.017	2.499	0.466
212.500	177.362	80.009	19.993	103.870	20.016	2.563	0.456
213.000	177.610	80.011	19.993	103.879	20.017	2.483	0.465
213.500	177.875	80.010	19.993	103.887	20.020	2.230	0.496
214.000	178.130	80.010	19.993	103.894	20.017	2.458	0.516
214.500	178.333	80.011	19.992	103.900	20.020	2.285	0.489
215.000	178.574	80.011	19.993	103.898	20.018	2.404	0.451
215.500	178.822	80.011	19.993	103.896	20.021	2.170	0.467
216.000	179.077	80.010	19.992	103.891	20.019	2.334	0.496
216.500	179.321	80.009	19.993	103.883	20.017	2.441	0.501
217.000	179.571	80.010	19.994	103.877	20.019	2.340	0.497
217.500	179.762	80.010	19.992	103.878	20.017	2.496	0.468
218.000	180.060	80.010	19.992	103.874	20.019	2.301	0.465
218.500	180.285	80.008	19.992	103.875	20.020	2.276	0.506
219.000	180.491	80.013	19.993	103.885	20.017	2.492	0.476
219.500	180.755	80.008	19.993	103.893	20.018	2.383	0.450
220.000	180.960	80.010	19.992	103.891	20.016	2.560	0.470
220.500	181.227	80.010	19.993	103.890	20.020	2.231	0.471
221.001	181.497	80.011	19.993	103.887	20.017	2.493	0.504
221.501	181.760	80.008	19.992	103.878	20.020	2.271	0.535
222.000	181.934	80.008	19.992	103.871	20.020	2.287	0.486
222.500	182.228	80.012	19.993	103.868	20.020	2.264	0.453
223.000	182.429	80.009	19.994	103.868	20.018	2.385	0.481
223.500	182.700	80.007	19.994	103.867	20.023	2.026	0.484
224.000	182.956	80.010	19.993	103.868	20.019	2.309	0.500
224.500	183.177	80.008	19.993	103.872	20.017	2.449	0.502
225.000	183.426	80.009	19.993	103.872	20.018	2.406	0.473
225.500	183.678	80.009	19.993	103.875	20.018	2.408	0.485
226.000	183.893	80.012	19.992	103.881	20.019	2.306	0.484
226.500	184.190	80.011	19.993	103.887	20.017	2.493	0.489
227.000	184.398	80.009	19.994	103.892	20.020	2.227	0.508
227.500	184.637	80.009	19.993	103.899	20.013	2.768	0.476
228.000	184.937	80.008	19.993	103.903	20.017	2.460	0.493
228.500	185.190	80.010	19.993	103.904	20.016	2.532	0.546
229.000	185.421	80.009	19.993	103.902	20.018	2.402	0.519
229.500	185.671	80.010	19.993	103.899	20.017	2.456	0.483
230.000	185.890	80.011	19.992	103.899	20.020	2.244	0.475
230.500	186.174	80.010	19.993	103.900	20.014	2.655	0.486
231.000	186.428	80.010	19.992	103.894	20.020	2.225	0.521
231.500	186.658	80.009	19.992	103.889	20.021	2.217	0.511
232.000	186.892	80.011	19.992	103.889	20.016	2.549	0.474
232.500	187.179	80.011	19.993	103.889	20.022	2.150	0.492
233.000	187.407	80.011	19.992	103.889	20.019	2.328	0.518
233.500	187.681	80.014	19.993	103.893	20.015	2.612	0.509
234.000	187.894	80.011	19.993	103.897	20.017	2.472	0.495
234.501	188.115	80.010	19.993	103.898	20.016	2.548	0.460
235.000	188.379	80.011	19.993	103.894	20.020	2.269	0.460
235.500	188.632	80.012	19.993	103.888	20.020	2.287	0.502
236.000	188.918	80.011	19.993	103.889	20.019	2.349	0.528
236.500	189.138	80.013	19.993	103.889	20.020	2.279	0.522
237.000	189.396	80.011	19.993	103.885	20.021	2.199	0.492
237.500	189.603	80.012	19.993	103.885	20.019	2.300	0.471
238.000	189.874	80.012	19.993	103.885	20.021	2.176	0.471
238.500	190.096	80.013	19.992	103.882	20.020	2.261	0.486
239.000	190.337	80.013	19.993	103.878	20.018	2.366	0.478
239.500	190.601	80.013	19.992	103.876	20.019	2.329	0.484
240.000	190.864	80.013	19.993	103.872	20.020	2.234	0.516
240.500	191.103	80.012	19.993	103.876	20.020	2.222	0.515
241.000	191.315	80.011	19.993	103.878	20.015	2.619	0.476
241.500	191.569	80.012	19.992	103.879	20.019	2.325	0.458
242.000	191.803	80.011	19.992	103.880	20.019	2.351	0.477
242.500	192.061	80.012	19.993	103.879	20.019	2.323	0.490
243.000	192.311	80.010	19.992	103.873	20.018	2.401	0.501
243.500	192.553	80.013	19.992	103.872	20.016	2.574	0.500
244.000	192.806	80.014	19.993	103.875	20.017	2.485	0.493
244.500	193.065	80.010	19.991	103.878	20.016	2.506	0.503
245.000	193.279	80.013	19.993	103.885	20.019	2.323	0.492
245.500	193.558	80.012	19.993	103.889	20.020	2.250	0.483
246.000	193.817	80.013	19.992	103.886	20.016	2.508	0.515
246.500	194.047	80.013	19.993	103.882	20.015	2.629	0.514
247.000	194.281	80.010	19.993	103.879	20.018	2.429	0.477
247.500	194.500	80.013	19.993	103.875	20.019	2.362	0.459
248.000	194.742	80.013	19.992	103.869	20.018	2.393	0.457
248.500	195.011	80.011	19.993	103.868	20.024	1.969	0.486
249.000	195.285	80.014	19.993	103.867	20.019	2.333	0.527
249.500	195.494	80.011	19.993	103.866	20.018	2.393	0.513
250.000	195.781	80.011	19.993	103.866	20.019	2.339	0.490
250.500	196.048	80.011	19.992	103.869	20.020	2.261	0.525
251.000	196.275	80.012	19.994	103.868	20.019	2.312	0.524
251.500	196.578	80.009	19.993	103.868	20.018	2.427	0.512
252.000	196.772	80.013	19.994	103.868	20.017	2.462	0.514
252.500	196.993	80.010	19.993	103.864	20.017	2.454	0.456
253.000	197.282	80.011	19.993	103.862	20.017	2.466	0.462
253.500	197.498	80.010	19.993	103.862	20.018	2.376	0.508
254.000	197.728	80.012	19.995	103.862	20.021	2.218	0.476
254.500	198.040	80.011	19.994	103.862	20.025	1.907	0.494
255.000	198.252	80.012	19.993	103.863	20.020	2.246	0.533
255.500	198.516	80.011	19.994	103.863	20.016	2.507	0.500
256.000	198.772	80.011	19.993	103.863	20.018	2.376	0.498
256.500	199.042	80.011	19.993	103.863	20.018	2.371	0.523
257.000	199.287	80.011	19.994	103.864	20.018	2.431	0.520
257.500	199.477	80.014	19.994	103.864	20.014	2.669	0.475
258.000	199.705	80.011	19.993	103.862	20.017	2.476	0.426
258.500	199.992	80.013	19.993	103.858	20.017	2.446	0.467
259.000	200.247	80.013	19.994	103.855	20.020	2.244	0.529
259.500	200.478	80.012	19.993	103.853	20.016	2.520	0.514
260.000	200.724	80.011	19.993	103.853	20.020	2.228	0.482
260.500	200.963	80.013	19.993	103.855	20.019	2.331	0.481
261.000	201.219	80.014	19.994	103.859	20.019	2.333	0.490
261.501	201.460	80.013	19.995	103.860	20.019	2.337	0.496
262.001	201.740	80.013	19.993	103.862	20.017	2.460	0.509
262.500	201.974	80.013	19.994	103.864	20.018	2.384	0.517
263.000	202.232	80.014	19.994	103.865	20.022	2.144	0.503
263.500	202.481	80.012	19.994	103.864	20.022	2.142	0.500
264.000	202.719	80.013	19.993	103.866	20.020	2.279	0.497
264.500	202.963	80.014	19.993	103.866	20.018	2.401	0.484
265.000	203.229	80.012	19.993	103.865	20.019	2.355	0.496
265.500	203.484	80.015	19.993	103.866	20.020	2.281	0.516
266.000	203.743	80.013	19.994	103.871	20.019	2.333	0.517
266.500	203.929	80.014	19.994	103.877	20.019	2.320	0.479
267.000	204.217	80.012	19.993	103.885	20.020	2.238	0.459
267.500	204.447	80.013	19.993	103.891	20.019	2.302	0.496
268.000	204.704	80.012	19.994	103.897	20.019	2.294	0.503
268.500	204.949	80.014	19.993	103.892	20.019	2.302	0.495
269.000	205.206	80.011	19.992	103.885	20.022	2.088	0.502
269.500	205.471	80.012	19.993	103.877	20.022	2.102	0.512
270.000	205.685	80.013	19.994	103.870	20.023	2.067	0.500
270.500	205.930	80.014	19.994	103.865	20.021	2.164	0.469
271.000	206.231	80.013	19.993	103.865	20.021	2.164	0.503
271.500	206.438	80.013	19.993	103.864	20.021	2.199	0.527
272.000	206.719	80.012	19.992	103.864	20.020	2.285	0.498
272.500	206.960	80.011	19.993	103.864	20.021	2.207	0.505
273.000	207.246	80.012	19.994	103.862	20.022	2.135	0.524
273.500	207.478	80.012	19.992	103.862	20.021	2.174	0.523
274.000	207.714	80.009	19.992	103.860	20.023	2.049	0.494
274.500	207.999	80.012	19.993	103.860	20.019	2.294	0.495
275.000	208.177	80.012	19.994	103.860	20.022	2.094	0.492
275.500	208.495	80.010	19.993	103.866	20.021	2.199	0.479
276.000	208.744	80.010	19.994	103.868	20.021	2.199	0.531
276.500	208.981	80.010	19.993	103.871	20.017	2.461	0.526
277.000	209.208	80.010	19.992	103.871	20.019	2.325	0.476
277.500	209.515	80.009	19.993	103.872	20.018	2.382	0.499
278.000	209.708	80.010	19.993	103.867	20.018	2.364	0.517
278.501	209.963	80.009	19.993	103.866	20.022	2.125	0.474
279.000	210.233	80.010	19.993	103.865	20.022	2.146	0.486
279.500	210.448	80.010	19.994	103.866	20.023	2.010	0.505
280.000	210.680	80.009	19.993	103.865	20.021	2.181	0.467
280.500	210.941	80.010	19.993	103.867	20.019	2.337	0.470
281.000	211.270	80.010	19.993	103.870	20.020	2.230	0.541
281.500	211.481	80.008	19.993	103.871	20.019	2.333	0.565
282.000	211.767	80.011	19.994	103.879	20.022	2.086	0.518
282.500	212.034	80.009	19.994	103.885	20.021	2.195	0.525
283.000	212.269	80.009	19.995	103.890	20.019	2.294	0.528
283.500	212.488	80.010	19.994	103.893	20.025	1.926	0.478
284.000	212.745	80.010	19.993	103.892	20.023	2.035	0.465
284.500	213.020	80.009	19.993	103.886	20.025	1.932	0.504
285.000	213.281	80.010	19.994	103.879	20.026	1.804	0.534
285.500	213.501	80.007	19.993	103.869	20.027	1.751	0.508
286.000	213.744	80.010	19.994	103.858	20.028	1.673	0.472
286.500	214.045	80.009	19.993	103.854	20.027	1.753	0.504
287.000	214.268	80.010	19.994	103.852	20.028	1.699	0.534
287.500	214.561	80.009	19.994	103.852	20.027	1.734	0.520
288.001	214.796	80.010	19.994	103.856	20.025	1.930	0.521
288.500	215.021	80.010	19.993	103.861	20.025	1.889	0.493
289.000	215.282	80.010	19.994	103.864	20.025	1.868	0.473
289.500	215.475	80.010	19.993	103.864	20.025	1.912	0.470
290.000	215.760	80.011	19.994	103.864	20.028	1.706	0.466
290.500	215.969	80.011	19.993	103.864	20.027	1.788	0.486
291.000	216.248	80.008	19.993	103.864	20.025	1.876	0.491
291.500	216.511	80.010	19.993	103.856	20.025	1.897	0.515
292.000	216.772	80.010	19.995	103.849	20.028	1.704	0.533
292.500	217.019	80.009	19.993	103.844	20.032	1.422	0.516
293.000	217.326	80.012	19.993	103.843	20.024	1.975	0.531
293.500	217.551	80.011	19.993	103.844	20.027	1.759	0.543
294.000	217.757	80.011	19.993	103.852	20.026	1.862	0.482
294.500	218.049	80.009	19.992	103.859	20.030	1.572	0.464
295.000	218.274	80.011	19.992	103.862	20.025	1.879	0.507
295.500	218.495	80.011	19.993	103.862	20.027	1.765	0.481
296.000	218.725	80.012	19.994	103.861	20.024	1.969	0.449
296.500	219.007	80.011	19.992	103.861	20.022	2.094	0.482
297.000	219.275	80.010	19.992	103.861	20.024	1.991	0.531
297.500	219.499	80.011	19.992	103.863	20.024	1.973	0.520
298.000	219.778	80.010	19.993	103.860	20.024	1.955	0.497
298.500	220.054	80.011	19.993	103.859	20.024	1.986	0.529
299.000	220.296	80.010	19.993	103.852	20.022	2.140	0.536
299.500	220.497	80.012	19.991	103.844	20.023	2.078	0.480
300.000	220.803	80.011	19.994	103.839	20.023	2.041	0.475
300.500	221.042	80.011	19.993	103.841	20.022	2.125	0.526
301.000	221.290	80.011	19.993	103.843	20.019	2.324	0.515
301.500	221.521	80.010	19.992	103.850	20.016	2.515	0.483
302.001	221.747	80.009	19.992	103.854	20.019	2.296	0.468
302.500	222.031	80.010	19.993	103.853	20.023	2.041	0.484
303.000	222.243	80.010	19.992	103.848	20.021	2.161	0.503
303.500	222.499	80.010	19.993	103.840	20.023	2.074	0.482
304.000	222.759	80.011	19.993	103.832	20.019	2.340	0.492
304.500	223.033	80.010	19.993	103.829	20.021	2.214	0.525
305.000	223.250	80.009	19.993	103.834	20.022	2.124	0.512
305.500	223.495	80.011	19.993	103.838	20.021	2.218	0.477
306.000	223.768	80.011	19.993	103.842	20.025	1.875	0.490
306.500	224.027	80.010	19.994	103.850	20.023	2.064	0.525
307.000	224.253	80.010	19.993	103.856	20.024	1.986	0.509
307.500	224.482	80.009	19.994	103.857	20.023	2.068	0.470
308.000	224.725	80.008	19.992	103.853	20.025	1.891	0.463
308.500	225.010	80.011	19.993	103.848	20.022	2.095	0.500
309.000	225.232	80.010	19.994	103.841	20.027	1.749	0.517
309.500	225.462	80.011	19.994	103.838	20.029	1.621	0.479
310.000	225.720	80.009	19.994	103.838	20.027	1.769	0.470
310.500	225.932	80.011	19.993	103.846	20.031	1.467	0.479
311.000	226.193	80.010	19.994	103.859	20.029	1.597	0.471
311.500	226.417	80.011	19.994	103.874	20.027	1.734	0.479
312.000	226.663	80.010	19.993	103.878	20.026	1.854	0.478
312.500	226.935	80.010	19.994	103.877	20.027	1.782	0.494
313.000	227.142	80.011	19.993	103.869	20.025	1.910	0.498
313.500	227.396	80.009	19.994	103.855	20.025	1.873	0.470
314.000	227.665	80.011	19.993	103.841	20.023	2.029	0.492
314.500	227.875	80.010	19.993	103.832	20.025	1.872	0.501
315.000	228.116	80.011	19.993	103.826	20.025	1.911	0.465
315.500	228.341	80.011	19.993	103.826	20.029	1.642	0.459
316.000	228.624	80.009	19.993	103.827	20.026	1.829	0.487
316.500	228.871	80.010	19.994	103.831	20.028	1.706	0.519
317.000	229.126	80.010	19.993	103.835	20.026	1.839	0.516
317.500	229.363	80.010	19.992	103.835	20.023	2.035	0.497
318.001	229.624	80.010	19.993	103.840	20.027	1.762	0.495
318.500	229.835	80.011	19.993	103.845	20.030	1.566	0.485
319.000	230.101	80.012	19.993	103.844	20.026	1.807	0.474
319.500	230.378	80.010	19.993	103.840	20.026	1.815	0.510
320.000	230.650	80.011	19.991	103.846	20.029	1.603	0.546
320.500	230.890	80.010	19.992	103.848	20.026	1.815	0.531
321.000	231.115	80.011	19.994	103.850	20.025	1.887	0.489
321.500	231.361	80.012	19.995	103.854	20.025	1.872	0.468
322.000	231.591	80.011	19.993	103.854	20.029	1.588	0.473
322.500	231.817	80.010	19.993	103.848	20.030	1.545	0.466
323.000	232.053	80.013	19.994	103.839	20.026	1.841	0.459
323.500	232.328	80.012	19.994	103.832	20.028	1.701	0.486
324.000	232.581	80.013	19.993	103.831	20.028	1.683	0.519
324.500	232.827	80.011	19.993	103.837	20.026	1.862	0.514
325.000	233.090	80.013	19.992	103.845	20.026	1.825	0.504
325.500	233.302	80.013	19.994	103.851	20.025	1.903	0.492
326.000	233.558	80.013	19.993	103.858	20.024	1.957	0.472
326.500	233.804	80.012	19.992	103.856	20.023	2.018	0.485
327.000	234.055	80.011	19.993	103.853	20.023	2.033	0.499
327.500	234.278	80.013	19.993	103.848	20.023	2.078	0.485
328.000	234.543	80.012	19.992	103.842	20.021	2.185	0.481
328.500	234.822	80.014	19.993	103.836	20.021	2.195	0.516
329.000	235.044	80.012	19.993	103.831	20.024	2.000	0.522
329.500	235.296	80.013	19.993	103.829	20.030	1.516	0.487
330.000	235.534	80.011	19.992	103.827	20.024	1.987	0.482
330.500	235.797	80.011	19.992	103.830	20.024	1.961	0.495
331.000	236.033	80.012	19.992	103.836	20.026	1.844	0.500
331.500	236.252	80.012	19.994	103.842	20.027	1.755	0.477
332.000	236.517	80.013	19.993	103.848	20.029	1.617	0.469
332.500	236.764	80.011	19.992	103.856	20.027	1.745	0.498
333.000	237.019	80.012	19.992	103.860	20.028	1.657	0.507
333.500	237.239	80.012	19.993	103.858	20.027	1.745	0.488
334.000	237.506	80.010	19.993	103.859	20.027	1.747	0.481
334.500	237.756	80.012	19.992	103.857	20.029	1.638	0.502
335.000	238.025	80.010	19.992	103.852	20.024	1.971	0.518
335.501	238.292	80.013	19.992	103.847	20.028	1.700	0.527
336.000	238.485	80.011	19.993	103.848	20.027	1.788	0.497
336.500	238.753	80.012	19.993	103.848	20.025	1.887	0.460
337.000	238.998	80.012	19.993	103.847	20.025	1.895	0.487
337.500	239.239	80.011	19.993	103.849	20.024	1.947	0.499
338.000	239.493	80.011	19.992	103.852	20.029	1.626	0.491
338.500	239.704	80.012	19.993	103.853	20.027	1.776	0.480
339.000	239.955	80.011	19.994	103.856	20.026	1.864	0.463
339.500	240.202	80.013	19.992	103.859	20.031	1.510	0.480
340.000	240.495	80.010	19.993	103.860	20.030	1.539	0.519
340.500	240.737	80.011	19.991	103.857	20.029	1.589	0.537
341.000	240.977	80.011	19.992	103.850	20.031	1.482	0.509
341.500	241.212	80.012	19.993	103.845	20.031	1.513	0.478
342.000	241.470	80.011	19.992	103.838	20.029	1.634	0.484
342.500	241.769	80.011	19.993	103.832	20.026	1.805	0.525
343.000	241.960	80.011	19.992	103.830	20.028	1.689	0.524
343.500	242.207	80.013	19.993	103.829	20.031	1.471	0.464
344.000	242.502	80.013	19.993	103.829	20.026	1.833	0.490
344.500	242.738	80.012	19.993	103.832	20.030	1.531	0.537
345.000	243.004	80.011	19.993	103.835	20.029	1.591	0.517
345.500	243.297	80.012	19.994	103.839	20.030	1.551	0.531
346.000	243.538	80.012	19.993	103.841	20.028	1.699	0.546
346.500	243.798	80.012	19.992	103.838	20.030	1.547	0.517
347.000	244.021	80.011	19.993	103.833	20.031	1.502	0.492
347.500	244.300	80.013	19.992	103.831	20.028	1.695	0.492
348.000	244.547	80.013	19.992	103.827	20.030	1.539	0.514
348.500	244.793	80.011	19.993	103.824	20.028	1.656	0.510
349.000	245.032	80.012	19.994	103.828	20.026	1.823	0.489
349.500	245.298	80.014	19.992	103.830	20.025	1.893	0.495
350.000	245.511	80.011	19.992	103.830	20.026	1.833	0.492
350.500	245.764	80.011	19.992	103.829	20.026	1.821	0.472
351.000	246.041	80.013	19.993	103.829	20.028	1.660	0.498
351.500	246.314	80.011	19.992	103.826	20.029	1.628	0.540
352.000	246.556	80.012	19.994	103.826	20.026	1.848	0.533
352.500	246.838	80.010	19.992	103.828	20.027	1.745	0.520
353.000	247.078	80.010	19.993	103.829	20.026	1.854	0.523
353.500	247.354	80.011	19.993	103.831	20.023	2.031	0.519
354.000	247.569	80.012	19.992	103.836	20.024	1.955	0.503
354.500	247.823	80.011	19.993	103.838	20.022	2.091	0.480
355.000	248.102	80.013	19.993	103.840	20.027	1.761	0.501
355.500	248.349	80.013	19.993	103.839	20.026	1.807	0.529
356.000	248.605	80.011	19.993	103.843	20.023	2.037	0.514
356.500	248.894	80.011	19.993	103.845	20.024	1.955	0.524
357.000	249.166	80.010	19.993	103.851	20.026	1.831	0.553
357.500	249.412	80.009	19.993	103.848	20.024	1.959	0.540
358.000	249.677	80.011	19.993	103.849	20.029	1.632	0.515
358.500	249.943	80.011	19.992	103.845	20.025	1.914	0.521
359.000	250.172	80.011	19.992	103.838	20.029	1.640	0.513
359.500	250.453	80.011	19.993	103.839	20.027	1.780	0.503
360.000	250.756	80.009	19.992	103.844	20.030	1.584	0.547
360.500	250.998	80.011	19.993	103.849	20.029	1.646	0.565
361.000	251.230	80.010	19.993	103.853	20.029	1.587	0.510
361.500	251.522	80.010	19.992	103.853	20.026	1.803	0.499
362.000	251.737	80.012	19.993	103.846	20.030	1.554	0.515
362.500	251.991	80.009	19.993	103.839	20.028	1.669	0.488
363.000	252.232	80.006	19.993	103.832	20.030	1.581	0.482
363.500	252.479	80.007	19.993	103.828	20.030	1.517	0.492
364.000	252.738	80.008	19.992	103.828	20.030	1.558	0.497
364.500	253.002	80.009	19.992	103.824	20.030	1.578	0.515
365.000	253.235	80.011	19.991	103.823	20.027	1.759	0.510
365.500	253.510	80.009	19.993	103.827	20.028	1.694	0.502
366.000	253.732	80.010	19.994	103.833	20.031	1.445	0.502
366.500	253.999	80.011	19.994	103.834	20.029	1.643	0.493
367.000	254.246	80.011	19.993	103.838	20.031	1.499	0.502
367.500	254.453	80.010	19.992	103.839	20.032	1.428	0.484
368.000	254.708	80.011	19.994	103.834	20.030	1.579	0.458
368.500	254.982	80.012	19.994	103.827	20.032	1.410	0.495
369.000	255.246	80.011	19.994	103.827	20.029	1.626	0.533
369.500	255.484	80.011	19.994	103.826	20.029	1.648	0.520
370.000	255.737	80.008	19.993	103.831	20.029	1.595	0.496
370.500	255.972	80.012	19.993	103.836	20.029	1.646	0.490
371.000	256.220	80.010	19.994	103.837	20.031	1.444	0.486
371.500	256.474	80.010	19.994	103.838	20.030	1.539	0.493
372.000	256.716	80.010	19.993	103.836	20.030	1.525	0.499
372.500	256.966	80.010	19.994	103.827	20.033	1.302	0.493
373.000	257.203	80.010	19.993	103.821	20.032	1.440	0.489
373.500	257.503	80.011	19.994	103.821	20.030	1.564	0.512
374.000	257.785	80.010	19.995	103.823	20.029	1.620	0.560
374.500	258.016	80.011	19.994	103.824	20.030	1.560	0.548
375.000	258.242	80.010	19.994	103.830	20.028	1.685	0.485
375.500	258.496	80.011	19.994	103.834	20.029	1.653	0.468
376.000	258.762	80.010	19.994	103.833	20.034	1.237	0.500
376.500	258.991	80.011	19.994	103.826	20.030	1.556	0.508
377.000	259.249	80.009	19.994	103.819	20.032	1.399	0.492
377.500	259.499	80.011	19.994	103.810	20.030	1.576	0.498
378.000	259.747	80.010	19.994	103.805	20.033	1.344	0.503
378.500	259.957	80.009	19.994	103.804	20.031	1.476	0.478
379.000	260.200	80.012	19.993	103.809	20.030	1.556	0.456
379.500	260.457	80.010	19.994	103.816	20.027	1.737	0.476
380.000	260.716	80.010	19.994	103.822	20.032	1.405	0.508
380.500	260.953	80.010	19.995	103.826	20.030	1.515	0.506
381.000	261.189	80.011	19.997	103.834	20.031	1.488	0.485
381.500	261.442	80.011	19.994	103.840	20.033	1.309	0.481
382.000	261.690	80.009	19.995	103.846	20.030	1.537	0.495
382.500	261.881	80.011	19.995	103.848	20.032	1.397	0.470
383.000	262.165	80.011	19.995	103.845	20.032	1.422	0.458
383.500	262.426	80.010	19.996	103.839	20.033	1.311	0.510
384.000	262.666	80.011	19.995	103.831	20.033	1.305	0.523
384.500	262.912	80.011	19.995	103.824	20.033	1.369	0.493
385.000	263.155	80.010	19.995	103.822	20.033	1.334	0.488
385.500	263.430	80.009	19.996	103.822	20.032	1.422	0.504
386.000	263.650	80.010	19.995	103.824	20.034	1.268	0.507
386.500	263.926	80.008	19.995	103.825	20.033	1.365	0.496
387.000	264.195	80.010	19.994	103.825	20.035	1.198	0.521
387.500	264.371	80.010	19.994	103.825	20.033	1.326	0.495
388.000	264.625	80.009	19.993	103.825	20.034	1.264	0.437
388.500	264.850	80.011	19.994	103.823	20.032	1.377	0.455
389.000	265.110	80.010	19.993	103.822	20.031	1.488	0.482
389.500	265.368	80.007	19.994	103.822	20.032	1.406	0.502
390.000	265.607	80.011	19.994	103.823	20.032	1.412	0.508
390.500	265.869	80.009	19.994	103.827	20.033	1.309	0.499
391.000	266.124	80.009	19.994	103.831	20.035	1.198	0.509
391.500	266.335	80.008	19.994	103.831	20.033	1.331	0.492
392.000	266.537	80.011	19.995	103.825	20.032	1.391	0.440
392.500	266.818	80.010	19.994	103.822	20.033	1.367	0.448
393.000	266.981	80.010	19.993	103.818	20.037	1.087	0.463
393.500	267.273	80.009	19.993	103.813	20.037	1.083	0.450
394.000	267.501	80.010	19.994	103.813	20.036	1.132	0.488
394.500	267.750	80.010	19.994	103.819	20.036	1.120	0.499
395.000	267.975	80.009	19.994	103.818	20.035	1.192	0.475
395.500	268.230	80.006	19.993	103.817	20.034	1.251	0.477
396.000	268.451	80.010	19.993	103.819	20.036	1.111	0.478
396.500	268.711	80.009	19.993	103.818	20.036	1.114	0.479
397.000	268.955	80.009	19.994	103.816	20.034	1.268	0.493
397.500	269.214	80.009	19.994	103.818	20.035	1.169	0.503
398.000	269.460	80.012	19.993	103.817	20.035	1.177	0.504
398.500	269.684	80.011	19.993	103.809	20.038	1.000	0.488
399.000	269.926	80.011	19.993	103.805	20.035	1.165	0.467
399.500	270.170	80.011	19.994	103.807	20.036	1.130	0.476
400.000	270.414	80.011	19.993	103.808	20.033	1.301	0.487
400.500	270.674	80.011	19.994	103.810	20.036	1.146	0.496
401.000	270.897	80.010	19.993	103.819	20.035	1.204	0.493
401.500	271.162	80.012	19.993	103.823	20.035	1.194	0.485
402.000	271.432	80.012	19.993	103.824	20.037	1.050	0.511
402.500	271.604	80.012	19.993	103.822	20.037	1.021	0.488
403.000	271.858	80.011	19.992	103.822	20.039	0.928	0.434
403.500	272.108	80.011	19.993	103.821	20.038	0.959	0.465
404.000	272.333	80.010	19.992	103.818	20.036	1.091	0.489
404.500	272.611	80.010	19.993	103.818	20.033	1.323	0.489
405.000	272.851	80.010	19.993	103.820	20.036	1.152	0.511
405.500	273.095	80.011	19.993	103.815	20.038	0.996	0.501
406.000	273.297	80.011	19.993	103.816	20.037	1.062	0.465
406.500	273.552	80.010	19.994	103.817	20.036	1.134	0.452
407.000	273.782	80.011	19.993	103.811	20.037	1.052	0.471
407.500	274.013	80.011	19.993	103.806	20.038	0.961	0.473
408.000	274.267	80.011	19.992	103.805	20.040	0.834	0.473
408.500	274.504	80.012	19.993	103.803	20.039	0.943	0.488
409.000	274.737	80.010	19.993	103.804	20.036	1.155	0.481
409.500	274.979	80.011	19.994	103.811	20.040	0.836	0.472
410.000	275.248	80.012	19.993	103.815	20.037	1.033	0.493
410.500	275.452	80.012	19.993	103.819	20.038	0.980	0.492
411.000	275.676	80.011	19.993	103.815	20.037	1.056	0.451
411.500	275.957	80.011	19.993	103.815	20.037	1.058	0.467
412.000	276.171	80.011	19.993	103.814	20.036	1.095	0.500
412.500	276.404	80.010	19.993	103.816	20.041	0.770	0.471
413.000	276.634	80.010	19.992	103.818	20.040	0.829	0.455
413.500	276.895	80.010	19.993	103.824	20.036	1.113	0.477
414.000	277.099	80.011	19.993	103.825	20.033	1.303	0.478
414.500	277.334	80.010	19.993	103.827	20.037	1.052	0.452
415.000	277.569	80.010	19.992	103.827	20.039	0.883	0.455
415.500	277.822	80.011	19.993	103.827	20.037	1.062	0.479
416.000	278.048	80.010	19.992	103.829	20.037	1.041	0.483
416.500	278.274	80.010	19.993	103.828	20.036	1.109	0.465
417.000	278.491	80.010	19.993	103.828	20.035	1.167	0.448
417.500	278.785	80.009	19.993	103.828	20.038	1.010	0.477
418.000	279.019	80.010	19.993	103.825	20.036	1.101	0.519
418.500	279.246	80.010	19.992	103.821	20.036	1.148	0.495
419.000	279.443	80.011	19.993	103.821	20.037	1.070	0.443
419.500	279.709	80.008	19.992	103.821	20.035	1.187	0.443
420.000	279.978	80.010	19.993	103.821	20.034	1.286	0.499
420.500	280.186	80.010	19.993	103.823	20.035	1.204	0.506
421.000	280.424	80.010	19.993	103.826	20.039	0.941	0.462
421.500	280.678	80.009	19.991	103.826	20.034	1.243	0.469
422.000	280.946	80.013	19.992	103.825	20.035	1.196	0.507
422.500	281.166	80.010	19.993	103.823	20.035	1.218	0.505
423.000	281.402	80.012	19.991	103.822	20.037	1.054	0.472
423.500	281.641	80.012	19.993	103.819	20.036	1.142	0.466
424.000	281.877	80.010	19.992	103.818	20.037	1.045	0.475
424.500	282.134	80.012	19.993	103.819	20.038	0.959	0.484
425.000	282.330	80.012	19.993	103.821	20.033	1.338	0.473
425.500	282.554	80.011	19.992	103.822	20.033	1.367	0.436
426.000	282.806	80.012	19.992	103.824	20.034	1.280	0.448
426.500	283.049	80.011	19.991	103.821	20.035	1.165	0.486
427.000	283.231	80.012	19.992	103.821	20.039	0.918	0.460
427.500	283.526	80.012	19.992	103.820	20.039	0.939	0.451
428.000	283.759	80.011	19.992	103.820	20.035	1.218	0.503
428.500	284.010	80.012	19.993	103.821	20.038	0.965	0.506
429.000	284.221	80.011	19.992	103.824	20.040	0.854	0.473
429.500	284.415	80.011	19.992	103.825	20.041	0.772	0.433
430.000	284.680	80.012	19.992	103.827	20.037	1.072	0.432
430.500	284.941	80.012	19.991	103.827	20.038	1.004	0.493
431.000	285.169	80.012	19.992	103.825	20.039	0.922	0.508
431.500	285.377	80.011	19.992	103.818	20.041	0.801	0.462
432.000	285.677	80.013	19.991	103.817	20.036	1.124	0.472
432.500	285.886	80.013	19.992	103.815	20.035	1.165	0.509
433.000	286.094	80.013	19.993	103.815	20.035	1.198	0.462
433.500	286.376	80.014	19.993	103.817	20.036	1.113	0.453
434.000	286.546	80.013	19.991	103.824	20.036	1.118	0.471
434.500	286.816	80.013	19.993	103.823	20.037	1.023	0.446
435.000	287.088	80.012	19.992	103.823	20.037	1.035	0.492
435.500	287.355	80.012	19.993	103.821	20.035	1.200	0.541
436.000	287.545	80.013	19.993	103.820	20.036	1.107	0.498
436.500	287.789	80.012	19.994	103.820	20.036	1.126	0.445
437.000	287.985	80.012	19.993	103.820	20.033	1.326	0.437
437.500	288.270	80.012	19.993	103.820	20.034	1.290	0.461
438.000	288.534	80.011	19.994	103.820	20.038	0.978	0.515
438.500	288.703	80.012	19.993	103.818	20.031	1.508	0.491
439.000	288.945	80.011	19.993	103.818	20.034	1.239	0.422
439.500	289.186	80.011	19.993	103.817	20.037	1.070	0.447
440.000	289.378	80.010	19.992	103.816	20.036	1.111	0.458
440.500	289.599	80.012	19.993	103.817	20.035	1.229	0.423
441.000	289.891	80.010	19.995	103.819	20.035	1.185	0.462
441.500	290.118	80.012	19.994	103.818	20.035	1.167	0.515
442.000	290.444	80.012	19.994	103.819	20.033	1.315	0.536
442.500	290.641	80.011	19.993	103.817	20.037	1.033	0.539
443.000	290.860	80.010	19.993	103.817	20.034	1.266	0.470
443.500	291.113	80.010	19.993	103.818	20.034	1.243	0.444
444.000	291.377	80.011	19.993	103.818	20.032	1.441	0.494
444.500	291.615	80.010	19.993	103.819	20.037	1.054	0.509
445.000	291.882	80.011	19.994	103.822	20.033	1.321	0.504
445.500	292.088	80.011	19.994	103.820	20.032	1.377	0.489
446.001	292.354	80.008	19.993	103.816	20.031	1.507	0.473
446.501	292.568	80.008	19.993	103.815	20.032	1.412	0.476
447.000	292.816	80.010	19.993	103.808	20.033	1.361	0.471
447.500	293.033	80.009	19.995	103.806	20.031	1.490	0.463
448.000	293.273	80.011	19.993	103.809	20.031	1.486	0.461
448.500	293.517	80.010	19.993	103.812	20.031	1.490	0.471
449.000	293.783	80.011	19.994	103.815	20.034	1.233	0.497
449.500	294.003	80.011	19.995	103.822	20.031	1.461	0.498
450.000	294.211	80.011	19.994	103.822	20.033	1.301	0.457
450.500	294.521	80.010	19.994	103.823	20.032	1.381	0.474
451.000	294.730	80.010	19.993	103.822	20.034	1.261	0.519
451.500	294.944	80.010	19.994	103.820	20.033	1.350	0.471
452.000	295.184	80.010	19.993	103.815	20.032	1.393	0.439
452.500	295.460	80.010	19.993	103.816	20.030	1.515	0.485
453.000	295.668	80.010	19.994	103.816	20.031	1.500	0.499
453.500	295.928	80.011	19.994	103.815	20.030	1.543	0.476
454.000	296.162	80.010	19.994	103.817	20.031	1.467	0.481
454.500	296.451	80.010	19.993	103.821	20.034	1.251	0.509
455.000	296.666	80.010	19.993	103.822	20.035	1.212	0.514
455.500	296.888	80.010	19.993	103.822	20.036	1.142	0.471
456.000	297.155	80.010	19.994	103.819	20.033	1.358	0.463
456.500	297.392	80.008	19.994	103.819	20.036	1.091	0.496
457.000	297.632	80.012	19.994	103.817	20.034	1.272	0.490
457.500	297.905	80.010	19.992	103.816	20.035	1.171	0.495
458.000	298.141	80.011	19.994	103.812	20.035	1.161	0.511
458.500	298.340	80.009	19.993	103.814	20.035	1.190	0.472
459.000	298.585	80.010	19.994	103.815	20.036	1.138	0.439
459.500	298.850	80.011	19.993	103.817	20.033	1.371	0.477
460.000	299.115	80.010	19.993	103.819	20.034	1.256	0.520
460.500	299.302	80.011	19.994	103.826	20.034	1.284	0.491
461.000	299.522	80.011	19.993	103.830	20.031	1.449	0.429
461.500	299.817	80.011	19.993	103.829	20.034	1.299	0.461
462.000	300.057	80.009	19.994	103.829	20.032	1.439	0.525
462.500	300.298	80.011	19.993	103.828	20.036	1.109	0.508
463.000	300.579	80.010	19.994	103.827	20.035	1.214	0.501
463.500	300.798	80.011	19.992	103.824	20.035	1.179	0.511
464.000	301.020	80.011	19.994	103.824	20.036	1.115	0.471
464.500	301.276	80.011	19.993	103.824	20.033	1.367	0.460
465.000	301.505	80.010	19.994	103.824	20.035	1.185	0.481
465.500	301.776	80.011	19.994	103.821	20.035	1.198	0.492
466.000	302.003	80.010	19.994	103.819	20.033	1.332	0.499
466.500	302.270	80.010	19.993	103.817	20.036	1.154	0.496
467.000	302.512	80.009	19.994	103.815	20.036	1.109	0.502
467.500	302.711	80.010	19.993	103.812	20.035	1.177	0.475
468.000	303.015	80.009	19.993	103.812	20.035	1.224	0.472
468.500	303.215	80.011	19.993	103.810	20.034	1.237	0.503
469.000	303.522	80.011	19.993	103.805	20.039	0.936	0.506
469.500	303.764	80.010	19.994	103.803	20.037	1.023	0.529
470.000	304.002	80.009	19.993	103.806	20.037	1.023	0.515
470.500	304.191	80.009	19.995	103.807	20.035	1.163	0.453
471.000	304.506	80.009	19.994	103.812	20.040	0.852	0.465
471.500	304.723	80.008	19.995	103.819	20.032	1.424	0.518
472.000	304.965	80.009	19.993	103.823	20.033	1.338	0.495
472.500	305.216	80.009	19.994	103.824	20.038	0.963	0.476
473.000	305.458	80.009	19.994	103.825	20.037	1.066	0.493
473.500	305.713	80.009	19.995	103.826	20.034	1.257	0.495
474.001	305.946	80.009	19.994	103.825	20.037	1.021	0.492
474.500	306.207	80.008	19.994	103.820	20.039	0.920	0.491
475.000	306.424	80.009	19.994	103.818	20.038	1.011	0.486
475.500	306.653	80.008	19.994	103.816	20.035	1.171	0.462
476.000	306.923	80.010	19.995	103.816	20.036	1.155	0.472
476.500	307.160	80.009	19.993	103.818	20.035	1.183	0.503
477.000	307.445	80.009	19.994	103.822	20.032	1.426	0.514
477.500	307.696	80.010	19.995	103.824	20.032	1.393	0.528
478.000	307.959	80.011	19.994	103.824	20.035	1.190	0.525
478.500	308.190	80.009	19.993	103.822	20.037	1.078	0.504
479.000	308.388	80.010	19.994	103.822	20.034	1.276	0.462
479.500	308.664	80.010	19.994	103.822	20.033	1.315	0.452
480.000	308.917	80.012	19.994	103.822	20.033	1.317	0.501
480.500	309.201	80.010	19.995	103.821	20.034	1.241	0.533
481.000	309.434	80.010	19.995	103.822	20.037	1.060	0.527
481.500	309.670	80.009	19.994	103.823	20.036	1.157	0.493
482.000	309.958	80.010	19.994	103.822	20.034	1.239	0.497
482.500	310.157	80.011	19.994	103.822	20.033	1.303	0.506
483.000	310.408	80.011	19.995	103.825	20.037	1.076	0.469
483.500	310.684	80.012	19.996	103.825	20.034	1.235	0.488
484.000	310.934	80.010	19.995	103.825	20.035	1.214	0.527
484.500	311.179	80.011	19.994	103.825	20.036	1.109	0.511
485.000	311.448	80.010	19.995	103.824	20.036	1.144	0.504
485.500	311.704	80.010	19.994	103.823	20.039	0.943	0.519
486.000	311.914	80.011	19.994	103.822	20.034	1.270	0.496
486.500	312.171	80.011	19.993	103.821	20.034	1.261	0.467
487.000	312.428	80.011	19.993	103.821	20.035	1.200	0.491
487.500	312.710	80.011	19.993	103.822	20.037	1.070	0.526
488.000	312.986	80.011	19.993	103.823	20.035	1.165	0.549
488.500	313.233	80.011	19.992	103.824	20.038	0.984	0.541
489.000	313.452	80.012	19.994	103.826	20.036	1.105	0.494
489.500	313.694	80.012	19.993	103.826	20.034	1.235	0.463
490.000	313.916	80.012	19.992	103.826	20.037	1.085	0.463
490.500	314.220	80.011	19.993	103.826	20.039	0.893	0.495
491.000	314.448	80.012	19.993	103.825	20.038	0.996	0.529
491.500	314.640	80.011	19.993	103.823	20.036	1.097	0.476
492.000	314.992	80.011	19.993	103.823	20.038	1.009	0.482
492.500	315.210	80.013	19.992	103.822	20.032	1.395	0.557
493.000	315.477	80.011	19.994	103.822	20.032	1.383	0.528
493.500	315.771	80.011	19.993	103.821	20.035	1.186	0.523
494.000	315.974	80.011	19.994	103.819	20.035	1.173	0.529
494.500	316.217	80.012	19.992	103.817	20.040	0.871	0.471
495.000	316.505	80.011	19.993	103.818	20.031	1.496	0.489
495.500	316.756	80.012	19.992	103.818	20.042	0.710	0.535
496.000	317.043	80.010	19.993	103.820	20.038	1.008	0.539
496.500	317.270	80.012	19.993	103.824	20.032	1.437	0.526
497.000	317.526	80.010	19.993	103.826	20.033	1.338	0.498
497.500	317.739	80.013	19.993	103.826	20.034	1.272	0.476
498.000	318.027	80.011	19.992	103.826	20.033	1.311	0.485
498.500	318.329	80.012	19.991	103.824	20.035	1.225	0.545
499.000	318.553	80.010	19.992	103.824	20.034	1.247	0.558
499.501	318.826	80.011	19.993	103.821	20.035	1.192	0.511
500.000	319.037	80.011	19.991	103.817	20.037	1.043	0.490
500.500	319.313	80.011	19.992	103.813	20.037	1.037	0.485
501.000	319.577	80.012	19.994	103.815	20.035	1.206	0.514
501.500	319.829	80.010	19.994	103.812	20.034	1.243	0.528
502.000	320.126	80.011	19.993	103.814	20.037	1.072	0.533
502.501	320.357	80.012	19.994	103.813	20.037	1.046	0.538
503.001	320.536	80.011	19.993	103.816	20.035	1.185	0.469
503.500	320.914	80.012	19.992	103.814	20.036	1.130	0.484
504.000	321.148	80.011	19.994	103.814	20.035	1.187	0.584
504.500	321.429	80.010	19.993	103.813	20.034	1.239	0.563
505.000	321.734	80.013	19.994	103.816	20.036	1.136	0.551
505.500	321.845	80.011	19.994	103.816	20.033	1.330	0.501
506.000	322.347	80.012	19.993	103.817	20.033	1.344	0.515
506.500	322.175	80.011	19.992	103.816	20.038	0.965	0.472
507.000	322.683	80.013	19.993	103.813	20.033	1.358	0.333
507.500	323.081	80.012	19.992	103.811	20.036	1.111	0.621
508.000	322.985	80.011	19.992	103.810	20.036	1.144	0.604
508.500	323.614	80.012	19.993	103.811	20.033	1.328	0.418
509.000	323.626	80.012	19.993	103.814	20.033	1.309	0.587
509.500	323.903	80.012	19.993	103.818	20.035	1.188	0.464
510.000	324.502	80.012	19.992	103.822	20.032	1.430	0.582
510.500	324.358	80.013	19.994	103.822	20.031	1.513	0.666
511.000	324.821	80.013	19.993	103.819	20.032	1.433	0.387
511.500	325.086	80.014	19.994	103.818	20.033	1.357	0.523
512.000	325.329	80.013	19.994	103.815	20.030	1.558	0.618
512.500	325.557	80.012	19.993	103.811	20.029	1.638	0.489
513.000	325.947	80.013	19.992	103.810	20.032	1.379	0.544
513.500	326.094	80.013	19.992	103.812	20.033	1.369	0.578
514.000	326.444	80.015	19.992	103.813	20.031	1.476	0.517
514.500	326.714	80.012	19.993	103.817	20.034	1.298	0.559
515.000	326.971	80.015	19.993	103.821	20.034	1.284	0.573
515.500	327.257	80.014	19.993	103.822	20.032	1.402	0.535
516.000	327.537	80.013	19.992	103.822	20.036	1.142	0.554
516.500	327.733	80.013	19.993	103.818	20.035	1.196	0.521
517.000	328.024	80.014	19.993	103.812	20.037	1.079	0.481
517.500	328.246	80.013	19.992	103.809	20.036	1.157	0.499
518.000	328.552	80.013	19.993	103.809	20.033	1.326	0.520
518.500	328.731	80.013	19.993	103.808	20.034	1.271	0.507
519.000	329.041	80.013	19.994	103.812	20.038	1.007	0.487
519.500	329.264	80.013	19.993	103.816	20.034	1.252	0.511
520.000	329.568	80.012	19.993	103.817	20.039	0.939	0.530
520.500	329.849	80.011	19.994	103.813	20.040	0.867	0.556
521.000	330.122	80.013	19.993	103.809	20.036	1.139	0.570
521.500	330.427	80.012	19.993	103.804	20.039	0.922	0.566
522.000	330.668	80.011	19.993	103.798	20.035	1.198	0.562
522.500	330.884	80.011	19.993	103.794	20.038	1.009	0.501
523.000	331.160	80.012	19.994	103.798	20.037	1.077	0.475
523.500	331.391	80.010	19.993	103.803	20.037	1.019	0.500
524.000	331.686	80.010	19.993	103.812	20.035	1.169	0.517
524.500	331.848	80.010	19.994	103.820	20.039	0.883	0.491
525.000	332.142	80.010	19.993	103.827	20.041	0.790	0.456
525.500	332.428	80.009	19.992	103.828	20.035	1.182	0.518
526.000	332.638	80.011	19.993	103.820	20.036	1.159	0.538
526.500	332.961	80.010	19.993	103.809	20.038	0.978	0.514
527.000	333.197	80.012	19.993	103.800	20.038	0.982	0.546
527.500	333.462	80.010	19.994	103.785	20.036	1.111	0.530
528.000	333.762	80.011	19.994	103.771	20.037	1.025	0.533
528.500	333.999	80.011	19.994	103.764	20.037	1.064	0.551
529.000	334.227	80.011	19.994	103.759	20.036	1.124	0.501
529.500	334.505	80.011	19.992	103.759	20.036	1.136	0.485
530.000	334.819	80.010	19.993	103.768	20.039	0.901	0.549
530.500	335.071	80.011	19.993	103.777	20.036	1.109	0.579
531.000	335.276	80.010	19.994	103.783	20.043	0.601	0.512
531.500	335.554	80.011	19.993	103.787	20.037	1.082	0.470
532.000	335.787	80.011	19.993	103.788	20.037	1.039	0.497
532.500	336.056	80.011	19.993	103.792	20.038	0.965	0.506
533.000	336.327	80.010	19.992	103.799	20.036	1.128	0.521
533.500	336.568	80.012	19.993	103.803	20.037	1.056	0.526
534.000	336.836	80.011	19.993	103.808	20.038	0.980	0.511
534.500	337.083	80.011	19.993	103.813	20.042	0.716	0.512
535.000	337.363	80.009	19.992	103.807	20.039	0.928	0.521
535.500	337.570	80.011	19.993	103.799	20.045	0.502	0.507
536.000	337.876	80.010	19.992	103.800	20.041	0.762	0.500
536.500	338.114	80.012	19.994	103.804	20.042	0.696	0.528
537.000	338.362	80.010	19.992	103.805	20.043	0.663	0.515
537.500	338.613	80.011	19.993	103.811	20.042	0.733	0.492
538.000	338.853	80.012	19.994	103.814	20.044	0.576	0.495
538.500	339.112	80.010	19.993	103.813	20.044	0.529	0.495
539.000	339.379	80.010	19.993	103.807	20.041	0.797	0.513
539.500	339.582	80.010	19.993	103.806	20.042	0.684	0.498
540.000	339.890	80.012	19.993	103.805	20.042	0.731	0.490
540.500	340.095	80.011	19.993	103.810	20.043	0.630	0.512
541.000	340.327	80.010	19.993	103.814	20.044	0.558	0.475
541.500	340.602	80.011	19.993	103.819	20.046	0.438	0.472
542.000	340.864	80.011	19.993	103.823	20.042	0.679	0.521
542.500	341.150	80.011	19.994	103.825	20.043	0.663	0.542
543.000	341.387	80.010	19.992	103.821	20.044	0.574	0.536
543.500	341.618	80.010	19.993	103.819	20.042	0.692	0.496
544.000	341.872	80.011	19.993	103.818	20.042	0.688	0.477
544.500	342.153	80.011	19.993	103.817	20.045	0.494	0.510
545.000	342.405	80.010	19.993	103.816	20.043	0.634	0.534
545.500	342.648	80.010	19.993	103.813	20.040	0.848	0.514
546.000	342.876	80.011	19.993	103.808	20.043	0.630	0.483
546.500	343.102	80.010	19.993	103.802	20.039	0.908	0.463
547.000	343.337	80.010	19.993	103.796	20.038	0.990	0.458
547.500	343.600	80.010	19.993	103.791	20.040	0.846	0.480
548.000	343.891	80.010	19.994	103.790	20.040	0.860	0.526
548.500	344.097	80.009	19.994	103.789	20.041	0.778	0.526
549.000	344.334	80.011	19.992	103.789	20.041	0.753	0.470
549.500	344.599	80.010	19.993	103.787	20.037	1.066	0.472
550.000	344.857	80.010	19.994	103.787	20.037	1.033	0.512
550.500	345.090	80.009	19.993	103.788	20.038	0.969	0.507
551.000	345.380	80.010	19.993	103.788	20.039	0.939	0.507
551.500	345.611	80.010	19.994	103.788	20.036	1.089	0.522
552.000	345.880	80.009	19.994	103.788	20.040	0.819	0.510
552.500	346.112	80.010	19.993	103.788	20.041	0.792	0.500
553.000	346.345	80.011	19.993	103.788	20.038	0.990	0.483
553.500	346.545	80.009	19.993	103.788	20.040	0.850	0.449
554.000	346.800	80.010	19.993	103.789	20.037	1.023	0.444
554.500	347.114	80.011	19.994	103.789	20.035	1.167	0.512
555.000	347.353	80.010	19.993	103.788	20.036	1.148	0.561
555.500	347.563	80.009	19.994	103.788	20.037	1.087	0.501
556.000	347.832	80.009	19.994	103.789	20.037	1.044	0.464
556.501	348.104	80.010	19.994	103.795	20.031	1.457	0.510
557.000	348.293	80.010	19.994	103.796	20.036	1.124	0.501
557.500	348.530	80.009	19.993	103.797	20.036	1.153	0.444
558.000	348.790	80.008	19.994	103.798	20.035	1.186	0.462
558.500	349.024	80.010	19.994	103.802	20.036	1.140	0.495
559.000	349.285	80.010	19.994	103.804	20.033	1.338	0.494
559.500	349.511	80.008	19.993	103.806	20.034	1.249	0.491
560.000	349.804	80.009	19.993	103.808	20.038	0.986	0.503
560.500	350.000	80.011	19.994	103.810	20.035	1.175	0.504
561.000	350.254	80.009	19.995	103.813	20.036	1.118	0.469
561.500	350.486	80.009	19.995	103.812	20.036	1.157	0.468
562.000	350.773	80.008	19.994	103.813	20.034	1.288	0.503
562.500	351.001	80.010	19.994	103.813	20.036	1.101	0.517
563.000	351.224	80.010	19.995	103.811	20.034	1.247	0.483
563.500	351.482	80.010	19.994	103.804	20.035	1.202	0.466
564.000	351.757	80.010	19.994	103.803	20.037	1.042	0.507
564.500	351.971	80.010	19.995	103.807	20.038	0.980	0.511
565.000	352.195	80.010	19.995	103.809	20.035	1.209	0.464
565.500	352.468	80.011	19.994	103.808	20.032	1.398	0.468
566.000	352.737	80.011	19.992	103.808	20.036	1.136	0.519
566.500	352.976	80.011	19.994	103.808	20.031	1.470	0.525
567.000	353.248	80.009	19.994	103.807	20.032	1.439	0.510
567.500	353.472	80.012	19.993	103.808	20.031	1.460	0.504
568.000	353.723	80.011	19.994	103.815	20.030	1.546	0.486
568.500	353.972	80.011	19.994	103.814	20.033	1.355	0.488
569.000	354.211	80.012	19.993	103.809	20.033	1.307	0.494
569.500	354.412	80.012	19.993	103.807	20.031	1.449	0.464
570.000	354.692	80.011	19.994	103.807	20.029	1.599	0.460
570.500	354.937	80.012	19.995	103.807	20.031	1.513	0.503
571.000	355.155	80.011	19.994	103.812	20.029	1.585	0.494
571.500	355.378	80.011	19.994	103.816	20.031	1.511	0.452
572.000	355.637	80.011	19.993	103.818	20.030	1.517	0.461
572.500	355.899	80.012	19.995	103.816	20.032	1.389	0.501
573.000	356.182	80.012	19.994	103.809	20.030	1.537	0.533
573.500	356.403	80.011	19.993	103.803	20.031	1.513	0.525
574.000	356.665	80.011	19.993	103.800	20.032	1.379	0.493
574.501	356.884	80.011	19.995	103.793	20.033	1.327	0.482
575.000	357.113	80.011	19.995	103.786	20.032	1.418	0.464
575.500	357.366	80.012	19.994	103.786	20.029	1.622	0.465
576.000	357.586	80.012	19.993	103.785	20.032	1.441	0.478
576.500	357.843	80.011	19.994	103.787	20.031	1.480	0.475
577.000	358.064	80.011	19.993	103.787	20.031	1.486	0.477
577.500	358.305	80.011	19.994	103.788	20.031	1.492	0.470
578.000	358.567	80.011	19.994	103.788	20.027	1.776	0.483
578.500	358.782	80.011	19.995	103.792	20.030	1.546	0.490
579.000	359.056	80.012	19.994	103.789	20.028	1.667	0.483
579.500	359.303	80.011	19.994	103.789	20.025	1.920	0.504
580.000	359.545	80.012	19.995	103.793	20.025	1.912	0.504
580.500	359.780	80.011	19.994	103.800	20.026	1.846	0.483
581.000	360.017	80.011	19.995	103.804	20.025	1.898	0.475
581.500	360.287	80.011	19.995	103.810	20.027	1.764	0.489
582.000	360.515	80.012	19.993	103.820	20.026	1.820	0.503
582.500	360.777	80.012	19.994	103.828	20.023	2.027	0.494
583.000	361.022	80.011	19.995	103.829	20.026	1.850	0.499
583.500	361.284	80.012	19.994	103.829	20.027	1.793	0.507
584.000	361.546	80.012	19.994	103.829	20.026	1.846	0.515
584.500	361.770	80.012	19.995	103.826	20.026	1.828	0.505
585.000	362.004	80.011	19.993	103.817	20.022	2.087	0.473
585.500	362.267	80.011	19.994	103.815	20.021	2.173	0.477
586.000	362.523	80.011	19.994	103.814	20.023	2.073	0.508
586.500	362.807	80.012	19.993	103.813	20.022	2.079	0.529
587.000	363.001	80.012	19.994	103.808	20.018	2.363	0.509
587.500	363.289	80.012	19.993	103.808	20.018	2.365	0.481
588.000	363.552	80.011	19.993	103.805	20.018	2.379	0.516
588.500	363.808	80.012	19.993	103.804	20.019	2.332	0.535
589.000	364.099	80.012	19.993	103.806	20.019	2.293	0.533
589.500	364.363	80.013	19.993	103.812	20.015	2.577	0.551
590.000	364.590	80.012	19.993	103.813	20.018	2.424	0.523
590.500	364.883	80.012	19.992	103.815	20.018	2.385	0.505
591.000	365.148	80.013	19.991	103.815	20.016	2.508	0.539
591.500	365.373	80.013	19.992	103.814	20.018	2.426	0.524
592.000	365.631	80.012	19.993	103.811	20.016	2.560	0.486
592.500	365.867	80.013	19.994	103.808	20.017	2.465	0.489
593.000	366.154	80.013	19.993	103.808	20.013	2.754	0.509
593.500	366.423	80.013	19.993	103.806	20.014	2.690	0.539
594.000	366.661	80.014	19.993	103.804	20.011	2.869	0.531
594.500	366.954	80.013	19.993	103.807	20.011	2.865	0.519
595.000	367.223	80.014	19.993	103.812	20.012	2.799	0.547
595.500	367.497	80.012	19.993	103.813	20.010	2.943	0.553
596.000	367.758	80.013	19.992	103.815	20.013	2.745	0.539
596.500	368.033	80.013	19.991	103.818	20.010	2.963	0.536
597.000	368.275	80.012	19.993	103.819	20.009	3.025	0.526
597.500	368.548	80.014	19.993	103.820	20.010	2.945	0.516
598.000	368.827	80.014	19.992	103.818	20.004	3.356	0.533
598.500	369.106	80.014	19.993	103.814	20.009	3.048	0.555
599.000	369.380	80.013	19.992	103.814	20.009	3.048	0.556
599.500	369.646	80.013	19.993	103.816	20.004	3.375	0.547
600.000	369.960	80.013	19.994	103.817	20.006	3.258	0.560
600.500	370.221	80.012	19.993	103.827	20.004	3.418	0.577
601.000	370.468	80.013	19.994	103.837	20.003	3.480	0.542
601.500	370.721	80.012	19.992	103.838	20.004	3.373	0.504
602.000	370.996	80.013	19.993	103.838	20.000	3.682	0.514
602.500	371.258	80.012	19.993	103.835	19.999	3.719	0.532
603.000	371.581	80.012	19.992	103.829	20.001	3.620	0.561
603.500	371.838	80.012	19.993	103.821	20.001	3.606	0.582
604.000	372.076	80.011	19.993	103.819	19.999	3.743	0.538
604.500	372.391	80.011	19.993	103.819	19.998	3.803	0.524
605.000	372.696	80.010	19.993	103.821	19.996	3.937	0.586
605.500	372.906	80.011	19.993	103.822	19.996	3.951	0.567
606.000	373.191	80.010	19.994	103.824	19.995	4.032	0.505
606.500	373.458	80.011	19.992	103.825	19.993	4.198	0.524
607.001	373.721	80.011	19.992	103.825	19.994	4.126	0.541
607.500	374.027	80.011	19.993	103.825	19.994	4.069	0.550
608.000	374.246	80.009	19.993	103.828	19.993	4.178	0.547
608.500	374.542	80.011	19.993	103.828	19.989	4.457	0.520
609.000	374.821	80.010	19.993	103.830	19.990	4.402	0.545
609.500	375.082	80.011	19.994	103.829	19.991	4.314	0.557
610.000	375.400	80.010	19.993	103.829	19.987	4.600	0.559
610.500	375.647	80.010	19.993	103.827	19.986	4.639	0.572
611.000	375.918	80.010	19.993	103.827	19.984	4.776	0.541
611.500	376.199	80.011	19.993	103.827	19.983	4.904	0.535
612.000	376.464	80.012	19.994	103.827	19.979	5.163	0.549
612.500	376.740	80.010	19.994	103.827	19.981	5.009	0.543
613.000	377.027	80.011	19.993	103.828	19.981	5.021	0.552
613.500	377.281	80.011	19.994	103.825	19.979	5.159	0.552
614.000	377.593	80.011	19.993	103.823	19.975	5.453	0.554
614.500	377.825	80.011	19.993	103.823	19.975	5.456	0.555
615.000	378.104	80.010	19.993	103.823	19.969	5.834	0.528
615.500	378.377	80.011	19.994	103.822	19.971	5.733	0.532
616.000	378.669	80.011	19.993	103.824	19.966	6.069	0.558
616.500	378.936	80.011	19.993	103.825	19.970	5.795	0.562
617.000	379.210	80.012	19.993	103.825	19.962	6.334	0.550
617.500	379.482	80.010	19.994	103.825	19.963	6.278	0.544
618.000	379.763	80.010	19.993	103.825	19.963	6.278	0.550
618.500	380.022	80.012	19.992	103.826	19.961	6.425	0.546
619.000	380.339	80.010	19.993	103.827	19.960	6.469	0.558
619.500	380.602	80.010	19.993	103.827	19.961	6.428	0.578
620.001	380.884	80.009	19.991	103.823	19.959	6.575	0.563
620.500	381.126	80.010	19.993	103.823	19.960	6.484	0.534
621.000	381.423	80.010	19.994	103.823	19.956	6.748	0.532
621.500	381.715	80.010	19.994	103.825	19.955	6.851	0.564
622.000	381.937	80.010	19.994	103.827	19.953	6.974	0.551
622.500	382.237	80.010	19.993	103.833	19.949	7.252	0.518
623.000	382.525	80.011	19.993	103.834	19.950	7.236	0.555
623.500	382.772	80.011	19.992	103.834	19.943	7.705	0.561
624.000	383.063	80.010	19.993	103.832	19.938	8.044	0.537
624.500	383.316	80.011	19.992	103.831	19.939	7.996	0.541
625.000	383.599	80.010	19.993	103.828	19.936	8.169	0.540
625.500	383.851	80.010	19.992	103.827	19.937	8.150	0.536
626.000	384.078	80.010	19.993	103.826	19.934	8.359	0.507
626.500	384.390	80.011	19.993	103.826	19.927	8.803	0.509
627.000	384.687	80.010	19.992	103.827	19.926	8.881	0.574
627.500	384.920	80.012	19.993	103.829	19.923	9.103	0.570
628.000	385.213	80.010	19.992	103.828	19.920	9.299	0.528
628.500	385.447	80.011	19.992	103.829	19.918	9.456	0.526
629.000	385.722	80.011	19.993	103.829	19.916	9.630	0.518
629.500	385.983	80.010	19.994	103.824	19.917	9.556	0.523
630.000	386.239	80.011	19.993	103.818	19.913	9.793	0.526
630.500	386.528	80.010	19.993	103.811	19.911	9.958	0.530
631.000	386.779	80.009	19.995	103.803	19.908	10.167	0.543
631.500	387.057	80.010	19.994	103.798	19.907	10.237	0.535
632.000	387.335	80.010	19.994	103.796	19.904	10.441	0.543
632.500	387.614	80.010	19.994	103.793	19.902	10.634	0.557
633.000	387.876	80.011	19.993	103.795	19.902	10.631	0.549
633.500	388.135	80.011	19.994	103.801	19.899	10.809	0.531
634.000	388.419	80.010	19.994	103.799	19.895	11.113	0.532
634.500	388.660	80.010	19.993	103.799	19.891	11.411	0.534
635.000	388.931	80.009	19.994	103.803	19.887	11.690	0.519
635.500	389.147	80.009	19.994	103.808	19.885	11.807	0.499
636.000	389.457	80.010	19.993	103.809	19.881	12.093	0.506
636.500	389.723	80.009	19.993	103.816	19.878	12.280	0.551
637.000	389.972	80.010	19.994	103.828	19.872	12.690	0.546
637.500	390.249	80.011	19.994	103.838	19.867	13.082	0.521
638.000	390.474	80.009	19.993	103.840	19.867	13.042	0.514
638.500	390.789	80.009	19.994	103.840	19.870	12.865	0.521
639.000	391.041	80.011	19.994	103.838	19.868	12.972	0.553
639.500	391.257	80.011	19.994	103.830	19.862	13.405	0.517
640.000	391.567	80.010	19.994	103.820	19.864	13.276	0.497
640.500	391.853	80.009	19.996	103.814	19.861	13.474	0.562
641.000	392.099	80.012	19.995	103.810	19.857	13.800	0.564
641.500	392.363	80.009	19.995	103.805	19.852	14.137	0.521
642.000	392.654	80.012	19.992	103.800	19.851	14.228	0.533
642.500	392.953	80.010	19.995	103.796	19.848	14.430	0.572
643.000	393.188	80.010	19.993	103.797	19.845	14.641	0.562
643.500	393.479	80.010	19.993	103.801	19.839	15.023	0.530
644.000	393.767	80.011	19.994	103.808	19.836	15.303	0.553
644.500	393.988	80.010	19.993	103.815	19.833	15.456	0.544
645.000	394.303	80.010	19.994	103.823	19.827	15.886	0.523
645.500	394.591	80.011	19.995	103.828	19.825	16.018	0.570
646.000	394.808	80.010	19.995	103.836	19.819	16.482	0.554
646.500	395.071	80.012	19.994	103.841	19.813	16.902	0.492
647.000	395.364	80.010	19.994	103.840	19.810	17.085	0.518
647.501	395.674	80.011	19.994	103.840	19.809	17.162	0.580
648.000	395.887	80.011	19.994	103.836	19.809	17.163	0.563
648.500	396.146	80.012	19.995	103.827	19.800	17.791	0.497
649.000	396.428	80.011	19.994	103.820	19.801	17.718	0.507
649.500	396.746	80.011	19.993	103.819	19.797	18.025	0.571
650.000	397.002	80.012	19.995	103.817	19.797	18.005	0.587
650.500	397.242	80.013	19.993	103.813	19.792	18.385	0.535
651.000	397.519	80.010	19.994	103.807	19.791	18.439	0.507
651.500	397.779	80.011	19.994	103.802	19.788	18.683	0.527
652.000	398.048	80.011	19.995	103.796	19.784	18.976	0.533
652.500	398.323	80.012	19.993	103.789	19.782	19.058	0.536
653.000	398.601	80.013	19.993	103.786	19.777	19.429	0.548
653.500	398.883	80.012	19.992	103.787	19.773	19.755	0.557
654.000	399.192	80.014	19.993	103.793	19.772	19.831	0.576
654.500	399.406	80.013	19.994	103.801	19.766	20.227	0.557
655.000	399.637	80.011	19.993	103.809	19.757	20.850	0.484
655.500	399.931	80.013	19.994	103.821	19.753	21.125	0.485
656.000	400.197	80.013	19.992	103.832	19.748	21.470	0.543
656.500	400.480	80.012	19.993	103.842	19.738	22.215	0.554
657.000	400.723	80.012	19.993	103.850	19.734	22.508	0.537
657.500	400.971	80.012	19.994	103.857	19.727	22.985	0.509
658.000	401.238	80.012	19.992	103.861	19.723	23.297	0.504
658.500	401.533	80.012	19.992	103.857	19.715	23.822	0.539
659.000	401.792	80.012	19.994	103.849	19.713	24.007	0.557
659.500	402.031	80.012	19.994	103.845	19.702	24.747	0.526
660.000	402.299	80.011	19.993	103.843	19.697	25.138	0.503
660.500	402.550	80.011	19.993	103.837	19.696	25.166	0.513
661.000	402.820	80.012	19.993	103.835	19.685	25.984	0.520
661.500	403.098	80.011	19.993	103.830	19.676	26.559	0.535
662.000	403.333	80.010	19.993	103.826	19.672	26.866	0.531
662.500	403.576	80.011	19.994	103.819	19.662	27.553	0.495
663.000	403.855	80.012	19.994	103.817	19.658	27.883	0.500
663.500	404.117	80.011	19.993	103.819	19.651	28.387	0.532
664.000	404.383	80.012	19.995	103.824	19.641	29.037	0.535
664.500	404.638	80.011	19.993	103.830	19.634	29.566	0.524
665.000	404.884	80.012	19.993	103.833	19.626	30.133	0.511
665.500	405.129	80.011	19.994	103.835	19.619	30.632	0.496
666.000	405.386	80.011	19.994	103.839	19.609	31.303	0.497
666.500	405.645	80.010	19.994	103.844	19.599	32.041	0.509
667.000	405.861	80.011	19.995	103.848	19.591	32.591	0.496
667.500	406.125	80.010	19.994	103.853	19.580	33.352	0.478
668.000	406.383	80.011	19.995	103.859	19.568	34.207	0.501
668.500	406.614	80.011	19.994	103.862	19.558	34.980	0.505
669.000	406.872	80.010	19.994	103.864	19.543	35.999	0.489
669.500	407.139	80.011	19.994	103.863	19.534	36.632	0.507
670.000	407.410	80.010	19.993	103.863	19.522	37.505	0.531
670.500	407.622	80.012	19.995	103.863	19.506	38.660	0.511
671.000	407.918	80.011	19.994	103.863	19.499	39.127	0.496
671.500	408.158	80.010	19.994	103.860	19.483	40.273	0.522
672.000	408.399	80.011	19.994	103.854	19.471	41.150	0.508
672.500	408.657	80.012	19.993	103.849	19.455	42.219	0.490
673.000	408.920	80.012	19.994	103.847	19.442	43.152	0.510
673.500	409.176	80.012	19.994	103.843	19.429	44.082	0.520
674.000	409.434	80.011	19.994	103.840	19.417	44.915	0.516
674.500	409.682	80.012	19.995	103.839	19.404	45.853	0.510
675.000	409.928	80.010	19.995	103.842	19.390	46.832	0.500
675.500	410.201	80.013	19.995	103.841	19.381	47.512	0.507
676.000	410.399	80.012	19.993	103.844	19.367	48.458	0.495
676.500	410.714	80.013	19.994	103.847	19.352	49.526	0.492
677.000	410.924	80.013	19.994	103.853	19.342	50.245	0.519
677.500	411.169	80.012	19.994	103.853	19.324	51.523	0.490
678.000	411.411	80.012	19.994	103.857	19.311	52.447	0.471
678.500	411.665	80.013	19.993	103.859	19.292	53.797	0.492
679.000	411.916	80.012	19.994	103.861	19.276	54.908	0.501
679.500	412.170	80.013	19.994	103.867	19.263	55.820	0.505
680.000	412.392	80.011	19.992	103.876	19.244	57.208	0.490
680.500	412.665	80.012	19.994	103.884	19.224	58.570	0.485
681.000	412.940	80.012	19.994	103.897	19.207	59.803	0.521
681.500	413.149	80.012	19.996	103.909	19.191	60.927	0.516
682.000	413.376	80.012	19.993	103.913	19.171	62.358	0.460
682.500	413.614	80.012	19.994	103.913	19.151	63.757	0.451
683.000	413.854	80.012	19.993	103.914	19.131	65.207	0.472
683.500	414.068	80.011	19.994	103.910	19.114	66.397	0.466
684.000	414.333	80.012	19.992	103.906	19.094	67.777	0.466
684.500	414.573	80.011	19.993	103.906	19.074	69.231	0.492
685.000	414.833	80.011	19.992	103.906	19.061	70.159	0.503
685.500	415.061	80.011	19.992	103.899	19.041	71.548	0.494
686.000	415.331	80.010	19.994	103.891	19.024	72.765	0.493
686.500	415.550	80.011	19.992	103.883	19.005	74.090	0.494
687.000	415.840	80.010	19.993	103.875	18.990	75.169	0.499
687.500	416.051	80.010	19.993	103.875	18.972	76.434	0.505
688.000	416.294	80.009	19.993	103.880	18.956	77.570	0.478
688.500	416.544	80.010	19.993	103.883	18.937	78.870	0.474
689.000	416.806	80.010	19.993	103.886	18.919	80.181	0.502
689.500	417.080	80.010	19.992	103.892	18.901	81.401	0.524
690.000	417.340	80.010	19.993	103.892	18.881	82.851	0.535
690.500	417.554	80.010	19.993	103.893	18.864	84.094	0.504
691.000	417.850	80.009	19.992	103.897	18.842	85.612	0.492
691.500	418.096	80.010	19.992	103.896	18.821	87.124	0.526
692.000	418.374	80.010	19.992	103.894	18.805	88.232	0.533
692.500	418.593	80.009	19.993	103.895	18.780	90.034	0.511
693.000	418.852	80.010	19.993	103.898	18.762	91.323	0.488
693.500	419.110	80.011	19.993	103.907	18.747	92.378	0.497
694.000	419.379	80.009	19.993	103.917	18.727	93.796	0.522
694.500	419.625	80.010	19.993	103.920	18.706	95.256	0.521
695.000	419.884	80.010	19.994	103.919	18.688	96.533	0.510
695.500	420.125	80.011	19.992	103.915	18.672	97.657	0.502
696.000	420.434	80.010	19.993	103.906	18.658	98.658	0.525
696.500	420.678	80.010	19.992	103.899	18.641	99.824	0.552
697.000	420.961	80.011	19.992	103.891	18.624	101.040	0.540
697.500	421.237	80.011	19.992	103.885	18.606	102.347	0.543
698.000	421.444	80.011	19.992	103.877	18.589	103.478	0.521
698.500	421.728	80.010	19.994	103.869	18.572	104.739	0.487
699.000	422.002	80.009	19.994	103.866	18.556	105.810	0.524
699.500	422.281	80.010	19.993	103.864	18.540	106.934	0.556
700.000	422.566	80.011	19.992	103.863	18.524	108.094	0.559
700.500	422.800	80.010	19.993	103.866	18.504	109.467	0.541
701.000	423.062	80.010	19.994	103.878	18.485	110.848	0.507
701.500	423.304	80.011	19.992	103.887	18.468	112.000	0.500
702.000	423.614	80.011	19.993	103.896	18.451	113.216	0.528
702.500	423.856	80.010	19.993	103.905	18.434	114.459	0.552
703.000	424.118	80.010	19.992	103.912	18.410	116.168	0.528
703.500	424.357	80.010	19.993	103.916	18.393	117.335	0.503
704.000	424.631	80.010	19.992	103.920	18.369	119.099	0.507
704.500	424.870	80.010	19.993	103.920	18.352	120.254	0.513
705.000	425.166	80.011	19.994	103.912	18.326	122.129	0.524
705.500	425.431	80.011	19.995	103.908	18.306	123.541	0.548
706.000	425.668	80.011	19.993	103.905	18.285	125.002	0.532
706.500	425.948	80.010	19.993	103.900	18.265	126.446	0.510
707.000	426.217	80.012	19.994	103.894	18.247	127.729	0.533
707.501	426.492	80.012	19.993	103.894	18.232	128.776	0.547
708.000	426.751	80.012	19.992	103.888	18.213	130.114	0.539
708.500	427.028	80.010	19.992	103.876	18.200	131.055	0.535
709.000	427.302	80.013	19.992	103.867	18.181	132.354	0.543
709.500	427.547	80.011	19.993	103.862	18.166	133.405	0.535
710.000	427.834	80.011	19.993	103.855	18.153	134.357	0.525
710.500	428.072	80.012	19.994	103.850	18.137	135.519	0.528
711.000	428.307	80.010	19.993	103.841	18.122	136.545	0.500
711.500	428.600	80.011	19.994	103.833	18.109	137.512	0.501
712.000	428.864	80.012	19.994	103.829	18.087	139.038	0.542
712.500	429.117	80.011	19.992	103.829	18.071	140.154	0.537
713.000	429.383	80.010	19.993	103.832	18.058	141.112	0.518
713.500	429.634	80.011	19.993	103.835	18.038	142.508	0.518
714.000	429.901	80.009	19.993	103.842	18.025	143.412	0.518
714.500	430.171	80.010	19.992	103.849	18.011	144.460	0.528
715.000	430.407	80.011	19.993	103.862	17.995	145.535	0.521
715.500	430.669	80.011	19.993	103.866	17.982	146.479	0.502
716.000	430.934	80.010	19.993	103.871	17.967	147.526	0.513
716.500	431.189	80.010	19.993	103.873	17.952	148.619	0.523
717.000	431.445	80.009	19.994	103.875	17.940	149.435	0.516
717.500	431.678	80.010	19.993	103.868	17.923	150.691	0.500
718.000	431.938	80.010	19.994	103.868	17.905	151.950	0.491
718.500	432.201	80.011	19.993	103.868	17.889	153.050	0.508
719.000	432.447	80.010	19.994	103.866	17.873	154.166	0.516
719.500	432.661	80.010	19.994	103.866	17.855	155.463	0.485
720.000	432.935	80.009	19.992	103.866	17.835	156.857	0.474
720.500	433.123	80.010	19.993	103.863	17.818	158.050	0.475
721.000	433.375	80.010	19.994	103.867	17.800	159.309	0.451
721.500	433.670	80.009	19.993	103.870	17.778	160.842	0.494
722.000	433.906	80.010	19.993	103.872	17.765	161.758	0.539
722.500	434.162	80.010	19.992	103.875	17.744	163.265	0.512
723.000	434.410	80.010	19.994	103.878	17.727	164.485	0.498
723.500	434.671	80.010	19.993	103.882	17.706	165.969	0.507
724.000	434.947	80.010	19.993	103.884	17.687	167.267	0.523
724.500	435.144	80.011	19.992	103.883	17.667	168.706	0.505
725.000	435.384	80.011	19.992	103.883	17.648	170.045	0.455
725.500	435.674	80.011	19.993	103.883	17.625	171.665	0.483
726.000	435.935	80.010	19.994	103.878	17.606	172.994	0.540
726.500	436.164	80.010	19.994	103.878	17.584	174.521	0.521
727.000	436.402	80.011	19.993	103.884	17.567	175.764	0.479
727.500	436.661	80.011	19.992	103.888	17.545	177.329	0.482
728.000	436.890	80.011	19.993	103.891	17.522	178.986	0.492
728.500	437.138	80.011	19.993	103.893	17.504	180.203	0.483
729.000	437.361	80.011	19.992	103.887	17.479	181.979	0.474
729.500	437.616	80.010	19.995	103.878	17.462	183.188	0.474
730.000	437.843	80.011	19.992	103.870	17.441	184.669	0.480
730.500	438.140	80.011	19.994	103.864	17.418	186.264	0.503
731.000	438.325	80.011	19.995	103.858	17.398	187.669	0.503
731.500	438.606	80.010	19.993	103.858	17.374	189.325	0.474
732.000	438.826	80.011	19.993	103.858	17.351	190.975	0.483
732.500	439.052	80.012	19.994	103.850	17.328	192.592	0.473
733.000	439.290	80.012	19.993	103.850	17.307	194.054	0.455
733.500	439.525	80.012	19.992	103.851	17.286	195.542	0.468
734.000	439.753	80.012	19.992	103.843	17.266	196.935	0.468
734.500	439.987	80.011	19.994	103.839	17.248	198.178	0.462
735.000	440.208	80.013	19.994	103.838	17.225	199.834	0.458
735.500	440.427	80.011	19.994	103.832	17.205	201.263	0.448
736.000	440.672	80.011	19.994	103.828	17.181	203.000	0.452
736.500	440.862	80.012	19.993	103.827	17.161	204.412	0.449
737.000	441.101	80.012	19.993	103.827	17.142	205.778	0.431
737.500	441.353	80.012	19.993	103.829	17.116	207.636	0.460
738.000	441.556	80.011	19.995	103.831	17.095	209.127	0.473
738.500	441.764	80.011	19.994	103.836	17.080	210.161	0.433
739.000	442.022	80.011	19.993	103.843	17.060	211.611	0.438
739.500	442.234	80.012	19.994	103.841	17.045	212.649	0.469
740.000	442.463	80.011	19.990	103.833	17.026	214.008	0.456
740.500	442.665	80.012	19.993	103.824	17.008	215.290	0.436
741.000	442.914	80.016	19.995	103.810	16.997	216.011	0.441
741.500	443.132	80.012	19.996	103.800	16.978	217.379	0.459
742.000	443.384	80.011	19.995	103.798	16.965	218.233	0.468
742.500	443.631	80.012	19.994	103.798	16.949	219.339	0.485
743.000	443.866	80.011	19.994	103.793	16.934	220.379	0.491
743.500	444.120	80.011	19.993	103.785	16.914	221.780	0.485
744.000	444.319	80.010	19.993	103.775	16.899	222.822	0.471
744.500	444.576	80.011	19.995	103.764	16.881	224.085	0.454
745.000	444.769	80.011	19.994	103.761	16.866	225.193	0.453
745.500	445.020	80.010	19.993	103.764	16.851	226.226	0.447
746.000	445.268	80.010	19.992	103.771	16.832	227.563	0.471
746.500	445.451	80.012	19.992	103.776	16.813	228.944	0.464
747.000	445.693	80.009	19.993	103.784	16.793	230.372	0.428
747.500	445.918	80.010	19.996	103.789	16.774	231.667	0.447
748.000	446.112	80.011	19.992	103.798	16.754	233.047	0.443
748.500	446.402	80.011	19.993	103.810	16.736	234.330	0.452
749.000	446.654	80.011	19.993	103.817	16.717	235.695	0.512
749.500	446.833	80.012	19.993	103.819	16.695	237.217	0.486
750.000	447.058	80.012	19.994	103.817	16.682	238.192	0.418
750.500	447.328	80.011	19.994	103.814	16.661	239.648	0.449
751.000	447.560	80.010	19.993	103.814	16.645	240.711	0.498
751.500	447.804	80.011	19.995	103.811	16.631	241.719	0.489
752.000	448.020	80.011	19.993	103.808	16.616	242.766	0.468
752.500	448.275	80.011	19.991	103.801	16.604	243.589	0.466
753.000	448.550	80.011	19.994	103.787	16.589	244.589	0.500
753.500	448.773	80.011	19.994	103.769	16.569	245.997	0.514
754.000	448.935	80.010	19.993	103.756	16.554	247.048	0.442
754.500	449.213	80.011	19.994	103.750	16.536	248.348	0.413
755.001	449.476	80.012	19.993	103.745	16.517	249.745	0.491
755.501	449.651	80.012	19.989	103.741	16.501	250.901	0.490
756.001	449.930	80.011	19.994	103.745	16.483	252.168	0.446
756.500	450.148	80.012	19.993	103.751	16.469	253.177	0.475
757.000	450.412	80.012	19.994	103.754	16.457	254.051	0.489
757.500	450.642	80.012	19.991	103.755	16.442	255.065	0.488
758.000	450.840	80.012	19.993	103.756	16.428	256.057	0.461
758.500	451.116	80.011	19.992	103.751	16.415	256.962	0.451
759.000	451.339	80.013	19.993	103.744	16.409	257.384	0.487
759.500	451.574	80.012	19.993	103.744	16.396	258.336	0.479
760.000	451.781	80.012	19.993	103.751	16.387	258.908	0.450
760.500	452.025	80.012	19.994	103.748	16.376	259.697	0.446
761.000	452.277	80.012	19.993	103.744	16.367	260.329	0.473
761.500	452.502	80.012	19.994	103.744	16.359	260.877	0.487
762.000	452.727	80.012	19.993	103.732	16.350	261.521	0.464
762.500	452.961	80.013	19.994	103.723	16.343	261.973	0.455
763.000	453.183	80.011	19.994	103.711	16.338	262.342	0.458
763.500	453.426	80.013	19.994	103.703	16.332	262.775	0.461
764.000	453.655	80.012	19.994	103.691	16.326	263.178	0.468
764.500	453.915	80.013	19.993	103.688	16.318	263.753	0.480
765.000	454.112	80.012	19.994	103.687	16.316	263.946	0.473
765.500	454.373	80.012	19.994	103.699	16.307	264.541	0.458
766.000	454.609	80.012	19.994	103.716	16.301	265.037	0.477
766.500	454.822	80.012	19.994	103.726	16.297	265.265	0.473
767.000	455.071	80.011	19.994	103.733	16.293	265.581	0.456
767.500	455.303	80.012	19.991	103.735	16.285	266.131	0.471
768.000	455.500	80.011	19.995	103.731	16.280	266.461	0.454
768.500	455.745	80.012	19.995	103.727	16.281	266.418	0.435
769.000	456.015	80.010	19.993	103.725	16.276	266.726	0.479
769.500	456.195	80.011	19.991	103.723	16.274	266.853	0.483
770.000	456.412	80.010	19.993	103.721	16.268	267.296	0.423
770.500	456.631	80.009	19.995	103.717	16.271	267.066	0.417
771.000	456.849	80.011	19.995	103.707	16.267	267.356	0.436
771.500	457.102	80.009	19.997	103.701	16.262	267.715	0.453
772.000	457.307	80.011	19.994	103.696	16.267	267.337	0.464
772.500	457.561	80.010	19.992	103.696	16.261	267.847	0.459
773.000	457.782	80.009	19.994	103.700	16.260	267.904	0.467
773.500	458.013	80.010	19.994	103.698	16.259	267.945	0.463
774.000	458.270	80.009	19.993	103.702	16.255	268.221	0.470
774.500	458.489	80.010	19.993	103.702	16.257	268.089	0.482
775.000	458.734	80.009	19.995	103.702	16.254	268.263	0.470
775.500	458.954	80.009	19.994	103.704	16.254	268.300	0.464
776.000	459.185	80.010	19.995	103.705	16.259	267.959	0.458
776.500	459.410	80.010	19.995	103.708	16.260	267.901	0.453
777.000	459.660	80.010	19.993	103.714	16.264	267.592	0.466
777.500	459.899	80.010	19.996	103.712	16.270	267.183	0.482
778.000	460.133	80.009	19.994	103.715	16.272	266.996	0.481
778.500	460.376	80.010	19.994	103.718	16.278	266.578	0.475
779.000	460.614	80.010	19.995	103.712	16.280	266.423	0.479
779.500	460.872	80.009	19.993	103.708	16.287	265.963	0.489
780.000	461.100	80.009	19.992	103.704	16.291	265.671	0.491
780.500	461.320	80.009	19.992	103.697	16.295	265.399	0.467
781.000	461.575	80.009	19.993	103.690	16.302	264.992	0.461
781.500	461.799	80.011	19.991	103.689	16.305	264.767	0.477
782.000	462.020	80.009	19.992	103.690	16.314	264.144	0.462
782.500	462.278	80.010	19.992	103.694	16.321	263.604	0.462
783.000	462.512	80.011	19.993	103.698	16.331	262.909	0.485
783.500	462.713	80.010	19.992	103.706	16.342	262.073	0.463
784.000	462.936	80.010	19.993	103.708	16.349	261.558	0.430
784.501	463.196	80.010	19.992	103.704	16.359	260.866	0.454
785.001	463.423	80.010	19.993	103.699	16.369	260.124	0.485
785.500	463.670	80.010	19.993	103.696	16.378	259.491	0.480
786.000	463.915	80.010	19.995	103.699	16.390	258.622	0.483
786.500	464.129	80.010	19.992	103.699	16.405	257.540	0.475
787.000	464.382	80.009	19.992	103.703	16.417	256.627	0.463
787.500	464.620	80.011	19.995	103.708	16.432	255.554	0.479
788.000	464.865	80.010	19.994	103.703	16.449	254.344	0.487
788.500	465.116	80.012	19.994	103.696	16.464	253.342	0.489
789.000	465.356	80.010	19.992	103.690	16.478	252.340	0.493
789.500	465.583	80.011	19.993	103.683	16.493	251.267	0.479
790.000	465.856	80.010	19.993	103.683	16.508	250.238	0.483
790.500	466.107	80.010	19.991	103.690	16.524	249.129	0.512
791.000	466.359	80.010	19.992	103.697	16.543	247.844	0.514
791.500	466.629	80.010	19.992	103.711	16.553	247.133	0.513
792.000	466.838	80.011	19.993	103.723	16.567	246.211	0.501
792.500	467.125	80.010	19.993	103.724	16.588	244.722	0.487
793.000	467.360	80.010	19.993	103.725	16.601	243.792	0.509
793.500	467.602	80.011	19.993	103.720	16.625	242.032	0.500
794.001	467.882	80.011	19.992	103.710	16.646	240.534	0.500
794.501	468.106	80.009	19.994	103.700	16.669	238.906	0.513
795.000	468.343	80.011	19.995	103.698	16.693	237.206	0.483
795.500	468.617	80.011	19.992	103.697	16.719	235.399	0.486
796.000	468.883	80.011	19.993	103.691	16.744	233.620	0.525
796.500	469.155	80.011	19.992	103.680	16.771	231.713	0.539
797.000	469.423	80.012	19.993	103.669	16.797	229.881	0.539
797.500	469.688	80.010	19.992	103.657	16.825	227.872	0.536
798.000	469.965	80.011	19.993	103.643	16.852	225.985	0.538
798.500	470.254	80.009	19.992	103.634	16.881	223.940	0.554
799.000	470.493	80.009	19.993	103.633	16.910	221.920	0.546
799.500	470.749	80.009	19.993	103.641	16.938	219.952	0.512
800.000	470.985	80.008	19.991	103.644	16.968	217.785	0.494
800.500	471.286	80.013	19.994	103.650	17.002	215.386	0.515
801.000	471.538	80.015	19.996	103.660	17.033	213.171	0.545
801.500	471.797	80.010	19.995	103.675	17.064	211.037	0.532
802.000	472.077	80.009	19.995	103.683	17.099	208.520	0.525
802.500	472.351	80.010	19.994	103.694	17.129	206.399	0.547
803.000	472.636	80.009	19.994	103.702	17.162	204.101	0.556
803.500	472.927	80.009	19.994	103.703	17.197	201.607	0.567
804.000	473.174	80.009	19.994	103.695	17.228	199.389	0.557
804.500	473.471	80.009	19.993	103.687	17.259	197.225	0.541
805.000	473.720	80.009	19.993	103.681	17.297	194.513	0.545
805.500	474.013	80.010	19.993	103.675	17.330	192.212	0.544
806.000	474.266	80.009	19.993	103.671	17.368	189.551	0.544
806.500	474.511	80.011	19.994	103.671	17.406	186.835	0.522
807.000	474.833	80.010	19.991	103.671	17.439	184.527	0.533
807.500	475.077	80.009	19.992	103.669	17.473	182.119	0.566
808.000	475.361	80.009	19.992	103.671	17.511	179.467	0.547
808.500	475.609	80.009	19.991	103.672	17.546	177.002	0.530
809.000	475.909	80.010	19.993	103.676	17.585	174.217	0.540
809.500	476.162	80.011	19.994	103.677	17.622	171.623	0.551
810.000	476.419	80.009	19.993	103.677	17.662	168.785	0.531
810.501	476.694	80.011	19.993	103.675	17.701	166.025	0.521
811.000	476.989	80.010	19.993	103.675	17.742	163.202	0.551
811.500	477.293	80.010	19.990	103.672	17.775	160.838	0.585
812.000	477.545	80.011	19.992	103.671	17.814	158.087	0.578
812.500	477.821	80.012	19.993	103.670	17.853	155.346	0.542
813.000	478.091	80.012	19.992	103.671	17.891	152.689	0.537
813.500	478.367	80.012	19.992	103.670	17.927	150.127	0.546
814.000	478.621	80.011	19.993	103.669	17.968	147.253	0.538
814.500	478.955	80.011	19.992	103.666	18.007	144.496	0.559
815.000	479.228	80.012	19.992	103.666	18.047	141.657	0.598
815.500	479.510	80.012	19.993	103.665	18.086	138.902	0.581
816.000	479.764	80.011	19.994	103.665	18.125	136.144	0.545
816.500	480.038	80.011	19.991	103.666	18.165	133.334	0.532
817.000	480.335	80.012	19.991	103.668	18.206	130.468	0.550
817.500	480.596	80.010	19.993	103.670	18.247	127.538	0.564
818.000	480.923	80.012	19.991	103.671	18.286	124.795	0.573
818.500	481.153	80.011	19.991	103.672	18.320	122.381	0.572
819.000	481.431	80.012	19.990	103.672	18.361	119.527	0.532
819.500	481.715	80.011	19.994	103.673	18.397	116.984	0.535
820.000	482.033	80.012	19.992	103.673	18.440	113.926	0.582
820.500	482.270	80.012	19.990	103.675	18.477	111.354	0.578
821.000	482.564	80.014	19.991	103.682	18.516	108.597	0.543
821.500	482.809	80.012	19.991	103.691	18.553	105.928	0.536
822.000	483.133	80.011	19.992	103.700	18.584	103.774	0.554
822.501	483.351	80.012	19.991	103.707	18.625	100.906	0.556
823.000	483.641	80.013	19.994	103.715	18.661	98.301	0.525
823.500	483.913	80.011	19.993	103.717	18.701	95.525	0.535
824.000	484.199	80.012	19.992	103.716	18.732	93.292	0.560
824.500	484.498	80.012	19.991	103.714	18.775	90.263	0.571
825.000	484.796	80.012	19.994	103.718	18.808	87.911	0.591
825.500	485.093	80.012	19.990	103.723	18.841	85.579	0.596
826.000	485.328	80.011	19.993	103.729	18.876	83.155	0.564
826.500	485.563	80.011	19.992	103.737	18.908	80.895	0.501
827.000	485.849	80.010	19.992	103.744	18.941	78.505	0.496
827.500	486.174	80.012	19.993	103.748	18.976	76.100	0.566
828.000	486.440	80.011	19.993	103.748	19.004	74.101	0.601
828.500	486.714	80.012	19.994	103.749	19.036	71.792	0.566
829.000	486.987	80.011	19.991	103.749	19.069	69.520	0.544
829.500	487.280	80.012	19.994	103.753	19.097	67.527	0.556
830.000	487.568	80.012	19.991	103.755	19.128	65.297	0.573
830.500	487.823	80.010	19.994	103.759	19.155	63.439	0.562
831.000	488.133	80.011	19.994	103.764	19.183	61.431	0.555
831.500	488.403	80.011	19.994	103.769	19.216	59.095	0.573
832.000	488.618	80.011	19.993	103.771	19.242	57.279	0.533
832.500	488.921	80.011	19.993	103.775	19.269	55.362	0.501
833.000	489.220	80.012	19.994	103.778	19.296	53.432	0.560
833.500	489.515	80.011	19.994	103.779	19.320	51.764	0.598
834.000	489.784	80.012	19.994	103.780	19.344	50.058	0.579
834.500	490.041	80.012	19.994	103.780	19.369	48.248	0.545
835.000	490.302	80.011	19.993	103.780	19.392	46.661	0.522
835.500	490.592	80.012	19.996	103.781	19.415	45.030	0.535
836.000	490.847	80.012	19.990	103.781	19.439	43.330	0.548
836.500	491.102	80.012	19.994	103.783	19.460	41.875	0.528
837.000	491.390	80.011	19.995	103.784	19.484	40.148	0.527
837.500	491.654	80.013	19.993	103.783	19.500	38.989	0.547
838.000	491.938	80.011	19.991	103.783	19.526	37.194	0.550
838.500	492.239	80.013	19.994	103.782	19.545	35.806	0.566
839.000	492.541	80.013	19.995	103.782	19.565	34.395	0.594
839.500	492.783	80.012	19.990	103.782	19.583	33.141	0.574
840.000	493.074	80.012	19.994	103.783	19.600	31.949	0.539
840.500	493.347	80.013	19.993	103.784	19.619	30.598	0.549
841.000	493.639	80.013	19.993	103.784	19.635	29.478	0.564
841.500	493.913	80.014	19.991	103.782	19.652	28.282	0.566
842.000	494.173	80.013	19.992	103.782	19.670	26.977	0.550
842.500	494.456	80.014	19.994	103.782	19.683	26.071	0.539
843.000	494.714	80.013	19.991	103.782	19.698	24.991	0.542
843.500	495.051	80.013	19.993	103.782	19.713	23.950	0.567
844.000	495.314	80.013	19.993	103.784	19.726	23.071	0.597
844.500	495.607	80.013	19.993	103.784	19.744	21.735	0.578
845.000	495.854	80.014	19.992	103.784	19.755	20.976	0.548
845.500	496.138	80.014	19.994	103.784	19.765	20.281	0.535
846.000	496.400	80.014	19.993	103.784	19.780	19.246	0.538
846.500	496.684	80.013	19.993	103.784	19.789	18.615	0.546
847.000	496.975	80.014	19.992	103.783	19.802	17.671	0.561
847.500	497.246	80.014	19.994	103.781	19.810	17.130	0.568
848.000	497.535	80.014	19.991	103.776	19.823	16.145	0.561
848.500	497.790	80.013	19.994	103.774	19.833	15.494	0.552
849.000	498.043	80.012	19.993	103.774	19.841	14.909	0.526
849.500	498.323	80.013	19.993	103.775	19.850	14.267	0.521
850.000	498.613	80.012	19.992	103.777	19.859	13.648	0.552
850.500	498.851	80.013	19.991	103.781	19.869	12.958	0.549
851.000	499.149	80.012	19.992	103.783	19.878	12.256	0.532
851.501	499.391	80.011	19.993	103.783	19.886	11.726	0.538
852.000	499.653	80.011	19.993	103.783	19.892	11.329	0.522
852.500	499.926	80.010	19.993	103.782	19.897	10.960	0.519
853.000	500.256	80.011	19.993	103.781	19.903	10.548	0.569
853.500	500.497	80.011	19.992	103.781	19.913	9.798	0.587
854.000	500.799	80.011	19.994	103.780	19.919	9.374	0.557
854.500	501.036	80.010	19.995	103.777	19.926	8.929	0.542
855.000	501.336	80.011	19.995	103.776	19.928	8.788	0.538
855.500	501.589	80.012	19.994	103.775	19.934	8.337	0.545
856.000	501.869	80.012	19.994	103.770	19.938	8.018	0.543
856.500	502.123	80.010	19.994	103.764	19.942	7.759	0.534
857.000	502.407	80.012	19.994	103.760	19.950	7.231	0.536
857.500	502.661	80.011	19.993	103.754	19.953	6.972	0.538
858.000	502.930	80.010	19.994	103.748	19.957	6.710	0.530
858.500	503.212	80.010	19.994	103.746	19.961	6.436	0.537
859.000	503.451	80.010	19.991	103.746	19.967	5.993	0.536
859.501	503.718	80.011	19.994	103.746	19.967	6.035	0.513
860.001	504.011	80.010	19.993	103.747	19.970	5.802	0.533
860.500	504.265	80.012	19.994	103.746	19.974	5.487	0.554
861.000	504.543	80.011	19.997	103.750	19.977	5.320	0.540
861.500	504.790	80.010	19.995	103.752	19.979	5.162	0.528
862.000	505.059	80.010	19.996	103.754	19.981	5.020	0.520
862.500	505.292	80.011	19.994	103.753	19.983	4.884	0.509
863.000	505.576	80.010	19.994	103.753	19.985	4.717	0.510
863.500	505.826	80.010	19.994	103.753	19.988	4.505	0.526
864.000	506.124	80.011	19.993	103.756	19.992	4.218	0.541
864.500	506.376	80.011	19.994	103.757	19.994	4.101	0.549
865.000	506.658	80.011	19.995	103.758	19.995	4.043	0.542
865.500	506.890	80.010	19.994	103.758	19.997	3.860	0.524
866.000	507.168	80.011	19.994	103.755	19.996	3.981	0.512
866.500	507.459	80.011	19.995	103.750	19.999	3.716	0.539
867.000	507.696	80.010	19.994	103.747	20.002	3.520	0.548
867.500	507.985	80.011	19.995	103.746	20.002	3.495	0.527
868.000	508.225	80.012	19.995	103.746	20.005	3.335	0.527
868.500	508.477	80.010	19.995	103.746	20.009	3.007	0.511
869.000	508.754	80.010	19.995	103.746	20.012	2.805	0.510
869.500	508.997	80.009	19.993	103.744	20.008	3.129	0.524
870.000	509.269	80.012	19.994	103.745	20.011	2.900	0.518
870.500	509.534	80.011	19.994	103.744	20.011	2.901	0.526
871.000	509.796	80.011	19.993	103.741	20.013	2.775	0.532
871.500	510.041	80.011	19.992	103.738	20.015	2.614	0.517
872.000	510.331	80.012	19.994	103.739	20.014	2.713	0.521
872.501	510.548	80.012	19.993	103.736	20.013	2.775	0.521
873.000	510.812	80.010	19.992	103.733	20.018	2.394	0.494
873.500	511.094	80.010	19.993	103.737	20.018	2.400	0.514
874.000	511.355	80.010	19.991	103.740	20.020	2.247	0.545
874.500	511.579	80.011	19.992	103.738	20.022	2.113	0.514
875.000	511.870	80.010	19.995	103.738	20.022	2.103	0.500
875.500	512.116	80.011	19.994	103.739	20.025	1.918	0.526
876.000	512.371	80.011	19.992	103.738	20.024	1.994	0.519
876.500	512.628	80.011	19.994	103.739	20.022	2.087	0.506
877.000	512.901	80.012	19.994	103.740	20.024	1.945	0.521
877.500	513.171	80.012	19.991	103.737	20.026	1.821	0.537
878.000	513.424	80.011	19.992	103.740	20.023	2.042	0.533
878.500	513.692	80.011	19.992	103.741	20.025	1.932	0.521
879.000	513.972	80.012	19.992	103.741	20.029	1.638	0.534
879.500	514.242	80.011	19.993	103.742	20.022	2.134	0.549
880.000	514.533	80.010	19.994	103.740	20.026	1.842	0.555
880.500	514.774	80.010	19.990	103.736	20.027	1.786	0.546
881.000	515.094	80.010	19.993	103.728	20.026	1.813	0.547
881.500	515.313	80.011	19.993	103.724	20.025	1.910	0.550
882.000	515.570	80.010	19.993	103.717	20.025	1.883	0.507
882.500	515.887	80.011	19.993	103.718	20.028	1.660	0.525
883.000	516.135	80.010	19.994	103.722	20.028	1.700	0.570
883.500	516.356	80.010	19.991	103.729	20.026	1.860	0.517
884.000	516.618	80.010	19.993	103.733	20.028	1.712	0.476
884.500	516.914	80.010	19.995	103.735	20.027	1.745	0.520
885.000	517.175	80.010	19.992	103.740	20.028	1.667	0.557
885.500	517.454	80.010	19.993	103.736	20.029	1.626	0.548
886.000	517.711	80.009	19.993	103.734	20.030	1.574	0.538
886.500	517.995	80.009	19.993	103.731	20.030	1.518	0.538
887.000	518.183	80.009	19.992	103.731	20.031	1.512	0.506
887.500	518.491	80.010	19.992	103.725	20.031	1.498	0.484
888.000	518.754	80.010	19.994	103.723	20.030	1.522	0.534
888.500	518.996	80.010	19.993	103.720	20.028	1.696	0.538
889.000	519.270	80.010	19.993	103.719	20.031	1.455	0.510
889.500	519.526	80.010	19.992	103.722	20.028	1.689	0.523
890.000	519.792	80.010	19.994	103.722	20.031	1.502	0.526
890.500	520.050	80.009	19.992	103.724	20.030	1.562	0.523
891.000	520.310	80.011	19.994	103.723	20.029	1.599	0.521
891.500	520.576	80.010	19.992	103.720	20.031	1.510	0.522
892.000	520.824	80.011	19.992	103.718	20.032	1.432	0.520
892.500	521.108	80.009	19.993	103.718	20.032	1.426	0.524
893.000	521.310	80.010	19.993	103.717	20.031	1.461	0.509
893.500	521.583	80.011	19.993	103.719	20.035	1.170	0.480
894.000	521.851	80.011	19.993	103.720	20.035	1.180	0.508
894.500	522.097	80.011	19.992	103.719	20.030	1.528	0.528
895.000	522.361	80.012	19.992	103.718	20.035	1.180	0.512
895.500	522.625	80.012	19.993	103.718	20.036	1.131	0.519
896.000	522.879	80.012	19.992	103.716	20.031	1.444	0.523
896.500	523.138	80.011	19.992	103.713	20.035	1.211	0.516
897.000	523.367	80.012	19.993	103.713	20.037	1.082	0.500
897.500	523.619	80.012	19.993	103.716	20.036	1.100	0.484
898.000	523.898	80.011	19.992	103.716	20.035	1.162	0.506
898.500	524.152	80.012	19.992	103.715	20.038	0.954	0.532
899.000	524.398	80.012	19.994	103.715	20.037	1.075	0.516
899.500	524.684	80.012	19.994	103.715	20.032	1.421	0.516
900.000	524.925	80.012	19.993	103.713	20.033	1.304	0.530
900.500	525.198	80.012	19.993	103.711	20.034	1.261	0.521
901.000	525.474	80.013	19.993	103.711	20.038	0.991	0.532
901.500	525.732	80.013	19.993	103.710	20.033	1.339	0.541
902.000	525.960	80.012	19.994	103.708	20.033	1.300	0.509
902.500	526.206	80.013	19.992	103.708	20.034	1.293	0.480
903.000	526.442	80.013	19.993	103.712	20.034	1.261	0.479
903.500	526.682	80.011	19.993	103.714	20.037	1.024	0.479
904.000	526.966	80.012	19.992	103.715	20.036	1.098	0.499
904.500	527.224	80.013	19.993	103.720	20.036	1.118	0.533
905.000	527.492	80.012	19.992	103.725	20.035	1.197	0.534
905.500	527.760	80.012	19.992	103.726	20.037	1.067	0.531
906.000	527.989	80.011	19.993	103.730	20.034	1.273	0.516
906.500	528.270	80.012	19.993	103.729	20.038	0.968	0.503
907.000	528.528	80.012	19.994	103.724	20.036	1.157	0.525
907.500	528.792	80.012	19.992	103.719	20.034	1.244	0.530
908.000	529.057	80.012	19.993	103.716	20.035	1.186	0.525
908.500	529.316	80.010	19.993	103.713	20.037	1.026	0.526
909.000	529.557	80.012	19.993	103.718	20.034	1.252	0.512
909.500	529.810	80.011	19.993	103.722	20.038	0.987	0.497
910.000	530.072	80.010	19.994	103.728	20.037	1.061	0.505
910.500	530.297	80.014	19.993	103.732	20.039	0.910	0.501
911.000	530.592	80.014	19.992	103.737	20.042	0.698	0.503
911.500	530.837	80.012	19.993	103.740	20.038	1.017	0.530
912.000	531.105	80.011	19.992	103.742	20.035	1.180	0.527
912.500	531.318	80.011	19.993	103.745	20.036	1.106	0.497
913.000	531.594	80.013	19.992	103.742	20.034	1.250	0.485
913.500	531.869	80.010	19.992	103.741	20.035	1.182	0.520
914.000	532.082	80.013	19.992	103.740	20.037	1.042	0.520
914.500	532.375	80.014	19.993	103.741	20.042	0.684	0.497
915.000	532.616	80.012	19.993	103.740	20.037	1.042	0.520
915.500	532.855	80.013	19.993	103.742	20.035	1.176	0.507
916.000	533.136	80.012	19.993	103.744	20.037	1.050	0.500
916.500	533.356	80.011	19.993	103.744	20.040	0.826	0.511
917.000	533.646	80.014	19.992	103.744	20.037	1.019	0.506
917.500	533.889	80.012	19.993	103.744	20.038	1.017	0.522
918.000	534.112	80.010	19.993	103.745	20.038	0.997	0.500
918.500	534.387	80.012	19.992	103.744	20.037	1.036	0.482
919.000	534.616	80.012	19.992	103.745	20.038	1.005	0.501
919.500	534.883	80.014	19.992	103.744	20.036	1.124	0.500
920.000	535.148	80.012	19.991	103.743	20.037	1.054	0.514
920.500	535.445	80.013	19.993	103.743	20.037	1.048	0.547
921.000	535.642	80.015	19.995	103.745	20.039	0.939	0.528
921.501	535.920	80.015	19.994	103.752	20.039	0.933	0.484
922.000	536.181	80.013	19.994	103.758	20.038	0.970	0.507
922.500	536.411	80.012	19.992	103.762	20.039	0.927	0.515
923.000	536.655	80.012	19.992	103.762	20.037	1.048	0.483
923.500	536.909	80.013	19.992	103.759	20.036	1.096	0.486
924.000	537.212	80.013	19.993	103.753	20.039	0.931	0.527
924.500	537.469	80.014	19.993	103.747	20.037	1.058	0.559
925.000	537.679	80.012	19.994	103.745	20.038	0.953	0.514
925.500	537.944	80.013	19.992	103.745	20.039	0.896	0.470
926.000	538.170	80.012	19.993	103.750	20.039	0.931	0.483
926.500	538.437	80.014	19.994	103.751	20.038	0.954	0.493
927.001	538.680	80.014	19.993	103.751	20.037	1.032	0.502
927.500	538.942	80.013	19.993	103.750	20.036	1.137	0.507
928.000	539.170	80.011	19.992	103.745	20.037	1.044	0.497
928.500	539.442	80.012	19.993	103.739	20.035	1.194	0.495
929.000	539.711	80.013	19.993	103.738	20.037	1.024	0.521
929.500	539.954	80.012	19.992	103.741	20.038	1.015	0.526
930.000	540.234	80.013	19.992	103.742	20.038	1.011	0.517
930.500	540.496	80.012	19.994	103.749	20.038	0.993	0.532
931.000	540.716	80.011	19.993	103.754	20.035	1.221	0.512
931.500	540.966	80.012	19.993	103.756	20.038	0.995	0.476
932.001	541.235	80.012	19.993	103.753	20.038	1.003	0.494
932.500	541.502	80.012	19.994	103.752	20.038	1.017	0.527
933.000	541.732	80.010	19.992	103.750	20.040	0.867	0.517
933.500	541.965	80.009	19.994	103.748	20.039	0.939	0.480
934.000	542.226	80.011	19.993	103.751	20.040	0.836	0.478
934.500	542.492	80.010	19.993	103.755	20.039	0.886	0.510
935.000	542.756	80.012	19.993	103.756	20.036	1.110	0.529
935.500	542.994	80.011	19.993	103.756	20.036	1.116	0.516
936.000	543.260	80.010	19.993	103.755	20.037	1.040	0.503
936.500	543.484	80.010	19.994	103.752	20.042	0.682	0.497
937.000	543.763	80.011	19.992	103.748	20.040	0.847	0.496
937.500	544.006	80.011	19.993	103.747	20.038	0.951	0.512
938.000	544.221	80.010	19.993	103.748	20.041	0.748	0.490
938.500	544.474	80.009	19.994	103.752	20.037	1.077	0.463
939.000	544.732	80.010	19.992	103.756	20.035	1.219	0.489
939.500	544.971	80.011	19.993	103.757	20.037	1.075	0.504
940.000	545.238	80.011	19.993	103.758	20.039	0.945	0.502
940.500	545.473	80.008	19.995	103.763	20.036	1.137	0.504
941.000	545.712	80.010	19.996	103.763	20.037	1.081	0.488
941.500	545.967	80.010	19.993	103.766	20.036	1.104	0.484
942.000	546.245	80.010	19.994	103.766	20.034	1.277	0.514
942.500	546.457	80.010	19.993	103.765	20.034	1.238	0.512
943.000	546.727	80.010	19.995	103.759	20.037	1.075	0.486
943.500	546.970	80.009	19.992	103.756	20.035	1.168	0.497
944.000	547.215	80.010	19.992	103.749	20.032	1.376	0.500
944.500	547.515	80.010	19.994	103.749	20.035	1.165	0.516
945.000	547.758	80.010	19.991	103.753	20.036	1.100	0.544
945.500	547.969	80.011	19.993	103.754	20.033	1.347	0.499
946.000	548.252	80.010	19.994	103.754	20.035	1.198	0.474
946.500	548.467	80.010	19.993	103.753	20.038	0.964	0.496
947.000	548.741	80.011	19.992	103.753	20.034	1.248	0.494
947.500	549.005	80.010	19.993	103.749	20.036	1.122	0.513
948.000	549.249	80.009	19.992	103.748	20.034	1.299	0.522
948.500	549.509	80.010	19.995	103.748	20.034	1.256	0.506
949.000	549.734	80.011	19.993	103.750	20.036	1.137	0.495
949.500	549.993	80.010	19.993	103.750	20.034	1.258	0.485
950.000	550.249	80.010	19.993	103.751	20.035	1.182	0.499
950.500	550.548	80.012	19.993	103.754	20.033	1.328	0.535
951.000	550.733	80.011	19.992	103.755	20.033	1.305	0.520
951.500	550.994	80.008	19.993	103.753	20.036	1.089	0.465
952.000	551.259	80.010	19.993	103.753	20.033	1.304	0.486
952.500	551.503	80.010	19.994	103.753	20.037	1.024	0.518
953.000	551.756	80.011	19.993	103.755	20.036	1.155	0.503
953.500	552.027	80.010	19.994	103.756	20.037	1.021	0.510
954.000	552.266	80.009	19.994	103.762	20.038	0.988	0.517
954.500	552.531	80.009	19.993	103.767	20.040	0.869	0.507
955.000	552.749	80.011	19.994	103.770	20.037	1.036	0.493
955.500	552.982	80.009	19.994	103.772	20.039	0.904	0.467
956.000	553.281	80.010	19.993	103.776	20.037	1.023	0.492
956.500	553.528	80.010	19.994	103.775	20.042	0.692	0.540
957.000	553.820	80.010	19.993	103.770	20.042	0.700	0.543
957.500	554.062	80.010	19.993	103.768	20.042	0.721	0.536
958.000	554.292	80.011	19.993	103.766	20.041	0.803	0.502
958.500	554.517	80.009	19.992	103.759	20.039	0.898	0.464
959.000	554.828	80.011	19.993	103.760	20.039	0.896	0.496
959.500	555.071	80.010	19.995	103.765	20.041	0.781	0.545
960.000	555.359	80.010	19.994	103.768	20.041	0.745	0.542
960.500	555.634	80.010	19.994	103.771	20.042	0.713	0.547
961.000	555.861	80.010	19.994	103.778	20.040	0.853	0.532
961.500	556.122	80.011	19.994	103.776	20.041	0.801	0.495
962.000	556.363	80.010	19.994	103.771	20.038	0.980	0.495
962.500	556.591	80.009	19.995	103.767	20.042	0.721	0.485
963.000	556.824	80.010	19.994	103.760	20.042	0.700	0.464
963.500	557.074	80.009	19.994	103.751	20.038	0.952	0.472
964.000	557.349	80.011	19.994	103.748	20.043	0.605	0.504
964.500	557.600	80.009	19.994	103.751	20.044	0.587	0.526
965.000	557.875	80.012	19.995	103.754	20.040	0.838	0.526
965.500	558.172	80.010	19.994	103.754	20.045	0.453	0.549
966.000	558.395	80.009	19.994	103.754	20.044	0.581	0.546
966.500	558.656	80.011	19.994	103.754	20.042	0.678	0.502
967.000	558.914	80.011	19.994	103.756	20.042	0.723	0.501
967.500	559.197	80.009	19.994	103.758	20.043	0.653	0.530
968.000	559.493	80.010	19.994	103.760	20.042	0.727	0.560
968.500	559.748	80.010	19.995	103.761	20.041	0.737	0.564
969.000	560.035	80.008	19.994	103.760	20.044	0.589	0.546
969.500	560.269	80.011	19.994	103.753	20.043	0.624	0.532
970.000	560.515	80.006	19.993	103.751	20.045	0.500	0.501
970.500	560.761	80.010	19.995	103.753	20.045	0.509	0.486
971.000	561.056	80.009	19.994	103.754	20.042	0.711	0.516
971.500	561.326	80.011	19.993	103.754	20.040	0.863	0.553
972.000	561.558	80.010	19.995	103.755	20.040	0.838	0.534
972.500	561.797	80.011	19.993	103.752	20.039	0.886	0.487
973.000	562.062	80.010	19.995	103.748	20.042	0.723	0.488
973.500	562.293	80.011	19.994	103.746	20.036	1.149	0.500
974.000	562.574	80.011	19.995	103.746	20.038	0.978	0.504
974.500	562.845	80.011	19.994	103.745	20.041	0.744	0.532
975.001	563.087	80.011	19.994	103.748	20.037	1.065	0.532
975.501	563.320	80.011	19.995	103.748	20.040	0.842	0.494
976.000	563.591	80.012	19.993	103.748	20.038	0.976	0.489
976.500	563.847	80.011	19.993	103.748	20.038	0.987	0.515
977.000	564.108	80.012	19.993	103.747	20.043	0.651	0.522
977.500	564.355	80.011	19.992	103.743	20.041	0.766	0.513
978.000	564.638	80.013	19.992	103.742	20.043	0.645	0.519
978.500	564.884	80.012	19.994	103.742	20.044	0.537	0.529
979.000	565.141	80.012	19.993	103.744	20.045	0.463	0.515
979.500	565.431	80.012	19.993	103.741	20.045	0.511	0.525
980.000	565.633	80.010	19.993	103.742	20.040	0.824	0.520
980.500	565.928	80.015	19.994	103.742	20.041	0.799	0.495
981.000	566.175	80.011	19.994	103.742	20.043	0.657	0.519
981.500	566.449	80.012	19.994	103.740	20.040	0.807	0.531
982.000	566.704	80.015	19.995	103.745	20.043	0.651	0.525
982.500	566.935	80.013	19.993	103.750	20.042	0.735	0.508
983.000	567.184	80.012	19.994	103.752	20.045	0.457	0.483
983.500	567.432	80.013	19.993	103.752	20.044	0.575	0.488
984.000	567.718	80.013	19.993	103.752	20.042	0.677	0.515
984.501	567.963	80.013	19.993	103.752	20.043	0.657	0.533
985.001	568.218	80.011	19.992	103.749	20.044	0.591	0.516
985.500	568.463	80.012	19.993	103.746	20.044	0.593	0.500
986.000	568.721	80.013	19.992	103.746	20.043	0.616	0.501
986.500	568.964	80.014	19.994	103.747	20.044	0.529	0.503
987.000	569.241	80.011	19.993	103.746	20.043	0.663	0.511
987.500	569.444	80.013	19.993	103.746	20.044	0.544	0.500
988.000	569.745	80.013	19.993	103.745	20.044	0.542	0.492
988.500	570.013	80.013	19.993	103.746	20.041	0.750	0.537
989.000	570.266	80.013	19.992	103.749	20.043	0.643	0.545
989.500	570.497	80.014	19.993	103.755	20.040	0.820	0.502
990.000	570.735	80.013	19.993	103.761	20.040	0.809	0.477
990.500	571.013	80.013	19.994	103.762	20.042	0.673	0.493
991.000	571.289	80.012	19.993	103.761	20.044	0.531	0.535
991.500	571.536	80.013	19.992	103.758	20.039	0.881	0.539
992.000	571.840	80.012	19.993	103.753	20.041	0.791	0.537
992.500	572.095	80.011	19.993	103.748	20.042	0.696	0.554
993.000	572.344	80.012	19.992	103.751	20.043	0.640	0.531
993.500	572.590	80.011	19.993	103.754	20.042	0.673	0.500
994.000	572.837	80.011	19.993	103.757	20.044	0.593	0.494
994.501	573.071	80.011	19.993	103.761	20.040	0.850	0.487
995.001	573.336	80.013	19.992	103.763	20.042	0.704	0.490
995.500	573.648	80.010	19.993	103.760	20.045	0.463	0.538
996.000	573.883	80.011	19.993	103.758	20.041	0.752	0.562
996.500	574.141	80.009	19.991	103.755	20.042	0.671	0.520
997.000	574.405	80.010	19.994	103.751	20.044	0.546	0.508
997.500	574.727	80.012	19.993	103.749	20.047	0.375	0.554
998.000	574.958	80.010	19.994	103.749	20.041	0.750	0.570
998.500	575.205	80.013	19.994	103.750	20.047	0.319	0.516
999.000	575.470	80.012	19.992	103.750	20.047	0.325	0.495
999.500	575.738	80.011	19.993	103.750	20.044	0.525	0.522
1000.000	576.029	80.011	19.993	103.751	20.046	0.393	0.546
1000.500	576.237	80.012	19.992	103.752	20.045	0.468	0.529
1001.000	576.505	80.010	19.993	103.754	20.043	0.651	0.488
1001.500	576.755	80.014	19.992	103.754	20.043	0.632	0.497
1002.000	577.022	80.011	19.993	103.753	20.042	0.729	0.517
1002.500	577.261	80.011	19.993	103.753	20.038	1.009	0.511
1003.000	577.532	80.015	19.992	103.755	20.043	0.595	0.508
1003.500	577.776	80.010	19.993	103.753	20.045	0.467	0.513
1004.000	578.039	80.012	19.992	103.752	20.041	0.791	0.512
1004.500	578.309	80.012	19.992	103.753	20.045	0.470	0.520
1005.000	578.574	80.014	19.993	103.754	20.040	0.830	0.533
1005.500	578.815	80.014	19.992	103.756	20.045	0.521	0.520
1006.000	579.065	80.013	19.993	103.756	20.045	0.469	0.499
1006.500	579.308	80.015	19.993	103.757	20.043	0.626	0.492
1007.000	579.600	80.012	19.991	103.757	20.043	0.618	0.515
1007.500	579.868	80.014	19.992	103.756	20.045	0.478	0.547
1008.000	580.082	80.014	19.992	103.753	20.044	0.585	0.520
1008.500	580.353	80.012	19.992	103.754	20.043	0.647	0.483
1009.000	580.614	80.013	19.992	103.757	20.046	0.443	0.509
1009.500	580.884	80.016	19.992	103.757	20.043	0.632	0.532
1010.000	581.175	80.013	19.992	103.758	20.047	0.342	0.546
1010.500	581.421	80.013	19.991	103.756	20.042	0.682	0.549
1011.000	581.706	80.015	19.994	103.753	20.041	0.803	0.534
1011.500	581.948	80.014	19.992	103.749	20.046	0.428	0.529
1012.000	582.201	80.013	19.992	103.751	20.044	0.562	0.511
1012.500	582.475	80.012	19.993	103.751	20.045	0.467	0.511
1013.000	582.735	80.014	19.992	103.751	20.043	0.641	0.531
1013.500	582.961	80.014	19.991	103.751	20.045	0.502	0.510
1014.000	583.227	80.013	19.992	103.754	20.042	0.671	0.489
1014.500	583.500	80.013	19.991	103.751	20.043	0.624	0.515
1015.000	583.760	80.012	19.991	103.751	20.047	0.358	0.536
1015.500	583.974	80.013	19.992	103.751	20.046	0.439	0.503
1016.000	584.243	80.011	19.991	103.755	20.043	0.653	0.479
1016.500	584.509	80.011	19.992	103.760	20.045	0.463	0.509
1017.000	584.786	80.011	19.992	103.763	20.044	0.525	0.539
1017.500	585.028	80.009	19.993	103.769	20.045	0.513	0.531
1018.000	585.306	80.012	19.992	103.776	20.041	0.762	0.519
1018.500	585.589	80.009	19.993	103.774	20.041	0.741	0.541
1019.000	585.834	80.011	19.991	103.767	20.043	0.603	0.545
1019.500	586.109	80.011	19.993	103.765	20.044	0.571	0.524
1020.000	586.352	80.011	19.993	103.760	20.041	0.774	0.518
1020.500	586.680	80.011	19.992	103.753	20.041	0.746	0.545
1021.000	586.876	80.011	19.993	103.750	20.043	0.647	0.548
1021.500	587.140	80.013	19.992	103.747	20.042	0.678	0.492
1022.000	587.406	80.011	19.992	103.746	20.045	0.484	0.495
1022.500	587.661	80.012	19.993	103.745	20.043	0.595	0.526
1023.000	587.918	80.010	19.994	103.745	20.044	0.544	0.516
1023.500	588.191	80.011	19.993	103.747	20.040	0.865	0.521
1024.000	588.452	80.009	19.994	103.753	20.041	0.743	0.532
1024.500	588.700	80.011	19.994	103.754	20.043	0.616	0.522
1025.000	588.951	80.009	19.993	103.754	20.041	0.797	0.504
1025.500	589.218	80.012	19.995	103.754	20.040	0.840	0.508
1026.000	589.457	80.011	19.992	103.754	20.041	0.793	0.512
1026.500	589.727	80.011	19.993	103.752	20.043	0.632	0.507
1027.000	589.980	80.011	19.993	103.751	20.042	0.710	0.516
1027.500	590.228	80.010	19.994	103.751	20.040	0.861	0.512
1028.000	590.491	80.011	19.994	103.750	20.043	0.628	0.506
1028.500	590.747	80.010	19.993	103.749	20.039	0.890	0.515
1029.000	591.038	80.011	19.995	103.749	20.042	0.675	0.533
1029.500	591.286	80.010	19.994	103.749	20.042	0.678	0.543
1030.000	591.556	80.010	19.993	103.749	20.043	0.653	0.528
1030.500	591.786	80.010	19.995	103.748	20.038	0.974	0.509
1031.000	592.031	80.013	19.995	103.748	20.043	0.661	0.488
1031.500	592.334	80.011	19.994	103.747	20.040	0.813	0.512
1032.000	592.561	80.011	19.994	103.746	20.040	0.849	0.539
1032.501	592.878	80.011	19.992	103.746	20.041	0.791	0.537
1033.001	593.120	80.010	19.994	103.745	20.041	0.743	0.551
1033.500	593.385	80.013	19.993	103.745	20.040	0.834	0.533
1034.000	593.634	80.012	19.993	103.745	20.041	0.781	0.510
1034.500	593.878	80.010	19.993	103.745	20.036	1.135	0.503
1035.000	594.167	80.014	19.994	103.745	20.038	0.966	0.513
1035.500	594.442	80.010	19.993	103.745	20.037	1.021	0.549
1036.001	594.695	80.011	19.994	103.746	20.036	1.116	0.546
1036.501	594.976	80.010	19.994	103.746	20.038	0.955	0.531
1037.000	595.230	80.012	19.993	103.747	20.040	0.813	0.535
1037.501	595.491	80.011	19.993	103.748	20.040	0.815	0.525
1038.001	595.773	80.012	19.992	103.751	20.038	0.982	0.529
1038.500	596.032	80.011	19.994	103.751	20.040	0.814	0.542
1039.000	596.272	80.010	19.994	103.753	20.042	0.676	0.519
1039.500	596.519	80.010	19.993	103.755	20.043	0.608	0.493
1040.000	596.767	80.013	19.991	103.754	20.041	0.754	0.491
1040.500	597.011	80.012	19.993	103.752	20.044	0.579	0.494
1041.000	597.355	80.012	19.994	103.753	20.042	0.682	0.540
1041.500	597.604	80.010	19.994	103.753	20.041	0.787	0.590
1042.000	597.873	80.012	19.994	103.751	20.041	0.777	0.555
1042.500	598.093	80.011	19.993	103.752	20.044	0.538	0.504
1043.001	598.365	80.013	19.993	103.751	20.036	1.096	0.491
1043.501	598.609	80.011	19.994	103.750	20.041	0.797	0.504
1044.000	598.860	80.010	19.993	103.746	20.038	0.966	0.505
1044.501	599.138	80.010	19.994	103.746	20.041	0.782	0.511
1045.001	599.412	80.010	19.992	103.746	20.040	0.871	0.540
1045.501	599.614	80.009	19.995	103.753	20.042	0.671	0.514
1046.001	599.920	80.010	19.994	103.760	20.042	0.676	0.492
1046.501	600.176	80.011	19.993	103.762	20.042	0.694	0.535
1047.001	600.430	80.012	19.994	103.763	20.043	0.659	0.536
1047.500	600.665	80.009	19.994	103.766	20.041	0.766	0.500
1048.000	600.965	80.012	19.994	103.761	20.040	0.844	0.512
1048.501	601.215	80.011	19.994	103.755	20.043	0.626	0.542
1049.001	601.453	80.010	19.994	103.753	20.041	0.746	0.519
1049.500	601.726	80.007	19.995	103.752	20.041	0.776	0.499
1050.000	601.959	80.011	19.994	103.748	20.040	0.861	0.509
1050.500	602.198	80.009	19.994	103.745	20.043	0.661	0.489
1051.001	602.484	80.009	19.993	103.742	20.040	0.840	0.499
1051.501	602.739	80.010	19.994	103.739	20.039	0.943	0.533
1052.000	603.015	80.011	19.993	103.734	20.042	0.709	0.536
1052.500	603.259	80.007	19.994	103.733	20.040	0.826	0.525
1053.000	603.514	80.009	19.995	103.736	20.040	0.822	0.509
1053.501	603.794	80.010	19.994	103.745	20.040	0.814	0.517
1054.001	604.019	80.011	19.994	103.756	20.043	0.638	0.520
1054.500	604.317	80.009	19.995	103.762	20.040	0.844	0.514
1055.000	604.555	80.009	19.995	103.764	20.040	0.871	0.529
1055.500	604.829	80.008	19.994	103.762	20.041	0.770	0.524
1056.000	605.103	80.010	19.994	103.756	20.039	0.933	0.530
1056.500	605.362	80.010	19.994	103.748	20.040	0.853	0.541
1057.000	605.609	80.010	19.994	103.748	20.042	0.676	0.520
1057.500	605.856	80.011	19.995	103.747	20.040	0.811	0.500
1058.000	606.135	80.011	19.993	103.747	20.038	0.960	0.510
1058.501	606.367	80.013	19.995	103.746	20.039	0.943	0.518
1059.001	606.629	80.008	19.994	103.746	20.039	0.916	0.503
1059.501	606.884	80.009	19.995	103.745	20.040	0.811	0.506
1060.001	607.151	80.010	19.994	103.745	20.040	0.875	0.519
1060.500	607.417	80.009	19.994	103.746	20.041	0.793	0.527
1061.000	607.678	80.008	19.993	103.746	20.039	0.917	0.530
1061.500	607.921	80.011	19.994	103.745	20.042	0.727	0.516
1062.000	608.178	80.009	19.994	103.746	20.038	1.011	0.502
1062.500	608.418	80.010	19.994	103.745	20.036	1.116	0.498
1063.000	608.656	80.010	19.994	103.745	20.039	0.921	0.488
1063.500	608.924	80.011	19.994	103.745	20.039	0.920	0.492
1064.000	609.178	80.009	19.994	103.746	20.038	1.009	0.514
1064.500	609.420	80.014	19.993	103.743	20.038	1.001	0.509
1065.000	609.671	80.010	19.994	103.743	20.038	0.995	0.495
1065.500	609.956	80.011	19.993	103.744	20.038	0.972	0.514
1066.000	610.198	80.012	19.993	103.745	20.042	0.669	0.531
1066.501	610.453	80.010	19.993	103.745	20.040	0.818	0.512
1067.001	610.723	80.012	19.992	103.746	20.040	0.855	0.511
1067.501	610.949	80.012	19.993	103.747	20.040	0.846	0.511
1068.001	611.239	80.013	19.993	103.745	20.038	0.952	0.506
1068.500	611.473	80.012	19.992	103.746	20.040	0.873	0.520
1069.000	611.710	80.012	19.993	103.745	20.041	0.750	0.498
1069.500	612.016	80.010	19.993	103.746	20.042	0.682	0.507
1070.000	612.258	80.012	19.993	103.747	20.042	0.725	0.545
1070.500	612.521	80.010	19.993	103.747	20.042	0.688	0.527
1071.001	612.745	80.010	19.991	103.747	20.040	0.838	0.496
1071.501	612.958	80.012	19.992	103.748	20.039	0.941	0.462
1072.000	613.267	80.013	19.994	103.747	20.041	0.768	0.480
1072.500	613.489	80.011	19.993	103.752	20.039	0.925	0.527
1073.000	613.742	80.013	19.994	103.754	20.040	0.840	0.503
1073.500	613.999	80.012	19.992	103.755	20.040	0.824	0.493
1074.001	614.289	80.011	19.994	103.757	20.038	0.958	0.528
1074.501	614.535	80.013	19.992	103.761	20.039	0.888	0.541
1075.001	614.778	80.010	19.992	103.758	20.040	0.830	0.512
1075.500	615.072	80.012	19.993	103.759	20.039	0.912	0.514
1076.000	615.305	80.011	19.992	103.760	20.041	0.760	0.532
1076.501	615.564	80.010	19.993	103.760	20.038	0.962	0.509
1077.001	615.842	80.011	19.993	103.757	20.040	0.813	0.514
1077.500	616.088	80.012	19.992	103.755	20.034	1.273	0.531
1078.000	616.323	80.008	19.993	103.754	20.042	0.696	0.503
1078.500	616.597	80.011	19.992	103.753	20.042	0.694	0.495
1079.000	616.865	80.011	19.992	103.750	20.040	0.869	0.525
1079.500	617.106	80.013	19.992	103.750	20.040	0.818	0.525
1080.000	617.363	80.010	19.993	103.750	20.041	0.776	0.504
1080.500	617.629	80.012	19.993	103.753	20.040	0.828	0.511
1081.000	617.884	80.012	19.994	103.755	20.038	1.005	0.522
1081.500	618.155	80.012	19.992	103.755	20.039	0.896	0.523
1082.000	618.434	80.010	19.992	103.757	20.043	0.634	0.538
1082.500	618.645	80.011	19.992	103.757	20.040	0.844	0.520
1083.000	618.967	80.011	19.993	103.753	20.042	0.696	0.511
1083.500	619.208	80.011	19.992	103.751	20.043	0.661	0.548
1084.000	619.471	80.010	19.992	103.751	20.042	0.709	0.534
1084.500	619.725	80.012	19.993	103.750	20.040	0.873	0.511
1085.000	619.967	80.011	19.993	103.750	20.042	0.731	0.506
1085.500	620.258	80.012	19.993	103.751	20.042	0.727	0.514
1086.001	620.514	80.013	19.992	103.751	20.040	0.873	0.540
1086.501	620.744	80.012	19.993	103.751	20.040	0.812	0.516
1087.001	621.022	80.013	19.992	103.750	20.038	0.960	0.497
1087.500	621.255	80.013	19.992	103.750	20.041	0.750	0.510
1088.000	621.488	80.012	19.991	103.749	20.041	0.776	0.489
1088.500	621.745	80.013	19.992	103.748	20.043	0.618	0.478
1089.000	622.013	80.014	19.994	103.747	20.040	0.812	0.507
1089.500	622.247	80.013	19.992	103.746	20.038	0.972	0.513
1090.000	622.548	80.013	19.994	103.746	20.041	0.758	0.518
1090.500	622.789	80.013	19.993	103.747	20.042	0.688	0.538
1091.000	623.032	80.014	19.992	103.749	20.044	0.542	0.513
1091.500	623.345	80.012	19.993	103.752	20.042	0.715	0.520
1092.000	623.577	80.014	19.994	103.753	20.043	0.605	0.551
1092.500	623.834	80.012	19.992	103.754	20.042	0.711	0.517
1093.000	624.062	80.014	19.992	103.753	20.044	0.544	0.487
1093.500	624.334	80.012	19.992	103.752	20.043	0.639	0.492
1094.000	624.592	80.012	19.994	103.750	20.039	0.906	0.515
1094.500	624.796	80.012	19.993	103.749	20.044	0.527	0.496
1095.001	625.082	80.014	19.992	103.748	20.042	0.709	0.476
1095.501	625.342	80.011	19.993	103.747	20.043	0.659	0.518
1096.000	625.602	80.015	19.993	103.745	20.043	0.645	0.533
1096.500	625.824	80.012	19.992	103.745	20.046	0.426	0.501
1097.000	626.114	80.013	19.993	103.745	20.039	0.896	0.497
1097.500	626.378	80.013	19.992	103.744	20.046	0.410	0.533
1098.000	626.615	80.013	19.994	103.744	20.042	0.709	0.527
1098.500	626.860	80.013	19.993	103.744	20.044	0.571	0.491
1099.001	627.085	80.010	19.994	103.744	20.041	0.754	0.476
1099.501	627.371	80.009	19.992	103.745	20.042	0.723	0.491
1100.000	627.642	80.011	19.992	103.746	20.046	0.447	0.534
1100.500	627.870	80.011	19.994	103.746	20.042	0.731	0.528
1101.001	628.143	80.013	19.994	103.747	20.043	0.616	0.500
1101.501	628.378	80.012	19.993	103.752	20.045	0.457	0.504
1102.000	628.615	80.011	19.994	103.752	20.043	0.610	0.490
1102.500	628.857	80.011	19.995	103.751	20.041	0.770	0.476
1103.000	629.163	80.012	19.993	103.751	20.044	0.577	0.514
1103.501	629.375	80.012	19.993	103.744	20.040	0.828	0.533
1104.001	629.664	80.010	19.993	103.739	20.044	0.589	0.510
1104.501	629.885	80.011	19.992	103.739	20.038	0.980	0.506
1105.000	630.175	80.009	19.993	103.739	20.041	0.741	0.510
1105.500	630.422	80.010	19.992	103.739	20.037	1.022	0.524
1106.000	630.683	80.009	19.992	103.745	20.039	0.943	0.523
1106.500	630.938	80.013	19.994	103.747	20.038	1.005	0.512
1107.001	631.159	80.011	19.993	103.747	20.039	0.912	0.496
1107.501	631.425	80.009	19.993	103.746	20.039	0.941	0.482
1108.000	631.697	80.011	19.993	103.747	20.039	0.900	0.513
1108.500	631.967	80.012	19.992	103.747	20.043	0.612	0.540
1109.000	632.223	80.011	19.993	103.747	20.037	1.038	0.534
1109.500	632.481	80.011	19.993	103.746	20.039	0.941	0.520
1110.000	632.699	80.013	19.993	103.748	20.042	0.682	0.495
1110.501	632.964	80.013	19.992	103.750	20.038	1.013	0.479
1111.001	633.208	80.008	19.992	103.750	20.045	0.463	0.496
1111.500	633.473	80.012	19.994	103.750	20.040	0.824	0.509
1112.000	633.752	80.011	19.992	103.751	20.044	0.552	0.527
1112.500	633.979	80.011	19.992	103.749	20.041	0.756	0.525
1113.000	634.222	80.011	19.994	103.747	20.043	0.655	0.488
1113.500	634.463	80.010	19.993	103.747	20.045	0.461	0.477
1114.000	634.705	80.013	19.993	103.747	20.047	0.348	0.483
1114.500	634.959	80.011	19.994	103.747	20.049	0.237	0.489
1115.000	635.194	80.012	19.993	103.746	20.047	0.369	0.492
1115.500	635.484	80.011	19.993	103.749	20.041	0.750	0.507
1116.000	635.736	80.010	19.993	103.752	20.041	0.787	0.534
1116.500	635.979	80.010	19.993	103.752	20.045	0.476	0.518
1117.000	636.234	80.010	19.993	103.752	20.043	0.603	0.497
1117.500	636.476	80.011	19.993	103.753	20.042	0.727	0.498
1118.000	636.738	80.010	19.995	103.750	20.044	0.579	0.501
1118.501	636.977	80.010	19.992	103.748	20.039	0.933	0.502
1119.001	637.227	80.010	19.993	103.746	20.042	0.686	0.495
1119.500	637.495	80.011	19.994	103.746	20.041	0.746	0.504
1120.000	637.702	80.012	19.994	103.746	20.043	0.595	0.496
1120.500	637.953	80.009	19.992	103.746	20.043	0.649	0.466
1121.000	638.222	80.011	19.994	103.745	20.043	0.628	0.489
1121.500	638.451	80.013	19.993	103.748	20.042	0.698	0.509
1122.000	638.708	80.008	19.993	103.747	20.042	0.715	0.492
1122.500	638.935	80.009	19.994	103.748	20.043	0.616	0.485
1123.000	639.210	80.010	19.994	103.748	20.039	0.906	0.493
1123.500	639.442	80.011	19.993	103.748	20.042	0.731	0.505
1124.000	639.704	80.011	19.994	103.747	20.044	0.523	0.501
1124.500	639.934	80.010	19.994	103.746	20.045	0.488	0.493
1125.000	640.210	80.009	19.995	103.746	20.044	0.556	0.499
1125.500	640.435	80.009	19.993	103.746	20.045	0.455	0.504
1126.000	640.688	80.010	19.994	103.746	20.044	0.538	0.490
1126.500	640.904	80.012	19.993	103.746	20.045	0.505	0.473
1127.000	641.181	80.009	19.994	103.745	20.046	0.389	0.480
1127.500	641.431	80.010	19.995	103.745	20.042	0.684	0.510
1128.000	641.734	80.008	19.994	103.745	20.048	0.249	0.540
1128.501	641.962	80.008	19.993	103.745	20.042	0.698	0.542
1129.001	642.192	80.008	19.994	103.745	20.043	0.651	0.494
1129.501	642.435	80.009	19.992	103.746	20.046	0.435	0.465
1130.000	642.698	80.008	19.994	103.747	20.045	0.472	0.489
1130.500	642.953	80.011	19.994	103.748	20.044	0.536	0.513
1131.000	643.178	80.009	19.993	103.752	20.040	0.818	0.499
1131.500	643.382	80.011	19.994	103.754	20.045	0.476	0.454
1132.000	643.660	80.010	19.994	103.753	20.041	0.744	0.455
1132.500	643.917	80.009	19.994	103.752	20.047	0.336	0.509
1133.000	644.168	80.009	19.993	103.749	20.042	0.694	0.522
1133.500	644.451	80.008	19.994	103.744	20.041	0.797	0.521
1134.000	644.684	80.010	19.993	103.743	20.044	0.575	0.525
1134.500	644.964	80.009	19.994	103.744	20.045	0.482	0.514
1135.000	645.181	80.008	19.993	103.746	20.043	0.618	0.505
1135.500	645.440	80.009	19.993	103.749	20.041	0.766	0.486
1136.000	645.675	80.008	19.992	103.750	20.039	0.908	0.485
1136.500	645.929	80.009	19.994	103.750	20.040	0.818	0.492
1137.000	646.179	80.009	19.993	103.750	20.043	0.655	0.497
1137.501	646.447	80.010	19.994	103.749	20.042	0.721	0.511
1138.001	646.679	80.011	19.994	103.748	20.042	0.715	0.509
1138.501	646.986	80.010	19.993	103.748	20.045	0.517	0.519
1139.001	647.216	80.011	19.995	103.748	20.040	0.857	0.538
1139.500	647.458	80.009	19.994	103.747	20.042	0.698	0.505
1140.000	647.744	80.011	19.993	103.743	20.041	0.776	0.500
1140.500	647.963	80.012	19.993	103.741	20.041	0.739	0.516
1141.000	648.272	80.012	19.994	103.741	20.044	0.568	0.517
1141.500	648.501	80.012	19.994	103.741	20.045	0.519	0.533
1142.000	648.780	80.011	19.993	103.743	20.044	0.587	0.523
1142.500	649.000	80.010	19.994	103.747	20.041	0.741	0.503
1143.000	649.285	80.007	19.994	103.749	20.045	0.488	0.502
1143.500	649.496	80.011	19.993	103.749	20.042	0.729	0.501
1144.000	649.794	80.012	19.994	103.750	20.041	0.766	0.502
1144.500	650.045	80.011	19.994	103.749	20.041	0.774	0.529
1145.000	650.271	80.010	19.994	103.750	20.040	0.813	0.513
1145.500	650.514	80.013	19.992	103.751	20.043	0.624	0.473
1146.000	650.789	80.009	19.994	103.753	20.042	0.729	0.494
1146.500	651.061	80.011	19.994	103.753	20.039	0.877	0.532
1147.000	651.289	80.011	19.994	103.753	20.035	1.209	0.523
1147.500	651.527	80.011	19.993	103.756	20.041	0.801	0.483
1148.001	651.804	80.011	19.993	103.759	20.039	0.906	0.490
1148.501	652.061	80.013	19.993	103.757	20.042	0.686	0.525
1149.000	652.282	80.010	19.993	103.757	20.038	0.952	0.507
1149.501	652.525	80.011	19.995	103.757	20.036	1.114	0.471
1150.001	652.793	80.011	19.993	103.753	20.042	0.671	0.487
1150.501	653.028	80.011	19.993	103.748	20.039	0.923	0.507
1151.000	653.300	80.011	19.993	103.748	20.039	0.894	0.505
1151.500	653.586	80.010	19.993	103.748	20.038	0.970	0.532
1152.000	653.827	80.010	19.994	103.748	20.040	0.847	0.543
1152.500	654.101	80.011	19.995	103.747	20.039	0.881	0.522
1153.000	654.322	80.012	19.994	103.749	20.041	0.748	0.505
1153.500	654.609	80.010	19.994	103.749	20.043	0.606	0.501
1154.000	654.810	80.010	19.993	103.748	20.044	0.546	0.498
1154.500	655.092	80.007	19.993	103.748	20.037	1.019	0.485
1155.000	655.356	80.009	19.993	103.748	20.041	0.797	0.514
1155.500	655.609	80.009	19.994	103.748	20.043	0.612	0.532
1156.000	655.887	80.011	19.994	103.750	20.038	0.972	0.524
1156.500	656.113	80.009	19.994	103.757	20.042	0.669	0.517
1157.000	656.375	80.010	19.994	103.760	20.046	0.443	0.496
1157.500	656.604	80.009	19.995	103.762	20.043	0.618	0.490
1158.000	656.863	80.011	19.994	103.762	20.046	0.414	0.489
1158.500	657.059	80.008	19.995	103.760	20.045	0.476	0.472
1159.000	657.367	80.010	19.993	103.750	20.041	0.746	0.480
1159.500	657.640	80.011	19.994	103.745	20.042	0.674	0.542
1160.000	657.858	80.009	19.992	103.742	20.047	0.328	0.536
1160.500	658.109	80.012	19.994	103.741	20.041	0.756	0.480
1161.000	658.352	80.013	19.996	103.742	20.043	0.608	0.482
1161.500	658.607	80.011	19.995	103.746	20.047	0.332	0.496
1162.001	658.883	80.011	19.994	103.749	20.046	0.449	0.514
1162.501	659.104	80.012	19.996	103.748	20.045	0.519	0.513
1163.001	659.355	80.011	19.995	103.748	20.043	0.636	0.484
1163.501	659.610	80.011	19.994	103.748	20.040	0.838	0.489
1164.000	659.860	80.013	19.995	103.748	20.040	0.840	0.506
1164.500	660.074	80.011	19.995	103.749	20.040	0.807	0.485
1165.000	660.368	80.011	19.994	103.748	20.041	0.756	0.486
1165.501	660.588	80.011	19.993	103.747	20.041	0.791	0.511
1166.001	660.837	80.011	19.993	103.745	20.041	0.776	0.492
1166.500	661.089	80.010	19.994	103.742	20.040	0.865	0.485
1167.000	661.359	80.012	19.994	103.739	20.042	0.680	0.511
1167.500	661.613	80.011	19.993	103.740	20.041	0.789	0.523
1168.000	661.862	80.013	19.993	103.742	20.042	0.698	0.513
1168.500	662.089	80.011	19.993	103.742	20.046	0.408	0.489
1169.001	662.347	80.013	19.994	103.745	20.046	0.416	0.481
1169.501	662.589	80.014	19.993	103.746	20.043	0.626	0.492
1170.000	662.875	80.011	19.993	103.746	20.041	0.805	0.514
1170.500	663.112	80.012	19.993	103.746	20.042	0.704	0.525
1171.000	663.329	80.012	19.994	103.745	20.041	0.774	0.488
1171.500	663.636	80.013	19.992	103.745	20.040	0.814	0.489
1172.001	663.870	80.011	19.993	103.745	20.041	0.743	0.532
1172.501	664.103	80.013	19.993	103.744	20.040	0.861	0.503
1173.001	664.350	80.013	19.992	103.744	20.040	0.853	0.473
1173.500	664.623	80.013	19.994	103.745	20.041	0.805	0.500
1174.000	664.868	80.014	19.993	103.745	20.040	0.871	0.519
1174.500	665.124	80.013	19.993	103.745	20.040	0.828	0.510
1175.000	665.353	80.014	19.993	103.742	20.040	0.814	0.493
1175.500	665.554	80.013	19.993	103.738	20.041	0.793	0.457
1176.000	665.861	80.012	19.993	103.736	20.040	0.847	0.469
1176.500	666.055	80.015	19.993	103.737	20.043	0.651	0.505
1177.000	666.345	80.015	19.992	103.739	20.042	0.725	0.493
1177.500	666.549	80.012	19.992	103.745	20.044	0.527	0.489
1178.000	666.810	80.013	19.993	103.752	20.041	0.774	0.480
1178.500	667.057	80.015	19.994	103.756	20.043	0.595	0.486
1179.000	667.283	80.015	19.993	103.757	20.047	0.363	0.490
1179.500	667.515	80.013	19.993	103.755	20.045	0.517	0.465
1180.000	667.794	80.012	19.994	103.749	20.044	0.525	0.485
1180.500	668.029	80.014	19.993	103.746	20.043	0.628	0.512
1181.000	668.279	80.014	19.994	103.743	20.042	0.676	0.499
1181.500	668.532	80.013	19.993	103.741	20.046	0.437	0.494
1182.000	668.776	80.012	19.993	103.741	20.042	0.673	0.500
1182.500	669.035	80.012	19.993	103.744	20.039	0.898	0.500
1183.001	669.286	80.013	19.994	103.744	20.039	0.888	0.506
1183.501	669.562	80.011	19.991	103.745	20.037	1.028	0.519
1184.001	669.778	80.010	19.993	103.745	20.038	0.984	0.510
1184.501	670.053	80.013	19.993	103.745	20.039	0.927	0.491
1185.000	670.317	80.011	19.994	103.745	20.038	1.015	0.515
1185.500	670.544	80.010	19.994	103.745	20.041	0.799	0.515
1186.000	670.789	80.011	19.993	103.745	20.036	1.096	0.482
1186.500	671.045	80.012	19.993	103.746	20.040	0.832	0.486
1187.000	671.311	80.011	19.993	103.744	20.039	0.886	0.511
1187.500	671.541	80.011	19.993	103.742	20.041	0.793	0.509
1188.000	671.800	80.011	19.993	103.742	20.039	0.904	0.493
1188.500	672.047	80.012	19.993	103.742	20.039	0.890	0.498
1189.000	672.267	80.012	19.994	103.741	20.037	1.042	0.486
1189.501	672.511	80.013	19.994	103.743	20.038	0.989	0.465
1190.001	672.801	80.008	19.994	103.746	20.040	0.822	0.499
1190.500	673.051	80.012	19.994	103.752	20.040	0.842	0.537
1191.000	673.282	80.008	19.994	103.754	20.042	0.665	0.511
1191.500	673.498	80.011	19.993	103.754	20.041	0.776	0.464
1192.000	673.774	80.011	19.994	103.753	20.040	0.867	0.469
1192.500	674.067	80.011	19.993	103.753	20.039	0.939	0.530
1193.000	674.297	80.012	19.994	103.748	20.041	0.756	0.546
1193.501	674.546	80.012	19.994	103.746	20.040	0.824	0.501
1194.001	674.816	80.012	19.994	103.747	20.041	0.772	0.499
1194.500	675.075	80.011	19.992	103.747	20.040	0.848	0.524
1195.000	675.320	80.011	19.994	103.747	20.038	0.960	0.517
1195.500	675.603	80.011	19.993	103.746	20.043	0.603	0.516
1196.000	675.810	80.011	19.993	103.746	20.039	0.935	0.509
1196.500	676.086	80.012	19.993	103.746	20.041	0.758	0.486
1197.000	676.336	80.013	19.993	103.744	20.042	0.731	0.505
1197.500	676.568	80.012	19.993	103.743	20.042	0.694	0.505
1198.000	676.784	80.010	19.993	103.743	20.040	0.826	0.465
1198.500	677.113	80.011	19.992	103.743	20.041	0.737	0.496
1199.000	677.344	80.012	19.991	103.744	20.038	0.954	0.552
1199.500	677.610	80.011	19.993	103.746	20.044	0.577	0.529
1200.000	677.867	80.010	19.992	103.747	20.045	0.486	0.510
1200.500	678.159	80.011	19.993	103.748	20.042	0.721	0.536
1201.000	678.386	80.014	19.993	103.748	20.039	0.931	0.534
1201.500	678.664	80.011	19.993	103.748	20.039	0.902	0.512
1202.000	678.948	80.011	19.992	103.749	20.042	0.717	0.534
1202.500	679.173	80.010	19.992	103.750	20.042	0.729	0.536
1203.000	679.432	80.011	19.992	103.750	20.041	0.770	0.496
1203.501	679.730	80.013	19.992	103.749	20.039	0.947	0.520
1204.001	679.960	80.011	19.991	103.749	20.040	0.807	0.543
1204.501	680.233	80.014	19.993	103.748	20.043	0.634	0.516
1205.000	680.500	80.011	19.992	103.750	20.042	0.715	0.522
1205.501	680.773	80.011	19.992	103.750	20.043	0.622	0.540
1206.001	681.050	80.012	19.992	103.751	20.042	0.713	0.545
1206.500	681.262	80.011	19.992	103.752	20.043	0.624	0.520
1207.001	681.531	80.011	19.993	103.752	20.047	0.373	0.485
1207.501	681.796	80.013	19.992	103.747	20.038	0.982	0.508
1208.000	682.039	80.011	19.991	103.746	20.043	0.603	0.521
1208.500	682.315	80.013	19.992	103.745	20.044	0.560	0.513
1209.000	682.582	80.011	19.993	103.744	20.045	0.511	0.531
1209.500	682.837	80.011	19.992	103.744	20.045	0.486	0.532
1210.000	683.112	80.013	19.992	103.748	20.048	0.309	0.526
1210.500	683.368	80.010	19.992	103.748	20.043	0.630	0.531
1211.000	683.611	80.010	19.992	103.749	20.045	0.484	0.515
1211.500	683.900	80.011	19.993	103.750	20.044	0.589	0.516
1212.000	684.154	80.012	19.991	103.750	20.041	0.789	0.537
1212.500	684.369	80.009	19.992	103.749	20.041	0.785	0.505
1213.000	684.674	80.012	19.993	103.748	20.045	0.474	0.495
1213.500	684.889	80.010	19.993	103.748	20.046	0.439	0.520
1214.000	685.180	80.012	19.993	103.748	20.041	0.783	0.513
1214.500	685.437	80.010	19.994	103.748	20.042	0.671	0.527
1215.000	685.676	80.009	19.992	103.749	20.047	0.340	0.522
1215.501	685.967	80.011	19.992	103.749	20.042	0.692	0.513
1216.001	686.228	80.010	19.994	103.749	20.050	0.134	0.541
1216.500	686.456	80.012	19.993	103.749	20.046	0.389	0.520
1217.000	686.733	80.010	19.992	103.749	20.046	0.449	0.497
1217.500	686.997	80.009	19.992	103.749	20.046	0.404	0.523
1218.000	687.238	80.010	19.993	103.751	20.046	0.387	0.522
1218.500	687.516	80.008	19.993	103.753	20.042	0.671	0.512
1219.001	687.771	80.009	19.992	103.755	20.042	0.735	0.526
1219.501	687.975	80.010	19.993	103.755	20.043	0.659	0.496
1220.000	688.288	80.008	19.992	103.756	20.043	0.661	0.488
1220.501	688.489	80.010	19.994	103.754	20.044	0.583	0.515
1221.002	688.752	80.012	19.996	103.752	20.045	0.486	0.489
1221.501	689.028	80.009	19.995	103.750	20.046	0.439	0.502
1222.000	689.319	80.009	19.995	103.749	20.045	0.488	0.553
1222.501	689.553	80.010	19.994	103.749	20.042	0.731	0.545
1223.001	689.834	80.009	19.994	103.749	20.043	0.610	0.520
1223.500	690.074	80.011	19.993	103.750	20.045	0.503	0.518
1224.001	690.313	80.009	19.995	103.750	20.046	0.398	0.500
1224.501	690.566	80.010	19.994	103.751	20.044	0.585	0.486
1225.000	690.852	80.012	19.995	103.750	20.052	-0.017	0.516
1225.500	691.086	80.014	19.994	103.750	20.039	0.879	0.529
1226.000	691.311	80.012	19.994	103.750	20.046	0.397	0.489
1226.500	691.570	80.012	19.994	103.749	20.047	0.350	0.472
1227.000	691.831	80.012	19.994	103.748	20.045	0.468	0.502
1227.500	692.093	80.012	19.994	103.747	20.049	0.181	0.521
1228.000	692.351	80.013	19.994	103.747	20.045	0.457	0.521
1228.500	692.584	80.013	19.993	103.747	20.047	0.319	0.505
1229.000	692.831	80.013	19.992	103.747	20.046	0.424	0.485
1229.500	693.099	80.013	19.993	103.746	20.047	0.352	0.497
1230.000	693.368	80.014	19.994	103.746	20.048	0.274	0.526
1230.501	693.614	80.014	19.993	103.745	20.040	0.846	0.527
1231.001	693.852	80.013	19.995	103.746	20.045	0.474	0.500
1231.501	694.142	80.014	19.995	103.746	20.046	0.402	0.506
1232.001	694.355	80.014	19.995	103.747	20.045	0.492	0.515
1232.500	694.598	80.014	19.994	103.747	20.046	0.398	0.479
1233.001	694.844	80.012	19.993	103.747	20.044	0.546	0.473
1233.501	695.086	80.013	19.993	103.747	20.042	0.676	0.488
1234.000	695.360	80.012	19.993	103.747	20.045	0.498	0.502
1234.500	695.624	80.014	19.993	103.745	20.048	0.286	0.527
1235.001	695.883	80.013	19.993	103.744	20.048	0.276	0.531
1235.501	696.109	80.015	19.994	103.744	20.049	0.198	0.505
1236.000	696.344	80.012	19.993	103.743	20.045	0.505	0.473
1236.500	696.632	80.012	19.993	103.739	20.049	0.224	0.492
1237.000	696.876	80.012	19.992	103.741	20.045	0.478	0.527
1237.501	697.136	80.012	19.992	103.741	20.046	0.443	0.518
1238.001	697.365	80.012	19.994	103.740	20.041	0.801	0.497
1238.500	697.649	80.012	19.992	103.741	20.043	0.599	0.501
1239.000	697.948	80.015	19.994	103.742	20.042	0.674	0.548
1239.501	698.120	80.012	19.993	103.741	20.042	0.674	0.527
1240.001	698.323	80.013	19.994	103.740	20.042	0.721	0.423
1240.500	698.600	80.012	19.993	103.741	20.038	0.984	0.428
1241.000	698.858	80.014	19.994	103.741	20.040	0.834	0.508
1241.500	699.095	80.012	19.994	103.744	20.041	0.750	0.515
1242.000	699.317	80.012	19.993	103.746	20.046	0.402	0.477
1242.500	699.584	80.012	19.994	103.746	20.043	0.647	0.474
1243.000	699.877	80.012	19.994	103.747	20.044	0.587	0.525
1243.500	700.092	80.011	19.994	103.746	20.040	0.824	0.534
1244.000	700.341	80.011	19.994	103.746	20.042	0.671	0.486
1244.501	700.614	80.012	19.993	103.745	20.039	0.882	0.493
1245.001	700.866	80.010	19.995	103.745	20.039	0.879	0.524
1245.500	701.115	80.013	19.994	103.742	20.042	0.708	0.513
1246.000	701.346	80.012	19.994	103.742	20.040	0.847	0.490
1246.500	701.634	80.012	19.993	103.742	20.041	0.791	0.500
1247.000	701.864	80.011	19.994	103.742	20.038	0.982	0.519
1247.500	702.110	80.011	19.994	103.742	20.038	0.968	0.497
1248.000	702.399	80.013	19.994	103.744	20.038	0.964	0.505
1248.500	702.641	80.013	19.993	103.740	20.041	0.787	0.533
1249.000	702.881	80.013	19.994	103.740	20.039	0.890	0.507
1249.500	703.161	80.012	19.993	103.740	20.041	0.750	0.501
1250.000	703.427	80.013	19.994	103.740	20.038	0.952	0.533
1250.500	703.672	80.014	19.996	103.741	20.039	0.939	0.528
1251.000	703.893	80.013	19.996	103.745	20.042	0.708	0.488
1251.500	704.156	80.014	19.994	103.745	20.037	1.020	0.475
1252.000	704.408	80.012	19.994	103.741	20.031	1.471	0.499
1252.500	704.666	80.013	19.995	103.741	20.038	0.950	0.513
1253.001	704.932	80.015	19.994	103.740	20.039	0.917	0.517
1253.501	705.179	80.011	19.994	103.740	20.041	0.795	0.518
1254.000	705.405	80.014	19.995	103.740	20.039	0.919	0.493
1254.500	705.649	80.011	19.994	103.743	20.038	0.991	0.472
1255.000	705.909	80.013	19.994	103.744	20.040	0.820	0.487
1255.500	706.189	80.013	19.994	103.744	20.040	0.840	0.522
1256.001	706.440	80.015	19.994	103.744	20.039	0.902	0.536
1256.501	706.727	80.012	19.993	103.743	20.037	1.065	0.535
1257.000	706.957	80.014	19.995	103.743	20.038	0.968	0.527
1257.500	707.211	80.014	19.992	103.742	20.040	0.836	0.500
1258.000	707.453	80.014	19.993	103.742	20.039	0.931	0.490
1258.500	707.752	80.013	19.993	103.742	20.040	0.840	0.519
1259.000	708.005	80.013	19.994	103.742	20.042	0.680	0.547
1259.500	708.232	80.013	19.993	103.742	20.040	0.851	0.516
1260.000	708.496	80.013	19.994	103.743	20.040	0.807	0.485
1260.500	708.782	80.014	19.993	103.743	20.037	1.061	0.520
1261.000	709.007	80.010	19.992	103.743	20.037	1.022	0.531
1261.500	709.277	80.011	19.993	103.744	20.039	0.900	0.504
1262.000	709.526	80.011	19.992	103.744	20.043	0.606	0.507
1262.500	709.801	80.013	19.992	103.744	20.038	0.956	0.521
1263.000	710.070	80.012	19.993	103.745	20.042	0.731	0.534
1263.500	710.295	80.010	19.993	103.746	20.039	0.908	0.520
1264.000	710.536	80.010	19.993	103.749	20.040	0.834	0.480
1264.500	710.851	80.010	19.993	103.750	20.041	0.748	0.511
1265.000	711.064	80.011	19.993	103.750	20.037	1.085	0.542
1265.500	711.317	80.011	19.994	103.750	20.039	0.898	0.497
1266.000	711.575	80.010	19.993	103.751	20.034	1.250	0.488
1266.500	711.866	80.011	19.992	103.749	20.039	0.900	0.530
1267.000	712.121	80.011	19.993	103.749	20.038	1.005	0.548
1267.500	712.359	80.011	19.993	103.749	20.036	1.112	0.520
1268.000	712.626	80.011	19.992	103.750	20.041	0.775	0.499
1268.500	712.894	80.009	19.993	103.749	20.039	0.880	0.520
1269.000	713.147	80.012	19.992	103.749	20.041	0.776	0.528
1269.500	713.406	80.011	19.992	103.749	20.042	0.669	0.516
1270.000	713.642	80.010	19.993	103.750	20.038	0.952	0.504
1270.500	713.929	80.010	19.994	103.751	20.040	0.851	0.509
1271.000	714.185	80.011	19.992	103.752	20.038	0.978	0.533
1271.500	714.448	80.011	19.994	103.752	20.038	0.984	0.531
1272.000	714.697	80.012	19.992	103.751	20.039	0.919	0.516
1272.500	714.979	80.011	19.992	103.745	20.040	0.828	0.522
1273.000	715.275	80.011	19.993	103.741	20.042	0.733	0.555
1273.501	715.540	80.012	19.993	103.740	20.040	0.869	0.569
1274.001	715.771	80.013	19.993	103.740	20.039	0.947	0.528
1274.500	716.050	80.010	19.993	103.741	20.036	1.145	0.503
1275.000	716.291	80.010	19.992	103.744	20.037	1.083	0.515
1275.500	716.525	80.010	19.993	103.748	20.041	0.774	0.497
1276.000	716.809	80.011	19.994	103.749	20.040	0.832	0.496
1276.500	717.073	80.011	19.993	103.747	20.037	1.022	0.533
1277.000	717.334	80.011	19.993	103.744	20.036	1.114	0.536
1277.500	717.595	80.012	19.993	103.742	20.038	1.015	0.523
1278.000	717.848	80.010	19.992	103.740	20.034	1.279	0.519
1278.500	718.128	80.012	19.993	103.735	20.038	0.991	0.524
1279.000	718.338	80.010	19.993	103.735	20.037	1.075	0.511
1279.500	718.592	80.010	19.992	103.737	20.039	0.880	0.477
1280.000	718.859	80.009	19.991	103.739	20.036	1.088	0.493
1280.500	719.114	80.011	19.994	103.740	20.040	0.842	0.522
1281.000	719.377	80.010	19.994	103.743	20.038	0.960	0.520
1281.500	719.620	80.010	19.996	103.745	20.039	0.882	0.512
1282.000	719.890	80.010	19.994	103.747	20.036	1.108	0.509
1282.500	720.114	80.010	19.994	103.747	20.041	0.797	0.503
1283.000	720.390	80.012	19.993	103.748	20.037	1.024	0.497
1283.501	720.661	80.009	19.995	103.750	20.040	0.838	0.524
1284.001	720.897	80.009	19.995	103.750	20.039	0.906	0.527
1284.500	721.172	80.011	19.993	103.750	20.039	0.879	0.509
1285.000	721.401	80.010	19.993	103.749	20.039	0.939	0.508
1285.500	721.638	80.009	19.993	103.744	20.035	1.192	0.485
1286.000	721.872	80.010	19.994	103.739	20.034	1.248	0.468
1286.500	722.112	80.010	19.995	103.738	20.036	1.092	0.472
1287.000	722.378	80.010	19.994	103.738	20.036	1.122	0.490
1287.500	722.677	80.010	19.994	103.739	20.035	1.182	0.536
1288.000	722.927	80.011	19.993	103.744	20.033	1.353	0.557
1288.500	723.166	80.009	19.993	103.748	20.036	1.133	0.519
1289.000	723.436	80.010	19.993	103.750	20.038	1.005	0.499
1289.500	723.673	80.011	19.994	103.749	20.037	1.059	0.508
1290.000	723.925	80.009	19.994	103.748	20.036	1.141	0.498
1290.500	724.128	80.011	19.995	103.742	20.037	1.065	0.472
1291.000	724.427	80.012	19.994	103.740	20.037	1.052	0.479
1291.501	724.699	80.011	19.994	103.738	20.037	1.073	0.536
1292.001	724.929	80.013	19.993	103.738	20.035	1.176	0.536
1292.500	725.172	80.009	19.994	103.738	20.036	1.131	0.487
1293.000	725.433	80.008	19.992	103.743	20.035	1.205	0.489
1293.500	725.700	80.011	19.994	103.746	20.035	1.182	0.516
1294.000	725.898	80.010	19.993	103.748	20.036	1.120	0.497
1294.500	726.195	80.010	19.994	103.748	20.034	1.289	0.480
1295.000	726.434	80.011	19.994	103.748	20.035	1.223	0.515
1295.500	726.702	80.009	19.994	103.748	20.036	1.147	0.522
1296.000	726.974	80.009	19.992	103.749	20.038	0.984	0.524
1296.500	727.214	80.011	19.993	103.749	20.035	1.223	0.526
1297.000	727.476	80.010	19.995	103.753	20.035	1.217	0.507
1297.501	727.745	80.011	19.994	103.756	20.037	1.038	0.516
1298.001	727.996	80.012	19.995	103.756	20.039	0.927	0.525
1298.500	728.243	80.010	19.993	103.756	20.037	1.032	0.509
1299.000	728.486	80.011	19.994	103.756	20.035	1.174	0.494
1299.500	728.748	80.010	19.993	103.751	20.039	0.923	0.498
1300.000	728.991	80.008	19.993	103.748	20.037	1.085	0.505
1300.500	729.237	80.011	19.994	103.747	20.036	1.141	0.497
1301.000	729.475	80.011	19.992	103.747	20.037	1.024	0.486
1301.500	729.745	80.010	19.994	103.747	20.039	0.896	0.496
1302.000	729.999	80.009	19.993	103.747	20.039	0.921	0.517
1302.500	730.289	80.010	19.993	103.747	20.036	1.089	0.534
1303.000	730.555	80.011	19.993	103.748	20.037	1.054	0.550
1303.501	730.769	80.011	19.994	103.748	20.036	1.114	0.518
1304.001	730.987	80.010	19.993	103.748	20.037	1.018	0.456
1304.500	731.308	80.010	19.994	103.748	20.035	1.211	0.485
1305.000	731.538	80.011	19.993	103.751	20.037	1.067	0.545
1305.501	731.806	80.010	19.993	103.753	20.038	0.997	0.525
1306.002	732.047	80.010	19.993	103.753	20.035	1.178	0.504
1306.501	732.294	80.012	19.993	103.755	20.034	1.246	0.498
1307.000	732.575	80.011	19.992	103.756	20.037	1.046	0.507
1307.500	732.808	80.011	19.992	103.752	20.035	1.203	0.521
1308.000	733.030	80.012	19.994	103.750	20.034	1.234	0.485
1308.500	733.312	80.011	19.993	103.750	20.034	1.285	0.480
1309.001	733.584	80.012	19.993	103.749	20.033	1.333	0.529
1309.501	733.854	80.011	19.992	103.747	20.038	0.966	0.548
1310.001	734.112	80.013	19.994	103.747	20.035	1.207	0.535
1310.501	734.378	80.012	19.992	103.747	20.037	1.038	0.526
1311.001	734.632	80.012	19.992	103.747	20.033	1.335	0.522
1311.501	734.860	80.012	19.994	103.747	20.038	0.960	0.501
1312.000	735.130	80.012	19.994	103.747	20.038	0.997	0.490
1312.500	735.391	80.012	19.994	103.747	20.037	1.038	0.514
1313.000	735.613	80.013	19.993	103.747	20.037	1.022	0.507
1313.500	735.902	80.012	19.993	103.747	20.038	1.007	0.497
1314.000	736.179	80.012	19.993	103.746	20.034	1.267	0.538
1314.500	736.368	80.012	19.993	103.742	20.032	1.407	0.516
1315.000	736.637	80.012	19.994	103.739	20.035	1.201	0.462
1315.500	736.899	80.012	19.993	103.733	20.036	1.108	0.495
1316.000	737.129	80.012	19.993	103.729	20.035	1.166	0.511
1316.500	737.412	80.012	19.994	103.730	20.034	1.285	0.502
1317.000	737.626	80.012	19.994	103.734	20.035	1.226	0.506
1317.500	737.893	80.011	19.993	103.737	20.037	1.075	0.489
1318.000	738.168	80.012	19.994	103.741	20.035	1.195	0.511
1318.500	738.446	80.011	19.994	103.745	20.036	1.118	0.547
1319.000	738.672	80.011	19.993	103.744	20.034	1.281	0.528
1319.500	738.932	80.011	19.993	103.744	20.032	1.405	0.495
1320.000	739.182	80.011	19.992	103.744	20.033	1.320	0.499
1320.500	739.426	80.012	19.995	103.744	20.035	1.166	0.502
1321.000	739.687	80.011	19.995	103.744	20.035	1.160	0.499
1321.500	739.915	80.011	19.994	103.744	20.032	1.429	0.497
1322.000	740.180	80.012	19.994	103.743	20.034	1.269	0.491
1322.500	740.466	80.011	19.993	103.739	20.035	1.178	0.522
1323.001	740.740	80.009	19.993	103.737	20.036	1.108	0.555
1323.501	740.916	80.011	19.994	103.737	20.034	1.252	0.505
1324.000	741.222	80.011	19.993	103.736	20.036	1.127	0.466
1324.501	741.439	80.012	19.994	103.734	20.036	1.100	0.503
1325.001	741.672	80.012	19.994	103.737	20.030	1.545	0.487
1325.500	741.951	80.012	19.994	103.740	20.032	1.382	0.481
1326.000	742.240	80.009	19.993	103.737	20.033	1.355	0.540
1326.500	742.457	80.011	19.995	103.736	20.035	1.184	0.537
1327.000	742.700	80.011	19.994	103.736	20.036	1.129	0.483
1327.500	742.931	80.011	19.994	103.732	20.031	1.442	0.467
1328.000	743.187	80.010	19.994	103.731	20.032	1.380	0.481
1328.500	743.414	80.010	19.993	103.734	20.031	1.489	0.485
1329.000	743.701	80.011	19.994	103.737	20.035	1.184	0.498
