Sample ID:	C:\MCC\MCC Cal\Test\Cotton_Felt\Cotton_Felt_MCC_30K_min_21_07_08_R1.txt
Sample Weight (mg):	4.08
Heating Rate (C/s):	0.5
Combustor Temp (C):	900
N2 Flow Rate (cc/min):	80
O2 Flow Rate (cc/min):	20
Calibration File:	C:\MCC\MCC Cal\Coeff1 JN10440_30_210304.txt.txt
T Correction Coefficients:	0	1.024463	0
Time Shift (s):	14
*
Time (s)	Temperature (C)	N2 flow rate (cc/min)	O2 flow rate (cc/min)	Flow Rate (cc/min)	Oxygen (%)	HRR (W/g)	Heating rate (C/s)
0.000	112.567	79.996	19.995	99.921	20.249	-0.136	-0.014
0.499	112.597	79.995	19.995	99.917	20.248	-0.040	-0.027
1.000	112.548	79.997	19.996	99.916	20.248	-0.071	-0.013
1.500	112.525	79.995	19.995	99.911	20.247	0.002	-0.046
2.000	112.560	79.996	19.995	99.906	20.250	-0.207	-0.030
2.500	112.549	79.996	19.995	99.909	20.246	0.084	0.018
3.000	112.592	79.997	19.995	99.913	20.243	0.356	0.028
3.500	112.557	79.997	19.995	99.913	20.248	-0.031	0.021
4.000	112.540	79.995	19.995	99.917	20.247	0.002	-0.022
4.500	112.555	79.995	19.995	99.923	20.247	-0.004	-0.027
5.000	112.550	79.994	19.995	99.923	20.247	0.010	0.004
5.500	112.569	79.995	19.994	99.919	20.244	0.239	0.012
6.000	112.551	79.996	19.995	99.914	20.247	-0.015	0.007
6.500	112.527	79.996	19.995	99.912	20.248	-0.044	-0.020
7.000	112.512	79.996	19.995	99.911	20.250	-0.234	-0.041
7.500	112.522	79.996	19.995	99.912	20.248	-0.090	-0.023
8.000	112.525	79.996	19.995	99.913	20.249	-0.103	0.004
8.500	112.521	79.996	19.994	99.914	20.249	-0.165	0.007
9.000	112.512	79.996	19.994	99.911	20.250	-0.201	-0.007
9.500	112.478	79.999	19.995	99.906	20.246	0.105	-0.028
10.000	112.484	79.996	19.995	99.903	20.246	0.115	-0.036
10.500	112.488	79.997	19.994	99.906	20.249	-0.119	-0.008
11.000	112.490	79.997	19.996	99.911	20.245	0.134	0.008
11.501	112.513	79.997	19.996	99.917	20.249	-0.147	0.015
12.001	112.487	79.996	19.994	99.922	20.247	0.021	0.011
12.500	112.496	79.996	19.996	99.924	20.246	0.098	-0.010
13.000	112.497	79.996	19.995	99.924	20.247	0.029	-0.004
13.500	112.494	79.996	19.996	99.923	20.249	-0.124	0.004
14.000	112.483	79.996	19.995	99.922	20.248	-0.034	-0.008
14.500	112.435	79.997	19.995	99.922	20.247	0.002	-0.036
15.000	112.449	79.996	19.996	99.923	20.244	0.243	-0.047
15.500	112.457	79.995	19.995	99.922	20.249	-0.099	-0.006
16.000	112.455	79.996	19.996	99.923	20.246	0.082	0.014
16.500	112.443	79.994	19.997	99.926	20.245	0.140	-0.004
17.000	112.441	79.995	19.995	99.933	20.245	0.161	-0.014
17.500	112.450	79.997	19.996	99.936	20.244	0.254	-0.003
18.000	112.452	79.996	19.997	99.935	20.242	0.384	0.009
18.500	112.449	79.996	19.996	99.934	20.241	0.503	0.004
19.000	112.398	79.995	19.996	99.931	20.243	0.329	-0.028
19.500	112.407	79.996	19.996	99.928	20.243	0.323	-0.048
20.000	112.467	79.994	19.996	99.933	20.244	0.266	0.014
20.500	112.443	79.996	19.996	99.941	20.239	0.596	0.053
21.000	112.468	79.995	19.997	99.954	20.240	0.564	0.018
21.500	112.476	79.996	19.997	99.970	20.239	0.610	0.017
22.000	112.444	79.996	19.995	99.982	20.241	0.497	0.005
22.500	112.493	79.995	19.997	99.991	20.234	1.003	-0.004
23.000	112.466	79.996	19.996	99.999	20.238	0.688	0.019
23.500	112.509	79.997	19.996	100.004	20.238	0.739	0.019
24.000	112.485	79.996	19.995	100.006	20.234	1.009	0.018
24.500	112.526	79.995	19.996	100.012	20.230	1.295	0.018
25.000	112.524	79.995	19.996	100.019	20.231	1.280	0.028
25.500	112.548	79.997	19.996	100.029	20.225	1.702	0.031
26.000	112.550	79.996	19.995	100.041	20.227	1.532	0.024
26.500	112.564	79.995	19.995	100.054	20.223	1.862	0.020
27.000	112.593	79.996	19.997	100.063	20.222	1.903	0.030
27.500	112.651	79.997	19.996	100.071	20.221	2.017	0.065
28.000	112.633	79.995	19.996	100.077	20.221	2.012	0.063
28.500	112.699	79.996	19.996	100.084	20.220	2.080	0.044
29.000	112.711	79.996	19.995	100.092	20.215	2.487	0.063
29.500	112.748	79.998	19.997	100.100	20.218	2.227	0.063
30.000	112.805	79.997	19.996	100.109	20.217	2.286	0.072
30.500	112.831	79.996	19.996	100.119	20.212	2.725	0.089
31.000	112.879	79.997	19.996	100.123	20.215	2.439	0.079
31.500	112.898	79.998	19.996	100.125	20.212	2.687	0.071
32.000	112.968	79.997	19.995	100.133	20.211	2.756	0.078
32.500	112.992	79.998	19.996	100.140	20.212	2.714	0.091
33.000	113.055	79.997	19.996	100.147	20.207	3.064	0.090
33.499	113.111	79.997	19.996	100.155	20.206	3.159	0.103
33.999	113.208	79.997	19.996	100.161	20.206	3.123	0.136
34.499	113.250	79.998	19.996	100.165	20.205	3.266	0.146
34.999	113.337	79.997	19.996	100.171	20.203	3.419	0.134
35.499	113.391	79.999	19.995	100.177	20.204	3.346	0.135
36.000	113.447	79.997	19.996	100.182	20.200	3.629	0.125
36.500	113.527	79.998	19.996	100.188	20.200	3.583	0.124
36.999	113.611	79.998	19.996	100.186	20.201	3.537	0.150
37.500	113.662	79.997	19.996	100.183	20.201	3.547	0.149
38.000	113.782	79.997	19.996	100.176	20.197	3.858	0.152
38.499	113.837	79.997	19.996	100.168	20.198	3.774	0.173
38.999	113.969	79.998	19.997	100.165	20.200	3.606	0.182
39.499	114.085	79.996	19.996	100.171	20.197	3.820	0.217
39.999	114.119	79.996	19.996	100.175	20.200	3.600	0.198
40.500	114.189	79.997	19.995	100.185	20.199	3.677	0.127
41.000	114.306	79.996	19.996	100.191	20.199	3.707	0.146
41.500	114.420	79.997	19.996	100.195	20.196	3.893	0.210
42.000	114.490	79.996	19.996	100.192	20.197	3.879	0.207
42.500	114.627	79.996	19.996	100.189	20.195	3.982	0.195
43.001	114.717	79.995	19.996	100.185	20.195	4.005	0.217
43.501	114.822	79.996	19.996	100.186	20.192	4.202	0.211
44.000	114.934	79.996	19.997	100.187	20.196	3.950	0.206
44.499	115.086	79.995	19.995	100.190	20.192	4.263	0.241
44.999	115.207	79.995	19.997	100.192	20.193	4.135	0.269
45.500	115.331	79.996	19.996	100.195	20.196	3.923	0.259
46.000	115.432	79.997	19.997	100.195	20.197	3.852	0.235
46.500	115.520	79.995	19.996	100.191	20.194	4.116	0.207
47.000	115.659	79.996	19.996	100.191	20.198	3.810	0.208
47.500	115.814	79.995	19.996	100.189	20.193	4.125	0.260
48.000	115.897	79.996	19.997	100.187	20.194	4.102	0.266
48.499	116.079	79.995	19.997	100.188	20.195	4.032	0.252
48.999	116.194	79.997	19.996	100.192	20.193	4.175	0.281
49.500	116.313	79.996	19.996	100.193	20.193	4.179	0.265
50.000	116.462	79.996	19.996	100.194	20.192	4.259	0.251
50.500	116.617	79.995	19.996	100.195	20.194	4.047	0.287
51.000	116.743	79.996	19.997	100.193	20.190	4.404	0.292
51.500	116.877	79.997	19.996	100.192	20.190	4.360	0.270
52.000	116.990	79.996	19.996	100.191	20.194	4.062	0.253
52.500	117.164	79.997	19.996	100.191	20.193	4.169	0.267
53.000	117.306	79.997	19.996	100.192	20.188	4.502	0.302
53.499	117.474	79.998	19.995	100.194	20.189	4.441	0.313
53.999	117.599	79.996	19.996	100.195	20.191	4.341	0.301
54.499	117.756	79.998	19.995	100.197	20.194	4.051	0.287
54.999	117.950	79.999	19.996	100.197	20.195	4.039	0.316
55.499	118.123	79.998	19.996	100.195	20.193	4.165	0.359
55.999	118.219	79.998	19.996	100.195	20.195	4.024	0.318
56.500	118.404	79.999	19.996	100.195	20.193	4.154	0.275
57.000	118.547	79.997	19.994	100.195	20.192	4.202	0.304
57.499	118.707	79.998	19.995	100.196	20.189	4.465	0.315
57.999	118.863	79.999	19.995	100.198	20.190	4.421	0.310
58.499	119.049	79.998	19.994	100.199	20.193	4.175	0.329
58.999	119.205	79.997	19.994	100.199	20.193	4.171	0.341
59.499	119.341	79.998	19.994	100.199	20.191	4.301	0.317
59.999	119.508	79.997	19.995	100.197	20.191	4.314	0.298
60.499	119.723	79.998	19.995	100.193	20.192	4.249	0.342
60.999	119.902	79.998	19.994	100.191	20.194	4.066	0.388
61.499	120.076	79.997	19.995	100.191	20.194	4.114	0.374
61.999	120.235	79.998	19.995	100.191	20.194	4.099	0.343
62.499	120.390	79.998	19.995	100.192	20.195	4.032	0.324
62.999	120.600	79.997	19.994	100.194	20.196	3.912	0.340
63.500	120.761	79.997	19.994	100.195	20.193	4.129	0.368
64.000	120.931	79.999	19.995	100.193	20.193	4.188	0.351
64.500	121.120	79.997	19.994	100.192	20.193	4.162	0.345
65.000	121.315	79.996	19.994	100.193	20.195	4.020	0.372
65.499	121.499	79.997	19.995	100.194	20.194	4.099	0.382
66.000	121.700	79.997	19.995	100.198	20.195	3.984	0.382
66.500	121.881	79.995	19.994	100.200	20.195	4.030	0.383
66.999	122.059	79.997	19.994	100.200	20.193	4.185	0.370
67.499	122.250	79.996	19.994	100.198	20.193	4.154	0.364
68.000	122.477	79.993	19.994	100.198	20.190	4.366	0.394
68.500	122.678	79.996	19.995	100.198	20.194	4.102	0.423
69.000	122.886	79.995	19.994	100.198	20.192	4.225	0.418
69.500	123.050	79.996	19.995	100.199	20.190	4.358	0.391
70.000	123.242	79.997	19.995	100.201	20.193	4.188	0.364
70.500	123.420	79.994	19.994	100.201	20.192	4.211	0.363
70.999	123.624	79.995	19.995	100.201	20.196	3.906	0.376
71.500	123.831	79.995	19.995	100.199	20.191	4.309	0.397
72.001	124.012	79.995	19.995	100.196	20.193	4.137	0.399
72.500	124.231	79.995	19.995	100.190	20.197	3.839	0.394
72.999	124.409	79.996	19.994	100.187	20.192	4.221	0.399
73.499	124.584	79.995	19.995	100.187	20.193	4.175	0.375
73.999	124.868	79.995	19.995	100.187	20.193	4.169	0.406
74.499	125.064	79.994	19.995	100.190	20.191	4.303	0.469
74.999	125.276	79.996	19.995	100.196	20.195	3.978	0.444
75.499	125.457	79.994	19.996	100.198	20.194	4.043	0.401
75.999	125.691	79.995	19.995	100.198	20.195	4.013	0.404
76.499	125.893	79.996	19.996	100.198	20.192	4.219	0.426
76.999	126.086	79.995	19.995	100.195	20.193	4.162	0.416
77.499	126.321	79.996	19.995	100.195	20.192	4.248	0.411
77.999	126.516	79.996	19.996	100.196	20.194	4.060	0.428
78.499	126.712	79.996	19.995	100.196	20.193	4.129	0.410
78.999	126.968	79.996	19.995	100.195	20.194	4.091	0.421
79.499	127.151	79.996	19.995	100.197	20.193	4.150	0.446
80.000	127.361	79.995	19.997	100.196	20.191	4.318	0.416
80.500	127.574	79.997	19.996	100.196	20.196	3.959	0.408
80.999	127.774	79.997	19.995	100.196	20.197	3.858	0.418
81.499	128.039	79.995	19.995	100.196	20.195	3.999	0.438
81.999	128.231	79.996	19.996	100.196	20.196	3.890	0.461
82.499	128.476	79.995	19.995	100.196	20.198	3.784	0.447
82.999	128.700	79.995	19.995	100.195	20.197	3.833	0.453
83.499	128.880	79.996	19.995	100.196	20.197	3.883	0.437
83.999	129.147	79.995	19.995	100.196	20.199	3.684	0.425
84.499	129.373	79.996	19.995	100.194	20.198	3.753	0.470
84.999	129.591	79.996	19.995	100.194	20.197	3.862	0.468
85.499	129.823	79.996	19.994	100.195	20.194	4.078	0.447
85.999	130.048	79.998	19.995	100.197	20.194	4.099	0.454
86.499	130.250	79.997	19.994	100.197	20.198	3.791	0.442
87.001	130.437	79.996	19.996	100.199	20.196	3.911	0.408
87.501	130.653	79.998	19.994	100.199	20.196	3.892	0.396
87.999	130.952	79.995	19.996	100.198	20.195	4.007	0.459
88.499	131.176	79.996	19.994	100.196	20.198	3.763	0.519
88.999	131.397	79.996	19.995	100.195	20.194	4.085	0.483
89.500	131.645	79.996	19.995	100.193	20.200	3.616	0.457
90.001	131.890	79.997	19.995	100.193	20.198	3.795	0.481
90.500	132.110	79.996	19.994	100.193	20.197	3.858	0.479
91.000	132.301	79.995	19.994	100.193	20.197	3.852	0.438
91.500	132.553	79.996	19.994	100.194	20.197	3.822	0.427
91.999	132.772	79.997	19.994	100.196	20.201	3.549	0.457
92.499	133.005	79.997	19.995	100.197	20.200	3.598	0.461
92.999	133.265	79.995	19.995	100.197	20.197	3.868	0.472
93.499	133.507	79.996	19.994	100.192	20.199	3.664	0.497
94.000	133.738	79.996	19.995	100.190	20.199	3.658	0.487
94.500	133.974	79.996	19.994	100.190	20.200	3.587	0.470
94.999	134.233	79.996	19.995	100.190	20.204	3.348	0.481
95.499	134.461	79.995	19.994	100.190	20.199	3.660	0.491
96.000	134.709	79.995	19.995	100.194	20.197	3.839	0.482
96.500	134.919	79.994	19.996	100.197	20.197	3.826	0.467
96.999	135.150	79.995	19.995	100.197	20.199	3.662	0.450
97.499	135.371	79.995	19.995	100.196	20.199	3.717	0.446
98.000	135.681	79.996	19.995	100.197	20.199	3.658	0.491
98.500	135.913	79.995	19.996	100.196	20.199	3.705	0.536
99.000	136.124	79.995	19.996	100.195	20.198	3.764	0.492
99.500	136.336	79.996	19.995	100.194	20.199	3.692	0.433
100.001	136.615	79.995	19.996	100.193	20.200	3.629	0.457
100.501	136.840	79.995	19.996	100.191	20.199	3.715	0.497
100.999	137.097	79.995	19.995	100.189	20.196	3.894	0.493
101.499	137.368	79.996	19.996	100.190	20.199	3.728	0.505
102.000	137.623	79.996	19.996	100.192	20.198	3.751	0.527
102.500	137.884	79.995	19.996	100.192	20.197	3.816	0.521
103.000	138.096	79.993	19.996	100.193	20.198	3.790	0.495
103.500	138.354	79.995	19.996	100.190	20.198	3.805	0.472
104.001	138.619	79.995	19.996	100.187	20.198	3.736	0.496
104.501	138.882	79.995	19.996	100.183	20.195	3.989	0.525
105.001	139.077	79.995	19.996	100.181	20.195	3.983	0.493
105.500	139.347	79.995	19.997	100.179	20.198	3.736	0.462
105.999	139.596	79.996	19.996	100.182	20.197	3.883	0.492
106.499	139.831	79.994	19.996	100.184	20.198	3.782	0.502
107.000	140.118	79.995	19.996	100.183	20.196	3.954	0.503
107.500	140.378	79.995	19.996	100.184	20.197	3.859	0.534
107.999	140.606	79.997	19.996	100.185	20.196	3.945	0.517
108.499	140.856	79.996	19.997	100.188	20.197	3.813	0.483
109.000	141.126	79.995	19.997	100.190	20.195	4.040	0.499
109.501	141.388	79.995	19.995	100.195	20.197	3.835	0.526
110.000	141.634	79.997	19.995	100.197	20.194	4.061	0.520
110.500	141.850	79.996	19.996	100.197	20.196	3.891	0.485
111.001	142.138	79.997	19.996	100.197	20.197	3.870	0.483
111.500	142.376	79.998	19.995	100.196	20.195	3.992	0.515
112.000	142.652	79.998	19.995	100.194	20.197	3.885	0.520
112.501	142.916	79.998	19.995	100.190	20.197	3.880	0.527
113.001	143.154	79.996	19.995	100.189	20.197	3.865	0.521
113.500	143.408	79.998	19.996	100.185	20.196	3.899	0.497
114.000	143.688	79.998	19.996	100.183	20.195	4.021	0.513
114.500	143.934	79.998	19.996	100.180	20.200	3.639	0.530
114.999	144.177	79.998	19.994	100.178	20.196	3.953	0.507
115.499	144.429	79.997	19.996	100.174	20.195	4.000	0.492
115.999	144.711	79.997	19.995	100.176	20.195	3.998	0.515
116.499	144.988	79.997	19.995	100.177	20.192	4.203	0.547
116.999	145.199	79.996	19.996	100.179	20.193	4.140	0.523
117.499	145.435	79.998	19.996	100.178	20.194	4.079	0.468
118.000	145.707	79.997	19.995	100.177	20.195	3.989	0.478
118.500	145.987	79.996	19.994	100.174	20.198	3.804	0.530
119.000	146.240	79.997	19.995	100.175	20.195	4.029	0.543
119.500	146.504	79.997	19.995	100.178	20.197	3.821	0.525
119.999	146.746	79.996	19.995	100.182	20.195	3.972	0.511
120.499	146.995	79.997	19.995	100.186	20.199	3.704	0.498
121.000	147.283	79.997	19.995	100.187	20.196	3.934	0.514
121.500	147.501	79.997	19.996	100.182	20.197	3.867	0.522
122.000	147.729	79.998	19.995	100.177	20.196	3.901	0.476
122.500	147.994	79.995	19.995	100.177	20.198	3.756	0.469
122.999	148.242	79.994	19.996	100.176	20.192	4.253	0.503
123.499	148.521	79.996	19.996	100.171	20.197	3.819	0.520
123.999	148.770	79.996	19.995	100.171	20.197	3.836	0.528
124.499	149.045	79.995	19.995	100.170	20.198	3.775	0.526
125.000	149.306	79.995	19.996	100.167	20.200	3.632	0.531
125.500	149.575	79.997	19.996	100.165	20.200	3.615	0.533
125.999	149.806	79.997	19.995	100.165	20.194	4.115	0.514
126.500	150.068	79.995	19.995	100.167	20.196	3.899	0.497
127.001	150.359	79.996	19.996	100.167	20.201	3.536	0.523
127.500	150.633	79.995	19.996	100.166	20.202	3.464	0.559
127.999	150.823	79.995	19.996	100.165	20.199	3.701	0.515
128.500	151.109	79.997	19.997	100.165	20.201	3.571	0.470
129.000	151.355	79.995	19.996	100.164	20.201	3.558	0.504
129.500	151.607	79.997	19.995	100.163	20.200	3.596	0.515
130.000	151.871	79.996	19.995	100.162	20.200	3.603	0.506
130.500	152.108	79.996	19.995	100.162	20.200	3.653	0.508
131.000	152.414	79.997	19.996	100.162	20.200	3.626	0.522
131.500	152.668	79.996	19.996	100.161	20.201	3.552	0.551
132.000	152.923	79.996	19.996	100.162	20.199	3.730	0.534
132.500	153.179	79.998	19.997	100.161	20.202	3.502	0.510
133.000	153.440	79.997	19.997	100.161	20.199	3.733	0.514
133.500	153.703	79.998	19.996	100.161	20.203	3.418	0.520
134.000	153.949	79.997	19.997	100.161	20.200	3.651	0.516
134.500	154.190	79.996	19.996	100.159	20.204	3.292	0.498
135.000	154.471	79.996	19.995	100.159	20.200	3.645	0.505
135.500	154.699	79.996	19.996	100.158	20.202	3.441	0.515
136.000	154.944	79.996	19.995	100.158	20.202	3.470	0.491
136.500	155.206	79.997	19.997	100.157	20.199	3.686	0.490
137.000	155.454	79.997	19.996	100.160	20.201	3.565	0.509
137.500	155.717	79.997	19.996	100.161	20.198	3.779	0.511
138.000	155.987	79.997	19.996	100.160	20.200	3.640	0.522
138.500	156.246	79.998	19.996	100.159	20.202	3.496	0.531
138.999	156.534	79.998	19.994	100.159	20.203	3.403	0.538
139.499	156.785	79.998	19.996	100.156	20.199	3.684	0.543
139.999	157.031	79.998	19.996	100.154	20.203	3.403	0.518
140.499	157.326	79.996	19.995	100.154	20.205	3.242	0.519
141.000	157.591	79.998	19.996	100.153	20.200	3.607	0.550
141.500	157.853	79.997	19.995	100.152	20.202	3.495	0.544
141.999	158.063	79.997	19.995	100.153	20.204	3.292	0.500
142.500	158.289	79.998	19.995	100.152	20.204	3.296	0.454
143.000	158.620	79.999	19.996	100.152	20.204	3.336	0.497
143.500	158.839	79.999	19.996	100.154	20.202	3.432	0.553
143.999	159.098	79.997	19.995	100.156	20.205	3.218	0.514
144.499	159.363	79.999	19.995	100.156	20.207	3.088	0.501
144.999	159.649	79.997	19.995	100.156	20.201	3.516	0.538
145.499	159.867	79.996	19.995	100.156	20.206	3.176	0.528
145.999	160.098	79.995	19.996	100.155	20.202	3.455	0.476
146.499	160.402	79.996	19.995	100.154	20.204	3.348	0.492
146.999	160.622	79.995	19.995	100.153	20.200	3.589	0.530
147.499	160.898	79.997	19.996	100.154	20.205	3.226	0.510
148.000	161.203	79.996	19.995	100.155	20.202	3.480	0.538
148.500	161.437	79.997	19.995	100.156	20.205	3.210	0.560
148.999	161.675	79.996	19.995	100.156	20.202	3.476	0.506
149.499	161.953	79.996	19.996	100.155	20.202	3.434	0.494
150.000	162.176	79.997	19.995	100.154	20.205	3.243	0.508
150.500	162.456	79.996	19.996	100.151	20.200	3.602	0.502
151.000	162.717	79.996	19.995	100.151	20.201	3.574	0.522
151.499	162.939	79.996	19.995	100.150	20.201	3.560	0.512
151.999	163.180	79.996	19.995	100.152	20.203	3.420	0.473
152.499	163.481	79.997	19.996	100.152	20.201	3.529	0.503
152.999	163.705	79.996	19.995	100.155	20.200	3.592	0.533
153.499	163.950	79.995	19.995	100.151	20.203	3.382	0.497
154.000	164.229	79.997	19.996	100.147	20.204	3.277	0.496
154.500	164.520	79.998	19.995	100.145	20.201	3.550	0.547
154.999	164.772	79.996	19.995	100.142	20.207	3.102	0.557
155.499	164.975	79.996	19.995	100.136	20.201	3.551	0.499
156.000	165.275	79.996	19.995	100.135	20.202	3.486	0.479
156.500	165.500	79.997	19.995	100.135	20.202	3.434	0.514
156.999	165.780	79.997	19.995	100.132	20.204	3.327	0.515
157.499	166.019	79.996	19.996	100.131	20.202	3.480	0.512
158.000	166.275	79.996	19.996	100.134	20.204	3.302	0.507
158.500	166.529	79.996	19.996	100.139	20.201	3.560	0.502
158.999	166.760	79.995	19.994	100.143	20.204	3.279	0.497
159.499	167.025	79.996	19.996	100.148	20.204	3.338	0.491
160.000	167.284	79.997	19.996	100.147	20.204	3.327	0.511
160.500	167.530	79.995	19.995	100.143	20.205	3.268	0.514
161.000	167.794	79.996	19.995	100.137	20.202	3.432	0.507
161.500	168.022	79.996	19.995	100.132	20.203	3.375	0.501
161.999	168.262	79.997	19.995	100.132	20.203	3.413	0.480
162.499	168.546	79.996	19.995	100.136	20.205	3.207	0.496
162.999	168.776	79.995	19.995	100.143	20.205	3.245	0.519
163.499	169.014	79.995	19.995	100.150	20.203	3.419	0.491
164.000	169.278	79.996	19.996	100.154	20.208	3.029	0.484
164.500	169.539	79.995	19.995	100.148	20.205	3.249	0.513
165.000	169.768	79.995	19.995	100.144	20.209	2.905	0.508
165.500	170.027	79.997	19.995	100.138	20.204	3.344	0.489
166.000	170.274	79.997	19.996	100.131	20.207	3.069	0.497
166.500	170.553	79.994	19.995	100.125	20.206	3.182	0.516
166.999	170.758	79.994	19.996	100.125	20.205	3.235	0.505
167.499	171.027	79.996	19.995	100.128	20.205	3.222	0.479
167.999	171.283	79.996	19.995	100.129	20.205	3.245	0.500
168.499	171.504	79.997	19.996	100.130	20.206	3.153	0.501
169.000	171.786	79.995	19.995	100.132	20.205	3.243	0.490
169.500	172.023	79.996	19.995	100.137	20.204	3.276	0.511
169.999	172.287	79.996	19.994	100.136	20.203	3.425	0.509
170.499	172.525	79.996	19.995	100.135	20.204	3.276	0.501
170.999	172.771	79.996	19.996	100.135	20.205	3.253	0.493
171.499	172.989	79.996	19.996	100.134	20.204	3.327	0.474
171.999	173.253	79.995	19.996	100.128	20.205	3.209	0.473
172.500	173.494	79.997	19.995	100.125	20.206	3.140	0.494
173.000	173.747	79.996	19.995	100.123	20.203	3.367	0.499
173.500	174.023	79.996	19.994	100.122	20.207	3.107	0.512
173.999	174.263	79.996	19.994	100.121	20.204	3.291	0.523
174.499	174.524	79.994	19.995	100.122	20.208	2.975	0.508
174.999	174.709	79.996	19.994	100.123	20.207	3.102	0.474
175.500	174.994	79.995	19.994	100.127	20.204	3.346	0.458
176.000	175.202	79.997	19.994	100.131	20.208	2.974	0.481
176.500	175.457	79.995	19.995	100.133	20.204	3.308	0.478
177.001	175.725	79.996	19.996	100.135	20.204	3.331	0.493
177.500	175.949	79.996	19.995	100.134	20.204	3.277	0.507
177.999	176.212	79.995	19.995	100.133	20.205	3.237	0.490
178.500	176.440	79.995	19.994	100.131	20.206	3.169	0.490
179.000	176.712	79.995	19.995	100.130	20.204	3.320	0.496
179.500	176.964	79.996	19.995	100.132	20.209	2.916	0.512
180.000	177.191	79.996	19.995	100.131	20.206	3.144	0.501
180.500	177.411	79.995	19.995	100.127	20.207	3.062	0.463
180.999	177.647	79.994	19.995	100.126	20.202	3.434	0.451
181.499	177.919	79.994	19.995	100.125	20.207	3.056	0.482
181.999	178.175	79.995	19.995	100.122	20.209	2.951	0.518
182.499	178.407	79.996	19.995	100.123	20.203	3.356	0.508
183.000	178.664	79.995	19.996	100.125	20.206	3.171	0.489
183.500	178.894	79.996	19.996	100.129	20.206	3.161	0.488
184.000	179.139	79.995	19.995	100.129	20.207	3.092	0.481
184.500	179.370	79.996	19.995	100.132	20.207	3.113	0.475
185.000	179.651	79.995	19.994	100.135	20.210	2.874	0.494
185.501	179.860	79.995	19.995	100.133	20.207	3.113	0.501
186.000	180.125	79.997	19.995	100.131	20.210	2.846	0.482
186.499	180.366	79.994	19.995	100.130	20.203	3.377	0.490
186.999	180.599	79.996	19.995	100.129	20.205	3.224	0.490
187.499	180.857	79.994	19.995	100.130	20.205	3.211	0.482
187.999	181.084	79.994	19.995	100.131	20.207	3.107	0.488
188.499	181.334	79.995	19.995	100.129	20.203	3.365	0.481
188.999	181.565	79.996	19.995	100.129	20.203	3.356	0.479
189.499	181.807	79.996	19.995	100.128	20.205	3.199	0.477
189.999	182.058	79.996	19.995	100.125	20.205	3.266	0.483
190.499	182.311	79.997	19.995	100.125	20.202	3.471	0.498
191.000	182.546	79.996	19.995	100.126	20.207	3.056	0.496
191.500	182.828	79.995	19.996	100.126	20.207	3.071	0.503
191.999	183.010	79.997	19.995	100.126	20.209	2.959	0.491
192.500	183.278	79.997	19.996	100.125	20.205	3.217	0.457
193.000	183.532	79.996	19.995	100.124	20.206	3.169	0.486
193.499	183.738	79.996	19.996	100.122	20.205	3.272	0.491
193.999	184.008	79.998	19.996	100.123	20.205	3.266	0.468
194.499	184.250	79.995	19.995	100.127	20.207	3.100	0.494
194.999	184.506	79.996	19.995	100.128	20.206	3.174	0.505
195.499	184.740	79.996	19.995	100.127	20.205	3.268	0.494
196.000	184.992	79.996	19.995	100.127	20.203	3.379	0.488
196.500	185.251	79.996	19.995	100.126	20.206	3.130	0.499
196.999	185.512	79.997	19.995	100.121	20.208	2.978	0.515
197.499	185.748	79.996	19.995	100.121	20.203	3.392	0.508
197.999	185.987	79.997	19.995	100.123	20.207	3.058	0.487
198.499	186.234	79.997	19.995	100.126	20.208	2.974	0.481
199.000	186.445	79.996	19.995	100.129	20.209	2.911	0.472
199.500	186.704	79.995	19.995	100.129	20.208	2.997	0.464
199.999	186.960	79.998	19.996	100.128	20.208	2.970	0.493
200.499	187.215	79.996	19.995	100.126	20.207	3.075	0.513
201.000	187.456	79.997	19.996	100.123	20.206	3.188	0.504
201.500	187.683	79.997	19.996	100.120	20.203	3.375	0.482
202.000	187.935	79.997	19.997	100.121	20.205	3.243	0.473
202.500	188.185	79.997	19.995	100.120	20.206	3.134	0.491
203.000	188.388	79.998	19.995	100.119	20.203	3.358	0.478
203.500	188.645	79.997	19.996	100.118	20.207	3.106	0.457
204.000	188.875	79.996	19.995	100.120	20.209	2.947	0.473
204.500	189.141	79.996	19.995	100.123	20.210	2.855	0.491
205.000	189.361	79.997	19.996	100.126	20.208	3.029	0.491
205.500	189.646	79.997	19.995	100.133	20.206	3.127	0.495
206.000	189.903	79.996	19.996	100.137	20.207	3.083	0.523
206.500	190.113	79.996	19.996	100.135	20.206	3.167	0.505
206.999	190.352	79.997	19.995	100.132	20.205	3.209	0.458
207.499	190.567	79.996	19.995	100.129	20.203	3.358	0.451
207.999	190.835	79.997	19.995	100.123	20.204	3.285	0.468
208.499	191.099	79.996	19.996	100.120	20.205	3.209	0.508
208.999	191.316	79.996	19.995	100.120	20.207	3.108	0.506
209.499	191.571	79.996	19.995	100.119	20.207	3.054	0.476
209.999	191.827	79.996	19.995	100.118	20.206	3.150	0.491
210.500	192.089	79.998	19.994	100.118	20.206	3.186	0.514
211.000	192.317	79.997	19.995	100.118	20.205	3.213	0.504
211.499	192.553	79.995	19.995	100.118	20.201	3.526	0.478
211.999	192.798	79.997	19.995	100.119	20.207	3.064	0.472
212.499	193.068	79.997	19.995	100.123	20.204	3.289	0.498
212.999	193.321	79.997	19.995	100.124	20.206	3.148	0.520
213.500	193.572	79.998	19.995	100.124	20.209	2.958	0.514
214.000	193.796	79.998	19.995	100.123	20.208	2.972	0.489
214.499	194.046	79.997	19.995	100.123	20.208	2.985	0.474
214.999	194.271	79.998	19.996	100.119	20.208	2.978	0.474
215.499	194.537	79.998	19.996	100.117	20.206	3.123	0.483
215.999	194.740	79.995	19.995	100.117	20.206	3.142	0.480
216.499	195.008	79.998	19.995	100.117	20.205	3.197	0.470
216.999	195.226	79.997	19.995	100.116	20.207	3.113	0.478
217.499	195.471	79.997	19.995	100.116	20.205	3.266	0.475
217.999	195.739	79.997	19.995	100.117	20.206	3.176	0.488
218.499	196.004	79.996	19.996	100.116	20.204	3.283	0.523
218.999	196.280	79.997	19.994	100.119	20.202	3.482	0.537
219.500	196.477	79.998	19.996	100.119	20.208	2.978	0.507
220.000	196.737	79.997	19.995	100.118	20.206	3.190	0.465
220.499	196.990	79.997	19.996	100.118	20.208	3.033	0.485
220.999	197.195	79.996	19.996	100.118	20.203	3.367	0.485
221.500	197.460	79.997	19.996	100.114	20.203	3.379	0.464
222.000	197.724	79.997	19.996	100.113	20.207	3.069	0.500
222.500	197.952	79.997	19.996	100.114	20.207	3.058	0.511
223.000	198.194	79.996	19.996	100.120	20.207	3.088	0.481
223.500	198.422	79.996	19.997	100.122	20.207	3.092	0.469
224.000	198.680	79.997	19.996	100.124	20.204	3.295	0.478
224.499	198.930	79.998	19.996	100.126	20.209	2.964	0.497
224.999	199.178	79.996	19.996	100.126	20.205	3.203	0.503
225.500	199.424	79.995	19.996	100.120	20.208	2.972	0.496
226.000	199.652	79.994	19.996	100.118	20.206	3.195	0.484
226.500	199.898	79.997	19.996	100.118	20.206	3.159	0.474
227.000	200.129	79.994	19.996	100.117	20.210	2.869	0.475
227.499	200.378	79.995	19.996	100.124	20.208	3.004	0.479
227.999	200.657	79.995	19.995	100.129	20.211	2.750	0.504
228.499	200.917	79.996	19.996	100.130	20.213	2.628	0.534
228.999	201.149	79.995	19.996	100.131	20.209	2.911	0.516
229.500	201.372	79.996	19.995	100.130	20.208	3.029	0.473
230.000	201.639	79.995	19.996	100.123	20.210	2.823	0.472
230.500	201.867	79.996	19.995	100.122	20.208	3.040	0.492
231.000	202.122	79.995	19.994	100.125	20.206	3.184	0.489
231.500	202.393	79.995	19.995	100.127	20.208	3.025	0.505
232.000	202.599	79.995	19.995	100.128	20.209	2.930	0.501
232.499	202.897	79.994	19.995	100.128	20.208	3.035	0.490
232.999	203.149	79.993	19.994	100.127	20.211	2.781	0.527
233.499	203.368	79.995	19.995	100.124	20.206	3.186	0.511
233.999	203.615	79.996	19.995	100.122	20.208	3.037	0.469
234.499	203.853	79.995	19.995	100.124	20.207	3.104	0.476
235.000	204.057	79.994	19.995	100.127	20.204	3.304	0.463
235.500	204.348	79.996	19.995	100.127	20.209	2.901	0.468
235.999	204.585	79.996	19.996	100.129	20.208	3.018	0.512
236.500	204.875	79.995	19.994	100.130	20.207	3.065	0.528
237.000	205.087	79.996	19.995	100.128	20.207	3.115	0.514
237.499	205.352	79.996	19.995	100.127	20.206	3.188	0.489
237.999	205.580	79.997	19.995	100.125	20.203	3.375	0.485
238.500	205.862	79.995	19.995	100.122	20.205	3.249	0.502
239.000	206.075	79.995	19.994	100.121	20.205	3.247	0.503
239.499	206.353	79.996	19.995	100.121	20.206	3.190	0.493
239.999	206.577	79.997	19.995	100.122	20.206	3.186	0.496
240.500	206.822	79.996	19.995	100.127	20.202	3.436	0.485
241.000	207.068	79.996	19.995	100.130	20.208	3.006	0.480
241.499	207.356	79.995	19.995	100.131	20.203	3.379	0.512
241.999	207.620	79.995	19.995	100.133	20.204	3.327	0.543
242.499	207.843	79.996	19.995	100.132	20.207	3.117	0.519
242.999	208.087	79.996	19.995	100.128	20.204	3.302	0.477
243.500	208.350	79.996	19.995	100.126	20.204	3.329	0.487
244.000	208.575	79.997	19.995	100.125	20.203	3.403	0.498
244.500	208.774	79.995	19.994	100.124	20.205	3.245	0.456
245.000	209.063	79.996	19.994	100.123	20.203	3.357	0.456
245.500	209.304	79.996	19.995	100.122	20.204	3.283	0.509
246.000	209.565	79.994	19.995	100.123	20.206	3.174	0.516
246.499	209.812	79.995	19.994	100.125	20.207	3.102	0.505
246.999	210.103	79.995	19.995	100.125	20.204	3.276	0.523
247.500	210.340	79.994	19.995	100.125	20.203	3.392	0.533
248.000	210.546	79.996	19.995	100.126	20.203	3.375	0.485
248.499	210.779	79.994	19.995	100.127	20.204	3.331	0.441
248.999	211.067	79.996	19.994	100.126	20.203	3.396	0.480
249.499	211.289	79.995	19.995	100.124	20.205	3.255	0.516
250.000	211.547	79.996	19.995	100.124	20.204	3.289	0.495
250.500	211.794	79.994	19.995	100.123	20.205	3.266	0.492
250.999	212.016	79.995	19.995	100.122	20.204	3.312	0.487
251.499	212.281	79.996	19.995	100.128	20.204	3.293	0.478
251.999	212.498	79.994	19.994	100.129	20.202	3.461	0.484
252.499	212.781	79.995	19.995	100.131	20.203	3.377	0.491
253.000	212.982	79.996	19.995	100.132	20.204	3.295	0.492
253.500	213.264	79.996	19.995	100.134	20.202	3.469	0.484
253.999	213.530	79.995	19.995	100.135	20.205	3.220	0.515
254.500	213.792	79.994	19.994	100.141	20.203	3.392	0.538
255.000	214.037	79.995	19.994	100.140	20.200	3.625	0.518
255.499	214.279	79.996	19.995	100.140	20.203	3.354	0.497
255.999	214.540	79.995	19.994	100.138	20.202	3.440	0.495
256.500	214.800	79.994	19.995	100.132	20.204	3.339	0.512
257.000	215.016	79.995	19.994	100.125	20.205	3.251	0.499
257.499	215.276	79.995	19.995	100.125	20.207	3.071	0.476
257.999	215.492	79.995	19.994	100.125	20.205	3.205	0.476
258.500	215.739	79.996	19.994	100.125	20.202	3.496	0.470
259.000	215.978	79.994	19.995	100.123	20.204	3.345	0.475
259.499	216.256	79.995	19.994	100.122	20.205	3.224	0.501
259.999	216.527	79.994	19.995	100.122	20.203	3.373	0.533
260.500	216.778	79.995	19.995	100.122	20.204	3.318	0.535
261.000	217.048	79.996	19.995	100.122	20.203	3.377	0.521
261.500	217.301	79.995	19.995	100.122	20.203	3.392	0.522
261.999	217.503	79.996	19.994	100.123	20.203	3.375	0.490
262.499	217.765	79.998	19.995	100.123	20.204	3.306	0.459
262.999	218.028	79.996	19.995	100.123	20.200	3.643	0.494
263.499	218.274	79.996	19.996	100.123	20.203	3.354	0.517
263.999	218.509	79.997	19.996	100.123	20.202	3.478	0.495
264.500	218.782	79.997	19.995	100.127	20.203	3.421	0.494
265.000	219.032	79.996	19.995	100.127	20.201	3.526	0.516
265.499	219.250	79.997	19.995	100.127	20.202	3.457	0.496
265.999	219.491	79.997	19.995	100.128	20.203	3.408	0.464
266.499	219.757	79.996	19.995	100.127	20.204	3.335	0.483
266.999	220.008	79.997	19.996	100.123	20.201	3.543	0.512
267.499	220.269	79.997	19.995	100.122	20.204	3.289	0.515
268.000	220.479	79.997	19.995	100.122	20.201	3.553	0.491
268.500	220.714	79.997	19.994	100.122	20.203	3.417	0.458
268.999	220.977	79.997	19.996	100.121	20.202	3.433	0.471
269.500	221.223	79.998	19.995	100.121	20.198	3.780	0.503
270.000	221.501	79.997	19.995	100.120	20.198	3.754	0.517
270.499	221.776	79.998	19.995	100.120	20.198	3.782	0.538
270.999	222.031	80.000	19.994	100.118	20.199	3.681	0.541
271.499	222.251	79.997	19.995	100.119	20.198	3.767	0.503
272.000	222.527	79.998	19.995	100.119	20.202	3.442	0.486
272.500	222.761	79.997	19.995	100.118	20.198	3.752	0.503
272.999	222.995	79.998	19.995	100.119	20.197	3.876	0.489
273.499	223.252	79.997	19.995	100.119	20.194	4.086	0.479
273.999	223.485	79.997	19.995	100.120	20.199	3.666	0.491
274.499	223.716	79.997	19.995	100.120	20.196	3.960	0.477
274.999	223.954	79.997	19.994	100.120	20.196	3.945	0.467
275.500	224.222	79.997	19.996	100.122	20.198	3.733	0.488
276.000	224.491	79.998	19.996	100.125	20.193	4.121	0.521
276.499	224.720	79.997	19.996	100.124	20.194	4.100	0.517
276.999	224.953	79.997	19.996	100.124	20.198	3.733	0.480
277.500	225.216	79.996	19.995	100.124	20.194	4.100	0.479
278.000	225.455	79.996	19.995	100.121	20.196	3.951	0.499
278.499	225.697	79.996	19.996	100.119	20.195	4.002	0.492
278.999	225.986	79.997	19.995	100.118	20.197	3.844	0.506
279.500	226.225	79.998	19.995	100.118	20.194	4.052	0.530
280.000	226.474	79.997	19.997	100.118	20.194	4.061	0.508
280.500	226.718	79.997	19.996	100.118	20.195	4.010	0.490
281.000	226.941	79.996	19.996	100.118	20.195	4.023	0.480
281.499	227.162	79.995	19.996	100.117	20.195	4.019	0.456
281.999	227.456	79.996	19.996	100.118	20.195	4.037	0.480
282.500	227.660	79.997	19.996	100.119	20.193	4.130	0.507
283.000	227.918	79.996	19.995	100.121	20.196	3.945	0.479
283.500	228.179	79.996	19.996	100.122	20.192	4.195	0.490
284.000	228.445	79.997	19.996	100.122	20.194	4.103	0.523
284.499	228.689	79.996	19.997	100.122	20.193	4.172	0.519
285.000	228.924	79.999	19.996	100.121	20.195	4.017	0.495
285.500	229.197	79.996	19.996	100.117	20.195	4.023	0.493
285.999	229.413	79.998	19.996	100.117	20.191	4.340	0.499
286.499	229.683	79.996	19.995	100.117	20.192	4.266	0.488
286.999	229.865	79.998	19.995	100.117	20.192	4.258	0.469
287.499	230.167	79.997	19.996	100.117	20.192	4.258	0.468
287.999	230.421	79.998	19.996	100.118	20.192	4.254	0.520
288.499	230.666	79.998	19.995	100.117	20.193	4.182	0.527
288.999	230.903	79.997	19.995	100.117	20.193	4.172	0.490
289.499	231.126	79.997	19.995	100.117	20.193	4.142	0.471
289.999	231.368	79.998	19.997	100.117	20.191	4.298	0.463
290.499	231.639	79.999	19.996	100.117	20.191	4.329	0.489
290.999	231.883	79.998	19.996	100.117	20.191	4.342	0.514
291.500	232.097	79.998	19.995	100.118	20.190	4.411	0.487
292.000	232.373	79.999	19.995	100.118	20.191	4.289	0.474
292.499	232.593	79.999	19.996	100.118	20.193	4.185	0.493
292.999	232.853	79.999	19.996	100.118	20.188	4.506	0.488
293.500	233.096	79.999	19.996	100.117	20.188	4.558	0.491
294.000	233.335	79.998	19.995	100.117	20.190	4.407	0.492
294.500	233.601	79.998	19.996	100.117	20.191	4.319	0.493
295.000	233.832	79.998	19.996	100.118	20.189	4.480	0.501
295.499	234.073	79.998	19.995	100.120	20.191	4.279	0.485
295.999	234.315	79.998	19.995	100.121	20.187	4.648	0.478
296.499	234.553	79.998	19.995	100.122	20.191	4.329	0.482
296.999	234.778	79.999	19.995	100.123	20.188	4.520	0.471
297.500	235.038	79.999	19.996	100.123	20.186	4.720	0.474
298.000	235.268	79.998	19.995	100.122	20.189	4.483	0.488
298.499	235.557	79.997	19.995	100.121	20.185	4.730	0.505
298.999	235.802	79.998	19.995	100.121	20.184	4.818	0.526
299.499	236.003	79.998	19.996	100.121	20.185	4.776	0.490
300.000	236.259	79.998	19.996	100.121	20.184	4.860	0.452
300.500	236.498	79.998	19.996	100.120	20.185	4.736	0.476
300.999	236.723	79.997	19.996	100.120	20.185	4.738	0.479
301.499	236.977	79.996	19.995	100.119	20.184	4.843	0.471
301.999	237.220	79.996	19.995	100.119	20.184	4.818	0.488
302.499	237.501	79.995	19.996	100.119	20.185	4.803	0.510
302.999	237.746	79.996	19.996	100.125	20.181	5.103	0.525
303.500	237.949	79.997	19.996	100.129	20.184	4.831	0.487
304.000	238.225	79.995	19.996	100.130	20.179	5.190	0.464
304.499	238.419	79.996	19.997	100.131	20.183	4.940	0.475
304.999	238.696	79.995	19.996	100.132	20.182	5.006	0.470
305.499	238.931	79.997	19.996	100.127	20.183	4.923	0.491
305.999	239.180	79.996	19.996	100.123	20.182	4.959	0.498
306.500	239.415	79.994	19.996	100.125	20.180	5.146	0.484
307.000	239.667	79.994	19.996	100.125	20.181	5.099	0.486
307.500	239.898	79.994	19.996	100.127	20.180	5.116	0.485
307.999	240.143	79.994	19.996	100.129	20.180	5.177	0.479
308.500	240.371	79.994	19.996	100.129	20.177	5.353	0.474
309.000	240.595	79.993	19.996	100.127	20.177	5.356	0.463
309.500	240.885	79.994	19.997	100.128	20.179	5.213	0.483
310.000	241.101	79.994	19.997	100.127	20.177	5.368	0.510
310.500	241.372	79.994	19.996	100.125	20.180	5.134	0.496
311.000	241.563	79.994	19.996	100.125	20.176	5.421	0.475
311.500	241.839	79.994	19.996	100.125	20.178	5.312	0.464
312.000	242.052	79.994	19.996	100.123	20.179	5.253	0.478
312.499	242.344	79.994	19.995	100.122	20.177	5.392	0.497
312.999	242.576	79.994	19.996	100.122	20.172	5.757	0.515
313.499	242.856	79.994	19.997	100.123	20.173	5.654	0.519
313.999	243.059	79.994	19.996	100.128	20.173	5.723	0.498
314.500	243.299	79.994	19.996	100.132	20.172	5.782	0.463
315.000	243.526	79.993	19.996	100.133	20.174	5.589	0.455
315.499	243.792	79.995	19.994	100.137	20.175	5.555	0.480
315.999	244.028	79.995	19.996	100.141	20.176	5.442	0.497
316.500	244.306	79.994	19.995	100.135	20.177	5.366	0.508
317.000	244.537	79.995	19.995	100.132	20.174	5.618	0.512
317.500	244.786	79.995	19.995	100.130	20.173	5.694	0.494
318.000	245.030	79.996	19.995	100.128	20.171	5.830	0.486
318.500	245.287	79.995	19.995	100.125	20.171	5.803	0.497
319.000	245.516	79.995	19.995	100.126	20.170	5.945	0.494
319.500	245.764	79.996	19.995	100.130	20.172	5.769	0.482
320.000	246.010	79.995	19.995	100.136	20.171	5.815	0.485
320.500	246.271	79.995	19.995	100.139	20.171	5.857	0.501
321.000	246.481	79.996	19.996	100.141	20.171	5.870	0.489
321.499	246.725	79.995	19.995	100.146	20.172	5.761	0.462
321.999	246.990	79.997	19.995	100.147	20.167	6.107	0.481
322.499	247.214	79.997	19.995	100.145	20.170	5.912	0.499
322.999	247.460	79.996	19.995	100.144	20.169	5.969	0.480
323.500	247.694	79.996	19.996	100.146	20.165	6.267	0.475
324.000	247.951	79.995	19.995	100.146	20.167	6.160	0.485
324.499	248.191	79.996	19.995	100.145	20.167	6.171	0.494
324.999	248.417	79.996	19.995	100.143	20.170	5.950	0.482
325.499	248.645	79.997	19.994	100.143	20.163	6.462	0.460
325.999	248.950	79.997	19.996	100.142	20.166	6.202	0.493
326.499	249.189	79.996	19.996	100.141	20.163	6.418	0.538
326.999	249.432	79.996	19.995	100.138	20.166	6.244	0.513
327.499	249.657	79.995	19.995	100.142	20.166	6.242	0.475
327.999	249.930	79.997	19.995	100.144	20.161	6.571	0.483
328.499	250.182	79.996	19.995	100.143	20.166	6.243	0.511
328.999	250.396	79.996	19.996	100.143	20.165	6.279	0.495
329.499	250.686	79.996	19.996	100.145	20.162	6.542	0.485
329.999	250.938	79.996	19.995	100.139	20.162	6.546	0.523
330.499	251.201	79.995	19.994	100.137	20.164	6.380	0.529
330.999	251.433	79.996	19.996	100.140	20.157	6.894	0.506
331.499	251.680	79.995	19.995	100.140	20.160	6.664	0.487
331.999	251.926	79.996	19.996	100.139	20.159	6.773	0.485
332.499	252.194	79.995	19.995	100.143	20.159	6.747	0.503
332.999	252.445	79.996	19.996	100.141	20.157	6.919	0.517
333.499	252.682	79.994	19.996	100.142	20.159	6.768	0.504
333.999	252.903	79.996	19.996	100.143	20.156	6.999	0.473
334.499	253.167	79.996	19.996	100.147	20.158	6.840	0.471
334.999	253.397	79.995	19.996	100.148	20.152	7.270	0.489
335.500	253.656	79.995	19.996	100.151	20.152	7.302	0.492
336.000	253.875	79.995	19.996	100.152	20.152	7.283	0.483
336.500	254.117	79.996	19.996	100.152	20.155	7.068	0.470
337.000	254.410	79.995	19.995	100.152	20.152	7.327	0.498
337.500	254.644	79.994	19.995	100.151	20.149	7.546	0.531
338.000	254.857	79.995	19.996	100.149	20.152	7.322	0.486
338.500	255.137	79.995	19.995	100.147	20.150	7.444	0.470
338.999	255.410	79.994	19.996	100.143	20.150	7.477	0.523
339.499	255.643	79.996	19.995	100.144	20.152	7.322	0.530
339.999	255.881	79.994	19.995	100.146	20.150	7.465	0.489
340.499	256.122	79.994	19.996	100.147	20.150	7.475	0.475
341.000	256.391	79.996	19.996	100.148	20.148	7.603	0.495
341.500	256.644	79.996	19.996	100.153	20.146	7.719	0.516
341.999	256.894	79.995	19.996	100.153	20.152	7.293	0.512
342.499	257.129	79.996	19.996	100.154	20.149	7.555	0.493
343.000	257.356	79.996	19.996	100.153	20.147	7.654	0.473
343.500	257.641	79.997	19.995	100.150	20.146	7.721	0.487
344.000	257.899	79.996	19.996	100.149	20.146	7.732	0.528
344.500	258.134	79.997	19.996	100.149	20.147	7.713	0.518
344.999	258.387	79.997	19.995	100.149	20.144	7.927	0.490
345.499	258.618	79.996	19.995	100.151	20.141	8.147	0.485
346.000	258.862	79.998	19.995	100.155	20.142	8.089	0.480
346.500	259.146	79.998	19.996	100.154	20.136	8.508	0.502
346.999	259.374	79.997	19.995	100.152	20.142	8.064	0.520
347.499	259.628	79.997	19.995	100.150	20.143	7.973	0.497
347.999	259.871	79.997	19.995	100.152	20.142	8.066	0.490
348.499	260.106	79.997	19.995	100.147	20.139	8.257	0.487
348.999	260.329	79.997	19.995	100.143	20.140	8.215	0.468
349.499	260.574	79.997	19.996	100.144	20.141	8.156	0.463
350.000	260.818	79.998	19.995	100.143	20.143	7.974	0.479
350.500	261.091	79.997	19.996	100.144	20.140	8.232	0.503
350.999	261.385	79.997	19.995	100.145	20.138	8.387	0.542
351.500	261.588	79.999	19.994	100.147	20.134	8.641	0.532
352.000	261.830	79.996	19.996	100.147	20.139	8.311	0.471
352.500	262.067	79.997	19.995	100.150	20.132	8.790	0.462
353.000	262.325	79.998	19.995	100.150	20.134	8.704	0.487
353.499	262.595	79.996	19.994	100.154	20.130	8.951	0.511
353.999	262.843	79.996	19.994	100.157	20.129	9.050	0.523
354.499	263.124	79.996	19.995	100.157	20.129	9.050	0.524
354.999	263.363	79.996	19.995	100.158	20.129	9.058	0.525
355.499	263.620	79.997	19.994	100.158	20.128	9.161	0.508
355.999	263.872	79.995	19.995	100.158	20.127	9.231	0.502
356.499	264.085	79.997	19.995	100.157	20.127	9.222	0.487
357.000	264.340	79.996	19.995	100.157	20.128	9.155	0.466
357.500	264.617	79.997	19.995	100.158	20.129	9.032	0.500
357.999	264.867	79.996	19.995	100.159	20.132	8.849	0.530
358.499	265.070	79.996	19.995	100.158	20.130	9.007	0.490
359.000	265.322	79.997	19.996	100.160	20.125	9.376	0.454
359.500	265.613	79.996	19.994	100.161	20.123	9.510	0.499
359.999	265.833	79.995	19.996	100.161	20.126	9.304	0.527
360.499	266.070	79.995	19.995	100.161	20.120	9.762	0.485
360.999	266.358	79.995	19.995	100.161	20.120	9.741	0.491
361.499	266.591	79.995	19.995	100.161	20.119	9.823	0.523
362.000	266.847	79.996	19.995	100.160	20.120	9.739	0.505
362.500	267.107	79.996	19.995	100.160	20.118	9.933	0.502
362.999	267.355	79.996	19.995	100.158	20.120	9.750	0.512
363.499	267.605	79.995	19.996	100.158	20.119	9.796	0.503
363.999	267.865	79.996	19.995	100.158	20.117	10.006	0.504
364.499	268.099	79.997	19.996	100.159	20.117	9.987	0.502
364.999	268.335	79.996	19.997	100.159	20.112	10.351	0.482
365.499	268.621	79.996	19.995	100.161	20.112	10.370	0.496
365.999	268.837	79.995	19.996	100.162	20.109	10.582	0.512
366.499	269.088	79.996	19.996	100.163	20.111	10.448	0.485
367.000	269.332	79.996	19.996	100.162	20.112	10.398	0.481
367.500	269.595	79.997	19.994	100.165	20.108	10.681	0.501
367.999	269.834	79.996	19.995	100.167	20.111	10.443	0.504
368.499	270.122	79.997	19.996	100.168	20.109	10.581	0.515
368.999	270.353	79.996	19.995	100.168	20.108	10.687	0.523
369.499	270.607	79.998	19.997	100.170	20.106	10.794	0.502
369.999	270.864	79.997	19.995	100.167	20.106	10.815	0.498
370.499	271.148	79.998	19.996	100.165	20.104	11.010	0.526
370.999	271.418	79.998	19.995	100.164	20.108	10.687	0.547
371.499	271.657	79.997	19.995	100.166	20.103	11.050	0.532
372.000	271.928	79.999	19.996	100.167	20.102	11.103	0.510
372.500	272.202	79.998	19.995	100.169	20.100	11.310	0.527
373.000	272.421	79.998	19.995	100.172	20.101	11.214	0.519
373.500	272.691	79.997	19.995	100.176	20.099	11.327	0.491
374.000	272.934	79.999	19.995	100.176	20.098	11.456	0.501
374.500	273.199	79.999	19.995	100.176	20.095	11.635	0.511
374.999	273.436	79.996	19.994	100.176	20.094	11.720	0.505
375.499	273.687	79.996	19.995	100.178	20.094	11.758	0.495
375.999	273.899	79.998	19.995	100.179	20.091	12.001	0.475
376.499	274.140	79.998	19.994	100.183	20.089	12.114	0.458
376.999	274.380	79.998	19.994	100.185	20.089	12.124	0.468
377.499	274.640	79.997	19.994	100.189	20.085	12.450	0.491
377.999	274.897	79.998	19.994	100.189	20.086	12.353	0.508
378.500	275.150	79.996	19.995	100.183	20.083	12.576	0.513
379.000	275.438	79.996	19.994	100.177	20.082	12.632	0.526
379.499	275.671	79.996	19.995	100.174	20.081	12.751	0.531
380.000	275.898	79.997	19.994	100.167	20.080	12.780	0.490
380.500	276.169	79.997	19.995	100.164	20.081	12.766	0.479
380.999	276.434	79.996	19.995	100.164	20.078	12.987	0.517
381.499	276.711	79.997	19.995	100.165	20.076	13.144	0.539
382.000	276.923	79.995	19.996	100.166	20.073	13.335	0.515
382.500	277.199	79.996	19.995	100.166	20.072	13.411	0.488
382.999	277.436	79.995	19.995	100.165	20.073	13.350	0.501
383.499	277.688	79.995	19.995	100.165	20.071	13.467	0.501
383.999	277.910	79.995	19.996	100.165	20.067	13.780	0.481
384.499	278.190	79.995	19.997	100.168	20.067	13.824	0.488
384.999	278.434	79.995	19.995	100.176	20.069	13.642	0.514
385.499	278.697	79.995	19.996	100.181	20.064	14.005	0.516
386.000	278.951	79.995	19.996	100.187	20.061	14.234	0.512
386.500	279.177	79.994	19.996	100.188	20.062	14.194	0.499
386.999	279.434	79.994	19.996	100.187	20.060	14.320	0.482
387.500	279.665	79.994	19.996	100.185	20.053	14.880	0.486
388.000	279.943	79.994	19.997	100.181	20.055	14.712	0.498
388.499	280.178	79.995	19.996	100.182	20.049	15.191	0.510
389.000	280.408	79.995	19.996	100.182	20.052	14.946	0.489
389.500	280.673	79.995	19.996	100.181	20.046	15.404	0.480
390.000	280.916	79.994	19.996	100.182	20.047	15.371	0.502
390.500	281.169	79.994	19.997	100.188	20.046	15.427	0.502
391.000	281.437	79.993	19.996	100.189	20.044	15.578	0.508
391.500	281.651	79.995	19.996	100.193	20.042	15.704	0.501
391.999	281.927	79.995	19.996	100.197	20.041	15.796	0.486
392.499	282.117	79.994	19.997	100.198	20.041	15.785	0.478
392.999	282.415	79.994	19.997	100.197	20.037	16.146	0.477
393.499	282.665	79.995	19.996	100.197	20.038	16.010	0.518
394.000	282.897	79.994	19.997	100.196	20.035	16.271	0.515
394.500	283.185	79.994	19.997	100.196	20.032	16.460	0.501
395.000	283.429	79.996	19.998	100.196	20.031	16.550	0.526
395.500	283.668	79.995	19.997	100.195	20.028	16.806	0.508
395.999	283.899	79.995	19.997	100.197	20.029	16.728	0.477
396.500	284.152	79.994	19.997	100.198	20.024	17.099	0.477
397.000	284.420	79.996	19.997	100.197	20.022	17.235	0.503
397.500	284.641	79.995	19.997	100.198	20.022	17.246	0.505
397.999	284.892	79.995	19.997	100.199	20.019	17.513	0.480
398.500	285.155	79.996	19.997	100.197	20.015	17.816	0.493
399.000	285.367	79.996	19.997	100.197	20.011	18.095	0.495
399.499	285.618	79.995	19.996	100.197	20.013	17.936	0.469
399.999	285.855	79.994	19.996	100.199	20.007	18.408	0.475
400.499	286.087	79.996	19.996	100.206	20.008	18.319	0.478
401.000	286.347	79.995	19.996	100.211	20.004	18.667	0.481
401.500	286.566	79.994	19.997	100.216	20.001	18.842	0.486
401.999	286.851	79.994	19.995	100.219	20.001	18.863	0.491
402.499	287.102	79.996	19.996	100.219	19.999	18.997	0.520
402.999	287.335	79.995	19.996	100.214	19.995	19.334	0.510
403.499	287.587	79.997	19.996	100.211	19.993	19.453	0.484
404.000	287.834	79.995	19.996	100.210	19.993	19.493	0.491
404.500	288.085	79.996	19.996	100.213	19.989	19.770	0.499
404.999	288.298	79.996	19.996	100.218	19.988	19.867	0.481
405.499	288.551	79.996	19.996	100.218	19.989	19.815	0.464
406.000	288.822	79.996	19.995	100.216	19.982	20.319	0.495
406.500	289.073	79.996	19.996	100.215	19.979	20.575	0.523
406.999	289.310	79.996	19.995	100.213	19.978	20.622	0.505
407.499	289.555	79.995	19.996	100.213	19.978	20.630	0.485
407.999	289.814	79.995	19.996	100.217	19.972	21.108	0.493
408.499	290.073	79.996	19.995	100.224	19.973	21.035	0.510
409.000	290.318	79.995	19.996	100.223	19.967	21.513	0.511
409.500	290.529	79.995	19.996	100.218	19.964	21.708	0.480
410.000	290.825	79.995	19.995	100.215	19.961	21.973	0.481
410.500	291.078	79.995	19.996	100.216	19.960	22.024	0.528
410.999	291.308	79.995	19.994	100.216	19.960	21.996	0.517
411.499	291.528	79.994	19.995	100.222	19.958	22.188	0.466
412.000	291.814	79.995	19.996	100.230	19.957	22.282	0.478
412.500	292.063	79.995	19.995	100.234	19.953	22.548	0.521
413.000	292.277	79.996	19.995	100.235	19.949	22.879	0.499
413.500	292.538	79.994	19.996	100.235	19.948	22.939	0.469
413.999	292.768	79.995	19.996	100.236	19.945	23.208	0.483
414.499	293.040	79.996	19.995	100.236	19.939	23.598	0.497
415.000	293.297	79.995	19.995	100.237	19.937	23.768	0.516
415.500	293.511	79.995	19.996	100.237	19.935	23.964	0.500
416.000	293.760	79.996	19.996	100.237	19.933	24.091	0.467
416.499	293.993	79.995	19.996	100.237	19.934	24.056	0.472
417.000	294.255	79.995	19.995	100.238	19.929	24.368	0.488
417.500	294.564	79.995	19.995	100.238	19.925	24.692	0.533
417.999	294.793	79.996	19.995	100.242	19.925	24.700	0.555
418.499	295.033	79.995	19.995	100.242	19.922	24.908	0.504
418.999	295.292	79.995	19.996	100.245	19.920	25.131	0.484
419.499	295.542	79.997	19.995	100.251	19.920	25.112	0.504
419.999	295.750	79.998	19.995	100.253	19.917	25.319	0.484
420.499	295.992	79.994	19.996	100.251	19.911	25.784	0.455
421.000	296.253	79.997	19.996	100.257	19.907	26.057	0.477
421.500	296.481	79.997	19.996	100.258	19.909	25.902	0.496
422.000	296.775	79.996	19.995	100.256	19.905	26.247	0.505
422.500	297.008	79.997	19.995	100.258	19.901	26.556	0.525
422.999	297.260	79.997	19.994	100.265	19.896	26.944	0.506
423.499	297.476	79.997	19.995	100.264	19.895	27.031	0.477
423.999	297.737	79.996	19.994	100.266	19.890	27.424	0.473
424.499	298.006	79.997	19.995	100.266	19.891	27.346	0.504
424.999	298.234	79.999	19.996	100.262	19.885	27.817	0.513
425.499	298.503	79.998	19.995	100.259	19.880	28.149	0.497
425.999	298.773	79.997	19.995	100.261	19.880	28.162	0.518
426.499	299.022	79.999	19.996	100.262	19.876	28.470	0.529
427.000	299.275	79.996	19.995	100.267	19.874	28.607	0.510
427.500	299.495	79.999	19.995	100.272	19.869	28.987	0.488
427.999	299.743	79.997	19.995	100.276	19.870	28.953	0.471
428.499	299.999	79.997	19.996	100.276	19.862	29.561	0.486
429.000	300.218	79.997	19.995	100.277	19.867	29.191	0.489
429.501	300.468	79.997	19.996	100.277	19.862	29.555	0.472
430.000	300.730	79.997	19.995	100.276	19.857	29.906	0.491
430.500	300.988	79.998	19.996	100.275	19.857	29.949	0.516
431.000	301.223	79.997	19.995	100.275	19.854	30.176	0.506
431.500	301.475	79.997	19.995	100.275	19.848	30.644	0.490
432.000	301.746	79.997	19.996	100.275	19.844	30.900	0.505
432.499	301.962	79.997	19.996	100.277	19.840	31.216	0.505
432.999	302.221	79.998	19.995	100.278	19.841	31.176	0.481
433.499	302.481	79.996	19.995	100.278	19.836	31.526	0.497
433.999	302.721	79.996	19.995	100.279	19.834	31.741	0.510
434.499	302.956	79.995	19.995	100.279	19.831	31.965	0.487
434.999	303.214	79.996	19.995	100.280	19.828	32.143	0.484
435.499	303.498	79.998	19.995	100.280	19.823	32.561	0.518
436.000	303.716	79.997	19.996	100.281	19.821	32.739	0.523
436.500	303.970	79.995	19.995	100.281	19.815	33.188	0.487
436.999	304.194	79.997	19.995	100.282	19.817	33.000	0.474
437.500	304.462	79.996	19.995	100.281	19.809	33.619	0.484
438.000	304.669	79.996	19.994	100.281	19.806	33.867	0.483
438.500	304.921	79.997	19.995	100.281	19.803	34.060	0.467
439.000	305.146	79.998	19.995	100.281	19.801	34.228	0.468
439.500	305.391	79.998	19.995	100.282	19.801	34.247	0.474
439.999	305.633	79.996	19.995	100.282	19.793	34.815	0.479
440.499	305.915	79.996	19.996	100.283	19.793	34.859	0.506
440.999	306.160	79.998	19.996	100.291	19.789	35.163	0.526
441.499	306.408	79.996	19.994	100.293	19.788	35.238	0.510
441.999	306.667	79.997	19.995	100.295	19.784	35.558	0.500
442.499	306.877	79.996	19.995	100.301	19.778	36.012	0.488
442.999	307.187	79.998	19.995	100.307	19.771	36.537	0.495
443.499	307.447	79.996	19.996	100.307	19.772	36.468	0.545
443.999	307.675	79.998	19.995	100.315	19.768	36.755	0.529
444.499	307.927	79.999	19.996	100.324	19.765	37.026	0.484
445.000	308.196	79.997	19.995	100.334	19.767	36.850	0.500
445.500	308.433	79.998	19.995	100.342	19.757	37.634	0.513
445.999	308.658	79.997	19.994	100.350	19.755	37.749	0.484
446.499	308.900	79.998	19.995	100.355	19.754	37.830	0.465
446.999	309.149	79.999	19.995	100.358	19.752	37.969	0.479
447.499	309.411	80.000	19.995	100.356	19.745	38.545	0.501
447.999	309.665	79.997	19.995	100.353	19.744	38.577	0.513
448.499	309.941	79.999	19.995	100.350	19.740	38.932	0.523
448.999	310.175	79.999	19.995	100.348	19.734	39.367	0.520
449.499	310.437	79.999	19.994	100.342	19.730	39.711	0.503
449.999	310.662	79.999	19.995	100.335	19.726	39.980	0.491
450.499	310.904	79.998	19.996	100.329	19.724	40.141	0.477
450.999	311.204	79.999	19.995	100.323	19.722	40.310	0.504
451.499	311.408	79.998	19.994	100.317	19.717	40.700	0.523
451.999	311.656	79.998	19.995	100.315	19.716	40.802	0.478
452.499	311.905	79.998	19.996	100.315	19.712	41.049	0.474
452.999	312.192	79.998	19.995	100.315	19.705	41.590	0.516
453.500	312.431	79.999	19.996	100.315	19.701	41.887	0.532
454.000	312.696	79.998	19.995	100.315	19.700	41.970	0.515
454.499	312.945	79.999	19.995	100.314	19.697	42.248	0.509
454.999	313.186	79.997	19.995	100.314	19.690	42.735	0.502
455.499	313.456	79.997	19.996	100.314	19.690	42.742	0.500
455.999	313.700	79.997	19.995	100.314	19.686	43.039	0.512
456.499	313.936	79.996	19.995	100.314	19.683	43.287	0.497
456.999	314.206	79.998	19.995	100.314	19.679	43.602	0.493
457.499	314.437	79.997	19.995	100.316	19.672	44.143	0.503
457.999	314.693	79.998	19.995	100.317	19.674	44.000	0.494
458.499	314.923	79.996	19.995	100.323	19.671	44.250	0.487
458.999	315.200	79.998	19.996	100.331	19.665	44.651	0.497
459.499	315.428	79.996	19.995	100.339	19.660	45.068	0.506
459.999	315.673	79.995	19.995	100.345	19.655	45.474	0.489
460.499	315.889	79.997	19.996	100.353	19.652	45.654	0.467
461.000	316.176	79.997	19.996	100.358	19.652	45.691	0.482
461.500	316.404	79.997	19.995	100.360	19.649	45.917	0.509
461.999	316.668	79.996	19.996	100.363	19.639	46.666	0.504
462.499	316.913	79.996	19.996	100.366	19.639	46.718	0.500
462.999	317.167	79.996	19.995	100.369	19.633	47.134	0.504
463.499	317.429	79.995	19.995	100.367	19.632	47.234	0.508
463.999	317.656	79.997	19.995	100.366	19.626	47.731	0.503
464.499	317.902	79.997	19.996	100.364	19.620	48.162	0.481
464.999	318.186	79.997	19.996	100.361	19.614	48.583	0.501
465.499	318.419	79.995	19.995	100.357	19.612	48.779	0.524
465.999	318.666	79.996	19.996	100.354	19.602	49.552	0.498
466.499	318.911	79.997	19.997	100.353	19.599	49.751	0.486
466.999	319.207	79.997	19.994	100.353	19.596	50.028	0.516
467.499	319.421	79.996	19.995	100.353	19.592	50.327	0.526
468.000	319.710	79.996	19.996	100.353	19.585	50.854	0.507
468.500	319.926	79.996	19.996	100.353	19.580	51.276	0.505
469.000	320.171	79.995	19.994	100.349	19.578	51.388	0.483
469.500	320.432	79.996	19.996	100.345	19.576	51.527	0.483
469.999	320.677	79.997	19.996	100.344	19.570	51.992	0.505
470.499	320.950	79.997	19.996	100.345	19.564	52.444	0.512
470.999	321.191	79.996	19.997	100.346	19.561	52.722	0.516
471.499	321.445	79.995	19.995	100.358	19.558	52.930	0.505
471.999	321.684	79.997	19.995	100.369	19.551	53.483	0.494
472.500	321.932	79.997	19.996	100.377	19.549	53.635	0.490
473.000	322.171	79.998	19.996	100.382	19.545	53.933	0.487
473.499	322.474	79.995	19.995	100.389	19.539	54.360	0.514
473.999	322.701	79.996	19.995	100.393	19.535	54.698	0.536
474.499	322.963	79.996	19.996	100.396	19.532	54.927	0.509
474.999	323.205	79.996	19.996	100.401	19.530	55.122	0.496
475.500	323.463	79.997	19.996	100.405	19.522	55.689	0.502
476.000	323.747	79.997	19.996	100.406	19.517	56.139	0.521
476.499	323.965	79.996	19.996	100.403	19.513	56.431	0.522
476.999	324.219	79.996	19.996	100.401	19.509	56.718	0.487
477.500	324.470	79.998	19.996	100.398	19.507	56.847	0.489
478.000	324.761	79.996	19.997	100.401	19.501	57.286	0.524
478.500	324.952	79.995	19.997	100.406	19.499	57.483	0.512
479.000	325.216	79.996	19.996	100.413	19.494	57.857	0.468
479.500	325.455	79.996	19.996	100.420	19.490	58.167	0.479
480.000	325.714	79.995	19.996	100.421	19.485	58.537	0.500
480.500	325.992	79.995	19.997	100.421	19.480	58.940	0.517
481.000	326.209	79.996	19.997	100.417	19.479	59.019	0.516
481.500	326.444	79.995	19.995	100.412	19.473	59.465	0.474
482.000	326.720	79.996	19.997	100.412	19.468	59.819	0.481
482.499	326.999	79.993	19.995	100.417	19.462	60.267	0.533
482.999	327.221	79.995	19.997	100.420	19.461	60.389	0.528
483.499	327.481	79.995	19.997	100.425	19.454	60.896	0.492
483.999	327.763	79.996	19.996	100.432	19.448	61.390	0.512
484.499	327.994	79.995	19.996	100.436	19.444	61.707	0.527
484.999	328.226	79.995	19.997	100.441	19.440	62.016	0.488
485.500	328.500	79.995	19.997	100.448	19.436	62.291	0.484
486.000	328.735	79.995	19.996	100.454	19.436	62.283	0.507
486.499	328.980	79.995	19.997	100.460	19.428	62.899	0.494
487.000	329.281	79.996	19.997	100.464	19.417	63.766	0.513
487.500	329.527	79.996	19.996	100.462	19.414	63.993	0.546
487.999	329.756	79.995	19.997	100.456	19.411	64.229	0.511
488.500	330.032	79.996	19.997	100.450	19.409	64.394	0.490
489.000	330.291	79.996	19.997	100.442	19.401	65.001	0.520
489.499	330.524	79.994	19.995	100.429	19.395	65.436	0.514
489.999	330.767	79.994	19.995	100.421	19.389	65.948	0.484
490.499	331.039	79.994	19.996	100.414	19.388	65.971	0.496
490.999	331.270	79.996	19.996	100.407	19.381	66.545	0.509
491.500	331.541	79.994	19.996	100.405	19.375	67.016	0.502
492.000	331.786	79.995	19.996	100.407	19.372	67.248	0.509
492.499	332.052	79.995	19.995	100.408	19.368	67.539	0.513
492.999	332.311	79.996	19.994	100.412	19.370	67.395	0.518
493.499	332.529	79.996	19.996	100.416	19.362	67.959	0.501
493.999	332.796	79.996	19.996	100.420	19.360	68.132	0.481
494.500	333.033	79.996	19.996	100.422	19.350	68.885	0.495
495.000	333.323	79.997	19.996	100.422	19.346	69.189	0.516
495.499	333.531	79.996	19.995	100.421	19.345	69.281	0.513
495.999	333.839	79.995	19.995	100.424	19.340	69.636	0.507
496.500	334.091	79.996	19.996	100.426	19.335	70.049	0.538
497.000	334.314	79.996	19.996	100.426	19.334	70.092	0.517
497.499	334.582	79.995	19.996	100.432	19.329	70.544	0.483
497.999	334.849	79.996	19.994	100.436	19.325	70.856	0.513
498.500	335.098	79.996	19.995	100.436	19.320	71.182	0.526
499.000	335.352	79.995	19.995	100.437	19.318	71.365	0.510
499.499	335.618	79.996	19.994	100.441	19.314	71.637	0.511
499.999	335.857	79.998	19.995	100.443	19.310	71.976	0.512
500.499	336.118	79.997	19.995	100.442	19.309	72.036	0.502
500.999	336.361	79.997	19.994	100.442	19.307	72.164	0.502
501.499	336.588	79.997	19.994	100.440	19.300	72.736	0.487
501.999	336.847	79.996	19.994	100.435	19.301	72.659	0.478
502.499	337.106	79.997	19.994	100.433	19.296	73.032	0.502
502.999	337.356	79.997	19.995	100.433	19.292	73.343	0.513
503.499	337.582	79.997	19.995	100.431	19.288	73.612	0.492
503.999	337.891	79.997	19.994	100.432	19.288	73.634	0.505
504.499	338.149	79.997	19.995	100.433	19.286	73.757	0.551
505.000	338.357	79.996	19.994	100.431	19.284	73.979	0.517
505.500	338.623	79.997	19.994	100.429	19.280	74.220	0.470
506.000	338.890	79.997	19.994	100.429	19.276	74.518	0.503
506.499	339.136	79.998	19.995	100.425	19.274	74.703	0.523
506.999	339.406	79.997	19.995	100.418	19.270	75.012	0.515
507.499	339.681	79.997	19.995	100.413	19.266	75.336	0.531
507.999	339.919	79.998	19.995	100.411	19.271	74.951	0.529
508.499	340.168	79.996	19.994	100.413	19.266	75.288	0.500
508.999	340.434	79.996	19.993	100.418	19.266	75.267	0.501
509.499	340.684	79.997	19.995	100.424	19.266	75.327	0.515
509.999	340.965	79.996	19.994	100.426	19.268	75.172	0.523
510.499	341.191	79.998	19.995	100.427	19.267	75.196	0.519
510.999	341.412	79.998	19.995	100.425	19.268	75.134	0.477
511.499	341.695	79.997	19.995	100.423	19.262	75.578	0.475
511.999	341.943	79.996	19.996	100.416	19.263	75.505	0.518
512.499	342.209	79.997	19.995	100.414	19.262	75.601	0.523
512.999	342.473	79.996	19.996	100.408	19.264	75.390	0.522
513.499	342.693	79.998	19.996	100.402	19.263	75.477	0.507
513.999	342.961	79.996	19.995	100.396	19.262	75.557	0.486
514.499	343.222	79.997	19.996	100.394	19.268	75.100	0.509
514.999	343.426	79.997	19.995	100.394	19.265	75.322	0.498
515.499	343.714	79.995	19.995	100.392	19.268	75.102	0.478
515.999	343.957	79.996	19.996	100.383	19.268	75.136	0.511
516.500	344.215	79.998	19.995	100.375	19.270	74.930	0.516
517.000	344.453	79.997	19.994	100.366	19.277	74.396	0.498
517.500	344.688	79.997	19.995	100.360	19.277	74.386	0.484
517.999	344.958	79.997	19.996	100.354	19.281	74.100	0.489
518.500	345.272	79.996	19.995	100.355	19.281	74.070	0.545
519.000	345.503	79.998	19.996	100.355	19.289	73.472	0.565
519.499	345.739	79.997	19.995	100.355	19.290	73.408	0.506
519.999	345.996	79.996	19.995	100.352	19.291	73.290	0.480
520.500	346.242	79.996	19.995	100.346	19.294	73.062	0.497
521.000	346.507	79.997	19.995	100.338	19.301	72.507	0.507
521.499	346.746	79.997	19.995	100.331	19.306	72.083	0.508
521.999	347.018	79.997	19.995	100.319	19.310	71.788	0.508
522.499	347.283	79.998	19.995	100.305	19.317	71.289	0.524
522.999	347.523	79.997	19.994	100.297	19.327	70.452	0.521
523.499	347.750	79.997	19.994	100.293	19.331	70.196	0.486
523.999	348.033	79.998	19.995	100.289	19.339	69.575	0.488
524.500	348.298	79.999	19.995	100.289	19.343	69.309	0.529
525.000	348.536	79.998	19.996	100.293	19.354	68.408	0.525
525.499	348.769	79.997	19.994	100.298	19.362	67.805	0.487
525.999	349.061	79.998	19.995	100.300	19.371	67.107	0.498
526.500	349.303	79.999	19.994	100.298	19.378	66.539	0.529
527.000	349.571	80.000	19.994	100.296	19.384	66.086	0.522
527.499	349.791	79.999	19.993	100.290	19.395	65.264	0.499
527.999	350.113	79.998	19.995	100.283	19.404	64.534	0.515
528.500	350.313	79.999	19.994	100.270	19.415	63.684	0.532
529.000	350.580	79.999	19.995	100.261	19.424	63.001	0.495
529.499	350.841	79.999	19.995	100.252	19.436	62.072	0.497
530.000	351.075	79.999	19.994	100.244	19.446	61.355	0.511
530.500	351.335	80.000	19.994	100.232	19.455	60.649	0.494
531.000	351.621	80.001	19.995	100.222	19.469	59.558	0.520
531.500	351.858	80.001	19.995	100.211	19.477	58.965	0.535
531.999	352.104	80.000	19.995	100.195	19.489	58.065	0.503
532.500	352.364	79.999	19.994	100.181	19.504	56.920	0.494
533.000	352.620	79.999	19.995	100.171	19.515	56.039	0.511
533.500	352.884	79.999	19.994	100.166	19.526	55.209	0.518
534.000	353.124	79.999	19.994	100.163	19.539	54.210	0.512
534.500	353.362	79.999	19.996	100.169	19.549	53.446	0.491
535.000	353.653	79.997	19.995	100.176	19.563	52.342	0.504
535.499	353.888	79.998	19.996	100.179	19.577	51.308	0.528
535.999	354.172	79.998	19.994	100.172	19.588	50.452	0.523
536.499	354.436	79.998	19.995	100.162	19.601	49.475	0.534
536.999	354.674	79.997	19.995	100.148	19.618	48.187	0.525
537.499	354.913	79.998	19.995	100.132	19.627	47.449	0.490
537.999	355.178	79.996	19.994	100.123	19.643	46.272	0.491
538.500	355.451	79.996	19.995	100.123	19.656	45.279	0.521
539.000	355.691	79.996	19.996	100.123	19.669	44.287	0.525
539.500	355.938	79.997	19.996	100.123	19.680	43.400	0.500
540.000	356.195	79.996	19.996	100.120	19.697	42.078	0.495
540.500	356.391	79.996	19.994	100.113	19.709	41.200	0.478
541.000	356.681	79.996	19.995	100.110	19.727	39.831	0.470
541.499	356.923	79.996	19.995	100.105	19.736	39.126	0.509
541.999	357.172	79.994	19.995	100.098	19.745	38.434	0.512
542.499	357.434	79.994	19.997	100.094	19.762	37.110	0.501
542.999	357.694	79.997	19.996	100.090	19.775	36.137	0.517
543.500	357.955	79.995	19.995	100.083	19.789	35.038	0.521
544.000	358.192	79.995	19.996	100.081	19.802	34.092	0.510
544.500	358.432	79.995	19.995	100.081	19.816	33.007	0.487
545.000	358.746	79.995	19.996	100.081	19.827	32.126	0.515
545.500	358.976	79.994	19.996	100.078	19.836	31.455	0.549
546.000	359.195	79.994	19.996	100.077	19.849	30.496	0.496
546.500	359.453	79.996	19.996	100.079	19.857	29.838	0.463
546.999	359.705	79.995	19.996	100.083	19.870	28.893	0.494
547.499	359.937	79.995	19.996	100.083	19.884	27.779	0.497
547.999	360.220	79.995	19.996	100.086	19.893	27.135	0.500
548.499	360.489	79.996	19.996	100.086	19.907	26.032	0.534
548.999	360.739	79.993	19.996	100.084	19.917	25.229	0.535
549.499	360.983	79.995	19.996	100.081	19.927	24.527	0.506
549.999	361.251	79.994	19.996	100.081	19.939	23.545	0.503
550.499	361.516	79.996	19.995	100.081	19.948	22.929	0.523
550.999	361.730	79.994	19.996	100.083	19.954	22.448	0.506
551.500	361.983	79.995	19.995	100.083	19.967	21.470	0.473
552.000	362.229	79.995	19.994	100.079	19.972	21.078	0.483
552.499	362.541	79.994	19.995	100.079	19.977	20.672	0.528
552.999	362.780	79.994	19.995	100.078	19.989	19.735	0.554
553.499	363.002	79.995	19.995	100.075	19.999	18.971	0.506
553.999	363.281	79.996	19.995	100.074	20.005	18.510	0.481
554.500	363.519	79.995	19.994	100.078	20.011	18.072	0.509
555.000	363.790	79.997	19.995	100.078	20.021	17.342	0.513
555.499	364.044	79.994	19.995	100.080	20.030	16.620	0.518
555.999	364.270	79.996	19.996	100.079	20.031	16.512	0.502
556.499	364.502	79.997	19.996	100.071	20.039	15.948	0.468
556.999	364.777	79.996	19.995	100.064	20.044	15.562	0.482
557.500	365.073	79.997	19.995	100.056	20.051	15.053	0.539
558.000	365.311	79.997	19.994	100.049	20.055	14.701	0.552
558.499	365.557	79.996	19.995	100.045	20.063	14.063	0.509
558.999	365.775	79.996	19.995	100.045	20.066	13.869	0.474
559.500	366.052	79.996	19.995	100.040	20.071	13.501	0.480
560.000	366.282	79.995	19.995	100.034	20.073	13.356	0.501
560.500	366.543	79.995	19.995	100.034	20.079	12.868	0.499
561.000	366.798	79.994	19.995	100.037	20.085	12.432	0.504
561.500	367.008	79.995	19.995	100.036	20.091	11.926	0.491
562.000	367.264	79.995	19.996	100.042	20.092	11.877	0.465
562.500	367.491	79.994	19.996	100.055	20.097	11.477	0.474
563.000	367.820	79.995	19.996	100.062	20.099	11.318	0.519
563.499	368.055	79.995	19.995	100.066	20.100	11.239	0.561
563.999	368.316	79.996	19.996	100.078	20.103	11.060	0.530
564.499	368.545	79.995	19.996	100.086	20.109	10.561	0.493
564.999	368.826	79.995	19.995	100.088	20.113	10.311	0.500
565.499	369.061	79.994	19.996	100.088	20.117	9.986	0.513
565.999	369.321	79.995	19.995	100.087	20.116	10.036	0.505
566.500	369.543	79.994	19.996	100.079	20.122	9.615	0.489
567.000	369.812	79.995	19.996	100.077	20.122	9.583	0.487
567.500	370.070	79.995	19.996	100.074	20.120	9.736	0.509
568.000	370.291	79.995	19.997	100.075	20.125	9.330	0.503
568.499	370.547	79.994	19.996	100.073	20.126	9.271	0.478
568.999	370.845	79.996	19.996	100.076	20.129	9.022	0.515
569.499	371.077	79.995	19.997	100.071	20.132	8.829	0.542
569.999	371.317	79.994	19.995	100.064	20.136	8.529	0.501
570.500	371.581	79.994	19.997	100.057	20.136	8.542	0.488
571.000	371.815	79.993	19.995	100.055	20.137	8.453	0.501
571.499	372.094	79.995	19.997	100.054	20.137	8.457	0.505
571.999	372.348	79.994	19.996	100.059	20.139	8.268	0.523
572.499	372.593	79.994	19.996	100.066	20.147	7.704	0.516
572.999	372.817	79.995	19.997	100.079	20.145	7.813	0.484
573.499	373.103	79.994	19.996	100.084	20.145	7.839	0.490
573.999	373.315	79.996	19.997	100.087	20.148	7.583	0.504
574.499	373.605	79.996	19.997	100.088	20.151	7.390	0.500
574.999	373.845	79.995	19.997	100.088	20.148	7.571	0.516
575.499	374.132	79.994	19.996	100.080	20.152	7.302	0.528
575.999	374.346	79.995	19.996	100.079	20.154	7.103	0.514
576.499	374.594	79.996	19.996	100.078	20.156	7.013	0.481
576.999	374.824	79.995	19.997	100.079	20.156	6.990	0.470
577.499	375.116	79.996	19.996	100.079	20.156	6.965	0.500
577.999	375.347	79.996	19.995	100.079	20.159	6.745	0.523
578.499	375.587	79.995	19.996	100.078	20.155	7.076	0.497
578.999	375.876	79.997	19.995	100.079	20.156	6.967	0.500
579.500	376.119	79.995	19.995	100.079	20.157	6.871	0.530
580.000	376.372	79.996	19.995	100.081	20.160	6.682	0.514
580.499	376.637	79.997	19.995	100.082	20.159	6.732	0.507
580.999	376.861	79.997	19.995	100.082	20.160	6.703	0.504
581.500	377.097	79.995	19.995	100.082	20.161	6.566	0.474
582.000	377.352	79.997	19.995	100.076	20.163	6.455	0.476
582.499	377.614	79.996	19.994	100.071	20.160	6.688	0.505
582.999	377.843	79.996	19.995	100.071	20.162	6.547	0.504
583.500	378.113	79.997	19.995	100.072	20.159	6.742	0.494
584.000	378.368	79.997	19.995	100.071	20.161	6.589	0.512
584.499	378.618	79.996	19.995	100.076	20.165	6.287	0.515
584.999	378.845	79.997	19.995	100.079	20.163	6.447	0.491
585.500	379.111	79.997	19.994	100.079	20.165	6.277	0.485
586.000	379.355	79.998	19.994	100.078	20.166	6.237	0.502
586.500	379.620	79.998	19.995	100.078	20.170	5.912	0.510
587.000	379.830	79.998	19.995	100.078	20.168	6.088	0.492
587.499	380.111	79.995	19.994	100.078	20.171	5.835	0.482
587.999	380.358	79.997	19.995	100.078	20.172	5.770	0.510
588.499	380.614	79.997	19.995	100.078	20.172	5.734	0.516
588.999	380.847	79.999	19.995	100.080	20.171	5.818	0.496
589.500	381.081	79.998	19.995	100.082	20.173	5.703	0.478
590.000	381.367	79.998	19.995	100.084	20.171	5.828	0.493
590.499	381.594	79.998	19.996	100.084	20.173	5.652	0.516
590.999	381.830	79.997	19.995	100.085	20.171	5.836	0.488
591.499	382.114	79.998	19.995	100.082	20.170	5.878	0.491
591.999	382.394	79.997	19.995	100.080	20.174	5.591	0.542
592.499	382.589	79.997	19.994	100.078	20.170	5.921	0.519
592.999	382.862	79.998	19.995	100.077	20.178	5.321	0.471
593.499	383.092	79.996	19.995	100.075	20.174	5.602	0.485
593.999	383.351	79.996	19.995	100.074	20.173	5.672	0.496
594.500	383.595	79.997	19.995	100.074	20.170	5.932	0.497
595.000	383.818	79.997	19.995	100.075	20.171	5.814	0.486
595.500	384.075	79.996	19.995	100.076	20.170	5.923	0.474
596.000	384.332	79.997	19.996	100.077	20.174	5.632	0.497
596.500	384.586	79.995	19.995	100.079	20.173	5.658	0.512
596.999	384.811	79.997	19.994	100.079	20.173	5.662	0.495
597.500	385.041	79.996	19.994	100.079	20.174	5.634	0.467
598.000	385.275	79.996	19.995	100.079	20.179	5.242	0.459
598.500	385.526	79.997	19.994	100.079	20.175	5.553	0.475
599.000	385.786	79.997	19.995	100.079	20.174	5.607	0.498
599.500	386.033	79.997	19.995	100.079	20.173	5.700	0.509
600.000	386.293	79.997	19.995	100.079	20.176	5.435	0.507
600.500	386.572	79.998	19.996	100.079	20.173	5.704	0.523
601.000	386.773	79.996	19.995	100.074	20.177	5.389	0.510
601.500	387.061	79.997	19.995	100.071	20.178	5.312	0.484
601.999	387.314	79.998	19.995	100.071	20.176	5.420	0.515
602.499	387.557	79.999	19.995	100.071	20.178	5.330	0.519
602.999	387.848	79.998	19.995	100.071	20.179	5.195	0.515
603.499	388.078	79.998	19.995	100.077	20.177	5.341	0.528
604.000	388.311	79.996	19.994	100.081	20.177	5.367	0.492
604.500	388.546	79.996	19.994	100.081	20.181	5.098	0.465
604.999	388.798	79.997	19.995	100.089	20.178	5.318	0.477
605.499	389.028	80.000	19.994	100.092	20.176	5.461	0.484
606.000	389.269	79.998	19.994	100.090	20.178	5.308	0.476
606.500	389.520	79.997	19.994	100.089	20.180	5.167	0.481
607.000	389.802	79.999	19.995	100.081	20.178	5.266	0.513
607.500	390.021	79.998	19.995	100.066	20.180	5.157	0.517
607.999	390.285	79.998	19.995	100.055	20.184	4.849	0.491
608.499	390.521	79.998	19.995	100.051	20.182	5.017	0.492
609.000	390.762	79.999	19.995	100.048	20.181	5.044	0.489
609.500	391.012	79.998	19.994	100.055	20.180	5.138	0.484
609.999	391.262	79.998	19.994	100.063	20.184	4.853	0.495
610.499	391.522	79.998	19.994	100.075	20.180	5.169	0.505
611.000	391.762	79.999	19.994	100.086	20.183	4.951	0.505
611.500	392.018	79.998	19.994	100.095	20.182	4.998	0.498
611.999	392.265	79.999	19.995	100.102	20.181	5.071	0.500
612.499	392.485	79.998	19.994	100.098	20.184	4.860	0.485
612.999	392.754	79.998	19.995	100.091	20.180	5.175	0.478
613.499	392.979	79.998	19.994	100.084	20.180	5.126	0.491
613.999	393.248	79.999	19.994	100.073	20.182	5.017	0.494
614.499	393.519	79.997	19.994	100.064	20.178	5.334	0.517
614.999	393.798	79.997	19.994	100.069	20.177	5.375	0.545
615.499	394.052	79.998	19.994	100.070	20.180	5.142	0.542
615.999	394.312	79.996	19.995	100.066	20.183	4.943	0.524
616.499	394.570	79.996	19.995	100.067	20.181	5.035	0.516
617.000	394.831	79.996	19.994	100.063	20.185	4.759	0.519
617.500	395.054	79.995	19.995	100.063	20.182	4.988	0.501
618.000	395.329	79.995	19.994	100.065	20.180	5.145	0.491
618.500	395.601	79.996	19.996	100.069	20.183	4.936	0.522
618.999	395.831	79.994	19.995	100.075	20.180	5.118	0.525
619.499	396.083	79.996	19.995	100.081	20.185	4.793	0.492
620.000	396.369	79.995	19.995	100.074	20.182	5.007	0.510
620.500	396.598	79.995	19.996	100.068	20.182	5.012	0.527
621.000	396.864	79.994	19.995	100.062	20.183	4.918	0.505
621.500	397.124	79.995	19.996	100.058	20.183	4.935	0.510
621.999	397.377	79.995	19.996	100.058	20.183	4.939	0.519
622.499	397.596	79.994	19.996	100.065	20.183	4.916	0.493
622.999	397.871	79.994	19.996	100.071	20.185	4.774	0.483
623.499	398.140	79.994	19.995	100.078	20.184	4.862	0.519
623.999	398.371	79.994	19.995	100.082	20.187	4.640	0.522
624.499	398.625	79.995	19.995	100.083	20.184	4.833	0.492
624.999	398.887	79.995	19.995	100.082	20.186	4.707	0.500
625.500	399.151	79.996	19.995	100.076	20.184	4.875	0.521
626.000	399.388	79.994	19.996	100.068	20.188	4.558	0.514
626.499	399.677	79.996	19.996	100.061	20.189	4.481	0.513
627.000	399.877	79.994	19.996	100.057	20.182	4.975	0.507
627.500	400.182	79.994	19.995	100.057	20.183	4.946	0.497
628.000	400.438	79.995	19.996	100.065	20.182	4.970	0.533
628.500	400.662	79.995	19.996	100.077	20.185	4.777	0.520
629.000	400.902	79.994	19.996	100.085	20.185	4.790	0.471
629.500	401.166	79.995	19.996	100.090	20.182	4.989	0.484
629.999	401.450	79.995	19.997	100.090	20.180	5.127	0.527
630.499	401.671	79.995	19.996	100.088	20.183	4.910	0.527
631.000	401.932	79.995	19.997	100.078	20.184	4.824	0.493
631.500	402.202	79.996	19.996	100.070	20.179	5.199	0.506
632.000	402.459	79.996	19.995	100.066	20.178	5.334	0.529
632.500	402.722	79.997	19.995	100.065	20.177	5.353	0.523
633.000	402.927	79.996	19.994	100.065	20.180	5.128	0.494
633.500	403.214	79.994	19.996	100.071	20.182	4.975	0.480
633.999	403.460	79.996	19.995	100.079	20.181	5.107	0.513
634.499	403.753	79.995	19.996	100.084	20.180	5.147	0.536
634.999	403.989	79.997	19.995	100.084	20.187	4.639	0.534
635.499	404.238	79.995	19.995	100.085	20.181	5.082	0.507
635.999	404.487	79.995	19.996	100.084	20.181	5.042	0.492
636.499	404.752	79.996	19.996	100.084	20.178	5.280	0.506
636.999	404.998	79.997	19.995	100.083	20.179	5.247	0.512
637.499	405.252	79.995	19.996	100.082	20.186	4.666	0.505
637.999	405.527	79.997	19.995	100.081	20.181	5.106	0.515
638.499	405.756	79.995	19.995	100.077	20.182	5.028	0.517
638.999	406.000	79.996	19.996	100.069	20.179	5.210	0.488
639.500	406.286	79.997	19.995	100.063	20.181	5.056	0.502
640.000	406.522	79.997	19.995	100.057	20.182	4.981	0.526
640.499	406.785	79.996	19.996	100.057	20.180	5.151	0.510
640.999	407.018	79.995	19.996	100.061	20.181	5.088	0.498
641.499	407.289	79.996	19.995	100.067	20.181	5.105	0.500
642.000	407.560	79.996	19.994	100.071	20.183	4.920	0.523
642.500	407.790	79.996	19.996	100.076	20.183	4.916	0.521
642.999	408.057	79.996	19.995	100.077	20.180	5.123	0.499
643.499	408.295	79.994	19.995	100.080	20.184	4.817	0.501
644.000	408.549	79.994	19.995	100.081	20.178	5.303	0.498
644.500	408.801	79.996	19.995	100.082	20.186	4.689	0.499
644.999	409.071	79.995	19.995	100.077	20.182	5.023	0.514
645.499	409.298	79.996	19.994	100.072	20.184	4.851	0.510
646.000	409.538	79.995	19.995	100.068	20.181	5.040	0.482
646.500	409.812	79.995	19.995	100.072	20.183	4.902	0.491
646.999	410.092	79.996	19.995	100.082	20.182	5.026	0.534
647.499	410.327	79.995	19.996	100.097	20.186	4.669	0.534
648.000	410.579	79.995	19.996	100.107	20.182	4.975	0.501
648.500	410.861	79.994	19.995	100.107	20.182	4.956	0.511
649.000	411.107	79.996	19.996	100.104	20.182	4.974	0.531
649.500	411.347	79.995	19.996	100.091	20.180	5.163	0.507
650.000	411.592	79.995	19.996	100.077	20.179	5.211	0.485
650.500	411.859	79.994	19.997	100.070	20.180	5.139	0.498
651.000	412.103	79.995	19.997	100.070	20.180	5.144	0.512
651.499	412.366	79.995	19.996	100.072	20.179	5.224	0.510
651.999	412.625	79.994	19.997	100.068	20.182	5.029	0.515
652.499	412.838	79.996	19.997	100.066	20.181	5.059	0.497
653.000	413.109	79.996	19.997	100.067	20.180	5.116	0.478
653.500	413.419	79.995	19.996	100.063	20.182	5.011	0.533
654.000	413.656	79.994	19.997	100.055	20.181	5.094	0.563
654.500	413.884	79.995	19.996	100.055	20.182	4.999	0.506
655.000	414.137	79.995	19.996	100.060	20.180	5.169	0.473
655.500	414.364	79.994	19.996	100.061	20.182	4.955	0.481
655.999	414.644	79.995	19.997	100.066	20.181	5.056	0.494
656.499	414.884	79.995	19.997	100.076	20.180	5.161	0.513
657.000	415.186	79.995	19.996	100.084	20.184	4.807	0.531
657.500	415.442	79.995	19.997	100.085	20.184	4.803	0.550
658.000	415.635	79.995	19.996	100.084	20.178	5.281	0.504
658.500	415.928	79.996	19.997	100.080	20.178	5.311	0.467
658.999	416.158	79.997	19.996	100.076	20.180	5.128	0.504
659.499	416.430	79.996	19.996	100.070	20.179	5.208	0.513
659.999	416.684	79.995	19.997	100.062	20.180	5.120	0.515
660.499	416.951	79.997	19.997	100.057	20.185	4.791	0.524
660.999	417.170	79.996	19.995	100.054	20.184	4.856	0.504
661.499	417.437	79.996	19.997	100.052	20.181	5.042	0.486
662.000	417.725	79.995	19.996	100.056	20.179	5.195	0.520
662.500	417.940	79.997	19.997	100.064	20.182	5.016	0.528
662.999	418.168	79.997	19.996	100.071	20.172	5.786	0.473
663.499	418.448	79.998	19.995	100.078	20.184	4.853	0.476
664.000	418.726	79.996	19.995	100.081	20.175	5.554	0.533
664.500	418.998	79.997	19.994	100.074	20.187	4.577	0.554
664.999	419.215	79.997	19.995	100.066	20.173	5.717	0.519
665.499	419.519	79.996	19.995	100.057	20.173	5.701	0.505
665.999	419.749	79.997	19.995	100.049	20.171	5.808	0.527
666.499	419.956	79.997	19.995	100.045	20.175	5.531	0.486
667.000	420.251	79.997	19.995	100.051	20.173	5.661	0.470
667.500	420.541	79.997	19.995	100.058	20.175	5.516	0.544
667.999	420.698	79.996	19.994	100.066	20.172	5.734	0.516
668.499	421.023	79.996	19.995	100.072	20.183	4.887	0.464
669.000	421.235	79.995	19.995	100.078	20.183	4.914	0.509
669.500	421.529	79.996	19.995	100.079	20.189	4.471	0.521
670.000	421.767	79.996	19.994	100.080	20.173	5.702	0.519
670.499	421.976	79.995	19.993	100.081	20.179	5.184	0.490
670.999	422.279	79.996	19.995	100.083	20.184	4.822	0.480
671.499	422.514	79.996	19.995	100.079	20.179	5.210	0.525
671.999	422.774	79.996	19.994	100.077	20.181	5.082	0.517
672.499	423.037	79.996	19.994	100.069	20.182	4.973	0.509
672.999	423.198	79.996	19.993	100.066	20.174	5.636	0.473
673.499	423.529	79.995	19.994	100.066	20.182	4.956	0.458
673.999	423.800	79.996	19.994	100.070	20.179	5.197	0.547
674.499	424.116	79.996	19.995	100.071	20.175	5.514	0.594
674.999	424.316	79.997	19.995	100.078	20.181	5.101	0.551
675.499	424.517	79.996	19.995	100.079	20.178	5.279	0.459
676.000	424.684	79.997	19.995	100.079	20.179	5.237	0.385
676.500	425.220	79.995	19.994	100.080	20.179	5.260	0.536
676.999	424.985	79.995	19.994	100.080	20.181	5.044	0.502
677.499	425.692	79.996	19.995	100.080	20.178	5.316	0.386
677.999	425.755	79.996	19.995	100.083	20.179	5.203	0.621
678.499	426.041	79.996	19.995	100.082	20.177	5.350	0.560
678.999	425.921	79.996	19.994	100.078	20.186	4.707	0.257
679.499	426.215	79.995	19.995	100.071	20.180	5.141	0.170
680.000	426.464	79.996	19.996	100.068	20.179	5.216	0.358
680.500	426.712	79.997	19.995	100.066	20.179	5.225	0.519
680.999	426.930	79.997	19.995	100.067	20.181	5.105	0.481
681.499	427.200	79.995	19.995	100.070	20.179	5.202	0.477
681.999	427.454	79.996	19.995	100.077	20.175	5.497	0.506
682.499	427.854	79.997	19.994	100.079	20.181	5.084	0.589
682.999	428.196	79.995	19.995	100.081	20.182	4.998	0.699
683.499	428.983	79.998	19.995	100.083	20.180	5.178	0.936
683.999	428.887	79.998	19.995	100.082	20.176	5.427	0.910
684.499	429.287	79.999	19.995	100.077	20.182	5.017	0.498
684.999	429.398	79.999	19.995	100.073	20.178	5.290	0.408
685.499	429.597	79.999	19.994	100.073	20.174	5.610	0.410
685.999	429.909	79.997	19.995	100.071	20.183	4.927	0.410
686.499	430.273	79.998	19.994	100.067	20.182	5.002	0.593
686.999	430.385	79.998	19.994	100.070	20.178	5.329	0.576
687.499	430.728	79.999	19.994	100.072	20.177	5.394	0.465
687.999	430.920	79.996	19.993	100.069	20.178	5.293	0.495
688.499	431.203	79.999	19.994	100.069	20.181	5.098	0.505
688.999	431.504	79.997	19.994	100.073	20.178	5.275	0.530
689.499	431.645	79.998	19.994	100.074	20.180	5.119	0.513
690.000	432.021	79.996	19.993	100.072	20.182	4.994	0.479
690.500	432.180	79.998	19.995	100.075	20.177	5.367	0.526
690.999	432.533	79.997	19.994	100.076	20.181	5.036	0.524
691.499	432.709	79.997	19.995	100.078	20.183	4.950	0.521
691.999	433.015	79.997	19.994	100.075	20.177	5.346	0.506
692.499	433.264	79.996	19.995	100.077	20.181	5.059	0.518
693.000	433.601	79.998	19.996	100.072	20.183	4.899	0.570
693.500	433.786	79.997	19.994	100.068	20.183	4.891	0.554
694.000	434.065	79.996	19.994	100.064	20.178	5.271	0.493
694.500	434.376	79.995	19.995	100.065	20.177	5.373	0.527
695.000	434.617	79.995	19.996	100.067	20.185	4.768	0.571
695.500	434.877	79.995	19.994	100.072	20.181	5.095	0.526
696.000	435.133	79.995	19.994	100.077	20.179	5.214	0.509
696.500	435.406	79.996	19.995	100.079	20.183	4.922	0.523
696.999	435.650	79.997	19.995	100.079	20.178	5.295	0.523
697.499	435.932	79.996	19.994	100.074	20.178	5.299	0.521
697.999	436.141	79.995	19.994	100.073	20.179	5.200	0.508
698.499	436.463	79.996	19.995	100.072	20.179	5.206	0.511
699.000	436.682	79.997	19.994	100.070	20.180	5.108	0.536
699.500	436.985	79.995	19.994	100.067	20.178	5.328	0.531
699.999	437.204	79.996	19.995	100.070	20.180	5.123	0.522
700.499	437.486	79.995	19.995	100.071	20.180	5.178	0.511
701.000	437.725	79.996	19.994	100.072	20.182	5.008	0.511
701.500	438.001	79.996	19.995	100.074	20.180	5.128	0.518
702.000	438.258	79.996	19.995	100.076	20.179	5.195	0.524
702.500	438.502	79.997	19.995	100.074	20.182	5.023	0.517
702.999	438.808	79.997	19.994	100.072	20.177	5.373	0.526
703.499	439.067	79.997	19.995	100.069	20.176	5.439	0.558
703.999	439.285	79.996	19.995	100.070	20.180	5.165	0.521
704.499	439.571	79.996	19.995	100.075	20.182	5.026	0.490
704.999	439.853	79.997	19.995	100.078	20.181	5.045	0.536
705.499	440.118	79.996	19.994	100.077	20.181	5.102	0.557
705.999	440.342	79.995	19.994	100.078	20.179	5.198	0.518
706.499	440.634	79.997	19.995	100.078	20.175	5.502	0.502
707.000	440.898	79.996	19.996	100.074	20.176	5.441	0.536
707.500	441.132	79.996	19.995	100.069	20.177	5.372	0.527
707.999	441.397	79.996	19.995	100.065	20.180	5.175	0.498
708.499	441.656	79.996	19.994	100.059	20.180	5.158	0.511
708.999	441.925	79.995	19.996	100.056	20.174	5.618	0.526
709.499	442.168	79.997	19.996	100.051	20.177	5.337	0.520
710.000	442.397	79.996	19.994	100.050	20.180	5.161	0.492
710.500	442.708	79.997	19.995	100.050	20.178	5.261	0.506
710.999	442.928	79.997	19.995	100.056	20.175	5.508	0.536
711.499	443.179	79.995	19.995	100.060	20.175	5.527	0.502
711.999	443.493	79.996	19.995	100.066	20.180	5.179	0.518
712.500	443.686	79.996	19.995	100.068	20.176	5.425	0.536
713.000	443.980	79.997	19.995	100.070	20.179	5.209	0.497
713.500	444.229	79.996	19.995	100.066	20.179	5.219	0.515
714.000	444.496	79.996	19.995	100.060	20.175	5.534	0.529
714.500	444.730	79.997	19.996	100.053	20.180	5.119	0.508
714.999	444.984	79.996	19.996	100.052	20.181	5.072	0.495
715.499	445.252	79.995	19.996	100.049	20.181	5.089	0.505
715.999	445.551	79.995	19.995	100.048	20.178	5.316	0.544
716.499	445.762	79.997	19.996	100.048	20.177	5.376	0.538
716.999	446.000	79.996	19.995	100.046	20.177	5.351	0.480
717.499	446.279	79.995	19.995	100.045	20.177	5.343	0.483
717.999	446.538	79.994	19.997	100.045	20.179	5.242	0.527
718.499	446.816	79.996	19.995	100.047	20.182	5.008	0.537
718.999	447.076	79.995	19.996	100.049	20.177	5.389	0.538
719.499	447.308	79.995	19.995	100.055	20.179	5.192	0.515
719.999	447.603	79.996	19.996	100.060	20.176	5.425	0.510
720.499	447.843	79.996	19.995	100.063	20.178	5.307	0.531
720.999	448.094	79.995	19.994	100.059	20.180	5.154	0.512
721.499	448.349	79.995	19.996	100.056	20.183	4.953	0.498
722.000	448.624	79.995	19.996	100.052	20.179	5.194	0.518
722.500	448.874	79.995	19.995	100.053	20.179	5.257	0.528
722.999	449.110	79.995	19.995	100.053	20.176	5.419	0.505
723.499	449.407	79.994	19.994	100.057	20.179	5.253	0.509
724.000	449.601	79.996	19.995	100.061	20.183	4.897	0.512
724.500	449.902	79.995	19.996	100.060	20.177	5.364	0.493
724.999	450.132	79.995	19.995	100.056	20.177	5.360	0.513
725.499	450.436	79.998	19.995	100.055	20.177	5.389	0.533
725.999	450.656	79.995	19.994	100.054	20.179	5.225	0.529
726.499	450.897	79.996	19.995	100.053	20.180	5.173	0.492
726.999	451.216	79.995	19.996	100.055	20.180	5.123	0.510
727.499	451.434	79.996	19.996	100.056	20.181	5.049	0.548
727.999	451.710	79.995	19.995	100.056	20.178	5.328	0.515
728.499	451.995	79.996	19.996	100.057	20.176	5.428	0.528
728.999	452.195	79.995	19.995	100.056	20.176	5.443	0.523
729.500	452.503	79.996	19.996	100.058	20.181	5.095	0.497
730.000	452.751	79.997	19.995	100.062	20.181	5.068	0.532
730.500	452.962	79.996	19.995	100.062	20.181	5.078	0.507
730.999	453.230	79.996	19.996	100.058	20.183	4.911	0.469
731.499	453.491	79.996	19.995	100.059	20.183	4.896	0.504
731.999	453.758	79.996	19.995	100.057	20.185	4.731	0.528
732.499	454.041	79.995	19.995	100.054	20.183	4.928	0.539
732.999	454.276	79.995	19.995	100.057	20.182	4.957	0.535
733.499	454.532	79.996	19.996	100.064	20.181	5.053	0.505
733.999	454.795	79.994	19.996	100.065	20.189	4.470	0.505
734.499	455.049	79.996	19.995	100.065	20.177	5.357	0.518
734.999	455.283	79.996	19.996	100.064	20.185	4.771	0.502
735.499	455.581	79.995	19.995	100.060	20.187	4.647	0.510
735.999	455.839	79.996	19.996	100.054	20.187	4.645	0.544
736.500	456.094	79.996	19.995	100.053	20.186	4.721	0.535
737.000	456.353	79.996	19.995	100.052	20.188	4.561	0.514
737.500	456.580	79.997	19.995	100.051	20.181	5.045	0.500
738.000	456.851	79.998	19.997	100.053	20.184	4.875	0.492
738.500	457.106	79.996	19.995	100.053	20.183	4.892	0.512
739.000	457.359	79.996	19.996	100.050	20.190	4.391	0.517
739.500	457.600	79.998	19.995	100.048	20.189	4.471	0.501
740.000	457.879	79.996	19.996	100.045	20.183	4.894	0.507
740.499	458.104	79.997	19.996	100.045	20.182	4.999	0.512
741.000	458.374	79.997	19.997	100.044	20.185	4.783	0.500
741.500	458.636	79.998	19.996	100.048	20.186	4.714	0.514
742.000	458.869	79.998	19.996	100.051	20.185	4.735	0.513
742.499	459.124	79.997	19.995	100.052	20.182	4.999	0.491
742.999	459.405	79.997	19.995	100.050	20.184	4.827	0.512
743.499	459.685	79.997	19.996	100.049	20.182	4.982	0.549
743.999	459.946	79.996	19.996	100.045	20.185	4.795	0.551
744.499	460.240	79.996	19.997	100.043	20.185	4.726	0.548
744.999	460.460	79.997	19.996	100.043	20.182	4.967	0.535
745.500	460.699	79.997	19.996	100.049	20.184	4.854	0.486
746.000	460.932	79.997	19.996	100.055	20.183	4.940	0.465
746.500	461.206	79.996	19.995	100.062	20.186	4.693	0.489
746.999	461.448	79.996	19.997	100.063	20.183	4.892	0.511
747.499	461.713	79.995	19.995	100.062	20.187	4.628	0.511
747.999	461.990	79.996	19.996	100.056	20.186	4.714	0.525
748.499	462.259	79.996	19.995	100.054	20.186	4.674	0.544
748.999	462.504	79.997	19.996	100.049	20.183	4.926	0.530
749.499	462.738	79.996	19.996	100.048	20.185	4.727	0.497
749.999	462.975	79.997	19.996	100.048	20.186	4.707	0.475
750.499	463.235	79.996	19.996	100.048	20.190	4.408	0.484
751.000	463.509	79.996	19.996	100.045	20.186	4.686	0.516
751.500	463.748	79.996	19.994	100.044	20.184	4.867	0.523
751.999	463.983	79.995	19.995	100.044	20.184	4.816	0.493
752.500	464.218	79.996	19.994	100.044	20.187	4.636	0.472
753.000	464.488	79.996	19.995	100.045	20.185	4.762	0.487
753.499	464.746	79.996	19.995	100.045	20.186	4.667	0.516
753.999	464.981	79.996	19.995	100.045	20.188	4.567	0.511
754.499	465.221	79.995	19.994	100.045	20.188	4.540	0.484
754.999	465.478	79.998	19.994	100.045	20.188	4.556	0.486
755.499	465.757	79.998	19.994	100.045	20.183	4.885	0.517
755.999	465.963	79.997	19.995	100.045	20.187	4.600	0.511
756.500	466.247	79.998	19.995	100.045	20.184	4.833	0.487
757.000	466.464	79.996	19.995	100.046	20.187	4.644	0.495
757.500	466.722	79.997	19.994	100.047	20.189	4.437	0.488
758.000	466.973	79.998	19.994	100.050	20.190	4.359	0.492
758.500	467.233	79.998	19.996	100.058	20.187	4.594	0.510
759.000	467.473	79.996	19.994	100.058	20.188	4.504	0.505
759.500	467.759	79.998	19.995	100.058	20.186	4.671	0.513
760.000	467.983	79.997	19.995	100.057	20.190	4.388	0.518
760.500	468.251	79.997	19.994	100.052	20.188	4.504	0.501
761.000	468.462	79.997	19.995	100.045	20.188	4.541	0.486
761.499	468.742	79.997	19.994	100.045	20.187	4.587	0.485
761.999	469.016	79.999	19.995	100.044	20.189	4.479	0.522
762.499	469.253	79.999	19.995	100.044	20.186	4.669	0.532
762.999	469.527	79.998	19.994	100.045	20.189	4.474	0.511
763.499	469.745	79.999	19.995	100.044	20.191	4.290	0.502
763.999	470.025	79.999	19.995	100.045	20.187	4.575	0.496
764.500	470.262	79.999	19.995	100.044	20.191	4.294	0.507
765.000	470.523	80.000	19.994	100.044	20.191	4.294	0.507
765.500	470.810	79.998	19.995	100.044	20.190	4.399	0.523
766.000	471.007	79.998	19.994	100.044	20.190	4.347	0.516
766.499	471.287	79.999	19.994	100.042	20.189	4.493	0.480
766.999	471.547	79.998	19.996	100.042	20.189	4.441	0.508
767.500	471.793	79.999	19.994	100.041	20.186	4.697	0.523
768.000	472.036	79.998	19.994	100.041	20.189	4.479	0.498
768.500	472.291	79.999	19.995	100.039	20.190	4.393	0.494
769.000	472.533	79.999	19.995	100.039	20.187	4.611	0.498
769.499	472.795	79.997	19.994	100.039	20.188	4.523	0.501
769.999	473.058	79.997	19.995	100.038	20.185	4.781	0.515
770.499	473.355	79.996	19.993	100.035	20.188	4.517	0.543
770.999	473.593	79.997	19.996	100.034	20.187	4.617	0.548
771.500	473.896	79.998	19.995	100.035	20.187	4.636	0.538
772.000	474.127	79.997	19.995	100.035	20.187	4.628	0.537
772.500	474.431	79.996	19.996	100.036	20.190	4.393	0.535
773.000	474.681	79.997	19.995	100.038	20.188	4.569	0.545
773.500	474.925	79.997	19.996	100.040	20.189	4.424	0.524
774.000	475.174	79.996	19.995	100.040	20.188	4.527	0.494
774.499	475.443	79.996	19.994	100.038	20.187	4.617	0.506
774.999	475.705	79.996	19.995	100.035	20.189	4.479	0.525
775.500	475.972	79.997	19.995	100.034	20.186	4.699	0.530
776.000	476.197	79.996	19.995	100.036	20.190	4.405	0.510
776.499	476.491	79.997	19.995	100.036	20.189	4.426	0.505
776.999	476.761	79.997	19.996	100.039	20.191	4.315	0.541
777.499	477.003	79.997	19.995	100.043	20.185	4.759	0.538
777.999	477.251	79.997	19.995	100.043	20.194	4.042	0.501
778.500	477.549	79.997	19.995	100.042	20.193	4.154	0.518
779.000	477.821	79.997	19.995	100.041	20.193	4.183	0.558
779.499	478.034	79.997	19.996	100.042	20.195	4.030	0.527
779.999	478.319	79.996	19.996	100.042	20.194	4.045	0.492
780.500	478.569	79.996	19.995	100.042	20.191	4.280	0.517
781.000	478.820	79.996	19.995	100.044	20.194	4.055	0.518
781.499	479.075	79.995	19.995	100.047	20.192	4.219	0.504
781.999	479.346	79.997	19.995	100.049	20.194	4.055	0.516
782.499	479.597	79.998	19.996	100.049	20.188	4.546	0.524
782.999	479.847	79.997	19.995	100.050	20.192	4.256	0.511
783.500	480.120	79.997	19.995	100.049	20.191	4.330	0.512
784.000	480.354	79.996	19.994	100.046	20.195	4.026	0.515
784.500	480.615	79.996	19.995	100.045	20.189	4.482	0.501
785.000	480.871	79.998	19.996	100.045	20.195	4.026	0.506
785.499	481.138	79.998	19.995	100.043	20.194	4.057	0.520
785.999	481.381	79.997	19.995	100.041	20.194	4.053	0.516
786.499	481.647	79.996	19.995	100.039	20.193	4.118	0.510
786.999	481.910	79.996	19.995	100.032	20.197	3.831	0.519
787.500	482.164	79.998	19.995	100.030	20.196	3.936	0.523
788.000	482.408	79.997	19.995	100.031	20.193	4.156	0.507
788.500	482.682	79.997	19.996	100.033	20.194	4.105	0.508
789.000	482.916	79.997	19.996	100.034	20.195	4.028	0.513
789.500	483.228	79.997	19.994	100.041	20.197	3.862	0.528
790.000	483.439	79.997	19.995	100.042	20.193	4.179	0.535
790.499	483.697	79.998	19.995	100.042	20.196	3.919	0.496
790.999	483.966	79.997	19.995	100.041	20.194	4.087	0.498
791.500	484.224	79.997	19.995	100.042	20.196	3.898	0.527
792.000	484.522	79.998	19.996	100.041	20.195	3.967	0.541
792.500	484.758	79.998	19.995	100.042	20.194	4.045	0.545
793.000	484.994	79.996	19.995	100.042	20.198	3.766	0.504
793.499	485.249	79.997	19.996	100.041	20.196	3.886	0.481
793.999	485.543	79.996	19.994	100.038	20.194	4.097	0.519
794.499	485.793	79.996	19.994	100.032	20.197	3.879	0.546
794.999	486.013	79.998	19.995	100.029	20.193	4.173	0.507
795.500	486.280	79.997	19.995	100.029	20.197	3.835	0.479
796.000	486.528	79.997	19.994	100.030	20.195	4.001	0.501
796.499	486.775	79.995	19.995	100.035	20.194	4.038	0.505
796.999	487.055	79.996	19.995	100.041	20.196	3.925	0.511
797.499	487.255	79.997	19.995	100.044	20.198	3.776	0.504
797.999	487.532	79.997	19.996	100.043	20.195	4.030	0.478
798.499	487.801	79.996	19.995	100.043	20.197	3.843	0.511
798.999	488.056	79.997	19.996	100.040	20.199	3.673	0.536
799.499	488.329	79.997	19.995	100.034	20.198	3.766	0.526
799.999	488.582	79.996	19.995	100.034	20.196	3.917	0.527
800.500	488.826	79.997	19.995	100.036	20.200	3.600	0.511
801.000	489.081	79.995	19.995	100.036	20.198	3.766	0.498
801.500	489.337	79.997	19.996	100.038	20.197	3.835	0.505
801.999	489.578	79.995	19.996	100.044	20.199	3.666	0.504
802.499	489.864	79.994	19.995	100.044	20.198	3.793	0.512
802.999	490.104	79.994	19.995	100.043	20.201	3.533	0.526
803.499	490.346	79.996	19.995	100.043	20.197	3.881	0.504
803.999	490.645	79.995	19.994	100.043	20.195	4.001	0.511
804.499	490.873	79.993	19.996	100.043	20.196	3.888	0.534
804.999	491.138	79.994	19.995	100.042	20.198	3.785	0.510
805.499	491.384	79.995	19.996	100.043	20.199	3.657	0.502
806.000	491.642	79.996	19.995	100.041	20.201	3.550	0.508
806.500	491.900	79.995	19.995	100.038	20.201	3.531	0.510
807.000	492.141	79.995	19.995	100.036	20.201	3.515	0.507
807.500	492.400	79.995	19.995	100.033	20.202	3.483	0.499
808.000	492.662	79.995	19.996	100.030	20.202	3.446	0.511
808.499	492.911	79.995	19.996	100.027	20.202	3.498	0.516
808.999	493.143	79.995	19.995	100.025	20.199	3.670	0.496
809.499	493.419	79.995	19.995	100.024	20.203	3.362	0.495
809.999	493.710	79.995	19.994	100.027	20.200	3.630	0.538
810.499	493.927	79.995	19.995	100.031	20.199	3.674	0.538
810.999	494.192	79.996	19.995	100.035	20.203	3.420	0.495
811.499	494.480	79.997	19.996	100.039	20.203	3.416	0.518
811.999	494.703	79.996	19.995	100.041	20.203	3.384	0.532
812.499	494.992	79.995	19.994	100.042	20.205	3.248	0.511
812.999	495.247	79.996	19.995	100.042	20.200	3.632	0.528
813.499	495.500	79.997	19.996	100.040	20.204	3.286	0.526
813.999	495.738	79.995	19.995	100.039	20.201	3.552	0.499
814.499	496.021	79.995	19.995	100.040	20.205	3.259	0.506
814.999	496.260	79.996	19.995	100.040	20.202	3.483	0.521
815.500	496.519	79.996	19.995	100.040	20.202	3.437	0.510
816.000	496.782	79.997	19.995	100.042	20.205	3.234	0.510
816.499	497.043	79.997	19.994	100.043	20.208	3.009	0.523
816.999	497.274	79.998	19.994	100.043	20.203	3.372	0.508
817.499	497.540	79.997	19.994	100.043	20.204	3.338	0.495
817.999	497.802	79.997	19.994	100.043	20.205	3.204	0.512
818.499	498.046	79.998	19.994	100.043	20.200	3.607	0.517
819.000	498.316	79.997	19.995	100.043	20.206	3.133	0.510
819.500	498.588	79.998	19.995	100.043	20.201	3.548	0.528
820.000	498.824	79.998	19.995	100.042	20.204	3.311	0.525
820.500	499.053	79.998	19.995	100.040	20.207	3.043	0.487
820.999	499.335	79.996	19.994	100.038	20.206	3.135	0.488
821.499	499.627	79.997	19.994	100.035	20.207	3.106	0.543
822.000	499.815	79.997	19.996	100.033	20.204	3.326	0.527
822.500	500.080	79.998	19.996	100.027	20.209	2.905	0.467
822.999	500.348	79.996	19.995	100.029	20.210	2.837	0.493
823.499	500.610	79.997	19.996	100.032	20.209	2.944	0.532
823.999	500.847	79.997	19.996	100.034	20.206	3.127	0.515
824.499	501.119	79.997	19.995	100.035	20.208	2.988	0.504
824.999	501.360	79.997	19.997	100.040	20.208	2.970	0.511
825.499	501.632	79.996	19.997	100.040	20.207	3.074	0.513
825.999	501.871	79.998	19.997	100.039	20.210	2.831	0.512
826.499	502.109	79.996	19.996	100.038	20.210	2.854	0.494
826.999	502.384	79.997	19.996	100.035	20.208	3.009	0.495
827.500	502.630	79.996	19.996	100.033	20.210	2.823	0.517
828.000	502.899	79.996	19.996	100.033	20.208	2.995	0.518
828.500	503.147	79.996	19.995	100.034	20.207	3.043	0.516
828.999	503.435	79.996	19.996	100.034	20.210	2.827	0.526
829.499	503.653	79.996	19.996	100.036	20.209	2.942	0.520
829.999	503.894	79.997	19.997	100.036	20.209	2.946	0.482
830.499	504.173	79.994	19.996	100.034	20.211	2.781	0.490
830.999	504.432	79.995	19.996	100.033	20.207	3.062	0.529
831.499	504.658	79.995	19.996	100.033	20.208	2.972	0.511
831.999	504.912	79.997	19.997	100.034	20.209	2.932	0.483
832.500	505.162	79.995	19.997	100.035	20.211	2.794	0.493
833.000	505.420	79.997	19.997	100.036	20.212	2.710	0.506
833.500	505.651	79.996	19.996	100.035	20.209	2.934	0.498
833.999	505.951	79.996	19.996	100.034	20.212	2.670	0.510
834.500	506.217	79.997	19.996	100.035	20.207	3.072	0.549
835.000	506.454	79.996	19.997	100.035	20.210	2.852	0.534
835.499	506.718	79.997	19.995	100.037	20.210	2.857	0.502
835.999	506.992	79.997	19.997	100.039	20.208	2.989	0.520
836.499	507.250	79.998	19.995	100.039	20.209	2.907	0.535
836.999	507.485	79.998	19.997	100.038	20.210	2.821	0.512
837.500	507.760	79.997	19.996	100.038	20.209	2.917	0.501
838.000	507.993	79.998	19.995	100.036	20.216	2.395	0.509
838.500	508.254	79.996	19.996	100.033	20.212	2.693	0.502
839.000	508.489	79.997	19.995	100.031	20.214	2.569	0.496
839.499	508.774	79.997	19.995	100.026	20.212	2.691	0.508
839.999	509.038	79.998	19.995	100.024	20.215	2.498	0.534
840.500	509.269	79.998	19.995	100.024	20.213	2.649	0.522
841.000	509.522	79.999	19.994	100.028	20.214	2.540	0.490
841.500	509.799	79.999	19.994	100.032	20.215	2.460	0.507
841.999	510.023	79.998	19.994	100.037	20.213	2.605	0.515
842.499	510.277	79.999	19.994	100.039	20.213	2.651	0.489
842.999	510.544	79.998	19.994	100.040	20.215	2.473	0.500
843.499	510.779	79.998	19.995	100.039	20.214	2.576	0.512
843.999	510.998	79.998	19.996	100.038	20.212	2.710	0.478
844.500	511.316	79.999	19.996	100.038	20.216	2.402	0.496
845.000	511.576	79.999	19.995	100.039	20.212	2.703	0.557
845.500	511.819	79.998	19.994	100.038	20.212	2.687	0.540
846.000	512.060	79.998	19.995	100.039	20.210	2.819	0.494
846.499	512.297	80.000	19.993	100.039	20.212	2.662	0.481
846.999	512.532	80.000	19.995	100.039	20.214	2.551	0.475
847.499	512.783	79.998	19.995	100.037	20.212	2.660	0.479
847.999	513.063	79.997	19.994	100.038	20.211	2.794	0.509
848.499	513.279	79.997	19.994	100.038	20.214	2.576	0.513
848.999	513.545	79.998	19.994	100.038	20.216	2.370	0.489
849.499	513.800	79.998	19.996	100.039	20.211	2.766	0.502
849.999	514.069	79.998	19.996	100.040	20.211	2.781	0.523
850.499	514.365	79.998	19.995	100.041	20.212	2.710	0.545
850.999	514.648	79.997	19.994	100.037	20.213	2.632	0.572
851.500	514.886	79.997	19.994	100.037	20.216	2.397	0.550
852.000	515.175	79.998	19.996	100.036	20.213	2.588	0.524
852.500	515.399	79.996	19.995	100.036	20.212	2.689	0.520
853.000	515.694	79.997	19.995	100.036	20.215	2.492	0.516
853.500	515.947	79.997	19.995	100.041	20.214	2.557	0.533
854.000	516.204	79.997	19.995	100.041	20.216	2.372	0.529
854.499	516.431	79.998	19.995	100.038	20.213	2.645	0.497
854.999	516.705	79.996	19.996	100.035	20.212	2.733	0.493
855.500	516.951	79.997	19.995	100.032	20.214	2.513	0.510
856.000	517.236	79.994	19.994	100.031	20.215	2.446	0.526
856.499	517.501	79.996	19.996	100.032	20.215	2.437	0.541
856.999	517.732	79.997	19.995	100.036	20.213	2.641	0.523
857.499	518.001	79.995	19.995	100.039	20.217	2.349	0.498
857.999	518.287	79.995	19.995	100.043	20.218	2.207	0.527
858.499	518.511	79.995	19.996	100.042	20.214	2.563	0.532
858.999	518.807	79.996	19.995	100.041	20.221	2.045	0.515
859.499	519.021	79.997	19.995	100.040	20.215	2.462	0.515
859.999	519.272	79.995	19.996	100.041	20.212	2.690	0.488
860.500	519.516	79.996	19.995	100.040	20.216	2.364	0.481
861.000	519.808	79.996	19.995	100.040	20.219	2.152	0.516
861.499	520.038	79.995	19.995	100.041	20.217	2.318	0.529
861.999	520.297	79.995	19.995	100.039	20.212	2.733	0.506
862.499	520.559	79.995	19.995	100.036	20.216	2.364	0.504
862.999	520.835	79.995	19.995	100.035	20.215	2.448	0.529
863.499	521.107	79.995	19.995	100.036	20.210	2.823	0.543
863.999	521.303	79.995	19.994	100.036	20.212	2.674	0.508
864.499	521.558	79.996	19.994	100.036	20.213	2.582	0.460
864.999	521.833	79.997	19.996	100.039	20.215	2.487	0.491
865.499	522.094	79.994	19.996	100.041	20.217	2.288	0.533
865.999	522.339	79.995	19.995	100.041	20.216	2.414	0.520
866.500	522.600	79.995	19.995	100.039	20.214	2.542	0.506
867.000	522.852	79.995	19.995	100.039	20.214	2.575	0.510
867.499	523.091	79.995	19.995	100.036	20.211	2.800	0.502
867.999	523.391	79.996	19.995	100.036	20.211	2.764	0.515
868.500	523.608	79.996	19.995	100.030	20.212	2.729	0.528
869.000	523.876	79.996	19.995	100.027	20.213	2.598	0.501
869.500	524.142	79.997	19.996	100.021	20.216	2.418	0.509
870.000	524.372	79.997	19.994	100.016	20.211	2.741	0.515
870.499	524.623	79.997	19.995	100.013	20.216	2.399	0.489
870.999	524.916	79.996	19.995	100.016	20.211	2.768	0.513
871.499	525.145	79.995	19.996	100.018	20.207	3.055	0.533
871.999	525.410	79.996	19.995	100.024	20.218	2.211	0.508
872.499	525.629	79.996	19.995	100.029	20.214	2.571	0.489
872.999	525.909	79.996	19.995	100.032	20.217	2.299	0.492
873.500	526.162	79.996	19.994	100.032	20.218	2.228	0.516
874.000	526.410	79.994	19.995	100.035	20.215	2.454	0.517
874.500	526.674	79.995	19.994	100.037	20.216	2.377	0.506
875.000	526.924	79.998	19.994	100.039	20.215	2.469	0.513
875.499	527.154	79.995	19.994	100.036	20.214	2.532	0.497
875.999	527.416	79.993	19.994	100.031	20.215	2.458	0.486
876.500	527.673	79.995	19.994	100.026	20.219	2.165	0.505
877.000	527.890	79.996	19.993	100.024	20.217	2.312	0.496
877.499	528.185	79.996	19.995	100.025	20.214	2.550	0.493
878.000	528.389	79.995	19.994	100.028	20.212	2.712	0.505
878.500	528.674	79.996	19.994	100.033	20.214	2.559	0.494
878.999	528.921	79.995	19.994	100.038	20.211	2.808	0.511
879.499	529.171	79.994	19.995	100.035	20.215	2.492	0.514
879.999	529.451	79.996	19.994	100.030	20.217	2.333	0.514
880.499	529.655	79.995	19.994	100.031	20.215	2.483	0.507
880.999	529.932	79.994	19.994	100.030	20.214	2.559	0.483
881.500	530.171	79.995	19.994	100.028	20.213	2.588	0.498
882.000	530.408	79.996	19.994	100.030	20.215	2.444	0.496
882.500	530.645	79.995	19.994	100.034	20.213	2.634	0.475
883.000	530.955	79.994	19.995	100.035	20.215	2.454	0.511
883.500	531.209	79.994	19.994	100.038	20.216	2.377	0.556
884.000	531.465	79.995	19.997	100.041	20.209	2.915	0.537
884.500	531.726	79.994	19.997	100.044	20.210	2.831	0.513
885.000	531.967	79.995	19.996	100.045	20.216	2.400	0.509
885.500	532.211	79.995	19.996	100.044	20.217	2.322	0.493
885.999	532.456	79.995	19.997	100.042	20.213	2.657	0.487
886.499	532.712	79.995	19.995	100.042	20.215	2.429	0.495
886.999	532.989	79.995	19.997	100.040	20.219	2.125	0.518
887.499	533.275	79.995	19.996	100.035	20.214	2.515	0.548
887.999	533.490	79.994	19.995	100.034	20.214	2.551	0.532
888.499	533.751	79.996	19.996	100.036	20.217	2.303	0.488
888.999	534.009	79.996	19.998	100.037	20.216	2.408	0.498
889.500	534.264	79.995	19.996	100.037	20.214	2.569	0.517
890.000	534.536	79.994	19.998	100.041	20.213	2.586	0.520
890.500	534.795	79.997	19.999	100.040	20.213	2.619	0.529
891.000	535.014	79.996	19.999	100.041	20.211	2.768	0.504
891.500	535.271	79.995	19.998	100.041	20.215	2.462	0.477
892.000	535.558	79.996	19.998	100.041	20.213	2.600	0.510
892.500	535.819	79.996	19.998	100.041	20.215	2.498	0.546
893.000	536.080	79.996	19.996	100.042	20.214	2.542	0.536
893.500	536.286	79.995	19.996	100.040	20.216	2.427	0.495
893.999	536.558	79.996	19.997	100.038	20.216	2.370	0.472
894.500	536.818	79.996	19.997	100.038	20.217	2.337	0.505
895.000	537.068	79.995	19.996	100.038	20.216	2.368	0.521
895.499	537.349	79.996	19.997	100.037	20.218	2.226	0.521
895.999	537.585	79.996	19.997	100.037	20.218	2.257	0.525
896.500	537.842	79.997	19.996	100.038	20.218	2.238	0.505
897.000	538.100	79.998	19.998	100.038	20.216	2.364	0.503
897.499	538.325	79.996	19.997	100.038	20.213	2.605	0.499
898.000	538.628	79.995	19.995	100.039	20.214	2.554	0.506
898.500	538.884	79.997	19.997	100.041	20.215	2.435	0.543
898.999	539.126	79.996	19.996	100.045	20.212	2.724	0.528
899.500	539.385	79.996	19.997	100.048	20.217	2.347	0.500
900.000	539.615	79.997	19.997	100.045	20.218	2.221	0.495
900.499	539.892	79.997	19.996	100.038	20.215	2.450	0.498
900.999	540.160	79.997	19.995	100.030	20.220	2.096	0.526
901.499	540.392	79.996	19.995	100.021	20.220	2.112	0.522
902.000	540.670	79.997	19.994	100.017	20.217	2.322	0.505
902.500	540.897	79.996	19.996	100.016	20.216	2.393	0.508
903.000	541.136	79.996	19.995	100.020	20.218	2.245	0.485
903.500	541.390	79.995	19.996	100.028	20.218	2.270	0.479
904.000	541.675	79.996	19.996	100.032	20.217	2.303	0.517
904.500	541.914	79.996	19.995	100.034	20.218	2.247	0.532
905.000	542.173	79.996	19.995	100.037	20.218	2.242	0.511
905.500	542.433	79.994	19.996	100.037	20.217	2.289	0.509
905.999	542.668	79.996	19.996	100.037	20.222	1.901	0.507
906.500	542.919	79.995	19.996	100.031	20.219	2.131	0.490
907.000	543.184	79.996	19.996	100.029	20.217	2.322	0.501
907.500	543.448	79.995	19.996	100.023	20.218	2.224	0.522
908.000	543.692	79.996	19.996	100.023	20.215	2.477	0.518
908.500	543.968	79.995	19.997	100.024	20.221	2.008	0.514
909.000	544.213	79.994	19.995	100.029	20.220	2.106	0.520
909.500	544.469	79.994	19.996	100.032	20.217	2.291	0.511
909.999	544.652	79.996	19.996	100.037	20.219	2.140	0.470
910.499	544.946	79.997	19.996	100.038	20.220	2.075	0.459
911.000	545.192	79.995	19.996	100.038	20.218	2.247	0.509
911.500	545.419	79.995	19.996	100.038	20.218	2.257	0.506
911.999	545.692	79.995	19.996	100.038	20.214	2.509	0.487
912.499	545.924	79.995	19.997	100.037	20.215	2.469	0.503
913.000	546.182	79.996	19.997	100.037	20.215	2.458	0.497
913.500	546.468	79.994	19.995	100.037	20.216	2.402	0.517
914.000	546.721	79.995	19.996	100.037	20.214	2.530	0.542
914.500	546.948	79.996	19.995	100.038	20.217	2.339	0.510
915.000	547.228	79.997	19.997	100.041	20.216	2.427	0.493
915.500	547.474	79.997	19.997	100.043	20.221	2.004	0.516
916.000	547.719	79.995	19.996	100.040	20.217	2.343	0.508
916.500	548.011	79.998	19.997	100.039	20.220	2.081	0.514
916.999	548.267	79.998	19.996	100.038	20.212	2.674	0.542
917.499	548.516	79.995	19.997	100.036	20.214	2.515	0.526
918.000	548.758	79.996	19.996	100.036	20.214	2.515	0.498
918.500	549.006	79.998	19.997	100.038	20.218	2.270	0.490
918.999	549.258	79.997	19.997	100.039	20.213	2.582	0.495
919.499	549.519	79.997	19.996	100.039	20.216	2.406	0.507
920.000	549.776	79.997	19.998	100.040	20.217	2.291	0.515
920.500	550.012	79.996	19.996	100.040	20.215	2.452	0.506
920.999	550.272	79.997	19.996	100.040	20.214	2.567	0.495
921.499	550.538	79.997	19.996	100.040	20.214	2.511	0.511
922.000	550.811	79.997	19.997	100.041	20.215	2.437	0.532
922.500	551.017	79.996	19.996	100.041	20.218	2.259	0.509
922.999	551.298	79.997	19.996	100.040	20.221	2.035	0.482
923.499	551.550	79.998	19.997	100.040	20.220	2.095	0.510
923.999	551.816	79.996	19.995	100.041	20.215	2.473	0.526
924.499	552.065	79.997	19.996	100.044	20.216	2.406	0.516
924.999	552.304	79.997	19.994	100.044	20.219	2.137	0.501
925.499	552.576	79.997	19.996	100.045	20.216	2.353	0.500
925.999	552.802	79.997	19.996	100.045	20.218	2.215	0.505
926.499	553.113	79.997	19.996	100.045	20.218	2.261	0.518
926.999	553.324	79.998	19.996	100.042	20.217	2.280	0.529
927.499	553.586	79.995	19.995	100.042	20.217	2.301	0.498
927.999	553.845	79.997	19.993	100.042	20.220	2.096	0.498
928.499	554.123	79.996	19.994	100.042	20.216	2.379	0.529
929.000	554.387	79.995	19.996	100.042	20.216	2.364	0.539
929.500	554.625	79.996	19.995	100.040	20.215	2.446	0.522
930.000	554.892	79.994	19.995	100.041	20.216	2.404	0.503
930.500	555.130	79.995	19.996	100.040	20.221	2.039	0.505
930.999	555.394	79.995	19.995	100.040	20.216	2.368	0.503
931.499	555.668	79.994	19.996	100.041	20.216	2.362	0.520
931.999	555.883	79.995	19.996	100.042	20.215	2.471	0.514
932.499	556.202	79.995	19.995	100.041	20.216	2.395	0.512
932.999	556.421	79.994	19.995	100.038	20.219	2.165	0.536
933.499	556.682	79.993	19.995	100.033	20.216	2.354	0.509
933.999	556.926	79.994	19.995	100.031	20.216	2.366	0.493
934.499	557.176	79.994	19.996	100.027	20.214	2.521	0.499
934.999	557.414	79.995	19.995	100.021	20.216	2.354	0.491
935.499	557.687	79.995	19.995	100.025	20.215	2.473	0.499
936.000	557.942	79.994	19.995	100.031	20.218	2.245	0.519
936.500	558.174	79.994	19.995	100.033	20.218	2.268	0.507
937.000	558.463	79.995	19.996	100.037	20.218	2.255	0.504
937.500	558.717	79.995	19.996	100.044	20.215	2.498	0.533
937.999	558.965	79.995	19.994	100.044	20.213	2.620	0.522
938.499	559.213	79.994	19.994	100.043	20.215	2.460	0.498
938.999	559.472	79.995	19.997	100.043	20.216	2.422	0.501
939.499	559.747	79.996	19.995	100.043	20.214	2.552	0.521
940.000	560.017	79.993	19.995	100.041	20.214	2.567	0.540
940.500	560.245	79.995	19.996	100.038	20.216	2.395	0.522
941.000	560.468	79.996	19.995	100.039	20.214	2.540	0.475
941.500	560.767	79.994	19.994	100.038	20.214	2.527	0.486
942.000	560.980	79.996	19.995	100.032	20.211	2.798	0.517
942.499	561.249	79.996	19.995	100.032	20.212	2.699	0.497
942.999	561.525	79.994	19.995	100.035	20.212	2.662	0.514
943.499	561.736	79.995	19.994	100.035	20.214	2.532	0.516
943.999	562.038	79.994	19.996	100.036	20.211	2.750	0.500
944.499	562.277	79.995	19.996	100.043	20.212	2.666	0.527
944.999	562.507	79.995	19.995	100.045	20.212	2.661	0.504
945.499	562.782	79.995	19.994	100.044	20.214	2.529	0.486
946.000	563.029	79.997	19.996	100.043	20.213	2.632	0.513
946.500	563.253	79.996	19.997	100.040	20.211	2.772	0.497
946.999	563.535	79.996	19.996	100.039	20.214	2.516	0.489
947.500	563.782	79.995	19.996	100.039	20.211	2.804	0.518
948.000	563.992	79.996	19.995	100.039	20.218	2.269	0.493
948.499	564.280	79.996	19.995	100.040	20.215	2.502	0.478
949.000	564.532	79.996	19.995	100.041	20.215	2.443	0.519
949.500	564.767	79.995	19.995	100.034	20.216	2.420	0.513
949.999	565.021	79.996	19.996	100.030	20.214	2.531	0.488
950.499	565.280	79.998	19.997	100.031	20.215	2.462	0.502
950.999	565.518	79.996	19.995	100.031	20.213	2.657	0.505
951.499	565.783	79.996	19.995	100.030	20.210	2.844	0.500
951.999	566.045	79.996	19.996	100.035	20.212	2.705	0.515
952.499	566.270	79.996	19.997	100.038	20.217	2.307	0.507
953.000	566.545	79.997	19.995	100.035	20.215	2.456	0.493
953.500	566.823	79.995	19.994	100.035	20.215	2.494	0.527
954.000	567.051	79.996	19.995	100.036	20.217	2.303	0.530
954.500	567.316	79.998	19.996	100.037	20.214	2.548	0.500
955.000	567.575	79.996	19.995	100.037	20.213	2.657	0.508
955.500	567.829	79.995	19.993	100.036	20.213	2.595	0.518
956.000	568.058	79.995	19.995	100.028	20.217	2.276	0.497
956.500	568.295	79.995	19.997	100.023	20.211	2.779	0.474
957.000	568.574	79.996	19.995	100.018	20.215	2.468	0.491
957.500	568.826	79.997	19.996	100.012	20.217	2.320	0.524
958.000	569.085	79.995	19.995	100.014	20.215	2.487	0.521
958.500	569.329	79.996	19.995	100.018	20.216	2.422	0.508
959.000	569.575	79.995	19.995	100.021	20.212	2.705	0.497
959.500	569.860	79.995	19.996	100.027	20.215	2.498	0.510
960.000	570.126	79.995	19.996	100.033	20.213	2.624	0.541
960.499	570.395	79.995	19.996	100.032	20.214	2.553	0.543
960.999	570.615	79.997	19.995	100.032	20.212	2.699	0.512
961.499	570.858	79.994	19.996	100.029	20.212	2.674	0.476
961.999	571.134	79.995	19.997	100.026	20.215	2.437	0.491
962.499	571.413	79.996	19.995	100.027	20.215	2.500	0.537
963.000	571.646	79.995	19.995	100.030	20.215	2.437	0.534
963.500	571.872	79.996	19.995	100.034	20.214	2.531	0.485
963.999	572.148	79.995	19.996	100.039	20.213	2.651	0.480
964.499	572.404	79.996	19.996	100.042	20.214	2.537	0.517
965.000	572.649	79.995	19.995	100.042	20.212	2.695	0.517
965.500	572.942	79.996	19.995	100.041	20.214	2.554	0.519
965.999	573.197	79.997	19.996	100.041	20.215	2.500	0.543
966.499	573.449	79.998	19.995	100.039	20.213	2.588	0.528
967.000	573.749	79.996	19.998	100.037	20.217	2.318	0.530
967.500	573.963	79.997	19.996	100.033	20.216	2.412	0.533
968.000	574.222	79.996	19.995	100.027	20.216	2.406	0.493
968.500	574.508	79.995	19.995	100.025	20.215	2.488	0.509
968.999	574.769	79.996	19.995	100.027	20.216	2.374	0.546
969.499	575.071	79.998	19.996	100.027	20.215	2.504	0.555
969.999	575.335	79.997	19.997	100.032	20.216	2.425	0.564
970.499	575.551	79.995	19.994	100.038	20.217	2.343	0.523
970.999	575.809	79.996	19.995	100.039	20.217	2.291	0.477
971.499	576.088	79.997	19.997	100.039	20.217	2.297	0.506
972.000	576.331	79.997	19.995	100.039	20.215	2.502	0.529
972.500	576.577	79.996	19.996	100.039	20.215	2.492	0.505
973.000	576.840	79.996	19.996	100.038	20.215	2.435	0.499
973.500	577.102	79.997	19.997	100.033	20.216	2.393	0.517
974.000	577.335	79.995	19.996	100.025	20.214	2.525	0.510
974.500	577.592	79.996	19.995	100.021	20.212	2.674	0.493
974.999	577.864	79.997	19.996	100.018	20.214	2.509	0.510
975.499	578.115	79.998	19.997	100.014	20.214	2.530	0.526
976.000	578.368	79.998	19.997	100.019	20.213	2.611	0.513
976.500	578.618	79.996	19.997	100.027	20.215	2.485	0.503
977.000	578.862	79.998	19.996	100.030	20.214	2.554	0.498
977.500	579.128	79.998	19.997	100.033	20.216	2.370	0.502
977.999	579.356	79.995	19.997	100.037	20.212	2.733	0.502
978.499	579.635	79.995	19.996	100.038	20.214	2.544	0.501
978.999	579.918	79.997	19.996	100.037	20.211	2.777	0.535
979.499	580.133	79.995	19.996	100.036	20.212	2.691	0.531
979.999	580.405	79.996	19.996	100.036	20.215	2.439	0.493
980.499	580.675	79.997	19.997	100.036	20.214	2.546	0.514
980.999	580.926	79.997	19.997	100.040	20.210	2.859	0.531
981.499	581.178	79.996	19.997	100.043	20.212	2.701	0.512
981.999	581.468	79.996	19.996	100.044	20.213	2.597	0.523
982.499	581.687	79.996	19.996	100.045	20.214	2.563	0.526
983.000	581.974	79.996	19.996	100.045	20.212	2.672	0.508
983.500	582.250	79.995	19.996	100.042	20.214	2.559	0.535
983.999	582.479	79.997	19.996	100.039	20.212	2.729	0.534
984.499	582.716	79.995	19.996	100.039	20.214	2.526	0.485
984.999	583.000	79.996	19.996	100.040	20.214	2.540	0.494
985.499	583.235	79.997	19.997	100.040	20.211	2.739	0.520
985.999	583.493	79.995	19.994	100.041	20.214	2.569	0.506
986.499	583.736	79.996	19.995	100.040	20.216	2.391	0.497
987.000	583.948	79.995	19.996	100.038	20.211	2.794	0.478
987.500	584.231	79.995	19.995	100.030	20.214	2.542	0.476
987.999	584.506	79.995	19.996	100.027	20.218	2.219	0.527
988.499	584.758	79.995	19.995	100.027	20.217	2.349	0.542
988.999	585.016	79.995	19.996	100.029	20.217	2.320	0.518
989.499	585.268	79.995	19.995	100.031	20.219	2.154	0.510
990.000	585.514	79.995	19.996	100.038	20.218	2.249	0.504
990.500	585.800	79.995	19.996	100.039	20.214	2.548	0.515
991.000	586.042	79.995	19.996	100.039	20.213	2.634	0.530
991.500	586.288	79.996	19.997	100.039	20.218	2.247	0.508
992.000	586.540	79.997	19.995	100.040	20.216	2.381	0.493
992.500	586.786	79.997	19.996	100.041	20.216	2.393	0.498
993.000	587.039	79.996	19.995	100.045	20.216	2.354	0.498
993.500	587.261	79.996	19.996	100.051	20.218	2.270	0.487
993.999	587.539	79.997	19.995	100.051	20.214	2.525	0.488
994.499	587.760	79.997	19.996	100.051	20.220	2.096	0.500
994.999	588.030	79.997	19.995	100.049	20.214	2.540	0.495
995.499	588.303	79.996	19.996	100.044	20.216	2.383	0.517
996.000	588.574	79.997	19.995	100.038	20.215	2.481	0.543
996.500	588.803	79.996	19.996	100.037	20.215	2.447	0.522
997.000	589.051	79.996	19.996	100.037	20.215	2.441	0.489
997.500	589.346	79.995	19.995	100.038	20.211	2.747	0.510
998.000	589.561	79.998	19.996	100.040	20.213	2.607	0.527
998.499	589.823	79.997	19.996	100.041	20.219	2.198	0.493
999.000	590.072	79.997	19.996	100.041	20.215	2.429	0.493
999.500	590.354	79.996	19.995	100.041	20.217	2.328	0.521
1000.000	590.557	79.996	19.996	100.039	20.214	2.510	0.508
1000.500	590.839	79.997	19.998	100.038	20.218	2.259	0.485
1001.000	591.076	79.995	19.997	100.039	20.215	2.479	0.502
1001.500	591.361	79.996	19.996	100.039	20.210	2.844	0.521
1002.000	591.606	79.996	19.996	100.039	20.214	2.512	0.526
1002.500	591.901	79.996	19.997	100.040	20.217	2.309	0.535
1002.999	592.143	79.996	19.995	100.042	20.219	2.131	0.539
1003.499	592.347	79.995	19.996	100.041	20.219	2.163	0.491
1003.999	592.615	79.995	19.996	100.041	20.214	2.580	0.459
1004.499	592.885	79.994	19.996	100.041	20.216	2.404	0.505
1004.999	593.140	79.995	19.995	100.040	20.216	2.368	0.531
1005.499	593.398	79.995	19.997	100.034	20.215	2.469	0.518
1005.999	593.654	79.994	19.995	100.029	20.212	2.683	0.513
1006.499	593.929	79.994	19.996	100.025	20.215	2.481	0.523
1006.999	594.159	79.995	19.996	100.024	20.215	2.456	0.518
1007.500	594.425	79.993	19.997	100.023	20.214	2.559	0.500
1008.000	594.701	79.992	19.996	100.025	20.214	2.540	0.520
1008.500	594.939	79.994	19.996	100.029	20.215	2.462	0.528
1009.000	595.192	79.994	19.996	100.031	20.215	2.477	0.503
1009.500	595.446	79.994	19.996	100.027	20.210	2.814	0.499
1010.000	595.698	79.994	19.997	100.022	20.212	2.674	0.506
1010.499	595.939	79.995	19.996	100.024	20.215	2.460	0.499
1010.999	596.220	79.995	19.996	100.022	20.214	2.529	0.508
1011.499	596.445	79.996	19.996	100.020	20.213	2.605	0.514
1011.999	596.728	79.995	19.995	100.023	20.215	2.491	0.507
1012.500	596.954	79.996	19.996	100.029	20.216	2.397	0.509
1013.000	597.221	79.995	19.996	100.027	20.218	2.219	0.501
1013.499	597.430	79.994	19.995	100.028	20.213	2.640	0.484
1013.999	597.732	79.994	19.995	100.025	20.214	2.576	0.493
1014.499	597.974	79.995	19.996	100.026	20.212	2.666	0.527
1014.999	598.202	79.995	19.996	100.026	20.217	2.286	0.507
1015.499	598.500	79.995	19.995	100.030	20.214	2.521	0.498
1015.999	598.729	79.996	19.995	100.033	20.216	2.399	0.526
1016.500	598.982	79.996	19.996	100.039	20.215	2.429	0.505
1017.000	599.202	79.995	19.997	100.039	20.215	2.433	0.478
1017.500	599.474	79.995	19.996	100.040	20.216	2.355	0.482
1018.000	599.730	79.995	19.996	100.041	20.218	2.205	0.510
1018.499	599.962	79.995	19.996	100.037	20.215	2.467	0.508
1018.999	600.227	79.995	19.995	100.037	20.216	2.372	0.493
1019.499	600.496	79.995	19.998	100.036	20.215	2.473	0.516
1019.999	600.743	79.994	19.995	100.035	20.212	2.687	0.525
1020.499	600.985	79.993	19.995	100.033	20.216	2.404	0.502
1020.999	601.237	79.997	19.996	100.031	20.213	2.620	0.491
1021.500	601.463	79.996	19.995	100.023	20.216	2.402	0.486
1022.000	601.733	79.994	19.995	100.024	20.218	2.223	0.487
1022.499	602.016	79.996	19.996	100.023	20.212	2.665	0.525
1022.999	602.294	79.996	19.996	100.024	20.218	2.252	0.558
1023.500	602.526	79.995	19.995	100.028	20.216	2.401	0.536
1024.000	602.758	79.996	19.994	100.034	20.216	2.397	0.487
1024.500	602.998	79.997	19.996	100.033	20.216	2.418	0.468
1025.000	603.232	79.995	19.995	100.033	20.214	2.548	0.473
1025.499	603.478	79.995	19.996	100.030	20.215	2.496	0.476
1025.999	603.734	79.996	19.995	100.028	20.213	2.590	0.491
1026.500	604.010	79.996	19.994	100.029	20.218	2.253	0.518
1027.000	604.263	79.997	19.996	100.030	20.211	2.771	0.531
1027.500	604.519	79.995	19.995	100.031	20.212	2.699	0.519
1028.000	604.766	79.996	19.995	100.034	20.213	2.599	0.506
1028.500	605.016	79.995	19.995	100.033	20.212	2.712	0.500
1029.000	605.274	79.996	19.995	100.031	20.216	2.425	0.502
1029.500	605.525	79.995	19.995	100.032	20.215	2.437	0.509
1030.000	605.777	79.996	19.995	100.033	20.213	2.638	0.506
1030.499	606.041	79.996	19.995	100.032	20.216	2.381	0.509
1030.999	606.305	79.996	19.995	100.037	20.216	2.391	0.522
1031.500	606.559	79.996	19.996	100.039	20.217	2.312	0.523
1032.000	606.831	79.996	19.995	100.038	20.218	2.217	0.522
1032.499	607.050	79.996	19.995	100.034	20.218	2.238	0.509
1032.999	607.305	79.995	19.996	100.030	20.216	2.368	0.482
1033.499	607.556	79.996	19.995	100.023	20.214	2.542	0.490
1033.999	607.772	79.996	19.995	100.020	20.216	2.356	0.487
1034.499	608.063	79.995	19.997	100.019	20.216	2.425	0.487
1034.999	608.292	79.996	19.996	100.022	20.213	2.607	0.514
1035.500	608.530	79.995	19.996	100.027	20.212	2.676	0.493
1036.000	608.845	79.995	19.996	100.034	20.214	2.575	0.509
1036.499	609.077	79.995	19.995	100.038	20.215	2.464	0.550
1036.999	609.320	79.995	19.995	100.040	20.214	2.575	0.511
1037.499	609.610	79.993	19.995	100.040	20.216	2.360	0.504
1037.999	609.817	79.995	19.996	100.041	20.214	2.540	0.515
1038.499	610.107	79.995	19.995	100.041	20.211	2.747	0.497
1038.999	610.306	79.995	19.995	100.037	20.214	2.574	0.493
1039.499	610.607	79.995	19.996	100.035	20.212	2.693	0.494
1039.999	610.846	79.995	19.996	100.034	20.214	2.580	0.520
1040.500	611.119	79.995	19.995	100.033	20.216	2.368	0.526
1041.000	611.376	79.995	19.995	100.034	20.211	2.739	0.521
1041.500	611.622	79.993	19.995	100.037	20.212	2.731	0.516
1042.000	611.872	79.994	19.994	100.039	20.214	2.546	0.499
1042.499	612.132	79.995	19.996	100.040	20.213	2.630	0.503
1042.999	612.336	79.996	19.995	100.041	20.214	2.538	0.487
1043.499	612.621	79.996	19.995	100.041	20.218	2.272	0.477
1043.999	612.907	79.995	19.995	100.040	20.217	2.322	0.531
1044.500	613.178	79.997	19.996	100.039	20.219	2.152	0.564
1045.000	613.418	79.996	19.995	100.038	20.214	2.507	0.534
1045.499	613.668	79.995	19.995	100.035	20.218	2.219	0.500
1045.999	613.951	79.995	19.995	100.032	20.218	2.259	0.512
1046.499	614.189	79.995	19.995	100.032	20.216	2.393	0.527
1046.999	614.447	79.996	19.995	100.028	20.216	2.387	0.508
1047.500	614.684	79.997	19.995	100.026	20.217	2.347	0.495
1048.000	614.943	79.997	19.996	100.026	20.210	2.820	0.495
1048.499	615.216	79.996	19.995	100.029	20.216	2.359	0.514
1048.999	615.471	79.996	19.995	100.032	20.222	1.922	0.531
1049.500	615.717	79.996	19.995	100.037	20.216	2.374	0.515
1050.001	615.990	79.997	19.995	100.040	20.220	2.079	0.509
1050.500	616.233	79.997	19.994	100.040	20.214	2.578	0.517
1051.000	616.494	79.996	19.994	100.038	20.217	2.341	0.510
1051.500	616.781	79.996	19.994	100.038	20.217	2.297	0.526
1051.999	616.985	79.996	19.995	100.038	20.218	2.200	0.519
1052.500	617.271	79.998	19.995	100.039	20.218	2.217	0.491
1053.000	617.516	79.997	19.994	100.042	20.215	2.429	0.510
1053.499	617.757	79.996	19.994	100.044	20.215	2.450	0.509
1053.999	618.024	79.997	19.994	100.043	20.217	2.337	0.497
1054.500	618.269	79.997	19.995	100.042	20.216	2.358	0.510
1055.000	618.536	79.998	19.994	100.041	20.219	2.180	0.512
1055.500	618.820	79.996	19.993	100.040	20.220	2.119	0.532
1056.000	619.038	79.997	19.994	100.039	20.217	2.289	0.526
1056.499	619.294	79.996	19.994	100.038	20.215	2.456	0.487
1056.999	619.539	79.998	19.995	100.034	20.214	2.553	0.487
1057.499	619.837	79.998	19.996	100.032	20.214	2.515	0.522
1057.999	620.087	79.996	19.995	100.028	20.212	2.693	0.546
1058.499	620.356	79.997	19.995	100.022	20.213	2.636	0.533
1058.999	620.604	79.996	19.995	100.019	20.214	2.542	0.518
1059.499	620.904	79.996	19.995	100.022	20.215	2.492	0.533
1059.999	621.140	79.998	19.996	100.025	20.212	2.708	0.542
1060.499	621.406	79.996	19.994	100.028	20.216	2.398	0.519
1060.999	621.655	79.997	19.995	100.034	20.213	2.618	0.509
1061.499	621.921	79.995	19.995	100.037	20.217	2.343	0.516
1061.999	622.156	79.996	19.995	100.036	20.216	2.356	0.508
1062.499	622.466	79.995	19.995	100.031	20.209	2.897	0.522
1062.999	622.719	79.996	19.995	100.027	20.218	2.274	0.554
1063.499	622.948	79.996	19.995	100.026	20.211	2.777	0.523
1064.000	623.244	79.997	19.995	100.028	20.214	2.532	0.504
1064.500	623.474	79.996	19.995	100.032	20.217	2.333	0.525
1065.000	623.729	79.996	19.996	100.036	20.215	2.483	0.505
1065.500	623.991	79.996	19.995	100.042	20.215	2.437	0.501
1066.000	624.289	79.994	19.996	100.044	20.211	2.772	0.538
1066.500	624.533	79.994	19.996	100.044	20.217	2.336	0.551
1067.000	624.830	79.996	19.995	100.044	20.213	2.586	0.542
1067.499	625.112	79.996	19.996	100.043	20.214	2.514	0.560
1067.999	625.346	79.996	19.995	100.041	20.216	2.399	0.547
1068.499	625.613	79.996	19.995	100.041	20.212	2.686	0.509
1069.000	625.848	79.996	19.997	100.040	20.214	2.578	0.502
1069.501	626.103	79.996	19.996	100.040	20.219	2.169	0.496
1070.000	626.408	79.995	19.996	100.041	20.218	2.223	0.525
1070.499	626.673	79.996	19.994	100.044	20.220	2.112	0.565
1070.999	626.929	79.996	19.995	100.047	20.213	2.615	0.545
1071.499	627.212	79.996	19.995	100.055	20.216	2.421	0.530
1071.999	627.479	79.996	19.996	100.055	20.214	2.517	0.545
1072.499	627.777	79.997	19.994	100.055	20.216	2.377	0.557
1072.999	628.008	79.998	19.995	100.053	20.214	2.544	0.547
1073.500	628.267	79.999	19.996	100.050	20.215	2.467	0.509
1074.000	628.539	79.998	19.995	100.042	20.215	2.454	0.511
1074.500	628.810	79.999	19.994	100.040	20.218	2.207	0.537
1075.000	629.072	79.998	19.995	100.039	20.216	2.374	0.538
1075.499	629.329	79.998	19.996	100.038	20.213	2.649	0.526
1075.999	629.638	79.997	19.996	100.037	20.217	2.299	0.542
1076.499	629.887	79.999	19.995	100.034	20.218	2.259	0.562
1076.999	630.195	79.998	19.994	100.026	20.216	2.427	0.558
1077.499	630.446	79.997	19.994	100.023	20.216	2.402	0.558
1077.999	630.717	79.997	19.995	100.023	20.218	2.267	0.540
1078.499	631.000	79.999	19.997	100.021	20.216	2.391	0.539
1078.999	631.255	79.996	19.995	100.023	20.215	2.462	0.546
1079.499	631.534	79.998	19.995	100.030	20.218	2.267	0.535
1079.999	631.799	79.998	19.996	100.030	20.214	2.580	0.539
1080.499	632.052	79.998	19.994	100.030	20.214	2.548	0.531
1081.000	632.348	79.996	19.995	100.034	20.219	2.131	0.534
1081.500	632.607	79.996	19.995	100.034	20.209	2.921	0.552
1082.000	632.853	79.996	19.995	100.034	20.217	2.318	0.530
1082.500	633.162	79.997	19.996	100.037	20.222	1.932	0.530
1083.000	633.441	79.996	19.995	100.037	20.215	2.500	0.571
1083.500	633.737	79.995	19.994	100.036	20.216	2.385	0.581
1084.000	633.967	79.996	19.996	100.036	20.216	2.427	0.550
1084.500	634.254	79.996	19.995	100.037	20.215	2.452	0.522
1085.000	634.521	79.996	19.995	100.037	20.216	2.412	0.536
1085.500	634.821	79.997	19.995	100.037	20.215	2.462	0.561
1086.000	635.068	79.994	19.996	100.038	20.218	2.244	0.557
1086.500	635.347	79.995	19.996	100.039	20.218	2.209	0.536
1087.000	635.635	79.996	19.996	100.038	20.218	2.242	0.546
1087.499	635.895	79.995	19.996	100.037	20.219	2.123	0.557
1087.999	636.184	79.995	19.996	100.035	20.219	2.156	0.548
1088.499	636.442	79.996	19.996	100.033	20.219	2.125	0.548
1088.999	636.731	79.997	19.998	100.031	20.218	2.251	0.548
1089.499	636.972	79.996	19.996	100.031	20.218	2.215	0.539
1089.999	637.284	79.994	19.997	100.031	20.221	1.984	0.542
1090.499	637.538	79.996	19.997	100.033	20.215	2.502	0.560
1090.999	637.774	79.994	19.996	100.031	20.219	2.122	0.528
1091.499	638.052	79.995	19.996	100.030	20.217	2.323	0.502
1091.999	638.364	79.994	19.998	100.031	20.213	2.627	0.552
1092.499	638.593	79.995	19.996	100.032	20.218	2.269	0.565
1092.999	638.875	79.996	19.996	100.032	20.213	2.613	0.526
1093.499	639.130	79.996	19.997	100.037	20.211	2.783	0.524
1093.999	639.452	79.995	19.996	100.034	20.216	2.353	0.557
1094.499	639.685	79.995	19.996	100.030	20.212	2.691	0.566
1094.999	639.969	79.996	19.997	100.029	20.219	2.173	0.536
1095.499	640.218	79.994	19.996	100.024	20.214	2.531	0.525
1095.999	640.531	79.995	19.995	100.021	20.218	2.219	0.548
1096.500	640.783	79.995	19.998	100.019	20.218	2.267	0.564
1097.000	641.048	79.995	19.996	100.021	20.218	2.261	0.541
1097.499	641.344	79.996	19.996	100.022	20.220	2.055	0.539
1097.999	641.598	79.995	19.997	100.027	20.216	2.391	0.555
1098.499	641.868	79.996	19.997	100.029	20.221	1.984	0.537
1098.999	642.174	79.996	19.994	100.036	20.219	2.164	0.550
1099.499	642.407	79.996	19.995	100.037	20.216	2.372	0.557
1099.999	642.668	79.996	19.994	100.033	20.217	2.320	0.516
1100.499	642.978	79.996	19.994	100.027	20.215	2.481	0.532
1100.999	643.237	79.997	19.996	100.022	20.223	1.873	0.570
1101.500	643.475	79.995	19.994	100.018	20.221	1.982	0.533
1102.000	643.729	79.996	19.996	100.012	20.218	2.254	0.494
1102.500	644.006	79.995	19.995	100.008	20.218	2.271	0.512
1103.000	644.261	79.995	19.995	100.008	20.219	2.127	0.532
1103.500	644.559	79.995	19.995	100.011	20.219	2.139	0.543
1104.000	644.802	79.996	19.995	100.014	20.222	1.936	0.547
1104.499	645.052	79.996	19.995	100.020	20.213	2.625	0.517
1104.999	645.305	79.996	19.996	100.027	20.221	1.997	0.498
1105.499	645.602	79.996	19.995	100.029	20.218	2.254	0.527
1105.999	645.857	79.996	19.995	100.031	20.219	2.141	0.551
1106.499	646.101	79.995	19.994	100.027	20.222	1.963	0.526
1106.999	646.356	79.997	19.996	100.019	20.216	2.361	0.499
1107.500	646.635	79.996	19.995	100.013	20.220	2.118	0.516
1108.000	646.915	79.997	19.995	100.012	20.220	2.095	0.547
1108.499	647.160	79.996	19.994	100.008	20.217	2.277	0.542
1108.999	647.429	79.996	19.994	100.009	20.217	2.334	0.519
1109.499	647.683	79.994	19.995	100.012	20.216	2.378	0.518
1109.999	647.961	79.995	19.994	100.013	20.219	2.123	0.528
1110.499	648.197	79.996	19.996	100.019	20.219	2.175	0.523
1110.999	648.466	79.995	19.995	100.022	20.221	1.995	0.509
1111.500	648.738	79.996	19.997	100.021	20.219	2.158	0.523
1112.000	649.027	79.994	19.995	100.019	20.221	2.032	0.551
1112.499	649.289	79.995	19.996	100.017	20.217	2.328	0.557
1112.999	649.533	79.995	19.995	100.012	20.219	2.166	0.529
1113.499	649.797	79.994	19.996	100.011	20.215	2.428	0.507
1113.999	650.047	79.995	19.994	100.013	20.223	1.821	0.510
1114.499	650.344	79.995	19.995	100.013	20.219	2.175	0.530
1114.999	650.603	79.995	19.996	100.014	20.219	2.158	0.552
1115.499	650.842	79.995	19.994	100.015	20.219	2.171	0.527
1115.999	651.109	79.994	19.994	100.012	20.219	2.189	0.502
1116.500	651.367	79.995	19.996	100.009	20.220	2.076	0.516
1117.000	651.622	79.996	19.995	100.009	20.211	2.743	0.519
1117.500	651.867	79.995	19.996	100.008	20.213	2.653	0.506
1118.000	652.099	79.995	19.994	100.010	20.211	2.770	0.489
1118.499	652.374	79.993	19.994	100.012	20.214	2.508	0.492
1118.999	652.636	79.997	19.995	100.012	20.224	1.789	0.522
1119.500	652.899	79.996	19.996	100.013	20.219	2.171	0.531
1120.000	653.147	79.995	19.995	100.017	20.217	2.342	0.518
1120.499	653.409	79.995	19.995	100.019	20.219	2.162	0.510
1120.999	653.666	79.994	19.995	100.021	20.216	2.420	0.514
1121.499	653.880	79.997	19.994	100.021	20.219	2.129	0.495
1121.999	654.189	79.997	19.996	100.020	20.215	2.433	0.497
1122.500	654.453	79.996	19.996	100.015	20.216	2.397	0.548
1123.000	654.694	79.995	19.995	100.010	20.219	2.170	0.539
1123.499	654.949	79.995	19.995	100.010	20.216	2.393	0.501
1124.000	655.221	79.996	19.996	100.010	20.217	2.282	0.511
1124.500	655.474	79.995	19.995	100.010	20.215	2.435	0.526
1124.999	655.686	79.995	19.995	100.011	20.213	2.596	0.495
1125.500	655.922	79.997	19.994	100.009	20.218	2.271	0.456
1126.000	656.174	79.996	19.995	100.006	20.214	2.542	0.468
1126.500	656.421	79.997	19.996	100.008	20.222	1.894	0.494
1127.000	656.696	79.997	19.995	100.009	20.217	2.337	0.511
1127.499	656.940	79.997	19.996	100.014	20.218	2.228	0.520
1127.999	657.215	79.998	19.996	100.021	20.218	2.269	0.519
1128.499	657.479	79.995	19.994	100.023	20.221	2.007	0.529
1128.999	657.686	79.997	19.996	100.022	20.220	2.060	0.505
1129.499	657.887	79.998	19.995	100.021	20.221	2.014	0.439
1129.999	658.197	79.999	19.995	100.017	20.221	1.999	0.460
1130.500	658.454	79.996	19.995	100.014	20.218	2.246	0.539
1131.000	658.749	79.996	19.994	100.015	20.218	2.225	0.559
1131.499	658.959	79.996	19.993	100.018	20.222	1.944	0.529
1131.999	659.248	79.997	19.993	100.016	20.223	1.875	0.502
1132.500	659.471	79.997	19.994	100.014	20.220	2.076	0.505
1133.000	659.750	79.996	19.995	100.013	20.216	2.422	0.507
1133.500	659.979	79.999	19.997	100.009	20.217	2.290	0.505
1134.000	660.227	79.998	19.995	100.007	20.217	2.286	0.493
1134.499	660.480	79.998	19.996	100.008	20.223	1.817	0.489
1135.000	660.728	79.998	19.995	100.010	20.219	2.146	0.501
1135.500	660.982	79.997	19.994	100.009	20.223	1.821	0.501
1135.999	661.220	79.998	19.995	100.010	20.219	2.192	0.497
1136.499	661.501	79.998	19.995	100.015	20.220	2.101	0.506
1136.999	661.761	79.997	19.994	100.019	20.222	1.951	0.530
1137.499	662.015	79.998	19.995	100.025	20.224	1.764	0.528
1138.000	662.271	79.997	19.994	100.031	20.218	2.246	0.512
1138.501	662.511	79.998	19.994	100.034	20.228	1.486	0.503
1139.000	662.747	79.997	19.995	100.030	20.222	1.941	0.486
1139.499	663.007	79.997	19.994	100.026	20.216	2.402	0.486
1139.999	663.250	79.999	19.995	100.023	20.220	2.050	0.499
1140.499	663.492	79.997	19.995	100.017	20.216	2.378	0.494
1140.999	663.775	79.997	19.994	100.012	20.223	1.836	0.505
1141.500	664.013	79.997	19.994	100.010	20.224	1.802	0.523
1142.000	664.280	79.997	19.995	100.008	20.224	1.764	0.513
1142.499	664.506	79.997	19.995	100.003	20.223	1.865	0.499
1142.999	664.769	79.997	19.995	100.004	20.220	2.047	0.491
1143.499	665.020	79.997	19.995	100.004	20.223	1.890	0.501
1143.999	665.297	79.997	19.995	100.004	20.219	2.166	0.521
1144.500	665.535	79.999	19.996	100.007	20.219	2.124	0.521
1145.000	665.809	79.997	19.995	100.012	20.222	1.919	0.514
1145.499	666.052	79.996	19.995	100.015	20.221	2.013	0.515
1146.000	666.271	79.997	19.996	100.016	20.221	2.030	0.489
1146.500	666.550	79.998	19.995	100.017	20.220	2.091	0.480
1146.999	666.767	79.999	19.995	100.015	20.220	2.076	0.497
1147.499	667.012	79.997	19.996	100.010	20.217	2.323	0.479
1147.999	667.270	79.996	19.995	100.009	20.223	1.865	0.483
1148.499	667.527	79.998	19.995	100.014	20.223	1.850	0.509
1148.999	667.813	79.997	19.994	100.019	20.223	1.856	0.529
1149.500	668.032	79.999	19.996	100.025	20.224	1.810	0.524
1150.000	668.327	79.996	19.994	100.032	20.220	2.104	0.509
1150.500	668.541	79.999	19.996	100.035	20.216	2.416	0.511
1151.000	668.811	79.998	19.997	100.034	20.215	2.449	0.496
1151.499	669.086	79.998	19.996	100.030	20.223	1.882	0.514
1152.000	669.322	80.000	19.995	100.024	20.214	2.561	0.528
1152.500	669.558	80.000	19.997	100.018	20.224	1.752	0.492
1152.999	669.851	79.999	19.996	100.013	20.219	2.158	0.501
1153.499	670.079	79.999	19.995	100.006	20.219	2.148	0.525
1153.999	670.354	79.998	19.995	100.004	20.220	2.051	0.512
1154.499	670.604	79.999	19.994	100.006	20.222	1.942	0.514
1155.000	670.890	79.999	19.996	100.005	20.220	2.099	0.530
1155.500	671.104	79.999	19.995	100.004	20.221	1.969	0.518
1156.000	671.373	79.998	19.994	100.003	20.215	2.451	0.492
1156.500	671.631	79.999	19.995	100.003	20.217	2.290	0.505
1156.999	671.862	80.000	19.994	100.001	20.219	2.145	0.508
1157.499	672.126	80.000	19.996	100.002	20.214	2.562	0.492
1157.999	672.360	79.998	19.995	100.004	20.217	2.286	0.496
1158.499	672.619	79.997	19.995	100.007	20.217	2.305	0.495
1158.999	672.898	79.999	19.995	100.007	20.220	2.106	0.516
1159.499	673.152	79.997	19.996	100.009	20.221	2.018	0.535
1159.999	673.418	79.998	19.995	100.011	20.222	1.963	0.526
1160.499	673.659	79.998	19.994	100.010	20.223	1.856	0.514
1160.999	673.932	79.997	19.994	100.011	20.214	2.567	0.511
1161.499	674.203	79.998	19.995	100.016	20.218	2.261	0.529
1161.999	674.464	79.998	19.996	100.016	20.216	2.403	0.538
1162.499	674.665	79.996	19.995	100.018	20.216	2.380	0.497
1163.000	674.914	79.996	19.995	100.022	20.212	2.726	0.456
1163.500	675.176	79.997	19.996	100.025	20.217	2.275	0.480
1163.999	675.422	79.996	19.997	100.022	20.218	2.213	0.510
1164.499	675.625	79.998	19.996	100.020	20.222	1.955	0.478
1164.999	675.920	79.996	19.995	100.017	20.216	2.355	0.473
1165.499	676.166	79.995	19.996	100.016	20.219	2.125	0.520
1165.999	676.458	79.996	19.995	100.009	20.217	2.332	0.540
1166.499	676.655	79.997	19.996	100.008	20.217	2.296	0.513
1167.000	676.968	79.996	19.996	100.010	20.219	2.162	0.500
1167.500	677.214	79.996	19.995	100.011	20.216	2.353	0.535
1167.999	677.457	79.997	19.996	100.012	20.220	2.093	0.524
1168.499	677.705	79.994	19.996	100.014	20.215	2.462	0.490
1168.999	677.965	79.997	19.996	100.017	20.219	2.152	0.499
1169.499	678.206	79.996	19.997	100.020	20.221	1.999	0.504
1170.000	678.457	79.995	19.995	100.019	20.217	2.281	0.497
1170.500	678.696	79.995	19.996	100.014	20.216	2.401	0.492
1171.000	678.946	79.996	19.997	100.012	20.214	2.512	0.490
1171.500	679.186	79.994	19.996	100.013	20.216	2.407	0.489
1172.000	679.448	79.995	19.996	100.012	20.221	1.982	0.496
1172.500	679.698	79.995	19.996	100.011	20.220	2.053	0.507
1172.999	679.985	79.995	19.995	100.013	20.222	1.909	0.524
1173.499	680.212	79.997	19.997	100.015	20.217	2.303	0.525
1173.999	680.452	79.996	19.996	100.013	20.223	1.835	0.491
1174.499	680.742	79.996	19.996	100.013	20.214	2.523	0.498
1174.999	680.951	79.994	19.996	100.015	20.219	2.129	0.514
1175.499	681.224	79.995	19.995	100.014	20.218	2.225	0.491
1175.999	681.480	79.994	19.996	100.011	20.216	2.357	0.505
1176.499	681.689	79.994	19.996	100.012	20.217	2.349	0.497
1176.999	681.933	79.996	19.996	100.012	20.217	2.328	0.459
1177.499	682.167	79.994	19.996	100.010	20.213	2.619	0.466
1177.999	682.450	79.996	19.997	100.009	20.221	2.041	0.497
1178.500	682.723	79.996	19.996	100.010	20.220	2.116	0.536
1179.000	682.973	79.995	19.996	100.007	20.222	1.961	0.539
1179.499	683.200	79.996	19.996	100.003	20.222	1.944	0.501
1180.000	683.410	79.996	19.997	100.004	20.218	2.269	0.457
1180.500	683.648	79.996	19.997	100.005	20.221	2.028	0.442
1180.999	683.945	79.997	19.997	100.005	20.218	2.267	0.491
1181.499	684.169	79.997	19.996	100.009	20.214	2.525	0.528
1182.000	684.436	79.996	19.996	100.009	20.217	2.307	0.507
1182.500	684.668	79.996	19.996	100.008	20.216	2.363	0.495
1182.999	684.927	79.996	19.996	100.010	20.216	2.359	0.495
1183.499	685.168	79.997	19.995	100.012	20.215	2.495	0.495
1183.999	685.462	79.996	19.995	100.011	20.219	2.154	0.518
1184.499	685.683	79.995	19.995	100.011	20.222	1.896	0.525
1185.000	685.940	79.997	19.995	100.011	20.219	2.189	0.496
1185.500	686.195	79.996	19.994	100.010	20.216	2.359	0.495
1185.999	686.415	79.997	19.995	100.011	20.221	1.997	0.494
1186.499	686.664	79.995	19.995	100.012	20.215	2.441	0.472
1186.999	686.935	79.997	19.996	100.013	20.221	2.016	0.494
1187.499	687.155	79.995	19.994	100.013	20.218	2.202	0.505
1187.999	687.435	79.997	19.995	100.013	20.223	1.823	0.496
1188.499	687.657	79.994	19.994	100.010	20.226	1.636	0.501
1189.000	687.882	79.995	19.995	100.007	20.217	2.302	0.474
1189.500	688.139	79.995	19.995	100.008	20.223	1.888	0.464
1189.999	688.394	79.996	19.995	100.009	20.224	1.743	0.497
1190.499	688.624	79.996	19.995	100.014	20.220	2.066	0.499
1190.999	688.902	79.996	19.995	100.019	20.218	2.252	0.497
1191.499	689.124	79.995	19.995	100.020	20.220	2.058	0.504
1192.000	689.351	79.997	19.995	100.019	20.214	2.519	0.474
1192.500	689.628	79.995	19.994	100.018	20.219	2.181	0.476
1193.000	689.844	79.998	19.995	100.012	20.220	2.051	0.498
1193.500	690.131	79.995	19.996	100.008	20.216	2.365	0.498
1193.999	690.349	79.995	19.995	100.010	20.217	2.284	0.504
1194.499	690.568	79.995	19.994	100.010	20.221	2.001	0.471
1194.999	690.845	79.995	19.995	100.011	20.220	2.078	0.467
1195.499	690.993	79.996	19.994	100.012	20.218	2.221	0.460
1195.999	691.299	79.997	19.994	100.014	20.218	2.252	0.439
1196.499	691.544	79.996	19.995	100.012	20.218	2.200	0.502
1197.000	691.797	79.995	19.995	100.012	20.220	2.051	0.525
1197.500	692.038	79.996	19.995	100.011	20.219	2.143	0.496
1197.999	692.279	79.996	19.995	100.010	20.218	2.271	0.488
1198.499	692.525	79.997	19.995	100.007	20.221	2.036	0.484
1198.999	692.754	79.996	19.993	100.006	20.216	2.372	0.481
1199.499	693.038	79.998	19.995	100.005	20.221	2.001	0.494
1199.999	693.286	79.997	19.996	100.004	20.215	2.491	0.523
1200.499	693.500	79.996	19.994	100.002	20.221	2.024	0.497
1200.999	693.761	79.998	19.995	100.007	20.219	2.187	0.468
1201.499	694.000	79.996	19.995	100.011	20.218	2.233	0.487
1201.999	694.264	79.997	19.995	100.012	20.219	2.193	0.502
1202.499	694.522	79.996	19.994	100.016	20.221	2.005	0.513
1203.000	694.748	79.998	19.994	100.017	20.217	2.302	0.503
1203.500	694.977	79.996	19.995	100.012	20.222	1.944	0.469
1203.999	695.241	79.997	19.995	100.011	20.217	2.334	0.474
1204.499	695.455	79.997	19.995	100.012	20.215	2.495	0.486
1204.999	695.721	79.998	19.995	100.008	20.215	2.451	0.479
1205.499	695.929	79.999	19.996	100.006	20.221	2.018	0.477
1206.000	696.147	79.997	19.994	100.005	20.217	2.286	0.450
1206.500	696.438	79.999	19.996	100.002	20.216	2.370	0.467
1207.000	696.679	79.997	19.996	100.002	20.218	2.252	0.521
1207.500	696.900	79.997	19.995	100.003	20.220	2.085	0.498
1207.999	697.186	79.998	19.995	100.006	20.219	2.169	0.484
1208.499	697.385	79.999	19.996	100.010	20.218	2.202	0.496
1208.999	697.637	80.000	19.994	100.010	20.216	2.397	0.468
1209.499	697.880	79.997	19.993	100.011	20.217	2.334	0.473
1210.000	698.123	79.997	19.995	100.010	20.214	2.512	0.491
1210.500	698.394	79.998	19.995	100.008	20.221	2.022	0.500
1210.999	698.595	79.998	19.996	100.005	20.215	2.456	0.492
1211.499	698.843	79.997	19.995	100.004	20.217	2.305	0.460
1212.000	699.080	79.999	19.995	100.002	20.215	2.495	0.468
1212.500	699.363	79.998	19.995	100.003	20.218	2.252	0.503
1212.999	699.577	79.997	19.995	100.003	20.216	2.370	0.509
1213.499	699.809	79.997	19.995	100.004	20.216	2.426	0.471
1213.999	700.087	79.997	19.994	100.005	20.216	2.380	0.478
1214.499	700.315	79.997	19.996	100.005	20.221	2.001	0.508
1214.999	700.569	79.998	19.995	100.007	20.216	2.393	0.494
1215.500	700.825	79.998	19.994	100.009	20.217	2.282	0.496
1216.000	701.088	79.997	19.995	100.011	20.214	2.525	0.515
1216.499	701.328	79.998	19.995	100.013	20.216	2.385	0.511
1216.999	701.579	79.997	19.994	100.017	20.214	2.538	0.497
1217.499	701.810	79.997	19.996	100.018	20.212	2.686	0.486
1218.000	702.078	79.997	19.996	100.016	20.211	2.760	0.491
1218.500	702.290	79.998	19.994	100.013	20.216	2.424	0.490
1218.999	702.545	79.999	19.995	100.012	20.213	2.648	0.474
1219.499	702.779	79.998	19.995	100.013	20.216	2.418	0.478
1219.999	703.040	79.998	19.996	100.012	20.211	2.747	0.492
1220.499	703.266	79.998	19.994	100.014	20.217	2.334	0.491
1220.999	703.532	79.996	19.995	100.019	20.220	2.089	0.490
1221.499	703.745	79.998	19.996	100.019	20.217	2.285	0.486
1221.999	704.014	79.998	19.994	100.018	20.210	2.836	0.480
1222.500	704.276	79.998	19.995	100.014	20.219	2.153	0.506
1223.000	704.531	79.998	19.995	100.012	20.215	2.503	0.524
1223.499	704.764	79.997	19.994	100.007	20.216	2.388	0.503
1223.999	705.023	79.998	19.995	100.007	20.214	2.558	0.490
1224.499	705.281	79.998	19.995	100.007	20.216	2.365	0.504
1225.000	705.520	79.998	19.995	100.013	20.211	2.749	0.507
1225.500	705.759	79.998	19.995	100.012	20.219	2.198	0.488
1226.000	706.054	79.997	19.993	100.012	20.212	2.677	0.506
1226.500	706.251	79.998	19.996	100.015	20.218	2.233	0.513
1226.999	706.475	79.999	19.996	100.018	20.213	2.606	0.456
1227.499	706.712	79.998	19.995	100.020	20.212	2.677	0.441
1227.999	706.949	79.998	19.995	100.024	20.215	2.472	0.467
1228.500	707.186	79.999	19.997	100.024	20.212	2.679	0.474
1229.000	707.442	79.999	19.996	100.024	20.214	2.512	0.484
1229.499	707.669	79.999	19.997	100.019	20.216	2.372	0.488
1229.999	707.950	79.997	19.995	100.015	20.216	2.416	0.495
1230.499	708.243	79.999	19.996	100.011	20.220	2.120	0.541
1231.000	708.459	79.999	19.996	100.011	20.211	2.734	0.542
1231.500	708.735	79.998	19.995	100.007	20.214	2.539	0.501
1231.999	708.977	79.999	19.994	100.004	20.214	2.541	0.505
1232.499	709.215	79.999	19.996	99.996	20.214	2.541	0.499
1233.000	709.453	79.998	19.995	99.995	20.221	2.024	0.478
1233.500	709.685	79.999	19.996	99.995	20.214	2.506	0.473
1233.999	709.963	79.999	19.996	99.996	20.213	2.627	0.490
1234.499	710.223	79.999	19.995	99.997	20.215	2.472	0.524
1234.999	710.446	79.996	19.995	100.002	20.214	2.542	0.510
1235.499	710.672	79.998	19.995	100.003	20.215	2.460	0.466
1235.999	710.927	79.997	19.994	100.004	20.217	2.305	0.465
1236.499	711.197	79.998	19.997	100.003	20.213	2.604	0.503
1236.999	711.406	79.998	19.996	100.003	20.215	2.495	0.502
1237.499	711.690	79.998	19.996	100.004	20.217	2.302	0.486
1238.000	711.942	79.997	19.996	100.003	20.214	2.518	0.514
1238.500	712.198	79.998	19.995	100.003	20.214	2.566	0.522
1238.999	712.454	79.998	19.995	100.003	20.214	2.506	0.510
1239.499	712.671	79.999	19.995	100.002	20.212	2.694	0.493
1240.000	712.982	79.997	19.995	100.002	20.213	2.650	0.501
1240.500	713.199	79.997	19.996	100.002	20.213	2.623	0.528
1240.999	713.428	79.997	19.996	100.002	20.218	2.248	0.486
1241.500	713.719	79.996	19.994	100.002	20.218	2.246	0.483
1242.000	713.937	79.997	19.996	100.002	20.214	2.527	0.515
1242.499	714.215	79.995	19.995	100.003	20.214	2.552	0.503
1242.999	714.460	79.996	19.995	100.003	20.216	2.426	0.509
1243.499	714.726	79.996	19.996	100.003	20.213	2.592	0.517
1243.999	714.970	79.996	19.997	100.003	20.216	2.365	0.511
1244.499	715.229	79.996	19.996	100.005	20.217	2.296	0.507
1244.999	715.459	79.996	19.995	100.010	20.212	2.701	0.496
1245.499	715.730	79.996	19.995	100.015	20.215	2.476	0.495
1245.999	715.994	79.996	19.995	100.019	20.217	2.300	0.518
1246.499	716.224	79.996	19.995	100.020	20.217	2.281	0.515
1246.999	716.494	79.997	19.996	100.019	20.215	2.460	0.497
1247.499	716.760	79.996	19.995	100.015	20.217	2.279	0.518
1247.999	716.978	79.995	19.995	100.009	20.214	2.556	0.510
1248.499	717.251	79.996	19.996	100.006	20.217	2.281	0.487
1249.000	717.478	79.996	19.996	100.006	20.216	2.386	0.495
1249.500	717.762	79.997	19.996	100.004	20.217	2.336	0.506
1249.999	717.967	79.997	19.995	100.004	20.213	2.615	0.500
1250.499	718.275	79.996	19.995	100.006	20.216	2.357	0.501
1250.999	718.524	79.995	19.995	100.010	20.213	2.648	0.535
1251.500	718.789	79.995	19.994	100.010	20.210	2.820	0.535
1252.000	719.018	79.996	19.996	100.011	20.218	2.244	0.504
1252.500	719.281	79.997	19.996	100.011	20.214	2.516	0.493
1253.000	719.523	79.995	19.995	100.009	20.215	2.476	0.498
1253.499	719.806	79.995	19.995	100.004	20.220	2.118	0.515
1254.000	720.053	79.996	19.996	100.004	20.214	2.568	0.528
1254.500	720.306	79.996	19.996	100.004	20.211	2.740	0.515
1255.000	720.580	79.995	19.997	100.005	20.211	2.801	0.513
1255.500	720.799	79.996	19.996	100.006	20.215	2.432	0.510
1256.000	721.071	79.995	19.995	100.006	20.211	2.797	0.492
1256.500	721.341	79.996	19.995	100.006	20.214	2.514	0.516
1256.999	721.562	79.996	19.997	100.006	20.217	2.313	0.516
1257.499	721.827	79.994	19.995	100.005	20.217	2.334	0.489
1258.000	722.066	79.993	19.996	100.005	20.215	2.434	0.495
1258.500	722.308	79.995	19.996	100.005	20.211	2.803	0.492
1259.000	722.587	79.996	19.997	100.004	20.212	2.713	0.501
1259.500	722.865	79.996	19.996	100.004	20.213	2.640	0.539
1260.000	723.122	79.996	19.996	100.003	20.212	2.690	0.546
1260.500	723.379	79.996	19.997	100.002	20.212	2.667	0.525
1260.999	723.643	79.994	19.996	100.002	20.213	2.581	0.518
1261.499	723.865	79.996	19.997	100.001	20.211	2.784	0.503
1261.999	724.121	79.996	19.996	100.001	20.212	2.732	0.482
1262.499	724.343	79.995	19.996	100.000	20.211	2.742	0.478
1262.999	724.628	79.997	19.997	100.000	20.213	2.581	0.493
1263.499	724.898	79.995	19.996	100.001	20.212	2.690	0.531
1263.999	725.113	79.996	19.995	100.001	20.214	2.560	0.519
1264.499	725.384	79.995	19.996	100.002	20.208	2.975	0.485
1265.000	725.623	79.996	19.996	100.003	20.211	2.753	0.498
1265.500	725.890	79.996	19.998	100.002	20.214	2.531	0.508
1266.000	726.136	79.995	19.996	100.001	20.213	2.589	0.510
1266.499	726.373	79.995	19.996	100.001	20.216	2.397	0.498
1267.000	726.623	79.996	19.996	100.001	20.214	2.558	0.485
1267.500	726.907	79.996	19.996	100.001	20.214	2.543	0.511
1267.999	727.125	79.997	19.996	100.001	20.216	2.361	0.518
1268.499	727.404	79.994	19.996	100.001	20.217	2.328	0.500
1268.999	727.652	79.994	19.996	100.000	20.213	2.642	0.512
1269.499	727.913	79.995	19.995	100.000	20.218	2.210	0.518
1269.999	728.171	79.996	19.996	100.001	20.212	2.694	0.514
1270.499	728.438	79.995	19.995	100.001	20.215	2.499	0.522
1271.000	728.670	79.994	19.995	100.001	20.214	2.550	0.512
1271.500	728.902	79.996	19.995	100.003	20.212	2.684	0.481
1272.000	729.169	79.995	19.995	100.003	20.217	2.330	0.481
1272.500	729.395	79.994	19.997	100.002	20.212	2.705	0.496
1273.000	729.693	79.996	19.995	100.003	20.220	2.089	0.509
1273.499	729.909	79.995	19.995	100.003	20.212	2.667	0.519
1273.999	730.165	79.994	19.995	100.002	20.213	2.619	0.492
1274.499	730.388	79.995	19.995	100.003	20.216	2.420	0.475
1274.999	730.698	79.995	19.995	100.003	20.220	2.110	0.506
1275.499	730.932	79.994	19.995	100.002	20.212	2.690	0.539
1275.999	731.191	79.996	19.994	100.003	20.221	1.999	0.519
1276.499	731.427	79.997	19.994	100.003	20.220	2.055	0.494
1276.999	731.676	79.996	19.995	100.003	20.220	2.084	0.490
1277.499	731.920	79.996	19.996	100.004	20.217	2.323	0.489
1277.999	732.218	79.996	19.995	100.006	20.216	2.392	0.517
1278.499	732.435	79.995	19.995	100.004	20.212	2.663	0.529
1279.000	732.677	79.997	19.994	100.003	20.217	2.296	0.487
1279.500	732.910	79.996	19.996	100.003	20.216	2.424	0.467
1279.999	733.190	79.997	19.995	100.002	20.215	2.432	0.494
1280.499	733.460	79.997	19.996	100.000	20.217	2.300	0.532
1281.000	733.707	79.997	19.995	100.000	20.218	2.200	0.534
1281.500	734.008	79.998	19.995	100.001	20.216	2.407	0.533
1281.999	734.233	79.997	19.996	100.002	20.217	2.332	0.537
1282.499	734.493	79.997	19.996	100.005	20.215	2.483	0.505
1283.000	734.722	79.998	19.995	100.006	20.222	1.923	0.487
1283.500	734.998	79.998	19.996	100.005	20.219	2.141	0.497
1284.000	735.220	79.997	19.994	100.005	20.215	2.435	0.502
1284.500	735.501	79.997	19.995	100.004	20.213	2.621	0.501
1284.999	735.738	79.996	19.995	100.000	20.214	2.527	0.510
1285.499	735.980	79.998	19.995	100.001	20.215	2.445	0.498
1286.000	736.225	79.997	19.996	100.001	20.218	2.256	0.483
1286.500	736.499	79.999	19.996	100.001	20.217	2.325	0.503
1287.000	736.748	79.998	19.996	100.001	20.218	2.229	0.521
1287.500	737.011	80.000	19.995	100.002	20.216	2.384	0.518
1287.999	737.268	79.997	19.995	100.000	20.219	2.160	0.516
1288.499	737.501	79.997	19.996	100.000	20.218	2.223	0.505
1288.999	737.764	79.997	19.995	100.000	20.220	2.106	0.493
1289.499	738.025	79.997	19.995	100.000	20.214	2.554	0.511
1290.000	738.277	79.998	19.996	100.000	20.217	2.294	0.519
1290.500	738.541	79.996	19.997	100.000	20.215	2.499	0.515
1290.999	738.755	79.997	19.996	100.001	20.215	2.483	0.497
1291.499	739.023	79.996	19.995	100.002	20.216	2.399	0.480
1292.000	739.256	79.996	19.995	100.002	20.219	2.173	0.492
1292.500	739.543	79.997	19.996	100.003	20.219	2.164	0.511
1292.999	739.780	79.996	19.996	100.009	20.219	2.168	0.522
1293.499	740.062	79.996	19.994	100.011	20.213	2.617	0.521
1293.999	740.273	79.997	19.996	100.011	20.215	2.504	0.506
1294.499	740.548	79.996	19.995	100.011	20.214	2.535	0.490
1295.000	740.784	79.998	19.996	100.011	20.218	2.202	0.499
1295.500	741.093	79.997	19.994	100.005	20.219	2.179	0.527
1295.999	741.333	79.995	19.995	100.003	20.217	2.294	0.547
1296.499	741.585	79.995	19.994	100.001	20.215	2.433	0.521
1297.000	741.871	79.998	19.996	100.001	20.215	2.483	0.515
1297.500	742.103	79.997	19.994	100.005	20.215	2.453	0.528
1297.999	742.359	79.996	19.994	100.009	20.217	2.282	0.503
1298.499	742.625	79.997	19.994	100.011	20.217	2.313	0.506
1298.999	742.893	79.998	19.995	100.012	20.216	2.392	0.528
1299.499	743.160	79.997	19.995	100.012	20.213	2.629	0.534
1300.000	743.406	79.997	19.996	100.009	20.214	2.560	0.524
