Sample ID:	C:\MCC\MCC Cal\Test\Feather_PillowA_Cover_MCC_30K_min_220106_R3.txt
Sample Weight (mg):	4.55
Heating Rate (C/s):	0.5
Combustor Temp (C):	900
N2 Flow Rate (cc/min):	80
O2 Flow Rate (cc/min):	20
Calibration File:	C:\MCC\MCC Cal\Coeff1 JN10440_30_210304.txt.txt
T Correction Coefficients:	0	1.024463	0
Time Shift (s):	14
*
Time (s)	Temperature (C)	N2 flow rate (cc/min)	O2 flow rate (cc/min)	Flow Rate (cc/min)	Oxygen (%)	HRR (W/g)	Heating rate (C/s)
0.001	113.035	80.012	19.993	104.215	20.073	0.343	-0.020
0.501	113.042	80.012	19.994	104.216	20.075	0.204	-0.024
1.000	113.055	80.012	19.993	104.216	20.075	0.202	0.008
1.500	113.044	80.014	19.994	104.217	20.075	0.221	0.012
2.000	113.053	80.013	19.995	104.219	20.077	0.102	0.000
2.500	113.087	80.012	19.993	104.221	20.074	0.278	0.020
3.000	113.020	80.012	19.994	104.222	20.078	0.043	0.004
3.500	113.049	80.011	19.994	104.222	20.074	0.270	-0.035
4.000	113.014	80.011	19.993	104.222	20.074	0.306	-0.021
4.500	113.020	80.012	19.992	104.220	20.077	0.055	-0.017
5.001	113.026	80.011	19.993	104.217	20.078	0.025	-0.009
5.500	113.010	80.012	19.993	104.216	20.074	0.278	0.000
6.000	113.025	80.011	19.993	104.216	20.074	0.284	-0.006
6.500	112.991	80.013	19.994	104.217	20.076	0.120	-0.010
7.000	112.995	80.011	19.993	104.218	20.078	-0.014	-0.025
7.500	112.970	80.011	19.993	104.221	20.075	0.192	-0.026
8.000	112.974	80.010	19.994	104.221	20.081	-0.196	-0.020
8.500	112.983	80.011	19.995	104.221	20.077	0.053	-0.003
9.001	112.981	80.010	19.992	104.220	20.074	0.290	0.010
9.500	112.997	80.010	19.993	104.223	20.078	0.006	0.010
10.000	113.004	80.011	19.994	104.228	20.076	0.120	0.018
10.500	113.000	80.009	19.993	104.233	20.075	0.222	0.013
11.000	112.997	80.010	19.993	104.238	20.075	0.200	-0.002
11.500	113.020	80.009	19.993	104.240	20.076	0.120	0.006
12.000	112.969	80.011	19.994	104.239	20.076	0.151	-0.004
12.500	112.930	80.008	19.993	104.241	20.079	-0.033	-0.059
13.000	112.962	80.012	19.992	104.244	20.081	-0.192	-0.048
13.500	112.991	80.010	19.992	104.247	20.077	0.118	0.027
14.000	112.971	80.009	19.993	104.252	20.077	0.061	0.035
14.500	112.985	80.009	19.993	104.261	20.077	0.075	0.001
15.000	113.055	80.009	19.993	104.266	20.072	0.475	0.039
15.500	113.055	80.010	19.992	104.272	20.070	0.596	0.077
16.000	113.043	80.011	19.992	104.280	20.067	0.810	0.029
16.500	113.065	80.008	19.993	104.287	20.071	0.530	-0.001
17.000	113.049	80.008	19.993	104.292	20.069	0.681	0.008
17.500	113.098	80.010	19.993	104.295	20.070	0.586	0.020
18.000	113.053	80.010	19.993	104.297	20.064	0.990	0.019
18.500	113.055	80.011	19.993	104.297	20.071	0.545	-0.020
19.000	113.073	80.010	19.994	104.299	20.065	0.955	-0.011
19.500	113.114	80.008	19.993	104.304	20.065	0.943	0.040
20.001	113.132	80.011	19.993	104.308	20.065	0.945	0.059
20.500	113.128	80.009	19.993	104.317	20.064	1.008	0.037
21.000	113.165	80.010	19.993	104.328	20.063	1.106	0.024
21.500	113.206	80.009	19.993	104.338	20.060	1.281	0.055
22.000	113.236	80.010	19.994	104.344	20.061	1.200	0.074
22.500	113.264	80.010	19.994	104.348	20.064	1.046	0.065
23.000	113.251	80.008	19.993	104.352	20.059	1.338	0.037
23.500	113.297	80.008	19.993	104.351	20.061	1.204	0.024
24.000	113.313	80.010	19.994	104.352	20.062	1.148	0.048
24.500	113.363	80.010	19.993	104.353	20.061	1.218	0.064
25.000	113.408	80.008	19.993	104.360	20.060	1.326	0.080
25.500	113.434	80.009	19.993	104.363	20.057	1.528	0.083
26.000	113.511	80.008	19.992	104.369	20.059	1.399	0.087
26.500	113.498	80.010	19.994	104.373	20.053	1.809	0.083
27.000	113.534	80.009	19.994	104.377	20.060	1.311	0.044
27.500	113.621	80.007	19.994	104.375	20.053	1.774	0.073
28.000	113.638	80.010	19.994	104.369	20.057	1.533	0.114
28.500	113.683	80.013	19.994	104.364	20.054	1.752	0.083
29.000	113.742	80.010	19.994	104.361	20.058	1.419	0.083
29.500	113.780	80.010	19.994	104.361	20.055	1.647	0.100
30.000	113.832	80.009	19.993	104.363	20.051	1.967	0.093
30.500	113.871	80.009	19.994	104.367	20.050	1.986	0.090
31.000	113.930	80.010	19.993	104.372	20.052	1.867	0.095
31.500	113.995	80.011	19.994	104.372	20.055	1.655	0.111
32.001	114.056	80.010	19.993	104.374	20.052	1.892	0.125
32.501	114.086	80.009	19.994	104.375	20.048	2.173	0.108
33.001	114.174	80.009	19.993	104.378	20.052	1.873	0.105
33.500	114.228	80.009	19.994	104.382	20.052	1.873	0.130
34.000	114.288	80.008	19.994	104.383	20.053	1.824	0.128
34.500	114.339	80.010	19.994	104.382	20.049	2.061	0.112
35.001	114.380	80.009	19.994	104.384	20.048	2.163	0.102
35.501	114.491	80.010	19.993	104.382	20.047	2.202	0.122
36.000	114.527	80.010	19.994	104.383	20.051	1.941	0.149
36.500	114.611	80.011	19.995	104.388	20.049	2.055	0.133
37.000	114.631	80.008	19.993	104.395	20.051	1.979	0.112
37.500	114.721	80.010	19.996	104.402	20.045	2.361	0.107
38.000	114.795	80.008	19.994	104.409	20.045	2.403	0.137
38.500	114.854	80.009	19.994	104.413	20.045	2.365	0.148
39.001	114.937	80.009	19.994	104.416	20.044	2.428	0.138
39.501	115.025	80.009	19.993	104.417	20.040	2.742	0.157
40.000	115.070	80.007	19.995	104.423	20.042	2.571	0.152
40.500	115.157	80.009	19.994	104.430	20.040	2.766	0.132
41.001	115.228	80.010	19.995	104.435	20.046	2.332	0.145
41.501	115.335	80.011	19.994	104.441	20.040	2.711	0.168
42.000	115.395	80.011	19.993	104.444	20.038	2.895	0.172
42.501	115.488	80.010	19.993	104.445	20.041	2.670	0.160
43.001	115.580	80.009	19.995	104.443	20.038	2.907	0.170
43.500	115.670	80.007	19.993	104.444	20.037	2.948	0.184
44.000	115.742	80.009	19.994	104.447	20.036	3.011	0.172
44.500	115.840	80.010	19.993	104.449	20.040	2.764	0.166
45.000	115.911	80.010	19.993	104.448	20.039	2.827	0.169
45.500	116.016	80.010	19.994	104.447	20.037	2.962	0.172
46.000	116.128	80.010	19.994	104.446	20.040	2.711	0.196
46.500	116.209	80.008	19.993	104.441	20.038	2.888	0.205
47.000	116.316	80.010	19.993	104.443	20.042	2.589	0.191
47.501	116.441	80.011	19.994	104.444	20.037	2.951	0.210
48.001	116.540	80.011	19.995	104.448	20.041	2.682	0.228
48.500	116.628	80.009	19.993	104.447	20.038	2.848	0.206
49.000	116.758	80.011	19.993	104.448	20.038	2.882	0.202
49.501	116.828	80.010	19.994	104.443	20.035	3.078	0.209
50.001	116.936	80.010	19.994	104.438	20.041	2.632	0.189
50.501	117.031	80.009	19.994	104.434	20.043	2.544	0.191
51.000	117.180	80.011	19.993	104.437	20.040	2.746	0.224
51.500	117.286	80.009	19.993	104.440	20.038	2.888	0.250
52.000	117.395	80.008	19.994	104.445	20.038	2.874	0.235
52.500	117.504	80.010	19.994	104.449	20.040	2.754	0.217
53.001	117.627	80.012	19.994	104.452	20.040	2.727	0.225
53.501	117.734	80.010	19.993	104.453	20.039	2.831	0.231
54.001	117.853	80.011	19.994	104.454	20.038	2.886	0.228
54.501	117.975	80.011	19.993	104.455	20.034	3.171	0.234
55.001	118.114	80.009	19.994	104.457	20.037	2.955	0.251
55.500	118.211	80.010	19.994	104.457	20.036	3.045	0.248
56.000	118.347	80.010	19.993	104.456	20.041	2.643	0.235
56.500	118.473	80.010	19.994	104.455	20.037	2.956	0.248
57.000	118.581	80.010	19.993	104.455	20.039	2.770	0.248
57.500	118.694	80.009	19.994	104.455	20.037	2.945	0.227
58.000	118.799	80.011	19.993	104.458	20.041	2.643	0.219
58.500	118.969	80.008	19.993	104.459	20.035	3.091	0.246
59.000	119.113	80.012	19.992	104.459	20.035	3.065	0.295
59.500	119.233	80.009	19.993	104.459	20.037	2.971	0.289
60.000	119.386	80.011	19.995	104.459	20.036	3.024	0.268
60.500	119.543	80.010	19.994	104.457	20.037	2.961	0.292
61.000	119.679	80.011	19.994	104.457	20.037	2.930	0.302
61.501	119.802	80.008	19.994	104.457	20.032	3.301	0.276
62.001	119.924	80.010	19.994	104.457	20.034	3.156	0.252
62.501	120.113	80.010	19.995	104.459	20.036	2.991	0.277
63.000	120.249	80.010	19.994	104.459	20.035	3.122	0.318
63.501	120.380	80.009	19.994	104.459	20.036	3.008	0.297
64.001	120.539	80.010	19.994	104.460	20.036	3.054	0.279
64.500	120.689	80.008	19.995	104.467	20.035	3.087	0.300
65.001	120.852	80.010	19.994	104.472	20.034	3.197	0.311
65.501	120.996	80.009	19.994	104.474	20.036	3.014	0.310
66.001	121.118	80.011	19.994	104.474	20.036	3.040	0.287
66.501	121.285	80.011	19.995	104.473	20.033	3.238	0.278
67.000	121.437	80.010	19.994	104.466	20.035	3.083	0.304
67.501	121.594	80.010	19.994	104.459	20.035	3.087	0.314
68.001	121.742	80.011	19.994	104.464	20.032	3.332	0.307
68.500	121.902	80.011	19.995	104.470	20.038	2.898	0.307
69.001	122.060	80.012	19.995	104.477	20.035	3.114	0.313
69.501	122.231	80.011	19.993	104.482	20.035	3.122	0.323
70.000	122.354	80.011	19.995	104.483	20.028	3.558	0.312
70.500	122.566	80.010	19.994	104.482	20.034	3.160	0.315
71.001	122.709	80.008	19.996	104.479	20.032	3.325	0.345
71.501	122.854	80.010	19.994	104.479	20.033	3.219	0.322
72.001	123.053	80.014	19.994	104.481	20.030	3.427	0.316
72.500	123.228	80.009	19.993	104.487	20.033	3.217	0.359
73.000	123.358	80.011	19.993	104.489	20.033	3.217	0.339
73.500	123.544	80.009	19.994	104.490	20.031	3.370	0.311
74.000	123.706	80.010	19.994	104.489	20.029	3.517	0.332
74.500	123.856	80.011	19.994	104.488	20.031	3.405	0.330
75.000	124.076	80.011	19.994	104.489	20.035	3.095	0.341
75.500	124.223	80.009	19.994	104.489	20.031	3.391	0.368
76.000	124.457	80.008	19.993	104.491	20.028	3.619	0.374
76.500	124.568	80.010	19.993	104.492	20.026	3.723	0.363
77.000	124.735	80.012	19.994	104.493	20.029	3.501	0.312
77.500	124.877	80.009	19.993	104.493	20.029	3.517	0.293
78.000	125.102	80.014	19.994	104.492	20.030	3.454	0.338
78.500	125.309	80.013	19.993	104.492	20.031	3.356	0.400
79.000	125.478	80.012	19.994	104.492	20.028	3.584	0.405
79.500	125.675	80.013	19.993	104.492	20.028	3.582	0.371
80.000	125.841	80.011	19.994	104.492	20.030	3.431	0.364
80.500	126.040	80.013	19.993	104.493	20.033	3.262	0.364
81.000	126.252	80.010	19.993	104.493	20.028	3.586	0.388
81.500	126.377	80.013	19.993	104.493	20.027	3.674	0.374
82.001	126.576	80.013	19.992	104.494	20.030	3.470	0.331
82.501	126.789	80.014	19.994	104.493	20.027	3.668	0.368
83.000	126.917	80.013	19.994	104.493	20.028	3.629	0.376
83.500	127.112	80.011	19.993	104.494	20.025	3.782	0.332
84.000	127.341	80.012	19.992	104.493	20.025	3.837	0.374
84.500	127.547	80.012	19.993	104.493	20.028	3.588	0.430
85.000	127.706	80.011	19.992	104.493	20.029	3.492	0.400
85.500	127.912	80.011	19.993	104.493	20.027	3.651	0.365
86.001	128.137	80.013	19.992	104.493	20.025	3.792	0.398
86.501	128.304	80.013	19.994	104.493	20.025	3.827	0.411
87.000	128.520	80.012	19.992	104.493	20.027	3.682	0.387
87.501	128.707	80.010	19.993	104.493	20.026	3.731	0.393
88.001	128.902	80.013	19.993	104.494	20.026	3.712	0.392
88.501	129.099	80.011	19.993	104.493	20.023	3.920	0.387
89.000	129.299	80.011	19.993	104.493	20.025	3.800	0.395
89.500	129.515	80.009	19.993	104.493	20.026	3.771	0.406
90.001	129.701	80.010	19.992	104.493	20.021	4.093	0.408
90.501	129.909	80.009	19.992	104.493	20.026	3.763	0.398
91.000	130.086	80.009	19.992	104.493	20.030	3.474	0.390
91.500	130.315	80.011	19.994	104.493	20.024	3.867	0.396
92.000	130.517	80.011	19.994	104.493	20.026	3.749	0.418
92.500	130.700	80.010	19.995	104.494	20.028	3.613	0.408
93.000	130.938	80.007	19.993	104.494	20.029	3.533	0.403
93.500	131.156	80.010	19.994	104.493	20.027	3.670	0.439
94.000	131.348	80.010	19.994	104.493	20.026	3.729	0.433
94.500	131.553	80.010	19.994	104.494	20.030	3.456	0.403
95.000	131.778	80.009	19.994	104.494	20.024	3.894	0.414
95.500	132.001	80.007	19.994	104.494	20.024	3.853	0.439
96.000	132.161	80.011	19.994	104.494	20.028	3.568	0.415
96.501	132.423	80.010	19.994	104.494	20.029	3.513	0.403
97.001	132.624	80.009	19.994	104.494	20.025	3.829	0.443
97.500	132.819	80.010	19.994	104.495	20.028	3.621	0.429
98.000	133.031	80.010	19.995	104.496	20.026	3.733	0.401
98.500	133.243	80.010	19.994	104.498	20.026	3.739	0.416
99.000	133.480	80.009	19.994	104.500	20.031	3.411	0.436
99.500	133.683	80.010	19.994	104.501	20.027	3.698	0.444
100.000	133.911	80.008	19.994	104.504	20.027	3.684	0.435
100.500	134.151	80.009	19.993	104.508	20.027	3.649	0.450
101.000	134.359	80.010	19.994	104.508	20.027	3.690	0.458
101.500	134.559	80.007	19.995	104.507	20.026	3.767	0.428
102.000	134.791	80.010	19.993	104.506	20.023	3.959	0.420
102.500	135.009	80.010	19.993	104.503	20.025	3.782	0.441
103.000	135.260	80.009	19.993	104.497	20.029	3.492	0.459
103.500	135.482	80.008	19.994	104.495	20.025	3.796	0.471
104.000	135.689	80.010	19.993	104.495	20.024	3.849	0.451
104.500	135.931	80.009	19.992	104.495	20.026	3.737	0.439
105.000	136.167	80.007	19.993	104.495	20.027	3.690	0.464
105.501	136.356	80.008	19.993	104.496	20.027	3.680	0.452
106.001	136.601	80.007	19.994	104.497	20.025	3.827	0.430
106.500	136.829	80.010	19.993	104.497	20.025	3.822	0.453
107.000	137.076	80.009	19.992	104.497	20.029	3.533	0.474
107.500	137.350	80.008	19.994	104.497	20.027	3.633	0.498
108.000	137.591	80.011	19.994	104.498	20.027	3.633	0.518
108.500	137.818	80.009	19.994	104.497	20.023	3.957	0.491
109.000	138.037	80.009	19.994	104.501	20.028	3.590	0.457
109.500	138.274	80.009	19.993	104.502	20.026	3.737	0.451
110.000	138.502	80.011	19.993	104.502	20.029	3.557	0.460
110.500	138.733	80.010	19.993	104.501	20.025	3.841	0.462
111.000	138.954	80.009	19.994	104.501	20.030	3.472	0.456
111.500	139.203	80.008	19.993	104.497	20.025	3.804	0.461
112.000	139.425	80.009	19.993	104.496	20.032	3.276	0.470
112.500	139.671	80.010	19.994	104.496	20.023	3.955	0.469
113.000	139.872	80.007	19.993	104.498	20.026	3.710	0.457
113.500	140.113	80.010	19.992	104.499	20.027	3.641	0.445
114.001	140.373	80.009	19.993	104.499	20.027	3.663	0.472
114.501	140.606	80.010	19.993	104.499	20.023	3.951	0.497
115.000	140.838	80.010	19.993	104.498	20.028	3.568	0.479
115.501	141.082	80.009	19.994	104.495	20.026	3.721	0.471
116.001	141.325	80.010	19.993	104.495	20.025	3.818	0.481
116.501	141.571	80.009	19.993	104.493	20.030	3.474	0.487
117.001	141.804	80.011	19.993	104.493	20.028	3.600	0.484
117.501	142.044	80.008	19.993	104.495	20.024	3.849	0.477
118.001	142.291	80.009	19.991	104.497	20.030	3.415	0.480
118.500	142.535	80.010	19.994	104.496	20.028	3.582	0.489
119.000	142.770	80.009	19.993	104.497	20.028	3.576	0.485
119.500	142.992	80.010	19.994	104.498	20.024	3.871	0.468
120.000	143.305	80.009	19.993	104.497	20.028	3.629	0.496
120.500	143.490	80.009	19.993	104.497	20.025	3.790	0.517
121.000	143.774	80.008	19.993	104.497	20.025	3.806	0.484
121.501	143.993	80.009	19.994	104.497	20.026	3.745	0.486
122.001	144.264	80.009	19.994	104.497	20.029	3.499	0.496
122.500	144.506	80.008	19.993	104.497	20.028	3.586	0.502
123.000	144.750	80.008	19.993	104.497	20.028	3.615	0.499
123.500	145.033	80.009	19.994	104.497	20.024	3.900	0.506
124.000	145.241	80.009	19.995	104.497	20.028	3.611	0.509
124.500	145.493	80.009	19.994	104.497	20.025	3.839	0.475
125.000	145.748	80.007	19.993	104.497	20.025	3.833	0.483
125.500	145.977	80.009	19.993	104.496	20.026	3.727	0.496
126.000	146.271	80.007	19.995	104.495	20.031	3.405	0.504
126.500	146.524	80.006	19.993	104.496	20.027	3.647	0.535
127.000	146.768	80.009	19.995	104.496	20.031	3.366	0.522
127.500	146.970	80.009	19.995	104.496	20.030	3.470	0.471
128.000	147.239	80.008	19.994	104.496	20.032	3.277	0.458
128.500	147.467	80.008	19.994	104.498	20.029	3.552	0.484
129.000	147.723	80.010	19.994	104.497	20.028	3.605	0.491
129.500	147.976	80.006	19.994	104.496	20.031	3.387	0.497
130.000	148.209	80.007	19.994	104.496	20.030	3.444	0.498
130.500	148.521	80.009	19.994	104.494	20.031	3.360	0.515
131.000	148.692	80.009	19.994	104.494	20.030	3.484	0.513
131.500	148.983	80.008	19.994	104.493	20.032	3.297	0.472
132.000	149.224	80.009	19.994	104.494	20.028	3.564	0.497
132.500	149.499	80.009	19.995	104.493	20.029	3.538	0.524
133.000	149.745	80.009	19.995	104.494	20.025	3.777	0.519
133.500	150.008	80.010	19.995	104.494	20.033	3.216	0.515
134.000	150.242	80.010	19.995	104.494	20.030	3.430	0.502
134.500	150.496	80.010	19.995	104.491	20.029	3.540	0.492
135.000	150.731	80.010	19.995	104.490	20.032	3.293	0.489
135.500	150.967	80.010	19.995	104.490	20.030	3.477	0.480
136.000	151.220	80.009	19.994	104.489	20.027	3.662	0.480
136.500	151.497	80.010	19.994	104.488	20.027	3.674	0.510
137.000	151.747	80.010	19.995	104.488	20.030	3.468	0.528
137.500	152.001	80.011	19.995	104.488	20.026	3.713	0.515
138.000	152.255	80.011	19.995	104.486	20.026	3.715	0.506
138.500	152.485	80.009	19.994	104.484	20.025	3.833	0.497
139.000	152.765	80.009	19.993	104.484	20.033	3.224	0.497
139.500	153.015	80.011	19.994	104.485	20.029	3.521	0.520
140.000	153.240	80.011	19.995	104.487	20.028	3.587	0.502
140.500	153.501	80.009	19.993	104.488	20.028	3.593	0.481
141.000	153.759	80.011	19.994	104.489	20.029	3.497	0.502
141.500	154.034	80.011	19.994	104.489	20.027	3.652	0.526
142.000	154.291	80.010	19.995	104.489	20.028	3.561	0.533
142.500	154.523	80.010	19.994	104.484	20.033	3.222	0.510
143.001	154.775	80.012	19.993	104.477	20.033	3.259	0.487
143.500	155.023	80.009	19.994	104.473	20.030	3.483	0.492
144.000	155.274	80.012	19.995	104.469	20.031	3.390	0.499
144.500	155.522	80.012	19.993	104.468	20.030	3.432	0.499
145.000	155.776	80.009	19.994	104.469	20.030	3.436	0.501
145.500	156.022	80.009	19.994	104.474	20.030	3.463	0.501
146.000	156.306	80.010	19.994	104.478	20.030	3.428	0.515
146.500	156.506	80.010	19.993	104.483	20.029	3.518	0.507
147.000	156.805	80.011	19.994	104.482	20.031	3.359	0.492
147.500	157.069	80.011	19.994	104.486	20.032	3.329	0.531
148.000	157.325	80.008	19.995	104.489	20.037	2.968	0.541
148.500	157.594	80.010	19.994	104.489	20.030	3.455	0.523
149.001	157.841	80.011	19.995	104.485	20.036	3.007	0.521
149.500	158.064	80.010	19.994	104.486	20.036	3.041	0.493
150.000	158.346	80.010	19.995	104.486	20.037	2.925	0.487
150.500	158.556	80.009	19.995	104.485	20.034	3.178	0.498
151.000	158.829	80.011	19.994	104.484	20.032	3.272	0.487
151.500	159.099	80.011	19.995	104.481	20.035	3.066	0.513
152.000	159.339	80.009	19.995	104.479	20.036	3.025	0.527
152.500	159.584	80.012	19.995	104.472	20.030	3.451	0.498
153.000	159.875	80.011	19.994	104.465	20.032	3.333	0.511
153.501	160.064	80.009	19.995	104.460	20.033	3.235	0.508
154.001	160.314	80.009	19.995	104.463	20.034	3.164	0.460
154.500	160.571	80.007	19.994	104.460	20.034	3.145	0.473
155.000	160.832	80.010	19.995	104.460	20.034	3.198	0.513
155.500	161.143	80.009	19.995	104.460	20.033	3.217	0.545
156.000	161.386	80.009	19.994	104.462	20.032	3.288	0.563
156.500	161.656	80.012	19.996	104.460	20.032	3.276	0.534
157.000	161.870	80.010	19.995	104.461	20.034	3.145	0.499
157.500	162.154	80.010	19.995	104.460	20.029	3.526	0.491
158.000	162.403	80.008	19.996	104.461	20.029	3.530	0.515
158.500	162.631	80.010	19.995	104.460	20.030	3.469	0.505
159.000	162.910	80.011	19.995	104.458	20.034	3.180	0.492
159.500	163.161	80.010	19.995	104.456	20.033	3.269	0.519
160.000	163.395	80.011	19.996	104.456	20.030	3.414	0.507
160.500	163.712	80.011	19.994	104.458	20.034	3.151	0.518
161.000	163.953	80.011	19.996	104.456	20.034	3.170	0.554
161.500	164.174	80.010	19.996	104.456	20.033	3.235	0.510
162.000	164.445	80.012	19.996	104.456	20.034	3.153	0.477
162.500	164.729	80.012	19.995	104.456	20.035	3.084	0.524
163.000	164.995	80.013	19.995	104.452	20.035	3.106	0.552
163.500	165.240	80.011	19.996	104.453	20.036	3.051	0.531
164.000	165.505	80.011	19.995	104.453	20.032	3.270	0.511
164.500	165.751	80.011	19.995	104.454	20.031	3.349	0.510
165.000	166.018	80.012	19.996	104.453	20.033	3.249	0.512
165.500	166.258	80.013	19.996	104.453	20.033	3.217	0.510
166.000	166.495	80.012	19.995	104.454	20.035	3.074	0.492
166.500	166.751	80.011	19.995	104.454	20.036	2.996	0.485
167.000	167.025	80.011	19.995	104.453	20.038	2.862	0.511
167.500	167.263	80.012	19.995	104.454	20.036	2.994	0.521
168.000	167.506	80.010	19.994	104.455	20.034	3.170	0.497
168.500	167.793	80.012	19.994	104.456	20.039	2.799	0.506
169.000	168.039	80.011	19.995	104.456	20.038	2.903	0.531
169.500	168.317	80.010	19.994	104.457	20.039	2.797	0.528
170.000	168.559	80.010	19.993	104.457	20.039	2.807	0.522
170.500	168.803	80.011	19.993	104.456	20.039	2.823	0.503
171.000	169.037	80.009	19.994	104.455	20.035	3.056	0.482
171.500	169.290	80.010	19.993	104.455	20.039	2.797	0.482
172.000	169.539	80.009	19.994	104.455	20.038	2.866	0.494
172.500	169.794	80.011	19.993	104.455	20.041	2.685	0.503
173.000	170.068	80.009	19.993	104.455	20.038	2.880	0.516
173.500	170.319	80.010	19.993	104.454	20.039	2.821	0.527
174.000	170.583	80.010	19.994	104.454	20.037	2.945	0.520
174.500	170.832	80.009	19.993	104.455	20.038	2.903	0.514
175.000	171.059	80.011	19.993	104.455	20.037	2.948	0.495
175.500	171.333	80.011	19.994	104.455	20.039	2.776	0.488
176.000	171.591	80.009	19.993	104.456	20.038	2.858	0.516
176.500	171.782	80.010	19.994	104.456	20.038	2.891	0.490
177.000	172.075	80.009	19.994	104.457	20.036	2.986	0.466
177.500	172.338	80.011	19.994	104.457	20.038	2.874	0.520
178.000	172.592	80.009	19.994	104.457	20.035	3.066	0.536
178.500	172.812	80.011	19.993	104.457	20.039	2.803	0.496
179.000	173.102	80.009	19.994	104.457	20.036	3.001	0.492
179.500	173.362	80.010	19.994	104.457	20.036	3.054	0.530
180.000	173.602	80.009	19.994	104.456	20.037	2.952	0.525
180.500	173.854	80.009	19.994	104.453	20.034	3.129	0.496
181.000	174.123	80.010	19.994	104.453	20.033	3.199	0.507
181.500	174.383	80.009	19.993	104.454	20.035	3.123	0.525
182.000	174.607	80.009	19.993	104.454	20.033	3.221	0.506
182.500	174.856	80.010	19.994	104.454	20.038	2.903	0.478
183.000	175.130	80.008	19.994	104.456	20.038	2.911	0.498
183.500	175.372	80.009	19.995	104.456	20.038	2.901	0.519
184.000	175.602	80.008	19.994	104.457	20.043	2.505	0.495
184.500	175.861	80.011	19.994	104.456	20.043	2.518	0.480
185.000	176.107	80.009	19.994	104.455	20.038	2.848	0.496
185.500	176.351	80.010	19.994	104.453	20.036	3.041	0.497
186.000	176.637	80.010	19.994	104.452	20.034	3.141	0.511
186.500	176.880	80.010	19.994	104.451	20.035	3.107	0.530
187.000	177.127	80.009	19.993	104.449	20.039	2.834	0.510
187.500	177.352	80.010	19.994	104.448	20.039	2.827	0.481
188.000	177.566	80.009	19.993	104.449	20.037	2.978	0.455
188.500	177.832	80.009	19.994	104.450	20.043	2.485	0.459
189.000	178.109	80.009	19.994	104.451	20.036	3.042	0.511
189.500	178.349	80.010	19.994	104.451	20.038	2.848	0.530
190.000	178.569	80.010	19.994	104.453	20.038	2.864	0.489
190.500	178.827	80.009	19.993	104.449	20.038	2.846	0.469
191.000	179.097	80.008	19.993	104.444	20.041	2.674	0.503
191.500	179.309	80.009	19.993	104.441	20.036	3.045	0.505
192.000	179.603	80.009	19.993	104.442	20.040	2.762	0.494
192.500	179.849	80.009	19.993	104.441	20.039	2.801	0.523
193.000	180.068	80.009	19.994	104.445	20.033	3.250	0.502
193.500	180.352	80.009	19.993	104.450	20.038	2.885	0.484
194.000	180.584	80.009	19.993	104.449	20.038	2.897	0.509
194.500	180.812	80.009	19.993	104.451	20.040	2.748	0.488
195.000	181.067	80.009	19.994	104.451	20.041	2.652	0.471
195.500	181.287	80.009	19.994	104.446	20.038	2.840	0.479
196.000	181.549	80.009	19.993	104.447	20.037	2.950	0.479
196.500	181.820	80.010	19.993	104.450	20.037	2.921	0.508
197.000	182.050	80.009	19.994	104.450	20.040	2.754	0.517
197.500	182.318	80.010	19.993	104.449	20.039	2.770	0.499
198.000	182.543	80.009	19.994	104.450	20.036	3.046	0.496
198.501	182.801	80.010	19.995	104.446	20.038	2.846	0.488
199.000	183.064	80.010	19.994	104.444	20.037	2.915	0.502
199.500	183.272	80.008	19.994	104.445	20.039	2.789	0.496
200.000	183.556	80.006	19.994	104.446	20.041	2.661	0.482
200.500	183.797	80.009	19.994	104.447	20.038	2.891	0.509
201.000	184.029	80.009	19.993	104.451	20.040	2.767	0.498
201.500	184.273	80.009	19.993	104.452	20.038	2.901	0.474
202.000	184.550	80.009	19.994	104.452	20.033	3.205	0.499
202.500	184.759	80.009	19.994	104.450	20.040	2.720	0.504
203.000	184.984	80.009	19.993	104.447	20.035	3.062	0.460
203.500	185.275	80.009	19.994	104.445	20.037	2.948	0.475
204.000	185.511	80.007	19.993	104.444	20.040	2.718	0.521
204.500	185.760	80.008	19.993	104.443	20.039	2.787	0.505
205.000	186.035	80.008	19.994	104.442	20.039	2.816	0.504
205.500	186.285	80.009	19.993	104.447	20.038	2.902	0.525
206.000	186.525	80.009	19.995	104.447	20.039	2.818	0.507
206.500	186.790	80.009	19.995	104.446	20.035	3.065	0.497
207.000	187.034	80.009	19.993	104.448	20.039	2.781	0.507
207.500	187.249	80.010	19.994	104.451	20.035	3.073	0.485
208.000	187.516	80.009	19.993	104.451	20.040	2.728	0.471
208.500	187.777	80.010	19.994	104.447	20.033	3.230	0.505
209.000	188.030	80.008	19.993	104.443	20.038	2.879	0.521
209.500	188.270	80.011	19.995	104.436	20.042	2.589	0.503
210.000	188.501	80.006	19.993	104.433	20.040	2.716	0.482
210.500	188.732	80.010	19.994	104.431	20.039	2.814	0.466
211.000	188.977	80.010	19.994	104.433	20.037	2.940	0.469
211.500	189.217	80.010	19.994	104.436	20.041	2.639	0.481
212.000	189.489	80.010	19.993	104.439	20.038	2.883	0.498
212.500	189.722	80.010	19.993	104.439	20.039	2.808	0.509
213.000	189.960	80.009	19.994	104.438	20.039	2.808	0.488
213.500	190.219	80.008	19.992	104.438	20.038	2.877	0.484
214.000	190.489	80.009	19.993	104.434	20.041	2.686	0.513
214.500	190.691	80.009	19.993	104.432	20.037	2.965	0.500
215.000	190.978	80.010	19.994	104.430	20.039	2.781	0.480
215.500	191.180	80.010	19.994	104.426	20.041	2.683	0.489
216.001	191.427	80.008	19.994	104.422	20.039	2.792	0.469
216.500	191.689	80.011	19.994	104.423	20.041	2.641	0.479
217.000	191.932	80.010	19.993	104.426	20.039	2.783	0.507
217.500	192.167	80.011	19.993	104.429	20.039	2.814	0.491
218.000	192.409	80.010	19.993	104.428	20.040	2.696	0.477
218.500	192.640	80.010	19.994	104.428	20.038	2.898	0.475
219.000	192.921	80.012	19.995	104.429	20.037	2.969	0.493
219.500	193.176	80.013	19.994	104.428	20.037	2.949	0.524
220.000	193.407	80.011	19.994	104.430	20.033	3.205	0.511
220.500	193.654	80.012	19.993	104.437	20.042	2.584	0.482
221.000	193.882	80.011	19.994	104.437	20.040	2.736	0.477
221.500	194.093	80.009	19.993	104.434	20.038	2.855	0.457
222.000	194.414	80.010	19.994	104.431	20.041	2.630	0.485
222.500	194.629	80.011	19.993	104.424	20.040	2.708	0.534
223.000	194.864	80.010	19.995	104.417	20.038	2.847	0.493
223.500	195.077	80.011	19.995	104.416	20.038	2.887	0.449
224.000	195.367	80.012	19.994	104.418	20.038	2.910	0.476
224.500	195.610	80.011	19.995	104.419	20.035	3.097	0.518
225.000	195.847	80.009	19.994	104.419	20.039	2.802	0.507
225.500	196.106	80.012	19.994	104.418	20.033	3.217	0.488
226.001	196.282	80.011	19.993	104.419	20.036	3.009	0.465
226.500	196.545	80.012	19.994	104.418	20.038	2.899	0.437
227.000	196.811	80.009	19.994	104.418	20.042	2.590	0.484
227.500	197.030	80.010	19.995	104.418	20.036	3.046	0.507
228.000	197.297	80.010	19.994	104.418	20.036	3.051	0.485
228.500	197.549	80.009	19.995	104.417	20.037	2.926	0.503
229.000	197.800	80.010	19.993	104.417	20.037	2.963	0.511
229.500	198.003	80.009	19.994	104.415	20.038	2.887	0.478
230.000	198.272	80.009	19.994	104.416	20.038	2.902	0.463
230.500	198.537	80.008	19.993	104.417	20.035	3.055	0.503
231.000	198.757	80.009	19.994	104.418	20.042	2.602	0.509
231.500	199.007	80.010	19.994	104.418	20.038	2.902	0.478
232.000	199.249	80.010	19.994	104.419	20.037	2.916	0.481
232.500	199.532	80.010	19.994	104.417	20.037	2.922	0.508
233.001	199.718	80.009	19.994	104.418	20.037	2.912	0.497
233.500	199.976	80.009	19.994	104.417	20.042	2.579	0.457
234.000	200.237	80.009	19.993	104.416	20.040	2.749	0.482
234.500	200.466	80.010	19.994	104.416	20.033	3.224	0.505
235.000	200.732	80.008	19.996	104.418	20.037	2.949	0.492
235.500	200.971	80.010	19.996	104.419	20.035	3.063	0.500
236.000	201.198	80.010	19.994	104.424	20.037	2.926	0.486
236.500	201.485	80.009	19.994	104.428	20.039	2.779	0.490
237.000	201.684	80.010	19.995	104.429	20.042	2.624	0.500
237.500	201.948	80.010	19.994	104.428	20.037	2.918	0.474
238.000	202.211	80.011	19.993	104.425	20.036	3.002	0.495
238.500	202.424	80.010	19.995	104.420	20.037	2.945	0.502
239.000	202.691	80.010	19.995	104.417	20.040	2.763	0.478
239.500	202.912	80.010	19.994	104.417	20.038	2.881	0.484
240.000	203.174	80.011	19.993	104.418	20.035	3.122	0.485
240.500	203.376	80.010	19.994	104.418	20.037	2.916	0.474
241.000	203.641	80.011	19.994	104.419	20.039	2.806	0.466
241.500	203.874	80.011	19.994	104.419	20.039	2.822	0.483
242.000	204.137	80.010	19.993	104.419	20.039	2.779	0.497
242.501	204.369	80.009	19.994	104.419	20.039	2.808	0.496
243.000	204.643	80.012	19.993	104.420	20.039	2.808	0.500
243.500	204.877	80.012	19.995	104.419	20.039	2.818	0.507
244.000	205.115	80.013	19.994	104.419	20.038	2.910	0.490
244.500	205.346	80.011	19.993	104.419	20.035	3.075	0.470
245.000	205.614	80.011	19.994	104.417	20.035	3.057	0.484
245.500	205.861	80.012	19.993	104.416	20.040	2.734	0.507
246.000	206.129	80.011	19.994	104.415	20.038	2.857	0.515
246.500	206.369	80.013	19.994	104.417	20.039	2.800	0.511
247.000	206.613	80.011	19.994	104.418	20.038	2.894	0.496
247.500	206.863	80.011	19.994	104.419	20.038	2.902	0.489
248.001	207.115	80.011	19.993	104.420	20.036	2.983	0.498
248.500	207.356	80.011	19.994	104.420	20.037	2.938	0.498
249.000	207.599	80.012	19.994	104.418	20.038	2.904	0.489
249.500	207.833	80.011	19.995	104.417	20.038	2.881	0.481
250.000	208.047	80.011	19.994	104.416	20.039	2.792	0.463
250.500	208.306	80.011	19.994	104.415	20.038	2.857	0.461
251.000	208.590	80.010	19.995	104.415	20.037	2.965	0.508
251.500	208.811	80.010	19.994	104.414	20.036	3.032	0.524
252.000	209.089	80.009	19.995	104.415	20.038	2.873	0.502
252.501	209.321	80.010	19.994	104.415	20.034	3.153	0.504
253.000	209.561	80.008	19.994	104.416	20.033	3.234	0.491
253.500	209.812	80.009	19.994	104.415	20.037	2.947	0.482
254.000	210.057	80.008	19.994	104.416	20.034	3.181	0.494
254.500	210.298	80.008	19.995	104.415	20.038	2.883	0.491
255.000	210.537	80.009	19.994	104.417	20.035	3.112	0.483
255.500	210.786	80.009	19.995	104.418	20.038	2.859	0.484
256.000	211.015	80.009	19.994	104.418	20.037	2.926	0.483
256.500	211.266	80.008	19.995	104.418	20.036	3.024	0.479
257.000	211.518	80.009	19.995	104.418	20.039	2.796	0.492
257.500	211.790	80.008	19.994	104.417	20.034	3.148	0.513
258.000	212.039	80.009	19.993	104.417	20.036	2.997	0.522
258.500	212.268	80.007	19.993	104.417	20.035	3.101	0.500
259.000	212.540	80.008	19.994	104.416	20.039	2.834	0.490
259.500	212.767	80.009	19.995	104.416	20.034	3.169	0.500
260.000	213.042	80.008	19.995	104.417	20.035	3.098	0.501
260.500	213.227	80.008	19.995	104.417	20.035	3.057	0.482
261.000	213.512	80.008	19.994	104.418	20.034	3.157	0.465
261.500	213.776	80.009	19.995	104.419	20.036	2.985	0.509
262.000	213.968	80.009	19.994	104.419	20.035	3.065	0.502
262.500	214.235	80.008	19.995	104.419	20.034	3.136	0.457
263.000	214.445	80.008	19.993	104.419	20.034	3.144	0.468
263.500	214.701	80.009	19.994	104.418	20.036	3.010	0.472
264.000	214.985	80.009	19.994	104.416	20.034	3.177	0.503
264.500	215.214	80.010	19.995	104.416	20.037	2.914	0.527
265.000	215.483	80.009	19.993	104.416	20.038	2.890	0.506
265.500	215.730	80.010	19.994	104.418	20.038	2.906	0.507
266.000	215.939	80.010	19.994	104.418	20.038	2.853	0.486
266.500	216.170	80.009	19.994	104.417	20.036	3.024	0.448
267.000	216.437	80.009	19.993	104.417	20.033	3.255	0.469
267.500	216.673	80.010	19.994	104.419	20.034	3.147	0.500
268.000	216.920	80.008	19.993	104.419	20.036	3.049	0.493
268.500	217.206	80.010	19.994	104.420	20.037	2.967	0.508
269.000	217.403	80.009	19.993	104.421	20.038	2.845	0.508
269.500	217.661	80.010	19.994	104.420	20.039	2.794	0.470
270.000	217.904	80.009	19.994	104.418	20.036	2.991	0.478
270.501	218.184	80.009	19.993	104.416	20.038	2.841	0.512
271.000	218.390	80.009	19.993	104.416	20.036	3.002	0.505
271.500	218.659	80.010	19.994	104.415	20.032	3.330	0.480
272.000	218.961	80.010	19.994	104.415	20.034	3.173	0.523
272.500	219.148	80.010	19.993	104.414	20.036	3.022	0.530
273.000	219.365	80.010	19.995	104.414	20.034	3.139	0.446
273.500	219.634	80.010	19.993	104.414	20.036	3.002	0.445
274.000	219.878	80.010	19.994	104.413	20.039	2.820	0.500
274.500	220.104	80.012	19.994	104.414	20.032	3.332	0.491
275.000	220.356	80.010	19.994	104.414	20.035	3.094	0.474
275.500	220.622	80.010	19.994	104.414	20.037	2.920	0.498
276.000	220.875	80.010	19.994	104.414	20.040	2.765	0.519
276.500	221.114	80.011	19.994	104.414	20.040	2.726	0.505
277.000	221.322	80.009	19.993	104.414	20.040	2.753	0.470
277.501	221.608	80.009	19.994	104.413	20.037	2.928	0.471
278.000	221.860	80.009	19.994	104.414	20.032	3.271	0.516
278.500	222.085	80.010	19.994	104.414	20.031	3.348	0.508
279.000	222.354	80.010	19.994	104.414	20.032	3.287	0.485
279.500	222.585	80.008	19.994	104.415	20.031	3.357	0.497
280.000	222.820	80.010	19.995	104.415	20.031	3.361	0.483
280.500	223.111	80.011	19.994	104.416	20.035	3.071	0.496
281.000	223.344	80.009	19.995	104.416	20.032	3.336	0.525
281.500	223.598	80.009	19.994	104.415	20.030	3.414	0.505
282.000	223.856	80.008	19.995	104.414	20.033	3.255	0.499
282.500	224.060	80.009	19.995	104.414	20.032	3.340	0.487
283.000	224.309	80.010	19.994	104.408	20.031	3.352	0.458
283.500	224.585	80.008	19.994	104.407	20.032	3.279	0.490
284.000	224.834	80.009	19.994	104.407	20.034	3.189	0.525
284.500	225.091	80.010	19.994	104.408	20.031	3.356	0.515
285.000	225.305	80.009	19.994	104.408	20.031	3.371	0.488
285.500	225.562	80.010	19.994	104.413	20.028	3.589	0.471
286.000	225.805	80.009	19.994	104.414	20.033	3.248	0.485
286.500	226.071	80.008	19.994	104.414	20.032	3.310	0.504
287.000	226.314	80.010	19.994	104.414	20.036	3.040	0.510
287.501	226.539	80.007	19.994	104.414	20.032	3.289	0.489
288.000	226.782	80.009	19.995	104.413	20.032	3.281	0.468
288.500	227.060	80.008	19.993	104.413	20.031	3.387	0.495
289.000	227.325	80.008	19.993	104.412	20.029	3.503	0.532
289.500	227.555	80.008	19.994	104.412	20.036	3.047	0.519
290.000	227.827	80.007	19.994	104.412	20.033	3.222	0.499
290.500	228.091	80.008	19.994	104.413	20.032	3.299	0.519
291.000	228.322	80.009	19.994	104.414	20.030	3.458	0.516
291.500	228.540	80.009	19.994	104.415	20.030	3.412	0.472
292.000	228.810	80.009	19.994	104.415	20.034	3.157	0.468
292.500	229.043	80.008	19.995	104.415	20.033	3.208	0.495
293.001	229.321	80.010	19.994	104.413	20.034	3.152	0.507
293.501	229.542	80.009	19.992	104.413	20.030	3.420	0.505
294.000	229.800	80.009	19.994	104.413	20.030	3.418	0.488
294.500	230.045	80.010	19.993	104.413	20.029	3.518	0.491
295.000	230.259	80.008	19.993	104.413	20.029	3.520	0.481
295.500	230.539	80.009	19.993	104.415	20.028	3.566	0.477
296.000	230.778	80.010	19.994	104.415	20.029	3.487	0.506
296.500	231.057	80.010	19.994	104.415	20.030	3.446	0.518
297.000	231.268	80.010	19.993	104.415	20.027	3.664	0.504
297.501	231.535	80.011	19.993	104.415	20.028	3.603	0.484
298.000	231.786	80.011	19.993	104.414	20.024	3.903	0.498
298.500	232.009	80.010	19.993	104.414	20.026	3.736	0.496
299.000	232.258	80.012	19.993	104.413	20.027	3.648	0.473
299.500	232.498	80.012	19.993	104.413	20.027	3.687	0.481
300.000	232.743	80.013	19.993	104.412	20.031	3.405	0.487
300.500	232.992	80.012	19.994	104.413	20.032	3.332	0.490
301.000	233.277	80.012	19.995	104.414	20.028	3.615	0.514
301.500	233.520	80.012	19.993	104.414	20.032	3.283	0.531
302.000	233.794	80.010	19.994	104.416	20.030	3.446	0.522
302.500	234.022	80.010	19.994	104.417	20.031	3.354	0.509
303.000	234.249	80.008	19.994	104.417	20.027	3.675	0.479
303.500	234.544	80.013	19.995	104.417	20.032	3.302	0.489
304.000	234.754	80.011	19.994	104.418	20.030	3.414	0.514
304.500	235.016	80.010	19.994	104.418	20.029	3.487	0.489
305.000	235.238	80.013	19.993	104.417	20.030	3.414	0.478
305.500	235.463	80.009	19.993	104.416	20.035	3.087	0.465
306.000	235.725	80.011	19.993	104.416	20.027	3.630	0.467
306.500	235.978	80.012	19.994	104.416	20.027	3.640	0.501
307.000	236.224	80.010	19.993	104.416	20.032	3.324	0.507
307.500	236.496	80.010	19.995	104.416	20.025	3.773	0.508
308.000	236.697	80.009	19.994	104.417	20.027	3.636	0.495
308.500	237.008	80.009	19.993	104.417	20.030	3.412	0.493
309.000	237.256	80.009	19.993	104.415	20.026	3.726	0.536
309.500	237.487	80.010	19.995	104.415	20.024	3.842	0.519
310.000	237.722	80.011	19.993	104.415	20.030	3.454	0.472
310.500	238.003	80.011	19.993	104.415	20.025	3.785	0.491
311.000	238.266	80.011	19.993	104.415	20.028	3.591	0.531
311.500	238.474	80.009	19.993	104.416	20.031	3.379	0.508
312.000	238.715	80.010	19.992	104.416	20.028	3.618	0.460
312.500	238.956	80.010	19.994	104.415	20.031	3.387	0.465
313.000	239.205	80.010	19.993	104.413	20.024	3.905	0.486
313.500	239.454	80.009	19.994	104.414	20.026	3.750	0.494
314.000	239.716	80.012	19.993	104.414	20.026	3.752	0.505
314.500	239.970	80.010	19.993	104.414	20.030	3.432	0.513
315.000	240.216	80.009	19.994	104.415	20.031	3.350	0.508
315.500	240.487	80.010	19.994	104.415	20.029	3.544	0.508
316.000	240.670	80.011	19.994	104.415	20.030	3.448	0.485
316.500	240.936	80.011	19.993	104.415	20.026	3.744	0.451
317.000	241.175	80.009	19.993	104.415	20.029	3.530	0.477
317.500	241.453	80.009	19.993	104.413	20.026	3.730	0.511
318.000	241.691	80.010	19.994	104.409	20.031	3.379	0.517
318.500	241.973	80.009	19.994	104.405	20.028	3.559	0.518
319.000	242.221	80.009	19.994	104.405	20.028	3.577	0.525
319.500	242.471	80.009	19.995	104.405	20.028	3.620	0.514
320.000	242.711	80.012	19.993	104.404	20.028	3.618	0.494
320.500	242.960	80.010	19.994	104.409	20.025	3.771	0.489
321.000	243.235	80.010	19.994	104.413	20.028	3.581	0.506
321.500	243.470	80.010	19.993	104.415	20.029	3.550	0.517
322.000	243.701	80.010	19.994	104.414	20.026	3.703	0.489
322.500	243.960	80.011	19.994	104.417	20.030	3.453	0.478
323.000	244.181	80.010	19.993	104.416	20.026	3.746	0.485
323.500	244.447	80.012	19.993	104.415	20.028	3.606	0.483
324.000	244.702	80.012	19.994	104.415	20.024	3.905	0.504
324.500	244.940	80.010	19.993	104.415	20.024	3.864	0.507
325.000	245.191	80.011	19.993	104.415	20.030	3.455	0.491
325.500	245.454	80.011	19.994	104.414	20.028	3.624	0.502
326.000	245.705	80.012	19.994	104.413	20.027	3.638	0.514
326.500	245.971	80.011	19.994	104.413	20.025	3.799	0.515
327.000	246.205	80.013	19.993	104.409	20.029	3.544	0.508
327.501	246.454	80.012	19.993	104.409	20.025	3.838	0.491
328.001	246.715	80.012	19.993	104.410	20.029	3.542	0.497
328.500	246.945	80.011	19.993	104.410	20.022	3.991	0.501
329.000	247.213	80.012	19.994	104.409	20.022	4.042	0.494
329.500	247.428	80.009	19.993	104.411	20.023	3.946	0.490
330.000	247.679	80.013	19.993	104.410	20.026	3.752	0.475
330.500	247.941	80.012	19.993	104.409	20.024	3.913	0.490
331.000	248.152	80.012	19.994	104.409	20.027	3.630	0.493
331.500	248.396	80.013	19.993	104.410	20.025	3.828	0.464
332.000	248.656	80.012	19.994	104.410	20.023	3.930	0.480
332.500	248.945	80.013	19.994	104.409	20.021	4.109	0.526
333.000	249.207	80.013	19.993	104.409	20.022	4.028	0.550
333.500	249.459	80.011	19.994	104.409	20.024	3.883	0.533
334.000	249.698	80.011	19.994	104.408	20.024	3.911	0.503
334.500	249.958	80.011	19.994	104.407	20.023	3.917	0.495
335.000	250.249	80.012	19.994	104.407	20.023	3.944	0.525
335.500	250.501	80.011	19.994	104.409	20.022	4.024	0.547
336.000	250.697	80.009	19.994	104.409	20.023	3.924	0.496
336.500	250.983	80.008	19.994	104.409	20.017	4.413	0.465
337.000	251.227	80.010	19.993	104.407	20.024	3.868	0.506
337.500	251.467	80.010	19.994	104.405	20.019	4.270	0.506
338.000	251.728	80.009	19.993	104.405	20.022	4.038	0.492
338.500	251.990	80.010	19.994	104.405	20.024	3.844	0.512
339.000	252.246	80.011	19.995	104.406	20.020	4.164	0.521
339.500	252.519	80.009	19.993	104.410	20.019	4.215	0.524
340.000	252.742	80.012	19.996	104.411	20.020	4.152	0.512
340.500	253.030	80.009	19.996	104.411	20.025	3.783	0.503
341.001	253.238	80.009	19.995	104.412	20.023	3.926	0.504
341.500	253.480	80.010	19.996	104.411	20.018	4.287	0.473
342.000	253.722	80.008	19.995	104.412	20.022	4.026	0.467
342.500	253.957	80.009	19.994	104.413	20.022	3.985	0.481
343.000	254.218	80.010	19.994	104.411	20.021	4.121	0.487
343.500	254.459	80.010	19.994	104.411	20.023	3.920	0.499
344.000	254.757	80.009	19.994	104.411	20.023	3.950	0.520
344.500	255.004	80.008	19.995	104.411	20.019	4.246	0.542
345.000	255.223	80.007	19.996	104.408	20.021	4.087	0.506
345.501	255.445	80.010	19.994	104.409	20.018	4.328	0.453
346.000	255.720	80.009	19.996	104.408	20.020	4.162	0.469
346.500	255.983	80.007	19.995	104.408	20.023	3.958	0.518
347.000	256.202	80.008	19.994	104.409	20.023	3.932	0.510
347.500	256.473	80.009	19.995	104.412	20.021	4.111	0.486
348.000	256.747	80.009	19.995	104.412	20.020	4.152	0.518
348.500	256.965	80.008	19.995	104.412	20.023	3.914	0.519
349.000	257.254	80.008	19.995	104.412	20.019	4.268	0.499
349.500	257.496	80.009	19.996	104.412	20.019	4.268	0.518
350.001	257.683	80.009	19.995	104.411	20.022	4.052	0.480
350.500	258.004	80.007	19.994	104.409	20.017	4.391	0.469
351.000	258.254	80.010	19.995	104.409	20.022	4.040	0.540
351.500	258.489	80.009	19.994	104.409	20.021	4.089	0.529
352.000	258.735	80.009	19.996	104.408	20.018	4.342	0.483
352.500	259.003	80.007	19.995	104.409	20.024	3.908	0.498
353.000	259.257	80.009	19.995	104.409	20.017	4.375	0.518
353.500	259.519	80.011	19.994	104.409	20.020	4.138	0.519
354.000	259.745	80.009	19.994	104.408	20.019	4.246	0.501
354.500	260.015	80.011	19.995	104.407	20.022	4.003	0.492
355.000	260.232	80.011	19.994	104.404	20.022	4.030	0.492
355.500	260.478	80.011	19.994	104.406	20.017	4.386	0.475
356.000	260.753	80.010	19.993	104.406	20.015	4.503	0.492
356.500	260.974	80.010	19.995	104.406	20.019	4.215	0.508
357.000	261.240	80.011	19.993	104.407	20.016	4.462	0.492
357.500	261.519	80.009	19.993	104.408	20.015	4.538	0.516
358.000	261.731	80.010	19.993	104.406	20.016	4.436	0.518
358.500	261.981	80.010	19.994	104.408	20.015	4.522	0.476
359.000	262.234	80.012	19.993	104.407	20.015	4.528	0.483
359.500	262.488	80.010	19.993	104.408	20.014	4.581	0.505
360.001	262.759	80.010	19.992	104.409	20.011	4.805	0.516
360.501	263.017	80.011	19.993	104.412	20.014	4.566	0.527
361.000	263.265	80.011	19.995	104.412	20.016	4.472	0.518
361.500	263.489	80.009	19.993	104.413	20.011	4.827	0.489
362.000	263.711	80.010	19.994	104.413	20.015	4.509	0.459
362.500	263.983	80.011	19.993	104.415	20.014	4.613	0.470
363.000	264.260	80.010	19.993	104.411	20.014	4.627	0.522
363.500	264.481	80.008	19.993	104.404	20.013	4.666	0.524
364.000	264.772	80.010	19.993	104.403	20.012	4.719	0.505
364.500	265.015	80.009	19.992	104.403	20.016	4.486	0.523
365.000	265.246	80.010	19.994	104.403	20.011	4.780	0.504
365.500	265.508	80.010	19.993	104.406	20.008	5.047	0.484
366.000	265.755	80.009	19.993	104.412	20.011	4.833	0.501
366.500	266.001	80.009	19.993	104.411	20.011	4.790	0.501
367.000	266.254	80.009	19.993	104.412	20.010	4.851	0.496
367.500	266.491	80.009	19.995	104.411	20.010	4.853	0.495
368.000	266.716	80.008	19.994	104.409	20.011	4.792	0.477
368.500	267.003	80.010	19.995	104.408	20.014	4.564	0.487
369.000	267.250	80.009	19.994	104.404	20.012	4.751	0.523
369.500	267.481	80.008	19.993	104.402	20.013	4.647	0.506
370.000	267.739	80.007	19.992	104.403	20.007	5.070	0.484
370.500	267.999	80.008	19.992	104.405	20.008	5.008	0.504
371.000	268.229	80.010	19.993	104.408	20.007	5.116	0.504
371.500	268.480	80.010	19.993	104.413	20.012	4.737	0.486
372.000	268.707	80.008	19.994	104.408	20.007	5.098	0.480
372.500	268.932	80.010	19.994	104.403	20.008	5.058	0.465
373.000	269.201	80.009	19.994	104.403	20.004	5.331	0.473
373.500	269.477	80.008	19.993	104.403	20.002	5.427	0.519
374.000	269.743	80.010	19.993	104.403	20.005	5.261	0.543
374.501	270.008	80.010	19.993	104.410	20.005	5.239	0.537
375.000	270.286	80.009	19.994	104.412	20.006	5.139	0.537
375.500	270.545	80.010	19.993	104.413	20.007	5.078	0.540
376.000	270.751	80.010	19.993	104.412	20.003	5.398	0.501
376.500	271.036	80.009	19.993	104.413	20.010	4.858	0.478
377.000	271.300	80.009	19.993	104.413	20.011	4.803	0.520
377.500	271.486	80.010	19.993	104.415	20.004	5.298	0.500
378.000	271.764	80.009	19.993	104.415	20.004	5.315	0.457
378.500	272.019	80.010	19.993	104.415	20.009	4.978	0.498
379.000	272.271	80.011	19.994	104.415	20.008	5.023	0.520
379.500	272.518	80.009	19.993	104.415	20.006	5.157	0.503
380.000	272.772	80.010	19.992	104.414	20.004	5.328	0.500
380.500	273.012	80.009	19.993	104.413	20.007	5.106	0.497
381.000	273.272	80.012	19.994	104.414	20.005	5.241	0.497
381.500	273.499	80.009	19.993	104.414	20.008	4.998	0.494
382.000	273.783	80.010	19.994	104.412	20.009	4.955	0.499
382.500	274.018	80.012	19.992	104.413	20.007	5.104	0.515
383.000	274.239	80.013	19.993	104.410	20.003	5.347	0.488
383.500	274.532	80.012	19.994	104.406	20.003	5.371	0.485
384.000	274.743	80.009	19.993	104.406	20.003	5.379	0.509
384.500	275.028	80.011	19.993	104.408	20.001	5.545	0.500
385.000	275.285	80.010	19.992	104.408	20.003	5.371	0.519
385.500	275.483	80.010	19.993	104.413	20.001	5.520	0.498
386.000	275.766	80.011	19.993	104.414	20.003	5.394	0.468
386.500	276.013	80.010	19.993	104.412	19.998	5.744	0.506
387.000	276.297	80.010	19.992	104.405	20.000	5.565	0.531
387.500	276.485	80.008	19.992	104.403	19.997	5.824	0.501
388.000	276.727	80.010	19.993	104.402	19.997	5.818	0.450
388.500	276.985	80.012	19.993	104.403	20.003	5.404	0.464
389.000	277.230	80.011	19.993	104.406	19.998	5.724	0.502
389.500	277.496	80.010	19.994	104.413	19.998	5.763	0.507
390.000	277.791	80.010	19.993	104.416	19.994	6.014	0.536
390.500	278.004	80.010	19.993	104.415	19.997	5.795	0.534
391.000	278.252	80.011	19.994	104.415	19.997	5.781	0.485
391.501	278.514	80.011	19.992	104.414	19.998	5.742	0.486
392.001	278.767	80.010	19.994	104.414	19.996	5.867	0.512
392.500	279.055	80.011	19.994	104.413	19.996	5.887	0.528
393.000	279.282	80.010	19.993	104.416	19.994	6.059	0.528
393.500	279.558	80.010	19.993	104.415	19.993	6.118	0.509
394.000	279.789	80.011	19.993	104.416	19.990	6.344	0.505
394.500	280.036	80.011	19.993	104.416	19.992	6.173	0.493
395.000	280.281	80.012	19.995	104.416	19.995	5.989	0.485
395.500	280.506	80.011	19.994	104.415	19.995	5.944	0.481
396.000	280.798	80.011	19.992	104.415	19.991	6.219	0.493
396.500	281.039	80.010	19.993	104.414	19.991	6.238	0.525
397.000	281.275	80.012	19.993	104.413	19.991	6.258	0.505
397.500	281.539	80.011	19.992	104.413	19.995	5.948	0.489
398.000	281.790	80.011	19.993	104.413	19.987	6.521	0.508
398.500	282.006	80.010	19.993	104.413	19.992	6.197	0.491
399.000	282.248	80.011	19.992	104.412	19.992	6.165	0.463
399.500	282.512	80.012	19.993	104.413	19.989	6.358	0.482
400.000	282.764	80.012	19.993	104.414	19.981	6.974	0.511
400.501	283.043	80.012	19.994	104.414	19.986	6.574	0.523
401.000	283.266	80.011	19.993	104.415	19.980	7.023	0.516
401.500	283.533	80.011	19.993	104.415	19.983	6.809	0.496
402.000	283.792	80.012	19.993	104.413	19.981	6.923	0.508
402.500	284.024	80.010	19.993	104.413	19.982	6.899	0.509
403.000	284.270	80.013	19.994	104.413	19.985	6.674	0.485
403.500	284.509	80.012	19.994	104.412	19.981	6.933	0.482
404.000	284.736	80.011	19.995	104.411	19.983	6.817	0.475
404.500	284.991	80.013	19.993	104.413	19.981	6.952	0.474
405.000	285.266	80.012	19.993	104.413	19.978	7.202	0.506
405.500	285.516	80.011	19.994	104.413	19.982	6.895	0.528
406.000	285.715	80.012	19.995	104.415	19.976	7.284	0.487
406.500	285.967	80.013	19.994	104.416	19.978	7.143	0.450
407.000	286.253	80.013	19.994	104.416	19.979	7.088	0.494
407.501	286.483	80.012	19.994	104.416	19.974	7.425	0.528
408.000	286.716	80.010	19.993	104.416	19.979	7.096	0.490
408.500	286.977	80.012	19.994	104.414	19.976	7.323	0.478
409.000	287.239	80.013	19.993	104.414	19.973	7.527	0.508
409.500	287.486	80.013	19.995	104.413	19.976	7.325	0.516
410.000	287.735	80.012	19.993	104.413	19.970	7.749	0.503
410.501	287.990	80.010	19.993	104.413	19.973	7.504	0.501
411.000	288.236	80.011	19.994	104.412	19.972	7.594	0.503
411.500	288.464	80.012	19.994	104.414	19.972	7.608	0.487
412.000	288.694	80.011	19.994	104.415	19.966	8.002	0.465
412.500	288.983	80.011	19.994	104.414	19.966	8.032	0.489
413.000	289.228	80.012	19.994	104.415	19.968	7.918	0.527
413.500	289.484	80.012	19.994	104.415	19.969	7.828	0.517
414.000	289.708	80.010	19.994	104.414	19.968	7.879	0.490
414.500	289.929	80.012	19.995	104.414	19.964	8.169	0.462
415.000	290.216	80.010	19.993	104.415	19.968	7.889	0.477
415.500	290.461	80.012	19.993	104.415	19.964	8.187	0.520
416.000	290.714	80.011	19.994	104.415	19.965	8.083	0.515
416.500	290.998	80.010	19.993	104.415	19.967	7.936	0.518
417.000	291.245	80.008	19.994	104.415	19.965	8.095	0.534
417.500	291.508	80.009	19.993	104.415	19.962	8.291	0.521
418.000	291.692	80.010	19.994	104.415	19.961	8.373	0.478
418.500	291.959	80.009	19.995	104.416	19.961	8.387	0.449
419.000	292.255	80.008	19.994	104.417	19.961	8.372	0.507
419.500	292.470	80.007	19.993	104.417	19.961	8.421	0.537
420.000	292.698	80.011	19.993	104.416	19.965	8.086	0.477
420.500	292.961	80.011	19.993	104.416	19.960	8.480	0.467
421.000	293.202	80.008	19.994	104.415	19.955	8.812	0.497
421.500	293.459	80.009	19.994	104.415	19.958	8.576	0.501
422.000	293.705	80.010	19.995	104.415	19.962	8.299	0.501
422.500	293.935	80.011	19.994	104.416	19.953	8.970	0.490
423.000	294.195	80.009	19.993	104.418	19.955	8.850	0.483
423.500	294.449	80.008	19.994	104.419	19.958	8.593	0.502
424.000	294.688	80.010	19.994	104.419	19.953	8.974	0.504
424.500	294.968	80.012	19.995	104.419	19.955	8.833	0.506
425.000	295.192	80.009	19.994	104.418	19.951	9.120	0.512
425.500	295.460	80.010	19.994	104.419	19.948	9.356	0.498
426.000	295.702	80.009	19.994	104.418	19.947	9.368	0.501
426.500	295.958	80.010	19.994	104.418	19.945	9.503	0.504
427.000	296.206	80.008	19.993	104.422	19.948	9.315	0.500
427.500	296.455	80.009	19.995	104.421	19.945	9.543	0.501
428.000	296.670	80.012	19.994	104.419	19.941	9.833	0.481
428.500	296.934	80.011	19.993	104.419	19.948	9.346	0.471
429.000	297.185	80.011	19.994	104.420	19.940	9.884	0.496
429.500	297.480	80.008	19.994	104.418	19.943	9.658	0.530
430.000	297.697	80.008	19.993	104.421	19.942	9.715	0.529
430.500	297.948	80.009	19.993	104.428	19.939	10.000	0.490
431.000	298.192	80.011	19.997	104.430	19.943	9.666	0.482
431.500	298.449	80.008	19.994	104.433	19.938	10.010	0.498
432.000	298.722	80.010	19.994	104.432	19.941	9.849	0.516
432.500	298.938	80.010	19.995	104.429	19.933	10.373	0.509
433.000	299.225	80.009	19.995	104.423	19.938	10.047	0.496
433.500	299.488	80.009	19.994	104.421	19.934	10.313	0.527
434.000	299.747	80.011	19.994	104.418	19.931	10.539	0.536
434.500	299.984	80.010	19.994	104.423	19.931	10.505	0.509
435.000	300.250	80.009	19.993	104.425	19.937	10.129	0.499
435.500	300.503	80.008	19.994	104.427	19.930	10.606	0.511
436.000	300.754	80.008	19.995	104.434	19.928	10.732	0.511
436.500	301.020	80.008	19.994	104.438	19.929	10.710	0.510
437.000	301.241	80.009	19.994	104.433	19.920	11.319	0.502
437.500	301.466	80.009	19.995	104.436	19.926	10.911	0.467
438.000	301.760	80.009	19.995	104.442	19.928	10.787	0.482
438.500	302.008	80.011	19.993	104.436	19.921	11.254	0.531
439.000	302.230	80.009	19.993	104.434	19.917	11.552	0.506
439.500	302.485	80.009	19.993	104.434	19.923	11.109	0.473
440.000	302.718	80.007	19.995	104.432	19.921	11.223	0.482
440.500	302.960	80.009	19.995	104.431	19.913	11.855	0.481
441.000	303.231	80.011	19.995	104.433	19.916	11.615	0.494
441.500	303.460	80.009	19.995	104.434	19.915	11.655	0.507
442.000	303.750	80.008	19.994	104.437	19.916	11.611	0.510
442.500	303.987	80.008	19.993	104.437	19.908	12.157	0.523
443.000	304.263	80.005	19.994	104.436	19.916	11.637	0.520
443.500	304.478	80.008	19.994	104.438	19.914	11.737	0.502
444.000	304.748	80.008	19.995	104.441	19.907	12.230	0.488
444.500	304.999	80.010	19.995	104.442	19.905	12.370	0.503
445.000	305.251	80.007	19.994	104.446	19.906	12.301	0.511
445.501	305.521	80.009	19.996	104.447	19.909	12.144	0.512
446.000	305.760	80.009	19.993	104.447	19.899	12.868	0.516
446.500	306.057	80.009	19.993	104.450	19.901	12.713	0.523
447.000	306.299	80.008	19.995	104.452	19.899	12.817	0.537
447.500	306.546	80.008	19.994	104.452	19.898	12.911	0.514
448.000	306.762	80.007	19.994	104.453	19.899	12.797	0.476
448.500	307.067	80.011	19.993	104.455	19.894	13.212	0.492
449.000	307.271	80.006	19.995	104.455	19.893	13.269	0.515
449.500	307.547	80.010	19.995	104.455	19.892	13.364	0.495
450.000	307.792	80.008	19.994	104.455	19.890	13.450	0.500
450.500	308.044	80.009	19.995	104.455	19.892	13.350	0.509
451.000	308.287	80.008	19.993	104.456	19.880	14.207	0.496
451.500	308.530	80.008	19.993	104.455	19.889	13.584	0.491
452.000	308.760	80.008	19.994	104.456	19.885	13.808	0.480
452.500	309.060	80.009	19.993	104.456	19.885	13.861	0.502
453.000	309.279	80.008	19.994	104.456	19.876	14.483	0.524
453.500	309.577	80.008	19.993	104.456	19.878	14.353	0.517
454.000	309.791	80.010	19.993	104.457	19.878	14.311	0.514
454.500	310.069	80.009	19.993	104.458	19.873	14.686	0.503
455.000	310.273	80.008	19.993	104.458	19.871	14.833	0.488
455.500	310.536	80.008	19.993	104.458	19.871	14.833	0.474
456.000	310.798	80.011	19.995	104.459	19.871	14.809	0.496
456.500	311.048	80.010	19.993	104.459	19.866	15.225	0.519
457.000	311.315	80.010	19.994	104.458	19.865	15.261	0.514
457.500	311.572	80.011	19.993	104.459	19.864	15.331	0.520
458.000	311.834	80.010	19.992	104.458	19.864	15.337	0.522
458.500	312.094	80.010	19.994	104.458	19.860	15.634	0.521
459.000	312.334	80.011	19.993	104.458	19.857	15.872	0.511
459.500	312.573	80.009	19.993	104.459	19.856	15.906	0.490
460.000	312.861	80.012	19.992	104.461	19.851	16.304	0.503
460.500	313.099	80.010	19.994	104.465	19.845	16.670	0.526
461.000	313.346	80.010	19.995	104.466	19.847	16.531	0.506
461.500	313.577	80.010	19.994	104.468	19.850	16.313	0.481
462.000	313.865	80.012	19.994	104.471	19.843	16.833	0.498
462.500	314.119	80.011	19.993	104.469	19.841	16.971	0.530
463.000	314.333	80.011	19.995	104.467	19.843	16.859	0.505
463.500	314.656	80.011	19.993	104.470	19.839	17.104	0.502
464.000	314.897	80.010	19.992	104.469	19.834	17.499	0.550
464.500	315.128	80.012	19.995	104.466	19.834	17.474	0.518
465.000	315.362	80.011	19.991	104.469	19.831	17.735	0.468
465.500	315.630	80.011	19.993	104.471	19.831	17.729	0.484
466.000	315.833	80.013	19.994	104.467	19.826	18.039	0.487
466.500	316.086	80.012	19.995	104.469	19.825	18.112	0.464
467.000	316.350	80.012	19.993	104.470	19.823	18.307	0.486
467.500	316.592	80.013	19.993	104.467	19.823	18.301	0.511
468.000	316.828	80.010	19.993	104.470	19.817	18.715	0.493
468.500	317.115	80.011	19.993	104.476	19.806	19.522	0.501
469.000	317.376	80.010	19.994	104.481	19.810	19.224	0.535
469.500	317.620	80.013	19.994	104.484	19.810	19.221	0.526
470.000	317.851	80.010	19.994	104.488	19.812	19.046	0.490
470.500	318.119	80.010	19.992	104.489	19.801	19.878	0.487
471.000	318.323	80.010	19.993	104.489	19.798	20.064	0.485
471.500	318.626	80.012	19.993	104.489	19.803	19.719	0.490
472.000	318.861	80.011	19.995	104.492	19.801	19.883	0.523
472.500	319.088	80.011	19.993	104.493	19.796	20.202	0.500
473.000	319.349	80.010	19.993	104.492	19.791	20.587	0.475
473.500	319.616	80.011	19.994	104.493	19.788	20.827	0.508
474.000	319.891	80.012	19.994	104.494	19.784	21.100	0.535
474.500	320.095	80.010	19.993	104.493	19.781	21.316	0.511
475.000	320.335	80.010	19.993	104.493	19.778	21.539	0.462
475.500	320.581	80.012	19.993	104.493	19.775	21.731	0.465
476.000	320.853	80.011	19.993	104.495	19.771	21.988	0.502
476.500	321.089	80.011	19.994	104.494	19.771	22.032	0.513
477.000	321.351	80.010	19.993	104.494	19.771	22.004	0.503
477.500	321.616	80.012	19.994	104.495	19.762	22.676	0.513
478.000	321.855	80.011	19.993	104.496	19.761	22.767	0.515
478.500	322.106	80.013	19.994	104.495	19.757	22.988	0.497
479.000	322.367	80.012	19.994	104.495	19.744	23.950	0.502
479.500	322.617	80.012	19.993	104.496	19.751	23.456	0.512
480.000	322.842	80.011	19.994	104.497	19.743	24.057	0.493
480.500	323.114	80.009	19.994	104.501	19.742	24.086	0.486
481.000	323.377	80.013	19.994	104.504	19.736	24.564	0.516
481.500	323.628	80.012	19.994	104.509	19.734	24.709	0.524
482.000	323.874	80.012	19.994	104.515	19.737	24.458	0.505
482.500	324.120	80.011	19.993	104.521	19.733	24.775	0.495
483.000	324.352	80.011	19.992	104.524	19.721	25.590	0.486
483.500	324.641	80.013	19.994	104.526	19.720	25.653	0.500
484.001	324.871	80.013	19.996	104.529	19.711	26.297	0.520
484.500	325.127	80.012	19.994	104.530	19.710	26.366	0.502
485.000	325.411	80.012	19.993	104.530	19.706	26.706	0.513
485.500	325.639	80.010	19.994	104.530	19.704	26.800	0.526
486.000	325.895	80.012	19.992	104.533	19.695	27.442	0.498
486.500	326.117	80.013	19.994	104.532	19.695	27.481	0.481
487.000	326.421	80.013	19.993	104.531	19.687	28.022	0.502
487.500	326.654	80.009	19.992	104.532	19.684	28.266	0.531
488.000	326.851	80.011	19.994	104.532	19.680	28.521	0.483
488.500	327.127	80.013	19.993	104.532	19.678	28.703	0.452
489.000	327.370	80.013	19.993	104.534	19.670	29.261	0.496
489.500	327.620	80.012	19.993	104.540	19.670	29.294	0.506
490.000	327.870	80.013	19.993	104.545	19.658	30.149	0.496
490.500	328.114	80.013	19.994	104.549	19.654	30.460	0.497
491.000	328.386	80.013	19.994	104.555	19.645	31.045	0.505
491.500	328.652	80.014	19.994	104.562	19.649	30.774	0.527
492.000	328.876	80.013	19.993	104.564	19.639	31.525	0.514
492.500	329.165	80.012	19.993	104.565	19.633	31.946	0.502
493.000	329.417	80.013	19.992	104.568	19.632	31.995	0.527
493.500	329.670	80.014	19.993	104.568	19.625	32.475	0.523
494.000	329.933	80.013	19.992	104.568	19.625	32.530	0.510
494.500	330.158	80.014	19.992	104.568	19.617	33.058	0.502
495.000	330.405	80.012	19.992	104.571	19.607	33.802	0.480
495.500	330.693	80.011	19.993	104.573	19.608	33.735	0.503
496.000	330.904	80.012	19.994	104.574	19.597	34.499	0.517
496.500	331.185	80.011	19.993	104.574	19.587	35.249	0.496
497.000	331.416	80.010	19.993	104.577	19.580	35.741	0.502
497.500	331.680	80.011	19.993	104.577	19.585	35.411	0.504
498.000	331.934	80.011	19.993	104.580	19.575	36.132	0.506
498.500	332.182	80.010	19.993	104.587	19.564	36.866	0.510
499.000	332.439	80.009	19.993	104.592	19.556	37.485	0.503
499.500	332.683	80.009	19.994	104.595	19.555	37.527	0.502
500.000	332.934	80.011	19.994	104.603	19.544	38.312	0.498
500.500	333.188	80.009	19.994	104.607	19.545	38.255	0.500
501.000	333.449	80.010	19.994	104.608	19.531	39.298	0.510
501.500	333.728	80.009	19.994	104.610	19.523	39.880	0.528
502.000	333.997	80.008	19.994	104.613	19.519	40.154	0.544
502.500	334.207	80.010	19.994	104.613	19.516	40.358	0.513
503.000	334.470	80.010	19.993	104.613	19.507	41.025	0.476
503.500	334.742	80.008	19.995	104.614	19.493	42.029	0.504
504.000	334.994	80.011	19.993	104.614	19.494	41.938	0.530
504.500	335.271	80.011	19.994	104.615	19.482	42.775	0.526
505.001	335.480	80.010	19.994	104.621	19.478	43.069	0.507
505.500	335.756	80.009	19.994	104.625	19.464	44.103	0.486
506.000	335.998	80.011	19.993	104.632	19.458	44.507	0.502
506.500	336.256	80.010	19.994	104.640	19.454	44.789	0.509
507.000	336.569	80.012	19.995	104.646	19.447	45.334	0.535
507.500	336.793	80.011	19.994	104.649	19.435	46.224	0.554
508.000	337.050	80.010	19.995	104.652	19.429	46.633	0.509
508.500	337.327	80.010	19.995	104.652	19.417	47.467	0.507
509.000	337.536	80.008	19.994	104.655	19.414	47.712	0.510
509.500	337.831	80.009	19.995	104.657	19.404	48.446	0.495
510.001	338.041	80.011	19.995	104.664	19.392	49.323	0.504
510.501	338.282	80.009	19.994	104.672	19.382	49.983	0.478
511.000	338.568	80.008	19.992	104.679	19.369	50.968	0.489
511.500	338.844	80.010	19.994	104.685	19.363	51.354	0.545
512.000	339.096	80.011	19.994	104.690	19.357	51.846	0.545
512.500	339.386	80.011	19.993	104.691	19.342	52.909	0.535
513.000	339.617	80.011	19.993	104.691	19.337	53.278	0.531
513.500	339.869	80.010	19.993	104.693	19.323	54.300	0.502
514.000	340.147	80.011	19.993	104.699	19.312	55.039	0.507
514.500	340.376	80.010	19.993	104.706	19.299	56.030	0.518
515.000	340.618	80.010	19.993	104.714	19.295	56.292	0.489
515.500	340.878	80.010	19.994	104.721	19.281	57.313	0.486
516.000	341.148	80.010	19.993	104.727	19.269	58.173	0.516
516.500	341.399	80.009	19.995	104.729	19.259	58.858	0.526
517.000	341.648	80.011	19.994	104.731	19.254	59.218	0.511
517.500	341.923	80.011	19.994	104.732	19.237	60.453	0.512
518.000	342.162	80.011	19.994	104.735	19.233	60.789	0.519
518.500	342.472	80.010	19.994	104.741	19.214	62.166	0.532
519.000	342.649	80.010	19.995	104.749	19.205	62.818	0.518
519.500	342.908	80.009	19.992	104.756	19.193	63.689	0.461
520.000	343.196	80.011	19.995	104.762	19.181	64.537	0.491
520.500	343.436	80.010	19.994	104.769	19.172	65.162	0.538
521.000	343.711	80.011	19.995	104.771	19.160	66.058	0.522
521.500	343.961	80.010	19.994	104.772	19.144	67.195	0.520
522.000	344.188	80.012	19.995	104.773	19.131	68.150	0.501
522.500	344.479	80.010	19.994	104.781	19.121	68.877	0.498
523.000	344.697	80.012	19.994	104.788	19.106	69.956	0.513
523.500	344.992	80.011	19.995	104.795	19.084	71.531	0.511
524.000	345.227	80.012	19.994	104.801	19.082	71.656	0.522
524.500	345.482	80.011	19.995	104.809	19.059	73.316	0.510
525.000	345.768	80.009	19.994	104.810	19.050	73.978	0.515
525.500	345.983	80.010	19.995	104.809	19.037	74.906	0.521
526.000	346.236	80.010	19.994	104.810	19.024	75.887	0.484
526.501	346.517	80.010	19.995	104.814	19.009	76.934	0.501
527.000	346.786	80.010	19.994	104.819	19.004	77.330	0.542
527.500	346.994	80.010	19.995	104.826	18.978	79.154	0.514
528.000	347.252	80.009	19.994	104.835	18.962	80.323	0.472
528.500	347.545	80.008	19.993	104.845	18.950	81.174	0.509
529.000	347.827	80.010	19.994	104.853	18.935	82.285	0.562
529.500	348.033	80.009	19.994	104.859	18.919	83.427	0.531
530.000	348.283	80.009	19.995	104.866	18.907	84.288	0.472
530.500	348.531	80.009	19.994	104.872	18.893	85.353	0.477
531.000	348.818	80.008	19.995	104.876	18.876	86.583	0.517
531.500	349.077	80.009	19.994	104.880	18.861	87.619	0.541
532.000	349.331	80.009	19.995	104.885	18.846	88.751	0.529
532.500	349.619	80.008	19.994	104.893	18.828	90.047	0.527
533.000	349.829	80.008	19.994	104.901	18.816	90.878	0.520
533.500	350.114	80.008	19.996	104.909	18.798	92.217	0.496
534.000	350.358	80.009	19.995	104.916	18.780	93.480	0.512
534.500	350.606	80.009	19.995	104.921	18.769	94.305	0.511
535.000	350.871	80.010	19.996	104.923	18.747	95.871	0.503
535.500	351.096	80.008	19.994	104.923	18.741	96.319	0.502
536.000	351.385	80.010	19.995	104.924	18.718	98.012	0.502
536.500	351.618	80.009	19.995	104.932	18.702	99.173	0.517
537.000	351.839	80.010	19.995	104.938	18.682	100.596	0.488
537.500	352.102	80.008	19.994	104.945	18.669	101.526	0.469
538.000	352.372	80.010	19.995	104.954	18.651	102.856	0.509
538.500	352.660	80.011	19.995	104.961	18.634	104.065	0.545
539.000	352.879	80.009	19.994	104.965	18.618	105.238	0.532
539.500	353.106	80.010	19.996	104.973	18.601	106.472	0.476
540.000	353.401	80.009	19.995	104.981	18.578	108.120	0.484
540.500	353.659	80.010	19.995	104.988	18.561	109.362	0.537
541.000	353.934	80.011	19.997	104.994	18.541	110.770	0.543
541.500	354.198	80.011	19.994	104.998	18.530	111.581	0.536
542.000	354.431	80.011	19.994	105.001	18.507	113.281	0.518
542.500	354.680	80.009	19.994	105.004	18.490	114.446	0.490
543.000	354.963	80.011	19.994	105.010	18.472	115.784	0.507
543.500	355.140	80.010	19.994	105.017	18.456	116.923	0.496
544.000	355.422	80.011	19.995	105.024	18.438	118.208	0.459
544.500	355.640	80.012	19.994	105.029	18.421	119.434	0.479
545.000	355.956	80.009	19.992	105.037	18.400	120.942	0.517
545.500	356.204	80.009	19.993	105.040	18.383	122.215	0.549
546.000	356.425	80.012	19.994	105.045	18.371	123.077	0.517
546.500	356.691	80.013	19.994	105.053	18.349	124.649	0.478
547.000	356.956	80.011	19.994	105.061	18.334	125.741	0.509
547.500	357.221	80.010	19.993	105.065	18.317	126.984	0.530
548.000	357.414	80.012	19.993	105.071	18.301	128.165	0.494
548.500	357.726	80.011	19.994	105.075	18.280	129.630	0.482
549.000	357.998	80.012	19.993	105.075	18.264	130.813	0.544
549.500	358.227	80.012	19.995	105.077	18.246	132.129	0.542
550.000	358.477	80.012	19.994	105.082	18.232	133.090	0.490
550.500	358.756	80.011	19.993	105.089	18.217	134.179	0.504
551.000	358.937	80.011	19.993	105.096	18.200	135.460	0.494
551.500	359.264	80.012	19.993	105.103	18.195	135.826	0.484
552.001	359.461	80.011	19.993	105.109	18.168	137.737	0.516
552.501	359.717	80.012	19.994	105.113	18.154	138.743	0.488
553.000	359.981	80.013	19.993	105.114	18.135	140.091	0.486
553.500	360.222	80.012	19.996	105.116	18.122	141.039	0.512
554.000	360.444	80.011	19.993	105.116	18.105	142.315	0.484
554.500	360.708	80.009	19.994	105.117	18.091	143.266	0.475
555.000	360.995	80.012	19.993	105.119	18.078	144.191	0.519
555.500	361.243	80.011	19.994	105.123	18.064	145.218	0.543
556.000	361.472	80.011	19.993	105.130	18.046	146.504	0.506
556.500	361.757	80.011	19.993	105.136	18.037	147.140	0.496
557.000	361.929	80.010	19.994	105.141	18.021	148.321	0.486
557.500	362.274	80.010	19.993	105.147	18.004	149.525	0.488
558.000	362.496	80.011	19.993	105.151	17.997	150.023	0.542
558.500	362.720	80.011	19.993	105.152	17.976	151.527	0.506
559.000	362.950	80.011	19.993	105.153	17.966	152.225	0.450
559.500	363.230	80.010	19.993	105.153	17.947	153.581	0.482
560.000	363.447	80.010	19.993	105.154	17.933	154.632	0.503
560.500	363.707	80.012	19.993	105.154	17.930	154.795	0.487
561.000	363.969	80.011	19.993	105.154	17.930	154.773	0.500
561.500	364.172	80.012	19.993	105.156	17.905	156.575	0.494
562.000	364.418	80.011	19.993	105.158	17.898	157.045	0.457
562.500	364.727	80.011	19.993	105.159	17.898	157.099	0.501
563.000	364.968	80.010	19.994	105.158	17.884	158.031	0.553
563.500	365.248	80.012	19.993	105.159	17.877	158.548	0.536
564.000	365.401	80.013	19.993	105.158	17.869	159.132	0.477
564.500	365.727	80.011	19.992	105.158	17.855	160.124	0.456
565.000	365.924	80.011	19.993	105.158	17.855	160.118	0.501
565.500	366.148	80.013	19.993	105.158	17.842	161.039	0.472
566.000	366.428	80.012	19.993	105.155	17.835	161.548	0.463
566.501	366.720	80.012	19.994	105.153	17.827	162.102	0.538
567.001	366.931	80.012	19.993	105.146	17.827	162.094	0.537
567.500	367.262	80.012	19.994	105.140	17.822	162.388	0.522
568.000	367.432	80.012	19.992	105.135	17.818	162.698	0.521
568.500	367.661	80.013	19.993	105.132	17.812	163.127	0.450
569.000	367.950	80.013	19.993	105.126	17.812	163.057	0.458
569.500	368.384	80.012	19.993	105.123	17.808	163.357	0.621
570.000	368.506	80.012	19.994	105.120	17.808	163.350	0.640
570.500	368.871	80.013	19.994	105.115	17.808	163.354	0.522
571.000	368.967	80.014	19.994	105.109	17.813	162.964	0.474
571.500	369.133	80.011	19.993	105.101	17.814	162.848	0.361
572.000	369.504	80.010	19.992	105.096	17.815	162.794	0.400
572.500	369.410	80.012	19.993	105.085	17.825	162.043	0.407
573.000	370.203	80.012	19.992	105.073	17.830	161.616	0.488
573.500	369.903	80.012	19.993	105.063	17.837	161.081	0.596
574.000	370.115	80.012	19.994	105.057	17.845	160.530	0.202
574.500	370.396	80.012	19.994	105.049	17.850	160.174	0.202
575.000	371.229	80.012	19.993	105.043	17.867	158.926	0.803
575.500	371.080	80.011	19.992	105.039	17.869	158.724	0.899
576.000	371.709	80.011	19.992	105.031	17.878	158.075	0.582
576.500	371.697	80.013	19.994	105.021	17.894	156.918	0.549
577.000	371.825	80.011	19.992	105.014	17.904	156.117	0.366
577.500	372.342	80.011	19.994	105.003	17.922	154.860	0.380
578.000	372.632	80.011	19.993	104.994	17.936	153.790	0.726
578.500	372.465	80.010	19.993	104.987	17.954	152.506	0.466
579.000	373.201	80.012	19.992	104.979	17.969	151.413	0.346
579.500	373.110	80.011	19.993	104.967	17.989	149.927	0.607
580.000	373.595	80.010	19.993	104.955	18.010	148.410	0.519
580.500	373.701	80.009	19.992	104.944	18.033	146.732	0.492
581.000	374.053	80.010	19.995	104.933	18.052	145.361	0.524
581.500	374.227	80.010	19.992	104.919	18.076	143.576	0.492
582.001	374.577	80.008	19.993	104.909	18.097	142.121	0.525
582.500	374.710	80.009	19.992	104.895	18.124	140.110	0.503
583.000	375.073	80.010	19.994	104.880	18.146	138.531	0.489
583.500	375.276	80.010	19.992	104.865	18.171	136.714	0.531
584.000	375.561	80.010	19.992	104.854	18.199	134.701	0.527
584.500	375.846	80.011	19.992	104.839	18.226	132.771	0.529
585.000	376.107	80.011	19.993	104.828	18.255	130.689	0.558
585.500	376.327	80.010	19.993	104.813	18.292	127.990	0.513
586.000	376.582	80.011	19.993	104.799	18.314	126.380	0.478
586.500	376.803	80.010	19.993	104.783	18.350	123.823	0.476
587.000	377.096	80.011	19.994	104.767	18.374	122.083	0.495
587.500	377.378	80.010	19.993	104.752	18.407	119.668	0.544
588.000	377.597	80.010	19.993	104.741	18.442	117.211	0.538
588.500	377.855	80.010	19.993	104.726	18.474	114.923	0.489
589.001	378.157	80.010	19.994	104.708	18.507	112.500	0.519
589.501	378.408	80.010	19.992	104.692	18.540	110.155	0.557
590.000	378.719	80.009	19.992	104.676	18.570	107.971	0.557
590.500	378.959	80.010	19.992	104.658	18.609	105.174	0.556
591.000	379.141	80.011	19.993	104.644	18.644	102.682	0.486
591.500	379.492	80.011	19.993	104.632	18.676	100.397	0.478
592.000	379.772	80.012	19.994	104.621	18.716	97.538	0.582
592.500	379.977	80.010	19.993	104.605	18.755	94.707	0.558
593.000	380.226	80.011	19.993	104.590	18.787	92.465	0.470
593.500	380.482	80.009	19.993	104.574	18.828	89.485	0.480
594.000	380.786	80.012	19.993	104.558	18.863	86.985	0.532
594.500	380.990	80.011	19.993	104.545	18.895	84.735	0.534
595.000	381.248	80.010	19.993	104.534	18.932	82.056	0.485
595.500	381.560	80.010	19.994	104.520	18.974	79.008	0.516
596.000	381.772	80.011	19.995	104.510	19.002	77.005	0.547
596.500	382.052	80.011	19.993	104.495	19.040	74.340	0.508
597.000	382.324	80.011	19.995	104.481	19.074	71.848	0.522
597.500	382.559	80.010	19.994	104.470	19.112	69.190	0.529
598.000	382.844	80.010	19.993	104.463	19.146	66.718	0.513
598.500	383.095	80.010	19.993	104.457	19.175	64.634	0.528
599.000	383.429	80.011	19.994	104.450	19.211	62.091	0.561
599.500	383.652	80.011	19.994	104.445	19.241	59.892	0.571
600.000	383.861	80.010	19.994	104.437	19.275	57.478	0.494
600.500	384.139	80.011	19.994	104.430	19.303	55.499	0.460
601.000	384.423	80.010	19.994	104.423	19.334	53.242	0.525
601.500	384.684	80.010	19.994	104.422	19.368	50.839	0.554
602.000	384.926	80.011	19.994	104.418	19.391	49.140	0.524
602.500	385.224	80.011	19.993	104.417	19.425	46.719	0.521
603.000	385.417	80.011	19.993	104.416	19.455	44.564	0.516
603.500	385.760	80.012	19.994	104.415	19.476	43.074	0.513
604.000	386.001	80.011	19.993	104.413	19.501	41.289	0.560
604.500	386.239	80.011	19.995	104.409	19.529	39.300	0.531
605.000	386.470	80.011	19.995	104.404	19.554	37.536	0.474
605.500	386.759	80.012	19.994	104.400	19.578	35.802	0.494
606.000	387.047	80.010	19.994	104.398	19.598	34.384	0.549
606.500	387.313	80.009	19.993	104.395	19.624	32.524	0.566
607.000	387.571	80.010	19.994	104.395	19.637	31.555	0.538
607.500	387.809	80.011	19.995	104.392	19.661	29.810	0.510
608.000	388.156	80.011	19.995	104.390	19.683	28.285	0.541
608.500	388.374	80.010	19.994	104.385	19.698	27.163	0.575
609.000	388.618	80.010	19.994	104.379	19.715	25.997	0.513
609.500	388.873	80.010	19.995	104.371	19.736	24.505	0.481
610.000	389.116	80.010	19.994	104.369	19.749	23.532	0.498
610.500	389.382	80.009	19.994	104.366	19.770	22.063	0.503
611.000	389.641	80.010	19.995	104.362	19.782	21.196	0.517
611.500	389.881	80.010	19.993	104.356	19.797	20.081	0.512
612.000	390.158	80.010	19.994	104.352	19.812	19.014	0.508
612.500	390.459	80.010	19.993	104.348	19.826	18.039	0.548
613.000	390.716	80.010	19.993	104.342	19.840	17.039	0.568
613.500	390.940	80.010	19.994	104.339	19.849	16.398	0.519
614.000	391.186	80.009	19.994	104.338	19.860	15.573	0.475
614.500	391.474	80.010	19.994	104.338	19.870	14.861	0.502
615.000	391.724	80.011	19.994	104.337	19.884	13.922	0.536
615.500	391.978	80.010	19.994	104.336	19.886	13.761	0.521
616.000	392.268	80.008	19.993	104.336	19.901	12.677	0.524
616.500	392.573	80.008	19.993	104.336	19.908	12.146	0.569
617.000	392.836	80.011	19.995	104.335	19.915	11.695	0.581
617.500	393.015	80.011	19.994	104.336	19.919	11.387	0.505
618.000	393.324	80.009	19.994	104.336	19.934	10.292	0.465
618.500	393.556	80.011	19.993	104.336	19.936	10.143	0.514
619.000	393.840	80.010	19.995	104.337	19.953	8.988	0.529
619.500	394.089	80.010	19.995	104.338	19.948	9.326	0.524
620.000	394.327	80.008	19.994	104.338	19.964	8.196	0.510
620.500	394.589	80.009	19.993	104.338	19.968	7.912	0.493
621.001	394.832	80.009	19.993	104.338	19.967	7.951	0.503
621.500	395.126	80.010	19.994	104.337	19.975	7.369	0.521
622.000	395.379	80.010	19.994	104.337	19.976	7.304	0.542
622.500	395.618	80.010	19.994	104.337	19.982	6.898	0.519
623.000	395.878	80.010	19.994	104.337	19.995	5.977	0.495
623.500	396.166	80.010	19.994	104.336	20.007	5.100	0.524
624.000	396.390	80.010	19.994	104.337	19.992	6.157	0.530
624.500	396.621	80.011	19.994	104.336	19.998	5.759	0.483
625.000	396.908	80.010	19.994	104.337	19.997	5.814	0.486
625.500	397.174	80.011	19.993	104.337	20.001	5.528	0.535
626.000	397.368	80.010	19.994	104.338	20.005	5.249	0.506
626.500	397.711	80.011	19.994	104.338	20.005	5.212	0.498
627.000	397.900	80.011	19.994	104.339	20.013	4.669	0.535
627.500	398.185	80.011	19.994	104.339	20.009	4.914	0.503
628.000	398.465	80.011	19.994	104.339	20.016	4.469	0.519
628.500	398.613	80.012	19.993	104.339	20.015	4.506	0.496
629.000	398.912	80.012	19.994	104.338	20.014	4.618	0.437
629.500	399.155	80.010	19.994	104.338	20.016	4.447	0.495
630.000	399.545	80.012	19.995	104.337	20.022	4.051	0.588
630.500	399.676	80.011	19.995	104.338	20.021	4.110	0.577
631.000	399.919	80.011	19.995	104.338	20.022	3.991	0.447
631.500	400.169	80.011	19.994	104.338	20.021	4.089	0.433
632.000	400.378	80.012	19.994	104.338	20.020	4.162	0.476
632.500	400.677	80.011	19.995	104.338	20.027	3.652	0.483
633.000	400.891	80.009	19.994	104.337	20.025	3.794	0.510
633.500	401.166	80.012	19.995	104.338	20.029	3.524	0.501
634.000	401.416	80.010	19.994	104.338	20.030	3.481	0.507
634.500	401.658	80.011	19.995	104.338	20.025	3.781	0.509
635.000	401.951	80.011	19.994	104.340	20.028	3.581	0.514
635.500	402.164	80.010	19.994	104.340	20.035	3.120	0.520
636.000	402.466	80.011	19.995	104.339	20.033	3.261	0.510
636.500	402.707	80.009	19.995	104.339	20.034	3.181	0.529
637.000	402.895	80.011	19.994	104.340	20.027	3.687	0.486
637.500	403.168	80.010	19.994	104.338	20.032	3.322	0.445
638.000	403.461	80.009	19.993	104.338	20.032	3.326	0.514
638.500	403.691	80.011	19.994	104.338	20.029	3.507	0.545
639.000	403.939	80.009	19.994	104.338	20.031	3.379	0.500
639.500	404.207	80.010	19.994	104.337	20.029	3.530	0.497
640.000	404.457	80.009	19.995	104.338	20.031	3.387	0.518
640.500	404.722	80.011	19.993	104.339	20.036	2.992	0.517
641.000	404.940	80.010	19.995	104.343	20.037	2.924	0.499
641.500	405.186	80.010	19.994	104.349	20.034	3.134	0.474
642.000	405.437	80.011	19.994	104.353	20.034	3.142	0.481
642.500	405.671	80.009	19.992	104.353	20.038	2.871	0.491
643.000	405.925	80.010	19.993	104.353	20.041	2.636	0.487
643.500	406.201	80.010	19.993	104.350	20.032	3.269	0.509
644.000	406.450	80.009	19.993	104.344	20.034	3.161	0.528
644.500	406.691	80.010	19.993	104.341	20.042	2.582	0.507
645.000	406.942	80.010	19.993	104.341	20.040	2.749	0.491
645.500	407.146	80.010	19.993	104.341	20.039	2.836	0.474
646.000	407.436	80.011	19.992	104.341	20.039	2.798	0.475
646.500	407.678	80.012	19.992	104.341	20.038	2.877	0.513
647.000	407.939	80.012	19.993	104.343	20.041	2.644	0.518
647.500	408.194	80.010	19.993	104.347	20.034	3.124	0.510
648.000	408.443	80.012	19.992	104.353	20.039	2.822	0.510
648.500	408.674	80.010	19.993	104.359	20.036	3.024	0.492
649.000	408.897	80.012	19.993	104.361	20.039	2.806	0.467
649.500	409.107	80.013	19.993	104.361	20.036	3.038	0.444
650.000	409.399	80.012	19.992	104.359	20.038	2.902	0.467
650.500	409.650	80.011	19.992	104.353	20.036	3.010	0.522
651.000	409.913	80.013	19.993	104.347	20.034	3.124	0.528
651.500	410.134	80.012	19.992	104.344	20.037	2.945	0.499
652.000	410.379	80.014	19.993	104.346	20.039	2.824	0.476
652.500	410.686	80.013	19.993	104.348	20.037	2.914	0.509
653.000	410.923	80.013	19.992	104.348	20.035	3.112	0.548
653.500	411.144	80.011	19.992	104.348	20.033	3.220	0.501
654.000	411.384	80.012	19.992	104.347	20.041	2.624	0.459
654.500	411.662	80.012	19.993	104.343	20.038	2.881	0.489
655.000	411.926	80.013	19.992	104.338	20.037	2.936	0.530
655.500	412.151	80.012	19.993	104.336	20.037	2.940	0.515
656.000	412.401	80.012	19.993	104.339	20.041	2.651	0.481
656.500	412.673	80.012	19.993	104.344	20.042	2.606	0.498
657.000	412.874	80.012	19.993	104.351	20.041	2.693	0.498
657.500	413.143	80.012	19.992	104.357	20.035	3.067	0.472
658.000	413.397	80.010	19.992	104.361	20.042	2.587	0.496
658.500	413.661	80.012	19.994	104.363	20.039	2.836	0.520
659.000	413.886	80.012	19.994	104.363	20.040	2.746	0.503
659.500	414.116	80.011	19.993	104.357	20.038	2.840	0.472
660.000	414.413	80.011	19.994	104.353	20.038	2.850	0.491
660.500	414.632	80.010	19.993	104.351	20.039	2.773	0.521
661.000	414.890	80.010	19.993	104.347	20.041	2.648	0.496
661.500	415.146	80.009	19.993	104.343	20.040	2.702	0.496
662.000	415.376	80.009	19.994	104.343	20.038	2.840	0.500
662.500	415.606	80.010	19.994	104.343	20.042	2.614	0.473
663.000	415.827	80.012	19.995	104.345	20.041	2.667	0.455
663.500	416.094	80.010	19.993	104.348	20.046	2.273	0.469
664.000	416.345	80.009	19.994	104.348	20.040	2.746	0.503
664.500	416.585	80.010	19.994	104.346	20.041	2.649	0.505
665.000	416.819	80.011	19.993	104.347	20.041	2.675	0.483
665.500	417.078	80.011	19.993	104.346	20.039	2.832	0.484
666.000	417.341	80.010	19.993	104.344	20.044	2.447	0.507
666.500	417.581	80.010	19.993	104.350	20.044	2.424	0.512
667.000	417.837	80.010	19.994	104.354	20.041	2.647	0.499
667.500	418.086	80.008	19.993	104.356	20.045	2.371	0.501
668.000	418.345	80.009	19.994	104.354	20.041	2.644	0.507
668.500	418.635	80.010	19.993	104.357	20.044	2.410	0.529
669.000	418.830	80.010	19.994	104.358	20.040	2.738	0.517
669.500	419.099	80.010	19.994	104.359	20.043	2.487	0.474
670.000	419.387	80.011	19.994	104.359	20.045	2.369	0.510
670.500	419.640	80.008	19.994	104.360	20.040	2.751	0.549
671.000	419.888	80.010	19.993	104.360	20.040	2.704	0.521
671.500	420.137	80.009	19.993	104.358	20.040	2.696	0.499
672.000	420.395	80.011	19.995	104.354	20.045	2.392	0.502
672.500	420.630	80.010	19.993	104.355	20.043	2.526	0.501
673.000	420.924	80.012	19.994	104.358	20.046	2.308	0.511
673.500	421.140	80.010	19.993	104.355	20.043	2.510	0.519
674.000	421.413	80.011	19.994	104.353	20.046	2.324	0.500
674.500	421.688	80.011	19.994	104.353	20.040	2.710	0.518
675.000	421.928	80.011	19.995	104.351	20.040	2.730	0.531
675.500	422.168	80.012	19.992	104.350	20.039	2.783	0.498
676.000	422.452	80.010	19.993	104.349	20.042	2.563	0.502
676.500	422.688	80.011	19.994	104.347	20.045	2.383	0.522
677.000	422.922	80.011	19.993	104.346	20.041	2.655	0.495
677.500	423.222	80.011	19.993	104.346	20.044	2.434	0.502
678.000	423.418	80.011	19.993	104.344	20.039	2.771	0.515
678.500	423.716	80.010	19.993	104.349	20.040	2.755	0.495
679.000	423.959	80.009	19.993	104.352	20.041	2.692	0.517
679.500	424.203	80.010	19.993	104.351	20.045	2.361	0.514
680.000	424.441	80.010	19.994	104.351	20.041	2.641	0.484
680.500	424.723	80.012	19.993	104.350	20.039	2.777	0.501
681.000	424.985	80.011	19.993	104.344	20.043	2.492	0.533
681.500	425.255	80.010	19.993	104.341	20.042	2.553	0.538
682.000	425.482	80.011	19.993	104.345	20.042	2.604	0.514
682.500	425.778	80.010	19.993	104.348	20.039	2.802	0.510
683.000	426.008	80.010	19.992	104.350	20.045	2.402	0.525
683.500	426.242	80.010	19.994	104.350	20.043	2.541	0.495
684.000	426.532	80.011	19.993	104.350	20.046	2.312	0.494
684.500	426.772	80.009	19.993	104.351	20.041	2.646	0.527
685.000	427.006	80.010	19.994	104.352	20.044	2.467	0.502
685.500	427.263	80.009	19.992	104.352	20.047	2.259	0.483
686.000	427.488	80.010	19.993	104.352	20.043	2.504	0.487
686.501	427.774	80.011	19.993	104.353	20.044	2.471	0.496
687.001	428.037	80.010	19.994	104.351	20.043	2.508	0.530
687.501	428.282	80.010	19.994	104.347	20.044	2.441	0.529
688.000	428.538	80.009	19.994	104.347	20.045	2.357	0.505
688.500	428.755	80.011	19.994	104.349	20.041	2.639	0.487
689.000	429.000	80.009	19.993	104.348	20.048	2.185	0.467
689.500	429.279	80.009	19.993	104.347	20.044	2.438	0.493
690.001	429.534	80.010	19.994	104.346	20.042	2.616	0.529
690.501	429.782	80.010	19.994	104.345	20.045	2.400	0.519
691.000	430.067	80.009	19.994	104.344	20.045	2.369	0.517
691.500	430.282	80.010	19.994	104.344	20.044	2.477	0.516
692.000	430.564	80.008	19.994	104.345	20.045	2.361	0.499
692.500	430.809	80.010	19.994	104.346	20.045	2.365	0.512
693.000	431.080	80.008	19.994	104.345	20.042	2.555	0.521
693.500	431.278	80.009	19.994	104.344	20.044	2.447	0.492
694.000	431.578	80.008	19.994	104.346	20.045	2.386	0.483
694.500	431.836	80.009	19.994	104.345	20.041	2.634	0.528
695.000	432.050	80.009	19.993	104.346	20.048	2.139	0.516
695.500	432.304	80.010	19.993	104.353	20.041	2.667	0.470
696.000	432.579	80.010	19.995	104.358	20.050	2.047	0.498
696.500	432.801	80.009	19.995	104.356	20.044	2.428	0.513
697.000	433.103	80.009	19.994	104.355	20.046	2.314	0.510
697.500	433.372	80.009	19.994	104.353	20.044	2.447	0.547
698.000	433.644	80.009	19.993	104.350	20.044	2.420	0.556
698.500	433.878	80.009	19.994	104.347	20.043	2.508	0.524
699.000	434.116	80.009	19.993	104.345	20.043	2.518	0.489
699.500	434.399	80.011	19.993	104.345	20.042	2.610	0.496
700.000	434.636	80.010	19.996	104.346	20.050	2.041	0.520
700.500	434.907	80.010	19.995	104.349	20.046	2.273	0.514
701.000	435.158	80.010	19.994	104.350	20.048	2.188	0.515
701.500	435.416	80.009	19.995	104.352	20.046	2.328	0.516
702.000	435.686	80.010	19.994	104.357	20.045	2.408	0.519
702.500	435.906	80.010	19.993	104.357	20.045	2.351	0.509
703.000	436.172	80.010	19.993	104.353	20.047	2.196	0.488
703.500	436.465	80.009	19.993	104.350	20.046	2.273	0.523
704.000	436.688	80.011	19.993	104.348	20.042	2.592	0.537
704.500	436.930	80.011	19.994	104.345	20.047	2.247	0.490
705.000	437.210	80.009	19.994	104.344	20.042	2.620	0.494
705.500	437.432	80.011	19.992	104.343	20.044	2.445	0.512
706.000	437.689	80.011	19.994	104.342	20.043	2.514	0.491
706.500	437.963	80.012	19.994	104.342	20.047	2.263	0.505
707.000	438.198	80.010	19.993	104.342	20.043	2.483	0.520
707.500	438.461	80.012	19.995	104.346	20.046	2.308	0.504
708.000	438.711	80.011	19.993	104.351	20.049	2.090	0.506
708.500	438.966	80.011	19.994	104.353	20.045	2.341	0.509
709.000	439.230	80.011	19.993	104.353	20.047	2.261	0.512
709.500	439.484	80.011	19.993	104.351	20.046	2.306	0.519
710.000	439.734	80.012	19.993	104.346	20.044	2.473	0.511
710.500	439.988	80.010	19.992	104.341	20.049	2.102	0.504
711.000	440.223	80.011	19.993	104.341	20.043	2.526	0.497
711.500	440.516	80.011	19.993	104.341	20.049	2.108	0.508
712.000	440.730	80.011	19.993	104.342	20.047	2.220	0.517
712.500	441.000	80.011	19.993	104.344	20.050	2.029	0.496
713.000	441.277	80.010	19.993	104.344	20.047	2.202	0.516
713.500	441.516	80.010	19.993	104.343	20.050	2.033	0.531
714.000	441.755	80.010	19.993	104.343	20.045	2.398	0.497
714.500	442.007	80.009	19.993	104.342	20.045	2.394	0.484
715.000	442.261	80.010	19.994	104.342	20.046	2.333	0.498
715.500	442.518	80.011	19.994	104.344	20.046	2.316	0.508
716.000	442.773	80.009	19.994	104.347	20.044	2.410	0.511
716.500	443.012	80.011	19.994	104.349	20.047	2.204	0.503
717.000	443.311	80.010	19.993	104.350	20.051	1.973	0.516
717.500	443.556	80.010	19.993	104.347	20.047	2.241	0.541
718.000	443.802	80.009	19.993	104.344	20.046	2.267	0.517
718.500	444.026	80.012	19.995	104.338	20.050	2.029	0.480
719.000	444.292	80.010	19.994	104.334	20.051	1.945	0.480
719.500	444.540	80.011	19.995	104.333	20.046	2.314	0.502
720.000	444.804	80.011	19.994	104.333	20.046	2.304	0.513
720.500	445.042	80.011	19.994	104.333	20.050	2.049	0.507
721.000	445.346	80.012	19.995	104.337	20.049	2.063	0.522
721.500	445.570	80.009	19.994	104.338	20.051	1.916	0.535
722.001	445.801	80.010	19.994	104.339	20.047	2.204	0.491
722.501	446.035	80.011	19.994	104.340	20.049	2.086	0.459
723.000	446.319	80.011	19.995	104.339	20.051	1.920	0.491
723.500	446.558	80.011	19.995	104.338	20.051	1.928	0.521
724.000	446.837	80.010	19.994	104.337	20.051	1.961	0.520
724.500	447.071	80.012	19.995	104.335	20.052	1.869	0.515
725.000	447.297	80.011	19.994	104.335	20.050	2.041	0.487
725.500	447.599	80.010	19.995	104.335	20.047	2.206	0.494
726.000	447.848	80.011	19.996	104.335	20.047	2.265	0.539
726.500	448.114	80.011	19.994	104.335	20.050	1.986	0.533
727.000	448.378	80.011	19.994	104.336	20.052	1.839	0.523
727.500	448.635	80.012	19.994	104.336	20.050	2.028	0.526
728.000	448.879	80.012	19.994	104.337	20.048	2.155	0.511
728.500	449.094	80.012	19.994	104.337	20.049	2.051	0.480
729.000	449.349	80.011	19.995	104.336	20.053	1.792	0.464
729.500	449.626	80.012	19.995	104.335	20.048	2.147	0.501
730.000	449.887	80.011	19.994	104.334	20.052	1.845	0.535
730.501	450.176	80.011	19.994	104.333	20.049	2.067	0.544
731.000	450.418	80.011	19.993	104.332	20.053	1.782	0.540
731.500	450.676	80.011	19.994	104.333	20.049	2.074	0.515
732.000	450.968	80.012	19.993	104.334	20.053	1.773	0.525
732.500	451.204	80.013	19.994	104.339	20.049	2.082	0.540
733.000	451.426	80.012	19.993	104.340	20.048	2.186	0.493
733.500	451.712	80.012	19.993	104.342	20.053	1.798	0.483
734.000	451.939	80.012	19.994	104.341	20.046	2.280	0.510
734.500	452.168	80.012	19.992	104.341	20.053	1.831	0.484
735.000	452.445	80.013	19.993	104.336	20.054	1.731	0.481
735.501	452.734	80.012	19.993	104.335	20.053	1.774	0.536
736.001	452.965	80.011	19.994	104.334	20.049	2.051	0.543
736.500	453.201	80.013	19.994	104.335	20.051	1.929	0.494
737.000	453.465	80.013	19.993	104.335	20.050	2.031	0.484
737.500	453.732	80.013	19.993	104.336	20.049	2.104	0.516
738.001	453.954	80.013	19.993	104.337	20.049	2.055	0.510
738.501	454.301	80.011	19.993	104.338	20.055	1.669	0.529
739.000	454.508	80.012	19.992	104.338	20.050	1.988	0.561
739.500	454.771	80.012	19.993	104.338	20.048	2.161	0.512
740.000	455.007	80.010	19.993	104.338	20.051	1.949	0.484
740.500	455.273	80.013	19.994	104.337	20.052	1.855	0.501
741.000	455.513	80.010	19.993	104.336	20.051	1.933	0.505
741.500	455.809	80.011	19.993	104.333	20.052	1.849	0.521
742.000	456.049	80.009	19.992	104.334	20.050	1.986	0.536
742.500	456.281	80.011	19.994	104.333	20.048	2.184	0.504
743.000	456.539	80.010	19.993	104.333	20.051	1.914	0.481
743.500	456.741	80.010	19.994	104.332	20.055	1.651	0.475
744.000	457.028	80.011	19.994	104.335	20.052	1.847	0.475
744.500	457.313	80.009	19.992	104.333	20.054	1.694	0.530
745.000	457.504	80.011	19.994	104.333	20.054	1.757	0.524
745.500	457.758	80.011	19.994	104.333	20.051	1.914	0.461
746.001	458.035	80.010	19.994	104.334	20.053	1.773	0.488
746.500	458.287	80.010	19.994	104.334	20.057	1.498	0.530
747.000	458.594	80.010	19.993	104.337	20.055	1.667	0.544
747.500	458.806	80.010	19.994	104.337	20.053	1.818	0.539
748.000	459.069	80.009	19.994	104.338	20.051	1.953	0.497
748.500	459.307	80.010	19.994	104.338	20.055	1.635	0.488
749.000	459.592	80.009	19.993	104.339	20.052	1.906	0.512
749.500	459.855	80.011	19.993	104.339	20.056	1.567	0.535
750.001	460.069	80.011	19.993	104.340	20.054	1.704	0.512
750.501	460.358	80.010	19.993	104.340	20.055	1.679	0.490
751.000	460.626	80.010	19.994	104.339	20.053	1.796	0.530
751.500	460.809	80.009	19.993	104.339	20.055	1.633	0.504
752.000	461.097	80.012	19.994	104.338	20.054	1.718	0.461
752.500	461.367	80.009	19.993	104.338	20.055	1.667	0.514
753.000	461.607	80.011	19.994	104.338	20.055	1.645	0.534
753.500	461.848	80.010	19.993	104.338	20.057	1.526	0.496
754.000	462.122	80.010	19.993	104.339	20.055	1.669	0.498
754.500	462.396	80.010	19.994	104.340	20.057	1.502	0.531
755.000	462.638	80.011	19.993	104.346	20.054	1.724	0.532
755.500	462.899	80.009	19.993	104.345	20.055	1.692	0.510
756.000	463.168	80.010	19.993	104.346	20.054	1.755	0.517
756.500	463.412	80.010	19.993	104.346	20.055	1.673	0.522
757.000	463.681	80.011	19.995	104.346	20.057	1.484	0.513
757.500	463.921	80.010	19.994	104.341	20.058	1.467	0.511
758.001	464.165	80.011	19.994	104.341	20.058	1.435	0.496
758.501	464.412	80.009	19.993	104.340	20.049	2.073	0.487
759.000	464.683	80.010	19.993	104.339	20.056	1.555	0.505
759.500	464.896	80.009	19.992	104.339	20.053	1.814	0.502
760.000	465.144	80.011	19.995	104.338	20.056	1.596	0.473
760.500	465.431	80.010	19.994	104.339	20.055	1.635	0.498
761.000	465.687	80.011	19.994	104.339	20.054	1.718	0.539
761.500	465.904	80.010	19.993	104.342	20.059	1.398	0.508
762.000	466.143	80.010	19.994	104.343	20.052	1.883	0.464
762.500	466.431	80.010	19.994	104.342	20.056	1.561	0.491
763.000	466.666	80.010	19.993	104.342	20.062	1.184	0.525
763.500	466.920	80.011	19.993	104.342	20.058	1.477	0.506
764.000	467.214	80.010	19.992	104.340	20.059	1.388	0.519
764.500	467.436	80.010	19.993	104.339	20.056	1.612	0.532
765.000	467.686	80.010	19.994	104.339	20.058	1.465	0.494
765.500	467.957	80.010	19.994	104.340	20.053	1.814	0.496
766.000	468.207	80.010	19.993	104.340	20.058	1.473	0.521
766.500	468.480	80.010	19.993	104.340	20.058	1.471	0.522
767.000	468.699	80.010	19.994	104.339	20.059	1.349	0.508
767.500	468.974	80.010	19.993	104.340	20.059	1.361	0.493
768.000	469.235	80.008	19.995	104.339	20.060	1.296	0.514
768.501	469.505	80.010	19.993	104.339	20.057	1.535	0.533
769.000	469.711	80.011	19.993	104.339	20.058	1.412	0.504
769.500	469.981	80.009	19.993	104.340	20.059	1.380	0.476
770.000	470.242	80.010	19.993	104.340	20.055	1.680	0.503
770.500	470.503	80.011	19.993	104.340	20.059	1.339	0.526
771.000	470.719	80.009	19.992	104.341	20.059	1.357	0.499
771.500	470.984	80.009	19.992	104.342	20.056	1.618	0.479
772.000	471.179	80.009	19.992	104.342	20.056	1.561	0.471
772.500	471.481	80.010	19.993	104.343	20.058	1.474	0.479
773.000	471.748	80.010	19.994	104.344	20.062	1.173	0.533
773.500	471.990	80.008	19.994	104.344	20.061	1.261	0.539
774.000	472.205	80.009	19.992	104.343	20.061	1.243	0.483
774.500	472.510	80.009	19.993	104.342	20.059	1.335	0.488
775.000	472.749	80.008	19.992	104.341	20.056	1.594	0.532
775.500	473.037	80.009	19.994	104.342	20.059	1.363	0.535
776.000	473.258	80.009	19.993	104.342	20.059	1.337	0.517
776.500	473.550	80.009	19.994	104.341	20.058	1.427	0.511
777.000	473.763	80.010	19.994	104.341	20.059	1.380	0.510
777.500	474.071	80.009	19.993	104.342	20.056	1.563	0.513
778.000	474.311	80.008	19.994	104.341	20.059	1.394	0.534
778.500	474.572	80.010	19.993	104.341	20.057	1.496	0.525
779.000	474.816	80.010	19.994	104.342	20.062	1.161	0.503
779.500	475.079	80.010	19.994	104.342	20.058	1.418	0.506
780.000	475.329	80.009	19.994	104.341	20.060	1.273	0.510
780.500	475.602	80.011	19.993	104.341	20.059	1.390	0.518
781.000	475.852	80.009	19.993	104.340	20.059	1.373	0.523
781.500	476.098	80.011	19.994	104.340	20.062	1.186	0.510
782.001	476.307	80.010	19.993	104.340	20.057	1.502	0.476
782.500	476.618	80.009	19.994	104.335	20.062	1.163	0.487
783.000	476.877	80.010	19.994	104.334	20.062	1.153	0.545
783.500	477.123	80.010	19.994	104.333	20.064	1.002	0.538
784.000	477.369	80.012	19.993	104.333	20.065	0.937	0.498
784.500	477.590	80.010	19.994	104.329	20.063	1.073	0.479
785.000	477.844	80.012	19.994	104.331	20.065	0.920	0.471
785.500	478.134	80.011	19.993	104.330	20.061	1.218	0.510
786.000	478.399	80.010	19.994	104.330	20.062	1.172	0.550
786.500	478.592	80.011	19.993	104.329	20.063	1.074	0.507
787.000	478.878	80.011	19.993	104.332	20.060	1.298	0.469
787.500	479.147	80.011	19.994	104.335	20.061	1.206	0.517
788.000	479.373	80.012	19.994	104.336	20.059	1.400	0.525
788.500	479.646	80.012	19.995	104.336	20.058	1.429	0.497
789.000	479.884	80.011	19.993	104.334	20.058	1.423	0.505
789.500	480.107	80.011	19.994	104.333	20.061	1.224	0.486
790.000	480.352	80.010	19.994	104.333	20.058	1.433	0.464
790.501	480.613	80.011	19.995	104.332	20.062	1.178	0.487
791.000	480.873	80.011	19.993	104.332	20.062	1.184	0.514
791.500	481.124	80.012	19.993	104.335	20.062	1.175	0.516
792.000	481.375	80.011	19.993	104.335	20.063	1.067	0.507
792.500	481.631	80.012	19.994	104.333	20.058	1.473	0.504
793.000	481.900	80.012	19.994	104.332	20.064	0.996	0.516
793.500	482.166	80.011	19.994	104.332	20.061	1.194	0.530
794.000	482.402	80.011	19.994	104.332	20.060	1.288	0.519
794.500	482.652	80.011	19.994	104.334	20.067	0.788	0.494
795.000	482.865	80.011	19.993	104.332	20.061	1.202	0.475
795.500	483.143	80.010	19.993	104.333	20.061	1.251	0.477
796.000	483.400	80.010	19.995	104.333	20.062	1.178	0.513
796.500	483.634	80.010	19.993	104.329	20.064	1.008	0.514
797.000	483.890	80.011	19.994	104.329	20.062	1.178	0.491
797.500	484.143	80.012	19.993	104.328	20.064	0.980	0.499
798.000	484.376	80.011	19.995	104.325	20.065	0.965	0.497
798.500	484.672	80.012	19.994	104.325	20.061	1.235	0.507
799.000	484.900	80.012	19.994	104.329	20.061	1.224	0.527
799.500	485.151	80.011	19.994	104.327	20.064	1.041	0.501
800.000	485.394	80.011	19.993	104.333	20.063	1.102	0.486
800.500	485.619	80.010	19.993	104.335	20.064	0.982	0.481
801.000	485.898	80.010	19.995	104.335	20.063	1.053	0.486
801.500	486.140	80.010	19.994	104.335	20.062	1.167	0.513
802.000	486.384	80.010	19.994	104.337	20.063	1.061	0.504
802.500	486.626	80.012	19.994	104.336	20.063	1.061	0.486
803.000	486.844	80.012	19.994	104.333	20.062	1.139	0.473
803.500	487.107	80.012	19.995	104.333	20.066	0.876	0.471
804.000	487.357	80.010	19.993	104.333	20.064	1.006	0.497
804.500	487.605	80.012	19.994	104.332	20.064	1.010	0.505
805.000	487.873	80.012	19.993	104.332	20.062	1.151	0.507
805.500	488.104	80.011	19.994	104.336	20.066	0.857	0.508
806.000	488.387	80.011	19.995	104.336	20.060	1.294	0.507
806.500	488.621	80.009	19.993	104.337	20.064	0.980	0.515
807.000	488.895	80.011	19.993	104.337	20.065	0.973	0.512
807.500	489.148	80.012	19.993	104.338	20.061	1.257	0.518
808.000	489.371	80.011	19.994	104.338	20.064	0.992	0.502
808.500	489.649	80.012	19.994	104.337	20.064	0.992	0.489
809.000	489.873	80.012	19.994	104.336	20.062	1.139	0.501
809.500	490.129	80.011	19.993	104.336	20.062	1.159	0.491
810.000	490.406	80.011	19.994	104.336	20.060	1.318	0.507
810.500	490.636	80.012	19.994	104.336	20.059	1.376	0.520
811.000	490.888	80.012	19.994	104.336	20.062	1.184	0.494
811.500	491.140	80.011	19.994	104.336	20.061	1.202	0.493
812.000	491.407	80.011	19.995	104.336	20.065	0.955	0.512
812.500	491.635	80.012	19.994	104.336	20.059	1.339	0.507
813.000	491.912	80.012	19.994	104.336	20.062	1.176	0.500
813.500	492.151	80.012	19.993	104.336	20.061	1.249	0.511
814.000	492.430	80.011	19.994	104.335	20.064	1.027	0.517
814.500	492.643	80.010	19.993	104.334	20.060	1.327	0.505
815.000	492.897	80.013	19.993	104.335	20.066	0.882	0.480
815.500	493.193	80.012	19.994	104.332	20.060	1.294	0.509
816.000	493.418	80.012	19.994	104.332	20.060	1.325	0.536
816.500	493.653	80.011	19.993	104.332	20.061	1.200	0.491
817.000	493.918	80.012	19.994	104.333	20.060	1.290	0.480
817.500	494.191	80.011	19.994	104.333	20.061	1.212	0.519
818.000	494.461	80.011	19.994	104.335	20.063	1.116	0.540
818.500	494.692	80.011	19.995	104.336	20.063	1.078	0.522
819.000	494.923	80.011	19.993	104.334	20.060	1.300	0.481
819.500	495.208	80.009	19.993	104.334	20.062	1.153	0.489
820.001	495.463	80.010	19.995	104.334	20.064	1.014	0.528
820.500	495.679	80.011	19.994	104.335	20.055	1.647	0.506
821.000	495.981	80.010	19.994	104.334	20.064	1.047	0.495
821.500	496.214	80.010	19.995	104.334	20.058	1.473	0.526
822.000	496.454	80.008	19.995	104.332	20.062	1.182	0.504
822.500	496.706	80.009	19.994	104.333	20.061	1.202	0.483
823.000	496.923	80.009	19.995	104.333	20.060	1.322	0.481
823.500	497.207	80.008	19.994	104.333	20.065	0.965	0.485
824.000	497.443	80.010	19.995	104.334	20.062	1.182	0.510
824.500	497.690	80.010	19.994	104.337	20.065	0.955	0.501
825.000	497.975	80.009	19.994	104.337	20.065	0.947	0.507
825.500	498.201	80.010	19.994	104.336	20.063	1.090	0.522
826.000	498.447	80.009	19.994	104.337	20.063	1.088	0.492
826.500	498.723	80.011	19.994	104.337	20.064	1.037	0.497
827.000	498.945	80.010	19.994	104.334	20.066	0.898	0.510
827.500	499.213	80.009	19.995	104.334	20.066	0.884	0.494
828.000	499.484	80.010	19.994	104.333	20.065	0.945	0.515
828.500	499.690	80.010	19.993	104.333	20.065	0.955	0.508
829.000	499.947	80.008	19.994	104.333	20.066	0.884	0.470
829.500	500.232	80.009	19.993	104.337	20.064	1.027	0.503
830.000	500.488	80.009	19.993	104.336	20.067	0.824	0.542
830.500	500.725	80.009	19.993	104.338	20.067	0.820	0.517
831.000	500.967	80.009	19.993	104.337	20.067	0.806	0.486
831.500	501.213	80.009	19.993	104.338	20.065	0.910	0.484
832.000	501.504	80.009	19.993	104.338	20.061	1.192	0.512
832.500	501.724	80.008	19.993	104.338	20.063	1.094	0.524
833.000	501.988	80.010	19.993	104.339	20.066	0.839	0.497
833.500	502.225	80.010	19.993	104.340	20.067	0.820	0.492
834.001	502.506	80.009	19.993	104.341	20.066	0.875	0.510
834.500	502.733	80.011	19.993	104.341	20.065	0.922	0.513
835.000	502.982	80.010	19.993	104.339	20.068	0.749	0.492
835.500	503.245	80.010	19.993	104.338	20.065	0.961	0.494
836.000	503.499	80.009	19.994	104.338	20.064	1.022	0.515
836.500	503.771	80.009	19.992	104.339	20.065	0.939	0.522
837.000	503.976	80.009	19.994	104.339	20.068	0.696	0.501
837.500	504.236	80.008	19.993	104.341	20.061	1.233	0.471
838.000	504.502	80.009	19.993	104.341	20.061	1.243	0.496
838.500	504.741	80.008	19.993	104.342	20.063	1.061	0.516
839.000	504.995	80.009	19.992	104.341	20.062	1.182	0.499
839.500	505.263	80.009	19.992	104.341	20.064	0.990	0.507
840.000	505.492	80.010	19.994	104.339	20.069	0.675	0.510
840.500	505.787	80.009	19.993	104.334	20.065	0.973	0.511
841.000	506.012	80.010	19.993	104.334	20.066	0.839	0.522
841.500	506.267	80.010	20.005	104.334	20.071	0.512	0.500
842.000	506.547	80.009	20.004	104.337	20.071	0.482	0.507
842.500	506.784	80.009	20.003	104.345	20.068	0.739	0.526
843.000	507.025	80.009	20.002	104.350	20.070	0.606	0.498
843.500	507.278	80.010	20.002	104.350	20.068	0.724	0.487
844.000	507.538	80.010	20.001	104.349	20.067	0.808	0.504
844.500	507.780	80.010	19.998	104.343	20.071	0.545	0.508
845.000	508.036	80.010	19.996	104.336	20.066	0.839	0.500
845.500	508.299	80.008	19.995	104.332	20.068	0.720	0.508
846.000	508.546	80.010	19.995	104.330	20.067	0.778	0.515
846.500	508.795	80.009	19.994	104.330	20.068	0.749	0.503
847.000	509.018	80.010	19.996	104.332	20.063	1.102	0.484
847.500	509.272	80.011	19.994	104.333	20.064	1.033	0.474
848.000	509.562	80.009	19.995	104.333	20.068	0.735	0.510
848.500	509.778	80.011	19.994	104.334	20.067	0.820	0.525
849.000	510.059	80.010	19.994	104.333	20.067	0.814	0.502
849.500	510.289	80.009	19.993	104.333	20.067	0.796	0.504
850.000	510.555	80.010	19.994	104.333	20.069	0.680	0.503
850.500	510.809	80.008	19.993	104.335	20.068	0.692	0.507
851.000	511.055	80.010	19.994	104.336	20.066	0.880	0.510
851.500	511.284	80.011	19.994	104.337	20.067	0.788	0.488
852.000	511.549	80.010	19.993	104.337	20.065	0.924	0.485
852.500	511.776	80.010	19.993	104.336	20.066	0.835	0.493
853.000	512.035	80.008	19.993	104.336	20.069	0.645	0.489
853.500	512.296	80.009	19.994	104.336	20.065	0.937	0.503
854.000	512.507	80.010	19.993	104.335	20.063	1.102	0.496
854.500	512.793	80.009	19.994	104.335	20.065	0.955	0.485
855.000	513.019	80.009	19.993	104.336	20.062	1.151	0.505
855.500	513.299	80.008	19.993	104.336	20.059	1.341	0.508
856.000	513.547	80.009	19.993	104.336	20.067	0.816	0.517
856.500	513.811	80.009	19.994	104.336	20.069	0.647	0.521
857.000	514.067	80.009	19.994	104.336	20.063	1.118	0.516
857.500	514.341	80.010	19.994	104.336	20.065	0.925	0.525
858.000	514.573	80.010	19.994	104.336	20.069	0.682	0.518
858.500	514.838	80.009	19.993	104.336	20.062	1.165	0.502
859.000	515.087	80.010	19.994	104.336	20.063	1.055	0.505
859.500	515.356	80.011	19.995	104.337	20.065	0.947	0.516
860.000	515.614	80.010	19.995	104.336	20.068	0.726	0.522
860.500	515.838	80.009	19.993	104.337	20.066	0.867	0.504
861.000	516.089	80.011	19.994	104.337	20.065	0.945	0.478
861.500	516.346	80.009	19.993	104.337	20.067	0.778	0.491
862.000	516.616	80.011	19.993	104.336	20.068	0.712	0.518
862.500	516.872	80.010	19.993	104.337	20.067	0.786	0.527
863.000	517.108	80.010	19.994	104.337	20.066	0.853	0.509
863.500	517.375	80.010	19.993	104.336	20.065	0.959	0.497
864.000	517.627	80.010	19.994	104.336	20.071	0.543	0.511
864.500	517.906	80.011	19.994	104.334	20.067	0.796	0.525
865.000	518.158	80.010	19.992	104.334	20.067	0.804	0.531
865.500	518.442	80.011	19.993	104.334	20.068	0.729	0.534
866.000	518.638	80.011	19.994	104.334	20.065	0.941	0.508
866.500	518.882	80.011	19.993	104.332	20.070	0.563	0.460
867.000	519.144	80.011	19.993	104.331	20.072	0.461	0.473
867.500	519.403	80.012	19.994	104.331	20.065	0.955	0.513
868.000	519.672	80.011	19.993	104.331	20.069	0.651	0.525
868.501	519.933	80.011	19.992	104.331	20.073	0.392	0.530
869.000	520.162	80.011	19.993	104.333	20.072	0.461	0.510
869.500	520.407	80.012	19.993	104.335	20.070	0.610	0.482
870.000	520.682	80.011	19.993	104.335	20.067	0.806	0.497
870.500	520.921	80.011	19.993	104.335	20.069	0.653	0.517
871.000	521.207	80.012	19.992	104.337	20.069	0.684	0.519
871.500	521.454	80.011	19.993	104.337	20.069	0.647	0.529
872.000	521.698	80.011	19.992	104.337	20.066	0.853	0.513
872.500	521.955	80.012	19.993	104.336	20.067	0.775	0.496
873.000	522.203	80.012	19.993	104.334	20.067	0.775	0.503
873.500	522.425	80.011	19.992	104.334	20.068	0.731	0.487
874.000	522.694	80.011	19.994	104.334	20.066	0.853	0.480
874.500	522.941	80.012	19.993	104.334	20.065	0.961	0.503
875.000	523.186	80.009	19.993	104.335	20.068	0.729	0.504
875.500	523.456	80.012	19.993	104.335	20.066	0.876	0.504
876.001	523.714	80.011	19.993	104.334	20.067	0.790	0.522
876.500	523.971	80.011	19.993	104.334	20.069	0.674	0.521
877.000	524.237	80.011	19.994	104.333	20.070	0.567	0.519
877.501	524.473	80.010	19.993	104.333	20.071	0.529	0.513
878.000	524.735	80.010	19.995	104.333	20.066	0.869	0.500
878.500	524.983	80.011	19.994	104.335	20.065	0.927	0.503
879.000	525.240	80.009	19.993	104.334	20.069	0.682	0.507
879.500	525.464	80.010	19.992	104.332	20.068	0.747	0.493
880.000	525.724	80.009	19.995	104.330	20.068	0.702	0.482
880.500	526.003	80.011	19.995	104.331	20.071	0.527	0.511
881.000	526.265	80.010	19.994	104.331	20.063	1.065	0.540
881.500	526.484	80.010	19.994	104.332	20.069	0.684	0.511
882.000	526.737	80.010	19.993	104.336	20.068	0.741	0.477
882.500	527.003	80.010	19.994	104.339	20.073	0.361	0.496
883.000	527.310	80.010	19.994	104.339	20.069	0.635	0.546
883.500	527.536	80.010	19.993	104.338	20.069	0.647	0.553
884.000	527.765	80.012	19.994	104.336	20.069	0.688	0.494
884.500	528.007	80.010	19.994	104.335	20.069	0.682	0.463
885.000	528.295	80.010	19.995	104.335	20.064	1.014	0.500
885.500	528.545	80.010	19.994	104.335	20.071	0.529	0.534
886.000	528.782	80.011	19.995	104.336	20.065	0.939	0.513
886.500	529.057	80.011	19.994	104.338	20.071	0.531	0.500
887.000	529.301	80.010	19.993	104.334	20.067	0.780	0.516
887.500	529.576	80.012	19.994	104.332	20.071	0.498	0.519
888.000	529.817	80.012	19.993	104.331	20.071	0.520	0.517
888.500	530.077	80.011	19.993	104.330	20.066	0.871	0.508
889.000	530.359	80.011	19.992	104.329	20.071	0.524	0.521
889.500	530.593	80.011	19.993	104.333	20.071	0.518	0.529
890.000	530.892	80.012	19.993	104.334	20.070	0.602	0.525
890.500	531.122	80.012	19.993	104.335	20.070	0.608	0.531
891.000	531.389	80.012	19.993	104.335	20.068	0.692	0.513
891.500	531.655	80.012	19.993	104.336	20.068	0.761	0.515
892.000	531.892	80.011	19.993	104.336	20.070	0.584	0.519
892.500	532.136	80.011	19.993	104.337	20.070	0.580	0.492
893.000	532.440	80.012	19.994	104.337	20.068	0.710	0.514
893.500	532.687	80.012	19.993	104.336	20.069	0.620	0.549
894.000	532.961	80.012	19.993	104.336	20.073	0.386	0.536
894.500	533.197	80.012	19.992	104.335	20.070	0.555	0.515
895.000	533.466	80.012	19.993	104.335	20.070	0.606	0.507
895.500	533.748	80.011	19.992	104.335	20.068	0.726	0.528
896.000	533.996	80.011	19.993	104.334	20.069	0.661	0.541
896.500	534.275	80.013	19.993	104.329	20.071	0.482	0.528
897.000	534.499	80.011	19.994	104.327	20.071	0.488	0.515
897.500	534.779	80.012	19.994	104.326	20.068	0.708	0.504
898.000	535.049	80.012	19.992	104.325	20.071	0.508	0.527
898.500	535.339	80.011	19.992	104.326	20.073	0.394	0.555
899.000	535.579	80.012	19.994	104.331	20.072	0.416	0.545
899.500	535.838	80.012	19.993	104.333	20.072	0.441	0.515
900.000	536.096	80.011	19.992	104.335	20.070	0.602	0.508
900.500	536.365	80.011	19.992	104.335	20.070	0.573	0.522
901.000	536.614	80.010	19.993	104.336	20.072	0.418	0.523
901.500	536.916	80.010	19.993	104.336	20.072	0.422	0.534
902.000	537.181	80.009	19.993	104.336	20.073	0.375	0.558
902.500	537.401	80.010	19.993	104.336	20.072	0.433	0.526
903.000	537.681	80.011	19.995	104.336	20.067	0.769	0.493
903.501	537.978	80.009	19.995	104.337	20.069	0.661	0.539
904.000	538.200	80.008	19.993	104.338	20.075	0.257	0.548
904.500	538.485	80.009	19.994	104.338	20.066	0.843	0.513
905.000	538.729	80.009	19.993	104.337	20.069	0.657	0.518
905.500	539.029	80.008	19.994	104.337	20.069	0.676	0.536
906.000	539.276	80.009	19.994	104.337	20.073	0.367	0.545
906.500	539.561	80.009	19.994	104.337	20.068	0.735	0.540
907.000	539.783	80.009	19.995	104.337	20.073	0.386	0.520
907.500	540.033	80.009	19.995	104.338	20.074	0.288	0.489
908.000	540.313	80.009	19.994	104.339	20.073	0.373	0.501
908.500	540.594	80.008	19.995	104.339	20.071	0.535	0.546
909.000	540.823	80.010	19.995	104.337	20.071	0.506	0.535
909.500	541.092	80.009	19.995	104.334	20.071	0.516	0.504
910.000	541.362	80.010	19.994	104.333	20.065	0.906	0.519
910.500	541.622	80.010	19.995	104.332	20.070	0.604	0.535
911.000	541.881	80.008	19.995	104.331	20.072	0.447	0.525
911.500	542.163	80.008	19.995	104.332	20.072	0.414	0.530
912.000	542.453	80.008	19.995	104.334	20.069	0.651	0.557
912.500	542.676	80.009	19.996	104.334	20.067	0.808	0.543
913.000	542.941	80.009	19.995	104.334	20.068	0.706	0.500
913.500	543.202	80.007	19.994	104.334	20.069	0.657	0.507
914.000	543.440	80.009	19.995	104.335	20.067	0.810	0.513
914.500	543.706	80.010	19.994	104.335	20.071	0.516	0.501
915.000	543.965	80.007	19.995	104.332	20.070	0.578	0.514
915.500	544.254	80.008	19.995	104.332	20.072	0.427	0.536
916.000	544.488	80.008	19.994	104.332	20.066	0.900	0.535
916.500	544.732	80.010	19.994	104.333	20.066	0.853	0.500
917.000	544.998	80.010	19.995	104.333	20.065	0.949	0.494
917.500	545.252	80.010	19.995	104.335	20.068	0.704	0.515
918.000	545.529	80.010	19.994	104.334	20.071	0.484	0.526
918.500	545.758	80.011	19.994	104.331	20.073	0.400	0.519
919.000	546.036	80.010	19.994	104.329	20.066	0.861	0.506
919.500	546.268	80.010	19.994	104.329	20.068	0.708	0.508
920.000	546.557	80.009	19.993	104.325	20.069	0.673	0.515
920.500	546.818	80.010	19.994	104.326	20.071	0.490	0.536
921.000	547.044	80.011	19.994	104.325	20.069	0.661	0.519
921.500	547.341	80.011	19.994	104.324	20.070	0.586	0.505
922.000	547.588	80.010	19.994	104.321	20.068	0.698	0.533
922.500	547.852	80.011	19.994	104.323	20.071	0.545	0.528
923.000	548.083	80.011	19.994	104.320	20.066	0.871	0.503
923.500	548.350	80.011	19.994	104.321	20.066	0.857	0.496
924.000	548.633	80.012	19.993	104.323	20.065	0.937	0.524
924.500	548.876	80.011	19.992	104.327	20.069	0.631	0.539
925.000	549.115	80.010	19.994	104.329	20.069	0.665	0.504
925.500	549.366	80.009	19.994	104.334	20.069	0.645	0.486
926.000	549.664	80.011	19.993	104.336	20.068	0.722	0.519
926.500	549.909	80.010	19.994	104.334	20.068	0.741	0.546
927.000	550.149	80.010	19.993	104.330	20.068	0.723	0.514
927.500	550.404	80.011	19.993	104.330	20.066	0.904	0.490
928.000	550.669	80.009	19.993	104.328	20.067	0.776	0.508
928.500	550.943	80.010	19.994	104.329	20.065	0.967	0.530
929.000	551.172	80.009	19.993	104.332	20.068	0.692	0.521
929.500	551.409	80.010	19.993	104.335	20.069	0.635	0.484
930.000	551.677	80.011	19.993	104.335	20.071	0.498	0.485
930.500	551.949	80.009	19.994	104.336	20.068	0.727	0.522
931.000	552.165	80.010	19.994	104.336	20.067	0.790	0.514
931.500	552.435	80.010	19.994	104.334	20.064	0.990	0.487
932.000	552.727	80.009	19.993	104.334	20.070	0.588	0.524
932.500	552.957	80.010	19.994	104.332	20.071	0.494	0.542
933.000	553.205	80.010	19.994	104.329	20.068	0.706	0.500
933.500	553.505	80.009	19.994	104.330	20.066	0.876	0.513
934.000	553.745	80.009	19.993	104.331	20.068	0.745	0.544
934.500	554.014	80.009	19.993	104.330	20.069	0.633	0.524
935.000	554.294	80.010	19.993	104.328	20.071	0.494	0.529
935.500	554.498	80.010	19.994	104.331	20.064	0.986	0.516
936.000	554.771	80.008	19.993	104.327	20.066	0.847	0.481
936.500	555.028	80.009	19.994	104.326	20.070	0.557	0.504
937.000	555.296	80.010	19.994	104.326	20.067	0.788	0.528
937.500	555.556	80.009	19.993	104.330	20.067	0.763	0.527
938.000	555.837	80.010	19.994	104.328	20.070	0.573	0.534
938.500	556.055	80.008	19.994	104.331	20.069	0.667	0.520
939.000	556.333	80.008	19.993	104.333	20.069	0.680	0.498
939.500	556.558	80.009	19.994	104.333	20.066	0.861	0.500
940.000	556.825	80.008	19.994	104.331	20.062	1.143	0.498
940.500	557.073	80.008	19.994	104.334	20.064	1.024	0.504
941.000	557.321	80.011	19.994	104.334	20.063	1.057	0.505
941.500	557.605	80.009	19.994	104.334	20.067	0.822	0.513
942.000	557.817	80.008	19.994	104.334	20.068	0.708	0.514
942.500	558.083	80.008	19.993	104.336	20.065	0.910	0.488
943.000	558.349	80.009	19.993	104.335	20.069	0.684	0.505
943.500	558.603	80.009	19.994	104.331	20.069	0.657	0.526
944.000	558.827	80.010	19.993	104.328	20.067	0.784	0.499
944.500	559.111	80.009	19.995	104.325	20.069	0.663	0.493
945.000	559.355	80.010	19.993	104.323	20.066	0.890	0.518
945.500	559.620	80.010	19.993	104.324	20.071	0.504	0.519
946.000	559.888	80.010	19.993	104.326	20.071	0.516	0.521
946.500	560.106	80.008	19.993	104.328	20.069	0.688	0.509
947.000	560.374	80.010	19.994	104.332	20.064	1.041	0.486
947.500	560.626	80.009	19.993	104.334	20.066	0.900	0.503
948.000	560.891	80.011	19.993	104.335	20.070	0.551	0.519
948.500	561.117	80.011	19.993	104.336	20.068	0.759	0.505
949.000	561.436	80.009	19.993	104.338	20.066	0.851	0.518
949.500	561.631	80.011	19.993	104.338	20.067	0.798	0.530
950.000	561.939	80.011	19.993	104.337	20.066	0.873	0.508
950.500	562.178	80.012	19.994	104.336	20.065	0.926	0.524
951.000	562.431	80.012	19.993	104.336	20.070	0.606	0.519
951.500	562.661	80.011	19.993	104.336	20.070	0.608	0.488
952.000	562.924	80.012	19.993	104.336	20.067	0.804	0.488
952.500	563.187	80.013	19.993	104.336	20.073	0.378	0.510
953.000	563.433	80.011	19.994	104.333	20.071	0.518	0.518
953.500	563.673	80.012	19.993	104.332	20.071	0.510	0.498
954.000	563.908	80.011	19.994	104.331	20.072	0.463	0.481
954.500	564.159	80.011	19.993	104.331	20.069	0.665	0.481
955.000	564.409	80.010	19.992	104.331	20.071	0.516	0.493
955.500	564.678	80.011	19.993	104.334	20.072	0.408	0.510
956.000	564.909	80.011	19.993	104.336	20.071	0.512	0.509
956.500	565.177	80.010	19.993	104.335	20.073	0.402	0.499
957.000	565.433	80.011	19.993	104.330	20.071	0.484	0.512
957.500	565.648	80.010	19.994	104.327	20.071	0.529	0.498
958.000	565.948	80.011	19.993	104.321	20.073	0.371	0.493
958.500	566.207	80.010	19.993	104.318	20.073	0.359	0.537
959.000	566.450	80.010	19.993	104.318	20.072	0.445	0.531
959.500	566.707	80.010	19.993	104.324	20.070	0.590	0.501
960.000	566.968	80.010	19.994	104.329	20.071	0.502	0.508
960.500	567.243	80.009	19.992	104.335	20.070	0.575	0.527
961.000	567.481	80.009	19.993	104.337	20.074	0.325	0.524
961.500	567.728	80.011	19.993	104.336	20.071	0.498	0.499
962.000	567.969	80.009	19.993	104.335	20.068	0.733	0.487
962.500	568.256	80.011	19.994	104.334	20.070	0.590	0.508
963.000	568.518	80.010	19.993	104.334	20.072	0.463	0.538
963.500	568.759	80.010	19.994	104.335	20.075	0.241	0.526
964.000	569.006	80.010	19.993	104.336	20.070	0.557	0.495
964.500	569.278	80.009	19.993	104.337	20.072	0.461	0.504
965.000	569.515	80.009	19.993	104.336	20.074	0.322	0.514
965.500	569.760	80.010	19.992	104.336	20.072	0.451	0.496
966.000	570.032	80.009	19.993	104.336	20.070	0.578	0.500
966.500	570.281	80.009	19.992	104.335	20.068	0.743	0.519
967.000	570.565	80.011	19.993	104.336	20.071	0.480	0.527
967.500	570.804	80.009	19.993	104.334	20.072	0.424	0.528
968.000	571.083	80.010	19.993	104.333	20.071	0.502	0.521
968.500	571.363	80.011	19.994	104.333	20.070	0.588	0.539
969.000	571.565	80.010	19.992	104.334	20.072	0.463	0.521
969.500	571.850	80.010	19.992	104.334	20.071	0.498	0.484
970.000	572.091	80.010	19.993	104.337	20.073	0.373	0.506
970.500	572.379	80.012	19.993	104.336	20.071	0.504	0.527
971.000	572.613	80.012	19.994	104.336	20.073	0.355	0.525
971.500	572.884	80.011	19.993	104.336	20.076	0.171	0.514
972.000	573.147	80.011	19.994	104.334	20.073	0.392	0.520
972.500	573.382	80.012	19.994	104.330	20.072	0.465	0.516
973.000	573.638	80.011	19.994	104.331	20.075	0.231	0.495
973.500	573.938	80.012	19.993	104.331	20.077	0.114	0.523
974.000	574.225	80.010	19.994	104.328	20.072	0.439	0.571
974.500	574.454	80.012	19.993	104.326	20.069	0.645	0.552
975.000	574.733	80.011	19.995	104.329	20.070	0.559	0.512
975.500	574.963	80.011	19.993	104.329	20.075	0.233	0.509
976.000	575.234	80.012	19.994	104.329	20.070	0.561	0.505
976.500	575.482	80.012	19.994	104.331	20.074	0.314	0.510
977.000	575.772	80.011	19.994	104.334	20.078	-0.002	0.528
977.501	575.993	80.011	19.993	104.334	20.077	0.096	0.524
978.001	576.267	80.011	19.994	104.334	20.071	0.516	0.503
978.500	576.532	80.011	19.994	104.332	20.073	0.402	0.517
979.000	576.788	80.011	19.994	104.330	20.075	0.206	0.530
979.500	577.011	80.010	19.993	104.324	20.076	0.135	0.500
980.000	577.302	80.010	19.995	104.322	20.075	0.208	0.496
980.500	577.521	80.012	19.993	104.322	20.072	0.431	0.512
981.000	577.794	80.011	19.994	104.323	20.075	0.198	0.501
981.500	578.074	80.012	19.995	104.326	20.075	0.204	0.522
982.000	578.307	80.010	19.995	104.332	20.073	0.339	0.533
982.500	578.566	80.011	19.994	104.334	20.073	0.369	0.502
983.001	578.851	80.009	19.994	104.334	20.075	0.227	0.518
983.501	579.059	80.009	19.994	104.332	20.074	0.292	0.519
984.001	579.349	80.009	19.994	104.328	20.074	0.276	0.496
984.500	579.595	80.008	19.994	104.326	20.075	0.196	0.517
985.000	579.895	80.010	19.994	104.324	20.074	0.288	0.541
985.500	580.126	80.010	19.994	104.323	20.073	0.380	0.538
986.000	580.382	80.008	19.994	104.325	20.078	-0.006	0.509
986.500	580.612	80.009	19.994	104.328	20.074	0.320	0.487
987.000	580.914	80.008	19.994	104.325	20.069	0.663	0.509
987.500	581.160	80.007	19.994	104.327	20.073	0.390	0.540
988.000	581.415	80.007	19.994	104.329	20.077	0.080	0.524
988.500	581.694	80.009	19.995	104.330	20.079	-0.065	0.518
989.000	581.909	80.009	19.994	104.330	20.072	0.431	0.514
989.500	582.151	80.008	19.994	104.335	20.077	0.086	0.475
990.000	582.443	80.009	19.994	104.334	20.077	0.108	0.495
990.500	582.723	80.009	19.994	104.333	20.075	0.196	0.553
991.000	582.956	80.009	19.992	104.334	20.074	0.306	0.542
991.500	583.234	80.009	19.994	104.334	20.072	0.467	0.512
992.000	583.457	80.009	19.994	104.331	20.076	0.173	0.506
992.500	583.698	80.008	19.994	104.327	20.076	0.149	0.482
993.000	583.962	80.009	19.995	104.325	20.076	0.139	0.484
993.500	584.204	80.008	19.994	104.326	20.074	0.331	0.506
994.000	584.496	80.007	19.994	104.323	20.079	-0.037	0.520
994.500	584.723	80.009	19.994	104.325	20.080	-0.112	0.526
995.000	585.013	80.009	19.995	104.327	20.076	0.167	0.518
995.500	585.238	80.009	19.994	104.329	20.075	0.251	0.516
996.000	585.532	80.010	19.994	104.328	20.077	0.071	0.517
996.500	585.756	80.008	19.994	104.331	20.074	0.312	0.518
997.000	585.981	80.009	19.995	104.331	20.072	0.467	0.483
997.500	586.248	80.010	19.995	104.334	20.076	0.175	0.470
998.001	586.500	80.010	19.994	104.335	20.074	0.296	0.506
998.501	586.784	80.009	19.994	104.335	20.077	0.076	0.528
999.000	587.034	80.008	19.994	104.335	20.076	0.182	0.535
999.500	587.303	80.008	19.994	104.334	20.072	0.412	0.526
1000.000	587.547	80.008	19.996	104.335	20.076	0.137	0.516
1000.500	587.769	80.009	19.994	104.335	20.074	0.331	0.489
1001.000	588.018	80.010	19.995	104.334	20.069	0.620	0.469
1001.500	588.289	80.008	19.994	104.333	20.079	-0.063	0.496
1002.000	588.560	80.008	19.994	104.333	20.074	0.331	0.532
1002.500	588.812	80.008	19.994	104.334	20.076	0.129	0.533
1003.000	589.076	80.009	19.995	104.334	20.077	0.059	0.519
1003.500	589.305	80.009	19.995	104.335	20.075	0.253	0.504
1004.001	589.587	80.009	19.994	104.335	20.070	0.600	0.502
1004.501	589.853	80.011	19.994	104.335	20.074	0.325	0.530
1005.000	590.093	80.009	19.995	104.334	20.072	0.416	0.527
1005.500	590.349	80.009	19.995	104.333	20.079	-0.055	0.501
1006.000	590.594	80.008	19.994	104.333	20.072	0.451	0.499
1006.500	590.852	80.009	19.995	104.334	20.076	0.157	0.502
1007.000	591.109	80.009	19.995	104.334	20.071	0.490	0.509
1007.500	591.344	80.008	19.995	104.335	20.072	0.451	0.504
1008.000	591.645	80.008	19.995	104.336	20.076	0.145	0.514
1008.500	591.891	80.008	19.994	104.337	20.075	0.200	0.542
1009.000	592.139	80.007	19.995	104.336	20.075	0.255	0.521
1009.500	592.421	80.009	19.995	104.338	20.072	0.455	0.512
1010.000	592.629	80.010	19.994	104.338	20.075	0.243	0.510
1010.500	592.922	80.010	19.994	104.338	20.075	0.194	0.495
1011.000	593.128	80.008	19.994	104.335	20.078	0.041	0.500
1011.500	593.379	80.008	19.995	104.331	20.076	0.151	0.478
1012.000	593.671	80.008	19.995	104.325	20.077	0.094	0.500
1012.500	593.923	80.008	19.994	104.322	20.074	0.316	0.544
1013.000	594.191	80.007	19.994	104.321	20.074	0.292	0.532
1013.500	594.427	80.007	19.994	104.324	20.074	0.267	0.512
1014.000	594.660	80.007	19.994	104.327	20.074	0.325	0.487
1014.500	594.941	80.009	19.994	104.332	20.075	0.208	0.491
1015.000	595.198	80.007	19.993	104.335	20.076	0.188	0.526
1015.500	595.435	80.008	19.994	104.337	20.072	0.408	0.516
1016.000	595.682	80.009	19.994	104.337	20.077	0.098	0.489
1016.500	595.987	80.009	19.993	104.337	20.074	0.331	0.518
1017.000	596.221	80.006	19.994	104.337	20.074	0.282	0.546
1017.500	596.459	80.010	19.994	104.335	20.075	0.249	0.505
1018.000	596.743	80.007	19.993	104.332	20.072	0.467	0.496
1018.500	596.982	80.009	19.993	104.332	20.073	0.339	0.522
1019.000	597.255	80.010	19.994	104.331	20.074	0.320	0.518
1019.500	597.450	80.008	19.994	104.332	20.073	0.384	0.490
1020.000	597.738	80.010	19.994	104.335	20.073	0.335	0.475
1020.500	597.981	80.008	19.993	104.335	20.070	0.600	0.507
1021.000	598.241	80.009	19.993	104.331	20.072	0.416	0.517
1021.500	598.495	80.007	19.993	104.327	20.070	0.557	0.509
1022.000	598.754	80.009	19.994	104.323	20.072	0.474	0.514
1022.500	599.022	80.009	19.994	104.322	20.070	0.576	0.520
1023.000	599.248	80.009	19.993	104.323	20.076	0.135	0.510
1023.500	599.516	80.008	19.994	104.329	20.076	0.176	0.494
1024.000	599.780	80.009	19.993	104.333	20.078	0.029	0.513
1024.501	600.016	80.008	19.995	104.334	20.073	0.376	0.516
1025.001	600.316	80.009	19.993	104.335	20.070	0.590	0.518
1025.501	600.555	80.010	19.994	104.335	20.078	0.016	0.538
1026.001	600.807	80.010	19.993	104.334	20.075	0.249	0.515
1026.500	601.074	80.009	19.994	104.330	20.076	0.139	0.505
1027.000	601.311	80.009	19.994	104.327	20.075	0.218	0.512
1027.500	601.598	80.010	19.993	104.325	20.076	0.149	0.514
1028.000	601.834	80.010	19.994	104.323	20.077	0.114	0.523
1028.500	602.099	80.010	19.993	104.321	20.075	0.251	0.512
1029.000	602.372	80.009	19.993	104.321	20.078	-0.002	0.519
1029.500	602.592	80.011	19.995	104.322	20.073	0.369	0.516
1030.001	602.857	80.010	19.993	104.319	20.078	0.027	0.489
1030.501	603.120	80.011	19.993	104.317	20.077	0.084	0.506
1031.000	603.383	80.011	19.993	104.318	20.075	0.245	0.527
1031.501	603.621	80.011	19.994	104.318	20.076	0.163	0.514
1032.001	603.851	80.011	19.993	104.321	20.079	-0.049	0.485
1032.501	604.120	80.009	19.994	104.326	20.073	0.365	0.484
1033.001	604.367	80.011	19.993	104.327	20.073	0.384	0.507
1033.501	604.651	80.011	19.994	104.328	20.079	-0.035	0.523
1034.001	604.887	80.010	19.995	104.331	20.071	0.486	0.526
1034.500	605.130	80.011	19.993	104.332	20.076	0.143	0.500
1035.000	605.366	80.011	19.994	104.332	20.073	0.335	0.479
1035.500	605.636	80.011	19.993	104.336	20.074	0.280	0.493
1036.001	605.866	80.011	19.993	104.337	20.073	0.349	0.503
1036.501	606.137	80.010	19.993	104.335	20.076	0.184	0.500
1037.000	606.360	80.011	19.993	104.330	20.078	0.025	0.497
1037.500	606.664	80.011	19.993	104.324	20.076	0.163	0.510
1038.000	606.917	80.010	19.993	104.316	20.077	0.088	0.542
1038.501	607.163	80.010	19.993	104.311	20.078	0.035	0.528
1039.001	607.393	80.011	19.995	104.313	20.079	-0.027	0.488
1039.500	607.672	80.010	19.994	104.318	20.076	0.169	0.492
1040.001	607.919	80.010	19.993	104.322	20.075	0.204	0.517
1040.501	608.195	80.010	19.993	104.327	20.075	0.212	0.525
1041.000	608.440	80.009	19.993	104.328	20.076	0.139	0.522
1041.500	608.700	80.010	19.994	104.321	20.082	-0.267	0.513
1042.000	608.934	80.011	19.994	104.314	20.075	0.220	0.500
1042.500	609.231	80.010	19.993	104.311	20.077	0.116	0.512
1043.000	609.470	80.008	19.993	104.312	20.079	-0.033	0.534
1043.500	609.762	80.011	19.993	104.315	20.077	0.082	0.534
1044.000	609.976	80.010	19.993	104.321	20.077	0.047	0.518
1044.500	610.235	80.011	19.995	104.327	20.078	0.039	0.489
1045.000	610.487	80.010	19.993	104.327	20.076	0.188	0.492
1045.500	610.740	80.010	19.994	104.325	20.074	0.267	0.508
1046.000	610.991	80.009	19.993	104.320	20.078	0.006	0.505
1046.500	611.253	80.009	19.994	104.316	20.074	0.296	0.509
1047.000	611.517	80.009	19.993	104.314	20.075	0.190	0.519
1047.500	611.748	80.011	19.994	104.316	20.075	0.190	0.510
1048.000	612.013	80.010	19.993	104.317	20.075	0.229	0.496
1048.500	612.271	80.010	19.994	104.318	20.074	0.263	0.510
1049.001	612.545	80.011	19.993	104.318	20.079	-0.061	0.527
1049.501	612.749	80.011	19.993	104.317	20.079	-0.047	0.505
1050.001	613.024	80.011	19.992	104.314	20.080	-0.122	0.478
1050.501	613.270	80.011	19.994	104.310	20.080	-0.102	0.500
1051.001	613.549	80.010	19.993	104.312	20.079	-0.073	0.523
1051.501	613.782	80.011	19.992	104.315	20.078	0.008	0.519
1052.000	614.038	80.011	19.994	104.317	20.079	-0.067	0.501
1052.500	614.344	80.011	19.993	104.316	20.078	0.014	0.525
1053.000	614.589	80.012	19.994	104.316	20.080	-0.112	0.557
1053.500	614.828	80.012	19.993	104.319	20.082	-0.271	0.518
1054.000	615.096	80.011	19.992	104.322	20.075	0.251	0.495
1054.500	615.315	80.012	19.992	104.322	20.076	0.169	0.497
1055.000	615.619	80.011	19.993	104.324	20.076	0.139	0.505
1055.500	615.860	80.011	19.993	104.326	20.075	0.208	0.534
1056.000	616.116	80.012	19.994	104.324	20.074	0.300	0.521
1056.500	616.354	80.012	19.992	104.323	20.072	0.453	0.495
1057.000	616.610	80.012	19.993	104.324	20.078	0.004	0.494
1057.500	616.881	80.012	19.993	104.327	20.074	0.271	0.511
1058.000	617.135	80.012	19.994	104.331	20.076	0.129	0.526
1058.501	617.401	80.011	19.992	104.333	20.076	0.135	0.522
1059.001	617.660	80.013	19.993	104.333	20.077	0.047	0.522
1059.501	617.874	80.011	19.993	104.332	20.078	0.039	0.499
1060.000	618.155	80.011	19.995	104.332	20.078	-0.018	0.484
1060.500	618.403	80.011	19.995	104.331	20.079	-0.086	0.512
1061.000	618.679	80.010	19.994	104.332	20.078	0.025	0.526
1061.500	618.872	80.011	19.994	104.330	20.080	-0.141	0.496
1062.000	619.165	80.011	19.994	104.329	20.079	-0.055	0.477
1062.500	619.412	80.010	19.995	104.325	20.078	0.024	0.513
1063.000	619.675	80.011	19.994	104.322	20.078	-0.008	0.525
1063.500	619.917	80.010	19.995	104.321	20.080	-0.161	0.508
1064.000	620.215	80.009	19.994	104.321	20.079	-0.033	0.522
1064.500	620.442	80.009	19.994	104.319	20.079	-0.049	0.532
1065.001	620.686	80.009	19.995	104.318	20.077	0.051	0.498
1065.501	620.962	80.010	19.994	104.319	20.078	0.027	0.496
1066.000	621.208	80.008	19.993	104.319	20.078	0.037	0.521
1066.500	621.457	80.010	19.994	104.318	20.077	0.059	0.509
1067.000	621.721	80.009	19.994	104.322	20.078	-0.018	0.504
1067.500	621.979	80.009	19.995	104.322	20.078	-0.020	0.518
1068.000	622.187	80.011	19.994	104.320	20.078	0.006	0.495
1068.500	622.483	80.009	19.995	104.316	20.077	0.053	0.485
1069.000	622.720	80.009	19.995	104.313	20.076	0.159	0.518
1069.500	622.952	80.009	19.995	104.311	20.076	0.182	0.501
1070.000	623.252	80.009	19.994	104.311	20.076	0.157	0.501
1070.500	623.485	80.008	19.995	104.312	20.077	0.075	0.532
1071.001	623.735	80.010	19.995	104.312	20.078	0.025	0.507
1071.501	623.993	80.009	19.995	104.314	20.073	0.369	0.496
1072.000	624.227	80.009	19.994	104.315	20.078	-0.004	0.500
1072.500	624.508	80.008	19.994	104.317	20.076	0.143	0.504
1073.000	624.766	80.008	19.995	104.317	20.078	-0.024	0.527
1073.500	625.018	80.008	19.994	104.323	20.079	-0.047	0.524
1074.000	625.289	80.008	19.994	104.326	20.075	0.214	0.517
1074.500	625.567	80.009	19.993	104.326	20.075	0.196	0.537
1075.000	625.800	80.009	19.994	104.322	20.076	0.147	0.530
1075.500	626.062	80.008	19.995	104.321	20.075	0.212	0.503
1076.001	626.301	80.009	19.993	104.316	20.075	0.227	0.498
1076.501	626.574	80.008	19.994	104.317	20.074	0.308	0.506
1077.000	626.803	80.009	19.995	104.319	20.075	0.243	0.507
1077.500	627.066	80.009	19.994	104.325	20.079	-0.063	0.497
1078.001	627.314	80.009	19.994	104.328	20.076	0.125	0.502
1078.501	627.581	80.009	19.994	104.333	20.076	0.127	0.513
1079.000	627.871	80.009	19.994	104.333	20.076	0.178	0.536
1079.500	628.062	80.009	19.994	104.330	20.082	-0.298	0.519
1080.000	628.313	80.008	19.994	104.328	20.078	0.022	0.462
1080.500	628.613	80.010	19.994	104.329	20.079	-0.061	0.497
1081.000	628.897	80.010	19.994	104.327	20.077	0.051	0.568
1081.500	629.113	80.009	19.994	104.325	20.082	-0.253	0.542
1082.000	629.365	80.010	19.993	104.328	20.080	-0.125	0.484
1082.500	629.605	80.009	19.994	104.330	20.077	0.069	0.480
1083.001	629.877	80.009	19.993	104.329	20.081	-0.222	0.502
1083.501	630.163	80.009	19.994	104.328	20.080	-0.157	0.534
1084.000	630.362	80.009	19.993	104.331	20.074	0.269	0.521
1084.500	630.614	80.009	19.993	104.330	20.079	-0.086	0.469
1085.000	630.876	80.009	19.993	104.327	20.077	0.057	0.483
1085.500	631.149	80.008	19.994	104.324	20.078	0.018	0.524
1086.000	631.381	80.008	19.994	104.320	20.075	0.196	0.519
1086.500	631.648	80.008	19.995	104.316	20.079	-0.065	0.502
1087.001	631.873	80.009	19.994	104.312	20.079	-0.033	0.496
1087.501	632.163	80.009	19.993	104.310	20.078	0.035	0.503
1088.001	632.422	80.008	19.994	104.312	20.076	0.167	0.532
1088.501	632.661	80.006	19.993	104.319	20.078	0.041	0.523
1089.001	632.894	80.009	19.994	104.323	20.078	0.018	0.485
1089.501	633.157	80.009	19.994	104.328	20.075	0.255	0.484
1090.000	633.446	80.009	19.994	104.328	20.076	0.139	0.524
1090.500	633.680	80.008	19.993	104.324	20.077	0.047	0.538
1091.001	633.921	80.008	19.993	104.323	20.076	0.184	0.499
1091.501	634.183	80.009	19.994	104.324	20.078	0.033	0.489
1092.000	634.457	80.007	19.994	104.325	20.077	0.090	0.520
1092.500	634.733	80.008	19.994	104.327	20.076	0.155	0.543
1093.000	634.962	80.008	19.994	104.327	20.076	0.171	0.527
1093.500	635.258	80.008	19.994	104.323	20.078	0.010	0.515
1094.001	635.501	80.008	19.994	104.321	20.074	0.280	0.532
1094.501	635.775	80.008	19.993	104.320	20.073	0.357	0.528
1095.000	636.022	80.009	19.994	104.318	20.073	0.369	0.519
1095.500	636.275	80.008	19.994	104.318	20.075	0.214	0.511
1096.000	636.534	80.008	19.993	104.319	20.076	0.133	0.506
1096.500	636.779	80.008	19.994	104.320	20.075	0.212	0.508
1097.000	637.013	80.008	19.995	104.319	20.075	0.259	0.492
1097.500	637.275	80.008	19.994	104.323	20.076	0.129	0.487
1098.001	637.538	80.006	19.995	104.327	20.074	0.316	0.510
1098.501	637.761	80.007	19.994	104.326	20.076	0.139	0.505
1099.001	638.032	80.007	19.994	104.326	20.072	0.412	0.490
1099.500	638.267	80.007	19.994	104.327	20.074	0.331	0.500
1100.000	638.541	80.009	19.994	104.326	20.073	0.378	0.508
1100.501	638.834	80.008	19.995	104.326	20.072	0.427	0.538
1101.001	639.080	80.008	19.995	104.328	20.074	0.331	0.552
1101.501	639.330	80.009	19.995	104.324	20.075	0.210	0.518
1102.001	639.572	80.009	19.995	104.325	20.076	0.153	0.494
1102.500	639.817	80.009	19.994	104.322	20.076	0.151	0.489
1103.000	640.096	80.009	19.994	104.315	20.074	0.325	0.505
1103.501	640.317	80.008	19.994	104.311	20.079	-0.051	0.512
1104.001	640.555	80.009	19.994	104.312	20.072	0.421	0.480
1104.501	640.807	80.010	19.994	104.306	20.075	0.255	0.475
1105.001	641.076	80.010	19.995	104.304	20.078	0.016	0.505
1105.500	641.303	80.008	19.994	104.306	20.075	0.202	0.508
1106.000	641.590	80.008	19.993	104.308	20.076	0.153	0.505
1106.500	641.841	80.009	19.993	104.310	20.076	0.163	0.526
1107.000	642.101	80.010	19.994	104.311	20.074	0.310	0.524
1107.500	642.350	80.009	19.993	104.312	20.081	-0.212	0.510
1108.001	642.618	80.010	19.993	104.316	20.078	-0.014	0.513
1108.501	642.815	80.009	19.993	104.318	20.074	0.282	0.491
1109.000	643.068	80.012	19.993	104.316	20.075	0.241	0.458
1109.501	643.331	80.012	19.993	104.318	20.078	-0.008	0.483
1110.001	643.592	80.011	19.993	104.323	20.075	0.210	0.519
1110.501	643.851	80.011	19.993	104.321	20.078	0.022	0.522
1111.001	644.101	80.010	19.994	104.318	20.077	0.106	0.515
1111.500	644.359	80.011	19.993	104.317	20.078	-0.022	0.509
1112.000	644.590	80.011	19.993	104.316	20.077	0.090	0.499
1112.500	644.859	80.010	19.993	104.315	20.077	0.063	0.495
1113.000	645.096	80.011	19.992	104.317	20.077	0.074	0.503
1113.500	645.343	80.011	19.993	104.319	20.078	0.029	0.494
1114.000	645.563	80.011	19.993	104.320	20.075	0.257	0.475
1114.500	645.842	80.010	19.992	104.319	20.075	0.220	0.483
1115.000	646.112	80.010	19.993	104.316	20.075	0.235	0.524
1115.501	646.354	80.012	19.993	104.309	20.075	0.216	0.530
1116.001	646.601	80.009	19.993	104.305	20.074	0.280	0.500
1116.500	646.897	80.011	19.994	104.304	20.076	0.153	0.516
1117.000	647.153	80.010	19.992	104.310	20.079	-0.049	0.548
1117.500	647.386	80.010	19.994	104.309	20.075	0.206	0.521
1118.000	647.645	80.009	19.993	104.312	20.079	-0.027	0.490
1118.500	647.906	80.010	19.994	104.316	20.079	-0.067	0.506
1119.000	648.131	80.010	19.993	104.319	20.079	-0.074	0.503
1119.500	648.419	80.009	19.993	104.314	20.078	0.025	0.499
1120.000	648.645	80.010	19.994	104.316	20.076	0.129	0.514
1120.501	648.923	80.010	19.993	104.322	20.072	0.423	0.510
1121.001	649.162	80.011	19.994	104.321	20.074	0.292	0.510
1121.500	649.415	80.009	19.994	104.317	20.076	0.163	0.504
1122.001	649.703	80.010	19.992	104.317	20.075	0.216	0.517
1122.501	649.943	80.009	19.994	104.315	20.075	0.237	0.535
1123.001	650.214	80.011	19.994	104.313	20.076	0.139	0.519
1123.500	650.448	80.011	19.995	104.315	20.076	0.122	0.508
1124.000	650.680	80.011	19.993	104.319	20.075	0.198	0.485
1124.500	650.945	80.010	19.993	104.322	20.074	0.323	0.482
1125.000	651.200	80.012	19.994	104.322	20.075	0.196	0.509
1125.500	651.455	80.010	19.994	104.320	20.077	0.116	0.515
1126.000	651.693	80.009	19.994	104.319	20.076	0.137	0.502
1126.500	651.965	80.010	19.993	104.315	20.073	0.333	0.501
1127.000	652.221	80.011	19.994	104.312	20.074	0.282	0.519
1127.500	652.514	80.011	19.994	104.310	20.076	0.165	0.539
1128.000	652.740	80.010	19.993	104.306	20.077	0.094	0.534
1128.501	652.998	80.009	19.993	104.301	20.075	0.220	0.502
1129.001	653.283	80.011	19.993	104.301	20.078	-0.020	0.514
1129.501	653.530	80.010	19.994	104.303	20.076	0.165	0.537
1130.001	653.782	80.011	19.993	104.306	20.076	0.120	0.515
1130.500	654.017	80.011	19.993	104.313	20.076	0.120	0.493
1131.000	654.283	80.011	19.994	104.318	20.074	0.276	0.495
1131.500	654.543	80.011	19.994	104.321	20.076	0.149	0.513
1132.000	654.826	80.012	19.994	104.319	20.077	0.096	0.534
1132.500	655.070	80.012	19.993	104.315	20.078	0.043	0.535
1133.000	655.350	80.013	19.993	104.309	20.074	0.269	0.526
1133.500	655.561	80.012	19.994	104.309	20.076	0.173	0.507
1134.000	655.843	80.011	19.994	104.310	20.075	0.249	0.492
1134.500	656.094	80.012	19.993	104.312	20.074	0.310	0.514
1135.000	656.349	80.013	19.995	104.316	20.077	0.071	0.519
1135.500	656.557	80.010	19.993	104.320	20.077	0.118	0.484
1136.000	656.830	80.011	19.993	104.316	20.075	0.261	0.472
1136.500	657.068	80.013	19.992	104.316	20.075	0.206	0.496
1137.000	657.367	80.012	19.993	104.320	20.077	0.047	0.524
1137.500	657.625	80.011	19.993	104.323	20.075	0.198	0.546
1138.000	657.875	80.012	19.993	104.322	20.074	0.292	0.532
1138.500	658.107	80.013	19.993	104.321	20.075	0.231	0.495
1139.001	658.374	80.011	19.992	104.317	20.076	0.127	0.491
1139.501	658.619	80.011	19.992	104.311	20.073	0.357	0.506
1140.001	658.867	80.011	19.992	104.308	20.076	0.167	0.503
1140.501	659.144	80.011	19.993	104.310	20.075	0.220	0.509
1141.000	659.387	80.010	19.993	104.316	20.075	0.206	0.522
1141.500	659.641	80.010	19.993	104.321	20.075	0.218	0.508
1142.000	659.899	80.011	19.993	104.327	20.076	0.135	0.505
1142.500	660.159	80.011	19.994	104.323	20.075	0.243	0.516
1143.000	660.415	80.010	19.993	104.318	20.076	0.153	0.517
1143.500	660.635	80.011	19.993	104.314	20.074	0.263	0.496
1144.000	660.896	80.009	19.993	104.310	20.074	0.276	0.479
1144.500	661.167	80.009	19.993	104.309	20.076	0.175	0.506
1145.001	661.387	80.010	19.994	104.314	20.075	0.231	0.511
1145.501	661.732	80.010	19.992	104.316	20.075	0.251	0.528
1146.000	661.923	80.009	19.993	104.317	20.075	0.225	0.551
1146.500	662.204	80.011	19.993	104.317	20.074	0.288	0.505
1147.000	662.376	80.009	19.993	104.312	20.073	0.388	0.463
1147.501	662.640	80.009	19.994	104.308	20.072	0.474	0.444
1148.001	662.915	80.010	19.994	104.312	20.073	0.390	0.488
1148.500	663.188	80.009	19.993	104.316	20.073	0.363	0.543
1149.000	663.456	80.009	19.994	104.317	20.072	0.465	0.544
1149.501	663.726	80.010	19.992	104.318	20.077	0.067	0.540
1150.001	663.964	80.009	19.994	104.319	20.076	0.161	0.523
1150.500	664.212	80.009	19.994	104.316	20.075	0.255	0.497
1151.000	664.474	80.008	19.993	104.315	20.078	0.033	0.498
1151.501	664.673	80.009	19.994	104.321	20.079	-0.037	0.485
1152.001	664.973	80.008	19.993	104.325	20.076	0.139	0.480
1152.501	665.196	80.008	19.994	104.326	20.073	0.372	0.511
1153.001	665.448	80.008	19.994	104.326	20.077	0.051	0.499
1153.500	665.703	80.008	19.993	104.327	20.076	0.124	0.491
1154.000	665.960	80.008	19.993	104.327	20.077	0.073	0.510
1154.500	666.185	80.009	19.993	104.330	20.075	0.247	0.497
1155.000	666.472	80.008	19.993	104.331	20.077	0.053	0.497
1155.500	666.716	80.009	19.994	104.333	20.077	0.055	0.521
1156.000	666.985	80.010	19.993	104.329	20.078	-0.006	0.522
1156.500	667.246	80.008	19.994	104.324	20.075	0.229	0.522
1157.001	667.511	80.009	19.993	104.320	20.077	0.102	0.528
1157.501	667.706	80.008	19.994	104.318	20.077	0.069	0.493
1158.001	667.949	80.008	19.993	104.315	20.075	0.202	0.449
1158.501	668.168	80.009	19.993	104.316	20.078	0.037	0.450
1159.001	668.487	80.008	19.993	104.316	20.082	-0.271	0.500
1159.501	668.742	80.008	19.993	104.318	20.078	-0.012	0.556
1160.001	668.996	80.009	19.994	104.320	20.080	-0.157	0.541
1160.500	669.251	80.009	19.994	104.324	20.075	0.200	0.509
1161.000	669.489	80.008	19.993	104.322	20.077	0.071	0.501
1161.500	669.715	80.010	19.993	104.323	20.071	0.478	0.478
1162.000	669.978	80.009	19.994	104.324	20.078	0.029	0.476
1162.500	670.256	80.009	19.994	104.321	20.081	-0.182	0.515
1163.000	670.501	80.010	19.994	104.316	20.080	-0.141	0.532
1163.500	670.788	80.010	19.994	104.317	20.080	-0.139	0.527
1164.000	671.045	80.010	19.993	104.319	20.077	0.073	0.538
1164.501	671.303	80.009	19.994	104.317	20.076	0.125	0.530
1165.001	671.571	80.009	19.994	104.317	20.077	0.057	0.521
1165.501	671.802	80.010	19.994	104.318	20.080	-0.137	0.513
1166.000	672.050	80.009	19.995	104.320	20.079	-0.061	0.488
1166.500	672.334	80.008	19.995	104.320	20.079	-0.090	0.506
1167.001	672.542	80.009	19.994	104.318	20.077	0.084	0.513
1167.501	672.848	80.010	19.993	104.322	20.077	0.067	0.503
1168.000	673.113	80.009	19.994	104.325	20.080	-0.135	0.542
1168.500	673.383	80.009	19.993	104.322	20.079	-0.039	0.553
1169.000	673.606	80.009	19.993	104.315	20.078	0.033	0.514
1169.501	673.865	80.009	19.994	104.314	20.078	0.000	0.488
1170.001	674.141	80.010	19.994	104.310	20.078	0.027	0.509
1170.500	674.398	80.010	19.994	104.307	20.076	0.169	0.534
1171.000	674.635	80.008	19.993	104.310	20.078	0.010	0.513
1171.500	674.919	80.009	19.995	104.315	20.078	0.033	0.508
1172.000	675.188	80.010	19.993	104.317	20.076	0.180	0.537
1172.500	675.466	80.009	19.994	104.316	20.075	0.233	0.550
1173.000	675.712	80.010	19.994	104.313	20.075	0.249	0.536
1173.501	675.961	80.010	19.994	104.309	20.075	0.208	0.509
1174.001	676.239	80.009	19.994	104.307	20.076	0.167	0.511
1174.500	676.495	80.009	19.994	104.305	20.073	0.353	0.530
1175.000	676.739	80.009	19.994	104.305	20.077	0.098	0.517
1175.500	676.987	80.008	19.993	104.307	20.074	0.269	0.496
1176.001	677.263	80.008	19.994	104.306	20.076	0.151	0.508
1176.501	677.502	80.009	19.994	104.304	20.078	0.004	0.519
1177.000	677.767	80.009	19.994	104.303	20.080	-0.098	0.510
1177.500	678.003	80.008	19.994	104.302	20.074	0.280	0.503
1178.000	678.250	80.009	19.994	104.303	20.075	0.225	0.492
1178.500	678.522	80.009	19.994	104.305	20.079	-0.025	0.500
1179.000	678.753	80.008	19.993	104.312	20.080	-0.147	0.511
1179.500	679.046	80.008	19.993	104.316	20.076	0.122	0.513
1180.000	679.292	80.009	19.995	104.318	20.079	-0.025	0.532
1180.500	679.569	80.008	19.995	104.319	20.078	0.012	0.531
1181.001	679.805	80.009	19.994	104.316	20.079	-0.094	0.518
1181.501	680.042	80.009	19.995	104.311	20.078	-0.018	0.493
1182.001	680.269	80.008	19.995	104.308	20.078	0.016	0.468
1182.501	680.524	80.009	19.994	104.308	20.078	-0.020	0.472
1183.000	680.788	80.008	19.995	104.306	20.079	-0.088	0.501
1183.500	681.043	80.009	19.995	104.307	20.080	-0.143	0.519
1184.001	681.273	80.009	19.995	104.308	20.076	0.139	0.502
1184.502	681.534	80.008	19.995	104.306	20.080	-0.104	0.488
1185.001	681.802	80.009	19.994	104.308	20.079	-0.057	0.510
1185.501	682.078	80.009	19.995	104.311	20.078	-0.022	0.536
1186.001	682.324	80.009	19.993	104.312	20.078	0.008	0.533
1186.500	682.559	80.009	19.995	104.315	20.081	-0.237	0.502
1187.000	682.830	80.009	19.994	104.320	20.082	-0.249	0.493
1187.500	683.096	80.011	19.994	104.318	20.080	-0.108	0.521
1188.000	683.313	80.011	19.994	104.314	20.079	-0.088	0.510
1188.500	683.591	80.011	19.994	104.315	20.078	-0.004	0.489
1189.000	683.818	80.010	19.994	104.316	20.080	-0.131	0.500
1189.500	684.081	80.010	19.994	104.316	20.080	-0.127	0.498
1190.000	684.330	80.008	19.995	104.319	20.081	-0.206	0.501
1190.500	684.616	80.009	19.995	104.321	20.082	-0.288	0.524
1191.000	684.849	80.010	19.995	104.319	20.082	-0.255	0.527
1191.500	685.120	80.010	19.995	104.313	20.084	-0.435	0.511
1192.000	685.342	80.010	19.994	104.309	20.084	-0.433	0.498
1192.501	685.621	80.011	19.994	104.307	20.082	-0.286	0.497
1193.001	685.896	80.010	19.995	104.310	20.081	-0.180	0.528
1193.500	686.166	80.010	19.995	104.315	20.080	-0.139	0.550
1194.000	686.349	80.010	19.995	104.318	20.080	-0.135	0.499
1194.501	686.630	80.011	19.995	104.322	20.078	-0.024	0.458
1195.001	686.910	80.010	19.994	104.320	20.081	-0.190	0.513
1195.501	687.158	80.011	19.994	104.314	20.079	-0.065	0.545
1196.001	687.414	80.009	19.995	104.308	20.079	-0.069	0.516
1196.500	687.729	80.009	19.994	104.303	20.079	-0.094	0.538
1197.000	687.897	80.010	19.994	104.298	20.077	0.067	0.527
1197.500	688.190	80.010	19.995	104.297	20.081	-0.225	0.472
1198.000	688.410	80.010	19.995	104.298	20.080	-0.127	0.487
1198.500	688.680	80.009	19.995	104.299	20.080	-0.114	0.502
1199.000	688.926	80.009	19.994	104.300	20.079	-0.067	0.503
1199.500	689.158	80.010	19.994	104.300	20.078	-0.004	0.497
1200.000	689.452	80.010	19.993	104.302	20.077	0.096	0.502
1200.500	689.744	80.010	19.993	104.302	20.080	-0.102	0.556
1201.000	689.951	80.009	19.994	104.300	20.080	-0.116	0.542
1201.501	690.203	80.010	19.993	104.303	20.078	-0.022	0.479
1202.001	690.433	80.010	19.994	104.304	20.078	-0.018	0.470
1202.501	690.711	80.009	19.993	104.307	20.080	-0.155	0.495
1203.001	690.991	80.010	19.994	104.308	20.078	-0.010	0.533
1203.500	691.247	80.010	19.993	104.310	20.076	0.165	0.547
1204.000	691.488	80.009	19.993	104.309	20.081	-0.194	0.516
1204.500	691.761	80.011	19.992	104.309	20.078	0.006	0.506
1205.000	692.028	80.009	19.993	104.305	20.079	-0.033	0.527
1205.501	692.248	80.009	19.993	104.305	20.080	-0.149	0.514
1206.001	692.534	80.009	19.992	104.305	20.079	-0.045	0.496
1206.500	692.761	80.009	19.992	104.306	20.081	-0.172	0.509
1207.000	693.005	80.010	19.993	104.308	20.082	-0.308	0.492
1207.500	693.254	80.009	19.993	104.309	20.080	-0.118	0.482
1208.000	693.506	80.009	19.993	104.309	20.080	-0.133	0.497
1208.501	693.769	80.009	19.993	104.309	20.082	-0.310	0.508
1209.001	693.999	80.009	19.993	104.308	20.079	-0.080	0.504
1209.501	694.300	80.010	19.993	104.308	20.081	-0.190	0.512
1210.000	694.513	80.010	19.993	104.311	20.080	-0.106	0.523
1210.500	694.788	80.011	19.994	104.317	20.082	-0.267	0.501
1211.000	695.022	80.010	19.993	104.319	20.078	0.031	0.498
1211.500	695.315	80.010	19.993	104.323	20.077	0.061	0.517
1212.000	695.588	80.011	19.993	104.321	20.078	-0.004	0.546
1212.500	695.849	80.011	19.993	104.320	20.078	0.024	0.550
1213.000	696.089	80.011	19.994	104.315	20.077	0.055	0.518
1213.500	696.311	80.012	19.993	104.315	20.077	0.063	0.482
1214.000	696.602	80.011	19.994	104.313	20.077	0.082	0.488
1214.500	696.825	80.012	19.992	104.314	20.078	-0.002	0.513
1215.000	697.052	80.012	19.993	104.313	20.081	-0.229	0.482
1215.501	697.357	80.012	19.993	104.309	20.078	0.004	0.491
1216.001	697.599	80.010	19.993	104.305	20.080	-0.129	0.540
1216.501	697.800	80.012	19.994	104.305	20.081	-0.218	0.495
1217.000	698.106	80.012	19.993	104.303	20.080	-0.165	0.474
1217.500	698.387	80.011	19.993	104.302	20.082	-0.298	0.547
1218.000	698.607	80.012	19.994	104.303	20.081	-0.200	0.544
1218.500	698.866	80.011	19.993	104.307	20.081	-0.184	0.490
1219.001	699.122	80.012	19.992	104.309	20.078	-0.022	0.498
1219.501	699.364	80.010	19.992	104.311	20.080	-0.141	0.507
1220.000	699.660	80.010	19.993	104.312	20.076	0.143	0.518
1220.501	699.901	80.011	19.993	104.315	20.081	-0.237	0.537
1221.001	700.137	80.009	19.992	104.318	20.081	-0.218	0.507
1221.500	700.393	80.011	19.993	104.319	20.078	-0.006	0.485
1222.001	700.650	80.010	19.993	104.322	20.083	-0.349	0.503
1222.501	700.877	80.011	19.992	104.327	20.080	-0.167	0.499
1223.000	701.150	80.010	19.992	104.325	20.079	-0.029	0.492
1223.500	701.408	80.009	19.993	104.320	20.080	-0.125	0.515
1224.000	701.659	80.009	19.993	104.319	20.081	-0.178	0.519
1224.500	701.931	80.009	19.993	104.313	20.079	-0.025	0.516
1225.001	702.168	80.009	19.994	104.308	20.081	-0.200	0.516
1225.501	702.425	80.009	19.993	104.312	20.079	-0.029	0.501
1226.000	702.679	80.009	19.992	104.310	20.082	-0.284	0.502
1226.500	702.935	80.009	19.993	104.307	20.081	-0.182	0.511
1227.001	703.171	80.009	19.994	104.307	20.081	-0.239	0.501
1227.501	703.418	80.009	19.993	104.305	20.079	-0.057	0.488
1228.000	703.699	80.009	19.994	104.301	20.080	-0.122	0.505
1228.500	703.965	80.009	19.994	104.300	20.080	-0.116	0.537
1229.000	704.241	80.010	19.993	104.300	20.077	0.102	0.544
1229.500	704.441	80.010	19.993	104.300	20.082	-0.310	0.509
1230.000	704.743	80.009	19.994	104.300	20.077	0.106	0.489
1230.500	704.992	80.010	19.994	104.302	20.080	-0.102	0.527
1231.000	705.251	80.009	19.993	104.301	20.079	-0.039	0.530
1231.500	705.498	80.008	19.993	104.301	20.080	-0.149	0.507
1232.000	705.744	80.009	19.993	104.302	20.076	0.157	0.499
1232.500	706.009	80.009	19.993	104.304	20.081	-0.173	0.502
1233.000	706.240	80.009	19.993	104.305	20.080	-0.098	0.504
1233.500	706.482	80.010	19.993	104.309	20.079	-0.084	0.484
1234.000	706.751	80.010	19.993	104.312	20.079	-0.039	0.492
1234.500	707.028	80.010	19.994	104.311	20.077	0.055	0.529
1235.001	707.268	80.009	19.993	104.309	20.083	-0.331	0.531
1235.501	707.520	80.010	19.993	104.309	20.082	-0.290	0.504
1236.000	707.763	80.009	19.993	104.305	20.080	-0.159	0.494
1236.500	708.019	80.010	19.994	104.302	20.078	0.012	0.497
1237.000	708.293	80.010	19.993	104.304	20.079	-0.029	0.515
1237.500	708.512	80.009	19.993	104.304	20.078	-0.012	0.512
1238.000	708.793	80.010	19.993	104.304	20.080	-0.151	0.496
1238.500	709.032	80.009	19.994	104.304	20.081	-0.174	0.510
1239.000	709.273	80.010	19.993	104.304	20.080	-0.147	0.500
1239.500	709.505	80.010	19.993	104.303	20.080	-0.141	0.477
1240.000	709.769	80.010	19.993	104.307	20.080	-0.143	0.484
1240.500	710.057	80.009	19.994	104.311	20.077	0.080	0.524
1241.001	710.308	80.009	19.993	104.315	20.082	-0.267	0.546
1241.501	710.539	80.009	19.994	104.321	20.080	-0.165	0.511
1242.000	710.789	80.010	19.994	104.324	20.082	-0.263	0.481
1242.500	711.053	80.010	19.993	104.321	20.078	-0.014	0.497
1243.000	711.316	80.010	19.994	104.316	20.078	0.033	0.521
1243.500	711.539	80.009	19.994	104.311	20.077	0.096	0.507
1244.000	711.849	80.009	19.993	104.304	20.081	-0.182	0.510
1244.500	712.072	80.009	19.993	104.304	20.078	-0.004	0.533
1245.000	712.318	80.010	19.993	104.305	20.079	-0.049	0.501
1245.500	712.596	80.009	19.993	104.309	20.082	-0.247	0.497
1246.000	712.835	80.010	19.992	104.310	20.080	-0.137	0.521
1246.500	713.072	80.009	19.994	104.311	20.077	0.084	0.497
1247.001	713.322	80.009	19.993	104.309	20.076	0.155	0.481
1247.500	713.560	80.009	19.994	104.310	20.076	0.180	0.487
1248.000	713.814	80.009	19.994	104.307	20.076	0.182	0.490
1248.500	714.086	80.010	19.994	104.311	20.081	-0.176	0.510
1249.000	714.371	80.008	19.994	104.309	20.080	-0.122	0.542
1249.500	714.636	80.009	19.994	104.308	20.082	-0.282	0.553
1250.000	714.861	80.010	19.994	104.305	20.081	-0.233	0.520
1250.500	715.128	80.009	19.993	104.303	20.082	-0.251	0.491
1251.000	715.360	80.009	19.993	104.301	20.078	0.008	0.495
1251.500	715.676	80.009	19.993	104.303	20.084	-0.398	0.523
1252.000	715.870	80.009	19.993	104.303	20.081	-0.223	0.529
1252.500	716.129	80.010	19.994	104.307	20.083	-0.355	0.482
1253.000	716.385	80.009	19.994	104.311	20.082	-0.308	0.484
1253.500	716.653	80.009	19.994	104.315	20.082	-0.249	0.520
1254.000	716.891	80.009	19.995	104.315	20.080	-0.155	0.515
1254.500	717.153	80.010	19.993	104.316	20.081	-0.184	0.503
1255.000	717.405	80.009	19.995	104.314	20.077	0.061	0.507
1255.501	717.672	80.010	19.994	104.309	20.082	-0.243	0.517
1256.000	717.896	80.009	19.994	104.304	20.081	-0.169	0.505
1256.500	718.170	80.010	19.994	104.304	20.080	-0.106	0.495
1257.000	718.378	80.009	19.994	104.302	20.084	-0.449	0.490
1257.500	718.611	80.009	19.995	104.298	20.085	-0.480	0.462
1258.000	718.870	80.008	19.994	104.298	20.083	-0.351	0.467
1258.500	719.122	80.009	19.994	104.298	20.082	-0.259	0.501
1259.000	719.370	80.009	19.994	104.297	20.081	-0.214	0.505
1259.500	719.633	80.010	19.994	104.297	20.079	-0.080	0.505
1260.000	719.860	80.010	19.993	104.296	20.084	-0.400	0.501
1260.500	720.100	80.007	19.994	104.297	20.083	-0.353	0.479
1261.000	720.384	80.008	19.994	104.298	20.082	-0.280	0.496
1261.500	720.603	80.009	19.995	104.297	20.081	-0.206	0.513
1262.000	720.846	80.008	19.994	104.296	20.081	-0.202	0.483
1262.500	721.163	80.009	19.994	104.296	20.081	-0.210	0.511
1263.000	721.364	80.008	19.994	104.296	20.083	-0.374	0.539
1263.500	721.651	80.009	19.994	104.295	20.082	-0.280	0.503
1264.000	721.864	80.008	19.994	104.297	20.081	-0.229	0.494
1264.500	722.107	80.009	19.993	104.299	20.081	-0.200	0.478
1265.000	722.352	80.008	19.994	104.300	20.081	-0.184	0.473
1265.500	722.600	80.009	19.994	104.303	20.083	-0.333	0.490
1266.000	722.846	80.011	19.994	104.307	20.083	-0.318	0.493
1266.500	723.084	80.011	19.995	104.307	20.079	-0.076	0.489
1267.000	723.357	80.010	19.994	104.307	20.079	-0.067	0.497
1267.500	723.601	80.010	19.994	104.307	20.082	-0.257	0.514
1268.000	723.811	80.010	19.994	104.308	20.081	-0.220	0.486
1268.500	724.064	80.010	19.994	104.306	20.081	-0.171	0.458
1269.000	724.297	80.010	19.993	104.307	20.083	-0.353	0.475
1269.500	724.574	80.009	19.993	104.308	20.080	-0.127	0.498
1270.000	724.826	80.010	19.993	104.310	20.080	-0.151	0.520
1270.500	725.059	80.011	19.994	104.313	20.080	-0.149	0.507
1271.000	725.318	80.011	19.993	104.313	20.084	-0.453	0.488
1271.500	725.562	80.010	19.993	104.312	20.083	-0.321	0.498
1272.000	725.790	80.011	19.994	104.315	20.082	-0.292	0.487
1272.500	726.042	80.010	19.994	104.318	20.082	-0.276	0.476
1273.000	726.295	80.011	19.994	104.317	20.081	-0.233	0.493
1273.500	726.514	80.011	19.993	104.320	20.081	-0.229	0.488
1274.000	726.750	80.012	19.993	104.322	20.080	-0.127	0.463
1274.500	727.041	80.011	19.994	104.317	20.081	-0.194	0.491
1275.000	727.263	80.009	19.993	104.313	20.083	-0.347	0.520
1275.500	727.518	80.011	19.993	104.311	20.090	-0.831	0.495
1276.000	727.764	80.010	19.993	104.307	20.081	-0.229	0.489
1276.500	728.029	80.010	19.994	104.307	20.077	0.069	0.506
1277.000	728.262	80.010	19.994	104.308	20.081	-0.208	0.505
1277.500	728.547	80.010	19.993	104.311	20.089	-0.769	0.508
1278.000	728.776	80.010	19.994	104.308	20.095	-1.223	0.515
1278.500	729.016	80.010	19.995	104.311	20.100	-1.559	0.491
1279.000	729.263	80.008	19.994	104.312	20.084	-0.402	0.478
1279.500	729.532	80.009	19.994	104.312	20.081	-0.237	0.502
1280.000	729.779	80.010	19.995	104.307	20.091	-0.888	0.517
1280.500	730.025	80.010	19.994	104.306	20.085	-0.472	0.505
1281.000	730.257	80.008	19.994	104.303	20.091	-0.910	0.485
1281.500	730.525	80.008	19.994	104.300	20.097	-1.323	0.489
1282.000	730.764	80.009	19.994	104.298	20.093	-1.070	0.504
1282.500	731.052	80.009	19.995	104.298	20.099	-1.498	0.517
1283.000	731.272	80.008	19.995	104.299	20.091	-0.912	0.517
1283.500	731.512	80.008	19.994	104.301	20.078	0.037	0.484
1284.000	731.720	80.007	19.995	104.300	20.078	-0.014	0.454
1284.500	732.010	80.008	19.995	104.302	20.080	-0.155	0.472
1285.000	732.262	80.008	19.994	104.303	20.088	-0.686	0.520
1285.500	732.536	80.008	19.994	104.303	20.079	-0.096	0.534
1286.000	732.783	80.009	19.995	104.304	20.078	-0.022	0.524
1286.500	733.017	80.009	19.994	104.308	20.078	-0.016	0.501
1287.000	733.272	80.008	19.994	104.309	20.077	0.080	0.485
1287.500	733.538	80.010	19.994	104.310	20.079	-0.078	0.505
1288.000	733.797	80.009	19.995	104.316	20.078	0.025	0.523
1288.500	734.007	80.008	19.994	104.320	20.077	0.092	0.497
1289.000	734.268	80.010	19.994	104.318	20.081	-0.223	0.470
1289.500	734.473	80.010	19.995	104.318	20.078	0.043	0.469
1290.000	734.737	80.010	19.994	104.317	20.081	-0.196	0.467
1290.500	735.013	80.011	19.994	104.311	20.080	-0.157	0.504
1291.000	735.229	80.012	19.995	104.305	20.080	-0.139	0.516
1291.500	735.482	80.011	19.993	104.303	20.078	0.004	0.481
1292.000	735.772	80.011	19.994	104.301	20.078	0.043	0.506
1292.500	735.975	80.011	19.993	104.302	20.082	-0.249	0.517
1293.000	736.271	80.011	19.993	104.304	20.081	-0.237	0.496
1293.500	736.534	80.011	19.994	104.306	20.082	-0.282	0.529
1294.000	736.746	80.013	19.993	104.306	20.079	-0.086	0.517
1294.500	736.998	80.013	19.994	104.307	20.081	-0.194	0.470
1295.000	737.228	80.012	19.994	104.306	20.079	-0.084	0.473
1295.500	737.487	80.012	19.993	104.304	20.079	-0.084	0.485
1296.000	737.761	80.013	19.993	104.303	20.080	-0.161	0.511
1296.500	738.000	80.014	19.993	104.303	20.078	0.039	0.523
1297.000	738.259	80.013	19.993	104.302	20.081	-0.180	0.505
1297.500	738.499	80.012	19.993	104.302	20.081	-0.229	0.498
1298.000	738.762	80.013	19.993	104.302	20.079	-0.061	0.501
1298.500	739.012	80.013	19.992	104.299	20.084	-0.408	0.508
1299.000	739.263	80.013	19.992	104.299	20.081	-0.214	0.507
1299.500	739.534	80.012	19.992	104.299	20.078	0.024	0.512
1300.000	739.773	80.012	19.994	104.302	20.084	-0.421	0.516
1300.500	740.011	80.011	19.994	104.307	20.079	-0.047	0.494
1301.000	740.289	80.011	19.993	104.309	20.081	-0.227	0.496
1301.500	740.547	80.010	19.993	104.310	20.080	-0.112	0.525
1302.000	740.802	80.011	19.993	104.310	20.076	0.137	0.524
1302.500	741.123	80.011	19.993	104.305	20.080	-0.125	0.545
1303.000	741.313	80.012	19.992	104.300	20.082	-0.241	0.544
1303.500	741.653	80.010	19.993	104.299	20.079	-0.053	0.520
1304.000	741.832	80.011	19.993	104.300	20.078	0.039	0.525
1304.500	742.066	80.010	19.993	104.304	20.079	-0.043	0.466
1305.000	742.345	80.010	19.994	104.310	20.078	0.024	0.463
1305.500	742.584	80.010	19.993	104.315	20.084	-0.384	0.515
1306.000	742.857	80.010	19.993	104.313	20.078	-0.014	0.515
1306.500	743.084	80.009	19.994	104.311	20.079	-0.076	0.506
1307.001	743.336	80.009	19.994	104.308	20.081	-0.198	0.489
1307.500	743.612	80.011	19.994	104.305	20.077	0.047	0.503
