Sample ID:	C:\MCC\MCC Cal\Test\PETG_MCC_30K_min_210927_R3.txt
Sample Weight (mg):	4.56
Heating Rate (C/s):	0.5
Combustor Temp (C):	900
N2 Flow Rate (cc/min):	80
O2 Flow Rate (cc/min):	20
Calibration File:	C:\MCC\MCC Cal\Coeff1 JN10440_30_210304.txt.txt
T Correction Coefficients:	0	1.024463	0
Time Shift (s):	14
*
Time (s)	Temperature (C)	N2 flow rate (cc/min)	O2 flow rate (cc/min)	Flow Rate (cc/min)	Oxygen (%)	HRR (W/g)	Heating rate (C/s)
0.000	107.369	80.000	19.996	99.982	20.151	-0.075	0.000
0.500	107.349	79.999	19.996	99.982	20.150	-0.009	-0.025
1.000	107.400	80.000	19.996	99.982	20.152	-0.142	-0.005
1.500	107.372	80.002	19.995	99.982	20.153	-0.235	0.027
2.000	107.342	80.000	19.995	99.982	20.150	-0.009	-0.017
2.500	107.349	80.001	19.994	99.983	20.152	-0.119	-0.040
3.000	107.382	80.000	19.996	99.983	20.148	0.112	0.008
3.500	107.399	80.001	19.996	99.982	20.149	0.028	0.045
4.000	107.368	80.000	19.996	99.981	20.147	0.172	0.018
4.500	107.364	80.001	19.995	99.981	20.151	-0.054	-0.024
5.000	107.377	80.001	19.996	99.981	20.150	0.019	-0.013
5.500	107.371	80.002	19.994	99.981	20.149	0.067	0.008
6.000	107.386	80.001	19.995	99.981	20.149	0.032	0.008
6.500	107.355	80.002	19.994	99.982	20.152	-0.125	-0.003
7.000	107.390	80.001	19.994	99.983	20.151	-0.071	-0.006
7.500	107.392	80.001	19.996	99.983	20.152	-0.133	0.020
8.000	107.376	80.002	19.995	99.983	20.150	-0.024	0.012
8.500	107.377	80.000	19.995	99.983	20.149	0.026	-0.014
9.000	107.364	80.002	19.994	99.983	20.149	0.075	-0.013
9.500	107.385	80.002	19.995	99.983	20.150	-0.009	-0.002
10.000	107.381	80.002	19.995	99.983	20.146	0.254	0.013
10.500	107.382	80.000	19.995	99.984	20.146	0.232	0.007
11.000	107.344	80.001	19.995	99.986	20.150	0.006	-0.020
11.500	107.350	80.002	19.995	99.986	20.148	0.131	-0.035
12.000	107.336	80.002	19.994	99.991	20.149	0.060	-0.020
12.500	107.370	80.002	19.994	99.992	20.149	0.080	0.006
13.000	107.352	80.001	19.996	99.992	20.150	0.011	0.018
13.500	107.370	80.001	19.994	99.992	20.149	0.071	0.008
14.000	107.370	80.000	19.994	99.998	20.149	0.030	0.008
14.500	107.372	80.000	19.996	99.998	20.153	-0.183	0.010
15.000	107.353	80.001	19.997	100.001	20.149	0.058	-0.007
15.500	107.364	80.001	19.996	100.006	20.150	0.013	-0.012
16.000	107.321	80.000	19.997	100.011	20.151	-0.052	-0.020
16.500	107.375	80.000	19.997	100.010	20.148	0.153	-0.010
17.000	107.365	80.000	19.996	100.011	20.147	0.166	0.028
17.500	107.349	80.001	19.996	100.014	20.148	0.140	0.009
18.000	107.364	79.998	19.996	100.015	20.149	0.086	-0.014
18.500	107.381	79.998	19.994	100.017	20.146	0.282	0.015
19.000	107.362	79.999	19.996	100.021	20.146	0.230	0.015
19.500	107.372	79.999	19.995	100.026	20.147	0.224	-0.006
20.000	107.420	79.998	19.996	100.033	20.144	0.389	0.024
20.500	107.392	79.997	19.997	100.042	20.145	0.350	0.039
21.000	107.404	79.998	19.996	100.052	20.141	0.606	0.002
21.500	107.417	79.998	19.998	100.063	20.142	0.535	0.005
22.000	107.432	79.999	19.997	100.071	20.143	0.451	0.027
22.500	107.444	79.999	19.997	100.075	20.142	0.531	0.028
23.000	107.454	79.998	19.996	100.081	20.138	0.778	0.024
23.500	107.471	79.997	19.996	100.082	20.139	0.743	0.024
24.000	107.471	80.000	19.996	100.085	20.137	0.902	0.022
24.500	107.495	80.000	19.997	100.086	20.135	0.990	0.020
25.000	107.529	79.999	19.995	100.085	20.132	1.195	0.041
25.500	107.536	79.999	19.996	100.085	20.135	1.003	0.050
26.000	107.568	80.000	19.996	100.091	20.133	1.141	0.040
26.500	107.605	80.000	19.994	100.092	20.132	1.227	0.054
27.000	107.654	79.999	19.994	100.102	20.130	1.375	0.078
27.500	107.667	79.998	19.996	100.115	20.128	1.468	0.074
28.000	107.695	79.999	19.995	100.125	20.130	1.332	0.051
28.500	107.752	79.998	19.995	100.133	20.126	1.639	0.063
29.000	107.814	79.997	19.995	100.142	20.127	1.541	0.102
29.500	107.812	79.999	19.994	100.144	20.122	1.899	0.089
30.000	107.828	79.998	19.994	100.144	20.126	1.648	0.037
30.500	107.888	79.999	19.995	100.145	20.121	1.981	0.045
31.000	107.915	79.999	19.996	100.145	20.121	1.951	0.081
31.500	107.968	79.999	19.996	100.145	20.121	1.961	0.083
32.000	108.017	79.998	19.995	100.150	20.120	2.051	0.091
32.500	108.058	80.000	19.996	100.156	20.117	2.272	0.096
33.000	108.113	79.999	19.995	100.161	20.115	2.382	0.093
33.500	108.148	79.998	19.995	100.167	20.117	2.255	0.093
34.000	108.216	79.999	19.996	100.173	20.115	2.360	0.096
34.500	108.279	80.000	19.995	100.175	20.115	2.369	0.117
35.000	108.347	79.999	19.995	100.173	20.117	2.253	0.131
35.500	108.387	80.000	19.995	100.170	20.117	2.255	0.120
36.000	108.452	79.999	19.995	100.170	20.118	2.210	0.107
36.500	108.542	79.999	19.995	100.167	20.114	2.442	0.130
37.000	108.551	80.001	19.995	100.168	20.115	2.363	0.126
37.500	108.634	79.999	19.994	100.172	20.114	2.485	0.095
38.000	108.693	79.999	19.995	100.177	20.112	2.573	0.117
38.500	108.744	79.999	19.996	100.177	20.111	2.683	0.126
39.000	108.827	80.000	19.995	100.181	20.112	2.584	0.122
39.500	108.925	80.000	19.995	100.181	20.112	2.569	0.158
40.000	108.946	79.999	19.995	100.182	20.113	2.504	0.151
40.500	109.059	79.999	19.995	100.183	20.112	2.569	0.127
41.000	109.130	80.001	19.996	100.184	20.109	2.766	0.159
41.500	109.197	80.001	19.994	100.184	20.110	2.758	0.161
42.000	109.267	79.999	19.996	100.190	20.111	2.668	0.137
42.500	109.369	80.002	19.996	100.197	20.112	2.584	0.155
43.000	109.442	80.000	19.995	100.203	20.110	2.734	0.173
43.500	109.522	80.000	19.995	100.210	20.112	2.561	0.164
44.000	109.630	80.000	19.995	100.216	20.113	2.533	0.171
44.501	109.705	79.999	19.995	100.217	20.113	2.526	0.186
45.001	109.759	80.000	19.995	100.212	20.115	2.393	0.156
45.500	109.849	79.999	19.995	100.205	20.113	2.524	0.136
46.000	109.959	79.999	19.997	100.199	20.112	2.582	0.172
46.500	110.075	80.000	19.997	100.194	20.113	2.556	0.213
47.001	110.136	79.999	19.996	100.192	20.112	2.592	0.202
47.501	110.255	79.999	19.995	100.193	20.113	2.537	0.178
48.000	110.351	79.998	19.994	100.198	20.113	2.505	0.198
48.500	110.452	80.000	19.994	100.202	20.115	2.391	0.206
49.000	110.567	79.999	19.996	100.205	20.114	2.438	0.207
49.500	110.656	80.000	19.995	100.206	20.116	2.335	0.210
50.000	110.783	80.000	19.995	100.205	20.115	2.388	0.210
50.500	110.869	79.999	19.995	100.206	20.113	2.510	0.215
51.000	110.999	79.999	19.996	100.208	20.114	2.450	0.215
51.501	111.094	80.000	19.996	100.209	20.114	2.453	0.220
52.001	111.174	79.999	19.995	100.211	20.115	2.395	0.200
52.500	111.314	79.999	19.995	100.212	20.117	2.268	0.198
53.000	111.428	79.998	19.995	100.207	20.115	2.380	0.237
53.500	111.547	79.999	19.995	100.201	20.114	2.427	0.244
54.001	111.659	79.999	19.996	100.196	20.112	2.611	0.232
54.501	111.784	79.998	19.996	100.193	20.112	2.624	0.234
55.000	111.852	79.999	19.995	100.196	20.111	2.648	0.215
55.500	111.976	79.999	19.996	100.202	20.111	2.672	0.193
56.000	112.128	79.998	19.996	100.207	20.110	2.721	0.234
56.500	112.272	79.998	19.996	100.212	20.109	2.803	0.286
57.000	112.358	80.000	19.996	100.213	20.109	2.830	0.263
57.500	112.505	80.000	19.996	100.210	20.109	2.796	0.232
58.000	112.649	79.999	19.995	100.205	20.107	2.933	0.262
58.500	112.778	79.999	19.995	100.202	20.108	2.903	0.282
59.000	112.909	80.001	19.996	100.203	20.106	2.989	0.267
59.500	113.029	80.000	19.995	100.204	20.108	2.871	0.256
60.000	113.157	80.000	19.995	100.209	20.108	2.852	0.249
60.500	113.312	80.000	19.994	100.214	20.105	3.049	0.265
61.000	113.426	80.001	19.995	100.218	20.107	2.942	0.276
61.500	113.533	80.001	19.995	100.220	20.105	3.086	0.245
62.000	113.706	80.001	19.993	100.220	20.105	3.041	0.250
62.500	113.836	79.999	19.996	100.220	20.106	2.977	0.291
63.000	113.990	80.001	19.995	100.221	20.105	3.075	0.294
63.500	114.131	80.002	19.994	100.221	20.106	3.000	0.290
64.000	114.308	80.001	19.995	100.221	20.104	3.116	0.306
64.500	114.423	80.001	19.995	100.221	20.104	3.161	0.305
65.000	114.554	80.000	19.996	100.220	20.107	2.921	0.269
65.500	114.705	80.001	19.996	100.220	20.105	3.099	0.264
66.000	114.828	80.002	19.994	100.220	20.105	3.084	0.278
66.500	115.002	80.003	19.994	100.219	20.107	2.970	0.286
67.000	115.147	80.003	19.995	100.219	20.103	3.206	0.308
67.500	115.277	80.002	19.994	100.220	20.105	3.077	0.297
68.000	115.420	80.001	19.995	100.219	20.109	2.807	0.274
68.500	115.595	80.002	19.995	100.219	20.104	3.126	0.296
69.000	115.714	80.000	19.994	100.219	20.106	2.989	0.306
69.500	115.868	80.001	19.994	100.219	20.107	2.953	0.284
70.000	116.029	80.000	19.995	100.218	20.107	2.912	0.294
70.500	116.183	80.001	19.995	100.218	20.105	3.051	0.315
71.000	116.326	80.002	19.995	100.218	20.104	3.140	0.307
71.500	116.501	80.001	19.995	100.219	20.107	2.959	0.308
72.000	116.661	80.001	19.997	100.219	20.105	3.099	0.326
72.500	116.796	80.001	19.995	100.219	20.102	3.260	0.315
73.000	116.988	79.999	19.995	100.220	20.105	3.090	0.311
73.500	117.122	80.000	19.995	100.221	20.103	3.230	0.327
74.000	117.284	80.000	19.995	100.221	20.103	3.238	0.311
74.500	117.452	80.000	19.995	100.221	20.105	3.073	0.312
75.000	117.626	80.000	19.996	100.220	20.107	2.916	0.336
75.500	117.775	79.999	19.995	100.220	20.105	3.053	0.333
76.001	117.953	79.999	19.995	100.219	20.106	3.004	0.325
76.501	118.137	80.000	19.996	100.219	20.105	3.051	0.344
77.000	118.330	80.000	19.996	100.223	20.107	2.933	0.370
77.500	118.459	79.999	19.997	100.230	20.104	3.171	0.349
78.000	118.632	79.999	19.996	100.231	20.105	3.045	0.312
78.500	118.831	79.999	19.995	100.231	20.107	2.961	0.337
79.000	119.005	79.999	19.995	100.231	20.106	3.006	0.372
79.500	119.170	79.999	19.996	100.228	20.103	3.219	0.356
80.000	119.339	79.999	19.997	100.222	20.104	3.158	0.336
80.500	119.479	79.999	19.996	100.222	20.106	3.030	0.321
81.000	119.684	79.999	19.996	100.225	20.105	3.072	0.327
81.500	119.866	79.999	19.996	100.225	20.102	3.296	0.366
82.000	120.016	79.998	19.996	100.225	20.103	3.193	0.359
82.500	120.229	80.000	19.996	100.225	20.103	3.229	0.347
83.000	120.382	80.001	19.997	100.226	20.102	3.260	0.364
83.500	120.588	79.998	19.995	100.224	20.103	3.212	0.363
84.000	120.784	80.001	19.995	100.225	20.105	3.043	0.381
84.500	120.943	80.000	19.995	100.227	20.103	3.214	0.378
85.000	121.134	80.001	19.995	100.228	20.102	3.253	0.352
85.500	121.312	80.000	19.995	100.227	20.102	3.255	0.360
86.000	121.466	80.000	19.996	100.229	20.102	3.268	0.350
86.500	121.661	80.001	19.995	100.230	20.100	3.447	0.340
87.000	121.838	80.002	19.996	100.232	20.099	3.466	0.361
87.500	122.055	80.001	19.996	100.234	20.104	3.174	0.383
88.001	122.221	80.001	19.996	100.235	20.103	3.182	0.388
88.501	122.418	80.000	19.995	100.237	20.099	3.503	0.373
89.000	122.633	80.001	19.996	100.236	20.100	3.414	0.388
89.500	122.826	80.002	19.995	100.234	20.100	3.449	0.409
90.000	123.004	80.001	19.996	100.234	20.102	3.285	0.389
90.500	123.204	80.002	19.996	100.238	20.100	3.437	0.375
91.000	123.398	80.001	19.995	100.239	20.097	3.654	0.386
91.500	123.621	80.001	19.995	100.237	20.099	3.454	0.406
92.000	123.819	80.001	19.995	100.238	20.099	3.515	0.419
92.500	123.975	80.002	19.995	100.238	20.101	3.371	0.388
93.000	124.185	80.002	19.996	100.233	20.101	3.322	0.360
93.500	124.372	80.002	19.995	100.232	20.102	3.305	0.381
94.000	124.596	80.001	19.995	100.232	20.101	3.335	0.404
94.500	124.780	80.003	19.994	100.235	20.105	3.069	0.410
95.000	124.956	80.001	19.996	100.235	20.098	3.579	0.384
95.500	125.153	80.001	19.995	100.234	20.100	3.401	0.366
96.000	125.365	80.001	19.994	100.230	20.097	3.605	0.391
96.500	125.542	80.000	19.996	100.230	20.099	3.498	0.398
97.000	125.739	80.000	19.995	100.224	20.101	3.378	0.381
97.500	125.979	79.999	19.995	100.222	20.101	3.341	0.406
98.001	126.175	80.001	19.995	100.221	20.103	3.215	0.437
98.501	126.376	80.000	19.995	100.223	20.102	3.292	0.417
99.000	126.584	80.000	19.995	100.223	20.103	3.189	0.403
99.500	126.783	79.999	19.994	100.223	20.099	3.460	0.407
100.000	126.969	79.999	19.994	100.223	20.097	3.597	0.396
100.500	127.154	79.999	19.996	100.226	20.101	3.365	0.379
101.000	127.364	79.998	19.996	100.229	20.098	3.580	0.383
101.500	127.572	79.998	19.995	100.236	20.101	3.330	0.406
102.000	127.778	79.998	19.996	100.240	20.099	3.513	0.416
102.500	127.915	79.998	19.995	100.247	20.099	3.519	0.379
103.001	128.183	79.997	19.996	100.246	20.097	3.604	0.374
103.501	128.379	79.999	19.995	100.242	20.102	3.304	0.434
104.000	128.590	79.998	19.996	100.236	20.099	3.510	0.435
104.500	128.839	79.999	19.996	100.233	20.098	3.558	0.434
105.000	128.991	80.000	19.995	100.226	20.098	3.541	0.431
105.500	129.212	80.000	19.996	100.228	20.099	3.511	0.387
106.000	129.472	79.999	19.996	100.232	20.099	3.453	0.427
106.500	129.645	79.998	19.995	100.231	20.102	3.299	0.457
107.000	129.899	79.997	19.997	100.229	20.100	3.391	0.430
107.500	130.110	79.997	19.995	100.230	20.102	3.299	0.446
108.000	130.286	79.999	19.996	100.232	20.100	3.406	0.426
108.500	130.520	79.998	19.996	100.230	20.101	3.376	0.399
109.000	130.716	79.998	19.996	100.229	20.100	3.391	0.420
109.500	130.936	79.999	19.996	100.230	20.101	3.318	0.422
110.000	131.128	79.997	19.996	100.228	20.100	3.406	0.414
110.500	131.371	79.999	19.996	100.224	20.099	3.457	0.424
111.000	131.592	79.997	19.996	100.222	20.102	3.311	0.450
111.500	131.765	79.998	19.997	100.222	20.101	3.324	0.429
112.000	132.019	80.000	19.997	100.226	20.103	3.242	0.410
112.500	132.212	79.999	19.997	100.230	20.101	3.377	0.437
113.000	132.457	79.999	19.996	100.234	20.101	3.334	0.442
113.500	132.648	80.000	19.995	100.245	20.098	3.551	0.437
114.000	132.882	79.998	19.997	100.254	20.101	3.328	0.431
114.500	133.084	79.999	19.996	100.249	20.101	3.352	0.431
115.000	133.311	79.999	19.997	100.240	20.100	3.392	0.433
115.500	133.533	79.999	19.995	100.234	20.103	3.212	0.439
116.000	133.737	79.998	19.996	100.224	20.102	3.289	0.438
116.500	133.961	79.999	19.996	100.216	20.100	3.391	0.427
117.000	134.179	79.999	19.996	100.218	20.103	3.232	0.435
117.500	134.358	79.999	19.997	100.223	20.100	3.440	0.419
118.000	134.584	79.998	19.996	100.223	20.099	3.468	0.401
118.500	134.819	79.999	19.996	100.221	20.101	3.318	0.434
119.000	135.053	80.000	19.996	100.219	20.102	3.279	0.465
119.500	135.264	79.997	19.995	100.219	20.104	3.112	0.457
120.000	135.490	79.999	19.995	100.219	20.100	3.413	0.441
120.501	135.723	79.999	19.995	100.220	20.100	3.432	0.448
121.001	135.964	79.999	19.995	100.225	20.099	3.455	0.467
121.500	136.171	79.999	19.997	100.232	20.101	3.339	0.461
122.000	136.384	79.999	19.995	100.239	20.100	3.413	0.434
122.500	136.633	80.000	19.996	100.241	20.102	3.281	0.441
123.000	136.878	79.999	19.995	100.243	20.098	3.531	0.478
123.500	137.078	80.000	19.996	100.243	20.098	3.576	0.469
124.000	137.308	80.000	19.994	100.241	20.101	3.350	0.437
124.500	137.540	79.999	19.995	100.237	20.101	3.382	0.446
125.000	137.752	80.000	19.995	100.237	20.098	3.521	0.453
125.500	138.011	79.999	19.995	100.237	20.101	3.350	0.457
126.000	138.186	80.000	19.995	100.235	20.100	3.391	0.453
126.500	138.424	79.999	19.995	100.236	20.098	3.582	0.424
127.000	138.694	79.999	19.996	100.234	20.100	3.436	0.460
127.500	138.913	80.001	19.995	100.231	20.098	3.541	0.498
128.000	139.150	79.999	19.995	100.228	20.101	3.361	0.472
128.500	139.398	79.999	19.995	100.226	20.099	3.470	0.470
129.000	139.614	79.999	19.995	100.221	20.099	3.480	0.474
129.500	139.824	79.999	19.996	100.220	20.101	3.375	0.445
130.000	140.059	80.000	19.996	100.219	20.101	3.371	0.436
130.500	140.306	79.999	19.995	100.219	20.098	3.551	0.464
131.000	140.574	79.999	19.996	100.219	20.097	3.633	0.499
131.500	140.793	79.999	19.995	100.220	20.099	3.455	0.501
132.000	141.013	79.999	19.995	100.219	20.098	3.539	0.463
132.500	141.210	79.999	19.995	100.219	20.095	3.768	0.428
133.000	141.464	79.999	19.995	100.219	20.097	3.630	0.434
133.500	141.687	79.999	19.995	100.219	20.097	3.598	0.463
134.000	141.908	79.999	19.996	100.221	20.097	3.600	0.461
134.500	142.135	79.999	19.994	100.222	20.095	3.778	0.447
135.000	142.397	79.998	19.995	100.227	20.098	3.527	0.469
135.500	142.631	79.998	19.996	100.229	20.097	3.646	0.492
136.000	142.852	80.000	19.995	100.230	20.100	3.448	0.475
136.500	143.119	79.999	19.995	100.228	20.101	3.352	0.472
137.000	143.330	79.999	19.995	100.226	20.102	3.309	0.483
137.500	143.576	79.998	19.995	100.222	20.102	3.251	0.467
138.000	143.804	79.998	19.995	100.220	20.098	3.546	0.465
138.500	144.078	79.998	19.995	100.221	20.098	3.569	0.488
139.000	144.288	79.998	19.996	100.226	20.100	3.443	0.493
139.500	144.523	79.998	19.994	100.230	20.103	3.243	0.465
140.000	144.751	80.000	19.996	100.237	20.100	3.432	0.454
140.500	144.986	79.999	19.995	100.241	20.102	3.249	0.463
141.000	145.251	79.999	19.995	100.243	20.099	3.511	0.481
141.500	145.468	80.000	19.995	100.243	20.100	3.398	0.492
142.000	145.723	80.001	19.995	100.240	20.098	3.537	0.477
142.500	145.935	79.999	19.997	100.234	20.097	3.597	0.469
143.000	146.215	80.000	19.996	100.235	20.104	3.161	0.479
143.500	146.438	79.999	19.994	100.239	20.101	3.339	0.498
144.000	146.683	79.999	19.995	100.243	20.100	3.442	0.485
144.500	146.930	79.999	19.995	100.248	20.097	3.651	0.480
145.000	147.115	80.000	19.995	100.253	20.100	3.388	0.462
145.500	147.418	80.000	19.996	100.248	20.099	3.519	0.460
146.000	147.623	79.999	19.995	100.242	20.100	3.393	0.498
146.500	147.880	79.999	19.994	100.237	20.099	3.481	0.485
147.000	148.100	80.001	19.997	100.231	20.098	3.548	0.470
147.500	148.358	80.000	19.995	100.226	20.099	3.498	0.478
148.000	148.570	80.001	19.996	100.226	20.096	3.722	0.474
148.500	148.843	80.001	19.995	100.224	20.097	3.595	0.477
149.000	149.096	80.000	19.995	100.222	20.099	3.485	0.505
149.500	149.357	80.001	19.995	100.222	20.098	3.532	0.520
150.000	149.617	80.001	19.994	100.221	20.098	3.547	0.518
150.500	149.859	80.001	19.996	100.221	20.098	3.588	0.512
151.000	150.075	80.000	19.994	100.220	20.101	3.378	0.480
151.500	150.334	80.000	19.996	100.218	20.096	3.659	0.466
152.000	150.585	80.000	19.994	100.217	20.098	3.526	0.492
152.500	150.831	80.001	19.994	100.218	20.103	3.228	0.504
153.000	151.060	79.999	19.994	100.218	20.101	3.314	0.486
153.500	151.328	80.000	19.994	100.220	20.100	3.410	0.486
154.000	151.561	79.999	19.996	100.223	20.100	3.436	0.499
154.500	151.800	80.000	19.994	100.223	20.098	3.522	0.486
155.000	152.074	79.999	19.993	100.226	20.099	3.513	0.493
155.500	152.289	79.999	19.995	100.227	20.097	3.593	0.501
156.000	152.544	80.000	19.994	100.227	20.102	3.286	0.479
156.500	152.820	79.999	19.994	100.226	20.101	3.361	0.500
157.000	153.050	80.000	19.995	100.227	20.097	3.619	0.519
157.500	153.329	80.000	19.994	100.224	20.095	3.752	0.507
158.000	153.530	79.999	19.995	100.223	20.099	3.498	0.495
158.500	153.790	79.999	19.994	100.222	20.099	3.479	0.471
159.000	154.025	80.000	19.994	100.222	20.099	3.455	0.478
159.500	154.245	80.000	19.995	100.222	20.101	3.369	0.475
160.000	154.484	79.999	19.994	100.224	20.102	3.266	0.457
160.500	154.779	79.999	19.994	100.228	20.100	3.425	0.497
161.000	155.028	80.000	19.995	100.235	20.101	3.335	0.539
161.500	155.245	79.999	19.996	100.236	20.100	3.421	0.505
162.000	155.492	80.002	19.995	100.236	20.102	3.301	0.465
162.500	155.771	79.999	19.995	100.234	20.101	3.372	0.495
163.000	156.011	80.000	19.994	100.231	20.101	3.316	0.523
163.500	156.205	80.000	19.994	100.225	20.100	3.423	0.477
164.000	156.485	80.000	19.995	100.224	20.100	3.445	0.454
164.500	156.746	80.000	19.994	100.224	20.102	3.296	0.507
165.000	156.984	80.000	19.995	100.226	20.102	3.303	0.520
165.500	157.251	80.000	19.995	100.226	20.101	3.380	0.502
166.000	157.525	80.001	19.994	100.225	20.102	3.271	0.523
166.500	157.778	80.001	19.996	100.225	20.103	3.189	0.534
167.000	158.005	80.001	19.996	100.225	20.100	3.436	0.504
167.500	158.299	80.001	19.995	100.223	20.101	3.357	0.500
168.000	158.544	80.000	19.994	100.222	20.100	3.402	0.530
168.500	158.800	80.001	19.995	100.222	20.100	3.449	0.520
169.000	159.020	80.002	19.996	100.223	20.099	3.453	0.489
169.500	159.292	80.002	19.995	100.225	20.101	3.342	0.484
170.000	159.526	80.001	19.996	100.225	20.100	3.430	0.499
170.500	159.759	80.001	19.994	100.225	20.102	3.301	0.487
171.000	160.030	80.001	19.996	100.224	20.103	3.185	0.485
171.500	160.308	80.001	19.995	100.222	20.101	3.320	0.526
172.000	160.516	80.000	19.995	100.217	20.104	3.134	0.518
172.500	160.759	80.001	19.994	100.216	20.102	3.254	0.469
173.000	161.028	80.002	19.996	100.216	20.103	3.222	0.481
173.500	161.284	80.001	19.995	100.216	20.103	3.198	0.518
174.000	161.506	80.001	19.997	100.216	20.103	3.198	0.502
174.500	161.786	80.002	19.996	100.217	20.103	3.189	0.490
175.000	162.065	80.001	19.995	100.217	20.103	3.222	0.530
175.500	162.314	80.001	19.997	100.217	20.106	2.988	0.543
176.000	162.563	80.000	19.997	100.217	20.101	3.377	0.513
176.500	162.799	80.001	19.995	100.218	20.100	3.402	0.492
177.000	163.036	80.000	19.996	100.220	20.102	3.312	0.479
177.500	163.275	80.000	19.996	100.220	20.103	3.235	0.475
178.000	163.571	80.001	19.996	100.222	20.104	3.132	0.506
178.500	163.820	80.001	19.996	100.223	20.101	3.318	0.540
179.000	164.055	80.000	19.995	100.222	20.102	3.267	0.514
179.500	164.370	79.999	19.997	100.217	20.101	3.366	0.517
180.000	164.551	80.000	19.995	100.215	20.105	3.080	0.523
180.500	164.837	80.001	19.996	100.211	20.103	3.199	0.481
181.000	165.102	80.000	19.996	100.208	20.100	3.445	0.509
181.500	165.330	80.000	19.996	100.209	20.101	3.351	0.522
182.000	165.597	79.999	19.996	100.212	20.104	3.145	0.494
182.500	165.831	79.999	19.996	100.211	20.100	3.428	0.498
183.000	166.094	79.999	19.995	100.212	20.100	3.396	0.499
183.500	166.350	79.998	19.996	100.214	20.100	3.414	0.508
184.000	166.621	80.000	19.996	100.214	20.102	3.253	0.523
184.500	166.912	80.000	19.996	100.215	20.101	3.366	0.545
185.000	167.109	79.999	19.996	100.213	20.100	3.394	0.525
185.500	167.358	80.000	19.996	100.208	20.103	3.222	0.467
186.000	167.632	80.000	19.996	100.205	20.102	3.276	0.485
186.500	167.887	79.999	19.996	100.204	20.103	3.194	0.526
187.000	168.118	80.000	19.996	100.203	20.100	3.426	0.507
187.500	168.378	79.997	19.996	100.205	20.099	3.493	0.488
188.000	168.647	79.999	19.996	100.210	20.102	3.291	0.510
188.500	168.868	80.000	19.996	100.212	20.101	3.356	0.510
189.000	169.127	79.999	19.995	100.210	20.102	3.270	0.485
189.500	169.348	80.001	19.995	100.206	20.105	3.064	0.480
190.000	169.632	80.000	19.995	100.202	20.103	3.199	0.493
190.500	169.906	79.999	19.995	100.198	20.100	3.403	0.531
191.000	170.154	80.000	19.996	100.194	20.103	3.196	0.540
191.500	170.409	79.999	19.995	100.194	20.105	3.098	0.512
192.000	170.669	80.000	19.996	100.199	20.101	3.353	0.509
192.500	170.886	80.000	19.996	100.205	20.105	3.098	0.496
193.000	171.148	79.999	19.996	100.203	20.105	3.078	0.479
193.500	171.402	79.998	19.995	100.201	20.104	3.123	0.498
194.000	171.666	79.998	19.996	100.196	20.103	3.244	0.517
194.500	171.922	80.000	19.996	100.189	20.104	3.173	0.519
195.000	172.157	79.999	19.995	100.184	20.105	3.087	0.505
195.500	172.417	80.000	19.996	100.186	20.101	3.364	0.493
196.000	172.638	79.998	19.996	100.190	20.106	2.997	0.488
196.500	172.920	79.998	19.997	100.197	20.102	3.263	0.492
197.000	173.147	79.999	19.996	100.200	20.104	3.134	0.506
197.500	173.398	79.999	19.996	100.201	20.104	3.139	0.494
198.000	173.665	79.998	19.996	100.200	20.101	3.314	0.498
198.500	173.921	79.999	19.995	100.196	20.108	2.893	0.521
199.000	174.153	80.000	19.996	100.191	20.104	3.164	0.505
199.500	174.444	79.998	19.996	100.188	20.103	3.185	0.505
200.000	174.676	79.998	19.996	100.188	20.105	3.104	0.524
200.500	174.932	80.000	19.998	100.188	20.106	2.990	0.506
201.000	175.176	80.000	19.997	100.189	20.107	2.919	0.494
201.500	175.394	79.999	19.996	100.194	20.105	3.093	0.480
202.000	175.677	79.998	19.997	100.197	20.105	3.044	0.481
202.500	175.927	80.000	19.997	100.194	20.104	3.143	0.517
203.000	176.184	79.999	19.997	100.197	20.106	2.990	0.520
203.500	176.467	79.998	19.997	100.197	20.105	3.040	0.524
204.000	176.687	79.998	19.997	100.194	20.107	2.954	0.521
204.500	176.948	79.998	19.997	100.193	20.101	3.328	0.492
205.000	177.197	79.998	19.996	100.196	20.103	3.244	0.496
205.500	177.423	79.999	19.997	100.192	20.106	3.001	0.493
206.000	177.700	79.998	19.998	100.191	20.104	3.132	0.489
206.500	177.942	79.998	19.995	100.189	20.102	3.295	0.510
207.000	178.179	79.999	19.996	100.186	20.106	3.035	0.499
207.500	178.455	79.997	19.996	100.187	20.107	2.952	0.496
208.000	178.686	79.998	19.996	100.191	20.104	3.173	0.510
208.500	178.919	79.998	19.995	100.195	20.105	3.057	0.486
209.000	179.171	79.999	19.996	100.198	20.105	3.094	0.475
209.500	179.418	79.998	19.997	100.201	20.108	2.900	0.492
210.000	179.663	79.997	19.997	100.202	20.103	3.227	0.496
210.500	179.937	79.997	19.996	100.201	20.106	3.006	0.505
211.000	180.214	79.999	19.996	100.201	20.108	2.870	0.535
211.500	180.435	79.998	19.995	100.202	20.108	2.883	0.524
212.000	180.679	80.000	19.994	100.206	20.103	3.212	0.482
212.500	180.924	79.999	19.995	100.203	20.109	2.819	0.477
213.000	181.151	80.000	19.994	100.200	20.110	2.733	0.480
213.500	181.432	79.999	19.996	100.195	20.109	2.815	0.490
214.000	181.667	79.998	19.996	100.191	20.109	2.799	0.512
214.500	181.947	79.998	19.996	100.185	20.110	2.701	0.516
215.000	182.200	80.000	19.995	100.184	20.108	2.868	0.524
215.500	182.434	79.998	19.996	100.188	20.103	3.179	0.509
216.000	182.706	80.000	19.995	100.191	20.110	2.733	0.496
216.500	182.953	79.998	19.995	100.198	20.109	2.819	0.513
217.000	183.187	79.998	19.995	100.202	20.108	2.900	0.500
217.500	183.436	79.999	19.995	100.203	20.108	2.855	0.482
218.000	183.691	79.997	19.996	100.202	20.109	2.778	0.494
218.500	183.893	79.999	19.995	100.198	20.110	2.722	0.481
219.000	184.202	79.999	19.996	100.194	20.109	2.765	0.484
219.500	184.445	79.999	19.996	100.191	20.109	2.830	0.531
220.000	184.657	79.999	19.994	100.190	20.111	2.677	0.503
220.500	184.905	79.999	19.994	100.191	20.108	2.851	0.458
221.000	185.220	79.998	19.995	100.191	20.108	2.877	0.512
221.500	185.421	79.998	19.995	100.188	20.105	3.053	0.539
222.000	185.686	79.997	19.996	100.187	20.108	2.894	0.491
222.500	185.969	79.999	19.995	100.186	20.106	2.989	0.507
223.000	186.196	79.998	19.994	100.184	20.109	2.817	0.530
223.500	186.451	79.999	19.994	100.183	20.104	3.135	0.496
224.000	186.720	79.998	19.995	100.183	20.108	2.870	0.503
224.500	186.991	79.999	19.995	100.183	20.104	3.109	0.532
225.000	187.214	80.000	19.996	100.184	20.106	2.971	0.517
225.500	187.504	79.999	19.994	100.184	20.107	2.918	0.503
226.000	187.706	80.000	19.995	100.186	20.111	2.690	0.502
226.500	187.976	80.000	19.995	100.186	20.111	2.671	0.482
227.000	188.261	80.000	19.995	100.186	20.108	2.866	0.514
227.500	188.481	79.999	19.995	100.185	20.107	2.905	0.530
228.000	188.749	80.001	19.997	100.185	20.106	3.002	0.496
228.500	188.980	80.001	19.994	100.183	20.109	2.791	0.493
229.000	189.193	80.001	19.995	100.183	20.108	2.834	0.471
229.500	189.457	80.001	19.995	100.183	20.105	3.040	0.460
230.000	189.728	80.000	19.997	100.183	20.107	2.944	0.506
230.500	189.963	80.000	19.994	100.182	20.110	2.709	0.521
231.000	190.232	80.000	19.995	100.183	20.106	3.006	0.505
231.500	190.457	80.000	19.995	100.182	20.108	2.838	0.499
232.000	190.694	79.999	19.995	100.182	20.106	2.982	0.478
232.500	190.950	80.000	19.996	100.181	20.111	2.690	0.477
233.000	191.173	80.000	19.995	100.182	20.109	2.828	0.486
233.500	191.468	79.999	19.994	100.182	20.107	2.948	0.498
234.000	191.710	79.999	19.995	100.182	20.111	2.645	0.528
234.500	191.954	79.999	19.995	100.182	20.108	2.888	0.512
235.000	192.192	79.999	19.995	100.181	20.108	2.840	0.484
235.500	192.425	79.999	19.995	100.183	20.108	2.871	0.476
236.000	192.691	79.998	19.996	100.183	20.109	2.781	0.485
236.500	192.948	79.999	19.995	100.183	20.109	2.793	0.511
237.000	193.165	79.998	19.995	100.183	20.111	2.686	0.498
237.500	193.414	79.999	19.995	100.183	20.112	2.606	0.470
238.000	193.669	79.999	19.995	100.181	20.111	2.647	0.485
238.500	193.920	80.000	19.996	100.180	20.110	2.755	0.505
239.000	194.168	79.999	19.995	100.180	20.110	2.733	0.503
239.500	194.373	80.000	19.995	100.179	20.111	2.688	0.476
240.000	194.669	80.001	19.995	100.179	20.110	2.697	0.477
240.500	194.843	80.000	19.995	100.179	20.110	2.714	0.485
241.000	195.142	80.000	19.994	100.179	20.111	2.651	0.471
241.500	195.402	79.999	19.996	100.178	20.108	2.882	0.516
242.000	195.634	80.001	19.995	100.178	20.113	2.521	0.526
242.500	195.877	80.000	19.996	100.178	20.112	2.594	0.484
243.000	196.111	80.000	19.995	100.178	20.109	2.809	0.476
243.500	196.384	80.001	19.994	100.178	20.111	2.692	0.492
244.000	196.612	80.001	19.995	100.179	20.114	2.435	0.504
244.500	196.832	80.000	19.995	100.178	20.114	2.480	0.475
245.000	197.096	80.000	19.995	100.178	20.112	2.617	0.466
245.500	197.325	80.002	19.994	100.178	20.110	2.718	0.489
246.000	197.561	80.000	19.995	100.175	20.112	2.611	0.479
246.500	197.819	80.000	19.994	100.171	20.112	2.622	0.479
247.000	198.058	80.000	19.994	100.168	20.106	3.010	0.495
247.500	198.302	80.001	19.995	100.166	20.111	2.694	0.490
248.000	198.571	80.001	19.996	100.167	20.111	2.643	0.498
248.500	198.837	80.002	19.994	100.170	20.110	2.724	0.524
249.000	199.067	79.999	19.995	100.174	20.114	2.471	0.515
249.500	199.302	80.003	19.994	100.177	20.110	2.701	0.480
250.000	199.529	80.002	19.993	100.177	20.110	2.709	0.464
250.500	199.781	80.001	19.994	100.176	20.113	2.555	0.471
251.000	200.013	80.001	19.994	100.176	20.110	2.735	0.481
251.500	200.300	80.001	19.994	100.175	20.109	2.778	0.501
252.000	200.508	80.002	19.994	100.171	20.109	2.789	0.507
252.500	200.757	80.002	19.994	100.169	20.110	2.762	0.476
253.000	200.968	80.001	19.995	100.166	20.111	2.663	0.458
253.500	201.229	80.002	19.994	100.163	20.110	2.710	0.466
254.000	201.485	80.002	19.996	100.164	20.108	2.856	0.494
254.500	201.695	80.003	19.994	100.169	20.110	2.735	0.492
255.000	201.963	80.002	19.995	100.172	20.108	2.899	0.473
255.500	202.163	80.001	19.995	100.174	20.107	2.941	0.473
256.000	202.444	80.003	19.996	100.175	20.107	2.903	0.474
256.500	202.689	80.002	19.995	100.174	20.109	2.787	0.503
257.000	202.930	80.002	19.994	100.172	20.110	2.733	0.506
257.500	203.177	80.002	19.995	100.171	20.109	2.817	0.487
258.000	203.410	80.002	19.994	100.171	20.107	2.929	0.484
258.500	203.695	80.002	19.995	100.174	20.109	2.809	0.499
259.000	203.898	80.000	19.996	100.175	20.109	2.781	0.503
259.500	204.151	80.000	19.995	100.174	20.110	2.761	0.472
260.000	204.372	80.002	19.994	100.175	20.107	2.933	0.465
260.500	204.624	80.000	19.996	100.174	20.110	2.763	0.474
261.000	204.865	80.001	19.995	100.173	20.110	2.729	0.483
261.500	205.107	79.999	19.996	100.172	20.109	2.767	0.488
262.000	205.334	79.999	19.995	100.171	20.108	2.892	0.476
262.500	205.598	80.000	19.994	100.164	20.108	2.864	0.480
263.000	205.829	79.999	19.997	100.157	20.107	2.948	0.493
263.500	206.094	79.999	19.996	100.154	20.111	2.666	0.496
264.000	206.338	79.997	19.996	100.153	20.110	2.714	0.503
264.500	206.561	80.000	19.996	100.156	20.108	2.849	0.488
265.000	206.819	79.999	19.997	100.164	20.110	2.737	0.474
265.500	207.072	79.998	19.996	100.172	20.108	2.875	0.496
266.000	207.285	79.999	19.996	100.177	20.107	2.965	0.488
266.500	207.536	80.000	19.996	100.178	20.108	2.836	0.465
267.000	207.792	79.999	19.996	100.177	20.107	2.912	0.486
267.500	208.037	80.000	19.996	100.175	20.110	2.763	0.504
268.000	208.298	79.999	19.996	100.173	20.108	2.888	0.503
268.500	208.528	79.999	19.997	100.171	20.111	2.680	0.498
269.000	208.752	79.999	19.996	100.170	20.111	2.693	0.473
269.500	208.976	79.999	19.996	100.170	20.112	2.564	0.451
270.000	209.219	79.999	19.996	100.172	20.110	2.735	0.457
270.500	209.469	79.998	19.996	100.174	20.110	2.724	0.480
271.000	209.708	80.000	19.996	100.175	20.109	2.783	0.491
271.500	209.963	79.999	19.995	100.176	20.112	2.587	0.491
272.000	210.230	79.999	19.996	100.176	20.111	2.630	0.508
272.500	210.470	79.999	19.995	100.177	20.110	2.701	0.515
273.000	210.684	79.998	19.997	100.177	20.113	2.546	0.480
273.500	210.928	79.998	19.996	100.178	20.111	2.688	0.456
274.000	211.201	79.998	19.996	100.180	20.111	2.692	0.488
274.500	211.442	79.999	19.996	100.181	20.108	2.860	0.516
275.000	211.676	79.999	19.995	100.177	20.108	2.901	0.494
275.500	211.896	79.999	19.996	100.172	20.107	2.965	0.464
276.000	212.168	79.999	19.994	100.169	20.106	2.980	0.473
276.500	212.422	79.998	19.996	100.166	20.108	2.845	0.509
277.000	212.650	79.999	19.997	100.164	20.107	2.939	0.504
277.500	212.910	79.998	19.996	100.165	20.108	2.890	0.485
278.000	213.151	79.999	19.997	100.166	20.104	3.139	0.495
278.500	213.401	80.000	19.996	100.162	20.107	2.953	0.496
279.000	213.642	80.000	19.995	100.160	20.108	2.864	0.491
279.500	213.871	80.000	19.995	100.162	20.105	3.065	0.481
280.000	214.116	79.999	19.995	100.164	20.110	2.738	0.472
280.500	214.333	79.999	19.995	100.167	20.108	2.877	0.468
281.000	214.602	80.000	19.995	100.172	20.108	2.860	0.474
281.500	214.854	80.000	19.995	100.173	20.111	2.636	0.503
282.000	215.090	80.000	19.996	100.170	20.111	2.694	0.504
282.500	215.326	79.998	19.996	100.166	20.113	2.548	0.480
283.000	215.572	80.000	19.996	100.166	20.108	2.900	0.477
283.500	215.815	80.000	19.996	100.168	20.111	2.679	0.485
284.000	216.054	80.000	19.996	100.171	20.112	2.611	0.485
284.500	216.342	79.998	19.995	100.174	20.113	2.497	0.505
285.000	216.582	79.999	19.995	100.178	20.111	2.637	0.528
285.500	216.815	79.999	19.996	100.179	20.114	2.469	0.501
286.000	217.065	80.000	19.995	100.179	20.110	2.716	0.478
286.500	217.293	79.999	19.997	100.176	20.108	2.836	0.480
287.000	217.574	79.999	19.996	100.175	20.109	2.815	0.494
287.500	217.801	80.000	19.995	100.172	20.110	2.757	0.508
288.000	218.043	80.000	19.995	100.170	20.112	2.618	0.488
288.500	218.263	79.999	19.994	100.166	20.109	2.830	0.466
289.000	218.491	79.999	19.996	100.165	20.111	2.646	0.455
289.500	218.758	79.998	19.995	100.162	20.111	2.690	0.472
290.000	218.980	79.999	19.997	100.162	20.108	2.871	0.492
290.500	219.234	80.000	19.997	100.162	20.109	2.766	0.482
291.000	219.483	79.999	19.996	100.165	20.112	2.588	0.490
291.500	219.700	79.997	19.996	100.170	20.112	2.615	0.485
292.000	219.983	79.997	19.997	100.173	20.112	2.605	0.483
292.500	220.208	79.998	19.997	100.177	20.108	2.871	0.504
293.000	220.440	79.999	19.997	100.179	20.109	2.787	0.483
293.500	220.670	79.998	19.996	100.178	20.108	2.891	0.459
294.000	220.927	79.997	19.996	100.178	20.109	2.803	0.474
294.500	221.192	79.999	19.996	100.175	20.111	2.689	0.504
295.000	221.416	79.997	19.995	100.171	20.107	2.908	0.506
295.500	221.688	79.997	19.995	100.171	20.110	2.701	0.493
296.000	221.937	79.997	19.996	100.168	20.110	2.757	0.509
296.500	222.232	79.997	19.997	100.166	20.112	2.621	0.532
297.000	222.428	79.999	19.996	100.168	20.109	2.793	0.517
297.500	222.669	79.998	19.995	100.168	20.111	2.651	0.464
298.000	222.961	79.999	19.996	100.163	20.107	2.948	0.485
298.500	223.199	79.998	19.996	100.162	20.108	2.901	0.531
299.000	223.462	79.998	19.996	100.160	20.105	3.060	0.515
299.500	223.689	79.999	19.996	100.158	20.107	2.924	0.496
300.000	223.948	79.997	19.995	100.159	20.105	3.056	0.488
300.500	224.195	79.999	19.995	100.161	20.109	2.811	0.496
301.000	224.412	79.998	19.996	100.162	20.110	2.720	0.485
301.500	224.649	80.000	19.995	100.159	20.109	2.809	0.459
302.000	224.909	79.999	19.996	100.157	20.110	2.712	0.476
302.500	225.151	79.998	19.995	100.154	20.111	2.667	0.500
303.000	225.434	79.999	19.995	100.153	20.109	2.770	0.513
303.500	225.664	80.000	19.995	100.153	20.111	2.663	0.519
304.000	225.915	80.000	19.996	100.153	20.108	2.843	0.496
304.500	226.156	80.000	19.995	100.151	20.110	2.721	0.486
305.000	226.444	80.000	19.995	100.153	20.107	2.942	0.511
305.500	226.653	80.001	19.995	100.155	20.109	2.787	0.513
306.000	226.894	80.001	19.996	100.157	20.108	2.879	0.474
306.500	227.156	80.000	19.994	100.161	20.110	2.753	0.477
307.000	227.406	80.000	19.995	100.167	20.110	2.721	0.508
307.500	227.683	80.000	19.995	100.170	20.109	2.772	0.519
308.000	227.941	80.002	19.995	100.170	20.110	2.751	0.530
308.500	228.136	80.000	19.995	100.172	20.107	2.968	0.494
309.000	228.399	80.000	19.994	100.176	20.108	2.876	0.456
309.500	228.641	80.001	19.995	100.176	20.109	2.796	0.481
310.000	228.939	80.000	19.995	100.176	20.109	2.800	0.522
310.500	229.168	80.001	19.995	100.174	20.108	2.871	0.534
311.000	229.406	80.002	19.995	100.169	20.110	2.706	0.497
311.500	229.647	80.001	19.996	100.167	20.109	2.828	0.473
312.000	229.915	80.002	19.995	100.164	20.110	2.742	0.494
312.500	230.140	80.001	19.995	100.160	20.110	2.706	0.501
313.000	230.360	80.001	19.995	100.158	20.110	2.702	0.469
313.500	230.678	80.000	19.994	100.161	20.113	2.519	0.492
314.000	230.929	80.003	19.996	100.162	20.110	2.727	0.554
314.500	231.169	80.002	19.995	100.163	20.111	2.665	0.530
315.000	231.421	80.001	19.995	100.164	20.110	2.738	0.491
315.500	231.665	80.003	19.996	100.165	20.111	2.646	0.494
316.000	231.922	80.001	19.996	100.164	20.108	2.845	0.499
316.500	232.204	80.000	19.996	100.164	20.110	2.710	0.520
317.000	232.460	80.002	19.995	100.163	20.110	2.753	0.538
317.500	232.671	80.000	19.996	100.160	20.111	2.671	0.502
318.000	232.946	80.002	19.995	100.159	20.112	2.579	0.477
318.500	233.224	80.001	19.994	100.159	20.111	2.662	0.519
319.000	233.466	80.001	19.995	100.156	20.111	2.684	0.536
319.500	233.693	80.000	19.995	100.157	20.107	2.927	0.494
320.000	233.957	79.999	19.996	100.157	20.109	2.785	0.480
320.500	234.206	80.001	19.996	100.156	20.108	2.874	0.502
321.000	234.490	80.000	19.996	100.153	20.106	3.018	0.523
321.500	234.711	80.002	19.996	100.153	20.107	2.908	0.519
322.000	234.995	80.000	19.998	100.153	20.109	2.803	0.505
322.500	235.216	80.001	19.995	100.152	20.108	2.837	0.505
323.000	235.481	80.001	19.995	100.150	20.108	2.835	0.495
323.500	235.730	80.001	19.996	100.148	20.110	2.727	0.500
324.000	235.968	80.001	19.995	100.148	20.109	2.820	0.501
324.500	236.248	80.000	19.994	100.146	20.110	2.758	0.503
325.000	236.523	80.002	19.995	100.149	20.108	2.850	0.537
325.500	236.756	80.001	19.996	100.152	20.105	3.071	0.531
326.000	237.005	80.000	19.994	100.156	20.109	2.796	0.495
326.500	237.245	80.001	19.995	100.154	20.109	2.814	0.486
327.000	237.535	80.000	19.996	100.153	20.110	2.704	0.509
327.500	237.779	80.000	19.996	100.156	20.109	2.794	0.532
328.000	238.015	80.002	19.995	100.154	20.113	2.526	0.507
328.500	238.231	80.001	19.995	100.156	20.108	2.872	0.466
329.000	238.502	80.001	19.994	100.162	20.110	2.762	0.469
329.500	238.739	80.000	19.996	100.163	20.113	2.534	0.497
330.000	239.034	80.001	19.995	100.158	20.109	2.788	0.520
330.501	239.259	80.001	19.995	100.156	20.110	2.756	0.526
331.001	239.501	80.002	19.995	100.151	20.112	2.611	0.493
331.500	239.762	80.002	19.994	100.144	20.111	2.627	0.485
332.000	240.016	80.002	19.995	100.141	20.111	2.685	0.509
332.500	240.282	80.001	19.996	100.142	20.110	2.706	0.518
333.000	240.481	80.001	19.995	100.142	20.111	2.665	0.492
333.500	240.774	80.003	19.994	100.143	20.112	2.594	0.478
334.000	241.007	80.002	19.995	100.145	20.108	2.840	0.509
334.500	241.273	80.002	19.995	100.148	20.113	2.519	0.512
335.000	241.482	80.002	19.995	100.150	20.112	2.609	0.487
335.500	241.778	80.003	19.994	100.150	20.113	2.491	0.490
336.000	242.007	80.002	19.995	100.149	20.111	2.627	0.516
336.500	242.270	80.002	19.995	100.146	20.113	2.549	0.509
337.000	242.521	80.003	19.995	100.144	20.111	2.665	0.502
337.500	242.790	80.003	19.994	100.141	20.110	2.741	0.517
338.000	243.028	80.003	19.993	100.141	20.111	2.642	0.514
338.500	243.286	80.002	19.995	100.144	20.111	2.685	0.502
339.000	243.489	80.003	19.995	100.145	20.113	2.551	0.478
339.500	243.789	80.002	19.993	100.146	20.110	2.704	0.482
340.000	244.046	80.001	19.995	100.145	20.116	2.343	0.530
340.500	244.274	80.001	19.994	100.146	20.114	2.444	0.522
341.000	244.536	80.002	19.996	100.147	20.112	2.597	0.488
341.500	244.792	80.003	19.994	100.146	20.114	2.480	0.504
342.000	245.028	80.002	19.995	100.147	20.114	2.481	0.505
342.500	245.279	80.003	19.994	100.148	20.115	2.367	0.489
343.000	245.519	80.001	19.995	100.146	20.114	2.468	0.489
343.500	245.763	80.000	19.995	100.140	20.115	2.377	0.488
344.000	246.013	80.001	19.995	100.138	20.113	2.513	0.489
344.500	246.301	79.998	19.995	100.138	20.116	2.319	0.516
345.001	246.518	80.000	19.995	100.138	20.113	2.491	0.522
345.500	246.780	80.000	19.994	100.139	20.115	2.401	0.492
346.000	247.081	80.001	19.995	100.142	20.114	2.440	0.521
346.500	247.272	80.001	19.994	100.139	20.114	2.476	0.527
347.000	247.552	80.000	19.996	100.136	20.115	2.392	0.481
347.500	247.787	80.000	19.995	100.137	20.114	2.438	0.493
348.000	248.041	80.001	19.995	100.136	20.114	2.470	0.503
348.500	248.312	80.000	19.996	100.137	20.114	2.431	0.507
349.000	248.525	80.001	19.994	100.141	20.116	2.351	0.504
349.500	248.797	80.001	19.996	100.144	20.115	2.395	0.484
350.000	249.041	80.000	19.995	100.143	20.116	2.349	0.500
350.500	249.301	80.000	19.995	100.142	20.113	2.530	0.509
351.000	249.565	80.000	19.995	100.142	20.112	2.625	0.514
351.500	249.843	79.999	19.995	100.141	20.113	2.528	0.533
352.000	250.070	79.999	19.995	100.141	20.113	2.513	0.524
352.500	250.314	79.999	19.996	100.143	20.114	2.424	0.488
353.000	250.562	79.998	19.995	100.143	20.113	2.530	0.481
353.500	250.828	80.000	19.995	100.144	20.113	2.493	0.503
354.000	251.090	79.999	19.996	100.144	20.114	2.474	0.521
354.500	251.334	80.000	19.994	100.145	20.110	2.749	0.517
355.000	251.627	79.999	19.995	100.145	20.112	2.568	0.522
355.500	251.882	79.999	19.996	100.148	20.114	2.476	0.543
356.000	252.096	79.999	19.995	100.148	20.115	2.411	0.508
356.500	252.349	79.999	19.995	100.147	20.111	2.654	0.468
357.000	252.625	79.999	19.995	100.148	20.114	2.463	0.498
357.500	252.858	80.000	19.996	100.147	20.115	2.358	0.519
358.000	253.107	79.999	19.995	100.143	20.115	2.407	0.495
358.500	253.357	80.000	19.995	100.142	20.115	2.392	0.490
359.000	253.587	79.999	19.994	100.142	20.115	2.416	0.490
359.500	253.829	80.000	19.996	100.142	20.112	2.579	0.477
360.000	254.090	79.999	19.996	100.141	20.113	2.498	0.487
360.500	254.335	79.999	19.995	100.142	20.111	2.642	0.504
361.000	254.574	79.999	19.994	100.143	20.115	2.414	0.495
361.500	254.817	79.999	19.995	100.144	20.115	2.399	0.483
362.000	255.056	80.000	19.996	100.143	20.112	2.579	0.482
362.500	255.352	80.000	19.995	100.143	20.113	2.545	0.509
363.000	255.579	79.999	19.996	100.143	20.117	2.225	0.529
363.500	255.843	80.001	19.996	100.144	20.114	2.474	0.507
364.000	256.073	80.001	19.995	100.143	20.111	2.655	0.492
364.500	256.301	80.001	19.996	100.143	20.113	2.532	0.476
365.000	256.575	79.999	19.995	100.144	20.114	2.446	0.479
365.500	256.797	80.000	19.994	100.145	20.112	2.611	0.499
366.000	257.062	80.000	19.996	100.149	20.111	2.630	0.492
366.500	257.263	80.000	19.995	100.149	20.114	2.474	0.477
367.000	257.546	80.000	19.995	100.150	20.115	2.394	0.475
367.500	257.778	80.001	19.995	100.149	20.115	2.390	0.500
368.000	258.037	79.999	19.995	100.147	20.113	2.525	0.503
368.500	258.309	79.999	19.995	100.138	20.113	2.549	0.511
369.000	258.525	79.999	19.995	100.136	20.112	2.581	0.510
369.500	258.815	79.999	19.996	100.134	20.114	2.478	0.497
370.000	259.043	79.999	19.996	100.134	20.112	2.592	0.512
370.500	259.279	79.999	19.995	100.134	20.114	2.474	0.491
371.000	259.565	79.999	19.995	100.140	20.115	2.353	0.493
371.500	259.780	80.000	19.995	100.141	20.115	2.390	0.512
372.000	260.049	80.000	19.996	100.146	20.114	2.444	0.493
372.500	260.295	79.999	19.995	100.146	20.115	2.354	0.499
373.000	260.493	80.000	19.996	100.145	20.113	2.543	0.479
373.500	260.749	79.999	19.995	100.141	20.115	2.352	0.449
374.000	260.997	80.000	19.996	100.140	20.113	2.493	0.479
374.500	261.261	80.000	19.995	100.138	20.114	2.455	0.508
375.000	261.498	79.999	19.996	100.143	20.115	2.354	0.507
375.500	261.778	80.000	19.995	100.151	20.114	2.451	0.509
376.000	261.999	80.000	19.996	100.155	20.111	2.676	0.508
376.500	262.215	79.998	19.996	100.157	20.116	2.302	0.469
377.000	262.468	80.000	19.996	100.161	20.111	2.644	0.454
377.500	262.725	79.999	19.996	100.159	20.112	2.609	0.489
378.000	262.977	79.999	19.996	100.152	20.115	2.360	0.509
378.500	263.200	79.999	19.997	100.149	20.115	2.379	0.492
379.000	263.474	80.000	19.995	100.147	20.112	2.571	0.486
379.500	263.722	79.998	19.996	100.144	20.115	2.420	0.509
380.000	263.973	79.998	19.996	100.143	20.116	2.326	0.510
380.500	264.248	79.999	19.996	100.145	20.115	2.386	0.513
381.000	264.511	80.001	19.997	100.149	20.115	2.379	0.532
381.500	264.739	79.998	19.995	100.149	20.118	2.214	0.515
382.000	264.964	79.999	19.996	100.148	20.115	2.380	0.472
382.500	265.187	79.999	19.996	100.146	20.116	2.343	0.450
383.000	265.475	79.999	19.996	100.144	20.117	2.227	0.480
383.500	265.704	79.999	19.998	100.140	20.115	2.395	0.514
384.000	265.979	79.999	19.996	100.140	20.115	2.377	0.511
384.500	266.220	79.999	19.997	100.140	20.115	2.378	0.510
385.000	266.467	80.001	19.995	100.140	20.120	2.046	0.502
385.500	266.697	80.000	19.996	100.140	20.118	2.210	0.482
386.000	266.944	80.000	19.997	100.140	20.117	2.268	0.477
386.500	267.221	80.000	19.996	100.139	20.118	2.147	0.500
387.000	267.453	79.999	19.996	100.140	20.116	2.317	0.517
387.500	267.730	80.000	19.996	100.141	20.117	2.227	0.509
388.000	267.938	80.000	19.996	100.146	20.117	2.221	0.497
388.500	268.185	80.000	19.996	100.149	20.116	2.324	0.470
389.000	268.443	80.000	19.995	100.150	20.121	1.995	0.480
389.500	268.686	80.000	19.995	100.151	20.119	2.132	0.503
390.000	268.940	80.000	19.996	100.149	20.121	1.990	0.498
390.500	269.174	80.001	19.996	100.144	20.120	2.049	0.492
391.000	269.423	80.002	19.996	100.141	20.119	2.119	0.486
391.500	269.661	80.000	19.996	100.139	20.117	2.218	0.485
392.000	269.909	80.002	19.996	100.138	20.116	2.349	0.487
392.500	270.175	80.001	19.995	100.138	20.117	2.216	0.500
393.000	270.424	80.001	19.997	100.138	20.118	2.199	0.515
393.500	270.688	80.001	19.996	100.138	20.114	2.467	0.514
394.000	270.942	80.001	19.996	100.137	20.114	2.489	0.515
394.500	271.179	80.001	19.997	100.137	20.117	2.223	0.505
395.000	271.461	80.001	19.996	100.135	20.115	2.356	0.505
395.500	271.696	80.001	19.995	100.135	20.116	2.319	0.518
396.000	271.990	80.001	19.996	100.136	20.118	2.197	0.523
396.500	272.168	80.001	19.995	100.138	20.115	2.409	0.500
397.000	272.434	80.001	19.996	100.137	20.117	2.246	0.458
397.500	272.698	80.001	19.995	100.139	20.115	2.392	0.487
398.000	272.908	80.001	19.996	100.138	20.115	2.366	0.502
398.500	273.189	80.001	19.995	100.138	20.116	2.334	0.482
399.000	273.459	80.001	19.995	100.138	20.116	2.291	0.521
399.500	273.696	80.000	19.995	100.140	20.116	2.323	0.529
400.000	273.945	80.002	19.994	100.140	20.115	2.397	0.496
400.500	274.206	80.001	19.995	100.140	20.114	2.482	0.498
401.000	274.425	80.000	19.995	100.141	20.115	2.367	0.495
401.500	274.640	80.000	19.995	100.141	20.116	2.302	0.457
402.000	274.945	80.002	19.994	100.141	20.112	2.624	0.477
402.500	275.196	80.001	19.995	100.142	20.112	2.577	0.538
403.000	275.443	80.001	19.995	100.143	20.116	2.349	0.527
403.500	275.683	80.000	19.995	100.143	20.114	2.424	0.492
404.000	275.958	80.000	19.995	100.143	20.115	2.403	0.501
404.500	276.200	80.002	19.995	100.144	20.116	2.337	0.516
405.000	276.435	80.001	19.995	100.144	20.113	2.496	0.497
405.500	276.674	80.001	19.995	100.144	20.114	2.433	0.475
406.000	276.915	80.001	19.994	100.144	20.114	2.448	0.477
406.500	277.147	80.001	19.995	100.144	20.116	2.298	0.477
407.000	277.405	80.002	19.995	100.143	20.111	2.653	0.482
407.500	277.613	80.000	19.994	100.144	20.113	2.541	0.478
408.000	277.859	80.001	19.994	100.145	20.113	2.506	0.460
408.500	278.159	80.002	19.995	100.145	20.110	2.704	0.500
409.000	278.404	80.001	19.995	100.144	20.110	2.762	0.546
409.500	278.676	80.002	19.995	100.144	20.109	2.769	0.531
410.000	278.880	80.000	19.995	100.143	20.112	2.582	0.496
410.500	279.145	80.002	19.995	100.143	20.112	2.595	0.472
411.000	279.391	80.001	19.994	100.143	20.112	2.584	0.490
411.500	279.657	80.001	19.994	100.144	20.112	2.625	0.512
412.000	279.872	80.001	19.995	100.143	20.110	2.708	0.496
412.500	280.141	80.001	19.995	100.143	20.110	2.743	0.482
413.000	280.414	80.000	19.995	100.144	20.108	2.835	0.514
413.500	280.661	80.001	19.996	100.143	20.108	2.891	0.531
414.000	280.906	80.003	19.995	100.143	20.112	2.610	0.506
414.500	281.104	80.002	19.996	100.143	20.111	2.674	0.467
415.000	281.329	80.001	19.996	100.142	20.113	2.556	0.433
415.500	281.628	80.002	19.996	100.141	20.114	2.461	0.474
416.000	281.844	80.002	19.994	100.141	20.113	2.526	0.519
416.500	282.085	80.002	19.994	100.141	20.113	2.528	0.486
417.000	282.383	80.002	19.995	100.139	20.113	2.530	0.498
417.500	282.620	80.001	19.996	100.139	20.111	2.648	0.537
418.000	282.849	80.002	19.995	100.140	20.111	2.663	0.500
418.500	283.119	80.002	19.994	100.140	20.112	2.567	0.482
419.000	283.376	80.002	19.994	100.140	20.113	2.496	0.513
419.500	283.618	80.004	19.995	100.142	20.113	2.500	0.513
420.000	283.852	80.002	19.994	100.142	20.115	2.418	0.488
420.501	284.081	80.002	19.994	100.139	20.114	2.481	0.470
421.000	284.355	80.002	19.994	100.139	20.111	2.642	0.483
421.500	284.611	80.002	19.995	100.139	20.111	2.663	0.516
422.000	284.845	80.002	19.995	100.139	20.114	2.470	0.510
422.500	285.093	80.002	19.994	100.139	20.115	2.371	0.486
423.000	285.328	80.002	19.994	100.136	20.114	2.468	0.483
423.500	285.553	80.002	19.994	100.134	20.112	2.573	0.472
424.000	285.839	79.999	19.994	100.132	20.113	2.502	0.486
424.500	286.061	80.000	19.995	100.131	20.113	2.507	0.509
425.000	286.327	80.001	19.994	100.132	20.112	2.582	0.498
425.500	286.583	80.000	19.995	100.137	20.115	2.354	0.505
426.000	286.824	80.000	19.995	100.139	20.114	2.440	0.510
426.500	287.075	80.000	19.995	100.141	20.113	2.508	0.494
427.000	287.304	79.999	19.994	100.141	20.112	2.603	0.485
427.500	287.540	79.999	19.995	100.141	20.113	2.524	0.472
428.000	287.803	80.000	19.995	100.141	20.112	2.584	0.482
428.500	288.072	80.000	19.995	100.142	20.115	2.405	0.516
429.000	288.361	80.000	19.995	100.142	20.110	2.698	0.545
429.500	288.551	79.999	19.995	100.142	20.115	2.375	0.518
430.000	288.806	80.000	19.995	100.141	20.113	2.500	0.462
430.500	289.044	79.999	19.994	100.141	20.114	2.446	0.469
431.000	289.299	80.001	19.994	100.139	20.116	2.335	0.493
431.500	289.573	80.001	19.995	100.138	20.111	2.642	0.511
432.000	289.825	80.000	19.993	100.137	20.114	2.472	0.528
432.500	290.100	80.000	19.995	100.137	20.115	2.356	0.526
433.000	290.352	80.000	19.994	100.136	20.114	2.450	0.527
433.500	290.592	80.000	19.994	100.134	20.116	2.291	0.510
434.000	290.853	79.999	19.995	100.129	20.114	2.465	0.496
434.500	291.076	80.001	19.994	100.130	20.114	2.442	0.492
435.000	291.341	80.001	19.994	100.130	20.115	2.367	0.486
435.500	291.587	80.001	19.995	100.131	20.118	2.190	0.500
436.000	291.871	79.999	19.994	100.135	20.115	2.401	0.521
436.500	292.110	80.000	19.995	100.139	20.117	2.216	0.527
437.000	292.373	80.000	19.995	100.140	20.116	2.322	0.512
437.500	292.625	80.000	19.995	100.140	20.116	2.333	0.508
438.000	292.873	80.000	19.995	100.139	20.114	2.448	0.508
438.500	293.167	80.000	19.995	100.136	20.112	2.616	0.521
439.000	293.401	80.001	19.994	100.135	20.114	2.457	0.535
439.500	293.646	79.999	19.994	100.135	20.113	2.492	0.503
440.000	293.896	80.001	19.994	100.134	20.114	2.421	0.487
440.500	294.123	80.000	19.995	100.135	20.111	2.636	0.486
441.000	294.371	80.001	19.994	100.138	20.109	2.791	0.476
441.500	294.618	80.000	19.994	100.137	20.115	2.386	0.485
442.000	294.893	80.000	19.995	100.137	20.113	2.541	0.508
442.500	295.122	80.000	19.995	100.139	20.114	2.483	0.513
443.000	295.362	80.000	19.994	100.139	20.113	2.524	0.486
443.500	295.665	80.000	19.995	100.139	20.113	2.491	0.506
444.000	295.914	80.000	19.994	100.142	20.116	2.341	0.548
444.500	296.143	80.000	19.996	100.141	20.112	2.571	0.515
445.000	296.385	79.998	19.995	100.141	20.112	2.594	0.474
445.500	296.627	80.000	19.994	100.141	20.115	2.401	0.478
446.000	296.916	80.000	19.995	100.140	20.114	2.446	0.508
446.500	297.145	80.001	19.995	100.139	20.114	2.427	0.525
447.000	297.436	80.000	19.995	100.135	20.112	2.606	0.519
447.500	297.658	80.001	19.995	100.134	20.115	2.418	0.516
448.000	297.891	80.001	19.996	100.132	20.115	2.388	0.484
448.500	298.144	80.001	19.995	100.131	20.115	2.408	0.471
449.000	298.405	80.001	19.995	100.131	20.117	2.255	0.500
449.500	298.669	80.000	19.996	100.135	20.116	2.302	0.519
450.000	298.928	80.000	19.995	100.130	20.116	2.313	0.524
450.500	299.169	80.000	19.995	100.128	20.116	2.307	0.512
451.000	299.438	80.001	19.995	100.126	20.114	2.475	0.505
451.501	299.650	80.000	19.996	100.124	20.113	2.511	0.495
452.001	299.894	80.001	19.996	100.121	20.113	2.498	0.468
452.501	300.139	79.999	19.995	100.124	20.114	2.446	0.472
453.000	300.382	80.000	19.995	100.127	20.115	2.373	0.488
453.500	300.647	80.000	19.996	100.130	20.116	2.315	0.498
454.000	300.919	79.999	19.995	100.134	20.116	2.330	0.523
454.500	301.187	79.999	19.996	100.137	20.116	2.307	0.539
455.000	301.417	80.000	19.996	100.137	20.116	2.345	0.519
455.500	301.677	79.999	19.996	100.136	20.116	2.331	0.493
456.000	301.904	79.999	19.996	100.136	20.112	2.604	0.488
456.500	302.162	80.000	19.996	100.133	20.114	2.466	0.486
457.000	302.389	79.998	19.997	100.130	20.113	2.511	0.485
457.500	302.694	80.000	19.997	100.128	20.113	2.505	0.508
458.000	302.883	79.999	19.996	100.127	20.113	2.518	0.513
458.500	303.164	79.999	19.996	100.127	20.113	2.528	0.482
459.000	303.465	79.999	19.995	100.127	20.115	2.371	0.526
459.500	303.705	79.999	19.996	100.127	20.114	2.440	0.562
460.000	303.919	79.999	19.997	100.129	20.119	2.137	0.498
460.500	304.177	79.999	19.996	100.124	20.116	2.313	0.463
461.000	304.425	79.999	19.996	100.119	20.117	2.273	0.489
461.500	304.685	79.999	19.996	100.118	20.118	2.171	0.507
462.000	304.965	79.998	19.996	100.121	20.118	2.193	0.524
462.500	305.198	80.000	19.996	100.123	20.114	2.451	0.526
463.000	305.466	80.000	19.996	100.129	20.116	2.329	0.507
463.500	305.726	80.000	19.996	100.135	20.113	2.529	0.515
464.000	305.984	80.000	19.995	100.137	20.114	2.460	0.523
464.500	306.225	79.999	19.996	100.135	20.115	2.406	0.509
465.000	306.482	80.000	19.995	100.129	20.115	2.385	0.499
465.500	306.746	80.001	19.996	100.129	20.117	2.270	0.509
466.000	307.007	80.000	19.996	100.126	20.114	2.425	0.523
466.500	307.250	80.000	19.995	100.121	20.119	2.142	0.515
467.000	307.499	79.999	19.995	100.119	20.116	2.329	0.499
467.500	307.770	80.001	19.995	100.125	20.114	2.421	0.506
468.000	308.037	80.001	19.996	100.124	20.118	2.185	0.529
468.500	308.253	80.001	19.996	100.125	20.116	2.311	0.510
469.000	308.517	80.001	19.996	100.126	20.117	2.240	0.481
469.500	308.762	80.001	19.996	100.126	20.117	2.266	0.494
470.000	309.022	79.999	19.995	100.120	20.113	2.539	0.508
470.500	309.250	80.000	19.996	100.117	20.115	2.395	0.497
471.000	309.529	80.001	19.996	100.119	20.114	2.471	0.497
471.500	309.771	80.002	19.995	100.118	20.115	2.378	0.513
472.000	310.031	80.000	19.995	100.118	20.116	2.301	0.511
472.500	310.267	80.002	19.994	100.118	20.113	2.522	0.500
473.000	310.585	80.000	19.995	100.116	20.114	2.440	0.525
473.500	310.776	80.000	19.995	100.112	20.114	2.483	0.531
474.000	311.042	80.001	19.995	100.109	20.114	2.445	0.483
474.500	311.315	80.001	19.996	100.108	20.116	2.341	0.498
475.000	311.593	80.002	19.996	100.113	20.114	2.473	0.545
475.500	311.852	80.001	19.995	100.117	20.112	2.608	0.543
476.000	312.089	80.003	19.996	100.117	20.112	2.599	0.516
476.500	312.329	80.000	19.996	100.119	20.111	2.642	0.487
477.000	312.610	80.002	19.995	100.120	20.110	2.715	0.499
477.500	312.888	80.001	19.995	100.114	20.111	2.681	0.540
478.000	313.114	79.999	19.996	100.110	20.110	2.745	0.531
478.500	313.374	80.000	19.996	100.114	20.111	2.668	0.495
479.000	313.607	79.999	19.995	100.113	20.115	2.354	0.490
479.500	313.893	80.000	19.996	100.111	20.113	2.537	0.506
480.000	314.143	80.001	19.996	100.113	20.110	2.754	0.527
480.500	314.428	80.000	19.997	100.113	20.112	2.617	0.535
481.000	314.677	80.000	19.997	100.109	20.115	2.372	0.534
481.500	314.894	80.000	19.996	100.110	20.114	2.486	0.500
482.000	315.210	79.999	19.997	100.113	20.111	2.669	0.500
482.500	315.421	79.999	19.995	100.114	20.110	2.722	0.530
483.000	315.656	80.001	19.995	100.115	20.110	2.714	0.486
483.500	315.895	80.000	19.995	100.119	20.114	2.479	0.460
484.000	316.168	79.999	19.996	100.119	20.114	2.488	0.493
484.500	316.453	79.999	19.996	100.116	20.114	2.486	0.535
485.000	316.672	79.999	19.995	100.115	20.113	2.499	0.531
485.500	316.970	79.999	19.995	100.112	20.112	2.619	0.510
486.000	317.170	79.999	19.995	100.107	20.112	2.615	0.507
486.500	317.462	80.000	19.996	100.108	20.113	2.552	0.495
487.000	317.739	79.999	19.996	100.115	20.113	2.540	0.531
487.500	317.938	80.000	19.995	100.121	20.113	2.531	0.523
488.000	318.228	80.000	19.996	100.125	20.115	2.387	0.482
488.500	318.462	80.000	19.996	100.125	20.114	2.438	0.506
489.000	318.718	79.999	19.995	100.125	20.112	2.591	0.507
489.500	318.965	80.000	19.995	100.117	20.112	2.563	0.497
490.000	319.179	79.999	19.994	100.111	20.111	2.634	0.482
490.500	319.475	80.000	19.995	100.109	20.113	2.534	0.485
491.000	319.706	80.000	19.996	100.112	20.112	2.567	0.518
491.500	319.985	80.001	19.995	100.112	20.110	2.741	0.519
492.000	320.211	80.000	19.994	100.112	20.111	2.679	0.508
492.500	320.463	80.001	19.996	100.111	20.112	2.578	0.491
493.000	320.732	80.001	19.995	100.109	20.110	2.705	0.500
493.500	320.975	80.001	19.995	100.106	20.115	2.402	0.517
494.000	321.229	79.999	19.994	100.105	20.112	2.585	0.505
494.500	321.472	80.002	19.994	100.104	20.112	2.567	0.497
495.000	321.733	80.002	19.995	100.104	20.113	2.492	0.501
495.500	322.056	80.002	19.994	100.104	20.113	2.520	0.544
496.000	322.237	80.002	19.994	100.103	20.112	2.591	0.544
496.500	322.530	80.001	19.995	100.105	20.117	2.225	0.489
497.000	322.748	80.003	19.995	100.105	20.115	2.359	0.492
497.500	322.967	80.003	19.993	100.106	20.115	2.372	0.474
498.000	323.259	80.003	19.994	100.107	20.115	2.382	0.475
498.500	323.510	80.002	19.994	100.109	20.108	2.832	0.527
499.000	323.761	80.002	19.994	100.107	20.116	2.335	0.522
499.500	323.986	80.001	19.994	100.113	20.111	2.688	0.489
500.000	324.285	80.003	19.995	100.118	20.116	2.346	0.500
500.500	324.488	80.001	19.995	100.122	20.110	2.718	0.513
501.000	324.737	80.001	19.995	100.126	20.113	2.548	0.477
501.500	325.022	80.001	19.994	100.130	20.115	2.354	0.493
502.000	325.285	80.002	19.996	100.128	20.110	2.758	0.540
502.500	325.477	80.002	19.993	100.128	20.111	2.683	0.501
503.000	325.781	80.000	19.995	100.127	20.116	2.346	0.476
503.500	326.015	80.001	19.994	100.126	20.111	2.660	0.517
504.000	326.268	80.001	19.994	100.121	20.112	2.608	0.513
504.500	326.547	80.002	19.994	100.117	20.113	2.494	0.509
505.000	326.766	80.002	19.994	100.111	20.111	2.677	0.515
505.500	327.057	80.000	19.996	100.109	20.114	2.426	0.504
506.000	327.231	80.000	19.994	100.106	20.109	2.825	0.488
506.500	327.535	79.999	19.995	100.109	20.113	2.511	0.471
507.000	327.740	80.002	19.994	100.113	20.110	2.698	0.494
507.500	328.010	80.000	19.995	100.115	20.109	2.802	0.492
508.000	328.334	80.001	19.995	100.115	20.108	2.892	0.534
508.500	328.531	80.000	19.995	100.115	20.113	2.526	0.558
509.000	328.836	80.000	19.995	100.113	20.111	2.679	0.511
509.500	329.043	80.001	19.996	100.109	20.112	2.613	0.507
510.000	329.258	80.000	19.995	100.107	20.110	2.746	0.467
510.500	329.597	80.000	19.995	100.105	20.111	2.686	0.488
511.000	329.886	79.999	19.996	100.104	20.109	2.826	0.591
511.500	330.057	79.999	19.995	100.109	20.111	2.683	0.544
512.000	330.370	80.000	19.995	100.113	20.113	2.501	0.472
512.500	330.411	79.998	19.994	100.117	20.112	2.595	0.418
513.000	330.904	80.000	19.995	100.122	20.110	2.709	0.444
513.500	331.134	80.000	19.994	100.121	20.114	2.473	0.629
514.000	331.228	80.000	19.995	100.121	20.112	2.587	0.523
514.500	331.566	80.000	19.995	100.117	20.110	2.696	0.378
515.000	332.044	80.000	19.993	100.115	20.111	2.653	0.624
515.500	332.402	80.000	19.995	100.112	20.109	2.771	0.826
516.000	332.584	80.001	19.995	100.112	20.112	2.606	0.688
516.500	332.468	80.000	19.995	100.108	20.111	2.628	0.303
517.000	333.069	80.000	19.994	100.109	20.113	2.552	0.275
517.500	333.096	79.999	19.995	100.111	20.111	2.654	0.556
518.000	333.287	79.999	19.995	100.113	20.112	2.596	0.423
518.500	333.725	80.000	19.995	100.114	20.111	2.645	0.424
519.000	333.913	80.000	19.995	100.113	20.113	2.499	0.628
519.500	334.162	80.000	19.995	100.111	20.114	2.430	0.532
520.000	334.348	79.999	19.994	100.108	20.114	2.454	0.436
520.500	334.632	79.999	19.995	100.104	20.116	2.316	0.453
521.000	334.882	80.000	19.995	100.105	20.113	2.552	0.502
521.500	335.223	80.000	19.994	100.105	20.113	2.516	0.563
522.000	335.370	80.001	19.994	100.107	20.113	2.535	0.539
522.500	335.692	79.999	19.995	100.113	20.113	2.496	0.478
523.000	335.910	80.000	19.995	100.119	20.113	2.528	0.504
523.500	336.146	79.999	19.995	100.120	20.112	2.610	0.497
524.000	336.418	80.000	19.994	100.119	20.113	2.507	0.481
524.500	336.712	80.000	19.995	100.118	20.113	2.526	0.537
525.000	336.921	80.000	19.994	100.112	20.113	2.516	0.534
525.500	337.229	79.999	19.996	100.112	20.113	2.546	0.510
526.000	337.440	79.999	19.996	100.112	20.112	2.576	0.518
526.500	337.708	80.000	19.994	100.115	20.111	2.640	0.499
527.000	337.990	80.001	19.995	100.116	20.111	2.694	0.515
527.500	338.226	80.001	19.995	100.115	20.112	2.600	0.534
528.000	338.470	80.000	19.996	100.109	20.110	2.757	0.499
528.500	338.768	79.998	19.995	100.107	20.111	2.626	0.511
529.000	338.993	80.001	19.993	100.104	20.111	2.686	0.532
529.500	339.269	80.000	19.994	100.103	20.110	2.740	0.512
530.000	339.505	80.000	19.995	100.102	20.111	2.653	0.507
530.500	339.762	80.000	19.995	100.103	20.110	2.696	0.502
531.000	340.015	79.999	19.994	100.103	20.110	2.712	0.501
531.500	340.302	79.999	19.995	100.104	20.111	2.653	0.525
532.000	340.543	80.000	19.995	100.107	20.112	2.567	0.534
532.500	340.786	80.000	19.995	100.108	20.114	2.484	0.506
533.000	341.076	80.000	19.995	100.109	20.114	2.456	0.509
533.500	341.328	79.999	19.995	100.117	20.113	2.548	0.538
534.000	341.562	80.001	19.995	100.122	20.117	2.273	0.514
534.500	341.804	80.000	19.995	100.121	20.110	2.720	0.481
535.000	342.050	79.999	19.995	100.122	20.115	2.408	0.482
535.500	342.314	79.999	19.994	100.120	20.112	2.619	0.499
536.000	342.596	79.999	19.994	100.113	20.111	2.688	0.528
536.500	342.860	80.000	19.995	100.107	20.111	2.634	0.545
537.000	343.062	79.999	19.995	100.106	20.115	2.415	0.506
537.500	343.362	80.000	19.996	100.108	20.113	2.539	0.484
538.000	343.579	79.999	19.995	100.109	20.115	2.374	0.510
538.500	343.857	79.998	19.996	100.109	20.112	2.595	0.506
539.000	344.110	79.999	19.995	100.109	20.110	2.707	0.513
539.500	344.351	79.998	19.996	100.108	20.112	2.617	0.513
540.000	344.607	79.998	19.995	100.106	20.113	2.544	0.495
540.500	344.897	79.998	19.995	100.107	20.111	2.677	0.521
541.000	345.098	79.998	19.997	100.106	20.111	2.662	0.519
541.500	345.378	80.000	19.995	100.107	20.113	2.533	0.486
542.000	345.606	79.998	19.995	100.107	20.113	2.544	0.494
542.500	345.896	79.998	19.996	100.107	20.111	2.694	0.513
543.000	346.139	79.998	19.996	100.107	20.106	3.012	0.525
543.500	346.360	79.998	19.995	100.109	20.109	2.819	0.498
544.000	346.650	79.999	19.996	100.109	20.108	2.894	0.487
544.500	346.877	80.000	19.996	100.110	20.110	2.701	0.514
545.000	347.146	79.999	19.996	100.110	20.110	2.709	0.507
545.500	347.408	79.999	19.995	100.108	20.107	2.944	0.513
546.000	347.666	79.998	19.996	100.107	20.112	2.602	0.525
546.500	347.960	79.999	19.996	100.106	20.111	2.649	0.536
547.000	348.168	79.998	19.995	100.107	20.109	2.817	0.527
547.500	348.467	79.998	19.995	100.108	20.108	2.888	0.504
548.000	348.707	79.998	19.996	100.110	20.112	2.602	0.523
548.500	348.981	79.998	19.995	100.111	20.108	2.897	0.527
549.000	349.224	79.999	19.995	100.111	20.108	2.843	0.515
549.500	349.498	80.000	19.995	100.109	20.110	2.720	0.517
550.000	349.751	80.000	19.997	100.108	20.107	2.918	0.522
550.500	350.007	80.000	19.995	100.107	20.112	2.594	0.518
551.000	350.286	79.999	19.996	100.104	20.107	2.940	0.522
551.500	350.519	80.000	19.996	100.105	20.111	2.645	0.524
552.000	350.761	79.999	19.995	100.106	20.108	2.862	0.494
552.500	351.005	80.000	19.995	100.107	20.109	2.763	0.480
553.000	351.290	80.001	19.995	100.108	20.110	2.740	0.508
553.500	351.521	80.001	19.996	100.109	20.109	2.793	0.522
554.000	351.806	80.000	19.995	100.109	20.108	2.890	0.516
554.501	352.075	80.000	19.996	100.107	20.110	2.740	0.535
555.000	352.304	80.002	19.996	100.107	20.110	2.725	0.527
555.500	352.603	80.000	19.994	100.106	20.111	2.684	0.513
556.000	352.841	80.000	19.994	100.105	20.110	2.733	0.532
556.501	353.106	80.001	19.995	100.105	20.110	2.725	0.520
557.001	353.369	80.002	19.995	100.106	20.109	2.821	0.515
557.500	353.594	80.001	19.996	100.106	20.110	2.727	0.508
558.000	353.841	80.001	19.995	100.106	20.105	3.047	0.480
558.500	354.115	80.000	19.997	100.106	20.107	2.950	0.497
559.000	354.368	80.001	19.995	100.105	20.107	2.925	0.524
559.500	354.650	80.001	19.994	100.104	20.109	2.798	0.531
560.000	354.892	80.002	19.996	100.102	20.110	2.718	0.530
560.500	355.162	80.000	19.997	100.102	20.111	2.692	0.518
561.000	355.404	80.001	19.996	100.102	20.109	2.804	0.512
561.500	355.675	80.000	19.995	100.101	20.109	2.823	0.512
562.000	355.916	80.002	19.995	100.100	20.110	2.718	0.512
562.500	356.140	80.000	19.996	100.101	20.109	2.821	0.489
563.000	356.425	79.999	19.994	100.101	20.110	2.751	0.487
563.500	356.702	79.999	19.996	100.101	20.109	2.781	0.535
564.000	356.958	80.001	19.995	100.101	20.108	2.843	0.548
564.500	357.213	80.000	19.996	100.102	20.112	2.608	0.522
565.000	357.466	80.000	19.996	100.104	20.111	2.686	0.509
565.500	357.708	79.999	19.996	100.104	20.110	2.744	0.501
566.000	357.969	80.000	19.995	100.105	20.113	2.542	0.499
566.500	358.237	80.000	19.995	100.105	20.110	2.755	0.516
567.000	358.501	80.000	19.997	100.104	20.111	2.654	0.530
567.500	358.749	80.000	19.996	100.102	20.109	2.770	0.522
568.000	359.015	80.000	19.995	100.102	20.111	2.654	0.513
568.500	359.248	79.999	19.995	100.102	20.110	2.738	0.507
569.000	359.476	79.999	19.996	100.102	20.108	2.845	0.480
569.500	359.793	80.000	19.995	100.101	20.110	2.750	0.503
570.000	360.000	79.999	19.998	100.101	20.110	2.744	0.534
570.500	360.305	80.000	19.996	100.101	20.110	2.722	0.518
571.000	360.509	79.999	19.995	100.103	20.110	2.722	0.510
571.500	360.793	79.999	19.996	100.104	20.107	2.946	0.498
572.000	361.023	79.999	19.996	100.104	20.109	2.768	0.501
572.500	361.292	79.999	19.995	100.104	20.107	2.908	0.507
573.000	361.545	80.001	19.996	100.103	20.108	2.897	0.511
573.500	361.816	79.999	19.996	100.101	20.105	3.037	0.523
574.000	362.065	80.001	19.996	100.099	20.107	2.914	0.522
574.500	362.336	80.000	19.996	100.100	20.106	3.023	0.520
575.000	362.566	80.001	19.996	100.101	20.107	2.940	0.511
575.500	362.863	80.001	19.997	100.103	20.109	2.800	0.513
576.000	363.081	80.001	19.996	100.103	20.107	2.946	0.521
576.500	363.339	80.001	19.997	100.104	20.108	2.868	0.496
577.000	363.612	79.999	19.995	100.103	20.106	3.030	0.503
577.500	363.826	80.000	19.997	100.102	20.106	3.011	0.509
578.000	364.107	80.001	19.995	100.101	20.107	2.937	0.491
578.500	364.359	80.001	19.995	100.100	20.105	3.062	0.514
579.000	364.601	80.001	19.996	100.100	20.106	3.022	0.514
579.500	364.881	80.001	19.996	100.103	20.104	3.144	0.507
580.000	365.147	80.001	19.996	100.106	20.104	3.150	0.534
580.500	365.394	80.001	19.995	100.110	20.105	3.043	0.530
581.000	365.631	80.001	19.995	100.110	20.106	3.023	0.498
581.500	365.899	80.002	19.996	100.110	20.107	2.907	0.494
582.000	366.178	80.001	19.996	100.107	20.106	2.989	0.526
582.500	366.428	80.002	19.995	100.105	20.106	3.034	0.538
583.000	366.679	80.003	19.994	100.101	20.106	3.026	0.515
583.500	366.895	80.001	19.996	100.101	20.106	3.034	0.484
584.000	367.153	80.002	19.996	100.101	20.104	3.131	0.470
584.500	367.424	80.003	19.996	100.101	20.106	3.036	0.502
585.000	367.675	80.002	19.994	100.103	20.103	3.241	0.526
585.500	367.895	80.001	19.995	100.106	20.105	3.051	0.496
586.000	368.165	80.001	19.994	100.108	20.102	3.257	0.480
586.500	368.391	80.001	19.995	100.108	20.103	3.193	0.493
587.000	368.686	80.001	19.995	100.109	20.104	3.158	0.509
587.500	368.966	80.002	19.994	100.107	20.101	3.360	0.548
588.000	369.197	80.001	19.994	100.103	20.103	3.182	0.542
588.500	369.448	80.001	19.994	100.101	20.104	3.133	0.496
589.000	369.690	80.000	19.995	100.101	20.104	3.152	0.488
589.500	369.969	80.001	19.995	100.100	20.103	3.217	0.508
590.000	370.196	79.999	19.995	100.100	20.100	3.389	0.513
590.500	370.442	80.001	19.995	100.101	20.105	3.090	0.489
591.000	370.733	79.998	19.995	100.102	20.100	3.430	0.505
591.500	370.940	80.001	19.995	100.103	20.101	3.359	0.518
592.000	371.207	79.999	19.995	100.103	20.097	3.619	0.487
592.500	371.459	80.000	19.996	100.103	20.098	3.570	0.497
593.000	371.701	79.999	19.994	100.103	20.100	3.438	0.506
593.500	371.969	80.000	19.994	100.102	20.100	3.415	0.502
594.000	372.198	79.999	19.994	100.102	20.098	3.582	0.503
594.500	372.476	80.000	19.995	100.104	20.098	3.584	0.502
595.000	372.754	79.998	19.995	100.104	20.094	3.842	0.532
595.500	373.009	79.998	19.995	100.105	20.093	3.903	0.545
596.000	373.268	79.998	19.994	100.108	20.095	3.784	0.524
596.500	373.516	79.998	19.995	100.113	20.093	3.879	0.511
597.000	373.772	79.999	19.997	100.116	20.094	3.830	0.505
597.500	374.033	79.998	19.996	100.118	20.093	3.879	0.510
598.000	374.297	79.999	19.995	100.119	20.092	3.974	0.521
598.500	374.550	79.998	19.995	100.119	20.092	3.933	0.521
599.000	374.805	79.998	19.996	100.116	20.090	4.068	0.513
599.500	375.086	79.998	19.995	100.115	20.090	4.118	0.522
600.000	375.323	79.999	19.995	100.113	20.087	4.305	0.527
600.500	375.567	80.000	19.994	100.112	20.088	4.218	0.500
601.000	375.829	79.999	19.995	100.109	20.084	4.511	0.493
601.500	376.069	80.000	19.995	100.108	20.086	4.341	0.504
602.000	376.356	79.999	19.995	100.106	20.084	4.525	0.515
602.500	376.611	79.998	19.996	100.107	20.084	4.530	0.534
603.000	376.842	80.000	19.996	100.107	20.086	4.353	0.513
603.500	377.132	79.999	19.995	100.107	20.083	4.562	0.503
604.000	377.384	79.999	19.995	100.107	20.084	4.530	0.531
604.500	377.635	80.000	19.995	100.109	20.081	4.747	0.523
605.000	377.896	79.999	19.996	100.109	20.081	4.710	0.508
605.500	378.117	79.998	19.996	100.109	20.077	4.990	0.497
606.000	378.405	79.998	19.995	100.113	20.079	4.859	0.495
606.500	378.710	79.999	19.995	100.113	20.076	5.059	0.551
607.000	378.938	80.000	19.994	100.112	20.076	5.061	0.563
607.500	379.196	79.998	19.995	100.113	20.069	5.512	0.510
608.000	379.453	79.998	19.994	100.113	20.072	5.310	0.500
608.500	379.723	79.999	19.995	100.110	20.071	5.391	0.521
609.000	379.979	79.998	19.995	100.111	20.072	5.340	0.527
609.500	380.259	79.999	19.995	100.110	20.070	5.450	0.531
610.000	380.468	79.999	19.996	100.110	20.067	5.648	0.512
610.500	380.748	79.999	19.995	100.111	20.066	5.758	0.489
611.000	381.002	80.000	19.996	100.116	20.065	5.803	0.512
611.500	381.259	79.999	19.995	100.120	20.065	5.815	0.523
612.000	381.521	79.999	19.994	100.122	20.064	5.895	0.515
612.500	381.787	79.999	19.995	100.128	20.065	5.835	0.524
613.000	382.047	79.999	19.995	100.133	20.061	6.067	0.527
613.500	382.280	80.000	19.995	100.131	20.061	6.056	0.510
614.000	382.567	79.999	19.996	100.132	20.057	6.344	0.507
614.500	382.780	79.999	19.995	100.132	20.058	6.323	0.510
615.000	383.053	79.997	19.995	100.131	20.056	6.430	0.493
615.500	383.330	79.999	19.995	100.132	20.053	6.612	0.518
616.000	383.560	79.998	19.996	100.131	20.054	6.575	0.529
616.500	383.849	79.999	19.994	100.128	20.052	6.735	0.513
617.000	384.098	79.998	19.994	100.127	20.054	6.571	0.528
617.500	384.362	79.998	19.995	100.128	20.051	6.746	0.526
618.000	384.632	79.999	19.995	100.128	20.051	6.767	0.523
618.500	384.874	79.999	19.995	100.130	20.052	6.681	0.523
619.000	385.129	79.998	19.994	100.133	20.047	7.036	0.505
619.500	385.378	79.998	19.995	100.134	20.046	7.123	0.501
620.000	385.643	79.999	19.995	100.131	20.048	6.964	0.509
620.500	385.888	79.998	19.995	100.128	20.046	7.126	0.512
621.000	386.157	79.999	19.995	100.126	20.043	7.330	0.512
621.500	386.403	79.999	19.995	100.122	20.041	7.482	0.515
622.000	386.646	79.998	19.995	100.123	20.043	7.349	0.502
622.500	386.923	79.999	19.994	100.123	20.042	7.420	0.504
623.000	387.203	79.998	19.994	100.125	20.039	7.626	0.538
623.500	387.507	79.999	19.995	100.126	20.038	7.637	0.570
624.000	387.732	80.000	19.996	100.128	20.042	7.411	0.556
624.500	388.007	79.999	19.995	100.124	20.036	7.817	0.515
625.000	388.264	80.001	19.995	100.128	20.037	7.729	0.516
625.500	388.519	79.999	19.994	100.128	20.031	8.125	0.522
626.000	388.757	79.998	19.995	100.130	20.030	8.198	0.502
626.500	389.009	79.998	19.995	100.134	20.030	8.222	0.491
627.000	389.315	79.998	19.994	100.139	20.028	8.380	0.524
627.500	389.534	79.999	19.995	100.138	20.026	8.453	0.541
628.000	389.831	79.999	19.995	100.135	20.026	8.518	0.521
628.500	390.073	79.999	19.995	100.134	20.020	8.905	0.528
629.000	390.346	80.000	19.995	100.134	20.020	8.881	0.527
629.500	390.581	79.999	19.995	100.133	20.017	9.112	0.511
630.000	390.869	79.999	19.995	100.134	20.014	9.320	0.516
630.500	391.090	79.999	19.996	100.139	20.014	9.307	0.516
631.000	391.362	80.000	19.996	100.141	20.010	9.575	0.501
631.500	391.620	79.999	19.994	100.141	20.007	9.814	0.511
632.000	391.906	79.999	19.995	100.143	20.003	10.074	0.537
632.500	392.152	80.000	19.996	100.143	19.999	10.349	0.538
633.000	392.408	80.000	19.995	100.143	19.998	10.421	0.517
633.500	392.679	79.999	19.994	100.143	19.995	10.593	0.514
634.000	392.952	80.000	19.995	100.142	19.994	10.704	0.535
634.500	393.206	80.000	19.994	100.143	19.993	10.759	0.535
635.000	393.464	80.002	19.996	100.144	19.989	11.053	0.520
635.500	393.730	80.000	19.995	100.144	19.987	11.133	0.518
636.000	393.955	80.001	19.995	100.144	19.986	11.215	0.508
636.500	394.252	80.000	19.994	100.144	19.981	11.567	0.507
637.000	394.545	80.001	19.996	100.144	19.981	11.593	0.555
637.500	394.798	80.000	19.996	100.143	19.977	11.838	0.567
638.000	395.056	80.000	19.996	100.145	19.973	12.142	0.529
638.500	395.312	79.999	19.996	100.145	19.973	12.144	0.513
639.000	395.580	80.001	19.996	100.145	19.970	12.312	0.519
639.500	395.804	80.001	19.996	100.145	19.965	12.688	0.508
640.000	396.065	80.001	19.995	100.144	19.963	12.810	0.489
640.500	396.305	80.000	19.994	100.142	19.960	12.998	0.493
641.000	396.589	80.001	19.996	100.142	19.959	13.084	0.512
641.500	396.860	80.000	19.994	100.145	19.958	13.145	0.539
642.000	397.075	79.999	19.995	100.149	19.955	13.383	0.521
642.500	397.349	80.001	19.995	100.149	19.949	13.780	0.488
643.000	397.560	80.001	19.995	100.149	19.946	13.953	0.487
643.500	397.841	79.999	19.995	100.150	19.947	13.933	0.489
644.000	398.108	80.000	19.995	100.152	19.940	14.385	0.520
644.500	398.374	79.999	19.997	100.155	19.937	14.574	0.540
645.000	398.613	80.000	19.996	100.162	19.934	14.791	0.519
645.500	398.867	80.002	19.995	100.169	19.927	15.288	0.499
646.000	399.101	80.000	19.995	100.174	19.925	15.387	0.490
646.500	399.372	79.999	19.996	100.172	19.923	15.546	0.496
647.000	399.599	79.999	19.995	100.169	19.917	15.982	0.501
647.500	399.815	80.000	19.996	100.170	19.916	16.045	0.471
648.000	400.139	80.000	19.995	100.170	19.913	16.217	0.492
648.500	400.388	80.001	19.996	100.170	19.907	16.659	0.557
649.000	400.614	80.000	19.995	100.173	19.903	16.939	0.524
649.500	400.873	80.001	19.995	100.175	19.900	17.099	0.480
650.000	401.150	80.001	19.995	100.175	19.897	17.338	0.511
650.500	401.366	80.000	19.995	100.177	19.895	17.451	0.514
651.000	401.669	80.001	19.995	100.178	19.891	17.758	0.506
651.500	401.908	80.001	19.995	100.181	19.884	18.233	0.530
652.000	402.162	80.001	19.996	100.180	19.879	18.550	0.517
652.500	402.406	80.000	19.995	100.181	19.876	18.780	0.496
653.000	402.721	80.001	19.996	100.182	19.868	19.322	0.529
653.500	402.948	80.000	19.995	100.187	19.865	19.529	0.550
654.000	403.226	80.000	19.996	100.193	19.860	19.882	0.523
654.500	403.471	79.999	19.995	100.197	19.849	20.658	0.514
655.000	403.731	80.000	19.995	100.200	19.847	20.759	0.514
655.500	403.950	79.999	19.997	100.203	19.845	20.919	0.492
656.000	404.217	80.000	19.995	100.198	19.840	21.275	0.483
656.500	404.491	80.000	19.996	100.198	19.833	21.726	0.513
657.000	404.725	80.001	19.995	100.198	19.827	22.153	0.525
657.500	404.979	80.001	19.995	100.197	19.823	22.431	0.498
658.000	405.231	80.001	19.994	100.198	19.817	22.798	0.497
658.500	405.482	80.000	19.995	100.203	19.812	23.156	0.504
659.000	405.765	80.000	19.996	100.205	19.807	23.519	0.518
659.500	405.978	80.001	19.996	100.207	19.802	23.854	0.515
660.000	406.250	80.001	19.995	100.213	19.792	24.571	0.490
660.500	406.498	80.000	19.996	100.217	19.789	24.721	0.502
661.000	406.775	80.002	19.995	100.217	19.783	25.149	0.523
661.500	407.025	80.001	19.995	100.217	19.774	25.786	0.526
662.000	407.213	80.003	19.995	100.220	19.768	26.166	0.482
662.500	407.509	80.001	19.995	100.220	19.764	26.497	0.461
663.000	407.774	80.001	19.995	100.221	19.754	27.163	0.522
663.500	408.056	80.001	19.995	100.223	19.750	27.438	0.554
664.000	408.277	80.001	19.995	100.225	19.743	27.915	0.525
664.500	408.552	80.001	19.995	100.231	19.737	28.332	0.499
665.000	408.747	80.001	19.996	100.237	19.729	28.875	0.483
665.500	409.052	80.001	19.997	100.243	19.723	29.259	0.485
666.000	409.315	80.001	19.996	100.250	19.717	29.687	0.534
666.500	409.563	80.000	19.994	100.256	19.708	30.289	0.540
667.000	409.765	80.002	19.996	100.257	19.701	30.792	0.481
667.500	410.011	80.001	19.995	100.258	19.694	31.279	0.449
668.000	410.303	80.001	19.995	100.259	19.688	31.662	0.493
668.500	410.526	80.000	19.997	100.259	19.681	32.177	0.526
669.000	410.810	80.000	19.997	100.261	19.668	33.036	0.511
669.500	411.043	80.000	19.997	100.262	19.663	33.442	0.513
670.000	411.272	79.999	19.997	100.261	19.654	34.015	0.490
670.500	411.539	79.999	19.996	100.261	19.649	34.356	0.479
671.000	411.829	79.999	19.995	100.262	19.637	35.224	0.526
671.500	412.059	79.999	19.997	100.264	19.628	35.858	0.538
672.000	412.306	79.999	19.996	100.267	19.617	36.563	0.499
672.500	412.535	79.998	19.995	100.271	19.610	37.079	0.476
673.000	412.754	79.997	19.996	100.275	19.599	37.804	0.462
673.500	413.053	79.999	19.996	100.282	19.594	38.189	0.483
674.000	413.300	79.999	19.995	100.286	19.586	38.728	0.532
674.500	413.502	79.999	19.996	100.291	19.576	39.404	0.498
675.000	413.755	79.999	19.995	100.295	19.568	39.979	0.452
675.500	414.001	79.997	19.995	100.300	19.559	40.569	0.477
676.000	414.251	79.998	19.995	100.300	19.551	41.148	0.498
676.500	414.488	79.999	19.995	100.299	19.539	41.948	0.492
677.000	414.746	79.999	19.996	100.299	19.533	42.393	0.491
677.500	414.979	80.000	19.996	100.298	19.522	43.150	0.493
678.000	415.246	79.999	19.996	100.296	19.511	43.883	0.495
678.500	415.492	79.998	19.996	100.296	19.502	44.495	0.506
679.000	415.739	79.998	19.995	100.300	19.496	44.922	0.503
679.500	416.025	79.998	19.995	100.307	19.488	45.426	0.513
680.000	416.287	79.999	19.996	100.310	19.479	46.055	0.540
680.500	416.500	79.999	19.996	100.315	19.469	46.796	0.512
681.000	416.760	79.998	19.996	100.323	19.459	47.451	0.474
681.500	417.010	79.998	19.996	100.329	19.450	48.059	0.492
682.000	417.235	79.997	19.994	100.332	19.439	48.796	0.492
682.500	417.530	79.999	19.995	100.337	19.433	49.260	0.497
683.000	417.752	79.998	19.995	100.344	19.424	49.863	0.519
683.500	418.023	79.999	19.995	100.346	19.413	50.596	0.505
684.000	418.263	79.998	19.994	100.347	19.403	51.324	0.502
684.500	418.510	79.998	19.995	100.354	19.390	52.183	0.499
685.000	418.800	79.999	19.995	100.356	19.381	52.828	0.512
685.500	419.031	79.998	19.994	100.360	19.370	53.601	0.529
686.000	419.257	79.998	19.994	100.365	19.363	54.068	0.489
686.500	419.474	79.999	19.994	100.372	19.347	55.153	0.450
687.000	419.751	79.998	19.996	100.372	19.337	55.875	0.469
687.500	420.025	79.999	19.995	100.377	19.326	56.607	0.522
688.000	420.231	80.000	19.995	100.377	19.311	57.634	0.515
688.500	420.518	79.999	19.996	100.378	19.302	58.296	0.486
689.000	420.734	79.999	19.996	100.378	19.291	59.022	0.498
689.500	420.990	80.000	19.994	100.379	19.281	59.690	0.488
690.000	421.215	80.000	19.995	100.379	19.266	60.748	0.477
690.500	421.484	80.000	19.995	100.382	19.260	61.193	0.487
691.000	421.724	79.999	19.995	100.385	19.244	62.246	0.501
691.500	421.964	80.000	19.995	100.389	19.235	62.910	0.495
692.000	422.186	79.999	19.995	100.393	19.224	63.643	0.471
692.500	422.458	80.000	19.994	100.397	19.213	64.408	0.478
693.000	422.706	80.000	19.994	100.396	19.203	65.090	0.507
693.500	422.936	80.001	19.995	100.400	19.188	66.137	0.500
694.000	423.215	79.998	19.995	100.402	19.180	66.669	0.494
694.500	423.484	80.000	19.994	100.406	19.164	67.769	0.528
695.000	423.723	79.998	19.995	100.409	19.155	68.421	0.528
695.500	423.982	80.000	19.994	100.413	19.140	69.474	0.502
696.000	424.211	80.001	19.996	100.421	19.129	70.231	0.493
696.500	424.493	80.000	19.995	100.430	19.117	71.025	0.500
697.000	424.716	80.000	19.995	100.436	19.101	72.184	0.508
697.500	424.952	80.000	19.994	100.442	19.088	73.068	0.482
698.000	425.237	80.001	19.995	100.448	19.071	74.233	0.490
698.500	425.463	80.001	19.994	100.449	19.061	74.935	0.516
699.000	425.723	79.999	19.995	100.450	19.047	75.864	0.498
699.500	425.997	79.999	19.995	100.451	19.032	76.894	0.510
700.000	426.211	79.998	19.995	100.457	19.017	77.924	0.511
700.500	426.475	80.001	19.995	100.466	19.007	78.652	0.483
701.000	426.694	79.999	19.995	100.473	18.991	79.780	0.481
701.500	426.941	79.999	19.994	100.479	18.979	80.611	0.475
702.000	427.193	80.000	19.995	100.486	18.961	81.839	0.483
702.500	427.413	79.999	19.995	100.489	18.946	82.895	0.486
703.000	427.682	80.000	19.996	100.488	18.934	83.686	0.480
703.500	427.933	80.000	19.995	100.490	18.920	84.688	0.505
704.000	428.173	79.999	19.995	100.491	18.903	85.854	0.506
704.500	428.427	79.999	19.994	100.497	18.889	86.803	0.492
705.000	428.671	79.998	19.995	100.506	18.872	88.011	0.496
705.500	428.897	79.999	19.996	100.515	18.860	88.834	0.484
706.000	429.176	79.999	19.995	100.524	18.841	90.094	0.488
706.500	429.392	80.001	19.996	100.538	18.830	90.885	0.500
707.000	429.669	80.000	19.994	100.541	18.813	92.034	0.494
707.500	429.905	80.000	19.995	100.541	18.796	93.203	0.503
708.000	430.128	80.000	19.996	100.542	18.781	94.255	0.486
708.500	430.365	80.000	19.994	100.541	18.765	95.376	0.459
709.000	430.640	80.000	19.995	100.541	18.748	96.573	0.486
709.500	430.902	80.001	19.995	100.548	18.729	97.850	0.525
710.000	431.123	79.999	19.995	100.556	18.716	98.809	0.510
710.500	431.408	80.001	19.995	100.563	18.697	100.139	0.494
711.000	431.653	79.999	19.995	100.574	18.681	101.252	0.518
711.500	431.865	80.000	19.996	100.583	18.661	102.597	0.494
712.000	432.104	80.000	19.995	100.592	18.646	103.629	0.454
712.500	432.387	80.000	19.994	100.597	18.628	104.913	0.487
713.000	432.622	80.001	19.995	100.603	18.614	105.892	0.520
713.500	432.857	80.000	19.995	100.608	18.595	107.184	0.494
714.000	433.151	80.000	19.996	100.610	18.578	108.325	0.500
714.500	433.345	80.001	19.996	100.613	18.560	109.593	0.508
715.000	433.623	80.000	19.995	100.619	18.543	110.809	0.480
715.500	433.933	80.002	19.995	100.628	18.524	112.134	0.530
716.000	434.148	80.001	19.996	100.632	18.505	113.468	0.557
716.500	434.397	80.001	19.994	100.638	18.488	114.623	0.494
717.000	434.612	80.000	19.994	100.644	18.472	115.756	0.464
717.500	434.894	80.001	19.994	100.647	18.456	116.832	0.481
718.000	435.155	80.002	19.995	100.648	18.435	118.285	0.520
718.500	435.384	80.002	19.994	100.652	18.421	119.256	0.516
719.000	435.624	80.002	19.995	100.657	18.398	120.892	0.479
719.500	435.841	80.002	19.994	100.665	18.381	122.076	0.463
720.000	436.127	80.001	19.995	100.672	18.359	123.575	0.480
720.500	436.382	80.003	19.994	100.682	18.338	125.007	0.522
721.000	436.628	80.002	19.994	100.698	18.321	126.246	0.521
721.500	436.909	80.001	19.994	100.708	18.297	127.899	0.514
722.000	437.131	80.002	19.995	100.718	18.275	129.430	0.514
722.500	437.348	80.002	19.995	100.727	18.258	130.568	0.471
723.000	437.614	80.002	19.995	100.733	18.238	131.999	0.462
723.500	437.814	80.001	19.994	100.736	18.215	133.568	0.475
724.000	438.090	80.002	19.994	100.742	18.197	134.835	0.471
724.500	438.319	80.001	19.994	100.747	18.170	136.700	0.490
725.000	438.598	80.001	19.995	100.755	18.150	138.061	0.506
725.500	438.831	80.001	19.994	100.769	18.129	139.509	0.510
726.000	439.107	80.001	19.994	100.781	18.104	141.207	0.511
726.500	439.281	80.000	19.995	100.792	18.080	142.852	0.480
727.000	439.561	80.001	19.994	100.799	18.057	144.451	0.452
727.500	439.805	79.999	19.995	100.806	18.038	145.783	0.489
728.000	440.050	79.999	19.995	100.808	18.018	147.174	0.507
728.500	440.311	80.000	19.995	100.811	17.996	148.684	0.498
729.000	440.530	80.000	19.994	100.816	17.969	150.594	0.493
729.500	440.795	79.999	19.995	100.825	17.945	152.248	0.481
730.000	441.031	79.999	19.995	100.834	17.927	153.514	0.492
730.500	441.304	80.000	19.996	100.845	17.901	155.358	0.505
731.000	441.514	80.000	19.995	100.853	17.882	156.639	0.496
731.500	441.768	79.999	19.996	100.861	17.861	158.144	0.474
732.000	442.010	80.000	19.995	100.868	17.836	159.876	0.480
732.500	442.262	79.999	19.995	100.875	17.814	161.408	0.495
733.000	442.510	80.000	19.995	100.879	17.792	162.957	0.497
733.500	442.748	79.999	19.995	100.885	17.777	163.991	0.493
734.000	443.001	79.999	19.996	100.889	17.756	165.482	0.488
734.500	443.283	80.000	19.995	100.895	17.744	166.301	0.513
735.000	443.488	80.000	19.996	100.902	17.729	167.359	0.511
735.500	443.773	80.001	19.995	100.904	17.717	168.180	0.489
736.000	444.008	79.999	19.995	100.905	17.708	168.750	0.505
736.500	444.264	80.000	19.995	100.903	17.699	169.361	0.506
737.000	444.549	80.001	19.995	100.897	17.688	170.126	0.516
737.500	444.771	80.000	19.996	100.888	17.675	171.013	0.523
738.000	445.019	80.001	19.994	100.884	17.662	171.859	0.489
738.500	445.266	80.000	19.994	100.884	17.654	172.407	0.483
739.000	445.499	80.001	19.994	100.887	17.638	173.506	0.488
739.500	445.756	80.001	19.995	100.896	17.626	174.322	0.485
740.000	446.026	79.999	19.996	100.905	17.613	175.224	0.508
740.500	446.266	80.001	19.995	100.920	17.600	176.126	0.518
741.000	446.519	80.001	19.995	100.936	17.585	177.222	0.501
741.500	446.783	80.001	19.995	100.949	17.569	178.293	0.505
742.000	447.026	80.001	19.995	100.953	17.556	179.259	0.512
742.500	447.266	80.000	19.994	100.963	17.542	180.202	0.496
743.000	447.514	80.002	19.995	100.977	17.523	181.534	0.485
743.500	447.764	80.002	19.996	100.992	17.512	182.299	0.493
744.000	448.004	80.001	19.994	101.008	17.498	183.312	0.494
744.500	448.277	80.000	19.996	101.026	17.485	184.208	0.501
745.000	448.505	80.001	19.995	101.039	17.474	184.981	0.507
745.500	448.789	80.001	19.994	101.038	17.462	185.816	0.507
746.000	449.019	80.002	19.994	101.032	17.455	186.280	0.513
746.500	449.266	80.002	19.994	101.026	17.453	186.361	0.495
747.000	449.557	80.001	19.994	101.016	17.449	186.683	0.507
747.500	449.767	80.001	19.996	101.001	17.441	187.180	0.519
748.000	450.037	80.001	19.994	100.991	17.440	187.246	0.491
748.500	450.347	80.001	19.994	100.981	17.441	187.212	0.530
749.000	450.542	80.000	19.994	100.972	17.438	187.438	0.542
749.500	450.824	80.002	19.996	100.962	17.436	187.549	0.491
750.000	451.080	80.002	19.995	100.961	17.437	187.475	0.508
750.500	451.322	80.001	19.994	100.962	17.432	187.797	0.518
751.000	451.595	80.000	19.995	100.963	17.435	187.601	0.507
751.500	451.835	80.000	19.994	100.969	17.431	187.910	0.514
752.000	452.091	79.999	19.995	100.979	17.434	187.651	0.504
752.500	452.339	80.001	19.997	100.985	17.434	187.648	0.500
753.000	452.567	80.001	19.996	100.992	17.435	187.609	0.490
753.500	452.884	80.000	19.995	100.999	17.435	187.566	0.511
754.000	453.103	79.999	19.996	101.004	17.434	187.626	0.541
754.500	453.388	80.000	19.995	101.011	17.437	187.427	0.520
755.000	453.572	79.998	19.995	101.020	17.439	187.274	0.486
755.500	453.847	80.001	19.996	101.024	17.443	186.963	0.464
756.000	454.076	79.999	19.997	101.025	17.444	186.887	0.482
756.500	454.364	80.000	19.996	101.022	17.445	186.770	0.510
757.000	454.607	80.000	19.997	101.016	17.447	186.618	0.524
757.500	454.883	79.999	19.996	101.010	17.452	186.293	0.525
758.000	455.154	80.000	19.997	101.006	17.454	186.136	0.533
758.500	455.381	79.999	19.996	101.005	17.455	186.071	0.523
759.000	455.604	79.998	19.996	101.004	17.459	185.766	0.474
759.500	455.875	80.000	19.997	101.003	17.470	185.006	0.472
760.000	456.118	79.999	19.996	101.002	17.470	184.984	0.504
760.500	456.394	79.999	19.997	101.001	17.479	184.328	0.517
761.000	456.682	79.997	19.997	101.000	17.481	184.164	0.542
761.500	456.915	79.999	19.995	101.000	17.491	183.474	0.542
762.000	457.178	79.999	19.998	101.000	17.495	183.132	0.508
762.500	457.383	80.001	19.997	100.997	17.503	182.620	0.482
763.000	457.681	79.999	19.996	100.994	17.509	182.141	0.485
763.500	457.924	80.000	19.997	100.990	17.519	181.485	0.522
764.000	458.170	79.999	19.996	100.983	17.527	180.882	0.516
764.500	458.460	79.999	19.996	100.978	17.538	180.131	0.513
765.000	458.693	79.999	19.996	100.974	17.550	179.235	0.529
765.500	458.971	79.999	19.996	100.967	17.562	178.427	0.517
766.000	459.267	80.000	19.997	100.963	17.576	177.413	0.542
766.500	459.489	79.999	19.998	100.956	17.589	176.558	0.546
767.000	459.758	79.999	19.996	100.946	17.602	175.586	0.504
767.500	460.025	80.000	19.996	100.938	17.617	174.580	0.514
768.000	460.237	80.000	19.996	100.930	17.631	173.548	0.508
768.500	460.492	79.999	19.995	100.924	17.653	172.063	0.473
769.000	460.722	80.000	19.997	100.917	17.671	170.777	0.476
769.500	460.975	80.001	19.996	100.910	17.690	169.440	0.484
770.000	461.209	79.999	19.996	100.902	17.711	167.994	0.485
770.500	461.467	80.000	19.997	100.890	17.732	166.491	0.489
771.000	461.691	79.999	19.995	100.875	17.754	164.991	0.487
771.500	461.979	79.999	19.995	100.862	17.779	163.197	0.497
772.000	462.265	80.000	19.996	100.854	17.803	161.587	0.543
772.500	462.501	79.999	19.994	100.846	17.827	159.871	0.548
773.000	462.765	80.000	19.994	100.835	17.851	158.180	0.511
773.500	463.011	80.002	19.995	100.827	17.879	156.249	0.505
774.000	463.258	80.000	19.995	100.818	17.905	154.481	0.501
774.500	463.499	80.000	19.996	100.807	17.932	152.551	0.491
775.000	463.752	80.001	19.995	100.794	17.961	150.581	0.492
775.500	464.012	80.000	19.995	100.786	17.988	148.734	0.503
776.000	464.267	80.002	19.996	100.779	18.017	146.693	0.514
776.500	464.511	80.001	19.995	100.770	18.047	144.594	0.507
777.000	464.733	80.001	19.995	100.758	18.078	142.447	0.482
777.500	465.001	79.999	19.994	100.748	18.107	140.447	0.478
778.000	465.234	79.999	19.996	100.740	18.137	138.397	0.495
778.500	465.494	80.002	19.995	100.727	18.165	136.475	0.497
779.000	465.720	79.999	19.994	100.714	18.199	134.118	0.489
779.500	465.975	80.001	19.994	100.703	18.233	131.774	0.483
780.000	466.224	80.000	19.994	100.687	18.264	129.619	0.493
780.500	466.488	80.000	19.995	100.673	18.299	127.216	0.509
781.000	466.746	80.000	19.995	100.660	18.331	125.004	0.517
781.500	467.006	80.000	19.995	100.645	18.369	122.337	0.520
782.000	467.241	80.000	19.995	100.633	18.402	120.093	0.507
782.500	467.483	80.000	19.994	100.624	18.438	117.622	0.486
783.000	467.750	80.000	19.996	100.611	18.471	115.299	0.493
783.500	467.998	80.001	19.995	100.598	18.507	112.828	0.512
784.000	468.238	79.999	19.995	100.586	18.548	110.021	0.502
784.500	468.493	79.998	19.994	100.571	18.582	107.685	0.491
785.000	468.734	80.000	19.996	100.557	18.617	105.249	0.496
785.500	468.984	79.998	19.995	100.547	18.663	102.084	0.493
786.000	469.231	79.998	19.996	100.538	18.703	99.376	0.494
786.500	469.463	79.999	19.995	100.532	18.744	96.526	0.488
787.000	469.727	79.999	19.995	100.524	18.777	94.248	0.488
787.500	469.980	79.999	19.995	100.515	18.819	91.362	0.506
788.000	470.238	79.998	19.995	100.504	18.856	88.801	0.514
788.500	470.509	79.999	19.995	100.490	18.896	86.070	0.520
789.000	470.720	79.999	19.995	100.477	18.935	83.355	0.505
789.500	471.015	79.998	19.995	100.470	18.971	80.908	0.494
790.000	471.242	79.998	19.993	100.462	19.009	78.287	0.514
790.500	471.516	79.998	19.995	100.453	19.047	75.690	0.511
791.000	471.780	79.998	19.995	100.444	19.084	73.144	0.519
791.500	472.055	79.998	19.995	100.437	19.116	70.961	0.539
792.000	472.285	79.999	19.995	100.429	19.154	68.326	0.522
792.500	472.517	79.999	19.995	100.421	19.181	66.428	0.483
793.000	472.799	79.998	19.995	100.410	19.215	64.127	0.488
793.500	473.030	80.000	19.996	100.403	19.249	61.787	0.514
794.000	473.330	79.999	19.994	100.396	19.281	59.593	0.522
794.500	473.560	79.998	19.995	100.388	19.309	57.649	0.531
795.000	473.878	80.000	19.996	100.381	19.340	55.559	0.539
795.500	474.127	80.000	19.994	100.379	19.368	53.580	0.557
796.000	474.381	80.000	19.996	100.373	19.393	51.905	0.535
796.500	474.639	79.999	19.994	100.364	19.418	50.151	0.507
797.000	474.875	80.000	19.995	100.357	19.439	48.702	0.503
797.500	475.165	80.001	19.996	100.349	19.465	46.939	0.510
798.000	475.384	80.001	19.995	100.340	19.484	45.677	0.517
798.500	475.636	80.001	19.995	100.338	19.505	44.238	0.490
799.000	475.923	80.000	19.994	100.331	19.530	42.489	0.506
799.500	476.167	80.000	19.995	100.323	19.548	41.229	0.535
800.000	476.455	80.002	19.996	100.312	19.566	40.052	0.531
800.500	476.733	80.001	19.996	100.303	19.585	38.736	0.549
801.000	476.968	80.001	19.995	100.291	19.600	37.718	0.540
801.500	477.229	80.002	19.995	100.284	19.620	36.321	0.505
802.000	477.477	80.001	19.996	100.277	19.638	35.056	0.503
802.500	477.719	80.002	19.994	100.273	19.652	34.145	0.500
803.000	477.993	80.000	19.996	100.266	19.668	33.053	0.502
803.500	478.274	80.000	19.994	100.256	19.684	31.950	0.535
804.000	478.539	80.001	19.996	100.246	19.696	31.122	0.551
804.500	478.761	80.001	19.995	100.238	19.709	30.226	0.517
805.000	479.015	80.000	19.995	100.231	19.721	29.382	0.482
805.500	479.266	80.000	19.994	100.225	19.731	28.692	0.490
806.000	479.534	80.000	19.995	100.222	19.743	27.854	0.512
806.500	479.813	80.000	19.994	100.217	19.756	26.970	0.533
807.000	480.075	80.000	19.995	100.210	19.767	26.274	0.544
807.500	480.328	80.000	19.994	100.202	19.775	25.687	0.528
808.000	480.582	80.000	19.995	100.196	19.785	25.029	0.511
808.500	480.861	80.001	19.994	100.191	19.792	24.522	0.520
809.000	481.082	80.002	19.995	100.193	19.801	23.889	0.516
809.500	481.343	80.001	19.995	100.193	19.809	23.373	0.491
810.000	481.607	80.000	19.995	100.192	19.824	22.314	0.504
810.500	481.860	80.001	19.994	100.192	19.829	21.982	0.521
811.000	482.130	80.000	19.995	100.191	19.842	21.104	0.520
811.500	482.387	80.000	19.994	100.184	19.843	21.035	0.525
812.000	482.679	79.999	19.995	100.182	19.853	20.328	0.538
812.500	482.903	79.999	19.994	100.179	19.858	19.978	0.532
813.000	483.161	80.000	19.996	100.177	19.867	19.375	0.499
813.500	483.398	80.000	19.995	100.178	19.873	18.947	0.489
814.000	483.672	80.001	19.995	100.180	19.880	18.474	0.503
814.500	483.912	80.001	19.995	100.182	19.885	18.136	0.512
815.000	484.159	80.000	19.995	100.185	19.893	17.581	0.501
815.500	484.425	80.000	19.994	100.185	19.899	17.172	0.500
816.000	484.653	79.999	19.995	100.185	19.903	16.890	0.503
816.500	484.921	80.001	19.995	100.183	19.911	16.379	0.495
817.000	485.163	80.001	19.994	100.183	19.911	16.369	0.503
817.500	485.470	80.002	19.997	100.182	19.921	15.686	0.529
818.000	485.726	80.001	19.995	100.179	19.925	15.418	0.556
818.500	485.998	80.001	19.994	100.176	19.931	14.994	0.546
819.001	486.243	80.002	19.995	100.170	19.935	14.709	0.522
819.500	486.491	79.999	19.996	100.163	19.936	14.629	0.505
820.000	486.746	80.001	19.995	100.156	19.945	14.057	0.498
820.500	486.990	80.002	19.997	100.150	19.952	13.574	0.501
821.000	487.257	80.002	19.995	100.148	19.954	13.445	0.505
821.500	487.506	80.000	19.994	100.150	19.956	13.273	0.514
822.000	487.755	80.000	19.995	100.150	19.963	12.803	0.507
822.500	488.035	79.999	19.995	100.149	19.966	12.601	0.514
823.000	488.251	80.000	19.995	100.149	19.968	12.440	0.513
823.500	488.498	80.000	19.995	100.146	19.971	12.255	0.480
824.000	488.747	80.003	19.995	100.142	19.972	12.180	0.480
824.500	489.017	80.001	19.996	100.144	19.977	11.837	0.508
825.000	489.274	80.001	19.995	100.146	19.979	11.708	0.523
825.500	489.525	80.001	19.995	100.147	19.986	11.212	0.517
826.000	489.808	80.001	19.996	100.151	19.987	11.140	0.521
826.500	490.063	80.001	19.995	100.155	19.991	10.910	0.536
827.000	490.302	80.001	19.997	100.154	19.991	10.878	0.516
827.500	490.593	80.001	19.995	100.152	19.997	10.459	0.511
828.000	490.830	80.001	19.995	100.150	19.997	10.493	0.529
828.500	491.112	80.000	19.997	100.147	20.003	10.061	0.524
829.000	491.340	80.001	19.998	100.144	20.005	9.944	0.514
829.500	491.571	80.001	19.995	100.142	20.001	10.218	0.485
830.000	491.829	80.001	19.996	100.142	20.008	9.717	0.474
830.500	492.071	80.002	19.995	100.143	20.015	9.219	0.494
831.000	492.348	80.000	19.995	100.142	20.014	9.303	0.509
831.500	492.612	80.001	19.995	100.141	20.017	9.110	0.530
832.000	492.844	80.001	19.994	100.140	20.017	9.119	0.519
832.500	493.128	80.001	19.996	100.140	20.020	8.885	0.506
833.000	493.369	80.000	19.996	100.139	20.021	8.822	0.521
833.500	493.663	80.000	19.995	100.138	20.026	8.474	0.530
834.000	493.939	80.000	19.996	100.138	20.026	8.491	0.552
834.500	494.151	80.000	19.996	100.135	20.027	8.424	0.529
835.000	494.419	79.999	19.996	100.132	20.033	8.022	0.484
835.500	494.692	79.999	19.995	100.128	20.029	8.245	0.511
836.000	494.925	79.998	19.996	100.123	20.032	8.099	0.523
836.500	495.159	79.999	19.996	100.118	20.032	8.063	0.487
837.000	495.461	79.999	19.996	100.116	20.034	7.912	0.501
837.500	495.682	79.998	19.996	100.116	20.033	8.023	0.529
838.000	495.971	79.998	19.995	100.113	20.036	7.791	0.517
838.500	496.228	80.000	19.997	100.112	20.037	7.726	0.528
839.000	496.429	79.999	19.996	100.112	20.037	7.732	0.502
839.500	496.689	80.000	19.996	100.114	20.040	7.493	0.460
840.000	496.955	79.998	19.994	100.117	20.038	7.641	0.494
840.500	497.213	80.000	19.996	100.124	20.045	7.184	0.525
841.000	497.438	79.999	19.996	100.125	20.042	7.419	0.504
841.500	497.704	80.000	19.995	100.124	20.046	7.129	0.487
842.000	497.944	80.000	19.994	100.120	20.048	6.994	0.499
842.500	498.207	79.998	19.996	100.115	20.050	6.872	0.505
843.000	498.470	80.000	19.996	100.111	20.047	7.049	0.514
843.500	498.682	79.999	19.995	100.114	20.051	6.750	0.500
844.000	498.954	79.999	19.995	100.114	20.049	6.914	0.479
844.500	499.204	80.001	19.995	100.114	20.052	6.673	0.503
845.000	499.452	79.999	19.996	100.115	20.053	6.608	0.511
845.500	499.729	79.999	19.995	100.116	20.057	6.365	0.512
846.000	500.001	80.000	19.994	100.117	20.051	6.791	0.537
846.500	500.234	79.999	19.995	100.121	20.055	6.479	0.527
847.000	500.474	80.000	19.997	100.121	20.054	6.563	0.489
847.500	500.761	80.000	19.996	100.118	20.056	6.420	0.500
848.000	500.985	80.000	19.995	100.114	20.055	6.526	0.519
848.500	501.227	80.000	19.995	100.109	20.053	6.609	0.488
849.000	501.507	79.999	19.996	100.107	20.055	6.465	0.494
849.500	501.753	79.998	19.995	100.108	20.054	6.558	0.524
850.000	502.036	79.999	19.996	100.114	20.063	5.954	0.527
850.500	502.287	79.999	19.996	100.120	20.060	6.121	0.531
851.000	502.508	79.999	19.996	100.126	20.060	6.154	0.503
851.500	502.749	79.998	19.994	100.131	20.059	6.251	0.467
852.000	503.001	79.999	19.996	100.132	20.060	6.167	0.478
852.500	503.254	79.999	19.996	100.126	20.059	6.227	0.499
853.000	503.509	79.999	19.994	100.119	20.063	5.932	0.506
853.500	503.780	79.998	19.997	100.113	20.060	6.152	0.517
854.000	504.015	79.999	19.995	100.106	20.064	5.866	0.516
854.500	504.285	79.998	19.996	100.102	20.062	5.999	0.506
855.000	504.564	80.000	19.996	100.103	20.066	5.762	0.527
855.500	504.820	80.000	19.996	100.105	20.062	6.034	0.542
856.000	505.046	79.999	19.996	100.105	20.064	5.887	0.508
856.500	505.299	79.999	19.997	100.105	20.059	6.195	0.481
857.000	505.546	80.000	19.996	100.107	20.062	6.025	0.490
857.500	505.772	79.999	19.996	100.110	20.063	5.935	0.487
858.000	506.065	79.999	19.996	100.111	20.066	5.746	0.496
858.500	506.322	79.998	19.996	100.113	20.060	6.186	0.534
859.000	506.525	79.999	19.996	100.116	20.062	6.023	0.505
859.500	506.825	79.999	19.996	100.119	20.065	5.825	0.482
860.000	507.083	79.998	19.997	100.119	20.061	6.066	0.531
860.500	507.336	80.000	19.997	100.119	20.060	6.176	0.534
861.000	507.537	79.999	19.997	100.117	20.065	5.776	0.482
861.500	507.811	79.998	19.997	100.114	20.067	5.662	0.465
862.000	508.110	79.999	19.994	100.111	20.067	5.649	0.524
862.500	508.327	79.999	19.996	100.113	20.067	5.683	0.544
863.000	508.594	79.999	19.995	100.112	20.065	5.829	0.500
863.500	508.839	79.998	19.995	100.111	20.066	5.737	0.499
864.000	509.146	79.999	19.996	100.112	20.066	5.709	0.532
864.500	509.392	79.999	19.996	100.113	20.070	5.496	0.552
865.000	509.627	79.999	19.994	100.110	20.069	5.503	0.517
865.500	509.907	80.000	19.995	100.112	20.066	5.759	0.498
866.000	510.126	80.000	19.995	100.112	20.069	5.503	0.507
866.500	510.388	79.997	19.994	100.111	20.069	5.563	0.490
867.000	510.650	80.000	19.995	100.110	20.072	5.357	0.503
867.500	510.882	80.000	19.995	100.108	20.068	5.634	0.509
868.000	511.132	79.999	19.996	100.105	20.069	5.561	0.488
868.500	511.419	80.000	19.994	100.107	20.076	5.070	0.510
869.000	511.673	80.000	19.995	100.107	20.070	5.477	0.539
869.500	511.893	80.000	19.994	100.108	20.069	5.531	0.508
870.000	512.154	80.000	19.996	100.109	20.070	5.488	0.478
870.500	512.386	79.999	19.995	100.109	20.076	5.075	0.487
871.000	512.664	79.999	19.995	100.108	20.073	5.228	0.501
871.500	512.896	79.999	19.996	100.110	20.072	5.339	0.510
872.000	513.192	80.000	19.996	100.110	20.069	5.516	0.519
872.500	513.392	79.997	19.993	100.109	20.074	5.215	0.512
873.000	513.677	79.999	19.995	100.108	20.068	5.602	0.491
873.500	513.960	79.998	19.994	100.109	20.075	5.146	0.527
874.000	514.173	79.999	19.994	100.108	20.069	5.548	0.532
874.500	514.470	79.997	19.994	100.109	20.068	5.611	0.503
875.000	514.768	79.998	19.995	100.108	20.071	5.422	0.553
875.500	515.010	79.999	19.994	100.109	20.071	5.409	0.568
876.000	515.268	80.000	19.995	100.108	20.073	5.282	0.520
876.500	515.539	80.000	19.994	100.107	20.075	5.114	0.515
877.000	515.793	80.000	19.995	100.106	20.075	5.157	0.527
877.500	516.048	80.001	19.994	100.107	20.069	5.520	0.517
878.000	516.328	79.999	19.994	100.106	20.069	5.529	0.523
878.500	516.553	80.002	19.995	100.106	20.072	5.325	0.520
879.000	516.791	80.000	19.994	100.106	20.071	5.413	0.484
879.500	517.092	80.001	19.995	100.106	20.072	5.332	0.501
880.000	517.348	80.000	19.995	100.105	20.074	5.172	0.548
880.500	517.609	80.000	19.996	100.105	20.075	5.127	0.537
881.000	517.892	80.001	19.995	100.105	20.078	4.921	0.530
881.500	518.148	80.001	19.996	100.103	20.077	4.966	0.541
882.000	518.399	80.001	19.994	100.102	20.074	5.164	0.523
882.500	518.687	80.002	19.995	100.102	20.079	4.839	0.523
883.000	518.914	80.000	19.995	100.102	20.077	4.987	0.527
883.500	519.199	80.002	19.994	100.101	20.076	5.030	0.514
884.000	519.476	80.001	19.996	100.102	20.075	5.120	0.537
884.500	519.730	80.003	19.996	100.101	20.076	5.090	0.546
885.000	519.997	80.002	19.996	100.097	20.077	5.013	0.526
885.500	520.217	80.002	19.995	100.096	20.073	5.249	0.504
886.000	520.501	80.001	19.994	100.095	20.076	5.062	0.496
886.500	520.734	80.002	19.994	100.093	20.078	4.938	0.510
887.000	521.014	79.999	19.994	100.094	20.081	4.729	0.515
887.500	521.282	80.002	19.996	100.097	20.079	4.882	0.531
888.000	521.505	80.001	19.994	100.097	20.079	4.839	0.520
888.500	521.780	80.003	19.994	100.096	20.075	5.155	0.494
889.000	522.003	80.001	19.996	100.096	20.077	5.005	0.498
889.500	522.289	80.001	19.995	100.096	20.077	5.017	0.504
890.000	522.523	80.003	19.995	100.093	20.075	5.134	0.514
890.500	522.809	80.002	19.996	100.093	20.078	4.888	0.520
891.000	523.056	80.001	19.994	100.094	20.073	5.228	0.527
891.500	523.339	80.000	19.994	100.095	20.076	5.060	0.532
892.000	523.609	80.000	19.995	100.094	20.074	5.165	0.541
892.500	523.833	80.000	19.996	100.095	20.077	4.989	0.523
893.000	524.152	79.999	19.994	100.095	20.077	5.017	0.519
893.500	524.328	80.001	19.995	100.096	20.078	4.948	0.519
894.000	524.622	80.000	19.995	100.097	20.081	4.722	0.483
894.500	524.921	80.000	19.995	100.098	20.079	4.845	0.531
895.000	525.193	80.001	19.998	100.101	20.081	4.746	0.582
895.500	525.430	80.001	19.997	100.101	20.078	4.916	0.540
896.000	525.696	80.000	19.997	100.102	20.081	4.714	0.506
896.500	525.944	80.000	19.996	100.101	20.076	5.022	0.508
897.000	526.192	80.001	19.997	100.098	20.079	4.848	0.505
897.500	526.476	80.001	19.995	100.098	20.078	4.885	0.514
898.000	526.727	79.999	19.995	100.098	20.077	4.968	0.534
898.500	527.016	80.001	19.996	100.097	20.081	4.703	0.538
899.000	527.220	80.001	19.994	100.097	20.079	4.869	0.516
899.500	527.494	80.000	19.996	100.098	20.081	4.688	0.485
900.000	527.782	80.000	19.995	100.096	20.081	4.709	0.520
900.500	528.047	80.000	19.995	100.095	20.081	4.688	0.558
901.000	528.304	80.003	19.996	100.095	20.080	4.757	0.537
901.500	528.586	80.002	19.994	100.097	20.079	4.845	0.530
902.000	528.811	80.002	19.994	100.099	20.082	4.675	0.523
902.500	529.058	80.001	19.994	100.101	20.079	4.858	0.489
903.000	529.343	80.001	19.995	100.101	20.079	4.861	0.502
903.500	529.565	80.001	19.995	100.102	20.081	4.701	0.519
904.000	529.802	80.003	19.994	100.101	20.082	4.652	0.483
904.500	530.090	80.002	19.995	100.101	20.075	5.114	0.492
905.000	530.346	80.002	19.994	100.101	20.081	4.731	0.535
905.500	530.568	80.002	19.994	100.099	20.077	4.972	0.511
906.000	530.825	80.001	19.994	100.100	20.082	4.624	0.479
906.500	531.074	80.003	19.995	100.097	20.081	4.702	0.493
907.000	531.357	80.002	19.994	100.094	20.085	4.460	0.519
907.500	531.629	80.002	19.995	100.090	20.080	4.790	0.543
908.000	531.869	80.003	19.995	100.087	20.082	4.676	0.533
908.500	532.174	80.003	19.995	100.086	20.080	4.749	0.528
909.000	532.403	80.003	19.995	100.089	20.082	4.678	0.539
909.500	532.659	80.004	19.995	100.093	20.082	4.613	0.510
910.000	532.916	80.003	19.994	100.096	20.080	4.807	0.499
910.500	533.180	80.002	19.993	100.100	20.080	4.773	0.517
911.000	533.433	80.002	19.995	100.100	20.083	4.577	0.519
911.500	533.654	80.002	19.994	100.100	20.082	4.674	0.495
912.000	533.953	80.002	19.994	100.095	20.083	4.549	0.497
912.500	534.194	80.001	19.994	100.095	20.081	4.747	0.530
913.000	534.471	80.002	19.994	100.094	20.082	4.634	0.529
913.500	534.743	80.000	19.994	100.093	20.084	4.518	0.534
914.000	534.999	80.001	19.994	100.093	20.084	4.525	0.539
914.500	535.245	80.001	19.995	100.096	20.081	4.722	0.515
915.000	535.494	80.001	19.996	100.095	20.083	4.576	0.498
915.500	535.790	80.000	19.994	100.092	20.080	4.813	0.520
916.000	536.018	80.000	19.996	100.092	20.079	4.873	0.535
916.500	536.302	80.000	19.995	100.093	20.079	4.834	0.518
917.000	536.495	79.998	19.996	100.091	20.078	4.901	0.495
917.500	536.768	79.998	19.996	100.088	20.080	4.759	0.471
918.000	537.026	79.999	19.997	100.091	20.084	4.526	0.499
918.500	537.264	79.999	19.995	100.089	20.082	4.636	0.514
919.000	537.549	80.000	19.996	100.083	20.082	4.675	0.509
919.500	537.774	79.999	19.994	100.084	20.077	4.955	0.517
920.000	538.038	79.999	19.997	100.089	20.081	4.736	0.500
920.500	538.281	79.998	19.996	100.089	20.080	4.757	0.498
921.000	538.607	79.999	19.997	100.087	20.081	4.746	0.538
921.500	538.822	79.999	19.995	100.088	20.080	4.772	0.555
922.000	539.100	80.000	19.996	100.088	20.084	4.523	0.517
922.500	539.339	79.999	19.996	100.084	20.078	4.925	0.505
923.000	539.633	79.998	19.995	100.084	20.082	4.618	0.525
923.500	539.872	79.999	19.997	100.090	20.078	4.904	0.533
924.000	540.121	79.999	19.996	100.095	20.082	4.659	0.510
924.500	540.360	79.998	19.996	100.099	20.082	4.674	0.488
925.000	540.618	79.999	19.995	100.103	20.081	4.745	0.493
925.500	540.878	79.999	19.995	100.103	20.081	4.696	0.507
926.000	541.127	80.000	19.996	100.104	20.081	4.724	0.514
926.500	541.402	79.999	19.994	100.103	20.076	5.055	0.517
927.000	541.650	79.999	19.996	100.104	20.077	5.014	0.523
927.500	541.896	80.001	19.995	100.104	20.078	4.917	0.508
928.000	542.187	79.999	19.996	100.104	20.081	4.685	0.516
928.500	542.431	80.000	19.995	100.105	20.080	4.764	0.536
929.000	542.666	79.999	19.995	100.104	20.081	4.710	0.507
929.500	542.898	79.999	19.994	100.104	20.080	4.755	0.473
930.000	543.193	79.998	19.996	100.102	20.078	4.918	0.497
930.500	543.419	80.000	19.995	100.099	20.076	5.071	0.524
931.000	543.695	79.999	19.995	100.095	20.080	4.749	0.511
931.500	543.927	79.999	19.995	100.093	20.075	5.138	0.504
932.000	544.210	79.999	19.995	100.093	20.079	4.868	0.511
932.500	544.465	79.998	19.994	100.091	20.082	4.657	0.527
933.000	544.679	80.000	19.997	100.089	20.081	4.685	0.503
933.500	544.941	79.999	19.995	100.088	20.078	4.904	0.472
934.000	545.193	79.998	19.995	100.087	20.082	4.657	0.495
934.500	545.435	80.000	19.996	100.084	20.078	4.885	0.504
935.000	545.686	79.998	19.995	100.081	20.080	4.778	0.493
935.500	545.922	79.999	19.995	100.079	20.076	5.087	0.490
936.000	546.206	80.000	19.995	100.076	20.078	4.949	0.504
936.500	546.467	79.998	19.993	100.076	20.077	5.016	0.533
937.000	546.748	79.999	19.995	100.077	20.077	4.958	0.544
937.500	546.996	79.998	19.995	100.080	20.075	5.117	0.535
938.000	547.240	79.998	19.994	100.082	20.078	4.899	0.510
938.500	547.470	79.999	19.996	100.085	20.079	4.842	0.483
939.000	547.762	79.999	19.995	100.083	20.077	4.973	0.498
939.500	548.015	79.998	19.995	100.085	20.079	4.846	0.534
940.000	548.241	79.999	19.995	100.088	20.079	4.851	0.512
940.500	548.515	79.999	19.994	100.092	20.077	5.018	0.489
941.000	548.745	79.998	19.995	100.097	20.077	5.020	0.502
941.500	549.014	79.998	19.994	100.097	20.078	4.912	0.502
942.000	549.290	79.999	19.995	100.091	20.079	4.876	0.522
942.500	549.539	80.000	19.997	100.087	20.077	5.000	0.535
943.000	549.750	79.997	19.996	100.081	20.076	5.048	0.493
943.500	550.030	79.999	19.996	100.074	20.078	4.925	0.476
944.000	550.305	79.997	19.995	100.072	20.079	4.870	0.523
944.500	550.521	79.998	19.995	100.074	20.077	5.018	0.523
945.000	550.800	79.997	19.995	100.074	20.077	4.962	0.493
945.500	551.037	79.998	19.995	100.076	20.078	4.885	0.505
946.000	551.305	79.998	19.996	100.076	20.076	5.058	0.510
946.500	551.610	79.998	19.997	100.075	20.078	4.950	0.539
947.000	551.832	79.997	19.996	100.079	20.076	5.084	0.550
947.500	552.087	79.997	19.995	100.084	20.075	5.099	0.502
948.000	552.344	79.998	19.996	100.088	20.079	4.853	0.495
948.500	552.600	79.997	19.995	100.091	20.077	5.010	0.513
949.000	552.884	79.998	19.995	100.092	20.078	4.892	0.526
949.500	553.142	79.998	19.996	100.086	20.079	4.847	0.541
950.000	553.359	79.997	19.996	100.079	20.080	4.810	0.509
950.500	553.610	79.998	19.996	100.078	20.081	4.726	0.472
951.000	553.893	79.996	19.996	100.078	20.078	4.890	0.501
951.500	554.147	79.997	19.996	100.082	20.079	4.816	0.535
952.000	554.370	79.997	19.995	100.087	20.078	4.932	0.507
952.500	554.653	79.998	19.996	100.092	20.077	4.971	0.492
953.000	554.910	79.999	19.997	100.094	20.077	4.956	0.523
953.500	555.199	79.999	19.995	100.090	20.078	4.893	0.543
954.000	555.415	79.999	19.997	100.087	20.079	4.878	0.525
954.500	555.689	79.997	19.996	100.086	20.076	5.023	0.498
955.000	555.932	79.999	19.996	100.080	20.081	4.720	0.504
955.500	556.196	80.001	19.995	100.078	20.075	5.156	0.512
956.000	556.451	79.999	19.995	100.077	20.075	5.126	0.513
956.500	556.697	79.999	19.996	100.076	20.076	5.034	0.510
957.000	556.943	79.999	19.996	100.071	20.071	5.384	0.497
957.500	557.197	80.000	19.996	100.071	20.073	5.288	0.496
958.000	557.446	80.000	19.995	100.067	20.075	5.104	0.501
958.500	557.705	79.998	19.993	100.067	20.079	4.846	0.505
959.000	557.974	79.998	19.996	100.065	20.077	4.988	0.518
959.500	558.197	79.999	19.995	100.066	20.078	4.932	0.510
960.000	558.442	79.999	19.995	100.066	20.078	4.930	0.480
960.500	558.736	80.000	19.995	100.066	20.079	4.818	0.504
961.000	558.966	80.000	19.994	100.066	20.079	4.863	0.532
961.500	559.258	80.001	19.994	100.071	20.076	5.082	0.523
962.000	559.484	80.001	19.995	100.073	20.075	5.132	0.520
962.500	559.775	80.001	19.994	100.077	20.077	5.005	0.517
963.000	560.011	80.002	19.995	100.083	20.077	4.956	0.522
963.500	560.247	80.000	19.995	100.084	20.080	4.760	0.500
964.000	560.500	80.001	19.995	100.085	20.079	4.863	0.481
964.500	560.753	80.001	19.995	100.085	20.077	4.969	0.498
965.000	561.043	80.001	19.995	100.081	20.077	4.967	0.524
965.500	561.287	80.002	19.994	100.075	20.076	5.025	0.539
966.000	561.544	80.001	19.994	100.076	20.078	4.932	0.517
966.500	561.803	80.002	19.995	100.070	20.080	4.795	0.508
967.000	562.029	80.000	19.995	100.068	20.079	4.866	0.500
967.500	562.288	80.000	19.995	100.073	20.076	5.040	0.485
968.000	562.533	80.002	19.994	100.075	20.080	4.774	0.495
968.500	562.782	80.001	19.995	100.073	20.076	5.044	0.499
969.000	563.085	80.002	19.995	100.078	20.083	4.601	0.523
969.500	563.316	80.001	19.994	100.084	20.076	5.078	0.543
970.000	563.574	80.001	19.995	100.084	20.077	4.973	0.511
970.500	563.787	80.002	19.995	100.084	20.077	4.975	0.480
971.000	564.039	79.999	19.995	100.088	20.078	4.926	0.468
971.500	564.310	80.002	19.995	100.089	20.075	5.102	0.494
972.000	564.558	80.000	19.995	100.087	20.074	5.182	0.522
972.500	564.811	80.000	19.996	100.086	20.075	5.115	0.510
973.000	565.035	80.000	19.995	100.087	20.079	4.852	0.489
973.500	565.354	79.999	19.995	100.085	20.074	5.201	0.510
974.000	565.572	80.000	19.995	100.083	20.078	4.897	0.540
974.500	565.838	80.000	19.995	100.079	20.079	4.833	0.511
975.000	566.086	80.000	19.996	100.079	20.073	5.263	0.500
975.500	566.343	80.000	19.995	100.076	20.080	4.779	0.510
976.000	566.596	79.999	19.996	100.072	20.074	5.173	0.507
976.500	566.835	80.000	19.997	100.072	20.076	5.052	0.501
977.000	567.106	79.999	19.997	100.075	20.074	5.203	0.501
977.500	567.342	80.001	19.996	100.071	20.071	5.384	0.508
978.000	567.609	79.999	19.996	100.071	20.073	5.262	0.505
978.500	567.836	80.000	19.996	100.072	20.075	5.118	0.499
979.000	568.107	80.000	19.995	100.069	20.072	5.299	0.496
979.500	568.377	80.000	19.995	100.072	20.074	5.197	0.519
980.000	568.596	80.000	19.996	100.078	20.073	5.255	0.515
980.500	568.868	79.999	19.996	100.084	20.072	5.337	0.491
981.000	569.132	80.001	19.996	100.087	20.071	5.379	0.514
981.500	569.381	80.000	19.996	100.090	20.073	5.263	0.525
982.000	569.647	80.001	19.997	100.085	20.075	5.142	0.514
982.500	569.892	80.000	19.995	100.081	20.072	5.301	0.513
983.000	570.119	80.002	19.996	100.079	20.073	5.261	0.491
983.500	570.384	80.000	19.996	100.083	20.073	5.257	0.482
984.000	570.656	80.001	19.995	100.084	20.073	5.233	0.515
984.500	570.900	80.001	19.996	100.085	20.074	5.223	0.527
985.000	571.146	80.001	19.995	100.085	20.075	5.131	0.503
985.500	571.380	80.001	19.995	100.086	20.073	5.273	0.485
986.000	571.657	80.002	19.995	100.085	20.072	5.350	0.496
986.500	571.928	80.000	19.994	100.086	20.072	5.333	0.530
987.000	572.148	80.001	19.995	100.085	20.073	5.249	0.519
987.500	572.408	80.003	19.995	100.088	20.073	5.285	0.485
988.000	572.679	80.002	19.993	100.088	20.070	5.453	0.505
988.500	572.942	80.003	19.995	100.082	20.073	5.264	0.532
989.000	573.180	80.001	19.996	100.076	20.076	5.042	0.518
989.500	573.442	80.001	19.995	100.073	20.073	5.257	0.501
990.000	573.674	80.002	19.995	100.068	20.072	5.296	0.497
990.500	573.941	80.001	19.997	100.067	20.071	5.399	0.496
991.000	574.189	80.001	19.995	100.071	20.068	5.571	0.507
991.500	574.477	80.001	19.994	100.076	20.067	5.670	0.526
992.000	574.721	80.001	19.995	100.082	20.070	5.490	0.534
992.500	574.956	80.004	19.995	100.087	20.071	5.425	0.505
993.000	575.202	80.002	19.995	100.092	20.070	5.484	0.480
993.500	575.483	80.002	19.996	100.093	20.070	5.449	0.504
994.000	575.701	80.001	19.995	100.092	20.069	5.516	0.514
994.500	575.967	80.001	19.995	100.087	20.067	5.688	0.492
995.000	576.212	80.002	19.995	100.083	20.069	5.539	0.497
995.500	576.472	80.001	19.994	100.076	20.070	5.499	0.508
996.000	576.743	80.001	19.994	100.072	20.068	5.572	0.517
996.500	576.977	80.001	19.993	100.068	20.069	5.563	0.518
997.000	577.223	80.001	19.996	100.070	20.071	5.366	0.493
997.500	577.472	80.000	19.993	100.073	20.070	5.497	0.488
998.000	577.758	80.001	19.995	100.075	20.072	5.313	0.515
998.500	577.994	80.000	19.996	100.077	20.069	5.538	0.529
999.000	578.228	79.998	19.995	100.077	20.067	5.689	0.496
999.500	578.497	79.998	19.994	100.074	20.069	5.545	0.487
1000.000	578.778	79.999	19.994	100.072	20.073	5.242	0.527
1000.500	578.985	80.000	19.994	100.074	20.071	5.367	0.519
1001.000	579.244	80.000	19.994	100.075	20.067	5.642	0.477
1001.500	579.521	79.999	19.994	100.074	20.071	5.392	0.501
1002.000	579.742	79.998	19.994	100.074	20.070	5.489	0.517
1002.500	579.982	79.999	19.995	100.074	20.071	5.429	0.480
1003.000	580.291	80.001	19.996	100.070	20.069	5.530	0.505
1003.500	580.478	80.000	19.996	100.067	20.072	5.344	0.522
1004.000	580.757	79.998	19.995	100.067	20.069	5.506	0.480
1004.500	580.986	80.000	19.995	100.068	20.070	5.439	0.487
1005.000	581.253	79.997	19.994	100.068	20.073	5.250	0.503
1005.500	581.486	79.999	19.993	100.074	20.075	5.135	0.498
1006.000	581.752	79.999	19.994	100.082	20.072	5.350	0.499
1006.500	582.023	79.998	19.996	100.089	20.072	5.316	0.518
1007.000	582.298	79.999	19.996	100.093	20.068	5.591	0.541
1007.500	582.503	80.000	19.995	100.097	20.069	5.505	0.513
1008.000	582.763	79.998	19.995	100.094	20.071	5.413	0.473
1008.500	583.019	79.999	19.995	100.088	20.066	5.709	0.490
1009.000	583.273	80.000	19.996	100.085	20.070	5.469	0.513
1009.500	583.534	79.999	19.995	100.084	20.067	5.670	0.513
1010.000	583.776	79.998	19.996	100.084	20.072	5.361	0.509
1010.500	584.023	80.000	19.997	100.082	20.069	5.563	0.496
1011.000	584.285	79.998	19.995	100.083	20.067	5.651	0.499
1011.500	584.565	80.000	19.996	100.081	20.067	5.684	0.526
1012.000	584.817	79.998	19.995	100.079	20.070	5.467	0.537
1012.500	585.057	79.997	19.994	100.083	20.070	5.486	0.512
1013.000	585.308	79.999	19.996	100.085	20.066	5.731	0.492
1013.500	585.581	80.000	19.994	100.086	20.071	5.421	0.508
1014.000	585.828	80.000	19.995	100.089	20.068	5.631	0.522
1014.500	586.056	80.000	19.995	100.091	20.069	5.567	0.497
1015.000	586.289	79.999	19.996	100.088	20.069	5.563	0.468
1015.500	586.604	80.001	19.996	100.086	20.072	5.313	0.505
1016.000	586.785	80.000	19.995	100.083	20.063	5.948	0.522
1016.500	587.086	79.998	19.995	100.077	20.065	5.800	0.489
1017.000	587.378	80.000	19.995	100.071	20.065	5.774	0.537
1017.500	587.598	79.999	19.997	100.066	20.067	5.686	0.553
1018.000	587.879	80.001	19.996	100.063	20.067	5.647	0.506
1018.500	588.133	80.000	19.995	100.063	20.067	5.705	0.518
1019.000	588.394	79.998	19.995	100.064	20.065	5.836	0.525
1019.500	588.646	80.000	19.996	100.067	20.061	6.084	0.514
1020.000	588.916	80.001	19.995	100.068	20.063	5.922	0.518
1020.500	589.169	80.002	19.995	100.071	20.064	5.899	0.523
1021.000	589.418	80.001	19.995	100.073	20.064	5.843	0.512
1021.500	589.642	80.001	19.995	100.072	20.064	5.860	0.488
1022.000	589.908	80.004	19.995	100.069	20.061	6.060	0.482
1022.500	590.202	79.999	19.994	100.069	20.061	6.075	0.525
1023.000	590.447	79.998	19.994	100.066	20.061	6.059	0.549
1023.500	590.670	80.000	19.995	100.066	20.063	5.939	0.503
1024.000	590.918	80.000	19.995	100.072	20.060	6.162	0.470
1024.500	591.207	79.997	19.994	100.077	20.064	5.878	0.504
1025.000	591.470	79.998	19.995	100.081	20.064	5.882	0.544
1025.500	591.709	79.998	19.996	100.081	20.063	5.919	0.527
1026.000	592.000	79.999	19.996	100.079	20.066	5.760	0.516
1026.501	592.274	80.000	19.995	100.072	20.060	6.125	0.548
1027.001	592.469	80.001	19.995	100.068	20.057	6.375	0.517
1027.500	592.762	79.999	19.997	100.063	20.061	6.055	0.479
1028.000	593.026	79.998	19.996	100.064	20.057	6.330	0.522
1028.500	593.284	79.999	19.996	100.064	20.061	6.079	0.539
1029.000	593.514	79.999	19.996	100.065	20.057	6.351	0.505
1029.500	593.775	79.999	19.997	100.070	20.061	6.050	0.490
1030.000	594.046	79.998	19.996	100.073	20.060	6.162	0.511
1030.500	594.305	79.999	19.997	100.072	20.061	6.074	0.531
1031.000	594.552	79.999	19.995	100.072	20.061	6.098	0.518
1031.500	594.796	79.999	19.996	100.071	20.062	5.987	0.498
1032.000	595.076	79.998	19.995	100.068	20.064	5.911	0.507
1032.500	595.353	79.998	19.998	100.070	20.056	6.395	0.540
1033.001	595.543	79.999	19.996	100.072	20.062	6.014	0.512
1033.501	595.850	79.997	19.996	100.076	20.059	6.229	0.483
1034.000	596.130	79.998	19.996	100.082	20.062	5.995	0.542
1034.500	596.374	79.999	19.996	100.084	20.059	6.236	0.555
1035.000	596.595	80.000	19.997	100.084	20.061	6.114	0.495
1035.500	596.886	79.999	19.996	100.086	20.058	6.281	0.488
1036.000	597.138	79.998	19.996	100.089	20.060	6.118	0.527
1036.500	597.388	80.000	19.996	100.091	20.057	6.376	0.522
1037.000	597.668	79.998	19.996	100.089	20.059	6.214	0.516
1037.500	597.926	79.999	19.995	100.087	20.058	6.320	0.534
1038.000	598.171	79.997	19.996	100.082	20.057	6.382	0.521
1038.500	598.430	79.998	19.997	100.080	20.059	6.220	0.504
1039.000	598.689	79.999	19.997	100.078	20.061	6.068	0.511
1039.500	598.954	80.000	19.995	100.082	20.058	6.255	0.521
1040.000	599.235	79.999	19.998	100.087	20.058	6.260	0.535
1040.500	599.446	79.998	19.996	100.094	20.059	6.206	0.519
1041.000	599.723	80.000	19.996	100.092	20.060	6.143	0.490
1041.500	599.984	79.999	19.996	100.088	20.061	6.108	0.513
1042.000	600.245	79.997	19.997	100.082	20.061	6.085	0.530
1042.500	600.478	79.999	19.997	100.076	20.058	6.293	0.508
1043.000	600.735	80.001	19.995	100.075	20.066	5.767	0.492
1043.500	601.022	80.000	19.996	100.078	20.064	5.868	0.517
1044.000	601.252	80.001	19.996	100.078	20.062	6.006	0.530
1044.500	601.556	80.000	19.995	100.077	20.061	6.109	0.525
1045.000	601.789	80.000	19.997	100.078	20.061	6.111	0.536
1045.500	602.028	80.000	19.995	100.074	20.059	6.212	0.504
1046.000	602.323	80.001	19.996	100.072	20.058	6.281	0.503
1046.500	602.544	79.998	19.993	100.074	20.060	6.141	0.525
1047.000	602.772	80.000	19.996	100.075	20.060	6.158	0.483
1047.500	603.074	80.000	19.996	100.075	20.061	6.051	0.490
1048.000	603.316	79.998	19.995	100.076	20.061	6.096	0.537
1048.500	603.611	79.999	19.997	100.079	20.063	5.965	0.541
1049.000	603.839	80.000	19.996	100.080	20.063	5.942	0.530
1049.500	604.085	80.002	19.995	100.082	20.065	5.806	0.498
1050.001	604.385	80.003	19.995	100.082	20.061	6.081	0.510
1050.501	604.637	80.002	19.996	100.084	20.064	5.892	0.549
1051.000	604.876	79.999	19.995	100.079	20.059	6.237	0.522
1051.500	605.108	80.002	19.994	100.081	20.058	6.299	0.481
1052.000	605.372	80.001	19.995	100.084	20.059	6.221	0.483
1052.500	605.641	80.002	19.994	100.085	20.064	5.858	0.515
1053.000	605.903	80.000	19.995	100.086	20.061	6.092	0.532
1053.500	606.145	80.001	19.994	100.087	20.062	6.047	0.518
1054.000	606.419	80.001	19.994	100.083	20.061	6.096	0.510
1054.500	606.679	79.998	19.994	100.079	20.059	6.226	0.525
1055.000	606.913	80.001	19.994	100.079	20.057	6.329	0.514
1055.500	607.181	79.999	19.995	100.081	20.058	6.292	0.498
1056.000	607.446	79.999	19.995	100.083	20.060	6.163	0.518
1056.500	607.714	80.001	19.995	100.084	20.060	6.165	0.533
1057.000	607.959	80.001	19.995	100.084	20.060	6.176	0.523
1057.500	608.203	80.000	19.995	100.082	20.058	6.262	0.501
1058.000	608.466	80.000	19.993	100.076	20.059	6.188	0.498
1058.500	608.763	79.999	19.994	100.073	20.061	6.080	0.534
1059.001	609.021	80.000	19.995	100.072	20.064	5.885	0.557
1059.501	609.230	79.999	19.995	100.072	20.061	6.100	0.511
1060.000	609.504	79.998	19.994	100.071	20.062	6.029	0.475
1060.500	609.744	80.000	19.994	100.071	20.056	6.425	0.499
1061.000	609.984	80.000	19.994	100.070	20.061	6.066	0.497
1061.500	610.251	80.000	19.994	100.070	20.059	6.195	0.493
1062.000	610.530	80.001	19.996	100.069	20.057	6.350	0.526
1062.500	610.747	80.001	19.994	100.070	20.061	6.105	0.521
1063.000	611.018	79.999	19.995	100.071	20.064	5.888	0.492
1063.500	611.267	80.000	19.996	100.075	20.059	6.213	0.504
1064.000	611.556	80.000	19.995	100.075	20.059	6.223	0.529
1064.500	611.827	80.000	19.994	100.075	20.057	6.331	0.549
1065.000	612.035	80.000	19.993	100.073	20.059	6.189	0.519
1065.500	612.252	80.000	19.995	100.072	20.058	6.282	0.452
1066.000	612.554	80.000	19.995	100.068	20.060	6.174	0.472
1066.500	612.791	80.001	19.995	100.069	20.060	6.144	0.529
1067.000	613.059	80.001	19.994	100.071	20.061	6.079	0.522
1067.500	613.321	80.001	19.994	100.074	20.059	6.228	0.517
1068.000	613.575	80.000	19.993	100.075	20.061	6.079	0.523
1068.500	613.814	80.000	19.996	100.080	20.059	6.200	0.505
1069.000	614.079	80.002	19.994	100.086	20.059	6.219	0.499
1069.500	614.353	80.003	19.996	100.086	20.057	6.358	0.521
1070.000	614.596	80.003	19.994	100.086	20.058	6.257	0.528
1070.500	614.878	80.001	19.995	100.087	20.061	6.102	0.521
1071.000	615.140	80.001	19.995	100.084	20.057	6.378	0.534
1071.500	615.399	80.002	19.995	100.079	20.055	6.511	0.533
1072.000	615.660	80.002	19.996	100.079	20.061	6.094	0.520
1072.500	615.908	80.002	19.996	100.075	20.057	6.376	0.514
1073.000	616.181	80.000	19.996	100.073	20.060	6.139	0.515
1073.500	616.435	80.002	19.994	100.069	20.058	6.301	0.524
1074.000	616.706	80.003	19.995	100.070	20.059	6.195	0.526
1074.500	616.913	80.001	19.994	100.071	20.058	6.269	0.502
1075.000	617.212	80.001	19.992	100.073	20.060	6.152	0.492
1075.500	617.436	80.002	19.994	100.073	20.057	6.376	0.515
1076.000	617.691	80.001	19.995	100.074	20.057	6.339	0.501
1076.500	617.975	80.001	19.995	100.071	20.057	6.354	0.509
1077.000	618.198	80.002	19.994	100.068	20.060	6.152	0.523
1077.501	618.440	80.000	19.994	100.067	20.062	6.047	0.486
1078.001	618.709	80.000	19.995	100.067	20.059	6.194	0.488
1078.500	618.960	80.002	19.993	100.069	20.056	6.396	0.516
1079.001	619.255	80.002	19.995	100.068	20.057	6.337	0.533
1079.501	619.483	80.001	19.996	100.070	20.058	6.316	0.535
1080.000	619.764	80.002	19.996	100.073	20.057	6.370	0.516
1080.500	619.992	80.000	19.995	100.078	20.056	6.409	0.509
1081.000	620.244	80.000	19.995	100.079	20.057	6.355	0.495
1081.500	620.516	79.999	19.997	100.079	20.055	6.497	0.502
1082.000	620.775	80.000	19.996	100.079	20.057	6.334	0.528
1082.500	621.049	80.001	19.995	100.078	20.055	6.461	0.532
1083.000	621.292	80.000	19.994	100.074	20.056	6.413	0.525
1083.500	621.543	80.000	19.994	100.073	20.057	6.336	0.505
1084.000	621.783	80.001	19.995	100.074	20.055	6.465	0.492
1084.500	622.042	80.002	19.995	100.073	20.056	6.411	0.495
1085.000	622.303	80.000	19.995	100.070	20.056	6.407	0.510
1085.500	622.561	79.998	19.993	100.070	20.060	6.151	0.520
1086.000	622.813	80.000	19.995	100.070	20.060	6.159	0.514
1086.500	623.091	80.000	19.996	100.071	20.061	6.088	0.520
1087.000	623.338	80.002	19.995	100.073	20.061	6.050	0.528
1087.500	623.578	80.002	19.996	100.072	20.060	6.147	0.506
1088.000	623.816	80.000	19.994	100.071	20.057	6.342	0.482
1088.500	624.117	80.000	19.995	100.071	20.060	6.121	0.508
1089.000	624.342	79.999	19.995	100.069	20.062	6.004	0.533
1089.500	624.591	80.000	19.994	100.066	20.057	6.376	0.500
1090.000	624.854	80.001	19.995	100.070	20.057	6.355	0.493
1090.500	625.103	80.000	19.995	100.070	20.059	6.193	0.512
1091.000	625.374	80.000	19.994	100.069	20.056	6.396	0.516
1091.500	625.624	80.001	19.996	100.069	20.062	6.015	0.520
1092.000	625.865	79.999	19.996	100.068	20.056	6.421	0.506
1092.500	626.119	79.999	19.995	100.064	20.057	6.344	0.493
1093.000	626.387	80.000	19.996	100.064	20.055	6.471	0.509
1093.500	626.641	79.998	19.996	100.064	20.057	6.380	0.522
1094.000	626.879	80.000	19.994	100.065	20.060	6.129	0.507
1094.501	627.134	79.999	19.995	100.065	20.060	6.146	0.493
1095.001	627.391	79.999	19.995	100.065	20.053	6.643	0.502
1095.500	627.652	80.002	19.996	100.064	20.058	6.318	0.515
1096.000	627.903	80.000	19.995	100.064	20.056	6.393	0.515
1096.500	628.165	80.000	19.994	100.063	20.063	5.952	0.513
1097.000	628.428	80.000	19.995	100.062	20.062	5.997	0.519
1097.500	628.686	80.000	19.995	100.063	20.054	6.536	0.523
1098.000	628.941	79.999	19.995	100.064	20.056	6.393	0.517
1098.500	629.160	79.999	19.995	100.064	20.059	6.244	0.493
1099.000	629.464	80.001	19.996	100.064	20.060	6.122	0.498
1099.500	629.700	79.999	19.995	100.065	20.054	6.591	0.531
1100.000	629.978	80.001	19.996	100.065	20.055	6.518	0.527
1100.500	630.204	80.002	19.996	100.068	20.057	6.364	0.509
1101.000	630.480	80.000	19.998	100.068	20.057	6.379	0.503
1101.500	630.720	80.001	19.996	100.068	20.056	6.394	0.509
1102.000	630.990	80.001	19.995	100.069	20.055	6.463	0.513
1102.500	631.227	79.997	19.996	100.069	20.060	6.168	0.508
1103.001	631.498	79.999	19.995	100.070	20.053	6.609	0.508
1103.501	631.746	79.999	19.996	100.071	20.053	6.635	0.514
1104.000	632.010	80.000	19.994	100.071	20.055	6.460	0.515
1104.500	632.273	79.998	19.995	100.071	20.052	6.693	0.519
1105.000	632.516	79.999	19.995	100.071	20.054	6.587	0.517
1105.500	632.774	80.001	19.995	100.069	20.057	6.339	0.504
1106.000	633.003	80.001	19.996	100.071	20.053	6.654	0.494
1106.500	633.273	80.001	19.997	100.077	20.055	6.473	0.493
1107.000	633.525	80.001	19.995	100.082	20.051	6.764	0.510
1107.500	633.782	79.999	19.995	100.083	20.055	6.512	0.515
1108.000	634.049	79.998	19.996	100.084	20.049	6.873	0.517
1108.500	634.275	79.997	19.996	100.085	20.051	6.738	0.508
1109.000	634.576	79.998	19.996	100.081	20.053	6.661	0.510
1109.500	634.801	80.001	19.997	100.079	20.050	6.848	0.527
1110.000	635.081	80.000	19.997	100.078	20.051	6.796	0.515
1110.500	635.347	80.000	19.997	100.074	20.054	6.540	0.525
1111.000	635.610	80.001	19.997	100.070	20.057	6.376	0.538
1111.500	635.833	80.001	19.996	100.068	20.050	6.832	0.508
1112.000	636.124	80.000	19.996	100.065	20.055	6.488	0.500
1112.500	636.337	80.002	19.997	100.062	20.051	6.740	0.508
1113.000	636.611	79.999	19.996	100.063	20.054	6.591	0.495
1113.500	636.860	79.999	19.994	100.063	20.050	6.834	0.505
1114.000	637.068	79.998	19.996	100.062	20.054	6.590	0.490
1114.500	637.330	79.999	19.995	100.064	20.053	6.635	0.464
1115.000	637.619	80.001	19.995	100.066	20.056	6.400	0.510
1115.500	637.888	79.999	19.995	100.070	20.055	6.501	0.555
1116.000	638.155	79.999	19.995	100.074	20.057	6.334	0.547
1116.500	638.399	80.000	19.996	100.075	20.054	6.547	0.524
1117.000	638.637	79.997	19.994	100.074	20.055	6.471	0.497
1117.500	638.885	79.999	19.995	100.073	20.059	6.185	0.483
1118.000	639.140	79.998	19.995	100.070	20.057	6.366	0.494
1118.500	639.386	80.000	19.995	100.066	20.055	6.479	0.502
1119.000	639.660	80.001	19.995	100.066	20.056	6.406	0.511
1119.500	639.910	79.999	19.995	100.066	20.053	6.630	0.522
1120.000	640.129	79.999	19.993	100.067	20.057	6.380	0.496
1120.500	640.403	80.002	19.996	100.066	20.056	6.400	0.481
1121.000	640.677	79.998	19.996	100.067	20.056	6.402	0.520
1121.500	640.875	79.999	19.995	100.068	20.058	6.273	0.510
1122.000	641.140	79.998	19.995	100.071	20.059	6.187	0.468
1122.500	641.384	79.999	19.995	100.073	20.058	6.269	0.486
1123.000	641.682	80.000	19.994	100.073	20.061	6.093	0.526
1123.500	641.889	79.999	19.994	100.074	20.058	6.254	0.524
1124.000	642.153	80.000	19.995	100.074	20.055	6.463	0.488
1124.500	642.445	79.999	19.995	100.070	20.057	6.370	0.513
1125.000	642.681	80.000	19.995	100.067	20.059	6.209	0.542
1125.500	642.943	80.000	19.995	100.066	20.054	6.545	0.513
1126.000	643.174	80.001	19.996	100.065	20.057	6.364	0.496
1126.500	643.437	80.000	19.995	100.064	20.055	6.473	0.494
1127.000	643.704	80.001	19.996	100.064	20.052	6.710	0.512
1127.500	643.962	79.997	19.996	100.065	20.056	6.411	0.528
1128.000	644.198	79.997	19.995	100.065	20.054	6.580	0.510
1128.500	644.465	79.998	19.996	100.066	20.056	6.456	0.498
1129.000	644.740	79.999	19.997	100.070	20.056	6.408	0.522
1129.500	644.966	79.998	19.996	100.072	20.055	6.496	0.522
1130.000	645.219	80.000	19.996	100.071	20.056	6.395	0.490
1130.500	645.489	80.002	19.995	100.072	20.052	6.716	0.502
1131.000	645.729	79.999	19.995	100.071	20.059	6.219	0.516
1131.500	645.972	80.000	19.996	100.068	20.053	6.645	0.496
1132.000	646.203	80.001	19.997	100.065	20.058	6.293	0.478
1132.500	646.463	80.000	19.995	100.065	20.056	6.392	0.483
1133.000	646.747	79.999	19.996	100.066	20.058	6.317	0.518
1133.500	646.975	80.000	19.995	100.066	20.053	6.626	0.528
1134.000	647.281	79.997	19.994	100.066	20.054	6.544	0.523
1134.500	647.501	79.997	19.996	100.065	20.052	6.691	0.530
1135.000	647.780	79.999	19.994	100.065	20.056	6.450	0.513
1135.500	648.008	80.001	19.996	100.064	20.053	6.600	0.503
1136.000	648.265	79.999	19.996	100.064	20.052	6.676	0.496
1136.500	648.494	79.996	19.996	100.064	20.054	6.590	0.485
1137.000	648.758	79.999	19.996	100.065	20.053	6.652	0.490
1137.500	649.004	79.999	19.996	100.066	20.054	6.564	0.502
1138.000	649.274	79.999	19.996	100.068	20.057	6.360	0.513
1138.500	649.525	79.998	19.995	100.071	20.055	6.463	0.518
1139.000	649.804	80.002	19.996	100.074	20.057	6.373	0.526
1139.500	650.046	79.999	19.995	100.074	20.057	6.370	0.526
1140.000	650.316	79.998	19.997	100.075	20.054	6.560	0.516
1140.500	650.572	80.001	19.996	100.076	20.057	6.330	0.519
1141.000	650.807	80.000	19.995	100.073	20.052	6.669	0.508
1141.500	650.992	80.001	19.995	100.069	20.058	6.289	0.455
1142.000	651.284	80.002	19.996	100.069	20.054	6.557	0.448
1142.500	651.532	79.997	19.994	100.068	20.057	6.334	0.508
1143.000	651.806	80.000	19.994	100.065	20.061	6.060	0.531
1143.500	652.034	79.998	19.995	100.064	20.057	6.355	0.512
1144.000	652.333	80.001	19.995	100.064	20.057	6.325	0.515
1144.500	652.580	79.999	19.995	100.065	20.054	6.561	0.536
1145.000	652.812	80.000	19.994	100.067	20.059	6.245	0.512
1145.500	653.112	80.001	19.995	100.067	20.060	6.151	0.505
1146.000	653.336	80.003	19.994	100.068	20.055	6.467	0.528
1146.500	653.617	80.001	19.995	100.068	20.061	6.079	0.515
1147.000	653.890	80.002	19.995	100.068	20.054	6.570	0.530
1147.500	654.111	80.002	19.993	100.064	20.054	6.564	0.524
1148.001	654.386	80.000	19.993	100.063	20.053	6.663	0.495
1148.501	654.656	80.004	19.994	100.062	20.057	6.349	0.520
1149.000	654.910	80.002	19.994	100.062	20.058	6.256	0.534
1149.500	655.142	80.002	19.994	100.063	20.056	6.443	0.505
1150.000	655.399	80.002	19.995	100.063	20.056	6.444	0.488
1150.500	655.657	80.001	19.995	100.063	20.057	6.344	0.502
1151.000	655.916	80.002	19.995	100.063	20.061	6.112	0.516
1151.500	656.184	80.003	19.994	100.063	20.058	6.276	0.522
1152.000	656.479	80.004	19.993	100.063	20.057	6.388	0.545
1152.500	656.700	80.002	19.993	100.062	20.055	6.497	0.539
1153.000	656.928	80.005	19.994	100.062	20.059	6.245	0.482
1153.500	657.221	80.003	19.994	100.065	20.059	6.234	0.485
1154.000	657.465	80.004	19.994	100.065	20.058	6.256	0.529
1154.500	657.707	80.003	19.994	100.065	20.057	6.369	0.511
1155.000	657.969	80.003	19.994	100.067	20.056	6.439	0.495
1155.500	658.230	80.004	19.995	100.070	20.060	6.135	0.514
1156.000	658.483	80.003	19.995	100.067	20.056	6.443	0.518
1156.500	658.760	80.001	19.994	100.067	20.060	6.163	0.522
1157.000	658.999	80.002	19.994	100.068	20.059	6.202	0.523
1157.500	659.275	80.000	19.995	100.068	20.054	6.546	0.516
1158.000	659.518	80.001	19.996	100.065	20.056	6.417	0.517
1158.500	659.779	79.999	19.994	100.065	20.055	6.475	0.511
1159.000	660.051	80.001	19.995	100.065	20.056	6.449	0.518
1159.500	660.313	80.003	19.993	100.064	20.055	6.490	0.534
1160.000	660.607	80.001	19.994	100.062	20.056	6.404	0.545
1160.500	660.825	80.002	19.996	100.063	20.057	6.372	0.534
1161.000	661.078	80.002	19.995	100.063	20.054	6.564	0.491
1161.500	661.313	80.002	19.994	100.063	20.058	6.310	0.480
1162.000	661.551	80.000	19.993	100.063	20.058	6.297	0.481
1162.500	661.808	80.000	19.995	100.062	20.058	6.256	0.484
1163.000	662.098	80.001	19.995	100.062	20.056	6.411	0.522
1163.500	662.338	80.000	19.994	100.069	20.057	6.385	0.539
1164.000	662.630	80.002	19.995	100.072	20.060	6.183	0.531
1164.500	662.868	80.000	19.995	100.072	20.058	6.286	0.531
1165.000	663.131	80.000	19.996	100.074	20.061	6.108	0.515
1165.500	663.398	80.000	19.995	100.074	20.053	6.632	0.515
1166.000	663.639	80.001	19.995	100.068	20.055	6.476	0.519
1166.500	663.887	80.003	19.994	100.070	20.057	6.389	0.499
1167.000	664.151	80.000	19.994	100.072	20.055	6.512	0.501
1167.500	664.428	80.002	19.994	100.073	20.053	6.605	0.526
1168.000	664.630	80.002	19.996	100.073	20.054	6.538	0.510
1168.500	664.881	80.000	19.996	100.072	20.055	6.518	0.466
1169.000	665.132	79.999	19.995	100.070	20.059	6.228	0.478
1169.500	665.433	80.000	19.994	100.068	20.060	6.121	0.527
1170.000	665.642	80.000	19.995	100.068	20.052	6.686	0.531
1170.500	665.908	80.001	19.997	100.068	20.060	6.147	0.492
1171.000	666.151	80.000	19.994	100.068	20.054	6.579	0.492
1171.500	666.417	79.999	19.995	100.065	20.055	6.476	0.509
1172.000	666.753	80.003	19.994	100.066	20.052	6.701	0.556
1172.500	666.958	79.999	19.994	100.065	20.051	6.798	0.571
1173.000	667.201	80.001	19.994	100.066	20.056	6.422	0.494
1173.500	667.415	79.998	19.994	100.067	20.059	6.228	0.452
1174.000	667.737	80.001	19.995	100.067	20.057	6.348	0.496
1174.501	667.937	80.001	19.994	100.068	20.056	6.445	0.529
1175.001	668.227	79.999	19.995	100.069	20.055	6.508	0.507
1175.500	668.450	79.999	19.994	100.068	20.053	6.626	0.501
1176.000	668.717	79.999	19.995	100.067	20.056	6.447	0.501
1176.500	668.988	80.001	19.994	100.067	20.059	6.198	0.514
1177.000	669.206	80.001	19.995	100.065	20.057	6.389	0.514
1177.500	669.461	80.000	19.996	100.065	20.056	6.430	0.481
1178.000	669.739	80.001	19.994	100.064	20.055	6.514	0.503
1178.501	669.980	80.001	19.995	100.066	20.055	6.492	0.526
1179.001	670.266	80.001	19.994	100.067	20.056	6.450	0.523
1179.500	670.488	80.000	19.994	100.066	20.056	6.450	0.517
1180.000	670.740	80.000	19.994	100.065	20.060	6.159	0.491
1180.500	670.983	80.001	19.996	100.065	20.057	6.365	0.485
1181.000	671.236	80.001	19.994	100.064	20.059	6.234	0.495
1181.500	671.500	79.999	19.996	100.064	20.058	6.314	0.506
1182.000	671.738	79.999	19.994	100.064	20.053	6.612	0.510
1182.500	672.016	80.001	19.995	100.065	20.056	6.449	0.509
1183.000	672.274	80.001	19.993	100.066	20.055	6.477	0.526
1183.500	672.508	80.000	19.994	100.065	20.052	6.686	0.514
1184.000	672.779	79.999	19.993	100.065	20.061	6.086	0.498
1184.500	673.017	79.999	19.995	100.066	20.054	6.594	0.507
1185.000	673.272	80.000	19.995	100.066	20.058	6.293	0.501
1185.500	673.525	79.999	19.993	100.067	20.053	6.632	0.500
1186.000	673.761	80.002	19.994	100.066	20.056	6.417	0.499
1186.500	674.030	80.000	19.993	100.067	20.055	6.467	0.497
1187.000	674.271	80.000	19.993	100.066	20.057	6.383	0.508
1187.500	674.552	79.999	19.995	100.069	20.061	6.064	0.516
1188.000	674.792	80.000	19.994	100.069	20.057	6.355	0.522
1188.500	675.040	79.999	19.992	100.069	20.056	6.432	0.504
1189.000	675.322	79.998	19.994	100.069	20.056	6.458	0.509
1189.500	675.587	79.999	19.994	100.069	20.062	5.995	0.538
1190.000	675.838	80.000	19.995	100.066	20.056	6.400	0.531
1190.500	676.089	80.001	19.995	100.066	20.062	5.993	0.509
1191.000	676.331	79.999	19.995	100.068	20.057	6.342	0.498
1191.500	676.596	79.999	19.996	100.069	20.060	6.180	0.500
1192.000	676.846	79.999	19.994	100.072	20.061	6.105	0.511
1192.500	677.108	79.999	19.996	100.074	20.056	6.423	0.513
1193.000	677.404	79.999	19.993	100.080	20.058	6.258	0.535
1193.500	677.606	79.999	19.995	100.080	20.059	6.195	0.528
1194.000	677.846	80.001	19.995	100.079	20.056	6.418	0.470
1194.500	678.113	79.999	19.995	100.076	20.056	6.418	0.475
1195.000	678.365	79.998	19.996	100.074	20.056	6.446	0.513
1195.500	678.610	79.999	19.994	100.069	20.055	6.464	0.508
1196.000	678.868	79.997	19.995	100.067	20.055	6.462	0.500
1196.500	679.121	79.999	19.996	100.068	20.058	6.269	0.507
1197.000	679.376	79.999	19.996	100.068	20.055	6.499	0.509
1197.500	679.612	79.996	19.995	100.068	20.056	6.441	0.500
1198.000	679.931	79.999	19.996	100.067	20.054	6.570	0.523
1198.500	680.134	79.999	19.996	100.068	20.052	6.675	0.538
1199.000	680.437	79.999	19.994	100.068	20.055	6.509	0.514
1199.500	680.684	79.999	19.996	100.068	20.054	6.593	0.528
1200.000	680.930	79.999	19.996	100.069	20.056	6.454	0.521
1200.500	681.216	79.998	19.995	100.071	20.056	6.413	0.513
1201.000	681.424	79.998	19.995	100.071	20.053	6.650	0.513
1201.500	681.660	79.999	19.995	100.073	20.056	6.439	0.469
1202.000	681.926	79.999	19.994	100.072	20.055	6.506	0.473
1202.500	682.266	79.999	19.994	100.072	20.058	6.314	0.554
1203.000	682.463	79.999	19.994	100.070	20.058	6.260	0.571
1203.500	682.761	79.998	19.994	100.070	20.058	6.318	0.516
1204.000	682.991	79.999	19.995	100.072	20.056	6.391	0.512
1204.500	683.258	79.999	19.996	100.078	20.057	6.328	0.512
1205.000	683.474	80.001	19.995	100.080	20.055	6.480	0.490
1205.501	683.779	79.997	19.994	100.081	20.053	6.654	0.502
1206.001	684.013	80.001	19.995	100.082	20.057	6.379	0.530
1206.500	684.265	80.002	19.995	100.079	20.058	6.312	0.513
1207.000	684.524	79.999	19.996	100.072	20.048	6.959	0.499
1207.500	684.751	80.000	19.997	100.070	20.054	6.583	0.498
1208.000	685.050	80.001	19.996	100.072	20.051	6.747	0.505
1208.500	685.336	80.002	19.996	100.074	20.055	6.512	0.555
1209.000	685.587	80.001	19.995	100.073	20.055	6.517	0.561
1209.500	685.848	80.001	19.994	100.074	20.055	6.501	0.525
1210.000	686.119	80.002	19.994	100.072	20.055	6.504	0.522
1210.500	686.344	80.001	19.997	100.069	20.053	6.598	0.514
1211.000	686.611	80.002	19.994	100.065	20.054	6.576	0.494
1211.500	686.865	80.003	19.996	100.064	20.053	6.617	0.507
1212.000	687.111	80.000	19.993	100.064	20.051	6.744	0.511
1212.500	687.378	80.001	19.995	100.065	20.052	6.701	0.506
1213.000	687.626	80.002	19.996	100.067	20.053	6.597	0.514
1213.500	687.891	80.000	19.994	100.072	20.054	6.540	0.514
1214.000	688.153	80.003	19.995	100.074	20.050	6.826	0.520
1214.500	688.430	80.000	19.994	100.075	20.053	6.628	0.533
1215.000	688.689	80.001	19.995	100.077	20.050	6.864	0.538
1215.500	688.912	79.999	19.996	100.075	20.053	6.621	0.509
1216.000	689.156	80.002	19.994	100.069	20.057	6.361	0.475
1216.500	689.468	80.001	19.996	100.068	20.050	6.854	0.512
1217.001	689.748	80.002	19.995	100.068	20.053	6.628	0.574
1217.501	689.974	80.000	19.995	100.067	20.050	6.826	0.549
1218.000	690.278	80.001	19.996	100.066	20.047	7.030	0.518
1218.500	690.509	80.000	19.995	100.066	20.053	6.604	0.533
1219.000	690.756	80.000	19.996	100.066	20.051	6.738	0.507
1219.500	691.036	80.000	19.995	100.064	20.055	6.503	0.503
1220.000	691.289	80.001	19.994	100.062	20.051	6.777	0.529
1220.500	691.529	80.000	19.997	100.064	20.055	6.482	0.513
1221.001	691.796	80.001	19.995	100.065	20.057	6.332	0.500
1221.501	692.030	80.001	19.996	100.065	20.057	6.325	0.504
1222.000	692.336	79.998	19.996	100.071	20.054	6.547	0.521
1222.500	692.578	80.002	19.996	100.073	20.052	6.714	0.544
1223.000	692.852	80.000	19.997	100.076	20.054	6.544	0.532
1223.500	693.079	79.999	19.995	100.076	20.056	6.404	0.509
1224.000	693.361	80.001	19.996	100.076	20.056	6.447	0.505
1224.500	693.605	80.000	19.997	100.071	20.051	6.736	0.517
1225.000	693.868	80.000	19.995	100.075	20.055	6.499	0.517
1225.500	694.117	80.000	19.994	100.071	20.054	6.577	0.510
1226.000	694.375	79.998	19.998	100.070	20.049	6.886	0.510
1226.500	694.646	79.998	19.997	100.075	20.054	6.579	0.518
1227.000	694.900	79.999	19.995	100.075	20.054	6.591	0.527
1227.500	695.185	80.000	19.997	100.070	20.051	6.753	0.532
1228.000	695.408	80.000	19.995	100.070	20.052	6.678	0.523
1228.500	695.660	80.001	19.996	100.071	20.058	6.308	0.491
1229.000	695.902	79.999	19.995	100.070	20.058	6.320	0.484
1229.500	696.203	80.001	19.997	100.068	20.053	6.617	0.518
1230.000	696.451	80.000	19.996	100.068	20.052	6.711	0.546
1230.500	696.699	80.001	19.996	100.067	20.057	6.386	0.523
1231.000	697.004	80.003	19.998	100.065	20.054	6.588	0.525
1231.500	697.240	79.999	19.995	100.063	20.053	6.662	0.547
1232.000	697.486	79.999	19.995	100.063	20.051	6.796	0.511
1232.500	697.728	80.002	19.997	100.064	20.055	6.520	0.485
1233.000	697.986	80.001	19.996	100.066	20.051	6.781	0.494
1233.500	698.190	80.001	19.996	100.069	20.057	6.331	0.481
1234.001	698.525	80.003	19.994	100.071	20.052	6.677	0.500
1234.501	698.822	80.002	19.994	100.072	20.050	6.812	0.586
1235.000	699.056	80.003	19.995	100.072	20.050	6.810	0.582
1235.500	699.310	80.003	19.994	100.070	20.053	6.617	0.510
1236.000	699.556	80.002	19.995	100.069	20.052	6.720	0.494
1236.500	699.817	80.002	19.995	100.066	20.054	6.589	0.504
1237.000	700.069	80.001	19.996	100.064	20.054	6.540	0.510
1237.500	700.321	80.001	19.995	100.065	20.048	6.957	0.509
1238.000	700.567	80.003	19.994	100.069	20.056	6.415	0.501
1238.500	700.878	80.001	19.994	100.068	20.056	6.437	0.527
1239.000	701.091	79.999	19.993	100.068	20.054	6.538	0.540
1239.500	701.343	80.000	19.993	100.069	20.053	6.607	0.495
1240.000	701.605	80.001	19.994	100.072	20.054	6.570	0.490
1240.500	701.887	80.002	19.993	100.073	20.051	6.760	0.529
1241.000	702.109	80.001	19.995	100.078	20.053	6.615	0.523
1241.500	702.350	80.002	19.995	100.083	20.051	6.751	0.484
1242.000	702.669	80.002	19.995	100.082	20.051	6.772	0.512
1242.500	702.928	80.000	19.994	100.078	20.049	6.919	0.569
1243.001	703.167	80.000	19.995	100.073	20.053	6.641	0.538
1243.501	703.409	80.003	19.995	100.068	20.049	6.899	0.490
1244.000	703.663	80.000	19.995	100.063	20.051	6.759	0.489
1244.501	703.928	80.000	19.994	100.069	20.054	6.594	0.508
1245.001	704.159	80.000	19.994	100.072	20.049	6.931	0.507
1245.501	704.417	79.999	19.994	100.075	20.045	7.146	0.492
1246.001	704.683	80.001	19.995	100.077	20.047	7.026	0.507
1246.501	704.933	80.000	19.994	100.079	20.053	6.606	0.520
1247.000	705.162	79.999	19.994	100.074	20.053	6.610	0.497
1247.500	705.418	80.002	19.996	100.073	20.057	6.331	0.482
1248.000	705.673	80.000	19.995	100.072	20.051	6.741	0.498
1248.500	705.944	80.001	19.994	100.070	20.059	6.253	0.518
1249.000	706.161	79.996	19.994	100.067	20.056	6.406	0.507
1249.500	706.451	79.999	19.995	100.068	20.052	6.731	0.498
1250.000	706.707	79.999	19.995	100.066	20.055	6.518	0.527
1250.500	706.960	79.999	19.995	100.065	20.051	6.746	0.527
1251.000	707.188	80.001	19.995	100.065	20.057	6.327	0.494
1251.500	707.454	80.000	19.994	100.066	20.052	6.701	0.487
1252.000	707.733	79.999	19.994	100.066	20.058	6.288	0.520
1252.500	707.964	79.999	19.995	100.066	20.050	6.841	0.528
1253.000	708.197	80.000	19.994	100.066	20.052	6.727	0.487
1253.500	708.437	80.000	19.994	100.066	20.058	6.282	0.469
1254.000	708.684	80.002	19.996	100.065	20.053	6.643	0.480
1254.501	708.975	79.999	19.994	100.066	20.055	6.505	0.512
1255.001	709.219	80.000	19.995	100.066	20.052	6.678	0.537
1255.500	709.489	79.998	19.995	100.068	20.053	6.617	0.525
1256.000	709.747	79.999	19.996	100.069	20.051	6.770	0.521
1256.500	709.957	79.998	19.995	100.071	20.056	6.407	0.498
1257.000	710.194	79.998	19.994	100.074	20.057	6.361	0.457
1257.500	710.478	79.999	19.994	100.077	20.053	6.617	0.484
1258.000	710.725	80.002	19.994	100.076	20.053	6.663	0.526
1258.500	710.976	80.000	19.996	100.075	20.056	6.430	0.515
1259.000	711.230	79.998	19.994	100.076	20.051	6.757	0.502
1259.500	711.470	79.998	19.995	100.079	20.055	6.477	0.500
1260.000	711.733	80.000	19.994	100.080	20.056	6.430	0.499
1260.500	711.971	79.999	19.995	100.080	20.052	6.714	0.502
1261.000	712.218	80.001	19.993	100.080	20.052	6.671	0.492
1261.500	712.511	80.002	19.995	100.078	20.051	6.738	0.512
1262.000	712.730	80.001	19.994	100.071	20.051	6.766	0.526
1262.500	713.013	80.001	19.995	100.067	20.053	6.632	0.507
1263.000	713.306	80.000	19.995	100.067	20.054	6.555	0.539
1263.500	713.542	80.000	19.995	100.068	20.044	7.250	0.552
1264.000	713.782	79.999	19.994	100.067	20.052	6.711	0.503
1264.500	714.015	79.999	19.994	100.068	20.051	6.771	0.475
1265.000	714.256	79.998	19.994	100.068	20.044	7.246	0.474
1265.500	714.515	80.001	19.996	100.069	20.050	6.856	0.487
1266.000	714.778	80.001	19.996	100.069	20.048	7.005	0.511
1266.500	715.055	79.998	19.994	100.069	20.053	6.654	0.531
1267.000	715.332	79.999	19.996	100.069	20.048	6.947	0.547
1267.500	715.591	79.999	19.995	100.069	20.049	6.917	0.545
1268.000	715.810	79.998	19.994	100.068	20.049	6.903	0.507
1268.500	716.073	80.000	19.994	100.066	20.051	6.772	0.480
1269.000	716.360	79.999	19.995	100.066	20.050	6.856	0.516
1269.500	716.587	80.001	19.995	100.067	20.049	6.900	0.532
1270.000	716.875	79.999	19.995	100.068	20.045	7.171	0.515
1270.500	717.095	79.997	19.994	100.069	20.052	6.715	0.511
1271.001	717.351	80.000	19.996	100.070	20.051	6.754	0.492
1271.501	717.608	80.000	19.996	100.070	20.049	6.881	0.494
1272.000	717.846	80.000	19.995	100.069	20.044	7.268	0.504
1272.500	718.084	79.999	19.995	100.068	20.045	7.202	0.486
1273.000	718.380	79.999	19.995	100.068	20.055	6.508	0.505
1273.500	718.628	80.002	19.996	100.067	20.048	6.986	0.539
1274.000	718.871	79.998	19.994	100.068	20.054	6.547	0.518
1274.500	719.131	80.000	19.995	100.072	20.053	6.612	0.497
1275.000	719.374	79.998	19.996	100.079	20.048	6.997	0.503
1275.500	719.645	80.001	19.995	100.084	20.051	6.766	0.509
1276.000	719.888	80.001	19.993	100.090	20.050	6.801	0.514
1276.500	720.203	80.000	19.994	100.095	20.046	7.089	0.536
1277.000	720.386	80.001	19.994	100.095	20.051	6.758	0.528
1277.500	720.651	79.999	19.994	100.088	20.051	6.764	0.473
1278.000	720.916	79.999	19.994	100.084	20.046	7.085	0.489
1278.500	721.160	79.999	19.994	100.081	20.048	6.956	0.520
1279.000	721.397	79.999	19.994	100.075	20.052	6.693	0.495
1279.501	721.643	79.999	19.994	100.072	20.051	6.770	0.482
1280.001	721.901	79.998	19.994	100.074	20.051	6.783	0.494
1280.500	722.164	80.000	19.996	100.078	20.049	6.891	0.513
1281.000	722.408	80.000	19.996	100.079	20.052	6.710	0.514
1281.500	722.678	79.999	19.994	100.085	20.048	6.949	0.511
1282.000	722.927	80.001	19.997	100.087	20.046	7.142	0.517
1282.501	723.158	79.999	19.995	100.085	20.050	6.846	0.499
1283.001	723.412	79.998	19.994	100.079	20.042	7.415	0.482
1283.500	723.653	79.999	19.995	100.075	20.050	6.826	0.490
1284.000	723.924	79.999	19.995	100.068	20.051	6.789	0.504
1284.500	724.173	80.000	19.996	100.063	20.048	6.942	0.516
1285.000	724.411	80.001	19.995	100.060	20.047	7.039	0.503
1285.501	724.659	79.999	19.994	100.060	20.050	6.850	0.486
1286.001	724.945	79.999	19.994	100.060	20.051	6.790	0.510
1286.500	725.179	80.000	19.996	100.060	20.052	6.673	0.528
1287.000	725.438	79.999	19.995	100.061	20.046	7.106	0.506
1287.500	725.672	80.000	19.994	100.062	20.043	7.295	0.492
1288.000	725.943	80.002	19.997	100.062	20.049	6.884	0.499
1288.500	726.196	79.999	19.995	100.062	20.048	6.998	0.514
1289.000	726.452	79.999	19.994	100.063	20.047	7.019	0.517
1289.500	726.633	80.002	19.995	100.063	20.052	6.675	0.473
1290.000	726.934	80.002	19.996	100.064	20.047	7.069	0.460
1290.500	727.189	80.001	19.996	100.064	20.045	7.151	0.519
1291.000	727.382	80.000	19.995	100.064	20.046	7.080	0.502
1291.500	727.657	80.001	19.994	100.063	20.052	6.665	0.458
1292.000	727.915	80.000	19.995	100.063	20.047	7.039	0.500
1292.500	728.140	80.003	19.995	100.064	20.050	6.828	0.508
1293.000	728.395	80.002	19.995	100.065	20.051	6.774	0.481
1293.500	728.643	80.000	19.995	100.067	20.047	7.060	0.492
1294.000	728.871	80.003	19.996	100.068	20.047	7.075	0.489
1294.500	729.153	80.001	19.996	100.068	20.045	7.194	0.493
1295.000	729.385	80.002	19.995	100.068	20.050	6.846	0.512
1295.500	729.644	80.001	19.995	100.066	20.049	6.884	0.502
1296.000	729.919	80.002	19.995	100.065	20.052	6.684	0.512
1296.500	730.123	80.001	19.996	100.064	20.047	7.050	0.507
1297.000	730.410	80.000	19.995	100.066	20.050	6.856	0.485
1297.500	730.606	80.001	19.995	100.066	20.046	7.121	0.487
1298.000	730.883	79.999	19.995	100.065	20.048	6.949	0.478
1298.500	731.122	80.002	19.996	100.067	20.049	6.884	0.494
1299.000	731.378	80.001	19.995	100.070	20.048	6.969	0.505
1299.500	731.662	80.002	19.995	100.071	20.047	7.041	0.518
1300.001	731.929	80.002	19.995	100.069	20.050	6.837	0.546
1300.501	732.135	79.999	19.995	100.069	20.052	6.695	0.512
1301.000	732.392	80.001	19.996	100.066	20.048	6.962	0.468
1301.500	732.634	80.000	19.995	100.063	20.050	6.865	0.482
1302.000	732.885	80.001	19.995	100.062	20.049	6.874	0.496
1302.500	733.134	79.999	19.994	100.063	20.050	6.803	0.496
1303.000	733.400	80.001	19.996	100.068	20.055	6.521	0.507
1303.500	733.676	80.001	19.996	100.070	20.052	6.701	0.528
1304.000	733.907	80.001	19.994	100.071	20.048	6.951	0.524
1304.500	734.180	79.999	19.993	100.070	20.044	7.261	0.505
1305.000	734.410	80.002	19.994	100.071	20.045	7.198	0.504
1305.500	734.659	80.001	19.994	100.067	20.046	7.131	0.491
1306.000	734.905	80.002	19.995	100.065	20.047	7.008	0.487
1306.500	735.175	80.001	19.996	100.065	20.044	7.264	0.505
1307.000	735.394	80.000	19.996	100.065	20.046	7.098	0.503
1307.500	735.652	80.001	19.994	100.063	20.040	7.539	0.483
1308.000	735.888	80.000	19.995	100.062	20.047	7.009	0.485
1308.500	736.163	80.000	19.994	100.062	20.048	6.957	0.502
1309.000	736.421	80.001	19.994	100.061	20.044	7.276	0.522
1309.500	736.661	80.001	19.996	100.062	20.044	7.244	0.515
1310.000	736.885	80.002	19.996	100.062	20.050	6.848	0.481
1310.501	737.163	80.000	19.995	100.063	20.044	7.260	0.483
1311.001	737.391	80.000	19.996	100.065	20.042	7.361	0.504
1311.500	737.644	80.001	19.995	100.066	20.046	7.101	0.494
1312.000	737.878	80.002	19.993	100.066	20.047	7.047	0.484
1312.500	738.164	80.003	19.995	100.067	20.045	7.174	0.503
1313.000	738.395	80.000	19.995	100.066	20.038	7.673	0.518
1313.500	738.662	79.999	19.995	100.065	20.047	7.060	0.507
1314.000	738.933	80.001	19.995	100.064	20.045	7.157	0.518
1314.500	739.180	80.000	19.995	100.065	20.046	7.084	0.528
1315.000	739.431	80.002	19.995	100.066	20.046	7.136	0.508
1315.500	739.664	80.002	19.995	100.069	20.050	6.830	0.491
1316.000	739.943	80.000	19.994	100.073	20.045	7.204	0.498
1316.500	740.192	80.002	19.996	100.078	20.041	7.445	0.520
1317.000	740.408	80.003	19.996	100.082	20.047	7.038	0.497
1317.500	740.666	80.001	19.995	100.084	20.042	7.398	0.470
1318.000	740.897	80.000	19.994	100.082	20.045	7.208	0.482
1318.500	741.166	80.000	19.994	100.077	20.045	7.194	0.494
1319.000	741.400	80.003	19.995	100.072	20.039	7.617	0.501
1319.500	741.651	80.001	19.994	100.067	20.047	7.045	0.494
1320.000	741.901	80.002	19.995	100.063	20.040	7.543	0.493
1320.500	742.168	80.001	19.995	100.062	20.040	7.489	0.509
1321.000	742.383	80.002	19.995	100.063	20.043	7.314	0.499
1321.500	742.648	80.002	19.995	100.068	20.043	7.297	0.481
1322.000	742.892	80.001	19.996	100.072	20.042	7.370	0.495
1322.500	743.154	80.001	19.996	100.076	20.048	6.989	0.508
1323.000	743.381	80.001	19.994	100.075	20.044	7.249	0.497
1323.500	743.658	80.001	19.995	100.076	20.040	7.501	0.496
