Sample ID:	C:\MCC\MCC Cal\Test\PETG_MCC_30K_min_210927_R2.txt
Sample Weight (mg):	4.59
Heating Rate (C/s):	0.5
Combustor Temp (C):	900
N2 Flow Rate (cc/min):	80
O2 Flow Rate (cc/min):	20
Calibration File:	C:\MCC\MCC Cal\Coeff1 JN10440_30_210304.txt.txt
T Correction Coefficients:	0	1.024463	0
Time Shift (s):	14
*
Time (s)	Temperature (C)	N2 flow rate (cc/min)	O2 flow rate (cc/min)	Flow Rate (cc/min)	Oxygen (%)	HRR (W/g)	Heating rate (C/s)
0.000	108.853	79.998	19.995	100.025	20.096	0.165	0.004
0.500	108.845	79.999	19.995	100.024	20.100	-0.096	-0.010
1.000	108.829	79.997	19.995	100.025	20.097	0.121	-0.020
1.500	108.882	79.998	19.996	100.024	20.099	-0.020	0.006
2.000	108.823	79.998	19.996	100.023	20.100	-0.093	0.015
2.500	108.852	79.999	19.995	100.023	20.101	-0.173	-0.018
3.000	108.818	79.999	19.995	100.023	20.096	0.145	-0.018
3.500	108.851	79.998	19.994	100.022	20.094	0.297	-0.003
4.000	108.860	79.999	19.997	100.024	20.096	0.180	0.021
4.500	108.842	79.999	19.995	100.025	20.096	0.178	0.017
5.000	108.806	79.998	19.996	100.026	20.095	0.223	-0.032
5.500	108.867	80.000	19.997	100.027	20.098	-0.006	-0.015
6.000	108.813	79.997	19.997	100.026	20.100	-0.115	0.016
6.500	108.851	79.999	19.994	100.025	20.100	-0.106	-0.004
7.000	108.840	79.999	19.995	100.025	20.097	0.124	0.006
7.500	108.853	79.996	19.996	100.025	20.099	-0.039	0.014
8.000	108.830	79.998	19.997	100.031	20.101	-0.195	-0.004
8.500	108.820	79.999	19.994	100.032	20.098	0.043	-0.021
9.000	108.807	79.997	19.996	100.031	20.099	-0.011	-0.028
9.500	108.848	79.997	19.996	100.031	20.098	0.007	0.002
10.000	108.817	79.997	19.997	100.030	20.098	0.011	0.019
10.500	108.848	79.998	19.995	100.025	20.096	0.139	0.006
11.000	108.799	79.998	19.994	100.026	20.095	0.204	-0.009
11.500	108.792	79.997	19.994	100.031	20.097	0.130	-0.037
12.000	108.798	79.998	19.996	100.037	20.098	0.011	-0.029
12.500	108.829	79.999	19.995	100.044	20.096	0.197	0.017
13.000	108.781	79.996	19.996	100.051	20.097	0.100	0.010
13.500	108.820	79.997	19.996	100.055	20.096	0.169	-0.012
14.000	108.833	79.997	19.995	100.058	20.098	0.054	0.022
14.500	108.815	79.998	19.995	100.060	20.097	0.111	0.023
15.000	108.835	79.997	19.997	100.061	20.091	0.476	-0.002
15.500	108.841	79.998	19.995	100.062	20.095	0.212	0.014
16.000	108.834	79.998	19.996	100.065	20.091	0.485	0.013
16.500	108.851	79.999	19.995	100.067	20.088	0.728	0.004
17.000	108.867	79.998	19.996	100.069	20.091	0.528	0.021
17.500	108.817	79.998	19.995	100.070	20.091	0.509	-0.000
18.000	108.830	79.999	19.996	100.069	20.089	0.671	-0.035
18.500	108.870	79.998	19.995	100.071	20.088	0.706	0.008
19.000	108.846	79.999	19.996	100.077	20.088	0.720	0.035
19.500	108.870	79.998	19.996	100.082	20.087	0.800	0.008
20.000	108.865	80.000	19.996	100.089	20.085	0.936	0.009
20.500	108.901	79.999	19.996	100.097	20.084	0.975	0.025
21.000	108.878	79.998	19.996	100.102	20.086	0.861	0.022
21.500	108.921	79.999	19.996	100.105	20.084	0.997	0.017
22.000	108.904	79.998	19.994	100.106	20.084	1.006	0.023
22.500	108.936	79.999	19.995	100.107	20.086	0.824	0.020
23.000	108.930	79.998	19.996	100.107	20.086	0.861	0.021
23.500	108.974	79.999	19.995	100.107	20.084	0.989	0.032
24.000	108.978	79.999	19.996	100.108	20.083	1.028	0.043
24.500	108.962	79.998	19.995	100.114	20.081	1.197	0.018
25.000	108.995	79.999	19.996	100.121	20.079	1.355	0.002
25.500	109.065	79.998	19.996	100.140	20.079	1.324	0.060
26.000	109.051	80.000	19.995	100.144	20.078	1.387	0.080
26.500	109.037	79.998	19.995	100.137	20.078	1.406	0.014
27.000	109.123	79.998	19.997	100.130	20.080	1.229	0.022
27.500	109.132	79.998	19.995	100.130	20.077	1.461	0.084
28.000	109.146	80.000	19.997	100.123	20.074	1.636	0.059
28.500	109.200	79.999	19.996	100.135	20.075	1.603	0.045
29.000	109.243	80.000	19.998	100.167	20.072	1.818	0.082
29.500	109.276	79.999	19.996	100.215	20.077	1.461	0.086
30.000	109.268	79.998	19.995	100.237	20.074	1.638	0.051
30.500	109.299	79.998	19.997	100.249	20.072	1.834	0.024
31.000	109.356	79.999	19.995	100.256	20.073	1.733	0.056
31.500	109.386	79.998	19.996	100.251	20.070	1.962	0.087
32.000	109.466	79.998	19.995	100.226	20.069	2.027	0.098
32.500	109.496	80.000	19.995	100.220	20.067	2.152	0.110
33.000	109.582	79.998	19.995	100.220	20.067	2.141	0.113
33.500	109.605	79.998	19.996	100.220	20.067	2.128	0.113
34.000	109.655	79.999	19.995	100.219	20.068	2.048	0.091
34.500	109.721	79.999	19.995	100.219	20.067	2.130	0.095
35.000	109.793	80.000	19.995	100.218	20.065	2.262	0.127
35.500	109.870	80.000	19.997	100.218	20.065	2.304	0.144
36.000	109.927	79.999	19.995	100.218	20.062	2.472	0.142
36.500	110.003	79.999	19.995	100.218	20.060	2.630	0.134
37.000	110.005	79.999	19.995	100.219	20.063	2.420	0.106
37.500	110.112	79.998	19.995	100.224	20.062	2.481	0.094
38.000	110.214	79.999	19.995	100.225	20.062	2.485	0.158
38.500	110.238	80.000	19.996	100.226	20.064	2.331	0.167
39.000	110.283	79.998	19.994	100.226	20.065	2.245	0.097
39.500	110.392	79.998	19.995	100.225	20.062	2.502	0.112
40.000	110.449	79.999	19.995	100.224	20.061	2.517	0.160
40.500	110.507	80.000	19.994	100.230	20.064	2.373	0.141
41.000	110.602	79.999	19.994	100.237	20.062	2.466	0.134
41.500	110.680	79.999	19.996	100.244	20.059	2.691	0.163
42.000	110.763	79.999	19.994	100.251	20.062	2.505	0.167
42.501	110.824	79.998	19.995	100.256	20.062	2.494	0.153
43.001	110.939	79.999	19.994	100.257	20.060	2.615	0.160
43.500	111.041	80.000	19.995	100.256	20.060	2.602	0.196
44.000	111.149	79.999	19.994	100.256	20.063	2.446	0.213
44.500	111.216	79.999	19.994	100.256	20.061	2.567	0.192
45.000	111.281	79.999	19.993	100.255	20.058	2.732	0.153
45.500	111.377	80.000	19.994	100.255	20.058	2.736	0.146
46.000	111.493	79.999	19.994	100.257	20.057	2.855	0.187
46.500	111.594	79.998	19.994	100.258	20.057	2.833	0.215
47.000	111.678	80.000	19.995	100.257	20.056	2.881	0.201
47.500	111.782	79.998	19.995	100.257	20.059	2.682	0.186
48.000	111.901	80.001	19.994	100.258	20.058	2.723	0.205
48.500	111.972	79.999	19.995	100.258	20.060	2.602	0.207
49.000	112.051	80.000	19.995	100.259	20.060	2.611	0.170
49.501	112.154	80.001	19.994	100.262	20.058	2.747	0.166
50.001	112.272	80.000	19.995	100.261	20.058	2.773	0.201
50.500	112.382	80.001	19.995	100.262	20.058	2.779	0.224
51.000	112.504	80.000	19.994	100.262	20.058	2.725	0.230
51.500	112.646	80.000	19.994	100.262	20.057	2.807	0.248
52.000	112.723	80.001	19.996	100.261	20.054	3.017	0.241
52.500	112.843	80.002	19.995	100.257	20.055	2.980	0.208
53.000	112.982	79.999	19.994	100.254	20.056	2.907	0.228
53.500	113.104	80.002	19.993	100.249	20.053	3.119	0.260
54.000	113.248	80.001	19.994	100.248	20.059	2.712	0.264
54.500	113.326	80.002	19.995	100.249	20.058	2.733	0.244
55.000	113.443	80.001	19.994	100.252	20.059	2.696	0.208
55.500	113.582	80.001	19.996	100.254	20.054	3.019	0.225
56.000	113.707	80.001	19.994	100.259	20.060	2.595	0.260
56.500	113.793	80.001	19.994	100.259	20.057	2.852	0.238
57.000	113.962	80.000	19.994	100.258	20.058	2.739	0.233
57.500	114.107	80.001	19.995	100.257	20.057	2.839	0.284
58.000	114.227	80.000	19.994	100.254	20.056	2.891	0.289
58.500	114.359	80.001	19.993	100.250	20.059	2.720	0.258
59.000	114.487	80.001	19.994	100.249	20.057	2.800	0.257
59.500	114.593	80.001	19.996	100.250	20.058	2.767	0.248
60.000	114.726	80.000	19.994	100.250	20.054	3.010	0.236
60.500	114.890	79.999	19.995	100.253	20.057	2.831	0.268
61.000	114.990	80.001	19.994	100.256	20.055	2.937	0.280
61.500	115.177	80.000	19.994	100.257	20.055	2.937	0.275
62.000	115.311	79.999	19.994	100.258	20.058	2.770	0.304
62.500	115.406	79.999	19.994	100.259	20.058	2.777	0.275
63.000	115.577	79.998	19.994	100.261	20.059	2.705	0.248
63.500	115.722	79.998	19.994	100.262	20.059	2.707	0.291
64.000	115.871	79.999	19.995	100.264	20.060	2.608	0.305
64.500	116.033	79.997	19.995	100.265	20.058	2.762	0.302
65.000	116.173	79.998	19.994	100.268	20.060	2.591	0.306
65.500	116.311	80.000	19.994	100.272	20.057	2.792	0.290
66.000	116.418	79.998	19.995	100.277	20.053	3.088	0.262
66.500	116.643	79.999	19.995	100.283	20.057	2.840	0.288
67.000	116.727	79.999	19.994	100.284	20.056	2.872	0.321
67.500	116.893	79.997	19.994	100.286	20.053	3.071	0.280
68.000	117.058	79.998	19.996	100.288	20.055	2.950	0.290
68.500	117.198	79.997	19.995	100.289	20.057	2.812	0.318
69.000	117.381	79.999	19.994	100.290	20.056	2.874	0.314
69.500	117.533	80.000	19.993	100.295	20.058	2.777	0.329
70.000	117.692	79.999	19.995	100.293	20.055	2.989	0.323
70.500	117.832	79.996	19.994	100.288	20.051	3.209	0.305
71.000	118.004	80.000	19.994	100.281	20.056	2.870	0.305
71.500	118.161	79.998	19.994	100.277	20.054	3.026	0.320
72.000	118.341	79.999	19.995	100.271	20.056	2.872	0.333
72.500	118.494	79.999	19.994	100.269	20.054	3.056	0.335
73.000	118.638	79.999	19.995	100.273	20.058	2.721	0.315
73.500	118.832	79.999	19.993	100.278	20.055	2.956	0.317
74.000	119.008	79.999	19.995	100.278	20.058	2.736	0.354
74.500	119.129	79.999	19.994	100.281	20.054	2.995	0.334
75.000	119.345	79.999	19.994	100.279	20.058	2.774	0.317
75.500	119.492	79.999	19.995	100.274	20.055	2.971	0.350
76.000	119.688	79.999	19.996	100.267	20.055	2.945	0.353
76.500	119.820	79.999	19.995	100.265	20.058	2.733	0.335
77.000	120.007	80.000	19.995	100.261	20.056	2.893	0.324
77.500	120.202	80.000	19.994	100.261	20.058	2.733	0.351
78.000	120.369	79.999	19.994	100.261	20.055	2.939	0.372
78.500	120.552	79.999	19.994	100.261	20.057	2.800	0.356
79.000	120.716	79.999	19.995	100.260	20.059	2.684	0.348
79.500	120.870	79.998	19.993	100.261	20.058	2.733	0.333
80.000	121.050	79.999	19.994	100.262	20.054	3.030	0.326
80.500	121.205	79.999	19.995	100.263	20.058	2.751	0.335
81.000	121.385	79.998	19.995	100.264	20.056	2.919	0.335
81.500	121.575	79.999	19.996	100.267	20.057	2.843	0.352
82.000	121.753	79.998	19.995	100.268	20.058	2.731	0.369
82.500	121.915	79.998	19.995	100.267	20.058	2.764	0.354
83.000	122.132	79.998	19.995	100.272	20.058	2.766	0.360
83.500	122.307	79.999	19.994	100.273	20.056	2.868	0.385
84.000	122.509	79.998	19.996	100.273	20.058	2.747	0.384
84.500	122.670	79.998	19.995	100.274	20.057	2.853	0.370
85.001	122.886	79.999	19.996	100.274	20.056	2.904	0.370
85.501	123.062	79.998	19.995	100.271	20.055	2.944	0.385
86.000	123.238	79.999	19.996	100.272	20.056	2.874	0.372
86.500	123.389	79.999	19.996	100.272	20.055	2.959	0.340
87.000	123.604	79.999	19.996	100.272	20.055	2.931	0.346
87.500	123.806	80.000	19.996	100.277	20.052	3.132	0.391
88.000	123.982	79.998	19.995	100.277	20.055	2.954	0.397
88.500	124.163	79.999	19.994	100.274	20.058	2.770	0.368
89.000	124.353	79.999	19.995	100.275	20.054	3.006	0.364
89.500	124.550	80.000	19.996	100.275	20.057	2.842	0.379
90.000	124.780	79.998	19.995	100.272	20.055	2.928	0.407
90.500	124.965	79.999	19.996	100.277	20.054	2.997	0.420
91.000	125.151	79.999	19.995	100.278	20.056	2.863	0.393
91.500	125.340	79.998	19.996	100.280	20.053	3.110	0.373
92.000	125.498	79.997	19.994	100.281	20.056	2.889	0.361
92.500	125.742	79.998	19.995	100.280	20.053	3.066	0.375
93.000	125.912	79.997	19.996	100.273	20.053	3.090	0.408
93.500	126.166	79.998	19.995	100.274	20.051	3.201	0.419
94.000	126.291	79.997	19.995	100.272	20.053	3.097	0.401
94.500	126.504	79.999	19.995	100.267	20.052	3.195	0.358
95.000	126.711	79.998	19.996	100.268	20.053	3.103	0.379
95.500	126.875	79.998	19.995	100.268	20.054	3.006	0.396
96.000	127.114	79.998	19.995	100.266	20.054	3.045	0.387
96.500	127.316	79.997	19.996	100.265	20.054	3.044	0.422
97.000	127.486	79.998	19.995	100.267	20.055	2.949	0.406
97.500	127.711	79.998	19.996	100.268	20.053	3.066	0.384
98.000	127.910	79.998	19.995	100.267	20.053	3.079	0.409
98.500	128.112	79.997	19.996	100.266	20.051	3.248	0.412
99.000	128.347	79.998	19.995	100.267	20.056	2.884	0.419
99.500	128.507	79.998	19.995	100.264	20.052	3.131	0.417
100.000	128.731	79.999	19.995	100.262	20.052	3.197	0.390
100.500	128.916	79.999	19.995	100.263	20.055	2.975	0.396
101.000	129.155	79.999	19.995	100.265	20.055	2.970	0.416
101.500	129.315	79.999	19.994	100.268	20.054	3.018	0.411
102.000	129.527	79.998	19.996	100.274	20.055	2.929	0.385
102.501	129.742	79.998	19.996	100.279	20.055	2.979	0.399
103.001	129.895	79.999	19.996	100.284	20.054	3.014	0.398
103.500	130.147	79.999	19.995	100.283	20.054	2.993	0.387
104.000	130.360	80.000	19.994	100.279	20.056	2.880	0.435
104.500	130.583	79.999	19.994	100.274	20.058	2.778	0.450
105.000	130.780	79.999	19.995	100.269	20.054	3.053	0.428
105.500	130.958	79.999	19.994	100.263	20.056	2.880	0.398
106.001	131.224	80.000	19.994	100.265	20.056	2.873	0.410
106.501	131.424	80.000	19.994	100.269	20.056	2.889	0.455
107.000	131.616	80.001	19.996	100.275	20.057	2.819	0.429
107.500	131.845	79.998	19.994	100.283	20.058	2.726	0.407
108.000	132.025	80.000	19.994	100.289	20.057	2.813	0.415
108.500	132.240	80.000	19.994	100.289	20.057	2.813	0.402
109.000	132.489	79.999	19.993	100.291	20.057	2.845	0.430
109.500	132.644	80.000	19.996	100.292	20.055	2.949	0.434
110.000	132.911	80.000	19.995	100.292	20.059	2.689	0.413
110.500	133.098	80.000	19.995	100.292	20.057	2.854	0.437
111.000	133.311	79.999	19.996	100.296	20.055	2.970	0.427
111.501	133.575	80.002	19.996	100.297	20.054	3.050	0.439
112.001	133.785	79.999	19.995	100.297	20.054	3.007	0.476
112.500	133.966	80.000	19.994	100.296	20.055	2.958	0.433
113.000	134.162	80.000	19.995	100.294	20.056	2.915	0.384
113.500	134.417	79.999	19.994	100.291	20.059	2.705	0.414
114.000	134.627	80.000	19.995	100.289	20.059	2.667	0.458
114.500	134.809	79.999	19.996	100.285	20.055	2.969	0.429
115.000	135.073	80.000	19.995	100.281	20.058	2.774	0.419
115.500	135.302	79.998	19.995	100.283	20.056	2.911	0.469
116.000	135.500	80.000	19.996	100.285	20.057	2.806	0.460
116.500	135.725	80.000	19.996	100.283	20.055	2.926	0.425
117.000	135.963	79.999	19.995	100.287	20.056	2.897	0.443
117.500	136.192	80.001	19.996	100.290	20.057	2.807	0.465
118.000	136.377	80.000	19.997	100.289	20.056	2.915	0.440
118.500	136.625	80.001	19.996	100.289	20.059	2.672	0.424
119.000	136.862	79.998	19.995	100.295	20.055	2.977	0.459
119.500	137.090	79.999	19.996	100.295	20.054	3.038	0.475
120.000	137.336	80.000	19.996	100.295	20.053	3.105	0.469
120.500	137.551	79.999	19.995	100.296	20.055	2.956	0.468
121.000	137.752	79.999	19.996	100.296	20.056	2.923	0.439
121.500	137.994	80.000	19.996	100.296	20.054	3.031	0.430
122.000	138.220	80.000	19.996	100.296	20.056	2.925	0.456
122.500	138.402	79.999	19.996	100.296	20.056	2.862	0.438
123.000	138.692	79.999	19.996	100.290	20.057	2.822	0.440
123.500	138.884	80.000	19.996	100.284	20.057	2.800	0.477
124.000	139.113	80.000	19.996	100.277	20.057	2.811	0.452
124.500	139.322	79.999	19.995	100.269	20.059	2.690	0.429
125.000	139.570	80.000	19.996	100.266	20.056	2.922	0.447
125.500	139.806	79.999	19.995	100.271	20.058	2.727	0.470
126.000	140.018	79.998	19.996	100.272	20.059	2.660	0.466
126.500	140.257	79.999	19.996	100.279	20.057	2.835	0.449
127.000	140.470	80.000	19.996	100.285	20.056	2.887	0.452
127.500	140.711	80.000	19.996	100.287	20.059	2.671	0.454
128.000	140.937	80.002	19.995	100.283	20.057	2.792	0.460
128.500	141.164	80.001	19.995	100.283	20.058	2.774	0.460
129.000	141.403	80.001	19.996	100.282	20.056	2.870	0.459
129.500	141.614	80.001	19.994	100.283	20.056	2.891	0.458
130.000	141.904	80.000	19.995	100.284	20.055	2.978	0.475
130.500	142.110	80.002	19.994	100.289	20.055	2.934	0.499
131.000	142.327	80.001	19.995	100.293	20.058	2.733	0.460
131.500	142.572	80.002	19.993	100.291	20.056	2.867	0.442
132.000	142.801	80.002	19.994	100.291	20.057	2.842	0.468
132.500	143.017	80.003	19.994	100.291	20.054	3.016	0.459
133.000	143.261	80.002	19.994	100.291	20.058	2.753	0.452
133.500	143.483	80.001	19.994	100.292	20.059	2.694	0.463
134.000	143.717	80.002	19.993	100.291	20.057	2.793	0.461
134.500	143.994	80.003	19.995	100.289	20.056	2.901	0.483
135.000	144.203	80.002	19.994	100.287	20.055	2.936	0.498
135.500	144.431	80.000	19.993	100.283	20.057	2.800	0.462
136.000	144.736	80.003	19.994	100.277	20.056	2.891	0.485
136.500	144.927	80.002	19.996	100.278	20.058	2.774	0.514
137.000	145.150	80.003	19.994	100.280	20.055	2.976	0.455
137.500	145.400	80.001	19.995	100.280	20.056	2.878	0.444
138.000	145.658	80.002	19.995	100.279	20.055	2.965	0.490
138.500	145.846	80.002	19.994	100.280	20.057	2.818	0.477
139.000	146.097	80.002	19.993	100.277	20.058	2.753	0.442
139.500	146.363	80.001	19.994	100.276	20.056	2.874	0.478
140.000	146.608	80.001	19.995	100.275	20.054	2.995	0.514
140.500	146.837	80.000	19.996	100.276	20.056	2.878	0.492
141.000	147.050	80.000	19.994	100.278	20.056	2.902	0.458
141.500	147.263	80.000	19.996	100.284	20.055	2.963	0.434
142.000	147.543	80.001	19.994	100.279	20.056	2.887	0.460
142.500	147.743	80.001	19.994	100.275	20.054	3.013	0.486
143.000	147.992	80.001	19.995	100.277	20.054	3.058	0.465
143.500	148.230	80.001	19.995	100.278	20.052	3.144	0.468
144.000	148.509	80.000	19.995	100.279	20.056	2.885	0.502
144.500	148.734	80.000	19.994	100.284	20.055	2.958	0.511
145.000	149.002	79.998	19.997	100.288	20.055	2.939	0.499
145.500	149.214	79.999	19.994	100.289	20.052	3.177	0.487
146.000	149.461	79.998	19.995	100.290	20.055	2.980	0.469
146.500	149.665	79.998	19.995	100.287	20.054	3.041	0.455
147.000	149.942	79.999	19.996	100.283	20.053	3.127	0.466
147.500	150.168	79.999	19.994	100.278	20.050	3.285	0.492
148.000	150.424	79.999	19.995	100.273	20.053	3.097	0.493
148.500	150.693	80.000	19.994	100.272	20.056	2.896	0.504
149.000	150.903	79.998	19.997	100.270	20.056	2.868	0.502
149.500	151.180	79.999	19.996	100.268	20.059	2.671	0.483
150.000	151.365	79.999	19.997	100.270	20.054	3.034	0.475
150.500	151.635	80.000	19.996	100.276	20.053	3.103	0.459
151.000	151.868	80.000	19.994	100.277	20.056	2.868	0.479
151.500	152.136	80.000	19.995	100.277	20.057	2.801	0.502
152.000	152.381	79.999	19.995	100.278	20.061	2.580	0.507
152.500	152.601	80.000	19.996	100.280	20.058	2.723	0.489
153.000	152.867	79.999	19.995	100.278	20.059	2.654	0.475
153.500	153.117	79.999	19.996	100.272	20.059	2.658	0.500
154.000	153.359	80.000	19.996	100.272	20.058	2.764	0.504
154.500	153.593	79.997	19.996	100.274	20.054	3.030	0.484
155.000	153.842	80.000	19.996	100.270	20.056	2.920	0.480
155.500	154.076	79.998	19.995	100.267	20.057	2.829	0.483
156.000	154.314	79.999	19.995	100.271	20.057	2.794	0.477
156.500	154.548	79.999	19.995	100.275	20.059	2.714	0.472
157.000	154.815	79.999	19.995	100.274	20.056	2.924	0.487
157.500	155.046	79.998	19.994	100.273	20.057	2.799	0.499
158.000	155.303	79.998	19.995	100.272	20.057	2.807	0.493
158.500	155.519	79.999	19.995	100.268	20.057	2.803	0.481
159.000	155.756	79.999	19.994	100.264	20.059	2.690	0.463
159.500	156.011	79.998	19.995	100.264	20.059	2.680	0.473
160.000	156.267	79.998	19.994	100.264	20.059	2.673	0.502
160.500	156.494	79.998	19.993	100.265	20.059	2.716	0.497
161.000	156.750	79.998	19.995	100.267	20.059	2.671	0.482
161.500	156.983	79.999	19.993	100.268	20.060	2.641	0.486
162.000	157.251	79.997	19.995	100.268	20.060	2.632	0.495
162.500	157.540	80.000	19.995	100.268	20.063	2.416	0.529
163.000	157.779	79.999	19.993	100.268	20.059	2.695	0.543
163.500	157.998	79.999	19.995	100.264	20.060	2.643	0.493
164.000	158.253	79.999	19.994	100.263	20.061	2.537	0.466
164.500	158.500	80.000	19.994	100.267	20.062	2.472	0.488
165.000	158.758	79.999	19.995	100.266	20.059	2.699	0.503
165.500	159.014	79.999	19.994	100.266	20.061	2.537	0.509
166.000	159.257	79.999	19.994	100.266	20.064	2.329	0.506
166.500	159.505	79.999	19.994	100.266	20.063	2.396	0.495
167.000	159.769	80.000	19.997	100.263	20.063	2.444	0.502
167.500	160.004	79.997	19.994	100.265	20.061	2.554	0.506
168.000	160.278	79.999	19.995	100.264	20.063	2.429	0.503
168.500	160.479	79.999	19.995	100.267	20.061	2.567	0.492
169.000	160.737	79.999	19.994	100.268	20.062	2.485	0.467
169.500	160.990	79.999	19.995	100.268	20.063	2.398	0.486
170.000	161.244	79.999	19.993	100.266	20.063	2.442	0.509
170.500	161.521	79.998	19.995	100.266	20.062	2.455	0.518
171.000	161.733	79.998	19.995	100.262	20.063	2.410	0.510
171.500	161.973	79.998	19.994	100.262	20.066	2.211	0.470
172.000	162.249	79.999	19.994	100.262	20.063	2.409	0.484
172.500	162.505	79.998	19.994	100.262	20.061	2.555	0.524
173.000	162.729	79.998	19.996	100.262	20.055	2.957	0.506
173.500	162.980	79.998	19.993	100.262	20.060	2.617	0.478
174.000	163.237	79.999	19.995	100.262	20.060	2.647	0.491
174.500	163.482	79.998	19.995	100.263	20.061	2.574	0.505
175.000	163.734	79.998	19.995	100.263	20.058	2.775	0.500
175.500	163.977	79.997	19.994	100.264	20.057	2.792	0.496
176.000	164.260	79.997	19.994	100.264	20.058	2.775	0.510
176.500	164.531	79.999	19.994	100.265	20.058	2.760	0.540
177.000	164.788	79.998	19.994	100.264	20.058	2.786	0.541
177.500	165.025	79.997	19.996	100.264	20.057	2.838	0.511
178.000	165.283	79.997	19.995	100.263	20.059	2.671	0.494
178.500	165.551	79.998	19.995	100.263	20.062	2.496	0.511
179.000	165.785	79.998	19.995	100.263	20.063	2.405	0.514
179.500	166.051	79.997	19.993	100.262	20.061	2.550	0.501
180.000	166.301	79.997	19.994	100.262	20.060	2.602	0.508
180.500	166.543	79.997	19.996	100.262	20.062	2.501	0.504
181.000	166.782	79.998	19.994	100.261	20.064	2.334	0.487
181.500	167.021	79.997	19.995	100.257	20.059	2.673	0.479
182.000	167.267	79.997	19.995	100.257	20.061	2.542	0.481
182.500	167.529	79.998	19.995	100.256	20.059	2.686	0.497
183.000	167.809	79.999	19.996	100.256	20.063	2.446	0.525
183.500	168.028	79.997	19.996	100.255	20.059	2.654	0.520
184.000	168.269	79.999	19.995	100.257	20.061	2.516	0.480
184.500	168.576	79.999	19.995	100.256	20.060	2.639	0.504
185.000	168.815	79.999	19.994	100.255	20.060	2.617	0.547
185.500	169.036	80.000	19.996	100.255	20.058	2.760	0.503
186.000	169.326	80.000	19.995	100.255	20.062	2.448	0.485
186.500	169.539	79.999	19.995	100.257	20.060	2.589	0.507
187.000	169.757	79.999	19.994	100.259	20.062	2.507	0.467
187.500	170.040	79.999	19.995	100.259	20.058	2.745	0.466
188.000	170.286	79.999	19.995	100.258	20.062	2.462	0.515
188.500	170.530	80.000	19.995	100.258	20.063	2.416	0.510
189.000	170.773	80.000	19.994	100.257	20.063	2.392	0.488
189.500	171.036	79.999	19.994	100.254	20.065	2.297	0.496
190.000	171.256	80.000	19.994	100.252	20.061	2.568	0.494
190.500	171.528	80.000	19.995	100.253	20.065	2.278	0.487
191.000	171.765	80.000	19.994	100.249	20.062	2.459	0.500
191.500	172.010	80.000	19.995	100.249	20.061	2.568	0.495
192.000	172.255	80.002	19.995	100.250	20.061	2.539	0.486
192.500	172.534	80.000	19.996	100.251	20.064	2.378	0.507
193.000	172.768	80.001	19.994	100.252	20.065	2.254	0.518
193.500	173.022	80.000	19.994	100.255	20.063	2.384	0.500
194.000	173.305	80.000	19.994	100.254	20.059	2.674	0.512
194.500	173.557	80.000	19.994	100.248	20.062	2.495	0.536
195.000	173.808	79.999	19.994	100.247	20.061	2.579	0.519
195.500	174.052	80.000	19.996	100.246	20.061	2.562	0.499
196.000	174.285	80.000	19.995	100.246	20.061	2.523	0.486
196.500	174.510	79.999	19.995	100.248	20.065	2.280	0.468
197.000	174.765	79.999	19.995	100.255	20.064	2.326	0.469
197.500	175.047	79.999	19.993	100.256	20.061	2.561	0.508
198.000	175.239	80.000	19.995	100.255	20.059	2.655	0.505
198.500	175.558	79.999	19.995	100.255	20.063	2.427	0.492
199.000	175.764	79.999	19.994	100.254	20.067	2.137	0.518
199.500	175.978	79.998	19.995	100.253	20.061	2.518	0.472
200.000	176.268	79.999	19.996	100.252	20.063	2.419	0.462
200.500	176.493	80.000	19.996	100.252	20.062	2.499	0.510
201.000	176.762	79.999	19.994	100.252	20.063	2.445	0.505
201.500	177.015	79.998	19.997	100.251	20.061	2.583	0.508
202.000	177.296	79.999	19.996	100.250	20.065	2.248	0.528
202.500	177.527	79.998	19.997	100.249	20.064	2.356	0.523
203.000	177.762	79.999	19.996	100.247	20.062	2.499	0.489
203.500	178.057	79.999	19.995	100.243	20.064	2.319	0.498
204.000	178.290	79.999	19.995	100.244	20.059	2.672	0.528
204.500	178.552	79.999	19.994	100.244	20.060	2.633	0.511
205.000	178.792	79.998	19.994	100.241	20.061	2.572	0.499
205.500	179.066	80.000	19.996	100.237	20.064	2.341	0.508
206.000	179.281	79.999	19.997	100.234	20.061	2.540	0.502
206.500	179.551	80.000	19.996	100.228	20.061	2.532	0.487
207.000	179.777	80.000	19.995	100.223	20.062	2.480	0.491
207.500	180.040	79.999	19.995	100.228	20.062	2.458	0.493
208.000	180.272	79.999	19.995	100.234	20.063	2.387	0.492
208.500	180.540	80.000	19.996	100.239	20.062	2.506	0.497
209.000	180.738	80.000	19.997	100.239	20.063	2.415	0.483
209.500	181.049	80.000	19.996	100.238	20.062	2.506	0.488
210.000	181.262	80.000	19.995	100.233	20.065	2.289	0.517
210.500	181.533	80.000	19.997	100.228	20.064	2.315	0.504
211.000	181.782	79.999	19.997	100.226	20.065	2.248	0.502
211.500	182.044	80.000	19.995	100.226	20.064	2.354	0.516
212.000	182.274	80.000	19.995	100.228	20.064	2.322	0.502
212.500	182.480	80.001	19.996	100.230	20.066	2.175	0.464
213.000	182.783	80.002	19.997	100.234	20.064	2.328	0.472
213.500	183.008	80.000	19.997	100.233	20.066	2.190	0.518
214.000	183.277	80.001	19.996	100.232	20.067	2.173	0.511
214.500	183.478	80.001	19.995	100.234	20.064	2.369	0.482
215.000	183.774	80.001	19.995	100.235	20.065	2.283	0.483
215.500	184.027	80.001	19.995	100.235	20.066	2.214	0.523
216.000	184.266	80.001	19.996	100.232	20.065	2.272	0.520
216.500	184.512	80.001	19.995	100.233	20.067	2.164	0.489
217.000	184.740	80.001	19.995	100.231	20.066	2.211	0.480
217.500	184.987	80.000	19.996	100.226	20.070	1.965	0.474
218.000	185.293	79.999	19.995	100.220	20.067	2.131	0.514
218.500	185.514	79.999	19.995	100.221	20.067	2.159	0.540
219.000	185.754	80.000	19.996	100.225	20.066	2.220	0.494
219.500	185.998	80.000	19.994	100.224	20.066	2.179	0.472
220.000	186.284	79.999	19.994	100.225	20.068	2.081	0.507
220.500	186.517	80.000	19.995	100.230	20.067	2.135	0.524
221.000	186.798	80.000	19.995	100.232	20.065	2.283	0.516
221.500	187.056	79.999	19.994	100.228	20.068	2.079	0.527
222.000	187.289	79.999	19.995	100.226	20.065	2.261	0.516
222.500	187.543	80.000	19.995	100.226	20.064	2.326	0.489
223.000	187.791	79.999	19.994	100.222	20.068	2.077	0.495
223.500	188.022	80.000	19.995	100.221	20.067	2.142	0.490
224.000	188.253	79.999	19.994	100.221	20.069	1.984	0.470
224.500	188.533	79.998	19.995	100.221	20.069	1.980	0.487
225.000	188.788	79.998	19.996	100.222	20.067	2.172	0.523
225.500	189.034	79.999	19.995	100.222	20.068	2.081	0.518
226.000	189.293	79.998	19.994	100.222	20.064	2.332	0.503
226.500	189.568	79.998	19.994	100.222	20.070	1.941	0.519
227.000	189.798	79.998	19.995	100.223	20.069	2.029	0.520
227.500	190.057	79.998	19.994	100.225	20.070	1.969	0.497
228.000	190.293	79.998	19.994	100.226	20.068	2.084	0.492
228.500	190.522	79.996	19.995	100.226	20.069	1.978	0.480
229.000	190.815	79.997	19.995	100.226	20.071	1.844	0.494
229.500	191.037	79.996	19.995	100.226	20.072	1.826	0.519
230.000	191.318	79.999	19.995	100.225	20.073	1.703	0.509
230.500	191.545	79.998	19.995	100.228	20.068	2.047	0.505
231.000	191.751	79.998	19.994	100.229	20.068	2.058	0.471
231.500	192.063	79.997	19.995	100.231	20.070	1.932	0.476
232.000	192.299	79.999	19.996	100.232	20.071	1.889	0.533
232.500	192.546	79.998	19.996	100.231	20.070	1.937	0.516
233.000	192.768	79.998	19.994	100.227	20.068	2.041	0.476
233.500	193.021	79.998	19.995	100.226	20.067	2.127	0.471
234.000	193.278	79.998	19.994	100.225	20.069	1.976	0.493
234.500	193.533	79.998	19.995	100.224	20.069	1.997	0.512
235.001	193.765	79.996	19.994	100.225	20.070	1.941	0.500
235.500	194.025	79.997	19.994	100.225	20.070	1.934	0.490
236.000	194.265	79.997	19.994	100.225	20.075	1.582	0.496
236.500	194.541	79.997	19.995	100.225	20.070	1.958	0.508
237.000	194.760	79.997	19.994	100.227	20.069	2.002	0.505
237.500	195.025	79.998	19.995	100.228	20.071	1.846	0.490
238.001	195.279	79.997	19.995	100.228	20.072	1.815	0.502
238.500	195.525	79.996	19.995	100.228	20.071	1.880	0.510
239.000	195.751	79.998	19.994	100.227	20.069	2.030	0.486
239.500	195.977	79.997	19.994	100.225	20.069	1.973	0.462
240.000	196.234	79.998	19.995	100.227	20.073	1.725	0.467
240.500	196.484	79.998	19.994	100.228	20.070	1.906	0.495
241.000	196.758	79.998	19.996	100.229	20.070	1.939	0.516
241.500	196.991	79.998	19.996	100.228	20.072	1.833	0.516
242.000	197.243	79.999	19.995	100.227	20.073	1.699	0.496
242.500	197.467	79.999	19.995	100.224	20.072	1.785	0.480
243.000	197.692	79.998	19.995	100.223	20.072	1.804	0.462
243.500	198.015	79.999	19.995	100.222	20.071	1.835	0.498
244.000	198.222	79.999	19.995	100.223	20.071	1.861	0.539
244.500	198.469	79.997	19.995	100.225	20.072	1.833	0.492
245.000	198.726	79.999	19.995	100.227	20.072	1.800	0.479
245.500	198.999	79.998	19.995	100.231	20.070	1.934	0.517
246.000	199.212	79.998	19.996	100.233	20.069	2.002	0.508
246.500	199.451	79.999	19.994	100.233	20.073	1.753	0.469
247.000	199.705	79.997	19.996	100.231	20.070	1.922	0.473
247.500	199.949	79.998	19.995	100.229	20.073	1.764	0.496
248.000	200.217	79.997	19.994	100.225	20.072	1.818	0.505
248.500	200.463	79.997	19.994	100.225	20.073	1.750	0.513
249.000	200.689	80.000	19.995	100.228	20.070	1.935	0.493
249.500	200.907	79.997	19.994	100.232	20.071	1.850	0.458
250.000	201.174	79.998	19.995	100.231	20.069	2.021	0.465
250.500	201.446	79.998	19.995	100.230	20.072	1.800	0.512
251.000	201.666	79.998	19.997	100.227	20.073	1.718	0.515
251.500	201.918	79.998	19.993	100.224	20.070	1.967	0.482
252.000	202.157	79.997	19.995	100.220	20.074	1.653	0.482
252.500	202.418	79.999	19.995	100.221	20.074	1.670	0.495
253.000	202.668	79.998	19.995	100.221	20.073	1.746	0.505
253.500	202.949	79.998	19.995	100.221	20.072	1.774	0.521
254.000	203.198	79.998	19.995	100.226	20.074	1.694	0.531
254.500	203.429	79.998	19.994	100.227	20.071	1.861	0.506
255.000	203.650	79.999	19.996	100.228	20.073	1.712	0.466
255.500	203.940	79.998	19.995	100.228	20.071	1.837	0.481
256.000	204.162	79.998	19.995	100.227	20.070	1.950	0.511
256.500	204.413	79.998	19.995	100.221	20.071	1.874	0.492
257.000	204.645	79.999	19.994	100.220	20.073	1.749	0.479
257.500	204.873	79.999	19.996	100.219	20.071	1.857	0.472
258.000	205.157	79.998	19.994	100.219	20.070	1.958	0.486
258.500	205.397	79.998	19.995	100.221	20.072	1.802	0.518
259.000	205.648	79.998	19.995	100.222	20.070	1.950	0.507
259.500	205.867	79.998	19.994	100.223	20.075	1.601	0.480
260.000	206.135	79.998	19.994	100.223	20.073	1.697	0.479
260.500	206.372	79.998	19.994	100.223	20.077	1.459	0.496
261.000	206.634	79.998	19.994	100.222	20.072	1.766	0.502
261.500	206.908	79.998	19.995	100.221	20.072	1.820	0.517
262.000	207.106	79.999	19.995	100.219	20.073	1.731	0.504
262.500	207.364	79.998	19.995	100.219	20.072	1.814	0.465
263.000	207.646	79.999	19.994	100.219	20.071	1.896	0.498
263.500	207.882	79.998	19.994	100.219	20.073	1.740	0.529
264.000	208.135	79.998	19.994	100.220	20.072	1.811	0.503
264.500	208.373	79.999	19.994	100.220	20.073	1.714	0.490
265.000	208.624	79.999	19.995	100.220	20.072	1.768	0.490
265.500	208.869	80.000	19.994	100.220	20.074	1.688	0.492
266.000	209.108	79.999	19.995	100.220	20.071	1.868	0.490
266.500	209.380	79.999	19.995	100.219	20.074	1.696	0.498
267.000	209.632	80.001	19.995	100.219	20.074	1.656	0.517
267.500	209.905	80.000	19.996	100.218	20.073	1.712	0.524
268.000	210.107	80.001	19.995	100.217	20.076	1.552	0.500
268.500	210.346	80.000	19.995	100.217	20.072	1.788	0.459
269.000	210.597	80.000	19.994	100.216	20.076	1.530	0.466
269.500	210.857	80.000	19.995	100.217	20.073	1.705	0.501
270.000	211.072	79.999	19.995	100.218	20.078	1.417	0.493
270.500	211.334	80.000	19.995	100.218	20.073	1.718	0.476
271.000	211.553	80.000	19.995	100.218	20.072	1.772	0.479
271.500	211.815	79.999	19.994	100.220	20.072	1.814	0.481
272.000	212.090	80.000	19.994	100.220	20.072	1.831	0.509
272.500	212.306	79.999	19.995	100.215	20.072	1.822	0.515
273.000	212.562	80.000	19.997	100.214	20.072	1.766	0.482
273.500	212.841	80.000	19.995	100.214	20.073	1.729	0.503
274.000	213.077	80.000	19.996	100.213	20.075	1.586	0.525
274.500	213.328	79.999	19.995	100.213	20.073	1.697	0.501
275.000	213.556	80.000	19.994	100.216	20.076	1.556	0.483
275.500	213.798	80.000	19.995	100.217	20.075	1.625	0.474
276.000	214.054	79.999	19.995	100.216	20.074	1.640	0.484
276.500	214.286	80.000	19.994	100.216	20.073	1.716	0.493
277.000	214.540	80.000	19.996	100.216	20.074	1.649	0.487
277.500	214.777	79.999	19.995	100.216	20.076	1.510	0.488
278.000	215.029	79.999	19.995	100.214	20.076	1.560	0.490
278.500	215.246	79.999	19.996	100.215	20.076	1.510	0.479
279.000	215.520	79.999	19.995	100.215	20.075	1.610	0.480
279.500	215.768	79.998	19.996	100.215	20.074	1.688	0.507
280.000	215.985	79.999	19.997	100.217	20.073	1.721	0.494
280.500	216.256	79.999	19.996	100.218	20.077	1.465	0.477
281.000	216.508	79.998	19.995	100.214	20.076	1.498	0.505
281.500	216.736	79.998	19.995	100.212	20.074	1.692	0.501
282.000	217.000	79.999	19.996	100.212	20.078	1.417	0.486
282.500	217.262	79.998	19.994	100.212	20.076	1.558	0.509
283.000	217.474	79.999	19.996	100.212	20.077	1.480	0.500
283.500	217.744	79.998	19.993	100.217	20.077	1.485	0.478
284.000	218.007	79.999	19.995	100.219	20.077	1.478	0.508
284.500	218.199	79.999	19.994	100.219	20.077	1.467	0.494
285.000	218.455	79.999	19.995	100.219	20.077	1.435	0.451
285.500	218.699	79.998	19.996	100.220	20.076	1.543	0.474
286.000	218.953	79.998	19.995	100.219	20.076	1.517	0.499
286.500	219.177	79.998	19.996	100.218	20.077	1.439	0.488
287.000	219.453	79.999	19.994	100.218	20.076	1.498	0.489
287.500	219.699	80.000	19.995	100.217	20.078	1.411	0.512
288.000	219.952	79.998	19.995	100.217	20.076	1.538	0.510
288.500	220.179	79.999	19.996	100.217	20.077	1.485	0.489
289.000	220.436	80.001	19.995	100.219	20.078	1.413	0.482
289.500	220.688	79.999	19.995	100.219	20.077	1.465	0.497
290.000	220.921	79.999	19.996	100.217	20.077	1.439	0.497
290.500	221.152	79.999	19.995	100.210	20.079	1.314	0.474
291.000	221.418	80.000	19.995	100.206	20.076	1.539	0.480
291.500	221.671	80.000	19.995	100.206	20.078	1.400	0.508
292.000	221.894	79.999	19.994	100.205	20.078	1.405	0.498
292.500	222.152	80.000	19.996	100.209	20.077	1.435	0.479
293.000	222.405	80.001	19.995	100.216	20.079	1.339	0.496
293.500	222.608	80.000	19.994	100.218	20.077	1.489	0.484
294.000	222.878	80.001	19.994	100.217	20.079	1.292	0.465
294.500	223.149	80.000	19.995	100.217	20.078	1.370	0.507
295.000	223.355	80.000	19.995	100.214	20.077	1.471	0.508
295.500	223.620	80.000	19.995	100.210	20.078	1.396	0.474
296.000	223.864	80.002	19.996	100.210	20.075	1.595	0.490
296.500	224.125	80.002	19.995	100.211	20.076	1.513	0.507
297.000	224.335	80.000	19.995	100.212	20.074	1.660	0.488
297.500	224.593	80.000	19.996	100.214	20.079	1.331	0.470
298.000	224.828	80.000	19.996	100.217	20.076	1.519	0.481
298.500	225.119	80.001	19.995	100.219	20.079	1.292	0.509
299.000	225.367	80.001	19.996	100.219	20.077	1.437	0.533
299.500	225.584	80.000	19.995	100.217	20.077	1.450	0.502
300.000	225.852	79.999	19.995	100.216	20.078	1.391	0.475
300.500	226.096	79.999	19.995	100.216	20.075	1.591	0.498
301.000	226.303	79.999	19.995	100.213	20.078	1.383	0.482
301.500	226.613	79.999	19.995	100.212	20.075	1.627	0.484
302.000	226.835	79.999	19.995	100.214	20.078	1.381	0.524
302.500	227.100	79.999	19.996	100.215	20.078	1.392	0.510
303.000	227.351	80.000	19.996	100.212	20.078	1.418	0.502
303.500	227.587	79.999	19.996	100.215	20.078	1.381	0.502
304.000	227.807	79.999	19.996	100.215	20.080	1.286	0.471
304.500	228.067	79.997	19.995	100.214	20.077	1.426	0.468
305.000	228.374	79.997	19.996	100.214	20.080	1.260	0.523
305.500	228.616	79.996	19.996	100.215	20.076	1.554	0.558
306.000	228.824	79.997	19.996	100.213	20.078	1.372	0.500
306.500	229.120	79.997	19.996	100.214	20.079	1.296	0.477
307.000	229.374	79.997	19.996	100.215	20.077	1.472	0.527
307.500	229.613	79.999	19.996	100.217	20.082	1.125	0.522
308.000	229.874	79.998	19.995	100.218	20.080	1.238	0.497
308.500	230.079	79.997	19.996	100.220	20.082	1.134	0.483
309.000	230.350	79.998	19.996	100.221	20.079	1.329	0.471
309.500	230.587	79.997	19.995	100.221	20.082	1.147	0.492
310.000	230.866	79.997	19.997	100.222	20.083	1.021	0.512
310.500	231.051	79.997	19.997	100.215	20.085	0.902	0.490
311.000	231.330	79.998	19.995	100.213	20.081	1.179	0.464
311.500	231.594	79.998	19.995	100.209	20.080	1.251	0.504
312.000	231.812	79.998	19.995	100.205	20.077	1.428	0.513
312.500	232.083	79.997	19.996	100.204	20.081	1.167	0.485
313.000	232.323	79.999	19.994	100.210	20.083	1.041	0.500
313.500	232.599	79.998	19.996	100.210	20.081	1.160	0.514
314.000	232.828	79.998	19.996	100.208	20.082	1.097	0.511
314.500	233.055	79.998	19.996	100.207	20.079	1.327	0.481
315.000	233.305	79.997	19.995	100.202	20.082	1.151	0.467
315.500	233.537	79.999	19.995	100.198	20.081	1.217	0.479
316.000	233.812	79.999	19.995	100.192	20.079	1.303	0.494
316.500	234.094	79.998	19.997	100.193	20.082	1.093	0.532
317.000	234.333	79.998	19.996	100.197	20.079	1.299	0.539
317.500	234.584	79.999	19.996	100.200	20.079	1.296	0.506
318.000	234.830	79.998	19.997	100.199	20.079	1.312	0.494
318.500	235.083	79.998	19.995	100.206	20.081	1.156	0.498
319.000	235.325	80.000	19.996	100.207	20.081	1.166	0.497
319.500	235.578	79.999	19.994	100.204	20.080	1.223	0.495
320.000	235.799	79.999	19.995	100.205	20.081	1.156	0.485
320.500	236.068	79.999	19.995	100.207	20.079	1.309	0.482
321.000	236.337	79.999	19.995	100.202	20.080	1.234	0.514
321.500	236.571	79.999	19.995	100.200	20.081	1.156	0.520
322.000	236.841	79.999	19.995	100.201	20.081	1.160	0.504
322.500	237.070	80.000	19.996	100.198	20.082	1.106	0.502
323.000	237.362	80.000	19.994	100.194	20.084	0.972	0.510
323.500	237.574	80.000	19.995	100.195	20.081	1.164	0.512
324.000	237.847	80.000	19.995	100.192	20.082	1.125	0.494
324.500	238.093	79.999	19.996	100.189	20.083	1.024	0.502
325.000	238.341	79.998	19.995	100.190	20.081	1.177	0.507
325.500	238.585	79.999	19.995	100.193	20.082	1.141	0.493
326.000	238.856	80.000	19.996	100.194	20.084	0.994	0.503
326.500	239.092	79.998	19.995	100.194	20.080	1.258	0.511
327.000	239.321	79.999	19.995	100.195	20.079	1.316	0.486
327.500	239.572	79.999	19.996	100.198	20.083	1.054	0.473
328.000	239.835	79.999	19.996	100.199	20.080	1.221	0.497
328.500	240.037	79.999	19.995	100.204	20.079	1.299	0.490
329.000	240.312	80.000	19.994	100.209	20.082	1.099	0.471
329.500	240.562	79.999	19.994	100.212	20.082	1.121	0.501
330.000	240.807	79.999	19.995	100.206	20.082	1.128	0.510
330.500	241.042	79.999	19.996	100.202	20.083	1.017	0.487
331.000	241.335	79.999	19.995	100.196	20.083	1.054	0.504
331.500	241.564	79.999	19.996	100.192	20.081	1.164	0.525
332.000	241.824	79.999	19.994	100.191	20.083	1.050	0.506
332.500	242.034	79.999	19.996	100.198	20.083	1.037	0.480
333.000	242.307	79.999	19.996	100.203	20.085	0.920	0.477
333.500	242.559	79.999	19.995	100.203	20.084	0.981	0.504
334.000	242.818	79.999	19.994	100.202	20.085	0.939	0.518
334.500	243.063	79.998	19.996	100.201	20.082	1.143	0.508
335.000	243.333	79.998	19.996	100.199	20.082	1.110	0.509
335.500	243.580	79.998	19.995	100.196	20.084	0.983	0.515
336.000	243.819	79.997	19.994	100.196	20.085	0.935	0.501
336.500	244.050	79.997	19.996	100.195	20.087	0.788	0.478
337.000	244.351	79.997	19.996	100.195	20.085	0.942	0.501
337.500	244.553	79.997	19.995	100.194	20.084	0.961	0.518
338.000	244.809	79.998	19.996	100.197	20.084	0.953	0.481
338.500	245.068	79.997	19.995	100.199	20.084	0.989	0.486
339.000	245.316	79.998	19.996	100.201	20.087	0.749	0.511
339.500	245.550	79.998	19.994	100.200	20.082	1.143	0.494
340.000	245.794	79.997	19.995	100.198	20.084	1.011	0.480
340.500	246.064	79.997	19.996	100.201	20.083	1.022	0.497
341.000	246.313	79.998	19.995	100.201	20.084	0.985	0.517
341.500	246.566	79.999	19.994	100.198	20.083	1.020	0.510
342.000	246.812	79.998	19.994	100.198	20.080	1.279	0.500
342.500	247.066	79.998	19.994	100.196	20.083	1.026	0.500
343.000	247.294	79.997	19.995	100.194	20.082	1.104	0.491
343.500	247.532	79.998	19.995	100.193	20.083	1.082	0.474
344.000	247.775	79.999	19.995	100.197	20.083	1.035	0.473
344.500	248.041	79.998	19.994	100.195	20.080	1.234	0.495
345.000	248.321	79.999	19.994	100.195	20.083	1.028	0.527
345.500	248.552	79.998	19.993	100.192	20.079	1.307	0.528
346.000	248.772	79.998	19.994	100.189	20.080	1.238	0.481
346.500	249.066	80.000	19.994	100.186	20.079	1.288	0.483
347.000	249.327	80.000	19.996	100.186	20.084	0.966	0.534
347.500	249.559	79.998	19.994	100.185	20.080	1.264	0.524
348.000	249.836	79.999	19.994	100.183	20.082	1.102	0.501
348.500	250.080	80.000	19.994	100.184	20.081	1.186	0.515
349.000	250.320	79.999	19.993	100.190	20.083	1.071	0.502
349.500	250.573	79.999	19.994	100.197	20.084	0.976	0.489
350.000	250.833	79.999	19.994	100.201	20.083	1.076	0.504
350.500	251.111	80.000	19.994	100.201	20.085	0.924	0.526
351.000	251.339	80.001	19.995	100.200	20.079	1.307	0.522
351.500	251.618	80.000	19.993	100.195	20.084	0.998	0.506
352.000	251.826	80.000	19.995	100.189	20.085	0.931	0.497
352.500	252.095	80.000	19.995	100.185	20.082	1.102	0.482
353.000	252.347	80.001	19.995	100.187	20.084	0.952	0.499
353.500	252.567	80.001	19.995	100.193	20.086	0.833	0.497
354.000	252.788	79.999	19.995	100.196	20.085	0.942	0.457
354.500	253.043	79.999	19.995	100.197	20.082	1.085	0.458
355.000	253.301	80.001	19.994	100.197	20.085	0.914	0.494
355.500	253.550	80.000	19.995	100.196	20.085	0.907	0.510
356.000	253.786	80.001	19.995	100.189	20.085	0.926	0.496
356.500	254.017	80.000	19.995	100.187	20.087	0.756	0.476
357.000	254.276	79.999	19.994	100.187	20.087	0.747	0.478
357.500	254.528	80.001	19.994	100.186	20.085	0.918	0.501
358.000	254.766	79.998	19.995	100.186	20.084	0.983	0.501
358.500	255.028	79.999	19.994	100.186	20.086	0.848	0.495
359.000	255.284	80.000	19.995	100.185	20.085	0.896	0.509
359.500	255.515	79.999	19.994	100.183	20.085	0.915	0.503
360.000	255.752	80.000	19.995	100.183	20.085	0.901	0.478
360.500	255.994	80.000	19.995	100.183	20.086	0.829	0.474
361.000	256.238	79.998	19.994	100.182	20.086	0.872	0.483
361.500	256.447	79.998	19.994	100.183	20.086	0.827	0.469
362.000	256.722	79.999	19.996	100.183	20.087	0.786	0.469
362.500	256.970	79.999	19.995	100.184	20.084	0.991	0.503
363.000	257.200	79.998	19.994	100.184	20.085	0.907	0.500
363.500	257.452	79.999	19.995	100.184	20.087	0.795	0.480
364.000	257.698	80.000	19.994	100.184	20.085	0.935	0.490
364.500	257.912	79.998	19.995	100.183	20.084	0.961	0.479
365.000	258.162	79.998	19.994	100.182	20.084	0.950	0.462
365.500	258.418	79.999	19.995	100.182	20.084	0.998	0.485
366.000	258.659	79.999	19.994	100.183	20.088	0.688	0.501
366.500	258.891	80.000	19.995	100.184	20.085	0.918	0.485
367.000	259.134	79.999	19.996	100.184	20.084	0.952	0.474
367.500	259.404	79.998	19.995	100.185	20.084	0.966	0.494
368.000	259.631	79.998	19.994	100.185	20.084	1.013	0.505
368.500	259.899	80.000	19.994	100.185	20.084	0.994	0.496
369.000	260.105	79.999	19.994	100.186	20.085	0.903	0.484
369.500	260.355	79.998	19.996	100.193	20.085	0.903	0.465
370.000	260.565	79.999	19.995	100.195	20.087	0.764	0.458
370.500	260.838	80.000	19.995	100.195	20.088	0.727	0.472
371.000	261.077	80.000	19.994	100.194	20.085	0.890	0.497
371.500	261.318	79.999	19.996	100.193	20.086	0.840	0.496
372.000	261.569	80.000	19.994	100.187	20.083	1.018	0.486
372.500	261.754	80.001	19.996	100.184	20.083	1.037	0.464
373.000	261.992	80.000	19.994	100.184	20.082	1.128	0.430
373.500	262.263	80.000	19.995	100.185	20.085	0.937	0.466
374.000	262.503	80.000	19.995	100.185	20.087	0.764	0.510
374.500	262.745	80.002	19.995	100.185	20.083	1.031	0.496
375.000	262.959	80.001	19.996	100.185	20.084	0.950	0.469
375.500	263.210	80.000	19.994	100.184	20.086	0.879	0.460
376.000	263.451	80.000	19.993	100.183	20.084	1.009	0.479
376.500	263.676	80.001	19.995	100.184	20.084	0.952	0.479
377.000	263.942	80.001	19.996	100.183	20.087	0.764	0.479
377.500	264.172	80.001	19.995	100.183	20.087	0.799	0.493
378.000	264.422	80.002	19.994	100.184	20.084	1.013	0.488
378.500	264.669	80.001	19.995	100.183	20.085	0.935	0.488
379.000	264.913	80.001	19.995	100.183	20.087	0.794	0.494
379.500	265.155	80.002	19.995	100.182	20.086	0.827	0.489
380.000	265.394	80.002	19.995	100.182	20.082	1.091	0.484
380.500	265.648	80.000	19.995	100.183	20.088	0.706	0.487
381.000	265.851	80.000	19.994	100.183	20.087	0.795	0.475
381.500	266.081	80.001	19.995	100.183	20.090	0.604	0.445
382.000	266.330	80.000	19.996	100.183	20.088	0.716	0.456
382.500	266.563	80.000	19.995	100.181	20.087	0.771	0.481
383.000	266.809	80.000	19.995	100.178	20.086	0.857	0.481
383.500	267.067	80.000	19.995	100.178	20.086	0.875	0.491
384.000	267.305	80.001	19.995	100.178	20.085	0.920	0.500
384.500	267.547	80.000	19.996	100.178	20.085	0.924	0.488
385.000	267.781	79.998	19.994	100.181	20.087	0.799	0.478
385.500	268.023	79.998	19.995	100.181	20.083	1.044	0.476
386.000	268.239	79.998	19.996	100.181	20.083	1.059	0.467
386.500	268.462	79.998	19.995	100.180	20.085	0.946	0.449
387.000	268.754	79.997	19.994	100.180	20.085	0.913	0.477
387.500	268.961	79.998	19.996	100.178	20.084	1.009	0.507
388.000	269.181	79.998	19.996	100.179	20.083	1.033	0.463
388.500	269.463	79.997	19.995	100.179	20.086	0.859	0.465
389.000	269.718	79.996	19.994	100.180	20.085	0.935	0.519
389.500	269.933	79.997	19.996	100.180	20.085	0.903	0.503
390.000	270.155	79.996	19.995	100.180	20.085	0.901	0.454
390.500	270.416	79.998	19.996	100.181	20.084	0.989	0.460
391.000	270.662	79.998	19.996	100.181	20.088	0.706	0.494
391.500	270.920	79.998	19.997	100.181	20.085	0.909	0.505
392.000	271.151	79.998	19.995	100.180	20.089	0.652	0.497
392.500	271.383	79.998	19.997	100.180	20.085	0.931	0.476
393.000	271.688	79.997	19.997	100.179	20.086	0.870	0.500
393.500	271.933	79.997	19.996	100.178	20.087	0.795	0.544
394.000	272.161	79.997	19.996	100.178	20.086	0.847	0.511
394.500	272.417	79.996	19.995	100.178	20.088	0.699	0.479
395.000	272.669	79.997	19.995	100.179	20.086	0.821	0.497
395.500	272.893	79.997	19.996	100.179	20.087	0.805	0.492
396.000	273.163	79.998	19.996	100.180	20.088	0.721	0.485
396.500	273.407	79.999	19.996	100.180	20.085	0.885	0.503
397.000	273.603	79.998	19.996	100.180	20.087	0.801	0.477
397.500	273.871	79.998	19.996	100.181	20.088	0.712	0.452
398.000	274.116	79.998	19.994	100.180	20.087	0.781	0.488
398.500	274.343	79.997	19.997	100.180	20.084	0.965	0.492
399.000	274.567	79.998	19.997	100.180	20.085	0.944	0.462
399.500	274.852	79.998	19.995	100.178	20.089	0.617	0.481
400.000	275.065	79.998	19.995	100.177	20.089	0.624	0.504
400.500	275.320	79.998	19.997	100.178	20.087	0.777	0.483
401.000	275.587	79.998	19.995	100.178	20.086	0.829	0.494
401.500	275.773	79.997	19.994	100.178	20.090	0.550	0.488
402.000	276.027	79.999	19.996	100.179	20.087	0.775	0.447
402.500	276.315	79.998	19.996	100.179	20.086	0.842	0.491
403.000	276.510	79.997	19.995	100.180	20.090	0.563	0.512
403.500	276.768	79.997	19.995	100.181	20.088	0.740	0.468
404.000	277.039	79.998	19.996	100.181	20.085	0.909	0.491
404.500	277.273	79.999	19.996	100.181	20.083	1.054	0.517
405.000	277.511	79.998	19.995	100.181	20.087	0.747	0.488
405.500	277.764	80.000	19.995	100.180	20.089	0.675	0.482
406.000	277.999	79.998	19.994	100.180	20.088	0.734	0.490
406.500	278.258	79.999	19.995	100.180	20.088	0.734	0.491
407.000	278.494	79.999	19.995	100.181	20.088	0.721	0.494
407.500	278.741	79.998	19.993	100.181	20.088	0.710	0.489
408.000	279.014	80.000	19.995	100.181	20.088	0.740	0.501
408.500	279.237	79.999	19.995	100.180	20.089	0.643	0.508
409.000	279.481	79.998	19.995	100.181	20.092	0.426	0.482
409.500	279.727	79.999	19.996	100.181	20.092	0.429	0.478
410.000	280.010	79.999	19.996	100.181	20.090	0.545	0.510
410.500	280.199	79.998	19.995	100.181	20.091	0.535	0.501
411.000	280.439	79.998	19.994	100.182	20.089	0.623	0.451
411.500	280.693	79.999	19.995	100.182	20.090	0.598	0.461
412.000	280.934	80.000	19.995	100.183	20.095	0.219	0.494
412.500	281.211	79.997	19.995	100.184	20.089	0.665	0.506
413.000	281.425	79.998	19.994	100.183	20.094	0.281	0.504
413.500	281.664	79.998	19.994	100.183	20.091	0.481	0.472
414.000	281.902	79.999	19.995	100.184	20.094	0.305	0.465
414.500	282.182	79.998	19.994	100.186	20.092	0.437	0.498
415.000	282.373	79.999	19.994	100.186	20.091	0.524	0.495
415.500	282.633	79.999	19.995	100.187	20.093	0.364	0.461
416.000	282.871	79.998	19.995	100.187	20.089	0.636	0.474
416.500	283.115	79.998	19.994	100.187	20.091	0.517	0.490
417.000	283.375	79.998	19.995	100.185	20.091	0.479	0.492
417.500	283.607	79.999	19.995	100.185	20.089	0.619	0.498
418.000	283.873	79.998	19.994	100.185	20.088	0.676	0.495
418.500	284.098	80.000	19.996	100.185	20.092	0.424	0.495
419.000	284.344	79.997	19.995	100.185	20.092	0.444	0.481
419.500	284.632	79.997	19.996	100.186	20.091	0.535	0.502
420.000	284.894	79.998	19.994	100.185	20.089	0.662	0.542
420.500	285.077	79.998	19.995	100.185	20.087	0.790	0.498
421.000	285.357	79.998	19.995	100.186	20.088	0.710	0.454
421.500	285.623	79.997	19.994	100.185	20.089	0.649	0.504
422.000	285.901	79.998	19.995	100.185	20.089	0.619	0.544
422.500	286.118	79.997	19.994	100.185	20.091	0.504	0.519
423.000	286.400	79.998	19.995	100.185	20.092	0.461	0.497
423.500	286.631	79.998	19.994	100.184	20.086	0.831	0.506
424.000	286.873	79.997	19.994	100.183	20.089	0.667	0.493
424.500	287.129	79.998	19.994	100.183	20.090	0.550	0.486
425.000	287.411	80.000	19.995	100.184	20.088	0.706	0.518
425.500	287.619	79.998	19.995	100.184	20.089	0.650	0.514
426.000	287.891	79.998	19.996	100.185	20.088	0.686	0.485
426.500	288.133	79.999	19.995	100.185	20.088	0.706	0.497
427.000	288.387	79.999	19.994	100.185	20.090	0.598	0.505
427.500	288.660	79.998	19.994	100.183	20.088	0.723	0.512
428.000	288.895	79.999	19.994	100.183	20.084	0.957	0.518
428.500	289.098	80.000	19.995	100.182	20.085	0.900	0.472
429.000	289.374	79.999	19.993	100.182	20.087	0.790	0.458
429.500	289.652	79.997	19.994	100.181	20.089	0.669	0.517
430.000	289.912	79.998	19.994	100.182	20.086	0.874	0.546
430.500	290.144	79.999	19.995	100.183	20.087	0.773	0.515
431.000	290.356	79.999	19.995	100.184	20.087	0.766	0.468
431.500	290.659	80.000	19.994	100.184	20.083	1.035	0.480
432.000	290.880	80.000	19.994	100.184	20.088	0.740	0.520
432.500	291.141	79.999	19.996	100.184	20.088	0.730	0.503
433.000	291.403	80.000	19.995	100.183	20.086	0.842	0.502
433.500	291.669	80.000	19.993	100.183	20.084	0.974	0.525
434.000	291.893	80.000	19.994	100.183	20.086	0.849	0.509
434.500	292.174	80.000	19.994	100.183	20.088	0.691	0.498
435.000	292.414	79.998	19.994	100.183	20.088	0.691	0.513
435.500	292.674	79.999	19.993	100.184	20.087	0.795	0.510
436.000	292.886	80.000	19.994	100.183	20.089	0.617	0.486
436.500	293.186	79.999	19.995	100.184	20.089	0.662	0.492
437.000	293.440	80.001	19.994	100.184	20.088	0.736	0.533
437.500	293.657	80.000	19.994	100.185	20.087	0.756	0.512
438.000	293.947	79.999	19.995	100.185	20.085	0.939	0.489
438.500	294.174	80.000	19.995	100.185	20.085	0.926	0.512
439.000	294.393	79.999	19.993	100.184	20.087	0.745	0.482
439.500	294.660	79.999	19.993	100.184	20.085	0.903	0.466
440.000	294.912	80.000	19.995	100.183	20.089	0.617	0.503
440.500	295.170	79.999	19.995	100.183	20.088	0.734	0.515
441.000	295.401	80.000	19.994	100.183	20.090	0.561	0.499
441.500	295.691	79.999	19.995	100.184	20.087	0.801	0.505
442.000	295.896	79.998	19.993	100.184	20.089	0.656	0.508
442.500	296.189	79.999	19.995	100.183	20.089	0.662	0.496
443.000	296.382	79.999	19.995	100.183	20.088	0.725	0.492
443.500	296.694	80.000	19.994	100.183	20.088	0.717	0.496
444.000	296.934	80.000	19.995	100.181	20.089	0.628	0.528
444.500	297.181	79.999	19.994	100.181	20.085	0.940	0.520
445.000	297.433	80.000	19.995	100.184	20.089	0.626	0.494
445.500	297.702	79.999	19.995	100.189	20.088	0.684	0.510
446.000	297.934	80.000	19.995	100.189	20.093	0.346	0.511
446.500	298.215	79.999	19.995	100.189	20.087	0.782	0.506
447.000	298.475	79.999	19.994	100.188	20.087	0.781	0.527
447.500	298.719	79.999	19.995	100.186	20.089	0.656	0.523
448.000	298.962	79.998	19.993	100.180	20.089	0.649	0.496
448.500	299.225	79.999	19.996	100.179	20.087	0.747	0.496
449.000	299.450	79.999	19.995	100.179	20.090	0.556	0.497
449.500	299.745	79.999	19.994	100.179	20.089	0.641	0.504
450.000	299.988	79.999	19.996	100.179	20.088	0.706	0.529
450.500	300.276	80.000	19.995	100.179	20.091	0.522	0.535
451.000	300.490	79.999	19.996	100.180	20.089	0.645	0.517
451.500	300.805	80.000	19.995	100.180	20.088	0.706	0.515
452.000	301.034	80.000	19.994	100.180	20.090	0.543	0.536
452.500	301.250	80.000	19.995	100.180	20.089	0.665	0.494
453.000	301.516	79.999	19.995	100.180	20.092	0.437	0.464
453.500	301.766	80.000	19.996	100.179	20.092	0.422	0.499
454.000	302.033	80.001	19.994	100.179	20.091	0.502	0.516
454.500	302.328	79.999	19.995	100.178	20.089	0.654	0.539
455.000	302.545	80.000	19.994	100.178	20.091	0.487	0.537
455.500	302.822	80.000	19.994	100.178	20.089	0.624	0.503
456.000	303.055	80.001	19.995	100.178	20.093	0.338	0.503
456.500	303.305	80.001	19.996	100.178	20.087	0.799	0.497
457.000	303.569	80.000	19.995	100.178	20.091	0.528	0.498
457.500	303.803	80.001	19.995	100.177	20.092	0.426	0.506
458.000	304.067	80.000	19.996	100.177	20.087	0.782	0.498
458.500	304.353	80.001	19.996	100.177	20.094	0.323	0.524
459.000	304.596	80.001	19.995	100.177	20.092	0.446	0.539
459.500	304.843	80.001	19.995	100.177	20.089	0.639	0.510
460.000	305.102	80.001	19.996	100.175	20.091	0.509	0.498
460.500	305.367	80.001	19.995	100.175	20.094	0.318	0.515
461.000	305.594	80.000	19.995	100.175	20.091	0.485	0.508
461.500	305.883	80.001	19.996	100.174	20.090	0.582	0.504
462.000	306.135	79.999	19.994	100.176	20.087	0.743	0.528
462.500	306.390	80.000	19.995	100.177	20.093	0.400	0.524
463.000	306.648	80.000	19.996	100.177	20.089	0.673	0.511
463.500	306.892	79.999	19.996	100.177	20.091	0.526	0.508
464.000	307.136	80.000	19.995	100.177	20.089	0.649	0.495
464.500	307.393	80.000	19.995	100.176	20.091	0.485	0.494
465.000	307.679	80.000	19.995	100.177	20.090	0.600	0.522
465.500	307.930	79.999	19.995	100.177	20.091	0.500	0.540
466.000	308.209	79.998	19.996	100.177	20.089	0.647	0.534
466.500	308.447	79.998	19.996	100.177	20.095	0.212	0.524
467.000	308.715	80.000	19.996	100.177	20.092	0.440	0.511
467.500	308.921	79.997	19.995	100.177	20.088	0.706	0.490
468.000	309.170	79.998	19.995	100.177	20.089	0.608	0.464
468.500	309.418	79.998	19.995	100.178	20.091	0.504	0.476
469.000	309.713	79.999	19.995	100.178	20.089	0.634	0.520
469.500	309.981	79.998	19.996	100.179	20.090	0.567	0.553
470.000	310.197	79.999	19.995	100.179	20.090	0.554	0.523
470.500	310.491	79.999	19.995	100.180	20.092	0.466	0.497
471.000	310.702	79.999	19.995	100.180	20.091	0.494	0.507
471.500	311.020	80.000	19.995	100.180	20.086	0.814	0.517
472.000	311.228	79.999	19.995	100.181	20.092	0.470	0.528
472.500	311.465	79.999	19.996	100.180	20.088	0.680	0.485
473.000	311.770	79.999	19.995	100.179	20.091	0.478	0.494
473.500	312.027	79.998	19.996	100.179	20.090	0.598	0.552
474.000	312.276	79.997	19.995	100.178	20.094	0.282	0.534
474.500	312.550	79.998	19.994	100.178	20.089	0.650	0.514
475.000	312.809	79.997	19.995	100.178	20.090	0.561	0.528
475.500	313.062	79.997	19.995	100.180	20.093	0.366	0.522
476.000	313.306	79.997	19.995	100.181	20.094	0.320	0.504
476.500	313.560	79.997	19.997	100.182	20.090	0.545	0.497
477.000	313.829	79.998	19.993	100.182	20.089	0.641	0.510
477.500	314.075	79.998	19.993	100.181	20.089	0.624	0.519
478.000	314.317	79.999	19.994	100.179	20.088	0.691	0.502
478.500	314.572	79.997	19.994	100.179	20.090	0.541	0.493
479.000	314.854	79.999	19.995	100.179	20.088	0.723	0.517
479.501	315.104	79.998	19.995	100.179	20.089	0.661	0.534
480.001	315.354	79.998	19.996	100.181	20.090	0.583	0.516
480.501	315.606	79.998	19.995	100.182	20.091	0.492	0.501
481.000	315.890	79.998	19.995	100.179	20.091	0.520	0.519
481.500	316.104	79.999	19.995	100.179	20.088	0.721	0.517
482.000	316.352	79.998	19.994	100.178	20.091	0.491	0.480
482.500	316.631	79.998	19.996	100.178	20.090	0.604	0.495
483.000	316.851	79.998	19.995	100.177	20.093	0.385	0.513
483.500	317.068	79.999	19.995	100.179	20.086	0.812	0.468
484.000	317.393	79.999	19.995	100.180	20.090	0.559	0.490
484.500	317.661	79.998	19.995	100.180	20.089	0.641	0.567
485.000	317.938	79.998	19.995	100.180	20.088	0.721	0.569
485.500	318.163	79.998	19.994	100.182	20.092	0.444	0.524
486.000	318.390	79.999	19.995	100.181	20.089	0.626	0.477
486.500	318.633	79.999	19.996	100.180	20.087	0.808	0.461
487.000	318.924	79.997	19.996	100.180	20.091	0.472	0.502
487.500	319.177	79.997	19.995	100.178	20.088	0.693	0.539
488.000	319.435	79.999	19.995	100.176	20.090	0.574	0.527
488.500	319.677	79.998	19.995	100.175	20.090	0.595	0.505
489.000	319.951	79.999	19.995	100.174	20.088	0.742	0.508
489.500	320.185	79.998	19.996	100.170	20.087	0.760	0.512
490.000	320.467	79.998	19.995	100.165	20.085	0.916	0.512
490.500	320.729	80.000	19.996	100.162	20.089	0.643	0.530
491.000	320.909	79.998	19.995	100.157	20.090	0.604	0.493
491.500	321.185	79.999	19.994	100.154	20.089	0.608	0.449
492.000	321.469	79.998	19.996	100.154	20.089	0.660	0.508
492.500	321.714	79.998	19.996	100.154	20.089	0.654	0.545
493.000	321.970	79.999	19.995	100.157	20.090	0.569	0.515
493.500	322.226	79.997	19.995	100.164	20.089	0.654	0.506
494.000	322.475	79.998	19.995	100.169	20.093	0.386	0.508
494.500	322.730	79.999	19.995	100.170	20.088	0.676	0.504
495.000	322.955	79.998	19.994	100.173	20.091	0.528	0.492
495.500	323.234	79.997	19.995	100.175	20.088	0.714	0.492
496.000	323.487	79.999	19.994	100.171	20.090	0.552	0.518
496.500	323.707	79.998	19.995	100.170	20.088	0.678	0.502
497.000	324.016	79.999	19.995	100.171	20.088	0.682	0.501
497.500	324.256	79.997	19.993	100.174	20.087	0.745	0.539
498.000	324.490	79.997	19.994	100.175	20.090	0.539	0.511
498.500	324.744	79.997	19.995	100.179	20.087	0.751	0.481
499.000	325.005	79.997	19.995	100.180	20.088	0.719	0.502
499.500	325.257	79.998	19.995	100.181	20.085	0.920	0.514
500.000	325.512	79.999	19.995	100.177	20.089	0.636	0.510
500.500	325.740	79.998	19.994	100.176	20.088	0.708	0.495
501.000	325.986	79.998	19.995	100.176	20.088	0.719	0.478
501.500	326.274	79.997	19.995	100.176	20.088	0.702	0.504
502.000	326.524	79.998	19.996	100.173	20.086	0.829	0.536
502.500	326.747	79.998	19.994	100.174	20.089	0.654	0.505
503.000	327.035	79.998	19.994	100.171	20.088	0.691	0.492
503.500	327.283	79.999	19.994	100.171	20.091	0.535	0.523
504.000	327.517	79.999	19.995	100.166	20.091	0.479	0.509
504.500	327.797	80.000	19.995	100.162	20.090	0.557	0.498
505.000	328.046	79.998	19.996	100.160	20.091	0.509	0.521
505.500	328.324	79.999	19.995	100.161	20.091	0.490	0.528
506.000	328.594	79.998	19.994	100.162	20.092	0.422	0.538
506.500	328.798	79.998	19.996	100.165	20.091	0.485	0.511
507.000	329.101	79.999	19.995	100.169	20.091	0.472	0.491
507.500	329.339	80.000	19.996	100.172	20.092	0.422	0.524
508.000	329.594	79.999	19.996	100.174	20.088	0.734	0.517
508.500	329.835	79.999	19.994	100.171	20.091	0.518	0.494
509.000	330.119	79.999	19.995	100.172	20.095	0.238	0.511
509.500	330.353	80.000	19.995	100.174	20.091	0.478	0.522
510.000	330.625	80.000	19.995	100.172	20.092	0.429	0.512
510.500	330.836	79.998	19.993	100.168	20.092	0.420	0.494
511.000	331.115	80.000	19.995	100.165	20.092	0.453	0.486
511.500	331.363	79.999	19.994	100.161	20.094	0.310	0.508
512.000	331.607	79.998	19.995	100.158	20.090	0.582	0.509
512.500	331.872	79.999	19.996	100.157	20.091	0.472	0.500
513.000	332.077	79.999	19.995	100.161	20.092	0.405	0.490
513.500	332.366	80.000	19.995	100.163	20.091	0.490	0.483
514.000	332.617	80.001	19.996	100.166	20.094	0.308	0.517
514.500	332.875	80.000	19.995	100.162	20.094	0.275	0.524
515.000	333.136	80.000	19.993	100.158	20.093	0.392	0.514
515.500	333.392	80.001	19.995	100.152	20.089	0.656	0.518
516.000	333.653	79.999	19.994	100.148	20.092	0.440	0.517
516.500	333.884	80.000	19.994	100.141	20.094	0.329	0.504
517.000	334.164	80.000	19.994	100.140	20.093	0.383	0.502
517.500	334.422	80.000	19.995	100.141	20.091	0.518	0.524
518.000	334.709	80.001	19.995	100.146	20.094	0.295	0.541
518.500	334.929	79.998	19.995	100.152	20.094	0.318	0.526
519.000	335.157	80.000	19.995	100.158	20.093	0.340	0.477
519.500	335.419	79.999	19.994	100.163	20.093	0.360	0.469
520.000	335.701	80.001	19.993	100.167	20.093	0.340	0.517
520.500	335.957	79.999	19.994	100.163	20.093	0.349	0.541
521.000	336.217	80.000	19.994	100.158	20.093	0.401	0.527
521.500	336.455	79.999	19.995	100.153	20.093	0.334	0.507
522.000	336.708	80.000	19.993	100.150	20.098	0.059	0.495
522.500	336.954	79.999	19.996	100.148	20.095	0.251	0.495
523.000	337.194	80.000	19.995	100.151	20.096	0.136	0.493
523.500	337.470	80.001	19.995	100.150	20.092	0.455	0.501
524.000	337.702	80.000	19.995	100.149	20.090	0.576	0.512
524.500	338.002	80.000	19.994	100.150	20.091	0.477	0.520
525.000	338.223	79.999	19.995	100.152	20.091	0.472	0.527
525.500	338.513	80.000	19.995	100.154	20.091	0.529	0.516
526.000	338.726	79.999	19.995	100.159	20.092	0.409	0.507
526.500	339.008	79.999	19.994	100.165	20.095	0.221	0.499
527.000	339.261	80.001	19.995	100.163	20.094	0.269	0.515
527.500	339.511	80.001	19.994	100.160	20.092	0.470	0.519
528.000	339.768	79.998	19.994	100.155	20.094	0.305	0.505
528.500	340.012	80.001	19.995	100.154	20.094	0.325	0.504
529.000	340.244	80.000	19.995	100.154	20.090	0.606	0.488
529.500	340.500	80.001	19.995	100.160	20.089	0.663	0.481
530.000	340.733	80.000	19.995	100.166	20.093	0.372	0.488
530.500	341.000	80.001	19.994	100.168	20.091	0.530	0.495
531.000	341.227	80.000	19.995	100.165	20.092	0.450	0.497
531.500	341.486	80.000	19.994	100.160	20.094	0.299	0.490
532.000	341.774	80.001	19.994	100.156	20.093	0.346	0.516
532.500	342.001	80.002	19.994	100.155	20.100	-0.108	0.531
533.000	342.265	80.001	19.995	100.157	20.092	0.411	0.503
533.500	342.495	80.001	19.994	100.160	20.093	0.388	0.493
534.000	342.766	80.001	19.994	100.163	20.093	0.379	0.498
534.500	342.992	80.001	19.995	100.162	20.096	0.178	0.499
535.000	343.294	80.001	19.994	100.156	20.093	0.399	0.512
535.500	343.497	80.000	19.995	100.151	20.094	0.308	0.516
536.000	343.756	80.001	19.996	100.149	20.088	0.697	0.483
536.500	344.022	80.001	19.999	100.144	20.091	0.533	0.493
537.000	344.263	80.002	19.999	100.146	20.090	0.593	0.516
537.500	344.579	80.002	19.996	100.151	20.094	0.295	0.532
538.000	344.781	80.001	19.995	100.157	20.093	0.381	0.538
538.500	344.987	80.001	19.996	100.164	20.094	0.308	0.464
539.000	345.302	80.001	19.994	100.169	20.091	0.490	0.465
539.500	345.569	80.000	19.995	100.168	20.094	0.273	0.551
540.000	345.817	80.001	19.994	100.162	20.089	0.630	0.548
540.500	346.034	80.001	19.994	100.161	20.095	0.230	0.490
541.000	346.289	80.002	19.994	100.161	20.090	0.583	0.469
541.500	346.545	80.000	19.995	100.159	20.091	0.535	0.491
542.000	346.800	80.001	19.995	100.165	20.091	0.531	0.510
542.500	347.045	80.002	19.994	100.166	20.093	0.347	0.505
543.000	347.298	79.999	19.994	100.161	20.093	0.362	0.500
543.500	347.565	80.000	19.994	100.156	20.090	0.565	0.509
544.000	347.755	79.999	19.995	100.154	20.089	0.643	0.488
544.500	348.090	80.000	19.994	100.147	20.094	0.279	0.491
545.000	348.269	79.998	19.995	100.150	20.091	0.517	0.520
545.500	348.552	79.999	19.995	100.154	20.091	0.481	0.488
546.000	348.828	79.998	19.995	100.153	20.095	0.242	0.511
546.500	349.096	79.999	19.995	100.152	20.098	0.000	0.552
547.000	349.316	79.998	19.994	100.151	20.090	0.569	0.516
547.500	349.566	79.999	19.994	100.148	20.096	0.160	0.479
548.000	349.788	79.999	19.995	100.145	20.094	0.299	0.470
548.500	350.079	79.998	19.995	100.145	20.094	0.292	0.492
549.000	350.373	79.998	19.995	100.145	20.096	0.197	0.549
549.500	350.612	79.998	19.996	100.146	20.095	0.217	0.559
550.000	350.837	79.997	19.993	100.151	20.094	0.310	0.499
550.500	351.113	79.998	19.995	100.153	20.084	1.003	0.482
551.000	351.338	79.998	19.994	100.157	20.091	0.485	0.501
551.500	351.563	79.997	19.996	100.157	20.096	0.139	0.475
552.000	351.837	79.998	19.994	100.158	20.095	0.225	0.475
552.500	352.073	79.997	19.996	100.154	20.089	0.611	0.505
553.000	352.322	79.997	19.995	100.157	20.095	0.234	0.498
553.500	352.622	79.998	19.995	100.152	20.098	0.019	0.517
554.000	352.869	79.999	19.994	100.150	20.093	0.375	0.548
554.500	353.099	79.999	19.995	100.150	20.093	0.394	0.512
555.000	353.359	79.998	19.994	100.148	20.096	0.195	0.484
555.500	353.688	79.999	19.994	100.145	20.093	0.377	0.539
556.000	353.850	79.997	19.995	100.152	20.091	0.500	0.539
556.500	354.177	79.997	19.995	100.156	20.097	0.067	0.490
557.000	354.379	79.999	19.995	100.156	20.094	0.333	0.509
557.500	354.669	79.997	19.994	100.157	20.096	0.180	0.511
558.000	354.870	79.997	19.994	100.156	20.095	0.249	0.492
558.500	355.094	79.998	19.995	100.149	20.095	0.253	0.458
559.000	355.361	79.998	19.994	100.147	20.095	0.251	0.458
559.500	355.738	79.998	19.994	100.149	20.090	0.559	0.567
560.000	355.913	79.998	19.994	100.153	20.097	0.110	0.598
560.500	356.093	79.997	19.994	100.158	20.094	0.320	0.453
561.000	356.324	79.997	19.995	100.159	20.094	0.321	0.383
561.500	356.691	79.997	19.995	100.157	20.093	0.359	0.504
562.000	356.899	79.997	19.994	100.155	20.093	0.377	0.586
562.500	357.343	79.999	19.995	100.152	20.092	0.412	0.614
563.000	357.395	79.998	19.995	100.148	20.094	0.294	0.574
563.500	357.691	79.999	19.995	100.148	20.093	0.396	0.422
564.000	357.737	79.998	19.995	100.149	20.095	0.260	0.345
564.500	357.964	79.997	19.993	100.150	20.099	-0.045	0.308
565.000	358.653	79.998	19.994	100.152	20.096	0.149	0.594
565.500	358.524	79.998	19.995	100.152	20.096	0.188	0.738
566.000	358.664	79.998	19.995	100.157	20.095	0.216	0.286
566.500	358.847	79.998	19.994	100.162	20.094	0.290	0.167
567.000	359.312	79.997	19.995	100.164	20.096	0.156	0.485
567.500	359.828	79.999	19.995	100.162	20.092	0.412	0.814
568.000	359.825	79.998	19.995	100.161	20.095	0.253	0.747
568.500	360.280	79.996	19.995	100.156	20.090	0.567	0.482
569.000	360.412	79.999	19.995	100.154	20.095	0.210	0.519
569.500	360.747	79.998	19.993	100.151	20.092	0.446	0.527
570.000	360.867	79.997	19.994	100.153	20.095	0.208	0.461
570.500	361.287	79.998	19.995	100.152	20.092	0.409	0.498
571.000	361.439	79.998	19.994	100.150	20.096	0.188	0.556
571.500	361.694	79.999	19.996	100.150	20.091	0.513	0.489
572.000	361.910	79.998	19.995	100.149	20.093	0.357	0.439
572.500	362.212	79.998	19.996	100.149	20.095	0.266	0.495
573.000	362.437	79.998	19.996	100.153	20.093	0.364	0.523
573.500	362.687	79.998	19.996	100.157	20.092	0.405	0.501
574.000	362.996	79.998	19.996	100.159	20.091	0.498	0.517
574.500	363.179	79.998	19.996	100.163	20.093	0.374	0.526
575.000	363.463	79.997	19.996	100.168	20.093	0.390	0.479
575.500	363.692	79.997	19.995	100.171	20.090	0.567	0.490
576.000	363.949	79.998	19.996	100.173	20.094	0.299	0.500
576.500	364.249	79.998	19.996	100.170	20.093	0.362	0.521
577.000	364.448	79.995	19.995	100.165	20.089	0.656	0.528
577.500	364.691	79.996	19.996	100.160	20.092	0.450	0.471
578.000	365.033	79.997	19.996	100.160	20.091	0.502	0.514
578.500	365.227	79.998	19.997	100.156	20.093	0.342	0.560
579.000	365.530	79.997	19.997	100.162	20.090	0.589	0.516
579.500	365.784	79.998	19.995	100.165	20.092	0.444	0.527
580.000	366.012	79.998	19.996	100.169	20.091	0.507	0.519
580.500	366.267	79.998	19.996	100.170	20.089	0.675	0.482
581.000	366.488	79.996	19.997	100.173	20.092	0.465	0.480
581.500	366.725	79.997	19.995	100.168	20.090	0.580	0.467
582.000	367.024	79.998	19.996	100.171	20.088	0.721	0.497
582.500	367.311	79.996	19.995	100.171	20.085	0.905	0.561
583.000	367.544	79.999	19.996	100.166	20.085	0.940	0.553
583.500	367.797	79.998	19.995	100.165	20.088	0.741	0.503
584.000	368.039	80.000	19.997	100.168	20.085	0.918	0.490
584.500	368.300	79.998	19.996	100.166	20.085	0.940	0.499
585.000	368.605	79.998	19.996	100.163	20.085	0.927	0.535
585.500	368.838	79.999	19.996	100.168	20.086	0.847	0.552
586.000	369.079	79.998	19.995	100.169	20.090	0.541	0.506
586.500	369.356	79.999	19.995	100.171	20.086	0.832	0.496
587.000	369.593	79.999	19.996	100.173	20.084	0.979	0.516
587.500	369.828	79.999	19.995	100.177	20.082	1.100	0.493
588.000	370.127	79.999	19.994	100.177	20.087	0.788	0.503
588.500	370.358	79.998	19.995	100.178	20.084	0.950	0.532
589.000	370.619	79.999	19.994	100.179	20.087	0.758	0.511
589.500	370.894	80.000	19.994	100.178	20.082	1.087	0.514
590.000	371.129	80.000	19.995	100.173	20.081	1.167	0.523
590.500	371.421	79.999	19.994	100.168	20.080	1.245	0.519
591.000	371.708	80.000	19.995	100.165	20.082	1.119	0.553
591.500	371.896	80.000	19.995	100.163	20.081	1.167	0.527
592.000	372.164	80.000	19.995	100.164	20.080	1.247	0.466
592.500	372.465	80.000	19.995	100.169	20.081	1.215	0.512
593.000	372.692	80.000	19.994	100.174	20.083	1.080	0.548
593.500	372.950	80.000	19.997	100.176	20.080	1.241	0.506
594.000	373.233	80.001	19.995	100.177	20.081	1.197	0.513
594.500	373.457	80.000	19.995	100.174	20.081	1.219	0.524
595.000	373.716	80.000	19.996	100.172	20.078	1.399	0.495
595.500	374.010	80.000	19.994	100.171	20.075	1.585	0.518
596.000	374.264	80.000	19.993	100.171	20.076	1.555	0.551
596.500	374.534	79.999	19.993	100.168	20.076	1.500	0.536
597.000	374.738	79.998	19.995	100.167	20.073	1.706	0.499
597.500	375.035	80.000	19.995	100.167	20.071	1.849	0.487
598.000	375.268	80.000	19.995	100.162	20.072	1.801	0.515
598.500	375.532	79.999	19.996	100.161	20.074	1.671	0.514
599.000	375.828	80.000	19.995	100.161	20.073	1.704	0.529
599.500	376.031	80.000	19.995	100.162	20.074	1.660	0.530
600.000	376.335	80.000	19.995	100.161	20.070	1.912	0.503
600.500	376.597	80.000	19.995	100.166	20.066	2.215	0.536
601.000	376.818	80.000	19.994	100.166	20.065	2.249	0.524
601.500	377.084	80.000	19.996	100.167	20.066	2.200	0.485
602.000	377.364	79.999	19.995	100.167	20.064	2.360	0.517
602.500	377.621	79.999	19.996	100.169	20.065	2.258	0.542
603.000	377.844	79.999	19.995	100.170	20.067	2.171	0.509
603.500	378.124	80.000	19.994	100.172	20.064	2.360	0.491
604.000	378.403	79.998	19.996	100.174	20.059	2.686	0.531
604.500	378.665	79.999	19.994	100.176	20.064	2.336	0.550
605.000	378.937	79.999	19.994	100.176	20.062	2.489	0.537
605.500	379.209	80.000	19.994	100.176	20.060	2.626	0.539
606.000	379.446	79.998	19.995	100.173	20.059	2.717	0.527
606.500	379.727	79.999	19.995	100.175	20.055	2.946	0.513
607.000	379.982	79.999	19.995	100.172	20.056	2.871	0.527
607.500	380.284	79.999	19.995	100.172	20.052	3.170	0.546
608.000	380.541	80.000	19.994	100.170	20.055	2.977	0.558
608.500	380.782	79.998	19.995	100.173	20.054	3.022	0.529
609.000	381.031	80.000	19.995	100.174	20.052	3.128	0.494
609.500	381.293	79.999	19.995	100.178	20.049	3.386	0.500
610.000	381.570	79.999	19.995	100.180	20.050	3.299	0.525
610.500	381.824	80.000	19.995	100.182	20.049	3.351	0.535
611.000	382.115	80.001	19.995	100.183	20.047	3.518	0.538
611.500	382.366	79.998	19.995	100.182	20.043	3.793	0.544
612.000	382.609	79.999	19.993	100.182	20.044	3.690	0.518
612.500	382.873	80.000	19.995	100.182	20.045	3.604	0.500
613.000	383.177	80.000	19.994	100.182	20.041	3.939	0.538
613.500	383.434	79.999	19.996	100.183	20.045	3.615	0.565
614.000	383.688	80.000	19.995	100.184	20.041	3.890	0.536
614.500	383.959	79.999	19.995	100.185	20.037	4.206	0.518
615.000	384.234	80.000	19.994	100.184	20.036	4.284	0.536
615.500	384.455	80.000	19.994	100.184	20.035	4.340	0.521
616.000	384.760	80.000	19.993	100.183	20.033	4.464	0.511
616.500	385.024	80.001	19.995	100.177	20.034	4.357	0.548
617.000	385.280	80.001	19.995	100.174	20.028	4.768	0.545
617.500	385.542	80.002	19.993	100.175	20.030	4.687	0.519
618.000	385.778	80.001	19.993	100.175	20.024	5.038	0.508
618.500	386.087	80.001	19.994	100.175	20.028	4.789	0.522
619.000	386.310	80.000	19.993	100.181	20.028	4.822	0.539
619.500	386.568	80.000	19.995	100.183	20.025	4.991	0.507
620.000	386.831	80.001	19.994	100.181	20.022	5.221	0.501
620.500	387.124	80.001	19.994	100.181	20.019	5.433	0.538
621.000	387.338	80.000	19.993	100.181	20.017	5.528	0.531
621.500	387.628	80.001	19.993	100.181	20.015	5.662	0.506
622.000	387.888	80.001	19.994	100.182	20.014	5.770	0.527
622.500	388.179	80.000	19.993	100.188	20.015	5.662	0.550
623.000	388.413	80.000	19.994	100.193	20.015	5.710	0.538
623.500	388.716	80.001	19.993	100.194	20.011	5.952	0.531
624.000	388.965	80.000	19.994	100.195	20.011	5.926	0.544
624.500	389.216	80.000	19.995	100.197	20.004	6.431	0.526
625.000	389.500	80.000	19.995	100.191	20.002	6.561	0.518
625.500	389.743	80.000	19.994	100.188	20.001	6.627	0.531
626.000	390.008	80.000	19.994	100.187	20.004	6.413	0.517
626.500	390.260	79.999	19.993	100.187	19.995	7.031	0.512
627.000	390.560	79.998	19.991	100.189	19.997	6.916	0.534
627.500	390.808	80.000	19.995	100.195	19.992	7.223	0.550
628.000	391.055	79.997	19.994	100.202	19.988	7.515	0.522
628.500	391.338	79.997	19.994	100.209	19.987	7.581	0.513
629.000	391.573	79.998	19.993	100.214	19.984	7.778	0.524
629.500	391.871	79.998	19.993	100.212	19.980	8.098	0.525
630.000	392.141	79.998	19.994	100.206	19.977	8.240	0.550
630.500	392.397	79.999	19.996	100.201	19.976	8.372	0.547
631.000	392.694	79.999	19.995	100.198	19.972	8.586	0.539
631.500	392.922	79.998	19.994	100.198	19.969	8.833	0.539
632.000	393.216	79.998	19.993	100.198	19.966	9.017	0.523
632.500	393.442	79.998	19.995	100.199	19.965	9.108	0.521
633.000	393.714	79.998	19.994	100.200	19.961	9.346	0.509
633.500	394.016	79.998	19.995	100.202	19.959	9.497	0.536
634.000	394.269	79.999	19.995	100.196	19.954	9.841	0.565
634.500	394.568	79.998	19.996	100.195	19.954	9.805	0.554
635.000	394.815	79.997	19.994	100.196	19.954	9.824	0.549
635.501	395.067	79.998	19.994	100.195	19.947	10.309	0.522
636.000	395.336	79.999	19.995	100.193	19.945	10.443	0.510
636.500	395.594	79.997	19.995	100.199	19.945	10.449	0.524
637.000	395.853	80.000	19.996	100.204	19.943	10.609	0.522
637.500	396.111	80.000	19.995	100.208	19.940	10.815	0.517
638.000	396.360	79.999	19.996	100.212	19.940	10.762	0.511
638.500	396.632	79.999	19.996	100.214	19.934	11.183	0.514
639.000	396.872	79.998	19.996	100.216	19.935	11.160	0.516
639.500	397.142	79.999	19.995	100.215	19.927	11.687	0.511
640.000	397.438	79.997	19.996	100.214	19.923	11.983	0.538
640.500	397.674	79.999	19.994	100.215	19.922	12.054	0.549
641.000	397.919	79.997	19.996	100.215	19.919	12.201	0.507
641.500	398.161	79.997	19.996	100.215	19.916	12.422	0.484
642.000	398.401	79.997	19.995	100.217	19.908	12.945	0.484
642.500	398.700	79.997	19.996	100.218	19.905	13.215	0.510
643.000	398.933	79.997	19.995	100.218	19.907	13.070	0.535
643.500	399.208	79.998	19.996	100.218	19.899	13.566	0.520
644.000	399.476	79.998	19.996	100.219	19.892	14.046	0.525
644.500	399.714	79.999	19.996	100.219	19.891	14.108	0.525
645.000	399.941	79.998	19.996	100.220	19.889	14.292	0.485
645.500	400.205	79.999	19.995	100.220	19.888	14.335	0.478
646.000	400.442	79.998	19.996	100.219	19.882	14.737	0.496
646.500	400.715	79.998	19.996	100.218	19.876	15.156	0.505
647.000	400.969	79.999	19.996	100.219	19.876	15.184	0.518
647.500	401.187	79.997	19.995	100.220	19.870	15.540	0.500
648.000	401.459	79.997	19.995	100.221	19.865	15.899	0.482
648.500	401.722	79.999	19.995	100.222	19.860	16.256	0.513
649.000	401.970	79.996	19.995	100.229	19.858	16.363	0.523
649.500	402.265	79.998	19.995	100.235	19.849	17.031	0.527
650.000	402.507	79.997	19.995	100.242	19.848	17.100	0.540
650.500	402.741	79.998	19.995	100.249	19.842	17.473	0.507
651.000	403.010	79.998	19.995	100.256	19.836	17.858	0.490
651.500	403.269	79.999	19.996	100.257	19.830	18.272	0.515
652.000	403.546	79.998	19.995	100.257	19.830	18.332	0.532
652.500	403.788	79.998	19.995	100.258	19.823	18.764	0.527
653.000	404.046	79.998	19.997	100.259	19.818	19.111	0.509
653.500	404.321	79.998	19.994	100.259	19.814	19.388	0.517
654.000	404.531	79.998	19.994	100.259	19.807	19.874	0.510
654.500	404.795	79.999	19.996	100.259	19.801	20.276	0.480
655.000	405.018	79.999	19.995	100.258	19.798	20.469	0.480
655.500	405.277	79.998	19.995	100.259	19.791	20.958	0.485
656.000	405.537	79.999	19.996	100.260	19.789	21.092	0.501
656.500	405.805	79.998	19.993	100.260	19.780	21.715	0.524
657.000	406.051	79.998	19.995	100.264	19.773	22.182	0.521
657.500	406.336	79.998	19.997	100.265	19.770	22.390	0.522
658.000	406.597	79.998	19.994	100.269	19.760	23.078	0.538
658.500	406.841	79.996	19.995	100.273	19.760	23.061	0.526
659.000	407.083	79.998	19.996	100.272	19.751	23.677	0.496
659.500	407.321	79.998	19.994	100.273	19.746	24.049	0.483
660.000	407.601	79.997	19.996	100.277	19.743	24.217	0.499
660.500	407.871	79.998	19.995	100.279	19.735	24.764	0.534
661.000	408.107	79.996	19.995	100.277	19.730	25.125	0.528
661.500	408.394	79.998	19.997	100.284	19.721	25.765	0.515
662.000	408.635	79.998	19.996	100.287	19.715	26.164	0.526
662.500	408.881	79.998	19.996	100.289	19.712	26.382	0.507
663.000	409.103	79.999	19.997	100.290	19.703	26.994	0.477
663.500	409.417	79.998	19.995	100.297	19.696	27.455	0.502
664.000	409.639	79.998	19.996	100.297	19.691	27.824	0.537
664.500	409.889	79.998	19.995	100.297	19.683	28.353	0.504
665.000	410.157	79.996	19.995	100.298	19.676	28.837	0.494
665.500	410.395	79.997	19.996	100.299	19.669	29.274	0.512
666.000	410.653	79.998	19.997	100.299	19.660	29.895	0.501
666.500	410.898	79.997	19.998	100.303	19.654	30.348	0.499
667.000	411.179	79.998	19.996	100.303	19.647	30.783	0.515
667.500	411.427	79.999	19.997	100.304	19.638	31.394	0.527
668.000	411.704	79.998	19.996	100.304	19.629	32.004	0.527
668.500	411.897	79.998	19.996	100.310	19.624	32.393	0.498
669.000	412.202	79.997	19.996	100.314	19.615	32.991	0.484
669.500	412.464	79.999	19.996	100.322	19.606	33.616	0.532
670.000	412.733	79.998	19.997	100.329	19.597	34.209	0.549
670.500	412.934	79.998	19.997	100.337	19.589	34.746	0.501
671.000	413.210	79.999	19.995	100.337	19.582	35.272	0.474
671.500	413.466	79.999	19.996	100.337	19.573	35.855	0.504
672.000	413.690	79.999	19.997	100.337	19.562	36.626	0.505
672.500	413.960	80.001	19.996	100.337	19.554	37.154	0.487
673.000	414.211	80.000	19.995	100.337	19.545	37.754	0.508
673.500	414.460	79.999	19.996	100.338	19.538	38.256	0.511
674.000	414.699	79.999	19.995	100.344	19.524	39.226	0.494
674.500	414.943	80.000	19.996	100.350	19.519	39.546	0.485
675.000	415.219	79.998	19.997	100.356	19.507	40.345	0.501
675.500	415.463	79.999	19.995	100.357	19.498	41.003	0.520
676.000	415.682	79.999	19.996	100.364	19.490	41.509	0.492
676.500	415.974	80.000	19.995	100.364	19.480	42.219	0.487
677.000	416.170	80.000	19.996	100.365	19.471	42.825	0.499
677.500	416.440	79.998	19.996	100.367	19.461	43.511	0.477
678.000	416.722	79.999	19.996	100.373	19.450	44.268	0.509
678.500	416.959	79.998	19.996	100.374	19.440	44.965	0.535
679.000	417.197	80.000	19.996	100.376	19.438	45.105	0.497
679.500	417.413	80.000	19.995	100.377	19.423	46.097	0.465
680.000	417.679	79.999	19.996	100.377	19.410	47.021	0.469
680.500	417.961	79.999	19.994	100.379	19.402	47.541	0.515
681.000	418.212	79.998	19.995	100.383	19.389	48.478	0.541
681.500	418.470	79.999	19.995	100.384	19.383	48.830	0.521
682.000	418.740	79.999	19.995	100.386	19.373	49.542	0.518
682.500	418.976	80.000	19.994	100.393	19.363	50.258	0.517
683.000	419.229	80.000	19.994	100.397	19.349	51.155	0.497
683.500	419.485	79.999	19.994	100.399	19.341	51.751	0.499
684.000	419.708	80.000	19.994	100.406	19.327	52.706	0.494
684.500	419.955	79.999	19.995	100.412	19.319	53.225	0.474
685.000	420.219	80.000	19.995	100.412	19.305	54.205	0.490
685.500	420.456	79.998	19.995	100.415	19.293	55.051	0.506
686.000	420.718	79.999	19.994	100.418	19.284	55.634	0.500
686.500	420.959	79.998	19.996	100.421	19.279	55.965	0.501
687.000	421.200	79.998	19.995	100.428	19.264	57.048	0.493
687.500	421.430	79.998	19.995	100.433	19.250	57.952	0.477
688.000	421.684	79.998	19.995	100.441	19.242	58.540	0.477
688.500	421.951	79.999	19.996	100.451	19.224	59.740	0.502
689.000	422.234	79.999	19.994	100.456	19.219	60.097	0.536
689.500	422.450	79.998	19.994	100.458	19.206	60.958	0.524
690.000	422.699	79.999	19.994	100.466	19.192	61.921	0.482
690.500	422.932	79.999	19.995	100.471	19.183	62.547	0.474
691.000	423.164	79.999	19.994	100.473	19.170	63.476	0.474
691.500	423.466	79.998	19.994	100.474	19.157	64.343	0.499
692.000	423.704	79.999	19.994	100.475	19.149	64.912	0.537
692.500	423.901	79.999	19.996	100.472	19.130	66.211	0.487
693.000	424.212	80.000	19.996	100.473	19.120	66.881	0.472
693.500	424.451	79.998	19.994	100.476	19.108	67.739	0.529
694.000	424.667	79.998	19.994	100.484	19.094	68.669	0.503
694.500	424.922	80.000	19.997	100.490	19.086	69.193	0.463
695.000	425.165	79.999	19.994	100.496	19.065	70.686	0.484
695.500	425.434	79.999	19.994	100.501	19.054	71.389	0.505
696.000	425.670	80.000	19.995	100.506	19.043	72.185	0.508
696.500	425.938	80.000	19.995	100.512	19.030	73.059	0.504
697.000	426.190	79.999	19.995	100.518	19.016	74.046	0.512
697.500	426.420	80.001	19.996	100.525	19.001	75.070	0.501
698.000	426.685	80.000	19.993	100.531	18.987	76.030	0.489
698.500	426.926	80.001	19.994	100.533	18.971	77.109	0.501
699.000	427.188	80.001	19.996	100.534	18.954	78.290	0.504
699.500	427.435	80.001	19.995	100.542	18.944	79.011	0.505
700.000	427.683	80.001	19.994	100.544	18.927	80.151	0.502
700.500	427.924	80.001	19.995	100.546	18.914	81.056	0.492
701.000	428.196	80.002	19.995	100.553	18.899	82.071	0.501
701.500	428.433	80.001	19.994	100.558	18.879	83.463	0.511
702.000	428.691	80.002	19.994	100.557	18.868	84.202	0.502
702.500	428.961	80.000	19.993	100.562	18.849	85.489	0.512
703.000	429.207	80.001	19.995	100.567	18.832	86.649	0.522
703.500	429.430	80.001	19.996	100.569	18.819	87.543	0.492
704.000	429.691	80.001	19.994	100.570	18.807	88.380	0.476
704.500	429.903	80.000	19.993	100.572	18.788	89.700	0.479
705.000	430.159	79.999	19.994	100.573	18.777	90.463	0.470
705.500	430.405	80.000	19.993	100.577	18.756	91.889	0.485
706.000	430.647	79.999	19.995	100.583	18.736	93.254	0.495
706.500	430.911	80.000	19.995	100.591	18.726	93.974	0.497
707.000	431.139	79.999	19.994	100.597	18.708	95.240	0.499
707.500	431.412	79.999	19.995	100.604	18.689	96.542	0.497
708.000	431.618	79.997	19.994	100.610	18.673	97.606	0.490
708.500	431.869	79.999	19.996	100.615	18.652	99.059	0.468
709.000	432.118	79.999	19.994	100.624	18.637	100.125	0.479
709.500	432.400	80.000	19.994	100.633	18.621	101.235	0.516
710.000	432.646	79.999	19.996	100.641	18.605	102.305	0.529
710.500	432.884	79.997	19.995	100.647	18.578	104.178	0.505
711.000	433.132	79.998	19.995	100.653	18.571	104.673	0.485
711.500	433.382	79.999	19.995	100.654	18.545	106.416	0.492
712.000	433.653	80.000	19.995	100.662	18.525	107.852	0.510
712.500	433.896	79.999	19.995	100.670	18.511	108.758	0.518
713.000	434.124	79.999	19.994	100.679	18.494	109.990	0.492
713.500	434.414	79.998	19.994	100.685	18.472	111.475	0.494
714.000	434.674	79.999	19.997	100.694	18.461	112.247	0.534
714.500	434.915	79.998	19.996	100.697	18.441	113.601	0.526
715.000	435.147	79.997	19.995	100.700	18.424	114.751	0.487
715.500	435.401	79.999	19.993	100.705	18.407	115.931	0.480
716.000	435.627	79.999	19.995	100.713	18.386	117.396	0.483
716.500	435.908	79.998	19.996	100.719	18.373	118.358	0.493
717.000	436.136	79.997	19.994	100.724	18.349	119.998	0.508
717.500	436.362	79.998	19.996	100.733	18.336	120.866	0.482
718.000	436.640	79.999	19.995	100.739	18.317	122.182	0.479
718.500	436.875	79.998	19.994	100.744	18.296	123.621	0.508
719.000	437.164	79.999	19.996	100.753	18.274	125.162	0.518
719.500	437.351	79.999	19.995	100.765	18.256	126.402	0.500
720.000	437.627	79.998	19.996	100.774	18.242	127.391	0.469
720.500	437.862	79.998	19.996	100.784	18.218	129.070	0.487
721.000	438.140	79.997	19.995	100.794	18.200	130.273	0.512
721.500	438.342	79.999	19.996	100.801	18.177	131.840	0.496
722.000	438.623	79.999	19.995	100.805	18.160	133.062	0.482
722.500	438.855	79.998	19.995	100.807	18.141	134.344	0.498
723.000	439.100	79.999	19.994	100.816	18.122	135.660	0.495
723.500	439.325	79.999	19.995	100.823	18.096	137.428	0.474
724.000	439.570	80.000	19.996	100.831	18.074	138.916	0.470
724.500	439.826	79.997	19.994	100.839	18.053	140.325	0.485
725.000	440.094	79.999	19.995	100.846	18.031	141.843	0.512
725.500	440.364	79.999	19.993	100.847	18.007	143.506	0.531
726.000	440.597	79.998	19.995	100.851	17.986	144.968	0.521
726.500	440.852	79.999	19.994	100.861	17.960	146.782	0.496
727.000	441.100	79.998	19.994	100.875	17.936	148.438	0.496
727.500	441.330	79.998	19.994	100.890	17.913	150.050	0.490
728.000	441.591	79.998	19.996	100.904	17.889	151.733	0.484
728.500	441.806	79.999	19.994	100.916	17.862	153.631	0.483
729.000	442.102	79.998	19.995	100.922	17.841	155.059	0.494
729.500	442.343	79.998	19.994	100.927	17.815	156.835	0.525
730.000	442.582	79.997	19.994	100.932	17.794	158.284	0.509
730.500	442.844	79.999	19.995	100.940	17.771	159.890	0.490
731.000	443.064	79.999	19.995	100.948	17.750	161.271	0.491
731.500	443.328	80.000	19.996	100.956	17.725	163.008	0.483
732.000	443.530	79.999	19.994	100.961	17.712	163.914	0.475
732.500	443.762	79.998	19.995	100.965	17.689	165.482	0.450
733.000	444.049	79.997	19.994	100.965	17.675	166.439	0.477
733.500	444.286	79.999	19.996	100.966	17.662	167.379	0.522
734.000	444.521	80.000	19.996	100.964	17.650	168.207	0.498
734.500	444.785	79.998	19.994	100.961	17.638	168.988	0.485
735.000	445.016	79.999	19.995	100.953	17.618	170.375	0.497
735.500	445.290	79.997	19.996	100.946	17.601	171.583	0.500
736.000	445.576	79.997	19.994	100.942	17.589	172.445	0.532
736.500	445.786	79.997	19.995	100.948	17.575	173.372	0.527
737.000	446.015	79.998	19.996	100.959	17.558	174.533	0.467
737.500	446.287	79.997	19.995	100.978	17.544	175.522	0.470
738.000	446.587	79.998	19.995	101.001	17.527	176.669	0.537
738.500	446.815	79.998	19.994	101.023	17.516	177.452	0.550
739.000	447.086	79.998	19.996	101.043	17.503	178.296	0.513
739.500	447.308	79.998	19.995	101.059	17.492	179.053	0.496
740.000	447.587	79.997	19.996	101.066	17.481	179.788	0.497
740.500	447.853	79.997	19.995	101.064	17.476	180.168	0.523
741.000	448.107	79.997	19.995	101.061	17.466	180.812	0.533
741.500	448.381	79.997	19.997	101.053	17.458	181.355	0.524
742.000	448.639	79.998	19.994	101.047	17.447	182.073	0.530
742.500	448.888	79.998	19.995	101.048	17.442	182.476	0.519
743.000	449.131	79.997	19.995	101.053	17.428	183.444	0.499
743.500	449.355	79.997	19.996	101.055	17.420	183.951	0.480
744.000	449.678	79.999	19.995	101.055	17.408	184.823	0.507
744.500	449.865	79.997	19.995	101.053	17.396	185.616	0.528
745.000	450.121	79.997	19.996	101.051	17.382	186.610	0.477
745.500	450.392	79.996	19.994	101.054	17.376	187.025	0.485
746.000	450.636	79.997	19.996	101.062	17.369	187.528	0.521
746.500	450.909	79.997	19.994	101.070	17.367	187.691	0.516
747.000	451.174	79.999	19.995	101.080	17.361	188.115	0.527
747.500	451.434	79.998	19.995	101.090	17.357	188.353	0.531
748.000	451.654	79.998	19.996	101.092	17.358	188.255	0.503
748.500	451.937	79.998	19.996	101.089	17.360	188.146	0.492
749.000	452.204	79.997	19.996	101.088	17.356	188.379	0.526
749.500	452.466	79.998	19.994	101.086	17.360	188.110	0.539
750.000	452.721	79.999	19.996	101.079	17.357	188.299	0.523
750.500	452.991	79.997	19.995	101.071	17.361	188.055	0.521
751.000	453.219	79.999	19.995	101.067	17.362	187.971	0.511
751.500	453.520	79.999	19.996	101.057	17.367	187.572	0.514
752.000	453.760	79.998	19.994	101.047	17.372	187.226	0.535
752.500	453.994	80.000	19.996	101.040	17.375	187.033	0.508
753.000	454.247	80.000	19.995	101.040	17.373	187.100	0.481
753.500	454.506	79.998	19.997	101.040	17.387	186.154	0.500
754.000	454.787	80.001	19.996	101.043	17.385	186.253	0.526
754.500	455.044	79.999	19.995	101.047	17.395	185.578	0.539
755.000	455.295	79.998	19.996	101.052	17.401	185.156	0.523
755.500	455.557	79.999	19.996	101.056	17.402	185.094	0.510
756.000	455.793	79.998	19.995	101.062	17.410	184.535	0.505
756.500	456.063	79.999	19.996	101.069	17.418	183.949	0.502
757.000	456.313	80.000	19.996	101.075	17.425	183.472	0.514
757.500	456.571	79.999	19.996	101.080	17.427	183.320	0.514
758.000	456.812	79.999	19.995	101.084	17.432	182.948	0.503
758.500	457.045	79.998	19.996	101.084	17.438	182.517	0.486
759.000	457.319	79.998	19.995	101.081	17.448	181.836	0.490
759.500	457.581	79.999	19.995	101.076	17.454	181.382	0.521
760.000	457.819	79.998	19.997	101.071	17.461	180.903	0.518
760.500	458.067	79.999	19.997	101.065	17.470	180.223	0.493
761.000	458.343	80.000	19.996	101.058	17.483	179.364	0.506
761.500	458.580	79.999	19.996	101.052	17.492	178.700	0.519
762.000	458.847	80.000	19.997	101.046	17.502	177.977	0.508
762.500	459.121	79.998	19.997	101.037	17.512	177.272	0.523
763.000	459.348	79.999	19.995	101.026	17.525	176.363	0.521
763.500	459.594	80.000	19.997	101.018	17.539	175.403	0.487
764.000	459.882	79.998	19.996	101.011	17.556	174.238	0.503
764.500	460.108	79.999	19.997	101.005	17.570	173.243	0.524
765.000	460.384	79.998	19.995	101.000	17.582	172.367	0.508
765.500	460.641	79.999	19.996	100.992	17.605	170.832	0.518
766.000	460.893	80.000	19.995	100.984	17.619	169.801	0.521
766.500	461.132	79.999	19.996	100.975	17.636	168.645	0.500
767.000	461.387	79.998	19.997	100.963	17.659	167.032	0.492
767.500	461.642	80.000	19.996	100.952	17.678	165.684	0.502
768.000	461.933	80.000	19.996	100.945	17.699	164.240	0.528
768.500	462.163	79.999	19.997	100.937	17.721	162.701	0.534
769.000	462.452	80.000	19.994	100.930	17.744	161.153	0.520
769.500	462.676	79.999	19.995	100.925	17.768	159.442	0.516
770.000	462.944	79.998	19.996	100.920	17.791	157.837	0.503
770.500	463.185	79.999	19.996	100.912	17.811	156.513	0.500
771.000	463.469	80.000	19.995	100.904	17.839	154.565	0.517
771.500	463.712	79.999	19.993	100.890	17.868	152.575	0.526
772.000	463.943	80.000	19.994	100.876	17.891	150.990	0.500
772.500	464.154	79.999	19.993	100.864	17.913	149.406	0.458
773.000	464.422	80.001	19.996	100.855	17.943	147.405	0.461
773.500	464.681	80.001	19.994	100.842	17.970	145.513	0.503
774.000	464.924	80.000	19.995	100.832	17.997	143.668	0.514
774.500	465.183	80.000	19.994	100.824	18.030	141.379	0.502
775.000	465.414	80.002	19.995	100.812	18.056	139.619	0.496
775.500	465.701	80.000	19.996	100.799	18.089	137.310	0.504
776.000	465.972	80.000	19.995	100.789	18.115	135.551	0.538
776.500	466.213	79.999	19.994	100.777	18.151	133.051	0.535
777.000	466.464	79.999	19.995	100.762	18.179	131.113	0.502
777.500	466.705	80.000	19.993	100.752	18.218	128.442	0.491
778.000	466.979	80.001	19.993	100.742	18.248	126.432	0.503
778.500	467.243	80.002	19.994	100.725	18.281	124.116	0.527
779.000	467.508	80.002	19.995	100.708	18.320	121.487	0.533
779.500	467.749	80.003	19.995	100.694	18.354	119.110	0.518
780.000	467.993	80.001	19.995	100.678	18.393	116.467	0.496
780.500	468.236	80.001	19.996	100.663	18.423	114.400	0.486
781.000	468.518	80.003	19.994	100.651	18.462	111.731	0.506
781.500	468.730	80.003	19.995	100.640	18.497	109.298	0.509
782.000	469.006	80.003	19.994	100.630	18.537	106.556	0.491
782.500	469.260	80.002	19.994	100.621	18.574	104.048	0.509
783.000	469.502	80.002	19.994	100.609	18.617	101.141	0.513
783.500	469.762	80.001	19.994	100.598	18.658	98.315	0.499
784.000	469.995	80.001	19.994	100.590	18.697	95.661	0.497
784.500	470.285	80.001	19.994	100.581	18.740	92.684	0.508
785.000	470.506	80.001	19.993	100.570	18.778	90.125	0.517
785.500	470.744	80.000	19.996	100.559	18.818	87.364	0.485
786.000	470.997	80.000	19.995	100.552	18.857	84.720	0.475
786.500	471.250	79.999	19.997	100.544	18.896	82.022	0.499
787.000	471.492	80.001	19.994	100.535	18.936	79.312	0.500
787.500	471.752	80.000	19.995	100.525	18.976	76.541	0.498
788.000	472.008	79.999	19.995	100.516	19.013	74.053	0.509
788.500	472.252	79.999	19.996	100.505	19.051	71.436	0.508
789.000	472.518	79.999	19.995	100.494	19.087	68.962	0.505
789.500	472.755	79.999	19.995	100.481	19.126	66.273	0.506
790.000	473.019	79.999	19.995	100.473	19.158	64.101	0.502
790.501	473.280	79.998	19.995	100.465	19.193	61.727	0.513
791.000	473.556	79.998	19.996	100.456	19.221	59.787	0.531
791.500	473.800	79.999	19.995	100.445	19.253	57.637	0.529
792.000	474.059	79.998	19.994	100.437	19.284	55.515	0.511
792.500	474.301	79.999	19.994	100.429	19.313	53.543	0.502
793.000	474.555	79.999	19.995	100.423	19.345	51.371	0.499
793.500	474.807	79.999	19.995	100.419	19.366	49.920	0.501
794.000	475.093	79.999	19.996	100.417	19.394	47.973	0.522
794.500	475.351	79.998	19.995	100.412	19.417	46.433	0.541
795.000	475.582	79.998	19.995	100.406	19.442	44.718	0.517
795.500	475.849	79.998	19.995	100.397	19.465	43.161	0.493
796.000	476.093	80.000	19.995	100.384	19.485	41.784	0.504
796.500	476.330	79.997	19.994	100.370	19.513	39.899	0.496
797.000	476.624	79.998	19.995	100.360	19.527	38.927	0.506
797.500	476.874	79.997	19.994	100.351	19.548	37.472	0.538
798.000	477.102	79.998	19.995	100.343	19.570	36.018	0.511
798.500	477.358	79.999	19.995	100.339	19.585	34.979	0.481
799.000	477.625	79.999	19.994	100.334	19.603	33.735	0.503
799.500	477.865	79.998	19.995	100.327	19.620	32.587	0.515
800.000	478.153	79.998	19.994	100.320	19.638	31.346	0.518
800.500	478.400	79.998	19.994	100.313	19.650	30.565	0.531
801.000	478.653	79.999	19.994	100.307	19.666	29.472	0.517
801.500	478.905	80.000	19.995	100.301	19.681	28.405	0.502
802.000	479.145	80.000	19.995	100.299	19.691	27.730	0.499
802.500	479.432	79.999	19.993	100.294	19.707	26.655	0.510
803.000	479.619	79.999	19.995	100.286	19.720	25.809	0.500
803.500	479.917	79.999	19.995	100.278	19.731	25.012	0.479
804.000	480.171	79.999	19.994	100.272	19.745	24.055	0.518
804.500	480.439	80.001	19.995	100.266	19.751	23.686	0.537
805.000	480.692	79.998	19.994	100.263	19.766	22.638	0.522
805.500	480.941	79.999	19.994	100.263	19.771	22.322	0.512
806.000	481.201	80.000	19.995	100.257	19.784	21.417	0.506
806.500	481.448	80.000	19.994	100.250	19.799	20.363	0.508
807.000	481.690	80.000	19.995	100.242	19.804	20.067	0.498
807.500	481.951	79.999	19.994	100.235	19.812	19.483	0.496
808.000	482.222	79.999	19.995	100.228	19.821	18.889	0.517
808.500	482.455	80.000	19.995	100.225	19.829	18.378	0.518
809.000	482.715	79.999	19.994	100.225	19.839	17.642	0.498
809.500	482.972	79.998	19.993	100.224	19.847	17.142	0.505
810.000	483.243	79.999	19.994	100.224	19.855	16.550	0.523
810.500	483.515	79.999	19.995	100.223	19.862	16.136	0.536
811.000	483.757	80.000	19.993	100.218	19.867	15.736	0.528
811.500	484.031	79.998	19.993	100.211	19.876	15.177	0.515
812.000	484.272	79.999	19.995	100.206	19.882	14.746	0.515
812.500	484.511	80.000	19.995	100.206	19.888	14.335	0.497
813.000	484.771	80.000	19.996	100.208	19.896	13.806	0.489
813.500	485.063	79.998	19.994	100.211	19.898	13.670	0.526
814.000	485.320	79.999	19.994	100.217	19.905	13.206	0.551
814.500	485.569	79.999	19.996	100.221	19.909	12.865	0.527
815.000	485.801	79.998	19.995	100.221	19.917	12.387	0.493
815.500	486.046	79.998	19.996	100.219	19.918	12.257	0.479
816.000	486.312	79.998	19.994	100.212	19.931	11.402	0.494
816.500	486.603	79.997	19.995	100.206	19.933	11.296	0.534
817.000	486.858	79.998	19.995	100.200	19.936	11.047	0.551
817.500	487.105	79.998	19.995	100.196	19.942	10.684	0.524
818.000	487.364	79.999	19.996	100.194	19.946	10.361	0.504
818.500	487.573	79.998	19.995	100.195	19.953	9.918	0.487
819.000	487.883	79.997	19.996	100.196	19.954	9.840	0.493
819.500	488.136	79.997	19.995	100.199	19.959	9.494	0.541
820.000	488.392	79.998	19.994	100.201	19.960	9.452	0.537
820.500	488.624	79.999	19.997	100.198	19.966	9.050	0.499
821.000	488.891	79.997	19.996	100.203	19.970	8.718	0.493
821.500	489.148	79.998	19.995	100.205	19.971	8.703	0.511
822.000	489.415	79.998	19.996	100.204	19.979	8.129	0.524
822.500	489.686	79.998	19.995	100.199	19.981	8.019	0.531
823.000	489.919	79.998	19.996	100.199	19.982	7.922	0.521
823.500	490.200	79.998	19.995	100.194	19.983	7.846	0.509
824.000	490.437	79.998	19.995	100.191	19.990	7.408	0.516
824.500	490.699	79.998	19.995	100.190	19.992	7.244	0.509
825.000	490.997	79.999	19.995	100.189	19.992	7.226	0.530
825.500	491.198	79.998	19.996	100.187	19.995	7.073	0.529
826.000	491.447	79.998	19.996	100.184	19.998	6.824	0.474
826.500	491.729	79.998	19.997	100.180	20.001	6.622	0.491
827.000	491.991	79.998	19.996	100.180	20.005	6.363	0.538
827.500	492.252	79.999	19.996	100.179	20.008	6.146	0.533
828.000	492.515	79.999	19.995	100.178	20.010	6.018	0.523
828.500	492.806	79.999	19.995	100.177	20.010	6.040	0.539
829.000	493.051	79.998	19.995	100.179	20.011	5.944	0.545
829.500	493.333	79.998	19.994	100.177	20.013	5.827	0.531
830.000	493.572	79.999	19.997	100.174	20.012	5.879	0.524
830.500	493.857	80.000	19.995	100.173	20.020	5.305	0.523
831.000	494.096	80.000	19.994	100.174	20.020	5.322	0.524
831.500	494.351	80.000	19.996	100.173	20.021	5.299	0.509
832.000	494.566	80.000	19.995	100.174	20.024	5.093	0.482
832.500	494.864	80.001	19.996	100.176	20.028	4.796	0.491
833.000	495.124	80.000	19.995	100.176	20.027	4.848	0.536
833.500	495.413	80.000	19.995	100.176	20.031	4.606	0.553
834.000	495.660	80.001	19.995	100.177	20.031	4.565	0.542
834.500	495.870	80.000	19.996	100.177	20.033	4.482	0.496
835.000	496.170	80.001	19.995	100.178	20.029	4.721	0.484
835.500	496.413	80.000	19.995	100.178	20.037	4.178	0.526
836.000	496.679	80.001	19.996	100.180	20.034	4.358	0.526
836.500	496.906	80.001	19.995	100.180	20.038	4.089	0.501
837.000	497.191	80.002	19.996	100.178	20.038	4.132	0.502
837.500	497.423	79.999	19.995	100.177	20.041	3.913	0.514
838.000	497.681	80.001	19.996	100.178	20.038	4.115	0.504
838.500	497.949	80.001	19.996	100.178	20.044	3.718	0.508
839.000	498.213	80.000	19.995	100.177	20.042	3.822	0.529
839.500	498.449	80.000	19.995	100.172	20.048	3.445	0.516
840.000	498.729	80.000	19.994	100.167	20.047	3.521	0.508
840.500	498.987	80.000	19.995	100.162	20.045	3.628	0.527
841.000	499.245	80.000	19.996	100.156	20.046	3.545	0.527
841.500	499.494	80.000	19.996	100.157	20.046	3.574	0.512
842.000	499.767	79.998	19.995	100.160	20.049	3.372	0.514
842.500	500.019	80.001	19.996	100.164	20.052	3.188	0.524
843.000	500.295	79.999	19.996	100.163	20.053	3.112	0.526
843.500	500.556	79.999	19.996	100.164	20.050	3.311	0.532
844.000	500.778	80.001	19.993	100.163	20.053	3.118	0.510
844.500	501.047	80.000	19.996	100.163	20.059	2.700	0.487
845.000	501.295	79.999	19.996	100.158	20.053	3.111	0.504
845.500	501.587	80.000	19.995	100.156	20.057	2.845	0.528
846.000	501.809	80.000	19.996	100.154	20.058	2.730	0.527
846.500	502.050	79.998	19.995	100.148	20.055	2.949	0.488
847.000	502.345	79.999	19.996	100.145	20.058	2.731	0.499
847.500	502.603	79.999	19.996	100.145	20.058	2.740	0.545
848.000	502.804	79.999	19.996	100.145	20.060	2.634	0.507
848.500	503.092	79.999	19.997	100.149	20.061	2.534	0.474
849.000	503.377	80.000	19.997	100.155	20.059	2.658	0.531
849.500	503.615	79.998	19.999	100.156	20.061	2.553	0.548
850.000	503.846	79.999	19.995	100.156	20.064	2.371	0.496
850.500	504.126	79.998	19.996	100.155	20.065	2.282	0.490
851.000	504.379	79.999	19.995	100.151	20.060	2.601	0.522
851.500	504.635	79.999	19.997	100.146	20.060	2.592	0.521
852.000	504.885	80.000	19.997	100.145	20.064	2.365	0.508
852.500	505.139	80.000	19.997	100.146	20.068	2.053	0.505
853.000	505.399	79.999	19.997	100.147	20.064	2.319	0.508
853.500	505.663	80.001	19.997	100.148	20.063	2.406	0.518
854.000	505.909	80.000	19.997	100.147	20.065	2.252	0.517
854.500	506.165	80.000	19.996	100.152	20.064	2.333	0.506
855.000	506.397	79.999	19.996	100.158	20.064	2.317	0.495
855.500	506.668	79.999	19.995	100.160	20.067	2.114	0.496
856.000	506.939	80.000	19.996	100.165	20.066	2.213	0.523
856.500	507.189	80.001	19.996	100.167	20.063	2.425	0.531
857.000	507.453	80.001	19.996	100.161	20.065	2.270	0.517
857.500	507.706	80.000	19.994	100.157	20.066	2.177	0.515
858.000	508.004	80.002	19.996	100.154	20.065	2.263	0.534
858.500	508.225	80.001	19.997	100.150	20.064	2.374	0.535
859.000	508.499	80.001	19.994	100.147	20.065	2.241	0.507
859.500	508.737	80.002	19.996	100.147	20.067	2.120	0.503
860.000	509.000	80.002	19.995	100.143	20.070	1.903	0.506
860.500	509.269	80.000	19.995	100.146	20.070	1.916	0.517
861.000	509.527	80.003	19.996	100.153	20.066	2.176	0.530
861.500	509.791	80.003	19.995	100.158	20.068	2.083	0.524
862.000	510.030	80.002	19.996	100.158	20.070	1.914	0.512
862.500	510.286	80.002	19.994	100.160	20.073	1.709	0.499
863.000	510.573	80.003	19.995	100.157	20.069	2.021	0.519
863.500	510.808	80.002	19.994	100.150	20.071	1.847	0.533
864.000	511.074	80.001	19.994	100.146	20.070	1.951	0.512
864.500	511.289	80.000	19.994	100.147	20.071	1.865	0.491
865.000	511.530	80.000	19.994	100.147	20.073	1.745	0.468
865.500	511.816	79.999	19.994	100.146	20.073	1.728	0.491
866.000	512.071	80.000	19.994	100.149	20.074	1.687	0.534
866.500	512.292	80.000	19.994	100.150	20.076	1.549	0.508
867.000	512.559	80.000	19.994	100.149	20.071	1.841	0.482
867.500	512.804	79.998	19.993	100.148	20.077	1.443	0.500
868.000	513.060	80.000	19.994	100.148	20.072	1.796	0.507
868.500	513.273	79.999	19.995	100.145	20.074	1.678	0.485
869.000	513.571	79.999	19.994	100.145	20.076	1.535	0.490
869.500	513.825	79.999	19.996	100.144	20.074	1.674	0.531
870.000	514.073	80.000	19.994	100.146	20.076	1.509	0.527
870.500	514.333	80.000	19.994	100.151	20.077	1.471	0.505
871.000	514.574	79.999	19.995	100.153	20.074	1.692	0.504
871.500	514.842	79.999	19.995	100.154	20.074	1.666	0.505
872.000	515.133	79.997	19.993	100.155	20.074	1.631	0.534
872.500	515.379	80.001	19.996	100.153	20.078	1.419	0.548
873.000	515.644	79.999	19.995	100.149	20.076	1.544	0.524
873.500	515.909	79.999	19.995	100.147	20.074	1.689	0.521
874.000	516.159	79.999	19.995	100.146	20.078	1.386	0.523
874.500	516.444	79.998	19.996	100.146	20.078	1.388	0.525
875.000	516.700	79.998	19.994	100.146	20.074	1.655	0.538
875.500	516.947	79.999	19.995	100.146	20.078	1.360	0.521
876.000	517.188	79.999	19.995	100.146	20.079	1.347	0.495
876.500	517.446	79.999	19.995	100.146	20.078	1.401	0.494
877.000	517.692	79.999	19.994	100.146	20.078	1.416	0.502
877.500	517.964	79.999	19.994	100.145	20.075	1.581	0.511
878.000	518.196	79.997	19.994	100.145	20.075	1.594	0.511
878.500	518.483	79.997	19.995	100.143	20.077	1.447	0.511
879.000	518.770	79.998	19.995	100.142	20.074	1.635	0.547
879.500	518.995	79.998	19.995	100.142	20.076	1.503	0.543
880.000	519.238	79.997	19.994	100.142	20.078	1.378	0.490
880.500	519.487	79.999	19.995	100.143	20.075	1.575	0.480
881.000	519.748	79.997	19.994	100.145	20.074	1.635	0.501
881.500	520.017	79.999	19.995	100.146	20.077	1.464	0.520
882.000	520.262	79.997	19.995	100.146	20.077	1.434	0.522
882.500	520.515	79.999	19.994	100.147	20.078	1.406	0.506
883.000	520.772	79.998	19.995	100.147	20.078	1.423	0.504
883.500	521.045	79.998	19.995	100.146	20.074	1.629	0.520
884.000	521.282	79.998	19.995	100.146	20.076	1.516	0.520
884.500	521.516	79.997	19.995	100.146	20.073	1.711	0.490
885.000	521.819	79.998	19.995	100.146	20.074	1.683	0.504
885.500	522.061	79.998	19.995	100.145	20.074	1.629	0.542
886.000	522.332	79.999	19.995	100.145	20.079	1.350	0.529
886.500	522.567	80.000	19.994	100.145	20.073	1.735	0.509
887.000	522.825	79.999	19.996	100.143	20.074	1.674	0.499
887.500	523.061	79.998	19.994	100.143	20.074	1.679	0.494
888.000	523.332	79.998	19.995	100.136	20.074	1.651	0.501
888.500	523.593	79.998	19.995	100.130	20.075	1.609	0.520
889.000	523.886	79.999	19.994	100.129	20.074	1.644	0.543
889.500	524.090	79.998	19.995	100.130	20.073	1.735	0.526
890.000	524.398	79.998	19.995	100.129	20.077	1.453	0.504
890.500	524.616	79.998	19.995	100.134	20.077	1.453	0.519
891.000	524.878	79.999	19.995	100.137	20.075	1.620	0.503
891.500	525.138	80.000	19.994	100.136	20.076	1.510	0.501
892.000	525.420	79.999	19.995	100.135	20.077	1.481	0.532
892.500	525.667	79.999	19.994	100.136	20.076	1.510	0.535
893.000	525.916	79.999	19.996	100.138	20.075	1.612	0.512
893.500	526.179	79.999	19.995	100.138	20.077	1.479	0.504
894.000	526.431	79.998	19.995	100.140	20.074	1.661	0.514
894.500	526.679	79.999	19.995	100.143	20.076	1.519	0.507
895.000	526.911	79.999	19.995	100.143	20.079	1.319	0.490
895.500	527.187	79.998	19.995	100.143	20.079	1.347	0.494
896.000	527.423	79.998	19.996	100.140	20.075	1.601	0.510
896.500	527.691	79.999	19.994	100.137	20.077	1.425	0.508
897.000	527.958	79.999	19.995	100.135	20.077	1.469	0.519
897.500	528.207	79.999	19.994	100.132	20.076	1.516	0.525
898.000	528.466	79.998	19.995	100.127	20.077	1.447	0.512
898.500	528.702	79.998	19.994	100.127	20.077	1.454	0.502
899.000	528.966	79.997	19.994	100.128	20.076	1.536	0.498
899.500	529.228	79.999	19.994	100.123	20.075	1.609	0.513
900.000	529.469	79.998	19.996	100.123	20.081	1.206	0.514
900.500	529.727	79.999	19.995	100.128	20.081	1.163	0.501
901.000	529.940	79.998	19.995	100.133	20.077	1.449	0.485
901.500	530.243	79.998	19.994	100.134	20.078	1.399	0.493
902.000	530.490	80.000	19.995	100.140	20.080	1.248	0.533
902.500	530.751	79.998	19.995	100.142	20.078	1.390	0.529
903.000	531.023	79.999	19.995	100.141	20.079	1.317	0.521
903.500	531.275	79.999	19.995	100.136	20.082	1.102	0.528
904.000	531.531	79.998	19.996	100.132	20.081	1.218	0.516
904.500	531.775	79.997	19.995	100.129	20.081	1.174	0.504
905.000	532.047	79.999	19.995	100.123	20.079	1.339	0.508
905.500	532.294	79.997	19.995	100.122	20.081	1.155	0.517
906.000	532.546	79.997	19.996	100.126	20.079	1.304	0.509
906.500	532.818	79.998	19.995	100.129	20.081	1.152	0.512
907.000	533.039	79.999	19.996	100.132	20.080	1.237	0.509
907.500	533.356	79.999	19.996	100.136	20.082	1.118	0.516
908.000	533.585	79.999	19.995	100.132	20.083	1.025	0.542
908.500	533.800	79.998	19.995	100.127	20.082	1.085	0.495
909.000	534.053	79.999	19.995	100.125	20.086	0.873	0.456
909.500	534.373	80.000	19.995	100.124	20.081	1.183	0.521
910.000	534.602	79.998	19.996	100.125	20.084	0.970	0.562
910.500	534.876	79.998	19.994	100.132	20.084	1.001	0.526
911.000	535.110	79.998	19.994	100.137	20.085	0.936	0.505
911.500	535.334	80.000	19.995	100.140	20.080	1.237	0.483
912.000	535.624	80.000	19.996	100.141	20.080	1.244	0.486
912.500	535.863	80.000	19.994	100.141	20.083	1.070	0.521
913.000	536.185	79.999	19.995	100.141	20.083	1.068	0.545
913.500	536.425	80.001	19.995	100.140	20.084	0.962	0.562
914.000	536.666	80.001	19.995	100.136	20.085	0.893	0.522
914.500	536.947	79.999	19.995	100.131	20.079	1.304	0.501
915.000	537.180	80.001	19.995	100.125	20.086	0.823	0.518
915.500	537.473	80.000	19.995	100.118	20.088	0.736	0.520
916.000	537.691	80.000	19.994	100.115	20.086	0.834	0.519
916.500	537.966	80.001	19.995	100.117	20.084	0.988	0.502
917.000	538.198	80.001	19.995	100.117	20.088	0.726	0.500
917.500	538.496	80.000	19.995	100.120	20.083	1.061	0.518
918.000	538.753	80.000	19.994	100.125	20.086	0.815	0.543
918.500	538.975	79.999	19.995	100.127	20.084	0.981	0.517
919.000	539.276	80.002	19.995	100.126	20.083	1.016	0.501
919.500	539.520	80.001	19.994	100.123	20.087	0.791	0.534
920.000	539.790	80.000	19.996	100.119	20.083	1.027	0.530
920.500	540.008	79.999	19.994	100.117	20.084	0.955	0.501
921.000	540.301	80.001	19.995	100.117	20.086	0.864	0.499
921.500	540.555	79.997	19.994	100.120	20.083	1.079	0.529
922.000	540.798	80.001	19.995	100.125	20.086	0.832	0.522
922.500	541.057	79.999	19.994	100.125	20.083	1.022	0.499
923.000	541.303	79.999	19.996	100.124	20.084	0.960	0.504
923.500	541.536	79.999	19.995	100.124	20.085	0.920	0.492
924.000	541.828	79.999	19.995	100.121	20.085	0.890	0.501
924.500	542.079	79.999	19.996	100.122	20.087	0.767	0.534
925.000	542.311	80.000	19.995	100.124	20.085	0.897	0.514
925.500	542.572	80.000	19.995	100.128	20.084	0.986	0.488
926.000	542.841	80.000	19.995	100.126	20.087	0.745	0.511
926.500	543.053	80.000	19.996	100.122	20.086	0.815	0.505
927.000	543.325	80.000	19.994	100.119	20.087	0.804	0.482
927.500	543.621	79.999	19.995	100.121	20.088	0.693	0.526
928.000	543.882	79.999	19.995	100.120	20.088	0.711	0.563
928.500	544.145	79.999	19.995	100.120	20.086	0.832	0.541
929.000	544.359	80.000	19.994	100.124	20.088	0.719	0.500
929.500	544.617	79.999	19.995	100.128	20.088	0.700	0.474
930.000	544.891	80.000	19.996	100.125	20.090	0.593	0.502
930.500	545.164	79.999	19.995	100.123	20.087	0.799	0.539
931.000	545.383	80.000	19.996	100.127	20.088	0.710	0.519
931.500	545.646	80.001	19.994	100.130	20.087	0.802	0.487
932.000	545.934	79.999	19.994	100.131	20.089	0.639	0.517
932.500	546.165	79.999	19.994	100.138	20.089	0.635	0.535
933.000	546.431	79.999	19.995	100.141	20.088	0.741	0.508
933.500	546.688	80.000	19.996	100.141	20.087	0.800	0.510
934.000	546.978	80.000	19.995	100.139	20.089	0.657	0.535
934.500	547.221	80.001	19.996	100.135	20.091	0.526	0.540
935.000	547.489	79.999	19.995	100.129	20.089	0.639	0.522
935.500	547.745	80.000	19.995	100.128	20.085	0.890	0.518
936.000	548.010	79.998	19.996	100.128	20.087	0.804	0.522
936.500	548.257	80.000	19.996	100.126	20.091	0.487	0.516
937.000	548.490	79.999	19.995	100.129	20.086	0.871	0.496
937.500	548.768	80.001	19.996	100.131	20.084	0.962	0.496
938.000	549.033	79.999	19.995	100.126	20.090	0.561	0.527
938.500	549.275	80.000	19.995	100.124	20.090	0.583	0.525
939.000	549.570	80.001	19.995	100.129	20.087	0.760	0.523
939.500	549.778	80.000	19.994	100.132	20.089	0.645	0.520
940.000	550.090	80.002	19.996	100.135	20.087	0.767	0.512
940.500	550.322	80.000	19.995	100.140	20.090	0.561	0.532
941.000	550.577	80.001	19.995	100.140	20.086	0.862	0.515
941.500	550.837	79.999	19.994	100.138	20.086	0.815	0.501
942.000	551.150	80.001	19.997	100.135	20.088	0.736	0.544
942.500	551.399	80.000	19.996	100.132	20.085	0.893	0.568
943.000	551.650	80.000	19.996	100.128	20.087	0.797	0.531
943.500	551.866	80.000	19.996	100.122	20.090	0.548	0.483
944.000	552.151	80.001	19.995	100.117	20.090	0.568	0.484
944.500	552.394	79.998	19.994	100.115	20.091	0.528	0.515
945.000	552.680	79.999	19.995	100.111	20.086	0.821	0.529
945.500	552.908	79.999	19.995	100.109	20.085	0.945	0.521
946.000	553.175	80.000	19.995	100.109	20.085	0.886	0.505
946.500	553.426	80.000	19.996	100.108	20.088	0.724	0.507
947.000	553.697	79.999	19.995	100.110	20.084	0.971	0.520
947.500	553.964	80.000	19.995	100.117	20.086	0.828	0.530
948.000	554.204	79.998	19.995	100.122	20.091	0.531	0.522
948.500	554.478	79.998	19.996	100.128	20.087	0.799	0.510
949.000	554.725	79.998	19.996	100.129	20.087	0.767	0.518
949.500	554.958	79.998	19.995	100.128	20.083	1.031	0.501
950.000	555.268	79.999	19.995	100.124	20.084	0.951	0.512
950.500	555.475	79.997	19.995	100.123	20.083	1.061	0.530
951.000	555.775	79.998	19.996	100.124	20.087	0.776	0.512
951.500	556.032	79.998	19.994	100.124	20.085	0.884	0.532
952.000	556.310	79.999	19.996	100.127	20.086	0.860	0.546
952.500	556.524	79.999	19.996	100.131	20.090	0.542	0.514
953.000	556.823	79.998	19.995	100.131	20.086	0.823	0.503
953.500	557.048	80.000	19.996	100.126	20.086	0.856	0.518
954.000	557.300	79.999	19.993	100.128	20.086	0.871	0.501
954.500	557.565	79.999	19.996	100.129	20.086	0.862	0.497
955.000	557.830	79.998	19.995	100.129	20.087	0.775	0.523
955.500	558.067	79.999	19.994	100.130	20.083	1.029	0.516
956.000	558.328	79.998	19.995	100.127	20.086	0.828	0.500
956.500	558.616	79.999	19.994	100.129	20.088	0.700	0.523
957.000	558.831	79.999	19.995	100.124	20.087	0.810	0.526
957.500	559.108	79.999	19.994	100.118	20.082	1.090	0.498
958.000	559.391	79.999	19.995	100.113	20.087	0.789	0.526
958.500	559.617	79.999	19.996	100.114	20.086	0.826	0.534
959.000	559.889	79.998	19.994	100.117	20.085	0.884	0.504
959.500	560.152	79.999	19.994	100.115	20.085	0.927	0.517
960.000	560.405	79.999	19.994	100.116	20.083	1.018	0.525
960.500	560.657	79.999	19.994	100.121	20.084	0.977	0.510
961.000	560.883	80.000	19.994	100.121	20.082	1.129	0.492
961.500	561.188	79.999	19.995	100.116	20.084	0.968	0.505
962.000	561.436	79.999	19.995	100.115	20.087	0.776	0.541
962.500	561.686	80.000	19.994	100.113	20.087	0.797	0.526
963.000	561.928	79.999	19.994	100.111	20.084	0.995	0.496
963.500	562.166	80.000	19.995	100.112	20.086	0.834	0.486
964.000	562.436	79.999	19.995	100.109	20.086	0.813	0.494
964.500	562.668	80.000	19.994	100.113	20.085	0.927	0.505
965.000	562.957	79.999	19.994	100.117	20.086	0.841	0.512
965.500	563.218	79.999	19.995	100.118	20.082	1.094	0.536
966.000	563.461	79.998	19.996	100.121	20.083	1.021	0.527
966.500	563.738	80.000	19.995	100.129	20.082	1.131	0.512
967.000	564.024	79.999	19.995	100.133	20.087	0.750	0.541
967.500	564.238	79.999	19.996	100.131	20.087	0.786	0.531
968.000	564.489	79.999	19.995	100.128	20.083	1.016	0.482
968.500	564.728	80.001	19.994	100.123	20.086	0.841	0.478
969.000	565.031	80.000	19.996	100.115	20.084	0.982	0.516
969.500	565.255	79.999	19.996	100.111	20.085	0.942	0.534
970.000	565.524	79.999	19.995	100.113	20.080	1.239	0.510
970.500	565.773	79.999	19.995	100.113	20.084	0.995	0.506
971.000	566.036	80.000	19.994	100.114	20.085	0.925	0.516
971.500	566.288	80.000	19.995	100.115	20.083	1.047	0.514
972.000	566.537	79.999	19.995	100.113	20.085	0.932	0.508
972.500	566.802	80.001	19.995	100.108	20.082	1.114	0.507
973.000	567.095	80.000	19.995	100.108	20.085	0.892	0.536
973.500	567.376	80.000	19.995	100.108	20.083	1.066	0.566
974.000	567.604	79.999	19.995	100.106	20.086	0.856	0.542
974.500	567.858	79.998	19.995	100.104	20.085	0.897	0.496
975.000	568.102	79.999	19.995	100.105	20.084	1.003	0.490
975.500	568.344	79.999	19.994	100.105	20.088	0.711	0.492
976.000	568.626	79.998	19.994	100.106	20.082	1.109	0.505
976.500	568.878	79.999	19.994	100.110	20.086	0.866	0.529
977.000	569.160	79.998	19.994	100.111	20.086	0.858	0.534
977.500	569.387	79.999	19.996	100.111	20.085	0.932	0.521
978.000	569.621	79.999	19.995	100.112	20.088	0.700	0.485
978.500	569.902	80.000	19.995	100.112	20.080	1.241	0.488
979.000	570.151	79.999	19.994	100.109	20.081	1.151	0.523
979.500	570.410	79.998	19.995	100.110	20.083	1.072	0.519
980.000	570.699	79.997	19.994	100.110	20.090	0.600	0.528
980.500	570.897	79.999	19.994	100.109	20.084	1.012	0.518
981.000	571.189	79.998	19.996	100.106	20.085	0.886	0.488
981.500	571.448	80.000	19.995	100.108	20.086	0.867	0.520
982.000	571.700	79.999	19.994	100.110	20.084	0.964	0.531
982.500	571.929	79.998	19.995	100.113	20.082	1.100	0.496
983.000	572.194	79.998	19.995	100.116	20.086	0.858	0.488
983.500	572.479	79.998	19.995	100.119	20.082	1.101	0.522
984.000	572.760	79.999	19.996	100.119	20.082	1.127	0.558
984.500	572.990	79.998	19.994	100.121	20.079	1.350	0.538
985.000	573.251	79.998	19.995	100.123	20.085	0.908	0.501
985.500	573.494	79.999	19.994	100.121	20.083	1.018	0.498
986.000	573.810	79.999	19.995	100.119	20.082	1.138	0.532
986.500	574.032	79.999	19.993	100.122	20.083	1.068	0.549
987.000	574.319	79.999	19.994	100.121	20.087	0.754	0.524
987.500	574.592	79.999	19.994	100.119	20.084	0.951	0.535
988.000	574.862	79.998	19.994	100.118	20.085	0.916	0.551
988.500	575.126	79.999	19.995	100.122	20.083	1.021	0.538
989.000	575.386	80.000	19.995	100.119	20.084	0.953	0.529
989.500	575.633	79.999	19.994	100.115	20.088	0.722	0.516
990.000	575.897	79.998	19.995	100.113	20.082	1.120	0.509
990.500	576.135	80.000	19.994	100.112	20.086	0.817	0.506
991.000	576.370	80.000	19.994	100.108	20.088	0.724	0.488
991.500	576.661	80.000	19.994	100.107	20.085	0.906	0.500
992.000	576.906	79.999	19.992	100.106	20.085	0.929	0.531
992.500	577.132	79.999	19.995	100.108	20.085	0.903	0.503
993.000	577.407	80.000	19.995	100.113	20.083	1.049	0.486
993.500	577.701	80.000	19.993	100.120	20.086	0.851	0.535
994.000	577.945	80.000	19.995	100.125	20.085	0.932	0.554
994.500	578.176	80.001	19.994	100.126	20.085	0.901	0.507
995.000	578.463	80.001	19.994	100.125	20.083	1.083	0.497
995.500	578.686	80.002	19.995	100.121	20.081	1.157	0.514
996.000	578.968	80.000	19.995	100.115	20.086	0.849	0.507
996.500	579.240	80.001	19.994	100.110	20.083	1.051	0.529
997.000	579.464	80.000	19.995	100.113	20.079	1.315	0.525
997.500	579.716	80.000	19.995	100.113	20.080	1.230	0.486
998.000	579.976	80.002	19.994	100.112	20.083	1.072	0.494
998.500	580.235	80.000	19.995	100.111	20.085	0.938	0.516
999.000	580.460	80.000	19.994	100.109	20.079	1.296	0.502
999.500	580.750	80.001	19.994	100.108	20.085	0.925	0.499
1000.000	580.994	79.999	19.994	100.112	20.082	1.113	0.524
1000.500	581.243	80.000	19.997	100.112	20.085	0.942	0.513
1001.000	581.515	80.000	19.995	100.113	20.076	1.497	0.508
1001.500	581.796	80.000	19.996	100.116	20.082	1.133	0.537
1002.000	582.064	80.001	19.994	100.116	20.077	1.473	0.551
1002.500	582.322	79.998	19.993	100.113	20.080	1.269	0.538
1003.000	582.566	79.999	19.994	100.113	20.079	1.317	0.514
1003.500	582.793	79.999	19.995	100.112	20.084	0.990	0.486
1004.000	583.086	79.999	19.996	100.109	20.081	1.181	0.495
1004.500	583.321	80.000	19.995	100.107	20.079	1.293	0.524
1005.000	583.611	80.001	19.995	100.106	20.077	1.430	0.527
1005.500	583.823	79.998	19.995	100.106	20.078	1.363	0.514
1006.000	584.109	79.999	19.995	100.106	20.083	1.066	0.500
1006.500	584.354	79.999	19.994	100.107	20.076	1.508	0.514
1007.000	584.626	79.998	19.996	100.108	20.084	0.966	0.524
1007.500	584.872	79.999	19.996	100.111	20.081	1.176	0.518
1008.000	585.138	79.998	19.995	100.113	20.079	1.324	0.515
1008.500	585.381	79.997	19.996	100.116	20.076	1.493	0.511
1009.000	585.655	79.998	19.996	100.121	20.081	1.216	0.513
1009.500	585.866	79.999	19.996	100.122	20.084	0.995	0.501
1010.000	586.147	79.999	19.995	100.119	20.078	1.421	0.488
1010.500	586.392	79.999	19.994	100.117	20.080	1.248	0.509
1011.000	586.626	79.999	19.995	100.116	20.081	1.185	0.502
1011.500	586.872	79.998	19.994	100.118	20.080	1.245	0.479
1012.000	587.111	79.999	19.995	100.120	20.081	1.176	0.482
1012.500	587.414	79.999	19.995	100.121	20.083	1.070	0.514
1013.000	587.695	80.000	19.994	100.123	20.078	1.378	0.563
1013.500	587.954	80.000	19.995	100.124	20.082	1.122	0.562
1014.000	588.177	79.999	19.993	100.122	20.080	1.237	0.511
1014.500	588.440	80.000	19.996	100.122	20.080	1.248	0.484
1015.000	588.733	80.000	19.995	100.125	20.084	0.962	0.521
1015.500	588.933	80.000	19.994	100.127	20.086	0.862	0.524
1016.000	589.193	80.000	19.994	100.126	20.084	1.014	0.477
1016.500	589.438	79.999	19.994	100.124	20.083	1.066	0.483
1017.000	589.723	80.002	19.994	100.121	20.082	1.124	0.517
1017.500	589.984	80.001	19.995	100.119	20.083	1.029	0.537
1018.000	590.245	80.001	19.995	100.114	20.084	1.014	0.534
1018.500	590.484	79.999	19.994	100.112	20.082	1.140	0.511
1019.000	590.747	80.002	19.994	100.107	20.086	0.839	0.501
1019.500	591.000	80.000	19.994	100.105	20.083	1.023	0.509
1020.000	591.242	80.002	19.997	100.103	20.084	0.986	0.506
1020.500	591.495	80.001	19.995	100.108	20.084	0.995	0.495
1021.000	591.757	80.003	19.996	100.114	20.080	1.255	0.505
1021.500	591.995	80.002	19.994	100.120	20.077	1.458	0.508
1022.000	592.302	80.001	19.995	100.127	20.081	1.200	0.522
1022.500	592.525	80.000	19.993	100.133	20.081	1.179	0.537
1023.000	592.797	80.001	19.994	100.133	20.085	0.931	0.512
1023.500	593.039	80.002	19.994	100.133	20.080	1.269	0.505
1024.001	593.309	80.001	19.995	100.131	20.076	1.551	0.513
1024.501	593.560	80.002	19.996	100.131	20.081	1.177	0.516
1025.001	593.847	80.000	19.995	100.129	20.078	1.372	0.530
1025.500	594.086	80.000	19.995	100.124	20.080	1.228	0.532
1026.000	594.350	80.000	19.996	100.119	20.081	1.175	0.515
1026.500	594.608	80.000	19.995	100.117	20.080	1.250	0.513
1027.000	594.867	80.001	19.996	100.110	20.075	1.603	0.520
1027.500	595.128	79.999	19.996	100.105	20.080	1.233	0.518
1028.000	595.370	79.999	19.996	100.104	20.078	1.358	0.511
1028.500	595.639	79.999	19.996	100.102	20.082	1.140	0.508
1029.000	595.939	79.999	19.996	100.100	20.081	1.161	0.540
1029.500	596.185	79.998	19.994	100.100	20.078	1.400	0.557
1030.000	596.462	79.998	19.995	100.100	20.077	1.449	0.534
1030.500	596.715	79.999	19.995	100.100	20.080	1.242	0.526
1031.000	596.969	79.999	19.996	100.104	20.078	1.415	0.518
1031.500	597.198	79.999	19.996	100.105	20.081	1.211	0.495
1032.000	597.457	79.998	19.996	100.110	20.078	1.389	0.485
1032.500	597.712	79.998	19.995	100.114	20.079	1.317	0.501
1033.000	597.940	79.998	19.996	100.120	20.082	1.138	0.499
1033.500	598.230	79.998	19.996	100.122	20.079	1.354	0.500
1034.000	598.454	79.998	19.996	100.124	20.079	1.333	0.516
1034.500	598.733	79.997	19.996	100.122	20.079	1.326	0.509
1035.000	598.980	79.997	19.996	100.119	20.078	1.356	0.514
1035.500	599.186	79.998	19.996	100.113	20.075	1.562	0.489
1036.000	599.460	79.999	19.996	100.108	20.075	1.578	0.466
1036.500	599.733	79.997	19.996	100.105	20.076	1.539	0.514
1037.000	599.988	79.997	19.996	100.102	20.072	1.809	0.538
1037.500	600.232	79.998	19.996	100.103	20.077	1.445	0.513
1038.000	600.492	79.999	19.996	100.103	20.079	1.326	0.502
1038.500	600.726	79.998	19.996	100.106	20.075	1.565	0.500
1039.000	601.027	80.000	19.996	100.113	20.078	1.385	0.514
1039.500	601.261	79.998	19.997	100.112	20.076	1.508	0.534
1040.000	601.527	79.999	19.997	100.110	20.082	1.114	0.517
1040.500	601.767	79.997	19.996	100.110	20.082	1.105	0.503
1041.000	602.038	79.998	19.995	100.109	20.076	1.491	0.509
1041.500	602.268	79.997	19.996	100.103	20.079	1.337	0.506
1042.000	602.528	79.998	19.995	100.104	20.078	1.369	0.495
1042.500	602.780	79.999	19.996	100.105	20.079	1.304	0.501
1043.000	603.026	79.999	19.995	100.105	20.080	1.231	0.505
1043.500	603.279	80.000	19.996	100.105	20.078	1.421	0.499
1044.000	603.572	79.999	19.994	100.106	20.074	1.662	0.523
1044.500	603.814	79.999	19.996	100.105	20.077	1.480	0.540
1045.000	604.060	79.999	19.995	100.105	20.075	1.599	0.511
1045.500	604.305	79.999	19.996	100.104	20.077	1.434	0.489
1046.000	604.559	79.999	19.994	100.104	20.077	1.424	0.495
1046.500	604.852	79.999	19.995	100.103	20.077	1.436	0.523
1047.000	605.094	79.999	19.995	100.103	20.077	1.426	0.541
1047.500	605.354	79.999	19.994	100.103	20.078	1.397	0.518
1048.001	605.635	79.999	19.995	100.103	20.079	1.295	0.521
1048.501	605.868	79.999	19.995	100.103	20.082	1.150	0.527
1049.000	606.125	79.998	19.995	100.104	20.081	1.157	0.502
1049.500	606.356	79.998	19.995	100.104	20.079	1.339	0.489
1050.000	606.607	79.999	19.995	100.103	20.079	1.330	0.485
1050.500	606.882	80.000	19.995	100.103	20.077	1.443	0.504
1051.000	607.101	80.000	19.995	100.103	20.080	1.272	0.510
1051.500	607.347	80.000	19.993	100.104	20.075	1.597	0.479
1052.000	607.622	79.999	19.993	100.104	20.077	1.447	0.493
1052.500	607.891	79.999	19.995	100.107	20.075	1.627	0.532
1053.000	608.168	79.999	19.993	100.109	20.081	1.172	0.545
1053.500	608.410	79.999	19.993	100.111	20.078	1.421	0.533
1054.000	608.664	80.000	19.996	100.111	20.080	1.270	0.508
1054.501	608.931	79.999	19.994	100.111	20.076	1.547	0.508
1055.001	609.180	79.999	19.995	100.110	20.081	1.209	0.519
1055.500	609.418	79.999	19.995	100.110	20.079	1.307	0.501
1056.000	609.709	80.000	19.995	100.108	20.081	1.218	0.507
1056.500	609.946	79.999	19.995	100.107	20.076	1.519	0.528
1057.000	610.198	80.000	19.995	100.107	20.079	1.339	0.509
1057.500	610.473	79.998	19.994	100.108	20.079	1.311	0.508
1058.000	610.714	79.998	19.995	100.110	20.083	1.021	0.522
1058.500	610.968	79.999	19.996	100.117	20.076	1.525	0.506
1059.000	611.229	79.997	19.994	100.124	20.079	1.326	0.505
1059.500	611.493	79.998	19.994	100.128	20.082	1.150	0.520
1060.000	611.747	79.998	19.996	100.127	20.079	1.317	0.521
1060.501	612.014	79.998	19.996	100.124	20.076	1.538	0.519
1061.001	612.222	79.998	19.994	100.117	20.079	1.322	0.498
1061.500	612.525	80.000	19.996	100.110	20.076	1.497	0.494
1062.000	612.763	79.997	19.995	100.106	20.078	1.389	0.526
1062.501	613.065	79.999	19.997	100.107	20.081	1.218	0.540
1063.001	613.305	79.999	19.995	100.112	20.082	1.131	0.541
1063.500	613.539	79.999	19.994	100.115	20.082	1.111	0.508
1064.000	613.805	80.000	19.996	100.116	20.080	1.229	0.487
1064.500	614.046	80.000	19.996	100.116	20.080	1.278	0.503
1065.000	614.340	79.998	19.995	100.115	20.079	1.293	0.521
1065.500	614.573	79.998	19.995	100.110	20.081	1.218	0.531
1066.001	614.806	79.998	19.995	100.107	20.076	1.530	0.497
1066.501	615.064	79.998	19.994	100.107	20.076	1.515	0.479
1067.000	615.315	79.998	19.995	100.106	20.074	1.629	0.500
1067.500	615.594	79.996	19.994	100.107	20.078	1.378	0.519
1068.000	615.844	79.999	19.994	100.108	20.076	1.514	0.529
1068.500	616.093	79.998	19.994	100.108	20.079	1.304	0.514
1069.000	616.363	79.998	19.994	100.107	20.082	1.086	0.509
1069.500	616.639	79.999	19.994	100.109	20.084	0.981	0.533
1070.000	616.898	79.999	19.995	100.108	20.082	1.118	0.540
1070.501	617.134	80.000	19.995	100.108	20.081	1.187	0.514
1071.001	617.385	80.001	19.994	100.107	20.081	1.166	0.491
1071.500	617.650	80.000	19.995	100.107	20.080	1.246	0.502
1072.000	617.919	79.999	19.995	100.109	20.079	1.332	0.525
1072.500	618.135	80.000	19.995	100.112	20.079	1.287	0.510
1073.000	618.420	80.000	19.994	100.115	20.081	1.170	0.493
1073.500	618.663	80.000	19.993	100.115	20.080	1.278	0.514
1074.000	618.901	80.001	19.993	100.116	20.082	1.088	0.504
1074.500	619.148	80.000	19.995	100.115	20.076	1.554	0.483
1075.000	619.422	80.000	19.994	100.112	20.079	1.341	0.503
1075.500	619.669	80.001	19.993	100.109	20.083	1.075	0.521
1076.000	619.925	80.000	19.994	100.109	20.080	1.237	0.512
1076.500	620.188	80.000	19.993	100.108	20.083	1.060	0.511
1077.000	620.430	80.001	19.995	100.107	20.079	1.302	0.512
1077.500	620.646	80.001	19.994	100.107	20.078	1.415	0.481
1078.000	620.911	80.002	19.994	100.110	20.075	1.565	0.469
1078.500	621.159	80.001	19.994	100.113	20.078	1.365	0.497
1079.000	621.419	80.002	19.994	100.115	20.077	1.486	0.511
1079.501	621.662	80.000	19.994	100.116	20.074	1.647	0.505
1080.001	621.910	79.999	19.993	100.114	20.077	1.482	0.497
1080.501	622.152	80.000	19.994	100.114	20.073	1.740	0.490
1081.000	622.416	80.000	19.994	100.115	20.078	1.383	0.498
1081.500	622.644	80.001	19.994	100.112	20.075	1.623	0.499
1082.000	622.919	80.000	19.994	100.111	20.078	1.369	0.498
1082.500	623.173	80.000	19.995	100.111	20.075	1.621	0.516
1083.000	623.446	79.999	19.995	100.107	20.074	1.643	0.528
1083.500	623.673	80.001	19.995	100.104	20.077	1.441	0.514
1084.000	623.962	79.998	19.994	100.104	20.074	1.645	0.508
1084.500	624.232	80.001	19.995	100.104	20.076	1.500	0.537
1085.000	624.460	80.001	19.995	100.105	20.074	1.694	0.528
1085.500	624.712	79.999	19.994	100.106	20.076	1.556	0.489
1086.000	624.960	80.000	19.996	100.106	20.076	1.552	0.490
1086.500	625.209	79.999	19.995	100.106	20.074	1.673	0.499
1087.000	625.462	80.001	19.995	100.107	20.074	1.634	0.499
1087.500	625.699	80.002	19.995	100.104	20.078	1.415	0.496
1088.000	625.943	79.999	19.994	100.102	20.076	1.547	0.486
1088.500	626.191	80.001	19.994	100.101	20.078	1.393	0.486
1089.000	626.430	80.001	19.995	100.100	20.075	1.565	0.489
1089.500	626.720	80.000	19.995	100.099	20.076	1.493	0.508
1090.000	626.982	79.999	19.993	100.100	20.078	1.389	0.541
1090.500	627.215	80.000	19.994	100.102	20.080	1.252	0.524
1091.000	627.465	80.000	19.995	100.103	20.075	1.604	0.489
1091.501	627.730	79.999	19.994	100.102	20.076	1.543	0.499
1092.001	627.962	80.000	19.995	100.102	20.080	1.272	0.506
1092.500	628.214	79.999	19.994	100.102	20.080	1.281	0.490
1093.000	628.450	80.000	19.995	100.102	20.078	1.385	0.486
1093.500	628.737	80.001	19.994	100.101	20.077	1.450	0.506
1094.000	628.976	80.000	19.995	100.101	20.077	1.488	0.525
1094.500	629.260	80.000	19.994	100.102	20.077	1.432	0.525
1095.000	629.510	79.999	19.993	100.102	20.081	1.202	0.528
1095.501	629.728	79.999	19.995	100.102	20.079	1.306	0.501
1096.001	629.988	80.002	19.997	100.102	20.079	1.291	0.473
1096.500	630.193	79.999	19.995	100.102	20.074	1.671	0.472
1097.000	630.504	80.002	19.996	100.104	20.080	1.267	0.490
1097.500	630.726	80.001	19.995	100.103	20.075	1.575	0.524
1098.000	630.963	80.000	19.995	100.103	20.080	1.270	0.496
1098.500	631.211	80.001	19.995	100.104	20.083	1.060	0.472
1099.000	631.458	80.000	19.995	100.105	20.085	0.917	0.490
1099.500	631.758	80.001	19.996	100.103	20.080	1.244	0.521
1100.000	632.000	80.002	19.995	100.103	20.078	1.361	0.544
1100.500	632.250	80.001	19.994	100.103	20.081	1.170	0.517
1101.000	632.522	80.001	19.995	100.105	20.080	1.220	0.507
1101.500	632.760	80.003	19.996	100.103	20.079	1.330	0.516
1102.000	633.028	80.001	19.995	100.103	20.078	1.380	0.508
1102.500	633.280	80.002	19.995	100.104	20.078	1.399	0.513
1103.000	633.546	80.002	19.994	100.105	20.079	1.332	0.519
1103.500	633.804	80.000	19.995	100.105	20.084	0.964	0.520
1104.000	634.069	80.001	19.994	100.105	20.086	0.852	0.524
1104.500	634.338	80.001	19.995	100.105	20.085	0.942	0.529
1105.000	634.602	80.001	19.994	100.105	20.078	1.385	0.533
1105.500	634.864	80.001	19.996	100.105	20.082	1.105	0.529
1106.000	635.111	80.002	19.995	100.103	20.083	1.018	0.518
1106.501	635.354	80.000	19.994	100.103	20.081	1.189	0.499
1107.001	635.642	80.001	19.995	100.104	20.081	1.203	0.510
1107.500	635.923	80.002	19.995	100.103	20.081	1.203	0.551
1108.000	636.159	80.000	19.994	100.104	20.087	0.791	0.543
1108.500	636.403	80.000	19.995	100.106	20.079	1.343	0.498
1109.000	636.638	80.000	19.995	100.106	20.084	1.010	0.479
1109.500	636.905	79.999	19.994	100.109	20.081	1.181	0.490
1110.000	637.146	79.999	19.995	100.110	20.081	1.202	0.506
1110.501	637.405	79.997	19.994	100.111	20.082	1.148	0.504
1111.001	637.681	79.998	19.995	100.107	20.077	1.449	0.518
1111.500	637.920	79.999	19.995	100.113	20.080	1.237	0.525
1112.000	638.144	79.998	19.995	100.112	20.081	1.200	0.488
1112.500	638.445	79.998	19.995	100.115	20.083	1.020	0.494
1113.000	638.667	79.999	19.996	100.118	20.078	1.374	0.524
1113.500	638.959	79.999	19.996	100.121	20.085	0.904	0.519
1114.000	639.157	79.999	19.995	100.117	20.084	0.979	0.502
1114.500	639.399	79.998	19.996	100.118	20.081	1.196	0.465
1115.000	639.687	79.999	19.996	100.115	20.085	0.910	0.485
1115.500	639.935	79.999	19.995	100.110	20.083	1.034	0.533
1116.000	640.189	79.997	19.995	100.108	20.077	1.471	0.519
1116.500	640.424	79.997	19.995	100.107	20.085	0.942	0.495
1117.000	640.722	79.999	19.995	100.105	20.080	1.280	0.511
1117.500	640.936	79.999	19.995	100.105	20.080	1.280	0.523
1118.000	641.226	79.998	19.997	100.105	20.083	1.038	0.508
1118.500	641.479	79.998	19.996	100.105	20.085	0.945	0.524
1119.000	641.731	79.995	19.995	100.105	20.084	1.010	0.524
1119.500	641.949	79.999	19.996	100.105	20.084	0.999	0.487
1120.000	642.214	79.999	19.995	100.105	20.082	1.092	0.477
1120.500	642.461	79.999	19.997	100.108	20.088	0.737	0.497
1121.000	642.723	79.997	19.996	100.109	20.085	0.938	0.510
1121.500	642.974	79.999	19.996	100.109	20.084	0.995	0.511
1122.000	643.218	79.997	19.997	100.114	20.087	0.787	0.505
1122.500	643.466	79.998	19.996	100.117	20.082	1.111	0.493
1123.000	643.748	79.999	19.997	100.115	20.086	0.839	0.510
1123.500	643.996	79.999	19.996	100.114	20.080	1.267	0.530
1124.000	644.244	79.998	19.997	100.113	20.087	0.763	0.513
1124.500	644.463	79.998	19.997	100.107	20.083	1.070	0.481
1125.000	644.710	79.999	19.996	100.105	20.084	0.956	0.466
1125.500	644.980	79.997	19.996	100.105	20.080	1.270	0.492
1126.000	645.204	80.001	19.997	100.105	20.087	0.795	0.506
1126.500	645.467	80.000	19.996	100.106	20.085	0.912	0.490
1127.000	645.699	79.998	19.995	100.106	20.081	1.161	0.490
1127.500	645.952	80.000	19.997	100.109	20.085	0.916	0.490
1128.000	646.241	79.998	19.995	100.109	20.084	1.012	0.514
1128.500	646.466	79.999	19.996	100.109	20.081	1.183	0.528
1129.000	646.731	79.999	19.996	100.110	20.086	0.867	0.502
1129.500	646.985	79.999	19.996	100.111	20.087	0.763	0.504
1130.000	647.198	79.998	19.995	100.107	20.088	0.715	0.493
1130.500	647.475	79.998	19.995	100.105	20.084	0.947	0.478
1131.000	647.740	79.999	19.996	100.103	20.084	0.994	0.516
1131.500	647.988	80.001	19.996	100.102	20.081	1.155	0.528
1132.001	648.243	80.000	19.996	100.102	20.081	1.174	0.508
1132.501	648.529	80.000	19.997	100.102	20.078	1.383	0.522
1133.000	648.753	80.000	19.994	100.103	20.083	1.068	0.525
1133.500	649.019	79.998	19.995	100.105	20.081	1.159	0.499
1134.000	649.274	79.999	19.994	100.106	20.082	1.118	0.505
1134.500	649.545	79.999	19.994	100.106	20.082	1.096	0.524
1135.000	649.797	80.000	19.995	100.106	20.083	1.047	0.524
1135.500	650.042	79.999	19.996	100.105	20.087	0.773	0.510
1136.000	650.281	79.999	19.994	100.103	20.084	0.956	0.491
1136.500	650.539	79.999	19.995	100.103	20.079	1.326	0.491
1137.000	650.822	79.999	19.995	100.104	20.081	1.166	0.519
1137.500	651.042	79.999	19.995	100.105	20.084	0.990	0.522
1138.000	651.326	79.999	19.995	100.106	20.088	0.715	0.503
1138.500	651.545	80.000	19.994	100.107	20.085	0.908	0.503
1139.000	651.810	80.000	19.995	100.107	20.082	1.105	0.493
1139.500	652.057	79.998	19.995	100.107	20.084	0.979	0.498
1140.000	652.310	79.999	19.995	100.107	20.079	1.309	0.506
1140.500	652.560	79.997	19.995	100.107	20.078	1.402	0.502
1141.000	652.796	80.000	19.994	100.107	20.080	1.246	0.495
1141.500	653.074	79.999	19.995	100.106	20.080	1.224	0.500
1142.000	653.317	79.998	19.995	100.106	20.082	1.129	0.518
1142.500	653.539	79.999	19.995	100.104	20.082	1.086	0.493
1143.000	653.805	80.000	19.994	100.103	20.081	1.157	0.476
1143.500	654.080	80.000	19.995	100.103	20.081	1.198	0.514
1144.000	654.333	79.999	19.996	100.104	20.083	1.062	0.535
1144.500	654.581	80.000	19.995	100.104	20.082	1.135	0.515
1145.000	654.832	80.000	19.996	100.106	20.078	1.385	0.500
1145.500	655.087	79.999	19.995	100.106	20.083	1.038	0.502
1146.001	655.323	80.000	19.996	100.106	20.081	1.203	0.498
1146.501	655.608	79.998	19.995	100.105	20.080	1.267	0.506
1147.000	655.857	79.999	19.995	100.104	20.079	1.322	0.528
1147.500	656.125	79.998	19.996	100.105	20.083	1.066	0.526
1148.000	656.371	80.000	19.996	100.108	20.085	0.897	0.516
1148.500	656.630	80.000	19.995	100.109	20.076	1.504	0.509
1149.000	656.903	79.999	19.996	100.110	20.083	1.059	0.518
1149.500	657.127	80.002	19.997	100.111	20.083	1.016	0.515
1150.000	657.400	80.000	19.995	100.110	20.077	1.488	0.497
1150.500	657.623	79.999	19.995	100.107	20.085	0.945	0.496
1151.000	657.880	80.000	19.994	100.106	20.082	1.148	0.488
1151.500	658.148	80.000	19.996	100.105	20.083	1.036	0.502
1152.000	658.429	80.000	19.994	100.104	20.083	1.038	0.537
1152.500	658.667	80.000	19.995	100.103	20.086	0.871	0.534
1153.000	658.896	80.000	19.995	100.103	20.088	0.719	0.493
1153.500	659.194	79.999	19.994	100.104	20.083	1.034	0.497
1154.000	659.400	80.001	19.996	100.103	20.078	1.383	0.515
1154.500	659.628	80.001	19.993	100.103	20.078	1.365	0.469
1155.000	659.908	80.001	19.994	100.102	20.084	0.967	0.471
1155.500	660.186	80.002	19.996	100.101	20.080	1.244	0.533
1156.000	660.401	80.002	19.996	100.100	20.082	1.127	0.525
1156.500	660.633	80.000	19.995	100.101	20.077	1.480	0.470
1157.000	660.893	80.001	19.995	100.102	20.084	1.014	0.470
1157.500	661.165	80.000	19.994	100.103	20.085	0.921	0.512
1158.000	661.417	80.001	19.995	100.107	20.082	1.131	0.528
1158.500	661.706	80.001	19.996	100.106	20.087	0.758	0.532
1159.000	661.948	80.001	19.996	100.105	20.087	0.780	0.536
1159.500	662.175	80.000	19.996	100.105	20.082	1.109	0.500
1160.000	662.426	80.000	19.996	100.106	20.085	0.912	0.474
1160.501	662.696	79.999	19.995	100.103	20.086	0.823	0.499
1161.001	662.934	79.999	19.994	100.105	20.084	0.971	0.514
1161.501	663.213	80.000	19.995	100.108	20.079	1.307	0.513
1162.000	663.476	80.001	19.996	100.111	20.086	0.813	0.530
1162.500	663.701	80.000	19.996	100.109	20.085	0.893	0.515
1163.000	663.987	80.001	19.995	100.109	20.086	0.877	0.499
1163.500	664.234	80.000	19.996	100.108	20.082	1.118	0.522
1164.000	664.497	80.001	19.995	100.105	20.085	0.921	0.521
1164.500	664.726	80.000	19.996	100.100	20.082	1.090	0.501
1165.000	664.999	80.000	19.995	100.100	20.084	0.977	0.497
1165.500	665.249	80.001	19.994	100.100	20.088	0.713	0.513
1166.000	665.502	80.002	19.996	100.100	20.088	0.706	0.513
1166.500	665.782	80.001	19.995	100.100	20.089	0.650	0.518
1167.000	666.032	80.000	19.996	100.102	20.090	0.572	0.532
1167.500	666.307	80.000	19.996	100.103	20.086	0.834	0.527
1168.000	666.575	80.000	19.995	100.103	20.086	0.841	0.534
1168.500	666.746	80.001	19.994	100.103	20.085	0.921	0.491
1169.000	667.023	80.001	19.995	100.103	20.082	1.085	0.444
1169.500	667.280	80.000	19.995	100.103	20.088	0.708	0.491
1170.001	667.565	80.001	19.994	100.103	20.085	0.934	0.538
1170.501	667.800	80.000	19.993	100.103	20.086	0.841	0.531
1171.000	668.075	80.001	19.995	100.106	20.089	0.656	0.515
1171.500	668.323	80.000	19.994	100.107	20.088	0.722	0.517
1172.000	668.582	80.000	19.994	100.108	20.088	0.741	0.515
1172.500	668.831	80.001	19.996	100.108	20.089	0.622	0.507
1173.000	669.097	80.002	19.995	100.114	20.084	0.966	0.511
1173.500	669.347	80.000	19.994	100.112	20.088	0.682	0.516
1174.000	669.618	80.001	19.994	100.112	20.080	1.252	0.519
1174.500	669.900	80.003	19.995	100.111	20.085	0.943	0.537
1175.000	670.136	80.002	19.995	100.111	20.086	0.838	0.535
1175.500	670.401	80.002	19.993	100.105	20.087	0.797	0.509
1176.000	670.641	80.002	19.994	100.104	20.083	1.077	0.503
1176.500	670.915	80.002	19.994	100.102	20.086	0.871	0.510
1177.000	671.194	80.001	19.994	100.104	20.082	1.114	0.534
1177.500	671.426	80.001	19.994	100.104	20.087	0.787	0.532
1178.000	671.657	80.002	19.994	100.107	20.078	1.382	0.487
1178.501	671.912	80.001	19.993	100.108	20.084	0.999	0.475
1179.001	672.152	80.001	19.994	100.108	20.081	1.200	0.490
1179.500	672.451	80.002	19.995	100.106	20.086	0.839	0.517
1180.001	672.729	80.002	19.994	100.109	20.078	1.369	0.558
1180.501	672.985	80.003	19.995	100.109	20.091	0.522	0.555
1181.000	673.212	80.003	19.994	100.109	20.084	1.012	0.508
1181.500	673.455	80.002	19.995	100.109	20.083	1.062	0.477
1182.000	673.731	80.002	19.995	100.109	20.086	0.865	0.495
1182.500	673.987	80.001	19.994	100.108	20.090	0.589	0.525
1183.000	674.219	80.003	19.995	100.105	20.083	1.055	0.510
1183.500	674.494	80.003	19.995	100.105	20.088	0.709	0.497
1184.000	674.760	80.001	19.994	100.105	20.082	1.120	0.524
1184.500	675.044	80.002	19.995	100.105	20.086	0.828	0.545
1185.000	675.283	80.004	19.996	100.104	20.082	1.098	0.537
1185.500	675.533	80.002	19.995	100.106	20.088	0.706	0.506
1186.000	675.813	80.000	19.993	100.109	20.087	0.786	0.510
1186.500	676.039	80.004	19.998	100.110	20.084	1.010	0.518
1187.000	676.297	80.001	19.995	100.111	20.083	1.044	0.495
1187.500	676.571	80.002	19.996	100.112	20.087	0.810	0.508
1188.000	676.815	79.999	19.994	100.110	20.083	1.033	0.525
1188.500	677.073	80.000	19.994	100.108	20.085	0.919	0.510
1189.000	677.365	80.001	19.995	100.108	20.089	0.639	0.526
1189.500	677.585	80.000	19.996	100.108	20.091	0.511	0.531
1190.000	677.862	79.999	19.996	100.108	20.091	0.483	0.504
1190.500	678.123	80.000	19.995	100.108	20.088	0.730	0.517
1191.000	678.334	79.999	19.994	100.108	20.093	0.390	0.505
1191.500	678.615	80.000	19.996	100.110	20.088	0.695	0.482
1192.000	678.893	80.000	19.995	100.109	20.085	0.934	0.525
1192.500	679.150	79.998	19.995	100.110	20.085	0.938	0.547
1193.000	679.362	79.999	19.994	100.112	20.087	0.763	0.502
1193.500	679.614	79.999	19.996	100.111	20.091	0.490	0.466
1194.000	679.896	79.997	19.994	100.108	20.090	0.604	0.499
1194.500	680.142	80.000	19.995	100.107	20.083	1.036	0.531
1195.000	680.374	79.999	19.994	100.106	20.082	1.090	0.503
1195.500	680.635	80.000	19.995	100.104	20.092	0.433	0.486
1196.000	680.890	79.997	19.995	100.105	20.086	0.828	0.504
1196.500	681.169	79.999	19.995	100.106	20.088	0.702	0.524
1197.000	681.394	79.998	19.994	100.107	20.085	0.891	0.519
1197.500	681.654	80.000	19.995	100.108	20.082	1.146	0.495
1198.000	681.945	79.999	19.996	100.109	20.088	0.682	0.518
1198.500	682.170	79.999	19.996	100.107	20.085	0.925	0.533
1199.000	682.426	79.998	19.993	100.107	20.084	0.984	0.498
1199.500	682.639	79.999	19.996	100.107	20.083	1.049	0.475
1200.000	682.896	79.999	19.996	100.107	20.088	0.722	0.470
1200.500	683.199	79.999	19.995	100.106	20.093	0.362	0.515
1201.000	683.453	79.998	19.994	100.109	20.083	1.016	0.558
1201.500	683.690	79.999	19.995	100.110	20.087	0.793	0.524
1202.000	683.956	80.000	19.995	100.110	20.082	1.127	0.498
1202.500	684.157	79.999	19.995	100.110	20.083	1.073	0.485
1203.000	684.481	79.998	19.995	100.110	20.089	0.644	0.496
1203.500	684.722	80.000	19.996	100.109	20.085	0.904	0.545
1204.000	684.986	80.000	19.995	100.110	20.088	0.696	0.535
1204.500	685.184	80.001	19.995	100.110	20.087	0.763	0.483
1205.000	685.478	80.001	19.996	100.110	20.085	0.938	0.477
1205.500	685.764	80.001	19.995	100.110	20.090	0.561	0.536
1206.000	685.968	80.001	19.993	100.109	20.087	0.797	0.535
1206.501	686.239	80.000	19.995	100.107	20.089	0.669	0.482
1207.001	686.493	79.999	19.994	100.106	20.087	0.754	0.500
1207.500	686.750	79.999	19.995	100.106	20.092	0.446	0.518
1208.001	686.989	79.999	19.995	100.106	20.091	0.513	0.504
1208.501	687.230	80.000	19.995	100.107	20.089	0.672	0.488
1209.000	687.479	80.001	19.994	100.107	20.088	0.676	0.485
1209.501	687.719	80.001	19.995	100.108	20.086	0.830	0.489
1210.001	688.013	80.000	19.995	100.107	20.088	0.734	0.511
1210.500	688.253	80.001	19.997	100.107	20.092	0.442	0.534
1211.000	688.496	79.999	19.995	100.105	20.086	0.865	0.509
1211.500	688.796	79.999	19.995	100.104	20.092	0.416	0.514
1212.000	688.979	80.000	19.996	100.103	20.089	0.665	0.513
1212.500	689.223	79.999	19.997	100.102	20.089	0.654	0.455
1213.000	689.512	79.999	19.996	100.103	20.087	0.797	0.480
1213.500	689.764	80.000	19.996	100.105	20.088	0.704	0.537
1214.000	690.029	79.999	19.996	100.106	20.091	0.518	0.529
1214.500	690.299	80.000	19.995	100.107	20.089	0.652	0.526
1215.000	690.516	80.000	19.995	100.107	20.090	0.594	0.511
1215.500	690.761	80.000	19.996	100.104	20.090	0.561	0.474
1216.000	691.032	80.001	19.996	100.103	20.090	0.578	0.488
1216.500	691.294	79.999	19.995	100.102	20.087	0.747	0.524
1217.000	691.553	80.000	19.997	100.103	20.085	0.936	0.527
1217.500	691.805	79.998	19.995	100.103	20.078	1.363	0.516
1218.000	692.045	80.000	19.997	100.103	20.087	0.795	0.501
1218.500	692.310	79.997	19.994	100.103	20.089	0.661	0.498
1219.000	692.552	79.999	19.996	100.103	20.086	0.834	0.506
1219.500	692.844	79.999	19.998	100.101	20.086	0.826	0.520
1220.000	693.074	79.999	19.996	100.101	20.087	0.747	0.528
1220.500	693.321	79.999	19.996	100.101	20.082	1.090	0.500
1221.000	693.575	80.000	19.997	100.102	20.084	0.994	0.489
1221.500	693.846	79.999	19.997	100.102	20.086	0.821	0.512
1222.000	694.080	79.999	19.996	100.103	20.089	0.641	0.515
1222.500	694.379	79.999	19.996	100.103	20.086	0.851	0.519
1223.000	694.579	79.999	19.996	100.105	20.086	0.847	0.516
1223.500	694.856	79.998	19.997	100.106	20.086	0.832	0.487
1224.000	695.104	79.999	19.996	100.106	20.085	0.901	0.501
1224.500	695.371	79.999	19.996	100.106	20.091	0.498	0.520
1225.000	695.630	79.999	19.994	100.107	20.090	0.604	0.521
1225.500	695.918	79.999	19.996	100.104	20.086	0.860	0.537
1226.000	696.163	79.999	19.996	100.104	20.087	0.784	0.540
1226.500	696.403	80.000	19.994	100.104	20.085	0.930	0.509
1227.000	696.682	80.000	19.995	100.103	20.088	0.676	0.502
1227.500	696.913	80.001	19.996	100.103	20.086	0.815	0.514
1228.000	697.175	79.999	19.995	100.103	20.083	1.033	0.501
1228.500	697.483	80.000	19.996	100.103	20.083	1.073	0.532
1229.000	697.695	79.999	19.995	100.104	20.090	0.559	0.545
1229.500	697.950	80.000	19.994	100.107	20.084	1.005	0.494
1230.000	698.192	80.001	19.997	100.107	20.085	0.930	0.482
1230.500	698.422	80.000	19.994	100.108	20.090	0.579	0.484
1231.000	698.696	80.000	19.995	100.108	20.089	0.620	0.488
1231.500	698.955	79.998	19.994	100.107	20.089	0.650	0.518
1232.000	699.240	80.002	19.995	100.104	20.083	1.064	0.538
1232.500	699.457	80.002	19.997	100.103	20.091	0.487	0.523
1233.000	699.679	80.002	19.996	100.104	20.090	0.592	0.470
1233.500	699.935	80.001	19.997	100.104	20.090	0.566	0.458
1234.000	700.227	80.001	19.995	100.104	20.086	0.862	0.513
1234.500	700.452	80.000	19.995	100.104	20.093	0.396	0.533
1235.000	700.736	80.000	19.995	100.105	20.084	1.001	0.513
1235.500	701.031	80.001	19.995	100.104	20.088	0.732	0.544
1236.000	701.249	80.002	19.996	100.104	20.091	0.507	0.546
1236.500	701.497	80.003	19.997	100.104	20.087	0.784	0.489
1237.000	701.744	80.002	19.995	100.104	20.087	0.771	0.480
1237.500	702.008	80.002	19.995	100.104	20.087	0.747	0.503
1238.000	702.239	80.001	19.994	100.104	20.085	0.945	0.503
1238.500	702.499	80.003	19.995	100.106	20.083	1.018	0.494
1239.000	702.769	80.001	19.994	100.108	20.090	0.561	0.511
1239.500	703.018	80.002	19.994	100.108	20.090	0.542	0.524
1240.000	703.249	80.001	19.995	100.107	20.085	0.940	0.499
1240.500	703.533	80.001	19.994	100.107	20.089	0.631	0.497
1241.000	703.770	80.001	19.995	100.106	20.082	1.092	0.518
1241.500	704.059	80.000	19.995	100.108	20.088	0.713	0.523
1242.000	704.309	80.001	19.994	100.108	20.087	0.748	0.532
1242.500	704.586	79.999	19.994	100.108	20.089	0.659	0.533
1243.000	704.830	80.002	19.996	100.108	20.086	0.864	0.524
1243.500	705.098	80.000	19.993	100.107	20.088	0.676	0.517
1244.000	705.333	80.000	19.995	100.104	20.083	1.055	0.507
1244.500	705.620	79.999	19.995	100.103	20.083	1.033	0.513
1245.000	705.853	80.000	19.995	100.104	20.081	1.153	0.521
1245.500	706.108	79.999	19.994	100.105	20.087	0.747	0.504
1246.000	706.356	80.000	19.995	100.105	20.085	0.904	0.495
1246.500	706.608	80.001	19.995	100.105	20.084	0.984	0.501
1247.000	706.847	79.999	19.996	100.109	20.086	0.854	0.495
1247.500	707.079	80.000	19.995	100.113	20.094	0.332	0.481
1248.000	707.353	79.998	19.994	100.118	20.089	0.652	0.489
1248.500	707.625	79.999	19.995	100.120	20.087	0.784	0.526
1249.000	707.890	80.001	19.996	100.120	20.085	0.897	0.541
1249.500	708.120	80.002	19.995	100.117	20.086	0.877	0.516
1250.000	708.394	80.002	19.995	100.111	20.081	1.185	0.500
1250.501	708.664	80.001	19.994	100.106	20.089	0.630	0.524
1251.001	708.904	80.000	19.994	100.105	20.090	0.557	0.527
1251.500	709.152	80.000	19.994	100.105	20.090	0.602	0.499
1252.000	709.437	79.999	19.993	100.105	20.086	0.867	0.510
1252.500	709.627	79.999	19.995	100.106	20.084	0.958	0.504
1253.000	709.932	80.001	19.994	100.108	20.087	0.797	0.485
1253.500	710.145	80.001	19.994	100.108	20.081	1.166	0.507
1254.000	710.404	80.002	19.995	100.109	20.083	1.042	0.495
1254.500	710.664	80.000	19.994	100.109	20.086	0.877	0.495
1255.000	710.882	80.001	19.995	100.110	20.080	1.259	0.499
1255.500	711.170	80.002	19.994	100.108	20.081	1.157	0.492
1256.000	711.427	80.002	19.994	100.107	20.085	0.927	0.525
1256.500	711.652	80.001	19.994	100.106	20.085	0.910	0.513
1257.000	711.919	80.001	19.995	100.106	20.086	0.845	0.487
1257.500	712.139	80.001	19.994	100.106	20.079	1.328	0.490
1258.000	712.421	80.001	19.995	100.106	20.087	0.754	0.494
1258.500	712.667	80.001	19.994	100.106	20.079	1.326	0.515
1259.000	712.929	80.003	19.993	100.107	20.084	0.970	0.518
1259.500	713.134	80.002	19.994	100.107	20.090	0.598	0.487
1260.000	713.419	80.002	19.995	100.107	20.086	0.851	0.478
1260.500	713.669	80.002	19.994	100.105	20.083	1.047	0.513
1261.000	713.902	80.002	19.993	100.105	20.087	0.795	0.510
1261.500	714.157	80.003	19.995	100.105	20.086	0.852	0.486
1262.000	714.382	80.001	19.994	100.105	20.089	0.656	0.484
1262.500	714.702	80.001	19.994	100.105	20.088	0.735	0.512
1263.000	714.929	80.003	19.995	100.105	20.087	0.767	0.546
1263.500	715.165	80.000	19.993	100.108	20.089	0.631	0.505
1264.000	715.457	80.001	19.993	100.111	20.085	0.914	0.496
1264.500	715.722	80.001	19.994	100.110	20.079	1.335	0.542
1265.000	715.965	80.001	19.994	100.112	20.083	1.046	0.532
1265.500	716.250	80.002	19.995	100.113	20.085	0.919	0.518
1266.000	716.496	79.999	19.993	100.112	20.084	0.956	0.529
1266.500	716.721	80.000	19.992	100.111	20.090	0.550	0.501
1267.000	716.981	80.001	19.994	100.112	20.085	0.912	0.478
1267.500	717.192	80.000	19.993	100.113	20.087	0.760	0.478
1268.000	717.431	80.002	19.994	100.115	20.083	1.027	0.460
1268.500	717.697	80.001	19.994	100.117	20.088	0.721	0.478
1269.000	717.938	80.000	19.994	100.121	20.091	0.511	0.506
1269.500	718.277	79.998	19.993	100.121	20.085	0.945	0.544
1270.000	718.488	80.001	19.996	100.118	20.085	0.929	0.565
1270.500	718.742	79.998	19.995	100.116	20.086	0.849	0.507
1271.000	718.977	79.999	19.994	100.112	20.087	0.784	0.477
1271.500	719.242	80.000	19.994	100.107	20.086	0.845	0.494
1272.000	719.466	79.999	19.996	100.106	20.081	1.159	0.494
1272.500	719.755	79.999	19.994	100.106	20.086	0.812	0.501
1273.000	720.011	80.000	19.995	100.105	20.087	0.800	0.529
1273.500	720.275	80.000	19.996	100.106	20.087	0.791	0.532
1274.000	720.512	79.999	19.995	100.106	20.089	0.650	0.510
1274.500	720.742	79.998	19.995	100.108	20.088	0.706	0.485
1275.000	720.999	79.999	19.995	100.112	20.087	0.810	0.477
1275.500	721.230	79.999	19.995	100.112	20.092	0.407	0.487
1276.000	721.484	79.999	19.996	100.111	20.082	1.086	0.487
1276.500	721.772	80.000	19.994	100.111	20.090	0.581	0.514
1277.000	722.010	79.999	19.995	100.108	20.085	0.934	0.534
1277.500	722.270	79.999	19.996	100.104	20.087	0.773	0.512
1278.000	722.505	80.000	19.996	100.104	20.085	0.917	0.496
1278.500	722.759	79.999	19.996	100.105	20.089	0.637	0.492
1279.000	722.985	80.000	19.994	100.105	20.085	0.921	0.484
1279.500	723.268	80.000	19.997	100.106	20.089	0.622	0.494
1280.000	723.516	79.999	19.995	100.109	20.083	1.042	0.520
1280.500	723.752	80.000	19.998	100.107	20.086	0.852	0.507
1281.000	724.024	79.999	19.996	100.106	20.087	0.793	0.496
1281.500	724.278	79.997	19.993	100.107	20.086	0.852	0.518
1282.000	724.525	79.998	19.996	100.106	20.082	1.088	0.513
1282.500	724.796	80.000	19.995	100.104	20.081	1.183	0.509
1283.000	725.034	80.000	19.997	100.110	20.086	0.869	0.514
1283.500	725.305	80.001	19.995	100.111	20.086	0.826	0.509
1284.000	725.548	80.000	19.994	100.111	20.089	0.669	0.511
1284.500	725.803	79.997	19.994	100.111	20.087	0.782	0.506
1285.000	726.090	80.000	19.994	100.112	20.086	0.845	0.520
1285.500	726.350	79.999	19.995	100.108	20.086	0.854	0.545
1286.000	726.592	79.999	19.995	100.107	20.091	0.526	0.525
1286.500	726.810	80.000	19.996	100.106	20.083	1.021	0.481
1287.000	727.034	80.001	19.996	100.107	20.091	0.527	0.451
1287.500	727.368	80.000	19.995	100.106	20.086	0.878	0.500
1288.000	727.593	80.001	19.996	100.110	20.087	0.765	0.558
1288.501	727.823	79.999	19.996	100.113	20.090	0.565	0.507
1289.001	728.087	80.000	19.997	100.115	20.085	0.923	0.475
1289.501	728.341	80.000	19.996	100.115	20.085	0.917	0.506
1290.000	728.608	79.999	19.996	100.113	20.083	1.033	0.519
1290.500	728.863	80.001	19.997	100.109	20.087	0.771	0.522
1291.000	729.131	80.000	19.995	100.108	20.086	0.832	0.523
1291.500	729.358	80.002	19.996	100.107	20.086	0.817	0.509
1292.001	729.639	80.001	19.995	100.106	20.092	0.462	0.501
1292.501	729.893	80.003	19.995	100.105	20.088	0.728	0.521
1293.000	730.125	80.000	19.995	100.104	20.084	0.973	0.511
1293.500	730.395	80.000	19.996	100.102	20.086	0.832	0.494
1294.000	730.614	80.000	19.995	100.102	20.087	0.750	0.496
1294.500	730.869	80.000	19.997	100.104	20.083	1.051	0.482
1295.000	731.163	79.999	19.995	100.104	20.088	0.687	0.511
1295.500	731.410	79.998	19.994	100.104	20.091	0.527	0.545
1296.000	731.654	79.999	19.994	100.108	20.089	0.646	0.516
1296.500	731.939	79.998	19.995	100.110	20.087	0.773	0.510
1297.000	732.172	79.999	19.996	100.109	20.091	0.500	0.523
1297.500	732.438	79.998	19.993	100.109	20.089	0.646	0.509
1298.000	732.689	80.000	19.996	100.108	20.086	0.856	0.508
1298.500	732.906	79.998	19.994	100.107	20.088	0.732	0.492
1299.000	733.183	79.998	19.995	100.104	20.086	0.812	0.481
1299.500	733.442	79.999	19.995	100.105	20.085	0.897	0.515
1300.000	733.672	79.998	19.997	100.105	20.093	0.399	0.513
1300.500	733.931	79.998	19.995	100.107	20.088	0.709	0.489
1301.000	734.174	79.998	19.996	100.106	20.091	0.505	0.495
1301.500	734.466	79.998	19.996	100.110	20.092	0.403	0.518
1302.001	734.708	79.996	19.996	100.109	20.089	0.643	0.535
1302.501	734.961	80.000	19.997	100.113	20.093	0.399	0.515
1303.000	735.208	79.997	19.996	100.112	20.089	0.620	0.497
1303.500	735.458	79.998	19.996	100.111	20.092	0.433	0.498
1304.000	735.684	79.998	19.996	100.107	20.088	0.741	0.486
1304.500	735.958	79.998	19.996	100.107	20.088	0.687	0.488
1305.000	736.232	79.998	19.996	100.103	20.089	0.637	0.524
1305.500	736.492	79.998	19.996	100.104	20.087	0.750	0.541
1306.000	736.756	79.998	19.996	100.104	20.089	0.615	0.529
1306.500	736.997	79.998	19.996	100.104	20.087	0.750	0.515
1307.000	737.216	79.998	19.996	100.105	20.088	0.698	0.482
1307.500	737.475	79.998	19.996	100.106	20.086	0.832	0.469
1308.000	737.732	79.997	19.996	100.106	20.086	0.828	0.497
1308.500	737.967	79.999	19.997	100.107	20.086	0.873	0.504
1309.000	738.285	79.997	19.995	100.106	20.091	0.483	0.523
1309.500	738.516	79.999	19.996	100.106	20.094	0.329	0.551
1310.001	738.759	79.999	19.996	100.107	20.088	0.722	0.512
1310.501	739.052	80.000	19.996	100.108	20.088	0.739	0.505
1311.001	739.271	79.998	19.995	100.109	20.091	0.529	0.523
1311.501	739.529	79.998	19.995	100.110	20.086	0.821	0.494
1312.000	739.764	79.999	19.995	100.109	20.084	0.960	0.485
1312.500	740.022	79.999	19.996	100.106	20.087	0.795	0.494
1313.000	740.286	79.999	19.995	100.107	20.084	1.008	0.508
1313.500	740.558	80.000	19.995	100.105	20.087	0.773	0.529
1314.000	740.772	80.001	19.996	100.106	20.084	0.984	0.510
1314.500	741.062	80.001	19.996	100.106	20.090	0.581	0.495
1315.000	741.310	79.999	19.995	100.111	20.085	0.904	0.521
1315.500	741.577	80.000	19.995	100.114	20.088	0.724	0.527
1316.000	741.808	79.998	19.994	100.121	20.086	0.825	0.507
1316.501	742.059	79.998	19.994	100.122	20.087	0.761	0.490
1317.001	742.322	79.999	19.995	100.122	20.085	0.943	0.498
1317.500	742.598	79.999	19.995	100.117	20.083	1.036	0.526
1318.000	742.804	80.001	19.995	100.112	20.090	0.596	0.510
1318.500	743.064	80.002	19.993	100.108	20.086	0.819	0.475
1319.000	743.298	80.000	19.995	100.107	20.086	0.843	0.481
1319.500	743.566	79.999	19.994	100.107	20.085	0.888	0.498
