Sample ID:	C:\MCC\MCC Cal\Test\PETG_MCC_30K_min_210927_R1.txt
Sample Weight (mg):	4.56
Heating Rate (C/s):	0.5
Combustor Temp (C):	900
N2 Flow Rate (cc/min):	80
O2 Flow Rate (cc/min):	20
Calibration File:	C:\MCC\MCC Cal\Coeff1 JN10440_30_210304.txt.txt
T Correction Coefficients:	0	1.024463	0
Time Shift (s):	14
*
Time (s)	Temperature (C)	N2 flow rate (cc/min)	O2 flow rate (cc/min)	Flow Rate (cc/min)	Oxygen (%)	HRR (W/g)	Heating rate (C/s)
0.000	108.561	79.996	19.994	100.064	20.128	0.159	0.007
0.500	108.587	79.999	19.996	100.064	20.130	0.056	-0.009
1.000	108.543	79.997	19.997	100.066	20.129	0.092	-0.011
1.500	108.555	79.997	19.996	100.066	20.130	0.050	-0.025
2.000	108.601	79.998	19.996	100.066	20.133	-0.189	0.013
2.500	108.564	79.997	19.996	100.066	20.132	-0.133	0.033
3.000	108.570	79.998	19.996	100.066	20.130	0.049	-0.011
3.500	108.596	79.998	19.995	100.065	20.129	0.114	0.000
4.000	108.554	79.997	19.995	100.065	20.129	0.080	0.008
4.500	108.581	79.998	19.994	100.065	20.131	-0.043	-0.015
5.000	108.610	79.996	19.996	100.065	20.130	0.015	0.021
5.500	108.582	79.999	19.996	100.066	20.131	-0.034	0.029
6.000	108.551	79.998	19.995	100.067	20.128	0.178	-0.029
6.500	108.553	79.998	19.996	100.065	20.130	0.049	-0.044
7.000	108.575	79.998	19.996	100.065	20.130	0.036	-0.003
7.500	108.548	79.999	19.996	100.064	20.130	0.021	0.010
8.000	108.588	79.999	19.996	100.064	20.131	-0.015	0.004
8.500	108.517	79.999	19.996	100.065	20.131	-0.004	-0.009
9.000	108.563	79.999	19.996	100.066	20.131	-0.002	-0.028
9.500	108.528	79.998	19.994	100.068	20.130	0.022	-0.007
10.000	108.543	79.997	19.995	100.068	20.131	-0.015	-0.005
10.500	108.535	79.999	19.995	100.069	20.130	0.050	-0.007
11.000	108.514	79.998	19.996	100.068	20.128	0.189	-0.011
11.500	108.543	79.998	19.995	100.070	20.130	0.015	-0.010
12.000	108.545	79.998	19.995	100.074	20.128	0.176	0.019
12.500	108.525	79.998	19.995	100.078	20.130	0.017	0.006
13.000	108.495	79.997	19.995	100.081	20.128	0.157	-0.034
13.501	108.530	79.998	19.995	100.088	20.127	0.243	-0.022
14.001	108.554	79.998	19.994	100.095	20.128	0.189	0.031
14.500	108.547	79.998	19.995	100.097	20.127	0.256	0.037
15.001	108.523	79.999	19.994	100.099	20.127	0.268	-0.007
15.501	108.544	79.998	19.995	100.107	20.125	0.384	-0.016
16.000	108.553	79.997	19.995	100.116	20.124	0.462	0.014
16.500	108.557	79.998	19.995	100.124	20.124	0.427	0.021
17.000	108.593	79.999	19.994	100.127	20.126	0.313	0.026
17.500	108.583	79.998	19.995	100.132	20.123	0.530	0.033
18.000	108.601	79.998	19.994	100.137	20.121	0.653	0.017
18.500	108.600	79.998	19.995	100.138	20.122	0.580	0.013
19.000	108.632	79.999	19.995	100.138	20.121	0.625	0.024
19.500	108.671	79.997	19.995	100.142	20.121	0.681	0.051
20.000	108.673	79.999	19.994	100.145	20.119	0.807	0.056
20.500	108.627	79.998	19.995	100.145	20.118	0.833	-0.001
21.000	108.707	79.999	19.995	100.148	20.118	0.865	-0.005
21.500	108.729	79.999	19.995	100.154	20.114	1.136	0.068
22.000	108.788	79.999	19.994	100.162	20.113	1.179	0.091
22.500	108.752	79.999	19.994	100.170	20.113	1.172	0.052
23.000	108.813	79.998	19.995	100.177	20.112	1.290	0.024
23.500	108.867	79.999	19.994	100.184	20.112	1.288	0.070
24.000	108.876	79.998	19.993	100.191	20.114	1.146	0.089
24.500	108.925	79.998	19.994	100.195	20.114	1.164	0.060
25.000	108.961	79.999	19.995	100.197	20.111	1.333	0.072
25.500	109.000	79.998	19.995	100.205	20.113	1.213	0.080
26.000	109.033	79.998	19.995	100.210	20.108	1.580	0.073
26.500	109.073	79.998	19.995	100.211	20.108	1.573	0.072
27.000	109.092	79.998	19.995	100.216	20.109	1.464	0.066
27.500	109.111	79.999	19.995	100.221	20.108	1.578	0.049
28.000	109.223	79.997	19.995	100.221	20.106	1.708	0.085
28.500	109.233	79.998	19.995	100.221	20.107	1.627	0.127
29.000	109.308	79.999	19.995	100.222	20.103	1.873	0.103
29.500	109.318	79.999	19.995	100.223	20.104	1.796	0.084
30.000	109.425	79.998	19.995	100.230	20.100	2.088	0.101
30.500	109.442	79.997	19.996	100.239	20.101	2.017	0.121
31.000	109.514	80.000	19.995	100.247	20.101	2.049	0.106
31.500	109.560	79.999	19.995	100.254	20.099	2.137	0.104
32.000	109.622	79.999	19.995	100.261	20.103	1.920	0.113
32.500	109.671	80.000	19.995	100.261	20.102	1.983	0.110
33.001	109.745	79.998	19.995	100.259	20.100	2.129	0.117
33.501	109.817	79.999	19.996	100.257	20.097	2.289	0.134
34.000	109.872	79.999	19.996	100.256	20.098	2.216	0.136
34.500	109.951	80.000	19.996	100.256	20.095	2.412	0.131
35.000	110.019	80.001	19.996	100.256	20.098	2.212	0.141
35.500	110.081	79.999	19.995	100.259	20.097	2.289	0.138
36.000	110.143	79.999	19.996	100.262	20.097	2.326	0.127
36.500	110.228	80.000	19.996	100.264	20.096	2.390	0.135
37.000	110.286	80.000	19.995	100.264	20.095	2.433	0.145
37.500	110.351	80.000	19.995	100.269	20.093	2.564	0.133
38.001	110.470	79.999	19.996	100.272	20.091	2.684	0.153
38.501	110.543	80.000	19.995	100.272	20.093	2.570	0.188
39.000	110.636	80.000	19.994	100.274	20.093	2.553	0.179
39.500	110.734	79.999	19.996	100.279	20.093	2.553	0.179
40.000	110.811	80.001	19.995	100.281	20.091	2.684	0.183
40.500	110.893	80.001	19.997	100.284	20.092	2.673	0.167
41.000	110.967	80.001	19.996	100.290	20.091	2.709	0.158
41.500	111.096	80.000	19.996	100.296	20.093	2.604	0.179
42.000	111.178	80.000	19.995	100.298	20.090	2.815	0.207
42.500	111.253	80.000	19.995	100.298	20.090	2.787	0.184
43.000	111.348	79.999	19.996	100.298	20.090	2.771	0.163
43.500	111.493	79.999	19.996	100.297	20.087	2.960	0.205
44.000	111.578	80.000	19.996	100.297	20.086	3.057	0.236
44.501	111.717	79.999	19.995	100.297	20.089	2.861	0.227
45.001	111.807	79.999	19.995	100.300	20.089	2.830	0.226
45.500	111.924	79.999	19.996	100.301	20.088	2.918	0.218
46.000	112.066	79.999	19.995	100.303	20.084	3.175	0.233
46.500	112.175	80.000	19.996	100.303	20.086	3.051	0.255
47.000	112.254	80.000	19.996	100.304	20.085	3.117	0.220
47.500	112.382	80.000	19.996	100.304	20.087	3.014	0.197
48.000	112.513	79.999	19.996	100.304	20.085	3.108	0.233
48.500	112.676	79.998	19.995	100.303	20.086	3.074	0.277
49.000	112.775	80.000	19.995	100.304	20.087	2.954	0.279
49.500	112.899	79.998	19.996	100.306	20.085	3.104	0.243
50.000	113.018	79.999	19.995	100.306	20.085	3.104	0.233
50.500	113.165	79.998	19.996	100.307	20.085	3.124	0.254
51.000	113.327	79.998	19.995	100.311	20.086	3.038	0.288
51.500	113.454	79.999	19.995	100.313	20.083	3.257	0.299
52.000	113.559	79.998	19.995	100.315	20.084	3.210	0.260
52.500	113.715	79.999	19.995	100.315	20.089	2.858	0.246
53.000	113.845	80.000	19.995	100.315	20.086	3.068	0.273
53.500	114.011	79.999	19.995	100.316	20.086	3.027	0.291
54.000	114.155	80.000	19.995	100.319	20.086	3.023	0.304
54.500	114.327	79.999	19.996	100.319	20.088	2.922	0.313
55.001	114.504	79.999	19.996	100.319	20.085	3.111	0.332
55.501	114.617	79.999	19.995	100.320	20.086	3.083	0.319
56.000	114.763	79.999	19.995	100.317	20.086	3.085	0.274
56.500	114.890	80.000	19.996	100.311	20.085	3.156	0.266
57.000	115.070	80.000	19.995	100.308	20.085	3.119	0.291
57.500	115.249	79.999	19.995	100.309	20.086	3.064	0.333
58.000	115.379	80.000	19.995	100.308	20.087	3.021	0.333
58.500	115.526	79.999	19.995	100.309	20.087	3.016	0.293
59.000	115.667	80.000	19.995	100.314	20.085	3.094	0.283
59.500	115.859	79.999	19.996	100.319	20.088	2.899	0.311
60.000	116.013	79.999	19.996	100.321	20.082	3.300	0.339
60.500	116.202	79.999	19.995	100.321	20.084	3.173	0.344
61.000	116.343	79.999	19.995	100.319	20.086	3.047	0.337
61.500	116.516	79.999	19.994	100.310	20.083	3.231	0.322
62.000	116.679	80.000	19.995	100.303	20.085	3.107	0.325
62.500	116.866	80.000	19.995	100.299	20.085	3.149	0.343
63.000	117.023	80.000	19.996	100.298	20.085	3.113	0.347
63.500	117.200	80.000	19.995	100.300	20.085	3.097	0.339
64.000	117.368	80.000	19.995	100.304	20.082	3.342	0.340
64.500	117.552	80.000	19.995	100.306	20.082	3.353	0.349
65.000	117.713	79.999	19.995	100.307	20.083	3.263	0.348
65.500	117.854	80.000	19.996	100.307	20.086	3.085	0.323
66.000	118.037	80.000	19.996	100.306	20.086	3.038	0.313
66.500	118.243	80.000	19.996	100.305	20.086	3.044	0.356
67.000	118.408	79.999	19.996	100.305	20.086	3.050	0.380
67.500	118.595	79.999	19.996	100.307	20.086	3.084	0.362
68.000	118.750	80.000	19.996	100.309	20.083	3.267	0.347
68.500	118.920	80.000	19.997	100.309	20.085	3.112	0.333
69.000	119.128	79.999	19.995	100.308	20.084	3.174	0.352
69.500	119.292	79.999	19.996	100.308	20.086	3.067	0.375
70.000	119.501	79.998	19.996	100.305	20.088	2.938	0.372
70.500	119.652	79.997	19.996	100.303	20.087	3.020	0.366
71.000	119.845	79.999	19.997	100.303	20.087	3.016	0.352
71.500	120.024	80.000	19.997	100.303	20.084	3.191	0.358
72.000	120.240	79.999	19.996	100.304	20.080	3.453	0.384
72.500	120.408	80.000	19.997	100.308	20.084	3.187	0.390
73.000	120.560	79.997	19.995	100.310	20.088	2.947	0.352
73.500	120.788	79.998	19.996	100.314	20.082	3.364	0.349
74.000	120.969	79.999	19.996	100.315	20.085	3.113	0.394
74.500	121.161	79.998	19.996	100.318	20.083	3.265	0.391
75.000	121.392	79.998	19.995	100.317	20.081	3.379	0.398
75.500	121.581	79.999	19.995	100.314	20.083	3.235	0.422
76.000	121.761	79.999	19.996	100.313	20.083	3.231	0.395
76.500	121.956	79.999	19.996	100.317	20.085	3.104	0.372
77.000	122.169	79.998	19.997	100.318	20.086	3.042	0.392
77.500	122.319	79.999	19.995	100.320	20.082	3.334	0.386
78.000	122.561	79.998	19.995	100.326	20.087	2.975	0.378
78.501	122.731	79.999	19.995	100.328	20.086	3.042	0.402
79.001	122.963	79.999	19.995	100.331	20.083	3.248	0.407
79.500	123.176	79.998	19.995	100.330	20.086	3.025	0.423
80.000	123.370	79.998	19.996	100.327	20.086	3.044	0.426
80.500	123.564	80.000	19.994	100.328	20.085	3.119	0.398
81.000	123.780	79.999	19.995	100.328	20.087	2.999	0.399
81.500	123.998	79.997	19.995	100.330	20.084	3.190	0.421
82.001	124.168	79.998	19.994	100.331	20.085	3.106	0.411
82.501	124.426	79.999	19.995	100.333	20.080	3.477	0.409
83.000	124.640	79.999	19.994	100.330	20.081	3.372	0.450
83.500	124.799	79.999	19.995	100.326	20.083	3.295	0.422
84.000	125.033	79.999	19.995	100.324	20.085	3.145	0.383
84.500	125.267	79.997	19.995	100.321	20.082	3.351	0.431
85.000	125.443	79.999	19.996	100.322	20.082	3.308	0.439
85.500	125.674	79.999	19.995	100.320	20.083	3.295	0.408
86.000	125.896	79.998	19.994	100.319	20.081	3.406	0.430
86.500	126.100	80.000	19.994	100.319	20.080	3.501	0.439
87.000	126.336	79.999	19.996	100.318	20.082	3.310	0.432
87.500	126.540	79.999	19.995	100.315	20.081	3.379	0.440
88.000	126.752	79.999	19.995	100.316	20.083	3.278	0.428
88.500	126.949	79.999	19.995	100.316	20.081	3.375	0.413
89.000	127.189	79.999	19.995	100.316	20.082	3.323	0.423
89.500	127.402	79.999	19.995	100.318	20.081	3.420	0.445
90.000	127.571	79.999	19.995	100.317	20.083	3.280	0.417
90.500	127.841	79.999	19.995	100.320	20.083	3.291	0.410
91.000	128.076	79.998	19.995	100.322	20.080	3.486	0.472
91.500	128.296	79.999	19.995	100.322	20.081	3.402	0.480
92.000	128.493	79.999	19.995	100.323	20.080	3.469	0.436
92.500	128.715	79.998	19.995	100.326	20.081	3.385	0.418
93.000	128.959	79.999	19.995	100.321	20.081	3.434	0.443
93.500	129.178	79.998	19.995	100.320	20.080	3.437	0.465
94.000	129.422	79.999	19.996	100.321	20.081	3.374	0.463
94.500	129.675	79.998	19.994	100.319	20.080	3.477	0.480
95.000	129.868	79.999	19.996	100.316	20.082	3.349	0.471
95.500	130.080	79.998	19.994	100.315	20.081	3.385	0.425
96.000	130.314	79.997	19.994	100.317	20.082	3.336	0.425
96.500	130.528	79.999	19.995	100.316	20.085	3.122	0.447
97.000	130.769	79.999	19.994	100.317	20.083	3.295	0.452
97.500	130.957	79.998	19.995	100.316	20.083	3.287	0.442
98.000	131.199	79.999	19.995	100.316	20.081	3.420	0.429
98.500	131.410	79.998	19.995	100.311	20.083	3.283	0.442
99.000	131.653	79.998	19.995	100.308	20.084	3.216	0.454
99.500	131.854	79.998	19.995	100.309	20.084	3.203	0.449
100.000	132.094	79.998	19.995	100.313	20.086	3.055	0.442
100.500	132.343	79.999	19.995	100.313	20.079	3.529	0.465
101.000	132.595	79.997	19.995	100.314	20.080	3.435	0.495
101.500	132.816	79.998	19.996	100.313	20.084	3.160	0.487
102.000	133.039	79.998	19.996	100.311	20.082	3.299	0.459
102.500	133.276	79.998	19.996	100.311	20.081	3.368	0.452
103.000	133.534	79.997	19.995	100.312	20.080	3.465	0.477
103.500	133.743	79.998	19.995	100.312	20.081	3.368	0.481
104.000	134.009	80.000	19.995	100.315	20.081	3.381	0.471
104.500	134.235	79.998	19.994	100.314	20.082	3.325	0.484
105.000	134.473	79.998	19.996	100.313	20.082	3.340	0.478
105.500	134.712	79.997	19.995	100.312	20.082	3.334	0.470
106.000	134.927	79.998	19.996	100.312	20.079	3.542	0.465
106.500	135.211	79.998	19.994	100.308	20.082	3.342	0.477
107.000	135.444	79.997	19.995	100.307	20.079	3.503	0.508
107.500	135.651	79.998	19.994	100.305	20.078	3.591	0.478
108.000	135.904	80.000	19.995	100.305	20.078	3.613	0.450
108.500	136.152	79.998	19.994	100.303	20.080	3.444	0.481
109.000	136.384	79.998	19.995	100.303	20.080	3.501	0.491
109.500	136.610	79.997	19.995	100.306	20.078	3.637	0.469
110.000	136.900	79.998	19.995	100.310	20.078	3.630	0.487
110.500	137.144	79.999	19.995	100.312	20.081	3.403	0.525
111.000	137.376	79.999	19.994	100.313	20.080	3.484	0.505
111.501	137.576	79.998	19.995	100.314	20.077	3.660	0.454
112.001	137.857	79.999	19.994	100.312	20.081	3.392	0.457
112.500	138.095	79.999	19.996	100.308	20.080	3.476	0.501
113.000	138.342	79.999	19.996	100.309	20.079	3.559	0.502
113.501	138.601	80.000	19.995	100.310	20.078	3.593	0.495
114.001	138.808	80.000	19.995	100.309	20.080	3.473	0.486
114.500	139.038	79.998	19.994	100.311	20.079	3.559	0.452
115.000	139.321	79.999	19.995	100.311	20.082	3.308	0.475
115.500	139.576	79.999	19.995	100.309	20.080	3.478	0.525
116.000	139.829	79.999	19.995	100.308	20.080	3.454	0.523
116.500	140.058	79.999	19.995	100.309	20.081	3.373	0.495
117.000	140.313	79.999	19.993	100.309	20.082	3.343	0.483
117.500	140.577	80.000	19.996	100.309	20.084	3.162	0.501
118.000	140.802	79.999	19.996	100.309	20.082	3.351	0.504
118.500	141.031	80.000	19.996	100.307	20.079	3.508	0.471
119.000	141.310	80.000	19.995	100.306	20.082	3.336	0.481
119.500	141.595	79.998	19.994	100.305	20.079	3.529	0.536
120.000	141.796	80.000	19.994	100.304	20.080	3.439	0.525
120.500	142.010	79.998	19.995	100.303	20.081	3.422	0.450
121.000	142.257	79.999	19.995	100.303	20.082	3.343	0.438
121.500	142.538	79.999	19.994	100.303	20.083	3.276	0.494
122.000	142.810	80.000	19.995	100.303	20.081	3.416	0.540
122.500	143.046	79.999	19.994	100.303	20.081	3.392	0.531
123.000	143.288	79.998	19.994	100.305	20.080	3.459	0.494
123.500	143.519	79.999	19.996	100.307	20.085	3.158	0.476
124.000	143.765	80.000	19.995	100.309	20.083	3.293	0.475
124.500	144.070	79.999	19.996	100.309	20.084	3.222	0.514
125.000	144.314	79.998	19.995	100.310	20.084	3.192	0.550
125.500	144.548	79.999	19.994	100.314	20.083	3.231	0.513
126.000	144.813	79.999	19.994	100.313	20.086	3.066	0.488
126.500	145.016	79.999	19.995	100.311	20.086	3.030	0.483
127.000	145.299	79.999	19.995	100.311	20.083	3.242	0.477
127.500	145.561	79.999	19.995	100.309	20.084	3.225	0.516
128.000	145.786	79.998	19.994	100.303	20.085	3.107	0.516
128.500	146.081	79.998	19.995	100.301	20.087	3.017	0.503
129.000	146.314	79.999	19.995	100.301	20.080	3.461	0.524
129.500	146.554	79.999	19.994	100.301	20.082	3.319	0.501
130.000	146.837	79.999	19.995	100.301	20.083	3.296	0.498
130.500	147.111	80.000	19.993	100.301	20.081	3.375	0.540
131.000	147.336	79.998	19.995	100.301	20.083	3.242	0.528
131.500	147.598	79.998	19.995	100.301	20.082	3.356	0.493
132.000	147.839	79.999	19.995	100.302	20.080	3.459	0.495
132.500	148.099	79.998	19.995	100.302	20.081	3.412	0.502
133.000	148.320	79.998	19.996	100.302	20.083	3.283	0.491
133.500	148.612	79.998	19.996	100.303	20.079	3.555	0.498
134.000	148.872	80.000	19.997	100.302	20.083	3.251	0.532
134.500	149.116	79.998	19.995	100.302	20.083	3.238	0.528
135.000	149.382	79.998	19.996	100.303	20.082	3.307	0.507
135.500	149.625	79.999	19.996	100.303	20.083	3.257	0.510
136.000	149.899	79.999	19.995	100.302	20.082	3.332	0.513
136.500	150.147	79.999	19.996	100.301	20.084	3.214	0.519
137.000	150.368	79.998	19.996	100.300	20.083	3.236	0.495
137.500	150.641	79.999	19.995	100.297	20.081	3.379	0.481
138.000	150.902	79.999	19.995	100.295	20.084	3.219	0.515
138.500	151.164	79.997	19.997	100.295	20.080	3.480	0.529
139.000	151.431	79.999	19.996	100.295	20.082	3.339	0.526
139.500	151.660	80.001	19.995	100.296	20.084	3.197	0.512
140.000	151.951	79.999	19.996	100.298	20.084	3.189	0.508
140.500	152.226	79.999	19.995	100.299	20.084	3.165	0.543
141.000	152.468	80.000	19.994	100.299	20.085	3.118	0.542
141.500	152.739	80.000	19.995	100.299	20.084	3.197	0.515
142.000	152.967	80.001	19.995	100.299	20.084	3.225	0.505
142.500	153.204	80.000	19.994	100.299	20.083	3.261	0.482
143.000	153.454	80.001	19.996	100.299	20.083	3.236	0.476
143.500	153.735	79.999	19.995	100.298	20.085	3.096	0.510
144.000	153.942	80.000	19.995	100.298	20.082	3.317	0.510
144.500	154.231	80.000	19.995	100.297	20.086	3.045	0.492
145.000	154.459	80.001	19.996	100.297	20.081	3.429	0.506
145.500	154.705	80.001	19.995	100.297	20.084	3.182	0.496
146.000	154.970	79.999	19.995	100.297	20.085	3.101	0.493
146.500	155.214	80.000	19.995	100.295	20.085	3.154	0.510
147.000	155.479	80.000	19.996	100.296	20.084	3.225	0.509
147.500	155.726	80.000	19.995	100.296	20.084	3.211	0.511
148.000	155.938	80.000	19.995	100.296	20.086	3.045	0.485
148.500	156.215	80.001	19.995	100.296	20.084	3.179	0.473
149.000	156.472	80.000	19.995	100.296	20.083	3.280	0.512
149.500	156.717	80.000	19.995	100.296	20.088	2.928	0.519
150.000	156.998	80.000	19.996	100.295	20.085	3.132	0.514
150.500	157.256	80.001	19.994	100.292	20.086	3.069	0.532
151.000	157.521	79.998	19.996	100.291	20.085	3.093	0.531
151.500	157.760	80.000	19.995	100.292	20.086	3.063	0.514
152.000	157.999	80.000	19.995	100.292	20.083	3.277	0.491
152.500	158.244	79.999	19.996	100.292	20.086	3.067	0.481
153.000	158.531	79.998	19.995	100.292	20.087	2.975	0.508
153.500	158.763	79.998	19.996	100.292	20.086	3.082	0.525
154.000	159.049	79.999	19.997	100.292	20.085	3.121	0.519
154.500	159.282	79.998	19.996	100.291	20.085	3.093	0.519
155.000	159.532	79.999	19.995	100.291	20.081	3.380	0.501
155.500	159.733	79.998	19.995	100.293	20.089	2.876	0.467
156.000	160.014	79.997	19.996	100.293	20.088	2.925	0.466
156.500	160.273	79.998	19.995	100.290	20.086	3.048	0.511
157.000	160.513	79.998	19.996	100.289	20.087	2.973	0.520
157.500	160.781	79.998	19.997	100.287	20.086	3.055	0.504
158.000	161.012	79.997	19.996	100.284	20.086	3.080	0.503
158.500	161.273	79.997	19.996	100.277	20.086	3.074	0.495
159.000	161.571	79.998	19.996	100.272	20.086	3.025	0.526
159.500	161.794	79.998	19.996	100.267	20.085	3.106	0.540
160.000	162.060	79.999	19.996	100.263	20.084	3.162	0.505
160.500	162.280	79.997	19.995	100.260	20.084	3.158	0.487
161.000	162.520	79.997	19.996	100.261	20.083	3.291	0.473
161.500	162.766	79.997	19.996	100.261	20.084	3.181	0.473
162.000	163.058	79.996	19.996	100.264	20.082	3.310	0.512
162.500	163.265	79.998	19.996	100.270	20.083	3.246	0.518
163.000	163.560	79.998	19.995	100.271	20.083	3.258	0.500
163.500	163.836	79.997	19.996	100.270	20.082	3.320	0.536
164.000	164.105	79.998	19.995	100.271	20.085	3.151	0.558
164.500	164.338	79.997	19.996	100.275	20.083	3.254	0.524
165.000	164.604	79.999	19.995	100.271	20.081	3.396	0.500
165.500	164.853	79.997	19.995	100.273	20.083	3.243	0.506
166.000	165.097	79.998	19.995	100.274	20.081	3.379	0.504
166.500	165.336	79.998	19.995	100.274	20.083	3.286	0.488
167.000	165.643	79.997	19.996	100.269	20.084	3.224	0.515
167.500	165.866	79.999	19.996	100.268	20.081	3.408	0.538
168.000	166.137	80.000	19.995	100.264	20.083	3.256	0.512
168.500	166.379	79.999	19.995	100.262	20.084	3.187	0.503
169.000	166.650	79.999	19.995	100.262	20.082	3.319	0.512
169.500	166.890	79.997	19.995	100.261	20.083	3.237	0.512
170.000	167.161	79.999	19.995	100.260	20.085	3.123	0.511
170.500	167.390	79.999	19.995	100.260	20.086	3.042	0.505
171.000	167.652	79.999	19.995	100.260	20.084	3.160	0.495
171.500	167.847	79.998	19.995	100.260	20.087	2.996	0.475
172.000	168.135	79.999	19.995	100.261	20.085	3.147	0.470
172.500	168.383	79.998	19.995	100.261	20.088	2.941	0.509
173.000	168.634	79.997	19.994	100.260	20.084	3.202	0.517
173.500	168.863	79.998	19.995	100.262	20.084	3.196	0.490
174.000	169.114	79.998	19.995	100.264	20.088	2.904	0.480
174.500	169.349	79.999	19.995	100.266	20.086	3.035	0.483
175.000	169.639	79.998	19.995	100.266	20.088	2.926	0.505
175.500	169.875	79.999	19.995	100.267	20.088	2.947	0.525
176.000	170.130	79.999	19.995	100.267	20.090	2.762	0.509
176.500	170.381	79.998	19.994	100.267	20.090	2.810	0.499
177.000	170.636	80.000	19.994	100.265	20.084	3.177	0.506
177.500	170.893	79.998	19.996	100.266	20.087	2.986	0.509
178.000	171.133	80.000	19.996	100.264	20.086	3.043	0.504
178.500	171.367	79.999	19.995	100.264	20.084	3.164	0.485
179.000	171.631	79.999	19.994	100.262	20.087	3.003	0.486
179.500	171.902	79.998	19.996	100.262	20.085	3.147	0.517
180.000	172.144	79.999	19.995	100.262	20.086	3.035	0.524
180.500	172.389	79.998	19.995	100.264	20.089	2.864	0.499
181.000	172.607	79.998	19.995	100.265	20.086	3.065	0.475
181.500	172.857	79.996	19.993	100.266	20.085	3.102	0.466
182.000	173.146	79.998	19.995	100.266	20.087	2.999	0.503
182.500	173.348	79.997	19.996	100.266	20.087	2.994	0.515
183.000	173.619	79.998	19.994	100.265	20.086	3.037	0.483
183.500	173.868	79.997	19.994	100.264	20.089	2.863	0.497
184.000	174.148	79.998	19.994	100.265	20.089	2.840	0.524
184.500	174.382	79.998	19.996	100.267	20.089	2.874	0.521
185.000	174.658	79.998	19.995	100.267	20.089	2.872	0.513
185.500	174.864	79.998	19.995	100.267	20.088	2.930	0.496
186.000	175.129	79.999	19.995	100.266	20.087	2.954	0.476
186.500	175.365	79.997	19.995	100.265	20.088	2.941	0.486
187.000	175.649	79.997	19.996	100.263	20.090	2.810	0.510
187.500	175.855	79.998	19.995	100.264	20.090	2.805	0.505
188.000	176.148	79.998	19.996	100.265	20.089	2.818	0.494
188.500	176.364	79.997	19.996	100.267	20.087	2.979	0.504
189.000	176.624	79.997	19.996	100.267	20.090	2.754	0.493
189.500	176.856	79.996	19.995	100.268	20.088	2.911	0.484
190.000	177.121	79.995	19.997	100.267	20.089	2.829	0.494
190.500	177.399	79.997	19.996	100.265	20.090	2.810	0.520
191.000	177.628	79.997	19.995	100.262	20.089	2.831	0.525
191.500	177.868	79.998	19.997	100.261	20.090	2.808	0.488
192.000	178.123	79.996	19.995	100.261	20.087	2.984	0.482
192.500	178.379	79.997	19.995	100.261	20.090	2.760	0.503
193.000	178.597	79.998	19.995	100.262	20.089	2.851	0.493
193.500	178.892	79.998	19.995	100.262	20.089	2.821	0.494
194.000	179.092	79.997	19.996	100.261	20.089	2.819	0.504
194.500	179.369	79.998	19.996	100.262	20.086	3.048	0.486
195.000	179.632	79.996	19.995	100.262	20.089	2.864	0.509
195.500	179.893	79.999	19.994	100.263	20.086	3.044	0.532
196.000	180.122	79.996	19.995	100.261	20.090	2.750	0.507
196.500	180.397	79.997	19.995	100.261	20.093	2.604	0.497
197.000	180.625	79.998	19.994	100.261	20.087	3.016	0.503
197.500	180.871	79.998	19.995	100.261	20.089	2.829	0.489
198.000	181.113	79.998	19.995	100.261	20.088	2.894	0.481
198.500	181.348	79.999	19.995	100.264	20.088	2.894	0.483
199.000	181.611	79.999	19.995	100.265	20.092	2.660	0.487
199.500	181.832	80.000	19.995	100.265	20.091	2.692	0.491
200.000	182.108	79.999	19.997	100.265	20.091	2.733	0.490
200.500	182.374	80.000	19.996	100.265	20.089	2.832	0.520
201.000	182.610	79.999	19.995	100.264	20.089	2.859	0.522
201.500	182.879	80.001	19.995	100.263	20.089	2.840	0.503
202.000	183.083	80.000	19.995	100.263	20.087	2.956	0.489
202.500	183.385	79.999	19.995	100.262	20.088	2.890	0.489
203.000	183.602	80.000	19.994	100.260	20.090	2.812	0.512
203.500	183.871	79.998	19.996	100.259	20.089	2.868	0.503
204.000	184.126	80.000	19.995	100.259	20.093	2.570	0.505
204.500	184.307	79.999	19.996	100.257	20.088	2.924	0.480
205.000	184.579	79.999	19.995	100.257	20.087	3.005	0.444
205.500	184.850	79.999	19.993	100.258	20.088	2.941	0.498
206.000	185.081	80.000	19.996	100.257	20.088	2.911	0.523
206.500	185.315	79.999	19.994	100.257	20.088	2.947	0.484
207.000	185.595	80.000	19.996	100.258	20.088	2.924	0.490
207.500	185.848	80.000	19.995	100.256	20.084	3.173	0.523
208.000	186.132	79.998	19.995	100.253	20.088	2.943	0.535
208.500	186.353	79.999	19.994	100.254	20.088	2.901	0.521
209.000	186.607	79.998	19.995	100.253	20.086	3.023	0.490
209.500	186.881	80.000	19.994	100.255	20.088	2.931	0.502
210.000	187.133	79.999	19.994	100.258	20.086	3.029	0.527
210.500	187.350	80.000	19.995	100.261	20.086	3.053	0.498
211.000	187.634	80.000	19.994	100.259	20.087	2.980	0.485
211.500	187.849	80.000	19.994	100.253	20.087	2.980	0.500
212.000	188.119	79.998	19.996	100.252	20.090	2.776	0.492
212.500	188.362	80.001	19.994	100.251	20.089	2.844	0.498
213.000	188.569	79.998	19.996	100.249	20.092	2.655	0.482
213.500	188.842	80.000	19.995	100.249	20.090	2.812	0.466
214.000	189.084	79.999	19.994	100.255	20.091	2.724	0.497
214.500	189.277	79.998	19.996	100.256	20.092	2.671	0.475
215.000	189.554	80.000	19.995	100.256	20.092	2.677	0.452
215.500	189.827	79.998	19.996	100.258	20.091	2.692	0.510
216.000	190.077	79.998	19.995	100.260	20.094	2.529	0.536
216.500	190.329	79.999	19.995	100.260	20.092	2.653	0.513
217.000	190.572	80.000	19.996	100.260	20.093	2.559	0.499
217.500	190.811	79.999	19.995	100.259	20.093	2.581	0.489
218.000	191.050	80.000	19.995	100.259	20.091	2.703	0.480
218.500	191.325	79.999	19.995	100.256	20.091	2.707	0.496
219.000	191.551	79.998	19.996	100.251	20.092	2.673	0.507
219.500	191.777	79.999	19.995	100.246	20.089	2.819	0.476
220.000	192.014	79.998	19.995	100.245	20.092	2.669	0.458
220.500	192.259	80.000	19.994	100.246	20.089	2.839	0.473
221.000	192.498	79.998	19.996	100.247	20.090	2.765	0.483
221.500	192.740	79.997	19.995	100.252	20.091	2.740	0.482
222.000	192.997	79.999	19.996	100.257	20.093	2.548	0.490
222.500	193.227	80.000	19.995	100.259	20.090	2.761	0.493
223.000	193.520	80.000	19.995	100.257	20.092	2.671	0.505
223.500	193.769	80.000	19.995	100.257	20.091	2.731	0.533
224.000	193.997	79.998	19.995	100.253	20.090	2.793	0.509
224.500	194.229	80.000	19.997	100.248	20.091	2.709	0.468
225.000	194.490	79.999	19.997	100.248	20.093	2.544	0.477
225.501	194.705	80.000	19.996	100.247	20.091	2.682	0.485
226.001	194.971	80.000	19.995	100.245	20.089	2.823	0.478
226.500	195.234	80.001	19.996	100.249	20.093	2.570	0.505
227.000	195.470	80.001	19.995	100.253	20.092	2.622	0.514
227.500	195.746	79.999	19.996	100.252	20.093	2.563	0.505
228.000	195.972	80.000	19.996	100.250	20.092	2.658	0.507
228.500	196.254	80.001	19.995	100.250	20.092	2.649	0.505
229.000	196.480	79.999	19.995	100.245	20.094	2.531	0.508
229.500	196.715	80.001	19.995	100.239	20.090	2.769	0.485
230.000	196.994	80.000	19.996	100.239	20.089	2.816	0.488
230.500	197.252	80.001	19.997	100.238	20.093	2.553	0.526
231.000	197.460	80.000	19.996	100.234	20.093	2.608	0.501
231.500	197.709	80.000	19.996	100.236	20.090	2.814	0.461
232.000	197.939	80.001	19.995	100.236	20.092	2.664	0.468
232.500	198.161	80.001	19.995	100.238	20.093	2.542	0.466
233.000	198.435	80.000	19.997	100.242	20.091	2.701	0.474
233.500	198.691	79.999	19.996	100.247	20.091	2.711	0.513
234.000	198.932	80.000	19.997	100.247	20.090	2.748	0.513
234.500	199.174	80.000	19.997	100.248	20.094	2.486	0.490
235.000	199.413	80.000	19.996	100.246	20.091	2.687	0.482
235.500	199.670	79.998	19.998	100.244	20.089	2.825	0.488
236.000	199.897	79.998	19.996	100.240	20.090	2.754	0.490
236.500	200.150	79.999	19.995	100.240	20.092	2.647	0.482
237.000	200.410	79.997	19.995	100.238	20.091	2.742	0.497
237.500	200.673	79.998	19.995	100.236	20.086	3.034	0.519
238.000	200.915	79.998	19.994	100.237	20.090	2.791	0.514
238.500	201.129	79.999	19.996	100.243	20.089	2.840	0.480
239.000	201.413	79.998	19.994	100.246	20.089	2.827	0.477
239.500	201.647	79.997	19.995	100.251	20.094	2.488	0.508
240.000	201.899	79.998	19.994	100.256	20.094	2.480	0.502
240.500	202.118	79.997	19.995	100.253	20.089	2.817	0.479
241.000	202.374	79.999	19.996	100.251	20.092	2.617	0.473
241.500	202.608	79.998	19.994	100.250	20.091	2.742	0.482
242.000	202.834	79.999	19.996	100.250	20.091	2.711	0.475
242.500	203.074	79.997	19.995	100.250	20.090	2.797	0.463
243.000	203.332	79.997	19.996	100.252	20.091	2.742	0.482
243.500	203.584	79.997	19.995	100.250	20.091	2.722	0.504
244.000	203.836	79.997	19.997	100.253	20.089	2.817	0.507
244.500	204.087	79.997	19.996	100.255	20.089	2.869	0.503
245.000	204.317	79.997	19.996	100.256	20.093	2.564	0.492
245.500	204.545	79.998	19.996	100.258	20.093	2.579	0.470
246.000	204.799	79.999	19.995	100.259	20.091	2.739	0.470
246.500	205.076	79.998	19.995	100.253	20.092	2.639	0.506
247.000	205.297	79.998	19.995	100.249	20.090	2.756	0.514
247.500	205.535	79.997	19.995	100.245	20.094	2.537	0.478
248.000	205.794	79.999	19.997	100.242	20.090	2.750	0.478
248.500	206.021	79.996	19.995	100.241	20.093	2.606	0.492
249.000	206.280	79.996	19.996	100.243	20.090	2.780	0.486
249.500	206.532	79.996	19.996	100.247	20.088	2.895	0.498
250.000	206.805	79.995	19.995	100.245	20.092	2.658	0.518
250.500	207.028	79.997	19.996	100.241	20.088	2.895	0.511
251.000	207.272	79.997	19.995	100.240	20.091	2.721	0.482
251.500	207.500	79.998	19.996	100.241	20.088	2.920	0.470
252.000	207.753	79.997	19.996	100.240	20.090	2.811	0.476
252.500	208.031	79.998	19.996	100.245	20.089	2.851	0.506
253.000	208.221	79.998	19.997	100.249	20.089	2.828	0.499
253.500	208.488	79.996	19.997	100.250	20.092	2.677	0.462
254.000	208.783	79.997	19.997	100.247	20.091	2.681	0.510
254.500	209.011	79.997	19.995	100.241	20.091	2.705	0.542
255.000	209.197	79.997	19.996	100.236	20.091	2.741	0.468
255.500	209.519	79.997	19.996	100.232	20.087	3.019	0.461
256.000	209.725	79.998	19.996	100.233	20.091	2.733	0.518
256.500	209.970	79.997	19.997	100.239	20.091	2.740	0.490
257.000	210.244	79.996	19.996	100.243	20.089	2.856	0.485
257.500	210.462	79.999	19.996	100.246	20.088	2.924	0.505
258.000	210.743	79.997	19.995	100.253	20.086	3.081	0.495
258.500	210.997	79.997	19.996	100.250	20.088	2.903	0.517
259.000	211.231	79.997	19.996	100.245	20.088	2.920	0.512
259.500	211.457	79.996	19.996	100.241	20.090	2.766	0.474
260.000	211.724	79.997	19.996	100.239	20.086	3.069	0.476
260.500	211.966	79.996	19.996	100.233	20.090	2.813	0.501
261.000	212.171	79.997	19.996	100.230	20.091	2.727	0.478
261.500	212.457	79.997	19.995	100.230	20.092	2.624	0.469
262.000	212.696	79.996	19.995	100.229	20.091	2.701	0.508
262.500	212.938	79.997	19.995	100.228	20.091	2.695	0.503
263.000	213.191	79.997	19.996	100.229	20.094	2.517	0.488
263.500	213.443	79.998	19.995	100.231	20.090	2.759	0.499
264.000	213.676	79.997	19.996	100.236	20.091	2.704	0.495
264.500	213.936	79.997	19.996	100.239	20.093	2.600	0.490
265.000	214.208	79.997	19.994	100.244	20.092	2.673	0.513
265.500	214.428	79.999	19.994	100.247	20.090	2.796	0.511
266.000	214.657	79.997	19.995	100.246	20.091	2.710	0.470
266.500	214.909	79.999	19.994	100.241	20.093	2.545	0.466
267.000	215.135	79.998	19.994	100.237	20.093	2.581	0.480
267.500	215.396	79.998	19.995	100.233	20.092	2.614	0.482
268.000	215.673	79.997	19.995	100.230	20.092	2.624	0.513
268.500	215.884	79.998	19.995	100.232	20.090	2.774	0.513
269.000	216.144	79.999	19.996	100.233	20.091	2.697	0.480
269.500	216.362	79.997	19.995	100.233	20.090	2.757	0.474
270.000	216.606	79.997	19.995	100.232	20.090	2.759	0.469
270.500	216.851	79.997	19.995	100.230	20.089	2.876	0.475
271.000	217.105	79.998	19.996	100.228	20.092	2.620	0.494
271.500	217.335	79.999	19.994	100.230	20.090	2.746	0.492
272.000	217.584	79.998	19.995	100.231	20.094	2.534	0.482
272.500	217.860	79.997	19.995	100.230	20.091	2.740	0.502
273.000	218.106	79.997	19.996	100.228	20.091	2.738	0.523
273.500	218.388	79.999	19.995	100.226	20.091	2.686	0.524
274.000	218.584	79.998	19.994	100.224	20.093	2.596	0.503
274.500	218.878	79.997	19.996	100.224	20.091	2.738	0.484
275.000	219.065	79.998	19.994	100.224	20.089	2.815	0.485
275.500	219.340	79.997	19.994	100.224	20.090	2.806	0.472
276.000	219.632	79.998	19.996	100.227	20.090	2.800	0.515
276.500	219.853	79.997	19.995	100.227	20.090	2.761	0.540
277.000	220.115	79.998	19.994	100.225	20.091	2.740	0.498
277.500	220.331	80.000	19.996	100.225	20.091	2.742	0.480
278.000	220.585	79.998	19.995	100.225	20.089	2.822	0.474
278.500	220.856	79.999	19.995	100.223	20.089	2.843	0.498
279.000	221.095	79.999	19.994	100.223	20.090	2.755	0.518
279.500	221.342	79.999	19.995	100.222	20.088	2.901	0.498
280.000	221.597	79.999	19.995	100.223	20.089	2.854	0.494
280.500	221.861	79.998	19.994	100.223	20.095	2.415	0.511
281.000	222.124	80.001	19.994	100.223	20.091	2.695	0.523
281.500	222.367	79.999	19.995	100.222	20.090	2.806	0.517
282.000	222.605	79.998	19.996	100.224	20.091	2.720	0.493
282.500	222.844	79.999	19.995	100.225	20.094	2.478	0.479
283.000	223.090	79.999	19.996	100.226	20.092	2.662	0.481
283.500	223.325	80.000	19.994	100.228	20.095	2.461	0.483
284.000	223.554	80.000	19.995	100.228	20.092	2.656	0.472
284.500	223.801	80.000	19.995	100.227	20.095	2.405	0.470
285.000	224.065	79.999	19.995	100.225	20.093	2.572	0.494
285.500	224.268	80.001	19.995	100.227	20.093	2.587	0.489
286.000	224.548	80.001	19.994	100.227	20.094	2.506	0.475
286.500	224.790	80.000	19.995	100.228	20.095	2.427	0.503
287.000	225.052	80.001	19.995	100.228	20.092	2.661	0.513
287.500	225.320	80.001	19.995	100.228	20.095	2.410	0.516
288.000	225.523	80.000	19.995	100.227	20.096	2.364	0.500
288.500	225.804	79.999	19.996	100.229	20.091	2.682	0.478
289.000	226.034	80.000	19.995	100.232	20.098	2.253	0.498
289.500	226.301	80.001	19.995	100.238	20.098	2.264	0.505
290.000	226.562	80.000	19.995	100.240	20.096	2.341	0.513
290.500	226.773	79.998	19.995	100.240	20.093	2.543	0.500
291.000	227.004	79.999	19.995	100.237	20.095	2.470	0.457
291.500	227.253	79.999	19.996	100.235	20.096	2.369	0.461
292.000	227.510	80.000	19.995	100.232	20.093	2.556	0.493
292.500	227.803	80.000	19.995	100.232	20.095	2.412	0.528
293.000	228.052	79.999	19.996	100.234	20.098	2.255	0.546
293.500	228.301	80.000	19.994	100.234	20.094	2.478	0.520
294.000	228.553	80.000	19.995	100.233	20.097	2.268	0.499
294.500	228.829	79.999	19.996	100.231	20.096	2.366	0.515
295.000	229.074	79.999	19.995	100.229	20.096	2.386	0.525
295.500	229.356	80.000	19.995	100.226	20.094	2.519	0.524
296.000	229.585	80.000	19.996	100.229	20.095	2.409	0.519
296.500	229.855	80.000	19.995	100.227	20.096	2.401	0.505
297.000	230.087	79.999	19.995	100.226	20.097	2.315	0.500
297.500	230.323	79.999	19.996	100.226	20.096	2.394	0.485
298.000	230.581	80.000	19.995	100.225	20.097	2.270	0.481
298.500	230.844	79.998	19.995	100.221	20.098	2.235	0.507
299.000	231.112	80.000	19.995	100.221	20.094	2.489	0.526
299.500	231.351	79.999	19.994	100.221	20.096	2.362	0.519
300.000	231.620	80.000	19.995	100.221	20.094	2.506	0.507
300.500	231.838	80.001	19.995	100.221	20.096	2.369	0.497
301.000	232.110	80.000	19.995	100.221	20.095	2.420	0.489
301.500	232.346	80.000	19.994	100.220	20.095	2.467	0.499
302.000	232.630	79.999	19.997	100.220	20.093	2.554	0.514
302.500	232.847	80.000	19.997	100.220	20.095	2.459	0.510
303.000	233.106	80.000	19.996	100.220	20.097	2.276	0.489
303.500	233.360	80.000	19.996	100.222	20.093	2.566	0.495
304.000	233.602	80.002	19.995	100.224	20.096	2.373	0.504
304.500	233.872	80.001	19.995	100.227	20.097	2.306	0.504
305.000	234.143	80.000	19.994	100.227	20.094	2.487	0.527
305.500	234.376	80.000	19.995	100.226	20.095	2.440	0.522
306.000	234.626	80.000	19.996	100.225	20.094	2.519	0.494
306.500	234.879	80.001	19.995	100.223	20.099	2.150	0.493
307.000	235.152	80.001	19.995	100.219	20.096	2.371	0.514
307.500	235.403	80.000	19.995	100.219	20.096	2.352	0.525
308.000	235.646	80.000	19.995	100.219	20.097	2.285	0.509
308.500	235.881	80.000	19.995	100.219	20.093	2.556	0.486
309.000	236.123	80.001	19.995	100.220	20.095	2.468	0.477
309.500	236.398	80.001	19.994	100.222	20.096	2.366	0.497
310.000	236.640	80.002	19.995	100.222	20.097	2.324	0.517
310.500	236.905	80.000	19.995	100.223	20.095	2.446	0.512
311.000	237.152	80.001	19.995	100.222	20.093	2.540	0.510
311.500	237.375	80.002	19.996	100.222	20.097	2.283	0.491
312.000	237.666	80.000	19.996	100.221	20.098	2.261	0.492
312.500	237.915	80.001	19.996	100.219	20.097	2.294	0.527
313.000	238.157	79.999	19.994	100.216	20.095	2.418	0.515
313.500	238.450	80.001	19.995	100.216	20.096	2.360	0.513
314.000	238.640	80.000	19.995	100.216	20.097	2.268	0.509
314.500	238.934	80.001	19.996	100.218	20.098	2.265	0.484
315.000	239.167	79.999	19.994	100.217	20.096	2.349	0.506
315.500	239.435	80.000	19.996	100.219	20.100	2.105	0.514
316.000	239.650	80.000	19.994	100.219	20.097	2.313	0.492
316.500	239.913	80.000	19.996	100.218	20.096	2.392	0.481
317.000	240.143	79.999	19.996	100.216	20.098	2.216	0.485
317.500	240.380	79.999	19.996	100.218	20.096	2.394	0.480
318.000	240.645	79.998	19.996	100.219	20.098	2.214	0.484
318.500	240.911	79.999	19.995	100.218	20.099	2.190	0.516
319.000	241.175	79.998	19.996	100.218	20.098	2.248	0.530
319.500	241.429	79.999	19.996	100.221	20.095	2.444	0.524
320.000	241.686	79.997	19.995	100.220	20.099	2.180	0.515
320.500	241.915	79.998	19.997	100.221	20.098	2.218	0.498
321.000	242.184	79.999	19.997	100.222	20.098	2.223	0.492
321.500	242.428	79.996	19.997	100.222	20.096	2.362	0.505
322.000	242.730	79.997	19.996	100.222	20.096	2.401	0.529
322.500	242.923	79.997	19.995	100.222	20.098	2.264	0.521
323.000	243.197	79.996	19.995	100.222	20.098	2.238	0.481
323.500	243.430	79.997	19.994	100.223	20.099	2.178	0.487
324.000	243.690	79.997	19.994	100.222	20.098	2.203	0.500
324.500	243.959	79.998	19.995	100.223	20.097	2.311	0.511
325.000	244.160	79.996	19.995	100.224	20.098	2.235	0.499
325.500	244.437	79.997	19.996	100.224	20.096	2.373	0.474
326.000	244.721	79.997	19.996	100.224	20.097	2.287	0.520
326.500	244.956	79.996	19.995	100.225	20.097	2.317	0.540
327.000	245.237	79.997	19.995	100.224	20.097	2.296	0.518
327.500	245.496	79.996	19.996	100.223	20.097	2.283	0.528
328.000	245.738	79.998	19.995	100.223	20.098	2.227	0.520
328.500	245.949	79.996	19.995	100.223	20.098	2.201	0.477
329.000	246.241	79.998	19.995	100.222	20.098	2.208	0.478
329.500	246.448	79.998	19.994	100.221	20.101	2.047	0.501
330.000	246.721	79.997	19.995	100.223	20.096	2.350	0.490
330.500	246.929	79.996	19.997	100.223	20.099	2.171	0.481
331.000	247.218	79.997	19.996	100.224	20.097	2.324	0.489
331.500	247.475	79.997	19.995	100.224	20.098	2.246	0.521
332.000	247.695	79.997	19.997	100.223	20.098	2.247	0.511
332.500	247.950	79.997	19.995	100.218	20.098	2.218	0.476
333.000	248.200	79.997	19.995	100.213	20.098	2.234	0.490
333.500	248.406	79.996	19.995	100.212	20.098	2.199	0.481
334.000	248.703	79.997	19.997	100.212	20.099	2.167	0.480
334.500	248.976	79.997	19.995	100.213	20.097	2.281	0.537
335.000	249.209	79.997	19.996	100.218	20.096	2.399	0.538
335.500	249.476	79.998	19.996	100.222	20.093	2.567	0.503
336.000	249.697	79.997	19.996	100.221	20.095	2.418	0.494
336.500	249.968	79.998	19.995	100.220	20.101	2.032	0.490
337.000	250.235	79.997	19.994	100.218	20.101	2.047	0.515
337.500	250.547	79.997	19.996	100.214	20.099	2.156	0.559
338.000	250.756	79.998	19.995	100.212	20.099	2.182	0.550
338.500	251.002	79.998	19.996	100.210	20.099	2.169	0.488
339.000	251.255	79.998	19.997	100.208	20.099	2.182	0.477
339.500	251.480	79.997	19.996	100.211	20.096	2.343	0.488
340.000	251.751	79.997	19.996	100.214	20.098	2.203	0.486
340.500	251.975	79.998	19.994	100.212	20.100	2.118	0.495
341.000	252.258	79.997	19.995	100.214	20.099	2.145	0.501
341.500	252.493	79.997	19.996	100.215	20.098	2.260	0.513
342.000	252.722	79.998	19.996	100.215	20.097	2.289	0.492
342.500	253.015	79.995	19.997	100.211	20.098	2.210	0.493
343.000	253.243	79.999	19.997	100.214	20.099	2.163	0.521
343.500	253.479	79.996	19.996	100.214	20.095	2.414	0.493
344.000	253.748	79.997	19.996	100.214	20.098	2.202	0.485
344.500	253.970	79.997	19.996	100.211	20.099	2.189	0.498
345.000	254.218	79.998	19.996	100.214	20.101	2.056	0.480
345.500	254.503	79.996	19.997	100.214	20.099	2.195	0.501
346.000	254.707	79.998	19.996	100.213	20.101	2.002	0.511
346.500	254.995	79.998	19.997	100.212	20.096	2.391	0.490
347.000	255.227	79.997	19.997	100.216	20.094	2.487	0.506
347.500	255.481	79.997	19.998	100.217	20.097	2.322	0.503
348.000	255.703	79.998	19.997	100.212	20.097	2.303	0.481
348.500	255.974	79.998	19.997	100.208	20.095	2.460	0.484
349.000	256.213	79.998	19.996	100.207	20.098	2.262	0.501
349.500	256.485	79.995	19.996	100.205	20.097	2.299	0.510
350.000	256.708	79.998	19.996	100.206	20.099	2.142	0.502
350.500	256.980	79.997	19.996	100.210	20.101	2.034	0.495
351.000	257.230	79.998	19.997	100.215	20.099	2.161	0.509
351.500	257.455	79.998	19.997	100.217	20.102	1.957	0.499
352.000	257.699	79.997	19.997	100.213	20.100	2.088	0.472
352.500	257.929	79.998	19.996	100.208	20.096	2.345	0.472
353.001	258.169	79.998	19.998	100.209	20.098	2.197	0.473
353.500	258.430	79.997	19.997	100.204	20.101	2.015	0.486
354.000	258.735	79.998	19.996	100.202	20.098	2.223	0.533
354.500	258.923	79.998	19.997	100.204	20.103	1.886	0.529
355.000	259.194	79.996	19.998	100.207	20.098	2.212	0.476
355.500	259.413	79.996	19.996	100.204	20.100	2.092	0.475
356.000	259.661	79.997	19.996	100.202	20.098	2.233	0.478
356.500	259.916	79.998	19.997	100.201	20.098	2.231	0.485
357.000	260.160	79.998	19.996	100.202	20.098	2.234	0.501
357.500	260.390	79.998	19.995	100.201	20.098	2.257	0.487
358.000	260.636	79.998	19.995	100.204	20.096	2.343	0.475
358.500	260.884	79.998	19.995	100.207	20.102	1.961	0.485
359.000	261.124	79.999	19.996	100.203	20.101	2.049	0.491
359.500	261.367	79.999	19.996	100.200	20.100	2.109	0.486
360.000	261.610	79.999	19.997	100.196	20.099	2.159	0.484
360.500	261.870	79.999	19.996	100.189	20.098	2.221	0.494
361.000	262.119	79.998	19.994	100.187	20.099	2.137	0.506
361.500	262.317	79.999	19.994	100.190	20.099	2.154	0.478
362.000	262.593	80.000	19.997	100.192	20.100	2.092	0.461
362.500	262.791	80.000	19.996	100.198	20.100	2.068	0.474
363.000	263.093	79.999	19.996	100.201	20.102	1.939	0.487
363.500	263.332	79.999	19.996	100.204	20.102	1.959	0.521
364.000	263.587	80.000	19.996	100.207	20.099	2.156	0.518
364.500	263.835	80.000	19.997	100.209	20.103	1.916	0.499
365.000	264.087	79.999	19.995	100.208	20.099	2.184	0.502
365.500	264.321	80.000	19.996	100.212	20.097	2.300	0.492
366.000	264.605	80.001	19.996	100.213	20.099	2.159	0.502
366.500	264.834	79.998	19.995	100.215	20.096	2.358	0.516
367.000	265.073	79.999	19.995	100.217	20.098	2.249	0.491
367.500	265.318	79.999	19.996	100.219	20.101	2.049	0.475
368.000	265.572	80.000	19.995	100.218	20.102	1.946	0.491
368.500	265.811	80.000	19.997	100.216	20.100	2.127	0.496
369.000	266.073	79.999	19.995	100.215	20.100	2.071	0.497
369.500	266.277	80.000	19.995	100.211	20.095	2.436	0.484
370.000	266.516	80.000	19.995	100.207	20.100	2.098	0.454
370.500	266.806	80.000	19.996	100.202	20.098	2.199	0.486
371.000	267.031	79.999	19.996	100.201	20.100	2.094	0.522
371.500	267.319	79.999	19.994	100.198	20.096	2.350	0.515
372.000	267.532	79.998	19.996	100.202	20.097	2.296	0.507
372.500	267.800	80.000	19.995	100.206	20.100	2.126	0.491
373.000	268.024	80.000	19.996	100.210	20.100	2.127	0.486
373.500	268.285	80.000	19.994	100.212	20.100	2.125	0.489
374.000	268.493	79.998	19.995	100.214	20.098	2.247	0.477
374.500	268.750	79.998	19.995	100.209	20.098	2.234	0.467
375.000	269.000	79.999	19.995	100.208	20.100	2.125	0.486
375.500	269.272	79.999	19.994	100.210	20.099	2.180	0.514
376.000	269.492	79.998	19.995	100.210	20.099	2.176	0.507
376.500	269.812	79.999	19.995	100.207	20.098	2.240	0.516
377.000	270.010	80.000	19.995	100.212	20.100	2.077	0.529
377.500	270.267	79.999	19.995	100.211	20.097	2.290	0.486
378.000	270.504	79.998	19.994	100.208	20.101	1.991	0.475
378.500	270.769	79.999	19.995	100.208	20.101	2.032	0.498
379.000	271.006	79.999	19.996	100.208	20.099	2.160	0.502
379.500	271.290	79.999	19.995	100.204	20.099	2.150	0.511
380.000	271.503	79.999	19.995	100.200	20.101	2.055	0.509
380.500	271.750	80.000	19.996	100.202	20.099	2.150	0.479
381.000	272.005	80.000	19.995	100.204	20.100	2.111	0.481
381.500	272.260	79.999	19.996	100.206	20.101	2.043	0.506
382.000	272.530	80.000	19.996	100.207	20.100	2.069	0.518
382.500	272.803	79.999	19.996	100.209	20.098	2.199	0.534
383.000	272.998	79.999	19.995	100.208	20.097	2.270	0.505
383.500	273.281	80.000	19.994	100.200	20.097	2.290	0.473
384.000	273.516	79.998	19.995	100.196	20.101	2.030	0.498
384.500	273.727	79.999	19.994	100.196	20.097	2.268	0.482
385.000	273.973	79.998	19.995	100.196	20.099	2.195	0.451
385.500	274.255	80.000	19.995	100.194	20.099	2.146	0.492
386.000	274.495	79.999	19.994	100.197	20.099	2.180	0.525
386.500	274.756	80.000	19.996	100.200	20.098	2.223	0.512
387.000	274.994	80.000	19.996	100.199	20.098	2.228	0.500
387.500	275.248	79.999	19.995	100.200	20.101	2.030	0.495
388.000	275.524	80.002	19.995	100.203	20.100	2.109	0.511
388.500	275.761	80.000	19.995	100.208	20.097	2.285	0.521
389.000	275.997	80.000	19.995	100.212	20.100	2.088	0.493
389.500	276.281	80.001	19.994	100.215	20.099	2.144	0.497
390.000	276.512	80.000	19.995	100.215	20.100	2.092	0.518
390.500	276.733	80.001	19.996	100.210	20.100	2.077	0.484
391.000	277.025	80.000	19.995	100.209	20.099	2.133	0.482
391.500	277.271	80.000	19.995	100.204	20.096	2.341	0.525
392.000	277.516	80.001	19.994	100.199	20.098	2.255	0.514
392.500	277.737	80.002	19.995	100.198	20.099	2.144	0.479
393.000	278.032	80.002	19.994	100.204	20.098	2.204	0.492
393.500	278.245	80.002	19.994	100.203	20.101	1.998	0.512
394.000	278.506	80.002	19.994	100.204	20.101	2.051	0.491
394.500	278.792	80.001	19.994	100.209	20.100	2.105	0.511
395.000	279.039	80.001	19.993	100.214	20.098	2.206	0.540
395.500	279.285	80.002	19.995	100.210	20.101	2.041	0.513
396.000	279.523	80.001	19.994	100.206	20.097	2.281	0.489
396.500	279.747	80.001	19.994	100.203	20.099	2.187	0.473
397.001	280.011	80.001	19.994	100.200	20.099	2.152	0.475
397.500	280.249	80.001	19.994	100.197	20.098	2.242	0.495
398.000	280.501	80.001	19.995	100.193	20.098	2.264	0.496
398.500	280.770	80.001	19.995	100.196	20.099	2.144	0.506
399.000	280.976	80.001	19.995	100.200	20.098	2.228	0.498
399.500	281.250	80.001	19.995	100.202	20.101	1.991	0.477
400.000	281.496	80.001	19.995	100.202	20.099	2.168	0.500
400.500	281.755	80.000	19.995	100.204	20.098	2.249	0.513
401.000	281.994	79.999	19.995	100.203	20.099	2.163	0.502
401.500	282.243	79.998	19.995	100.205	20.102	1.989	0.493
402.000	282.532	79.999	19.995	100.206	20.098	2.204	0.513
402.500	282.720	79.998	19.996	100.203	20.099	2.135	0.507
403.000	282.998	79.998	19.995	100.201	20.099	2.140	0.472
403.500	283.261	80.000	19.996	100.200	20.100	2.108	0.504
404.000	283.485	79.998	19.995	100.198	20.099	2.136	0.514
404.500	283.765	79.998	19.996	100.194	20.098	2.256	0.495
405.000	284.005	80.000	19.994	100.195	20.102	1.957	0.512
405.500	284.244	79.996	19.995	100.195	20.100	2.113	0.500
406.000	284.505	79.998	19.995	100.198	20.099	2.180	0.489
406.500	284.755	79.998	19.995	100.201	20.098	2.262	0.505
407.000	284.997	79.999	19.996	100.203	20.100	2.103	0.502
407.500	285.260	79.999	19.995	100.202	20.097	2.318	0.498
408.000	285.535	79.998	19.995	100.203	20.100	2.094	0.521
408.500	285.754	79.998	19.997	100.201	20.100	2.107	0.516
409.000	286.011	79.998	19.995	100.199	20.101	2.036	0.485
409.500	286.299	79.998	19.995	100.193	20.098	2.251	0.510
410.000	286.534	79.998	19.996	100.193	20.102	1.976	0.534
410.500	286.758	79.999	19.996	100.191	20.099	2.183	0.491
411.000	287.042	79.998	19.997	100.187	20.099	2.138	0.483
411.500	287.282	79.998	19.997	100.182	20.102	1.983	0.516
412.000	287.538	79.999	19.996	100.186	20.101	2.056	0.511
412.500	287.784	79.999	19.996	100.188	20.102	1.981	0.499
413.000	288.058	79.998	19.996	100.189	20.104	1.824	0.511
413.500	288.265	79.998	19.997	100.189	20.098	2.234	0.500
414.000	288.524	79.999	19.996	100.189	20.099	2.135	0.474
414.500	288.802	79.997	19.995	100.185	20.098	2.245	0.502
415.000	289.026	79.998	19.996	100.186	20.101	2.015	0.520
415.500	289.301	79.999	19.996	100.191	20.099	2.151	0.500
416.000	289.536	80.000	19.996	100.199	20.099	2.129	0.504
416.500	289.816	79.999	19.997	100.204	20.100	2.107	0.512
417.000	290.074	79.999	19.995	100.206	20.100	2.108	0.527
417.500	290.310	80.000	19.995	100.205	20.101	2.047	0.517
418.000	290.562	79.998	19.995	100.205	20.101	2.043	0.491
418.500	290.838	80.000	19.995	100.200	20.101	2.015	0.508
419.000	291.101	79.998	19.997	100.198	20.101	1.994	0.533
419.500	291.340	79.998	19.996	100.200	20.101	2.028	0.520
420.000	291.592	80.000	19.995	100.205	20.101	1.994	0.496
420.500	291.843	79.998	19.996	100.202	20.106	1.650	0.497
421.000	292.097	79.999	19.995	100.199	20.099	2.187	0.504
421.500	292.325	79.997	19.995	100.196	20.103	1.878	0.494
422.000	292.579	79.998	19.996	100.192	20.099	2.146	0.482
422.500	292.875	79.999	19.996	100.187	20.103	1.906	0.516
423.000	293.106	79.999	19.997	100.186	20.100	2.127	0.539
423.500	293.365	79.998	19.996	100.190	20.103	1.903	0.509
424.000	293.612	79.999	19.997	100.197	20.102	1.970	0.498
424.500	293.876	79.998	19.997	100.196	20.100	2.067	0.509
425.000	294.141	79.997	19.996	100.195	20.100	2.086	0.520
425.500	294.375	79.999	19.997	100.194	20.100	2.103	0.514
426.000	294.635	79.997	19.997	100.191	20.105	1.781	0.496
426.500	294.876	79.998	19.997	100.185	20.097	2.288	0.498
427.000	295.128	79.999	19.996	100.185	20.103	1.878	0.497
427.500	295.389	79.998	19.997	100.185	20.102	1.951	0.503
428.000	295.642	80.000	19.996	100.187	20.101	2.026	0.514
428.500	295.881	79.998	19.996	100.188	20.101	2.035	0.503
429.000	296.121	79.999	19.997	100.190	20.098	2.254	0.485
429.500	296.382	79.998	19.995	100.192	20.102	1.974	0.490
430.000	296.626	80.000	19.996	100.191	20.101	2.015	0.503
430.500	296.880	79.998	19.997	100.189	20.099	2.153	0.502
431.000	297.149	79.997	19.996	100.187	20.102	1.929	0.511
431.500	297.397	79.998	19.997	100.185	20.100	2.080	0.520
432.000	297.640	79.996	19.996	100.187	20.101	2.004	0.504
432.500	297.922	79.998	19.996	100.187	20.101	2.050	0.508
433.000	298.148	79.997	19.997	100.186	20.103	1.878	0.517
433.500	298.421	79.997	19.997	100.187	20.099	2.187	0.503
434.000	298.655	79.997	19.996	100.187	20.097	2.297	0.502
434.500	298.948	79.997	19.997	100.184	20.100	2.084	0.517
435.000	299.148	79.995	19.996	100.184	20.099	2.185	0.510
435.500	299.468	79.997	19.996	100.184	20.104	1.831	0.506
436.000	299.684	79.997	19.997	100.185	20.102	1.953	0.528
436.500	299.935	79.997	19.995	100.184	20.098	2.215	0.501
437.000	300.164	79.995	19.997	100.185	20.099	2.142	0.474
437.500	300.441	79.995	19.998	100.186	20.100	2.114	0.493
438.000	300.656	79.994	19.997	100.188	20.100	2.080	0.499
438.500	300.919	79.997	19.996	100.188	20.102	1.962	0.485
439.000	301.200	79.997	19.997	100.188	20.100	2.121	0.512
439.500	301.435	79.998	19.996	100.188	20.100	2.101	0.530
440.000	301.722	79.997	19.996	100.187	20.101	2.054	0.519
440.500	301.962	79.996	19.996	100.185	20.101	2.024	0.525
441.000	302.196	79.997	19.997	100.184	20.103	1.910	0.501
441.500	302.491	79.998	19.998	100.184	20.104	1.807	0.501
442.000	302.709	79.997	19.996	100.185	20.101	2.034	0.521
442.500	302.962	79.997	19.997	100.185	20.102	1.938	0.492
443.000	303.174	79.997	19.996	100.184	20.100	2.082	0.468
443.500	303.423	79.998	19.996	100.184	20.099	2.165	0.463
444.000	303.704	79.999	19.996	100.184	20.101	2.050	0.496
444.500	303.943	79.997	19.996	100.183	20.101	2.024	0.525
445.000	304.214	79.999	19.997	100.183	20.100	2.086	0.515
445.500	304.436	79.999	19.998	100.183	20.101	2.049	0.501
446.000	304.689	79.999	19.996	100.183	20.101	2.058	0.484
446.500	304.931	79.998	19.996	100.183	20.098	2.223	0.485
447.000	305.164	79.998	19.995	100.183	20.100	2.095	0.486
447.500	305.421	79.999	19.996	100.184	20.099	2.129	0.483
448.000	305.682	79.998	19.996	100.184	20.100	2.075	0.504
448.500	305.964	79.999	19.998	100.184	20.102	1.938	0.531
449.000	306.193	79.999	19.995	100.184	20.102	1.972	0.527
449.500	306.456	79.998	19.996	100.185	20.098	2.209	0.501
450.000	306.737	79.999	19.996	100.184	20.102	1.974	0.518
450.500	306.979	80.000	19.995	100.184	20.099	2.159	0.534
451.000	307.219	79.999	19.996	100.184	20.100	2.127	0.503
451.500	307.479	79.999	19.995	100.184	20.099	2.150	0.491
452.000	307.737	80.000	19.995	100.183	20.102	1.981	0.509
452.500	307.994	80.000	19.995	100.184	20.101	2.006	0.516
453.000	308.215	79.999	19.994	100.186	20.097	2.301	0.496
453.500	308.481	79.999	19.996	100.188	20.099	2.129	0.483
454.000	308.734	79.999	19.994	100.188	20.102	1.983	0.503
454.500	308.989	79.998	19.995	100.189	20.104	1.841	0.513
455.000	309.225	79.999	19.994	100.188	20.103	1.910	0.499
455.500	309.520	79.999	19.996	100.186	20.098	2.256	0.512
456.000	309.779	79.998	19.995	100.185	20.103	1.861	0.543
456.500	310.020	79.999	19.995	100.187	20.102	1.942	0.526
457.000	310.262	79.998	19.995	100.188	20.101	1.994	0.491
457.500	310.515	79.997	19.995	100.187	20.100	2.097	0.489
458.000	310.766	79.999	19.995	100.188	20.101	2.000	0.500
458.500	311.038	79.999	19.994	100.189	20.102	1.964	0.514
459.000	311.271	79.998	19.995	100.187	20.096	2.344	0.514
459.500	311.554	79.999	19.995	100.187	20.098	2.245	0.510
460.000	311.789	79.998	19.995	100.187	20.098	2.200	0.517
460.500	312.046	79.999	19.995	100.187	20.103	1.910	0.505
461.000	312.302	79.998	19.994	100.186	20.098	2.260	0.503
461.500	312.625	79.998	19.995	100.186	20.102	1.961	0.546
462.000	312.809	79.998	19.995	100.186	20.098	2.204	0.543
462.500	313.076	79.999	19.994	100.186	20.099	2.134	0.479
463.000	313.350	79.997	19.995	100.188	20.098	2.245	0.496
463.500	313.553	79.997	19.994	100.188	20.096	2.370	0.509
464.000	313.839	79.998	19.996	100.188	20.097	2.267	0.483
464.500	314.080	79.999	19.994	100.188	20.100	2.090	0.508
465.000	314.336	79.999	19.996	100.187	20.100	2.073	0.512
465.500	314.578	79.998	19.995	100.185	20.095	2.447	0.498
466.000	314.845	79.999	19.996	100.184	20.098	2.224	0.503
466.500	315.094	80.000	19.995	100.183	20.098	2.204	0.512
467.000	315.320	79.999	19.995	100.182	20.101	2.058	0.495
467.500	315.577	79.998	19.995	100.181	20.100	2.069	0.479
468.000	315.843	80.000	19.995	100.180	20.100	2.116	0.503
468.500	316.093	79.999	19.995	100.180	20.100	2.071	0.519
469.000	316.347	80.000	19.995	100.181	20.097	2.279	0.510
469.500	316.632	79.999	19.995	100.181	20.101	2.056	0.522
470.000	316.857	80.000	19.995	100.183	20.101	2.011	0.524
470.500	317.112	80.001	19.995	100.185	20.096	2.350	0.495
471.000	317.368	80.000	19.996	100.185	20.099	2.181	0.496
471.500	317.601	80.000	19.995	100.185	20.099	2.140	0.500
472.000	317.845	79.999	19.995	100.185	20.099	2.157	0.482
472.500	318.125	80.001	19.995	100.182	20.099	2.151	0.500
473.000	318.366	80.000	19.996	100.182	20.101	2.024	0.523
473.500	318.612	80.001	19.995	100.182	20.103	1.903	0.504
474.000	318.869	80.000	19.993	100.182	20.101	2.035	0.495
474.500	319.142	80.001	19.994	100.181	20.100	2.108	0.517
475.000	319.366	80.001	19.996	100.181	20.102	1.966	0.513
475.500	319.613	80.002	19.995	100.181	20.101	1.990	0.484
476.000	319.842	80.000	19.995	100.181	20.099	2.132	0.474
476.500	320.087	80.002	19.995	100.181	20.104	1.786	0.475
477.000	320.349	80.001	19.995	100.181	20.105	1.779	0.490
477.500	320.600	80.001	19.995	100.181	20.101	2.058	0.510
478.000	320.884	80.000	19.995	100.182	20.101	2.039	0.524
478.500	321.095	80.002	19.995	100.181	20.098	2.219	0.515
479.000	321.384	79.999	19.995	100.181	20.096	2.383	0.497
479.500	321.602	79.999	19.995	100.181	20.100	2.090	0.503
480.000	321.881	80.001	19.995	100.181	20.099	2.159	0.502
480.500	322.111	80.001	19.995	100.180	20.102	1.931	0.503
481.000	322.393	80.000	19.994	100.180	20.098	2.232	0.510
481.500	322.623	79.999	19.995	100.181	20.099	2.144	0.512
482.000	322.875	79.999	19.995	100.180	20.101	1.998	0.497
482.500	323.143	79.999	19.997	100.180	20.100	2.105	0.501
483.000	323.403	79.998	19.995	100.181	20.100	2.076	0.525
483.500	323.603	79.998	19.995	100.181	20.098	2.206	0.494
484.000	323.923	79.998	19.996	100.181	20.101	2.039	0.490
484.500	324.139	79.997	19.995	100.182	20.103	1.921	0.528
485.000	324.374	79.998	19.994	100.182	20.104	1.852	0.493
485.500	324.617	79.999	19.996	100.181	20.105	1.742	0.465
486.000	324.879	79.998	19.994	100.180	20.105	1.758	0.492
486.500	325.127	79.997	19.995	100.175	20.102	1.987	0.508
487.000	325.380	79.999	19.994	100.172	20.108	1.536	0.506
487.500	325.641	79.998	19.995	100.172	20.098	2.241	0.507
488.000	325.913	79.997	19.996	100.172	20.098	2.247	0.523
488.500	326.122	79.997	19.994	100.174	20.114	1.128	0.507
489.000	326.399	79.999	19.995	100.179	20.108	1.577	0.484
489.500	326.673	79.998	19.994	100.181	20.104	1.803	0.519
490.000	326.919	79.998	19.996	100.180	20.095	2.430	0.536
490.500	327.122	79.997	19.996	100.179	20.103	1.872	0.484
491.000	327.430	79.999	19.996	100.178	20.103	1.876	0.480
491.500	327.631	79.999	19.993	100.178	20.099	2.164	0.510
492.000	327.911	80.000	19.995	100.179	20.109	1.465	0.495
492.500	328.156	79.998	19.995	100.180	20.100	2.110	0.502
493.000	328.389	79.998	19.995	100.180	20.100	2.121	0.501
493.500	328.636	79.997	19.995	100.182	20.100	2.071	0.479
494.000	328.913	79.999	19.994	100.181	20.103	1.899	0.502
494.500	329.154	79.998	19.995	100.181	20.097	2.269	0.521
495.000	329.383	79.998	19.996	100.180	20.104	1.803	0.494
495.500	329.677	79.999	19.995	100.180	20.102	1.987	0.497
496.000	329.950	79.999	19.995	100.180	20.098	2.264	0.545
496.500	330.153	80.000	19.994	100.181	20.100	2.114	0.522
497.000	330.452	79.999	19.996	100.182	20.101	2.056	0.489
497.500	330.627	79.999	19.995	100.182	20.101	2.022	0.488
498.000	330.987	79.998	19.994	100.182	20.102	1.983	0.504
498.500	331.124	79.998	19.998	100.182	20.101	2.030	0.515
499.000	331.462	80.000	19.996	100.181	20.104	1.790	0.486
499.500	331.656	79.997	19.994	100.179	20.103	1.895	0.503
500.000	332.033	79.998	19.996	100.176	20.098	2.246	0.552
500.500	332.256	79.999	19.996	100.175	20.101	1.990	0.586
501.000	332.540	79.998	19.996	100.175	20.101	1.995	0.554
501.500	332.489	79.998	19.995	100.174	20.105	1.722	0.370
502.000	333.115	79.999	19.995	100.177	20.101	2.014	0.404
502.500	333.507	79.999	19.996	100.180	20.100	2.087	0.797
503.000	333.703	79.999	19.996	100.181	20.102	1.964	0.803
503.500	333.981	79.998	19.996	100.181	20.100	2.086	0.531
504.000	334.047	80.000	19.994	100.182	20.101	1.994	0.409
504.500	334.446	79.999	19.996	100.181	20.100	2.065	0.405
505.000	334.706	79.997	19.996	100.182	20.105	1.768	0.562
505.500	334.622	79.998	19.996	100.182	20.102	1.957	0.417
506.000	335.146	79.998	19.996	100.182	20.100	2.080	0.308
506.500	335.220	79.998	19.995	100.182	20.103	1.884	0.519
507.000	335.496	79.998	19.995	100.183	20.101	2.041	0.474
507.500	335.682	79.998	19.996	100.181	20.102	1.983	0.406
508.000	335.930	79.998	19.998	100.179	20.098	2.230	0.448
508.500	336.227	79.998	19.996	100.179	20.096	2.340	0.489
509.000	336.524	79.998	19.996	100.178	20.100	2.069	0.570
509.500	336.739	79.998	19.995	100.173	20.102	1.966	0.553
510.000	336.954	79.998	19.996	100.171	20.099	2.129	0.471
510.500	337.284	79.998	19.996	100.165	20.097	2.316	0.487
511.000	337.497	79.999	19.996	100.159	20.100	2.093	0.544
511.500	337.813	79.998	19.995	100.152	20.101	2.041	0.536
512.000	337.980	79.999	19.998	100.151	20.100	2.095	0.506
512.500	338.278	79.999	19.995	100.154	20.099	2.183	0.474
513.000	338.501	79.997	19.996	100.158	20.095	2.417	0.493
513.500	338.787	79.999	19.994	100.166	20.096	2.348	0.515
514.000	339.086	79.998	19.996	100.172	20.096	2.380	0.547
514.500	339.270	79.999	19.995	100.178	20.099	2.166	0.534
515.000	339.504	79.999	19.996	100.179	20.102	1.985	0.450
515.500	339.786	79.999	19.996	100.180	20.100	2.101	0.467
516.000	340.007	79.998	19.995	100.178	20.099	2.161	0.509
516.500	340.288	79.997	19.994	100.180	20.101	2.004	0.503
517.000	340.560	79.997	19.995	100.180	20.099	2.151	0.528
517.500	340.736	79.997	19.995	100.181	20.097	2.293	0.500
518.000	341.050	79.998	19.996	100.182	20.096	2.351	0.469
518.500	341.256	79.997	19.995	100.185	20.099	2.146	0.505
519.000	341.515	79.998	19.996	100.182	20.095	2.438	0.492
519.500	341.804	79.998	19.995	100.181	20.098	2.254	0.506
520.000	341.959	79.998	19.996	100.182	20.098	2.209	0.496
520.500	342.284	79.997	19.996	100.181	20.099	2.174	0.462
521.000	342.512	79.997	19.996	100.181	20.097	2.299	0.517
521.500	342.773	79.997	19.995	100.183	20.096	2.337	0.521
522.000	343.039	79.998	19.996	100.183	20.096	2.355	0.508
522.500	343.249	79.997	19.996	100.181	20.102	1.983	0.501
523.000	343.513	79.996	19.994	100.180	20.099	2.142	0.475
523.500	343.726	79.997	19.995	100.180	20.098	2.239	0.476
524.000	343.974	79.997	19.995	100.180	20.097	2.333	0.469
524.500	344.239	79.998	19.995	100.181	20.100	2.063	0.487
525.000	344.489	79.999	19.996	100.184	20.095	2.447	0.514
525.500	344.755	79.997	19.996	100.185	20.095	2.449	0.515
526.000	345.012	79.998	19.996	100.186	20.098	2.215	0.519
526.500	345.233	79.998	19.995	100.185	20.100	2.075	0.501
527.000	345.469	79.998	19.996	100.183	20.098	2.198	0.468
527.500	345.725	79.998	19.996	100.181	20.099	2.176	0.475
528.000	345.962	79.996	19.996	100.179	20.102	1.964	0.493
528.500	346.222	79.998	19.994	100.178	20.098	2.217	0.495
529.000	346.487	79.999	19.996	100.179	20.099	2.157	0.511
529.500	346.749	79.999	19.995	100.181	20.101	2.024	0.526
530.000	347.016	79.999	19.996	100.182	20.098	2.217	0.528
530.500	347.214	79.999	19.998	100.183	20.099	2.189	0.497
531.000	347.510	79.999	19.997	100.183	20.098	2.262	0.480
531.500	347.757	79.998	19.997	100.183	20.096	2.353	0.518
532.000	347.997	79.999	19.996	100.183	20.097	2.331	0.515
532.500	348.240	79.999	19.996	100.183	20.096	2.370	0.485
533.000	348.477	79.999	19.995	100.182	20.099	2.142	0.482
533.500	348.743	79.999	19.996	100.182	20.098	2.209	0.492
534.000	349.010	79.999	19.997	100.181	20.098	2.215	0.518
534.500	349.290	80.000	19.997	100.181	20.094	2.479	0.540
535.000	349.492	79.997	19.996	100.181	20.095	2.409	0.514
535.500	349.751	80.000	19.997	100.181	20.099	2.174	0.471
536.000	350.045	79.999	19.997	100.181	20.095	2.421	0.507
536.500	350.271	80.001	19.998	100.179	20.097	2.282	0.536
537.000	350.563	79.999	19.996	100.179	20.094	2.479	0.519
537.500	350.741	79.999	19.997	100.179	20.098	2.243	0.495
538.000	351.041	79.999	19.995	100.179	20.095	2.409	0.474
538.500	351.264	79.997	19.996	100.179	20.097	2.316	0.500
539.000	351.530	79.997	19.995	100.180	20.096	2.348	0.506
539.500	351.810	79.999	19.996	100.179	20.097	2.295	0.517
540.000	352.032	80.000	19.994	100.178	20.096	2.383	0.524
540.500	352.361	79.999	19.996	100.177	20.096	2.350	0.526
541.000	352.564	79.997	19.995	100.177	20.096	2.370	0.541
541.500	352.775	79.997	19.995	100.177	20.098	2.222	0.473
542.000	353.086	79.998	19.996	100.178	20.097	2.318	0.468
542.500	353.355	79.997	19.997	100.179	20.098	2.202	0.551
543.000	353.560	79.998	19.996	100.177	20.096	2.400	0.527
543.501	353.809	79.998	19.997	100.177	20.095	2.437	0.464
544.000	354.059	80.000	19.998	100.177	20.097	2.295	0.477
544.500	354.329	79.998	19.995	100.174	20.096	2.378	0.509
545.000	354.581	79.999	19.997	100.173	20.093	2.540	0.521
545.500	354.804	79.998	19.995	100.175	20.093	2.550	0.499
546.000	355.084	79.998	19.995	100.175	20.092	2.649	0.489
546.500	355.304	79.998	19.994	100.175	20.095	2.443	0.501
547.000	355.574	79.999	19.995	100.179	20.098	2.200	0.495
547.500	355.821	79.999	19.997	100.180	20.095	2.445	0.503
548.000	356.088	79.999	19.996	100.181	20.092	2.608	0.516
548.500	356.332	79.999	19.996	100.179	20.089	2.843	0.513
549.000	356.592	80.001	19.995	100.178	20.093	2.591	0.507
549.500	356.816	80.001	19.995	100.177	20.093	2.570	0.494
550.000	357.071	79.999	19.996	100.177	20.092	2.667	0.482
550.500	357.343	79.999	19.995	100.175	20.093	2.564	0.503
551.000	357.557	80.000	19.994	100.176	20.095	2.465	0.507
551.500	357.873	80.000	19.996	100.179	20.093	2.583	0.508
552.000	358.142	80.000	19.995	100.179	20.095	2.463	0.557
552.500	358.338	80.000	19.994	100.180	20.094	2.536	0.525
553.000	358.606	80.000	19.996	100.182	20.095	2.407	0.465
553.500	358.852	80.001	19.994	100.182	20.099	2.138	0.490
554.000	359.123	79.999	19.995	100.179	20.096	2.338	0.516
554.500	359.357	80.001	19.996	100.177	20.095	2.466	0.511
555.000	359.619	80.000	19.994	100.177	20.095	2.445	0.500
555.500	359.840	80.002	19.995	100.177	20.097	2.293	0.489
556.000	360.130	79.999	19.994	100.177	20.092	2.621	0.497
556.500	360.372	80.002	19.994	100.180	20.094	2.475	0.521
557.000	360.629	80.001	19.994	100.181	20.096	2.353	0.515
557.500	360.883	80.001	19.995	100.181	20.093	2.555	0.506
558.000	361.146	80.001	19.995	100.180	20.092	2.673	0.515
558.500	361.393	80.001	19.994	100.180	20.092	2.621	0.514
559.000	361.603	80.001	19.995	100.180	20.094	2.473	0.483
559.500	361.892	80.001	19.995	100.181	20.095	2.452	0.478
560.000	362.146	80.000	19.995	100.178	20.094	2.486	0.521
560.500	362.418	80.000	19.995	100.174	20.096	2.363	0.535
561.000	362.633	80.000	19.997	100.174	20.092	2.623	0.507
561.500	362.898	80.000	19.996	100.171	20.090	2.793	0.483
562.000	363.114	80.000	19.995	100.164	20.091	2.696	0.480
562.500	363.394	80.000	19.995	100.162	20.092	2.671	0.489
563.000	363.604	80.000	19.994	100.166	20.092	2.647	0.493
563.500	363.906	79.998	19.996	100.165	20.093	2.578	0.501
564.000	364.167	79.999	19.996	100.168	20.091	2.679	0.537
564.500	364.419	79.999	19.996	100.175	20.093	2.554	0.538
565.000	364.681	79.998	19.995	100.180	20.089	2.875	0.514
565.500	364.935	80.001	19.996	100.178	20.088	2.900	0.515
566.000	365.198	79.999	19.996	100.178	20.091	2.692	0.516
566.500	365.417	79.998	19.995	100.178	20.091	2.731	0.500
567.000	365.721	79.999	19.994	100.178	20.090	2.812	0.502
567.500	365.950	79.998	19.997	100.179	20.089	2.840	0.528
568.000	366.247	79.998	19.994	100.181	20.089	2.881	0.530
568.500	366.500	79.997	19.995	100.180	20.087	3.008	0.538
569.000	366.724	79.997	19.995	100.177	20.086	3.034	0.513
569.500	366.991	79.999	19.995	100.174	20.085	3.100	0.484
570.000	367.224	79.999	19.994	100.172	20.085	3.102	0.496
570.500	367.475	79.998	19.995	100.173	20.086	3.064	0.493
571.000	367.733	79.998	19.995	100.175	20.085	3.105	0.496
571.500	367.980	79.997	19.996	100.178	20.080	3.435	0.507
572.000	368.227	79.997	19.996	100.181	20.084	3.199	0.500
572.500	368.495	79.998	19.996	100.178	20.083	3.253	0.504
573.000	368.779	79.998	19.995	100.175	20.080	3.470	0.533
573.500	369.041	79.998	19.994	100.174	20.081	3.366	0.548
574.000	369.269	79.996	19.995	100.175	20.083	3.274	0.518
574.500	369.526	79.999	19.996	100.176	20.076	3.747	0.488
575.000	369.772	79.997	19.996	100.180	20.080	3.442	0.494
575.500	370.040	79.997	19.994	100.182	20.079	3.549	0.509
576.000	370.231	79.997	19.994	100.182	20.081	3.377	0.486
576.500	370.524	79.998	19.996	100.182	20.078	3.588	0.471
577.000	370.791	79.998	19.995	100.181	20.076	3.710	0.522
577.500	371.049	79.997	19.994	100.182	20.078	3.573	0.543
578.000	371.285	79.998	19.994	100.184	20.079	3.538	0.510
578.500	371.544	79.998	19.994	100.186	20.078	3.635	0.494
579.000	371.792	79.998	19.994	100.186	20.075	3.801	0.500
579.500	372.051	79.997	19.994	100.185	20.076	3.768	0.507
580.000	372.316	79.998	19.994	100.182	20.076	3.726	0.516
580.500	372.600	79.999	19.995	100.181	20.079	3.545	0.537
581.000	372.829	79.998	19.994	100.181	20.076	3.721	0.531
581.500	373.075	79.998	19.995	100.181	20.075	3.839	0.494
582.000	373.350	79.999	19.995	100.183	20.074	3.902	0.498
582.500	373.598	79.998	19.995	100.185	20.074	3.902	0.522
583.000	373.857	79.998	19.994	100.185	20.076	3.710	0.515
583.500	374.098	79.998	19.994	100.185	20.072	4.047	0.504
584.000	374.379	79.998	19.994	100.185	20.072	3.990	0.511
584.500	374.610	79.999	19.994	100.185	20.073	3.921	0.517
585.000	374.882	79.999	19.995	100.186	20.073	3.944	0.507
585.500	375.132	80.000	19.994	100.186	20.071	4.086	0.512
586.000	375.332	79.999	19.993	100.186	20.068	4.279	0.486
586.500	375.657	79.998	19.994	100.186	20.074	3.897	0.488
587.000	375.891	79.998	19.995	100.185	20.067	4.327	0.542
587.500	376.114	79.998	19.995	100.184	20.064	4.529	0.508
588.000	376.362	79.999	19.994	100.184	20.069	4.245	0.464
588.500	376.649	79.997	19.992	100.185	20.069	4.189	0.503
589.000	376.914	79.997	19.995	100.183	20.063	4.634	0.543
589.500	377.153	79.997	19.994	100.183	20.067	4.325	0.528
590.000	377.417	79.999	19.995	100.183	20.065	4.507	0.504
590.500	377.674	79.997	19.994	100.183	20.065	4.477	0.512
591.000	377.907	79.997	19.994	100.182	20.060	4.808	0.505
591.500	378.171	79.996	19.995	100.182	20.063	4.598	0.493
592.000	378.451	79.998	19.994	100.182	20.060	4.840	0.521
592.500	378.699	79.997	19.994	100.182	20.059	4.937	0.537
593.000	379.005	79.998	19.994	100.182	20.060	4.829	0.541
593.500	379.244	79.998	19.994	100.183	20.057	5.031	0.549
594.000	379.480	79.998	19.995	100.185	20.061	4.785	0.510
594.500	379.740	79.998	19.995	100.185	20.056	5.088	0.485
595.000	379.995	79.997	19.994	100.185	20.057	5.017	0.506
595.500	380.232	79.997	19.994	100.186	20.057	5.053	0.504
596.000	380.519	79.997	19.994	100.187	20.052	5.360	0.508
596.500	380.732	79.997	19.996	100.187	20.050	5.487	0.512
597.000	381.019	79.999	19.995	100.187	20.048	5.635	0.500
597.501	381.291	79.998	19.996	100.186	20.045	5.829	0.530
598.000	381.556	79.998	19.995	100.186	20.047	5.745	0.548
598.500	381.779	79.997	19.996	100.184	20.044	5.917	0.512
599.000	382.073	79.997	19.996	100.183	20.043	5.989	0.502
599.500	382.301	79.997	19.996	100.183	20.044	5.932	0.519
600.000	382.585	79.997	19.995	100.183	20.042	6.091	0.517
600.500	382.791	79.997	19.996	100.183	20.042	6.035	0.501
601.000	383.072	79.997	19.996	100.182	20.037	6.378	0.489
601.500	383.344	79.996	19.995	100.180	20.036	6.475	0.520
602.000	383.599	79.997	19.998	100.180	20.036	6.498	0.540
602.500	383.852	79.998	19.997	100.180	20.034	6.599	0.517
603.000	384.126	79.997	19.996	100.183	20.040	6.237	0.518
603.500	384.346	79.998	19.996	100.184	20.038	6.374	0.511
604.000	384.596	79.998	19.996	100.186	20.031	6.832	0.482
604.500	384.899	79.997	19.995	100.186	20.036	6.458	0.511
605.000	385.123	79.997	19.996	100.185	20.031	6.836	0.540
605.500	385.384	79.996	19.995	100.184	20.033	6.669	0.506
606.000	385.652	79.998	19.996	100.182	20.027	7.096	0.507
606.500	385.899	79.998	19.996	100.182	20.024	7.275	0.522
607.000	386.170	79.999	19.996	100.181	20.023	7.403	0.517
607.500	386.413	79.997	19.994	100.181	20.025	7.235	0.516
608.000	386.666	79.999	19.996	100.182	20.020	7.560	0.505
608.500	386.960	79.999	19.995	100.182	20.021	7.508	0.522
609.000	387.190	80.000	19.995	100.183	20.021	7.481	0.536
609.500	387.466	79.999	19.997	100.187	20.017	7.788	0.515
610.000	387.707	79.999	19.995	100.189	20.014	8.017	0.511
610.500	387.981	79.999	19.996	100.188	20.013	8.092	0.516
611.000	388.220	79.997	19.994	100.188	20.008	8.428	0.514
611.500	388.484	79.999	19.995	100.190	20.004	8.644	0.508
612.000	388.739	80.000	19.996	100.190	20.003	8.764	0.511
612.500	388.992	79.999	19.993	100.192	19.999	8.994	0.513
613.000	389.233	79.999	19.996	100.197	20.002	8.831	0.501
613.500	389.482	80.000	19.995	100.203	19.999	9.014	0.492
614.000	389.780	80.000	19.996	100.208	19.997	9.179	0.519
614.500	389.998	80.000	19.995	100.212	19.992	9.479	0.532
615.000	390.262	80.000	19.994	100.215	19.996	9.247	0.499
615.500	390.524	80.000	19.995	100.217	19.988	9.795	0.504
616.000	390.773	79.998	19.994	100.215	19.987	9.830	0.519
616.500	391.083	80.000	19.994	100.212	19.987	9.875	0.535
617.000	391.309	80.000	19.997	100.207	19.987	9.867	0.547
617.500	391.585	79.998	19.995	100.200	19.981	10.219	0.519
618.000	391.839	79.999	19.995	100.195	19.979	10.401	0.516
618.500	392.115	79.998	19.996	100.191	19.977	10.532	0.531
619.000	392.378	80.000	19.995	100.192	19.976	10.585	0.535
619.500	392.617	79.999	19.997	100.198	19.976	10.622	0.521
620.000	392.893	79.999	19.996	100.202	19.972	10.892	0.508
620.500	393.134	79.997	19.995	100.207	19.970	10.987	0.516
621.000	393.416	79.999	19.996	100.212	19.966	11.253	0.520
621.500	393.675	80.000	19.996	100.213	19.968	11.154	0.531
622.000	393.909	79.999	19.997	100.213	19.961	11.618	0.517
622.500	394.172	80.000	19.995	100.215	19.958	11.848	0.495
623.000	394.487	79.999	19.996	100.215	19.956	11.979	0.538
623.500	394.726	79.998	19.997	100.217	19.956	11.938	0.566
624.000	394.969	79.999	19.996	100.217	19.954	12.139	0.518
624.500	395.223	79.998	19.997	100.217	19.946	12.635	0.489
625.000	395.457	79.998	19.995	100.218	19.944	12.765	0.492
625.500	395.727	79.998	19.996	100.219	19.942	12.906	0.496
626.000	395.995	79.999	19.996	100.219	19.941	12.989	0.521
626.500	396.274	79.997	19.996	100.219	19.937	13.308	0.543
627.000	396.502	79.999	19.996	100.217	19.934	13.510	0.527
627.500	396.737	79.999	19.998	100.214	19.930	13.750	0.485
628.000	396.980	79.998	19.997	100.213	19.927	13.945	0.470
628.500	397.243	79.997	19.995	100.212	19.926	14.046	0.492
629.000	397.524	79.998	19.997	100.213	19.923	14.221	0.525
629.500	397.753	79.998	19.996	100.216	19.923	14.230	0.527
630.000	398.023	79.998	19.997	100.219	19.911	15.054	0.505
630.500	398.267	79.999	19.997	100.219	19.911	15.052	0.507
631.000	398.546	79.999	19.997	100.219	19.903	15.614	0.518
631.500	398.778	79.998	19.997	100.219	19.903	15.593	0.517
632.000	399.066	79.998	19.995	100.219	19.902	15.694	0.516
632.500	399.286	79.998	19.996	100.219	19.894	16.198	0.514
633.000	399.568	79.999	19.997	100.220	19.893	16.273	0.504
633.500	399.818	80.000	19.997	100.220	19.896	16.083	0.517
634.000	400.089	79.999	19.996	100.221	19.885	16.820	0.527
634.500	400.296	80.000	19.996	100.222	19.882	17.028	0.500
635.000	400.578	79.999	19.996	100.223	19.880	17.209	0.483
635.500	400.827	80.001	19.996	100.227	19.876	17.461	0.510
636.000	401.077	79.999	19.995	100.233	19.866	18.163	0.515
636.500	401.317	79.998	19.995	100.240	19.863	18.357	0.495
637.000	401.569	80.001	19.995	100.245	19.864	18.285	0.491
637.500	401.765	80.000	19.996	100.249	19.853	19.030	0.470
638.000	402.063	80.001	19.995	100.250	19.851	19.203	0.471
638.500	402.321	80.000	19.996	100.252	19.844	19.682	0.525
639.000	402.609	80.001	19.994	100.252	19.836	20.207	0.551
639.500	402.811	80.000	19.994	100.255	19.836	20.224	0.518
640.000	403.065	79.999	19.995	100.262	19.826	20.891	0.473
640.500	403.328	80.004	19.995	100.266	19.823	21.116	0.486
641.000	403.567	80.000	19.995	100.271	19.816	21.575	0.509
641.500	403.858	80.002	19.995	100.272	19.813	21.817	0.516
642.000	404.104	80.002	19.994	100.270	19.802	22.568	0.533
642.500	404.357	80.000	19.993	100.267	19.794	23.066	0.518
643.000	404.631	80.000	19.995	100.265	19.793	23.181	0.513
643.500	404.845	80.002	19.996	100.261	19.786	23.678	0.507
644.000	405.116	79.999	19.995	100.261	19.778	24.196	0.486
644.500	405.346	79.999	19.995	100.264	19.778	24.231	0.493
645.000	405.585	79.999	19.995	100.271	19.767	24.956	0.485
645.500	405.875	80.000	19.994	100.274	19.763	25.242	0.499
646.000	406.104	80.000	19.997	100.282	19.753	25.946	0.524
646.500	406.354	79.998	19.995	100.288	19.749	26.156	0.499
647.000	406.603	79.999	19.994	100.287	19.743	26.629	0.489
647.500	406.838	80.000	19.996	100.284	19.733	27.271	0.492
648.000	407.109	79.998	19.995	100.287	19.729	27.543	0.496
648.500	407.355	79.998	19.996	100.287	19.722	28.034	0.512
649.000	407.601	79.998	19.995	100.289	19.714	28.583	0.504
649.500	407.872	79.998	19.996	100.295	19.711	28.825	0.505
650.000	408.103	79.996	19.994	100.299	19.701	29.468	0.509
650.500	408.352	79.997	19.993	100.301	19.689	30.320	0.491
651.000	408.625	79.997	19.996	100.302	19.685	30.612	0.501
651.500	408.886	79.998	19.994	100.305	19.678	31.082	0.528
652.000	409.084	79.998	19.995	100.305	19.672	31.492	0.497
652.500	409.356	79.999	19.996	100.305	19.667	31.859	0.464
653.000	409.640	79.997	19.994	100.306	19.658	32.470	0.513
653.500	409.860	79.998	19.995	100.305	19.653	32.794	0.530
654.000	410.138	79.997	19.995	100.306	19.644	33.409	0.501
654.500	410.364	79.997	19.996	100.309	19.636	33.964	0.501
655.000	410.625	79.998	19.995	100.313	19.630	34.386	0.495
655.500	410.875	79.998	19.995	100.319	19.619	35.139	0.499
656.000	411.120	79.998	19.994	100.321	19.617	35.246	0.503
656.500	411.345	79.997	19.997	100.319	19.606	36.016	0.483
657.000	411.621	79.997	19.996	100.324	19.598	36.587	0.485
657.500	411.899	79.999	19.996	100.324	19.595	36.782	0.527
658.000	412.102	79.997	19.994	100.326	19.587	37.352	0.517
658.500	412.370	79.998	19.995	100.332	19.577	38.022	0.476
659.000	412.610	79.998	19.996	100.339	19.568	38.624	0.489
659.500	412.870	79.997	19.995	100.340	19.565	38.826	0.504
660.000	413.105	79.997	19.995	100.347	19.559	39.286	0.498
660.500	413.418	79.997	19.995	100.353	19.547	40.111	0.521
661.000	413.622	79.998	19.996	100.356	19.532	41.102	0.532
661.500	413.856	79.998	19.993	100.359	19.530	41.264	0.478
662.000	414.135	79.998	19.997	100.364	19.513	42.419	0.476
662.500	414.343	79.998	19.996	100.367	19.504	43.042	0.500
663.000	414.591	79.998	19.996	100.369	19.490	44.011	0.471
663.500	414.838	79.998	19.997	100.373	19.486	44.288	0.475
664.000	415.100	79.998	19.995	100.379	19.472	45.260	0.502
664.500	415.322	79.998	19.995	100.384	19.463	45.888	0.497
665.000	415.578	79.998	19.997	100.388	19.454	46.488	0.481
665.500	415.826	79.997	19.995	100.394	19.442	47.309	0.491
666.000	416.103	79.998	19.994	100.396	19.431	48.067	0.514
666.500	416.359	80.000	19.995	100.395	19.421	48.796	0.529
667.000	416.620	79.998	19.996	100.395	19.408	49.678	0.525
667.500	416.852	79.999	19.998	100.399	19.402	50.055	0.505
668.000	417.102	80.000	19.996	100.400	19.392	50.788	0.487
668.500	417.361	79.999	19.997	100.406	19.375	51.935	0.496
669.000	417.625	79.999	19.996	100.410	19.366	52.598	0.517
669.500	417.868	79.999	19.994	100.413	19.362	52.829	0.515
670.000	418.106	79.998	19.994	100.413	19.349	53.717	0.493
670.500	418.351	79.998	19.995	100.408	19.338	54.464	0.482
671.000	418.622	80.000	19.995	100.408	19.333	54.820	0.500
671.500	418.863	79.998	19.995	100.409	19.323	55.542	0.515
672.000	419.111	80.000	19.995	100.411	19.308	56.580	0.500
672.500	419.382	79.998	19.996	100.417	19.300	57.112	0.504
673.000	419.624	79.999	19.995	100.426	19.288	57.918	0.516
673.500	419.891	79.999	19.995	100.431	19.275	58.870	0.511
674.000	420.111	79.999	19.994	100.439	19.269	59.222	0.498
674.500	420.383	79.999	19.995	100.446	19.254	60.280	0.489
675.000	420.615	79.998	19.995	100.448	19.243	61.025	0.498
675.500	420.899	80.000	19.995	100.451	19.235	61.622	0.510
676.000	421.121	79.997	19.996	100.455	19.224	62.361	0.511
676.500	421.369	79.998	19.994	100.457	19.209	63.394	0.488
677.000	421.638	79.998	19.994	100.464	19.201	63.978	0.494
677.500	421.908	79.997	19.995	100.470	19.185	65.047	0.528
678.000	422.111	80.000	19.995	100.478	19.170	66.091	0.506
678.500	422.354	79.998	19.994	100.486	19.163	66.592	0.459
679.000	422.621	79.999	19.994	100.492	19.149	67.539	0.478
679.500	422.866	79.998	19.997	100.493	19.136	68.472	0.511
680.000	423.152	79.999	19.994	100.495	19.127	69.082	0.521
680.500	423.360	79.997	19.997	100.495	19.114	69.960	0.513
681.000	423.627	79.999	19.995	100.496	19.105	70.592	0.485
681.500	423.902	79.999	19.996	100.499	19.092	71.457	0.508
682.000	424.157	79.999	19.996	100.501	19.084	72.052	0.536
682.500	424.387	79.999	19.994	100.503	19.071	72.928	0.508
683.000	424.657	79.998	19.995	100.504	19.060	73.713	0.492
683.500	424.911	79.999	19.996	100.506	19.049	74.426	0.512
684.000	425.161	79.998	19.995	100.510	19.038	75.209	0.514
684.500	425.443	79.999	19.996	100.514	19.028	75.929	0.518
685.000	425.693	79.998	19.995	100.519	19.013	76.957	0.532
685.500	425.922	79.999	19.995	100.525	18.997	78.076	0.506
686.000	426.171	79.998	19.995	100.530	18.986	78.823	0.478
686.500	426.428	79.999	19.996	100.533	18.972	79.779	0.492
687.000	426.652	80.000	19.996	100.539	18.958	80.740	0.494
687.500	426.890	79.998	19.995	100.548	18.944	81.740	0.472
688.000	427.150	79.999	19.995	100.556	18.927	82.890	0.480
688.500	427.423	79.998	19.996	100.564	18.914	83.799	0.515
689.000	427.665	79.996	19.996	100.572	18.902	84.615	0.524
689.500	427.922	79.999	19.995	100.578	18.884	85.848	0.508
690.000	428.179	79.996	19.996	100.581	18.865	87.184	0.507
690.500	428.456	80.001	19.995	100.588	18.856	87.828	0.524
691.000	428.710	79.999	19.996	100.595	18.844	88.669	0.532
691.500	428.947	79.999	19.995	100.603	18.823	90.052	0.511
692.000	429.169	79.998	19.996	100.607	18.813	90.807	0.475
692.500	429.419	79.999	19.995	100.610	18.795	92.038	0.465
693.000	429.719	80.001	19.996	100.612	18.778	93.232	0.511
693.500	429.928	80.000	19.995	100.612	18.767	93.952	0.529
694.000	430.164	79.999	19.995	100.612	18.747	95.353	0.477
694.500	430.439	80.000	19.997	100.613	18.731	96.456	0.478
695.000	430.682	80.000	19.998	100.620	18.717	97.410	0.514
695.500	430.925	79.999	19.997	100.628	18.703	98.395	0.502
696.001	431.145	79.996	19.996	100.636	18.687	99.540	0.474
696.500	431.416	80.000	19.996	100.645	18.668	100.810	0.477
697.000	431.642	80.000	19.996	100.652	18.651	102.040	0.494
697.500	431.923	79.999	19.995	100.654	18.637	102.960	0.502
698.000	432.188	79.999	19.996	100.654	18.620	104.138	0.526
698.500	432.432	79.998	19.997	100.657	18.606	105.134	0.528
699.000	432.678	80.001	19.996	100.664	18.588	106.395	0.499
699.500	432.934	80.001	19.997	100.669	18.567	107.845	0.496
700.000	433.188	79.999	19.995	100.677	18.546	109.282	0.506
700.500	433.411	80.000	19.996	100.685	18.529	110.474	0.493
701.000	433.704	80.002	19.996	100.690	18.515	111.461	0.497
701.500	433.968	79.997	19.995	100.691	18.494	112.895	0.537
702.000	434.203	80.003	19.995	100.695	18.481	113.812	0.528
702.500	434.425	80.000	19.996	100.697	18.462	115.159	0.478
703.000	434.700	80.000	19.995	100.701	18.441	116.575	0.477
703.500	434.936	80.000	19.995	100.706	18.423	117.871	0.504
704.000	435.140	79.997	19.996	100.714	18.406	119.045	0.475
704.500	435.423	79.998	19.995	100.721	18.387	120.318	0.464
705.000	435.669	80.000	19.996	100.733	18.371	121.493	0.508
705.500	435.918	80.001	19.995	100.744	18.349	122.967	0.512
706.000	436.193	80.001	19.996	100.754	18.333	124.113	0.509
706.500	436.428	80.000	19.996	100.761	18.314	125.405	0.517
707.000	436.680	79.999	19.995	100.768	18.296	126.686	0.499
707.500	436.910	79.997	19.996	100.770	18.272	128.365	0.485
708.000	437.199	79.998	19.995	100.771	18.256	129.444	0.500
708.500	437.425	80.001	19.994	100.771	18.237	130.761	0.517
709.000	437.661	79.999	19.995	100.775	18.221	131.914	0.489
709.500	437.915	79.999	19.995	100.783	18.200	133.357	0.476
710.000	438.144	80.000	19.995	100.791	18.180	134.757	0.486
710.500	438.394	79.999	19.996	100.802	18.161	136.064	0.481
711.000	438.608	79.998	19.994	100.815	18.141	137.471	0.471
711.500	438.838	80.001	19.996	100.824	18.119	138.989	0.454
712.000	439.151	80.000	19.995	100.831	18.102	140.169	0.494
712.500	439.394	80.000	19.995	100.839	18.079	141.747	0.550
713.000	439.624	79.999	19.995	100.846	18.058	143.190	0.514
713.500	439.881	79.998	19.997	100.853	18.036	144.685	0.480
714.000	440.136	79.999	19.995	100.862	18.014	146.187	0.500
714.500	440.401	80.000	19.994	100.871	17.991	147.805	0.516
715.000	440.637	80.001	19.996	100.879	17.967	149.422	0.510
715.500	440.878	80.000	19.994	100.887	17.947	150.801	0.489
716.000	441.135	80.000	19.998	100.896	17.925	152.352	0.488
716.500	441.359	80.000	19.996	100.904	17.899	154.149	0.489
717.000	441.629	80.000	19.995	100.911	17.878	155.637	0.487
717.500	441.858	80.000	19.996	100.919	17.854	157.316	0.496
718.000	442.089	79.998	19.996	100.929	17.833	158.764	0.479
718.500	442.339	79.998	19.996	100.933	17.808	160.519	0.471
719.000	442.607	80.000	19.997	100.942	17.786	162.080	0.500
719.500	442.796	79.999	19.996	100.949	17.764	163.610	0.488
720.000	443.050	80.000	19.995	100.959	17.749	164.622	0.450
720.500	443.295	80.000	19.995	100.965	17.723	166.452	0.471
721.000	443.516	80.001	19.996	100.972	17.703	167.818	0.482
721.500	443.780	80.001	19.994	100.974	17.688	168.853	0.476
722.000	444.047	80.000	19.997	100.975	17.672	169.975	0.508
722.500	444.279	80.001	19.996	100.974	17.660	170.792	0.515
723.000	444.527	80.000	19.996	100.974	17.645	171.878	0.489
723.500	444.761	80.001	19.995	100.972	17.631	172.816	0.480
724.000	445.007	80.000	19.995	100.968	17.626	173.182	0.481
724.500	445.275	80.000	19.996	100.965	17.615	173.922	0.497
725.000	445.514	79.999	19.995	100.967	17.608	174.417	0.510
725.500	445.754	79.999	19.995	100.960	17.593	175.431	0.493
726.000	446.024	80.000	19.996	100.951	17.587	175.800	0.495
726.500	446.262	79.999	19.996	100.950	17.577	176.505	0.509
727.000	446.500	80.000	19.996	100.950	17.565	177.338	0.492
727.500	446.708	79.997	19.995	100.952	17.555	178.034	0.461
728.000	446.978	80.001	19.996	100.967	17.542	178.973	0.462
728.500	447.239	79.999	19.995	100.989	17.533	179.585	0.505
729.000	447.493	79.999	19.996	101.010	17.524	180.209	0.523
729.500	447.718	79.999	19.997	101.025	17.511	181.092	0.496
730.000	447.965	80.000	19.995	101.037	17.509	181.260	0.475
730.500	448.220	79.999	19.996	101.046	17.499	181.912	0.487
731.000	448.473	79.999	19.996	101.046	17.489	182.637	0.505
731.500	448.763	79.998	19.996	101.046	17.489	182.626	0.525
732.000	448.993	79.997	19.995	101.048	17.481	183.206	0.532
732.500	449.248	79.997	19.996	101.047	17.474	183.674	0.503
733.000	449.516	79.999	19.996	101.044	17.469	184.059	0.504
733.500	449.742	79.997	19.995	101.048	17.466	184.245	0.509
734.000	449.997	79.999	19.997	101.049	17.462	184.545	0.488
734.500	450.263	79.997	19.995	101.048	17.462	184.516	0.501
735.000	450.511	79.998	19.995	101.047	17.456	184.907	0.517
735.500	450.726	79.998	19.995	101.044	17.458	184.785	0.488
736.000	451.032	79.996	19.995	101.038	17.454	185.020	0.492
736.500	451.227	79.998	19.996	101.033	17.454	185.008	0.511
737.000	451.447	79.996	19.996	101.030	17.457	184.791	0.458
737.500	451.738	79.997	19.995	101.031	17.458	184.760	0.463
738.000	452.032	79.998	19.995	101.034	17.459	184.651	0.548
738.500	452.246	79.999	19.995	101.037	17.459	184.661	0.547
739.000	452.489	79.998	19.996	101.041	17.459	184.637	0.482
739.500	452.778	79.997	19.994	101.043	17.463	184.354	0.495
740.000	453.027	79.999	19.994	101.043	17.458	184.710	0.535
740.500	453.264	79.997	19.995	101.044	17.459	184.642	0.512
741.000	453.514	79.998	19.996	101.045	17.461	184.492	0.486
741.500	453.749	80.000	19.996	101.046	17.457	184.774	0.485
742.000	454.006	79.997	19.996	101.046	17.459	184.595	0.488
742.500	454.269	79.998	19.996	101.049	17.459	184.566	0.506
743.000	454.537	79.998	19.996	101.056	17.458	184.670	0.526
743.500	454.797	79.998	19.996	101.059	17.461	184.408	0.530
744.000	455.012	79.998	19.996	101.064	17.470	183.808	0.502
744.500	455.293	79.998	19.996	101.069	17.468	183.894	0.485
745.000	455.477	79.998	19.995	101.067	17.475	183.419	0.480
745.500	455.763	79.998	19.997	101.060	17.479	183.098	0.467
746.000	456.021	79.999	19.996	101.056	17.488	182.489	0.507
746.500	456.264	80.000	19.995	101.050	17.489	182.406	0.523
747.000	456.475	79.999	19.996	101.040	17.496	181.927	0.478
747.500	456.796	79.997	19.996	101.036	17.501	181.536	0.493
748.000	457.004	79.998	19.996	101.031	17.517	180.451	0.530
748.500	457.277	79.998	19.996	101.024	17.517	180.423	0.505
749.000	457.523	79.997	19.995	101.017	17.528	179.642	0.500
749.500	457.751	79.998	19.996	101.014	17.537	178.978	0.496
750.000	458.051	79.998	19.995	101.007	17.544	178.484	0.501
750.500	458.270	79.998	19.996	101.003	17.555	177.741	0.524
751.000	458.507	79.999	19.996	101.000	17.564	177.042	0.488
751.500	458.782	79.997	19.996	100.998	17.577	176.126	0.484
752.000	459.043	79.998	19.997	100.998	17.592	175.067	0.524
752.500	459.287	79.999	19.996	100.993	17.602	174.394	0.520
753.000	459.543	79.999	19.996	100.986	17.618	173.276	0.502
753.500	459.798	79.998	19.996	100.979	17.633	172.230	0.506
754.000	460.085	80.000	19.995	100.973	17.648	171.176	0.527
754.500	460.286	79.999	19.995	100.966	17.666	169.917	0.515
755.000	460.590	79.998	19.994	100.961	17.680	168.924	0.496
755.500	460.764	79.996	19.996	100.955	17.700	167.502	0.491
756.000	461.039	80.000	19.994	100.948	17.720	166.158	0.463
756.500	461.237	80.000	19.995	100.940	17.743	164.511	0.461
757.000	461.550	79.999	19.996	100.933	17.759	163.408	0.492
757.500	461.794	79.998	19.995	100.922	17.780	161.988	0.534
758.000	462.030	79.998	19.996	100.913	17.805	160.216	0.519
758.500	462.273	79.999	19.996	100.905	17.825	158.841	0.480
759.000	462.560	79.997	19.997	100.894	17.849	157.171	0.504
759.500	462.788	79.998	19.996	100.880	17.873	155.461	0.523
760.000	463.044	79.998	19.997	100.872	17.897	153.820	0.500
760.500	463.273	79.998	19.995	100.864	17.922	152.081	0.485
761.000	463.556	79.999	19.995	100.855	17.948	150.247	0.499
761.500	463.812	79.998	19.995	100.844	17.977	148.275	0.525
762.000	464.057	79.999	19.995	100.834	17.999	146.746	0.519
762.500	464.270	79.997	19.996	100.824	18.025	144.874	0.479
763.000	464.512	79.999	19.995	100.813	18.056	142.722	0.456
763.500	464.761	80.000	19.997	100.805	18.079	141.120	0.473
764.000	465.018	80.001	19.996	100.797	18.111	138.900	0.499
764.500	465.239	79.998	19.996	100.784	18.140	136.926	0.492
765.000	465.462	80.000	19.996	100.777	18.170	134.859	0.461
765.500	465.740	79.997	19.994	100.766	18.201	132.683	0.472
766.000	465.943	79.997	19.995	100.751	18.230	130.664	0.491
766.500	466.243	79.997	19.995	100.743	18.264	128.306	0.492
767.000	466.489	79.999	19.994	100.739	18.297	126.043	0.524
767.500	466.744	79.996	19.995	100.725	18.333	123.590	0.523
768.000	467.031	79.997	19.994	100.715	18.363	121.528	0.521
768.500	467.250	79.998	19.995	100.705	18.398	119.085	0.524
769.000	467.474	79.997	19.994	100.692	18.433	116.677	0.474
769.500	467.750	79.997	19.994	100.677	18.462	114.679	0.471
770.000	467.971	79.998	19.994	100.662	18.501	112.019	0.499
770.500	468.270	79.999	19.994	100.647	18.539	109.386	0.509
771.000	468.480	79.998	19.995	100.634	18.574	106.976	0.514
771.500	468.745	79.998	19.995	100.625	18.614	104.234	0.492
772.000	468.988	79.998	19.995	100.617	18.651	101.650	0.491
772.500	469.227	79.998	19.995	100.609	18.691	98.924	0.495
773.000	469.495	79.998	19.995	100.600	18.729	96.279	0.495
773.500	469.751	79.996	19.994	100.586	18.769	93.564	0.516
774.000	469.971	79.999	19.997	100.571	18.808	90.834	0.500
774.500	470.235	79.998	19.994	100.556	18.843	88.466	0.480
775.000	470.490	79.999	19.994	100.547	18.881	85.850	0.502
775.500	470.741	79.998	19.994	100.532	18.920	83.105	0.513
776.000	470.997	79.998	19.994	100.522	18.956	80.638	0.506
776.500	471.237	80.001	19.994	100.512	18.996	77.902	0.501
777.000	471.530	79.998	19.996	100.499	19.032	75.442	0.514
777.500	471.752	79.999	19.994	100.484	19.067	73.008	0.524
778.000	471.991	79.999	19.995	100.476	19.098	70.900	0.488
778.500	472.243	79.999	19.993	100.468	19.136	68.268	0.476
779.000	472.492	79.999	19.995	100.463	19.166	66.190	0.496
779.500	472.748	79.999	19.993	100.460	19.197	64.046	0.503
780.000	473.001	79.999	19.994	100.460	19.228	61.939	0.507
780.500	473.255	79.999	19.995	100.457	19.262	59.621	0.508
781.000	473.508	79.998	19.995	100.454	19.290	57.656	0.507
781.500	473.739	79.999	19.994	100.446	19.320	55.633	0.496
782.000	474.032	80.000	19.995	100.438	19.344	54.002	0.504
782.500	474.272	79.998	19.995	100.431	19.372	52.046	0.528
783.000	474.516	80.000	19.996	100.426	19.397	50.309	0.508
783.500	474.792	79.999	19.995	100.416	19.419	48.789	0.502
784.000	475.051	79.999	19.996	100.410	19.442	47.225	0.528
784.500	475.248	79.998	19.995	100.402	19.465	45.650	0.496
785.000	475.530	79.996	19.995	100.394	19.483	44.445	0.467
785.500	475.803	79.999	19.995	100.385	19.504	42.988	0.517
786.000	476.042	79.996	19.995	100.377	19.523	41.687	0.533
786.500	476.274	79.996	19.996	100.367	19.540	40.510	0.491
787.000	476.521	79.997	19.996	100.359	19.560	39.171	0.475
787.500	476.779	79.998	19.996	100.350	19.581	37.693	0.492
788.000	477.035	79.997	19.997	100.340	19.593	36.905	0.509
788.500	477.260	79.998	19.994	100.332	19.608	35.865	0.497
789.000	477.527	79.999	19.995	100.327	19.624	34.736	0.486
789.500	477.787	79.998	19.995	100.319	19.638	33.777	0.509
790.000	478.043	79.997	19.995	100.312	19.654	32.658	0.521
790.500	478.290	79.999	19.996	100.307	19.662	32.126	0.510
791.000	478.530	79.998	19.996	100.304	19.681	30.847	0.495
791.500	478.775	79.997	19.995	100.300	19.694	29.947	0.486
792.000	479.003	79.998	19.996	100.299	19.704	29.242	0.479
792.500	479.257	79.997	19.995	100.296	19.716	28.441	0.477
793.000	479.532	79.997	19.995	100.293	19.731	27.430	0.505
793.500	479.789	79.998	19.996	100.287	19.740	26.749	0.531
794.000	480.059	79.998	19.995	100.282	19.751	26.021	0.530
794.500	480.297	80.000	19.996	100.279	19.761	25.368	0.518
795.001	480.541	80.000	19.996	100.275	19.769	24.789	0.495
795.500	480.834	79.999	19.996	100.269	19.779	24.095	0.509
796.000	481.074	80.000	19.995	100.268	19.788	23.496	0.535
796.500	481.333	79.998	19.995	100.267	19.794	23.097	0.516
797.000	481.592	79.999	19.995	100.262	19.803	22.470	0.509
797.500	481.842	79.999	19.996	100.259	19.815	21.637	0.514
798.000	482.105	79.998	19.996	100.259	19.819	21.352	0.511
798.500	482.321	79.999	19.996	100.256	19.829	20.667	0.496
799.000	482.619	79.997	19.995	100.250	19.837	20.120	0.497
799.500	482.868	80.000	19.996	100.243	19.843	19.734	0.530
800.000	483.105	79.998	19.995	100.236	19.849	19.323	0.516
800.500	483.389	80.000	19.995	100.229	19.860	18.531	0.504
801.000	483.626	79.998	19.995	100.224	19.859	18.585	0.521
801.500	483.904	80.000	19.995	100.221	19.865	18.223	0.518
802.000	484.128	80.001	19.995	100.221	19.878	17.297	0.508
802.500	484.396	80.000	19.996	100.221	19.885	16.854	0.497
803.000	484.630	79.999	19.995	100.222	19.888	16.657	0.497
803.500	484.889	80.001	19.994	100.221	19.894	16.233	0.497
804.000	485.116	80.002	19.995	100.222	19.899	15.883	0.490
804.500	485.410	80.000	19.995	100.222	19.906	15.407	0.504
805.000	485.676	80.000	19.996	100.221	19.907	15.336	0.540
805.500	485.948	79.999	19.995	100.221	19.915	14.788	0.548
806.000	486.234	80.001	19.995	100.220	19.918	14.601	0.548
806.500	486.452	80.000	19.996	100.220	19.922	14.325	0.532
807.000	486.722	80.000	19.995	100.220	19.926	14.038	0.497
807.500	487.007	80.002	19.994	100.219	19.929	13.809	0.522
808.000	487.221	79.999	19.996	100.218	19.935	13.387	0.527
808.500	487.469	80.001	19.996	100.218	19.938	13.168	0.480
809.000	487.758	79.999	19.995	100.216	19.943	12.861	0.499
809.500	488.033	79.999	19.995	100.215	19.946	12.677	0.551
810.000	488.273	79.998	19.995	100.212	19.954	12.095	0.540
810.500	488.518	79.999	19.996	100.209	19.960	11.713	0.500
811.000	488.787	79.999	19.994	100.204	19.954	12.104	0.500
811.500	489.060	79.999	19.995	100.200	19.966	11.255	0.528
812.000	489.319	79.997	19.996	100.197	19.965	11.339	0.537
812.500	489.603	79.999	19.996	100.193	19.965	11.314	0.537
813.000	489.832	79.997	19.996	100.195	19.967	11.236	0.528
813.500	490.108	79.997	19.996	100.195	19.976	10.568	0.509
814.000	490.346	79.996	19.995	100.194	19.976	10.607	0.510
814.500	490.593	79.996	19.995	100.195	19.980	10.308	0.499
815.000	490.860	79.997	19.995	100.197	19.983	10.083	0.500
815.500	491.108	79.997	19.996	100.194	19.984	10.037	0.515
816.000	491.400	79.996	19.996	100.194	19.985	9.945	0.527
816.500	491.634	79.995	19.997	100.193	19.988	9.765	0.533
817.000	491.885	79.995	19.997	100.191	19.993	9.431	0.506
817.500	492.169	79.998	19.997	100.191	19.994	9.389	0.510
818.000	492.412	79.998	19.997	100.193	19.994	9.333	0.531
818.500	492.667	79.998	19.997	100.193	19.999	9.012	0.512
819.000	492.932	79.995	19.998	100.193	20.003	8.746	0.509
819.500	493.169	79.997	19.997	100.194	20.000	8.935	0.511
820.000	493.429	79.996	19.996	100.192	20.009	8.347	0.500
820.500	493.707	79.996	19.996	100.190	20.005	8.574	0.517
821.000	493.967	79.995	19.996	100.190	20.010	8.265	0.538
821.500	494.247	79.994	19.996	100.189	20.008	8.383	0.539
822.000	494.507	79.998	19.996	100.186	20.009	8.332	0.540
822.500	494.802	79.998	19.998	100.186	20.011	8.224	0.547
823.000	495.038	79.997	19.998	100.183	20.014	7.997	0.543
823.500	495.296	79.997	19.996	100.182	20.018	7.702	0.513
824.000	495.563	79.997	19.997	100.183	20.017	7.812	0.509
824.500	495.838	79.997	19.996	100.183	20.017	7.778	0.533
825.000	496.096	79.997	19.995	100.183	20.017	7.810	0.537
825.500	496.331	79.996	19.995	100.183	20.021	7.514	0.513
826.000	496.573	79.995	19.995	100.184	20.023	7.391	0.485
826.500	496.837	79.997	19.995	100.183	20.026	7.187	0.492
827.000	497.091	79.996	19.994	100.183	20.025	7.247	0.512
827.500	497.346	79.999	19.995	100.183	20.028	7.024	0.513
828.000	497.627	79.997	19.994	100.186	20.022	7.408	0.522
828.500	497.865	79.998	19.995	100.185	20.030	6.920	0.528
829.000	498.126	79.999	19.997	100.184	20.028	7.004	0.509
829.500	498.395	79.998	19.994	100.185	20.030	6.910	0.515
830.000	498.672	79.998	19.996	100.184	20.030	6.921	0.538
830.500	498.903	79.994	19.995	100.182	20.033	6.719	0.526
831.000	499.174	79.998	19.996	100.183	20.036	6.487	0.505
831.500	499.397	79.998	19.995	100.184	20.033	6.665	0.498
832.000	499.696	79.997	19.996	100.183	20.033	6.684	0.508
832.500	499.923	79.998	19.996	100.183	20.034	6.609	0.524
833.000	500.188	79.996	19.996	100.183	20.038	6.312	0.509
833.500	500.445	79.998	19.995	100.183	20.033	6.661	0.507
834.000	500.696	79.998	19.995	100.180	20.040	6.208	0.515
834.500	500.927	79.997	19.995	100.179	20.038	6.319	0.495
835.000	501.211	79.997	19.995	100.179	20.037	6.418	0.498
835.500	501.455	79.998	19.995	100.179	20.038	6.326	0.521
836.000	501.703	79.997	19.996	100.179	20.040	6.182	0.510
836.500	501.986	79.998	19.994	100.179	20.045	5.867	0.511
837.000	502.233	79.997	19.995	100.178	20.041	6.123	0.531
837.500	502.498	79.998	19.995	100.180	20.043	6.001	0.521
838.000	502.771	79.995	19.995	100.179	20.042	6.060	0.525
838.500	502.992	79.999	19.996	100.180	20.041	6.159	0.516
839.000	503.261	79.996	19.994	100.182	20.040	6.173	0.492
839.500	503.509	79.998	19.994	100.183	20.046	5.764	0.503
840.000	503.748	79.998	19.995	100.178	20.043	6.011	0.502
840.500	504.030	79.997	19.995	100.176	20.041	6.131	0.504
841.000	504.269	79.996	19.994	100.176	20.039	6.255	0.521
841.500	504.525	79.997	19.994	100.175	20.038	6.330	0.508
842.000	504.780	79.997	19.995	100.174	20.042	6.079	0.503
842.500	505.041	79.997	19.996	100.178	20.045	5.864	0.514
843.000	505.297	79.999	19.996	100.180	20.047	5.727	0.517
843.500	505.516	79.996	19.996	100.178	20.050	5.536	0.496
844.000	505.826	79.997	19.997	100.178	20.042	6.084	0.502
844.500	506.049	79.995	19.995	100.178	20.050	5.538	0.531
845.000	506.343	79.997	19.995	100.174	20.047	5.699	0.525
845.500	506.590	79.999	19.995	100.172	20.053	5.329	0.529
846.000	506.801	79.997	19.994	100.175	20.052	5.381	0.500
846.500	507.085	79.997	19.995	100.176	20.047	5.709	0.476
847.000	507.312	79.997	19.996	100.176	20.049	5.593	0.503
847.500	507.553	79.997	19.995	100.181	20.049	5.604	0.490
848.000	507.876	79.996	19.994	100.177	20.054	5.249	0.516
848.500	508.076	79.997	19.995	100.169	20.048	5.626	0.543
849.000	508.340	79.996	19.996	100.162	20.057	5.037	0.493
849.500	508.599	79.997	19.995	100.158	20.052	5.411	0.493
850.000	508.869	79.995	19.994	100.153	20.051	5.433	0.526
850.500	509.091	79.997	19.994	100.152	20.052	5.401	0.511
851.000	509.357	79.997	19.995	100.156	20.051	5.462	0.491
851.500	509.642	79.996	19.995	100.162	20.048	5.670	0.519
852.000	509.886	79.996	19.995	100.166	20.051	5.450	0.540
852.500	510.120	79.999	19.996	100.171	20.053	5.283	0.503
853.000	510.376	79.997	19.995	100.169	20.052	5.401	0.484
853.500	510.654	79.999	19.995	100.167	20.046	5.816	0.512
854.000	510.862	79.998	19.996	100.166	20.050	5.495	0.510
854.500	511.116	79.996	19.996	100.164	20.052	5.352	0.474
855.000	511.375	79.998	19.994	100.163	20.052	5.356	0.488
855.500	511.590	79.998	19.995	100.164	20.051	5.433	0.494
856.000	511.884	79.997	19.995	100.169	20.052	5.384	0.491
856.500	512.077	79.998	19.995	100.169	20.057	5.072	0.498
857.000	512.380	79.998	19.996	100.170	20.053	5.337	0.491
857.500	512.644	79.999	19.996	100.171	20.048	5.653	0.531
858.000	512.887	79.998	19.994	100.177	20.054	5.219	0.538
858.500	513.111	79.997	19.995	100.175	20.057	5.066	0.487
859.000	513.382	79.999	19.994	100.174	20.059	4.899	0.481
859.500	513.684	80.000	19.995	100.170	20.056	5.087	0.534
860.000	513.893	79.998	19.994	100.165	20.056	5.077	0.542
860.500	514.200	79.999	19.995	100.157	20.060	4.819	0.514
861.000	514.409	80.000	19.994	100.152	20.060	4.838	0.517
861.500	514.684	80.000	19.995	100.148	20.055	5.202	0.500
862.000	514.952	79.999	19.995	100.146	20.059	4.926	0.513
862.500	515.199	80.000	19.995	100.145	20.064	4.565	0.529
863.000	515.437	79.999	19.996	100.151	20.057	5.055	0.500
863.500	515.713	79.999	19.994	100.156	20.061	4.757	0.500
864.000	515.949	79.999	19.995	100.155	20.059	4.924	0.513
864.500	516.152	80.000	19.995	100.156	20.059	4.926	0.476
865.000	516.437	79.999	19.994	100.156	20.060	4.828	0.463
865.500	516.704	80.000	19.994	100.152	20.057	5.070	0.520
866.000	516.954	79.999	19.993	100.148	20.064	4.576	0.534
866.500	517.231	79.999	19.994	100.152	20.058	4.995	0.522
867.000	517.472	79.999	19.994	100.155	20.058	4.978	0.522
867.500	517.717	80.000	19.994	100.154	20.060	4.845	0.502
868.000	517.982	79.999	19.993	100.151	20.057	5.015	0.498
868.500	518.241	79.998	19.994	100.151	20.058	4.961	0.517
869.000	518.484	80.001	19.994	100.146	20.064	4.578	0.513
869.500	518.753	79.998	19.993	100.142	20.061	4.791	0.507
870.000	518.964	79.999	19.995	100.143	20.062	4.720	0.495
870.500	519.278	80.000	19.998	100.145	20.059	4.895	0.502
871.000	519.520	80.000	19.994	100.146	20.060	4.813	0.541
871.500	519.788	79.998	19.995	100.147	20.057	5.062	0.533
872.000	520.037	79.998	19.994	100.147	20.055	5.179	0.514
872.500	520.298	80.000	19.995	100.145	20.058	5.004	0.514
873.000	520.552	79.999	19.995	100.143	20.057	5.030	0.512
873.500	520.805	79.999	19.995	100.142	20.056	5.139	0.511
874.000	521.017	79.998	19.995	100.143	20.056	5.120	0.486
874.500	521.313	80.000	19.996	100.143	20.055	5.208	0.487
875.000	521.587	80.002	19.995	100.143	20.058	4.953	0.539
875.500	521.824	80.001	19.995	100.143	20.056	5.080	0.540
876.000	522.044	79.999	19.996	100.142	20.061	4.736	0.484
876.500	522.304	80.001	19.996	100.143	20.056	5.090	0.469
877.000	522.578	80.001	19.995	100.143	20.062	4.664	0.507
877.500	522.823	79.999	19.995	100.142	20.057	5.060	0.526
878.000	523.084	79.997	19.995	100.142	20.066	4.450	0.513
878.500	523.303	80.001	19.995	100.142	20.062	4.673	0.493
879.000	523.571	80.001	19.996	100.141	20.059	4.899	0.483
879.500	523.840	79.999	19.996	100.140	20.059	4.926	0.511
880.000	524.116	79.997	19.995	100.140	20.062	4.671	0.541
880.500	524.341	79.999	19.994	100.140	20.061	4.785	0.523
881.000	524.619	79.998	19.995	100.140	20.056	5.075	0.502
881.500	524.840	80.000	19.997	100.138	20.061	4.740	0.501
882.000	525.094	80.000	19.995	100.135	20.059	4.879	0.487
882.500	525.351	80.000	19.995	100.134	20.065	4.516	0.493
883.000	525.615	80.000	19.996	100.134	20.062	4.693	0.516
883.500	525.856	79.999	19.996	100.135	20.064	4.564	0.513
884.000	526.112	79.998	19.996	100.138	20.062	4.699	0.501
884.500	526.360	80.001	19.996	100.139	20.065	4.477	0.500
885.000	526.600	79.998	19.994	100.137	20.067	4.377	0.496
885.500	526.837	80.001	19.996	100.135	20.062	4.714	0.483
886.000	527.086	79.999	19.996	100.135	20.065	4.480	0.482
886.500	527.352	80.002	19.995	100.134	20.059	4.916	0.501
887.000	527.601	79.999	19.995	100.134	20.059	4.929	0.515
887.500	527.823	80.003	19.994	100.138	20.060	4.841	0.492
888.000	528.108	80.002	19.994	100.140	20.066	4.432	0.489
888.500	528.350	80.001	19.994	100.139	20.062	4.722	0.517
889.000	528.613	80.018	19.999	100.138	20.061	4.741	0.516
889.500	528.886	80.020	20.000	100.139	20.060	4.823	0.521
890.000	529.111	80.019	20.001	100.143	20.061	4.737	0.517
890.500	529.372	80.021	20.000	100.143	20.059	4.892	0.492
891.000	529.618	80.018	19.997	100.144	20.064	4.557	0.496
891.500	529.908	80.009	19.997	100.145	20.065	4.467	0.522
892.000	530.135	80.002	19.998	100.144	20.060	4.827	0.527
892.500	530.395	79.999	19.998	100.140	20.061	4.746	0.502
893.000	530.663	79.998	19.996	100.140	20.056	5.088	0.508
893.500	530.908	79.998	19.995	100.139	20.066	4.438	0.521
894.000	531.172	80.001	19.996	100.138	20.059	4.926	0.511
894.500	531.390	79.997	19.995	100.138	20.059	4.922	0.495
895.000	531.643	80.001	19.996	100.139	20.063	4.645	0.476
895.500	531.926	79.999	19.996	100.138	20.061	4.740	0.504
896.000	532.155	79.997	19.996	100.138	20.065	4.497	0.524
896.500	532.420	79.999	19.996	100.141	20.061	4.748	0.503
897.000	532.678	79.998	19.996	100.142	20.061	4.778	0.509
897.500	532.935	79.999	19.996	100.142	20.062	4.709	0.519
898.000	533.205	79.998	19.996	100.144	20.061	4.742	0.521
898.500	533.416	79.999	19.996	100.144	20.058	5.000	0.504
899.000	533.689	79.999	19.997	100.144	20.065	4.465	0.483
899.500	533.971	79.998	19.994	100.145	20.068	4.312	0.520
900.000	534.210	79.998	19.997	100.145	20.065	4.501	0.538
900.500	534.491	79.997	19.995	100.144	20.069	4.213	0.521
901.000	534.740	79.997	19.995	100.144	20.063	4.641	0.525
901.500	535.014	79.997	19.996	100.144	20.066	4.409	0.526
902.000	535.254	79.997	19.997	100.143	20.063	4.639	0.519
902.500	535.517	79.998	19.997	100.144	20.065	4.490	0.508
903.000	535.777	79.996	19.996	100.144	20.056	5.124	0.513
903.500	536.064	79.998	19.997	100.144	20.063	4.656	0.535
904.000	536.298	79.995	19.996	100.144	20.062	4.716	0.535
904.500	536.541	79.996	19.996	100.143	20.066	4.421	0.499
905.000	536.784	79.998	19.997	100.143	20.057	5.021	0.481
905.500	537.042	79.998	19.997	100.143	20.064	4.563	0.493
906.000	537.298	79.997	19.997	100.143	20.065	4.477	0.508
906.500	537.548	79.998	19.997	100.143	20.061	4.772	0.510
907.000	537.815	79.997	19.997	100.143	20.060	4.834	0.512
907.500	538.091	79.998	19.997	100.143	20.064	4.544	0.530
908.000	538.336	79.996	19.995	100.143	20.061	4.791	0.532
908.500	538.606	79.998	19.995	100.142	20.062	4.690	0.518
909.000	538.843	79.996	19.997	100.140	20.063	4.632	0.511
909.500	539.090	79.998	19.997	100.141	20.063	4.632	0.496
910.000	539.350	79.999	19.997	100.139	20.065	4.481	0.496
910.500	539.615	79.997	19.995	100.138	20.063	4.598	0.516
911.000	539.873	79.996	19.996	100.139	20.061	4.755	0.524
911.500	540.145	79.999	19.997	100.140	20.063	4.602	0.526
912.000	540.374	79.998	19.996	100.140	20.064	4.587	0.515
912.500	540.650	79.996	19.996	100.142	20.065	4.505	0.503
913.000	540.860	79.998	19.996	100.140	20.071	4.112	0.496
913.500	541.160	79.998	19.998	100.138	20.062	4.724	0.499
914.000	541.412	79.996	19.996	100.139	20.067	4.365	0.531
914.500	541.695	79.996	19.996	100.140	20.063	4.606	0.543
915.000	541.929	79.998	19.996	100.141	20.064	4.564	0.526
915.500	542.191	79.998	19.997	100.141	20.065	4.517	0.507
916.000	542.439	79.996	19.994	100.143	20.062	4.686	0.503
916.500	542.693	79.996	19.995	100.141	20.061	4.777	0.506
917.000	542.972	79.996	19.994	100.141	20.065	4.485	0.518
917.500	543.230	79.997	19.996	100.140	20.065	4.517	0.535
918.000	543.465	79.996	19.995	100.140	20.067	4.353	0.515
918.500	543.723	79.998	19.996	100.140	20.061	4.774	0.493
919.000	543.985	79.997	19.994	100.142	20.065	4.484	0.506
919.500	544.271	79.998	19.994	100.142	20.063	4.643	0.534
920.000	544.511	80.000	19.997	100.142	20.061	4.731	0.537
920.500	544.754	79.999	19.995	100.145	20.069	4.244	0.505
921.000	545.066	79.998	19.995	100.145	20.064	4.588	0.519
921.500	545.268	79.996	19.995	100.144	20.066	4.430	0.534
922.000	545.563	79.999	19.993	100.144	20.062	4.712	0.505
922.500	545.824	79.998	19.994	100.144	20.059	4.929	0.526
923.000	546.075	80.000	19.995	100.144	20.057	5.015	0.534
923.500	546.303	79.999	19.995	100.144	20.057	5.019	0.495
924.000	546.591	80.001	19.996	100.144	20.063	4.635	0.497
924.500	546.819	80.000	19.996	100.144	20.061	4.770	0.516
925.000	547.075	80.000	19.995	100.145	20.056	5.120	0.500
925.500	547.363	80.000	19.996	100.141	20.061	4.774	0.514
926.000	547.606	80.000	19.995	100.137	20.062	4.714	0.537
926.500	547.877	79.999	19.996	100.130	20.061	4.742	0.523
927.000	548.133	79.999	19.996	100.128	20.065	4.500	0.521
927.500	548.397	79.997	19.994	100.124	20.068	4.263	0.523
928.000	548.640	79.998	19.996	100.123	20.068	4.312	0.513
928.500	548.910	79.998	19.997	100.127	20.064	4.587	0.510
929.000	549.177	79.997	19.995	100.131	20.063	4.600	0.525
929.500	549.421	79.999	19.994	100.132	20.064	4.542	0.524
930.000	549.683	79.997	19.995	100.132	20.070	4.153	0.508
930.500	549.923	79.997	19.993	100.132	20.066	4.439	0.504
931.000	550.179	79.997	19.994	100.131	20.061	4.791	0.499
931.500	550.487	79.999	19.997	100.132	20.065	4.469	0.530
932.000	550.689	79.998	19.994	100.132	20.059	4.873	0.537
932.500	550.957	79.999	19.995	100.136	20.059	4.873	0.490
933.000	551.199	79.999	19.996	100.138	20.064	4.542	0.490
933.500	551.484	79.997	19.995	100.137	20.063	4.628	0.518
934.000	551.743	79.997	19.995	100.134	20.058	4.970	0.536
934.500	551.978	79.999	19.994	100.134	20.060	4.804	0.519
935.000	552.253	79.998	19.997	100.133	20.058	5.002	0.502
935.500	552.489	80.000	19.995	100.134	20.061	4.763	0.511
936.000	552.741	79.998	19.994	100.135	20.059	4.927	0.499
936.500	552.967	79.998	19.994	100.135	20.060	4.824	0.482
937.000	553.215	80.000	19.994	100.135	20.064	4.549	0.476
937.500	553.488	79.998	19.995	100.132	20.067	4.344	0.498
938.000	553.780	79.997	19.994	100.126	20.064	4.579	0.543
938.500	554.027	79.997	19.994	100.127	20.064	4.559	0.552
939.000	554.290	79.998	19.995	100.130	20.066	4.426	0.524
939.500	554.552	80.000	19.993	100.130	20.062	4.729	0.517
940.000	554.788	79.999	19.996	100.134	20.063	4.611	0.512
940.500	555.056	79.999	19.995	100.141	20.070	4.151	0.501
941.000	555.318	79.999	19.994	100.142	20.064	4.548	0.517
941.500	555.584	80.000	19.996	100.142	20.070	4.177	0.529
942.000	555.807	80.000	19.995	100.140	20.061	4.740	0.508
942.500	556.079	80.001	19.995	100.136	20.069	4.207	0.492
943.000	556.325	79.999	19.995	100.133	20.067	4.364	0.506
943.500	556.596	79.999	19.996	100.131	20.065	4.512	0.517
944.000	556.846	80.000	19.996	100.131	20.063	4.600	0.519
944.500	557.104	80.000	19.995	100.132	20.060	4.813	0.515
945.000	557.346	79.999	19.995	100.135	20.059	4.929	0.504
945.500	557.606	79.998	19.995	100.136	20.067	4.345	0.500
946.000	557.856	80.001	19.995	100.138	20.062	4.721	0.506
946.500	558.090	80.000	19.994	100.137	20.060	4.813	0.497
947.000	558.348	80.000	19.995	100.135	20.063	4.613	0.488
947.500	558.598	80.000	19.996	100.134	20.058	4.954	0.500
948.000	558.875	79.997	19.996	100.135	20.065	4.486	0.518
948.500	559.101	79.999	19.995	100.132	20.060	4.802	0.515
949.000	559.360	79.998	19.995	100.134	20.058	4.997	0.494
949.500	559.604	79.998	19.994	100.135	20.067	4.357	0.494
950.000	559.869	79.999	19.995	100.138	20.058	4.978	0.506
950.500	560.105	80.001	19.995	100.138	20.066	4.452	0.505
951.000	560.388	80.001	19.996	100.140	20.058	4.937	0.510
951.500	560.616	79.999	19.994	100.139	20.066	4.434	0.515
952.000	560.893	80.001	19.995	100.139	20.061	4.759	0.508
952.500	561.149	79.999	19.994	100.139	20.067	4.336	0.519
953.000	561.393	80.000	19.994	100.138	20.062	4.723	0.517
953.500	561.669	80.000	19.995	100.139	20.068	4.278	0.510
954.000	561.921	80.000	19.995	100.141	20.066	4.400	0.524
954.500	562.169	80.000	19.996	100.140	20.059	4.899	0.513
955.000	562.414	80.000	19.996	100.138	20.059	4.929	0.496
955.500	562.658	79.999	19.997	100.132	20.060	4.854	0.491
956.000	562.919	79.999	19.995	100.128	20.065	4.492	0.497
956.500	563.213	79.999	19.996	100.127	20.061	4.793	0.531
957.000	563.458	79.998	19.995	100.129	20.059	4.882	0.547
957.500	563.702	80.001	19.996	100.131	20.060	4.809	0.514
958.000	563.962	80.000	19.997	100.137	20.059	4.923	0.496
958.500	564.211	79.999	19.994	100.141	20.059	4.919	0.507
959.000	564.416	79.999	19.995	100.142	20.056	5.106	0.482
959.500	564.732	79.999	19.994	100.142	20.056	5.118	0.487
960.000	564.934	79.998	19.995	100.143	20.060	4.862	0.520
960.500	565.230	79.999	19.994	100.144	20.060	4.860	0.508
961.000	565.437	80.000	19.995	100.143	20.059	4.918	0.500
961.500	565.708	79.998	19.994	100.142	20.058	4.972	0.490
962.000	565.978	79.999	19.995	100.143	20.064	4.566	0.510
962.500	566.194	80.000	19.995	100.138	20.057	5.036	0.514
963.000	566.415	80.000	19.995	100.136	20.059	4.929	0.461
963.500	566.715	79.998	19.994	100.136	20.061	4.791	0.479
964.000	566.973	80.001	19.995	100.137	20.060	4.826	0.540
964.500	567.209	80.001	19.995	100.137	20.064	4.576	0.526
965.000	567.464	80.000	19.994	100.142	20.059	4.922	0.492
965.500	567.699	80.002	19.995	100.143	20.054	5.243	0.491
966.000	567.935	79.999	19.995	100.142	20.054	5.224	0.481
966.500	568.205	80.001	19.995	100.140	20.058	4.976	0.488
967.000	568.472	79.999	19.995	100.141	20.058	4.974	0.521
967.500	568.688	80.001	19.995	100.141	20.055	5.169	0.510
968.000	568.962	80.001	19.995	100.134	20.057	5.032	0.487
968.500	569.206	80.001	19.995	100.131	20.058	4.971	0.504
969.000	569.459	79.999	19.994	100.131	20.059	4.916	0.508
969.500	569.738	80.003	19.996	100.130	20.053	5.346	0.514
970.000	569.981	80.001	19.995	100.129	20.060	4.858	0.527
970.500	570.219	79.999	19.995	100.135	20.055	5.167	0.502
971.000	570.466	80.000	19.995	100.141	20.059	4.869	0.483
971.500	570.727	80.000	19.995	100.142	20.058	4.965	0.497
972.000	570.951	80.000	19.996	100.142	20.057	5.052	0.496
972.500	571.224	80.001	19.996	100.140	20.055	5.174	0.490
973.000	571.466	80.001	19.996	100.136	20.058	4.942	0.506
973.500	571.745	80.000	19.996	100.136	20.058	4.937	0.519
974.000	571.994	80.001	19.995	100.136	20.059	4.927	0.525
974.500	572.245	80.001	19.996	100.137	20.059	4.881	0.514
975.000	572.491	80.000	19.995	100.139	20.056	5.086	0.498
975.500	572.814	80.000	19.996	100.141	20.054	5.240	0.533
976.000	573.005	79.998	19.996	100.137	20.060	4.810	0.542
976.500	573.290	80.001	19.995	100.136	20.058	4.956	0.495
977.000	573.533	80.001	19.995	100.136	20.054	5.258	0.502
977.500	573.813	79.998	19.996	100.137	20.059	4.900	0.525
978.000	574.059	79.998	19.996	100.140	20.058	4.967	0.524
978.500	574.325	79.999	19.996	100.144	20.058	4.965	0.519
979.000	574.578	80.000	19.995	100.146	20.051	5.462	0.515
979.500	574.829	79.996	19.995	100.145	20.055	5.186	0.511
980.000	575.094	79.997	19.995	100.145	20.061	4.758	0.510
980.500	575.374	79.995	19.994	100.145	20.051	5.470	0.531
981.000	575.595	79.998	19.995	100.145	20.049	5.579	0.523
981.500	575.882	79.998	19.994	100.142	20.050	5.491	0.504
982.000	576.095	79.997	19.995	100.142	20.056	5.120	0.504
982.500	576.390	80.001	19.996	100.138	20.048	5.630	0.504
983.000	576.649	79.999	19.995	100.138	20.053	5.323	0.531
983.500	576.894	79.997	19.994	100.137	20.049	5.606	0.529
984.000	577.127	79.997	19.996	100.138	20.052	5.379	0.492
984.500	577.384	79.999	19.996	100.139	20.050	5.532	0.484
985.000	577.614	79.997	19.996	100.143	20.051	5.452	0.489
985.500	577.904	79.998	19.995	100.143	20.053	5.304	0.504
986.000	578.153	79.998	19.996	100.143	20.052	5.358	0.529
986.500	578.404	79.998	19.995	100.143	20.047	5.723	0.520
987.000	578.683	80.000	19.995	100.143	20.049	5.585	0.515
987.500	578.897	79.998	19.994	100.143	20.050	5.537	0.511
988.000	579.209	79.999	19.995	100.144	20.050	5.499	0.510
988.500	579.445	79.999	19.996	100.146	20.051	5.437	0.537
989.000	579.687	79.999	19.996	100.145	20.049	5.565	0.513
989.500	579.915	79.997	19.995	100.140	20.049	5.604	0.474
990.000	580.187	79.998	19.996	100.133	20.050	5.512	0.485
990.500	580.417	79.997	19.995	100.125	20.050	5.534	0.501
991.000	580.693	80.000	19.995	100.121	20.050	5.506	0.504
991.500	580.973	80.000	19.996	100.121	20.047	5.695	0.531
992.000	581.234	80.001	19.995	100.123	20.047	5.741	0.549
992.500	581.483	79.998	19.995	100.128	20.050	5.527	0.526
993.000	581.722	80.000	19.995	100.135	20.052	5.379	0.499
993.500	581.980	79.998	19.995	100.135	20.053	5.301	0.492
994.000	582.224	79.999	19.996	100.134	20.054	5.218	0.499
994.500	582.479	79.998	19.994	100.131	20.051	5.454	0.501
995.000	582.735	79.998	19.995	100.127	20.054	5.256	0.506
995.500	582.956	79.997	19.997	100.123	20.051	5.451	0.494
996.000	583.224	79.997	19.996	100.121	20.050	5.548	0.483
996.500	583.487	79.999	19.996	100.122	20.050	5.527	0.510
997.000	583.726	80.000	19.996	100.124	20.053	5.279	0.516
997.500	583.965	79.998	19.995	100.128	20.044	5.928	0.490
998.000	584.240	79.999	19.996	100.131	20.047	5.730	0.496
998.500	584.486	79.997	19.997	100.136	20.047	5.717	0.518
999.000	584.704	79.998	19.996	100.136	20.047	5.702	0.492
999.500	584.946	79.998	19.996	100.133	20.049	5.578	0.462
1000.000	585.232	79.999	19.997	100.132	20.046	5.769	0.494
1000.500	585.459	79.997	19.996	100.128	20.049	5.558	0.520
1001.000	585.714	80.000	19.996	100.122	20.048	5.632	0.497
1001.500	586.013	79.999	19.996	100.120	20.050	5.543	0.518
1002.000	586.263	79.995	19.997	100.120	20.048	5.683	0.552
1002.500	586.497	79.998	19.996	100.119	20.050	5.546	0.517
1003.000	586.771	79.998	19.997	100.121	20.048	5.664	0.496
1003.500	586.996	79.998	19.996	100.124	20.049	5.613	0.504
1004.000	587.265	79.997	19.996	100.123	20.050	5.544	0.496
1004.500	587.529	79.997	19.995	100.126	20.051	5.441	0.513
1005.000	587.766	79.995	19.997	100.129	20.052	5.350	0.517
1005.500	587.990	79.998	19.997	100.131	20.049	5.608	0.481
1006.000	588.304	79.997	19.996	100.131	20.047	5.698	0.500
1006.500	588.541	79.998	19.996	100.134	20.050	5.486	0.544
1007.000	588.769	79.997	19.996	100.138	20.050	5.501	0.508
1007.500	589.073	79.998	19.997	100.138	20.047	5.757	0.498
1008.000	589.318	79.997	19.995	100.140	20.052	5.356	0.541
1008.500	589.610	79.999	19.996	100.142	20.047	5.737	0.543
1009.000	589.808	79.997	19.996	100.143	20.047	5.752	0.514
1009.500	590.069	79.998	19.996	100.142	20.050	5.513	0.475
1010.000	590.345	80.000	19.997	100.142	20.047	5.728	0.498
1010.500	590.589	79.998	19.996	100.142	20.051	5.475	0.529
1011.000	590.858	79.999	19.996	100.141	20.048	5.655	0.516
1011.500	591.076	79.998	19.995	100.142	20.050	5.494	0.499
1012.000	591.353	79.997	19.995	100.142	20.050	5.496	0.491
1012.500	591.596	79.998	19.996	100.142	20.047	5.692	0.508
1013.000	591.862	79.996	19.995	100.139	20.048	5.634	0.515
1013.500	592.112	79.998	19.994	100.135	20.052	5.409	0.512
1014.000	592.346	79.997	19.996	100.133	20.047	5.752	0.500
1014.500	592.614	79.998	19.996	100.134	20.052	5.370	0.494
1015.000	592.901	79.998	19.995	100.134	20.049	5.570	0.528
1015.500	593.174	79.998	19.995	100.137	20.046	5.824	0.557
1016.000	593.390	79.998	19.995	100.142	20.049	5.559	0.525
1016.500	593.667	79.998	19.996	100.141	20.048	5.676	0.491
1017.000	593.906	80.000	19.996	100.141	20.048	5.653	0.504
1017.500	594.232	79.998	19.995	100.141	20.047	5.747	0.540
1018.000	594.441	79.997	19.996	100.140	20.048	5.645	0.550
1018.500	594.712	79.997	19.994	100.139	20.048	5.684	0.507
1019.000	594.996	79.999	19.995	100.140	20.046	5.796	0.517
1019.500	595.257	79.999	19.995	100.139	20.050	5.523	0.550
1020.000	595.479	79.998	19.994	100.138	20.049	5.607	0.514
1020.500	595.773	79.999	19.995	100.138	20.050	5.536	0.499
1021.000	595.985	79.999	19.995	100.139	20.052	5.347	0.511
1021.500	596.244	79.998	19.994	100.140	20.044	5.951	0.489
1022.000	596.560	79.998	19.996	100.142	20.050	5.525	0.523
1022.500	596.784	80.000	19.996	100.143	20.045	5.841	0.557
1023.000	597.053	79.999	19.994	100.142	20.044	5.907	0.516
1023.500	597.277	80.000	19.994	100.138	20.050	5.501	0.493
1024.000	597.555	80.000	19.995	100.137	20.049	5.578	0.498
1024.500	597.822	79.998	19.995	100.132	20.050	5.548	0.524
1025.000	598.073	79.998	19.995	100.133	20.044	5.896	0.531
1025.500	598.317	79.998	19.995	100.132	20.046	5.801	0.506
1026.000	598.590	79.998	19.995	100.130	20.046	5.806	0.506
1026.500	598.858	80.000	19.994	100.125	20.049	5.610	0.529
1027.000	599.072	79.999	19.995	100.125	20.049	5.591	0.512
1027.500	599.341	80.002	19.995	100.118	20.045	5.888	0.483
1028.000	599.586	80.001	19.996	100.118	20.047	5.740	0.499
1028.500	599.863	79.998	19.994	100.124	20.049	5.600	0.518
1029.001	600.100	80.001	19.995	100.126	20.045	5.873	0.518
1029.501	600.371	80.001	19.994	100.128	20.046	5.817	0.511
1030.000	600.618	79.997	19.994	100.128	20.045	5.868	0.513
1030.500	600.883	79.999	19.995	100.130	20.047	5.703	0.515
1031.000	601.161	79.999	19.994	100.130	20.043	5.989	0.527
1031.500	601.390	79.999	19.995	100.131	20.048	5.621	0.524
1032.000	601.661	80.000	19.995	100.129	20.046	5.774	0.504
1032.500	601.938	79.999	19.994	100.130	20.044	5.909	0.524
1033.000	602.188	79.999	19.994	100.128	20.044	5.941	0.537
1033.500	602.435	79.999	19.995	100.125	20.049	5.612	0.512
1034.000	602.674	80.000	19.995	100.130	20.043	6.027	0.492
1034.500	602.895	79.998	19.995	100.134	20.047	5.690	0.473
1035.000	603.203	79.997	19.996	100.138	20.045	5.857	0.494
1035.500	603.437	79.999	19.995	100.142	20.054	5.264	0.536
1036.000	603.680	80.000	19.995	100.145	20.041	6.126	0.510
1036.500	603.951	79.999	19.995	100.141	20.046	5.803	0.496
1037.000	604.187	79.998	19.995	100.138	20.049	5.588	0.510
1037.500	604.456	79.999	19.995	100.134	20.041	6.108	0.506
1038.000	604.741	79.999	19.995	100.132	20.049	5.567	0.530
1038.500	604.950	79.998	19.995	100.131	20.042	6.052	0.524
1039.001	605.214	79.999	19.995	100.134	20.045	5.851	0.484
1039.501	605.500	79.997	19.994	100.135	20.047	5.692	0.512
1040.000	605.700	79.999	19.995	100.137	20.046	5.768	0.518
1040.500	605.979	80.000	19.995	100.137	20.047	5.748	0.482
1041.000	606.259	80.000	19.995	100.137	20.041	6.140	0.519
1041.500	606.555	79.999	19.995	100.133	20.046	5.768	0.568
1042.000	606.752	80.000	19.995	100.129	20.047	5.745	0.534
1042.500	606.988	79.999	19.994	100.131	20.050	5.502	0.463
1043.000	607.255	80.001	19.995	100.133	20.050	5.514	0.468
1043.500	607.488	80.000	19.995	100.134	20.042	6.069	0.502
1044.000	607.772	80.000	19.995	100.139	20.048	5.637	0.509
1044.500	607.996	79.999	19.995	100.143	20.048	5.622	0.513
1045.000	608.242	79.999	19.994	100.143	20.046	5.823	0.489
1045.500	608.526	79.999	19.994	100.141	20.044	5.926	0.500
1046.000	608.777	80.000	19.995	100.141	20.043	6.003	0.532
1046.500	609.039	79.999	19.994	100.141	20.046	5.783	0.524
1047.000	609.278	80.000	19.995	100.143	20.049	5.589	0.508
1047.500	609.566	80.001	19.995	100.144	20.047	5.757	0.514
1048.000	609.800	80.001	19.994	100.146	20.043	6.005	0.524
1048.501	610.074	80.002	19.994	100.147	20.041	6.139	0.514
1049.001	610.291	80.000	19.993	100.147	20.045	5.838	0.500
1049.500	610.535	80.002	19.995	100.146	20.045	5.853	0.476
1050.001	610.787	80.000	19.994	100.144	20.047	5.730	0.478
1050.501	611.045	80.002	19.995	100.138	20.045	5.881	0.503
1051.000	611.296	80.001	19.994	100.132	20.044	5.935	0.510
1051.500	611.565	80.003	19.994	100.132	20.049	5.610	0.515
1052.000	611.831	80.002	19.995	100.132	20.043	5.980	0.527
1052.500	612.073	80.001	19.995	100.134	20.042	6.100	0.522
1053.000	612.349	80.001	19.993	100.141	20.044	5.916	0.513
1053.500	612.587	80.000	19.995	100.144	20.041	6.116	0.516
1054.000	612.831	80.002	19.996	100.139	20.043	5.980	0.498
1054.500	613.094	80.000	19.995	100.132	20.044	5.913	0.495
1055.000	613.380	80.002	19.995	100.125	20.042	6.032	0.528
1055.500	613.638	80.002	19.995	100.120	20.049	5.554	0.546
1056.000	613.898	80.003	19.995	100.115	20.040	6.195	0.531
1056.500	614.126	80.001	19.994	100.114	20.041	6.109	0.503
1057.000	614.383	80.001	19.995	100.121	20.044	5.896	0.487
1057.500	614.619	80.000	19.994	100.127	20.043	5.989	0.489
1058.000	614.910	80.000	19.995	100.131	20.042	6.064	0.510
1058.500	615.160	79.999	19.995	100.137	20.040	6.178	0.534
1059.000	615.437	79.998	19.995	100.142	20.037	6.402	0.534
1059.500	615.645	79.999	19.994	100.141	20.045	5.879	0.507
1060.001	615.910	79.999	19.995	100.140	20.040	6.179	0.479
1060.501	616.158	79.999	19.995	100.141	20.048	5.658	0.493
1061.000	616.424	79.999	19.994	100.141	20.043	5.996	0.513
1061.500	616.705	79.997	19.995	100.140	20.044	5.912	0.530
1062.000	616.937	80.001	19.995	100.141	20.043	5.984	0.530
1062.500	617.206	79.999	19.995	100.142	20.047	5.733	0.507
1063.000	617.445	79.999	19.997	100.142	20.049	5.615	0.505
1063.500	617.701	79.999	19.997	100.139	20.049	5.587	0.501
1064.000	617.972	79.998	19.995	100.139	20.046	5.774	0.511
1064.500	618.210	79.998	19.996	100.137	20.044	5.924	0.518
1065.000	618.476	79.999	19.995	100.136	20.045	5.851	0.506
1065.500	618.711	79.998	19.996	100.137	20.044	5.927	0.502
1066.000	618.981	79.998	19.994	100.137	20.045	5.849	0.503
1066.500	619.220	79.997	19.994	100.136	20.045	5.890	0.507
1067.000	619.463	79.998	19.994	100.134	20.044	5.946	0.495
1067.500	619.739	79.998	19.996	100.134	20.044	5.909	0.500
1068.000	620.002	79.998	19.996	100.134	20.043	5.969	0.529
1068.500	620.235	79.999	19.997	100.137	20.043	6.013	0.517
1069.001	620.511	79.998	19.995	100.139	20.042	6.067	0.502
1069.501	620.773	79.998	19.995	100.136	20.049	5.605	0.523
1070.000	621.043	79.999	19.995	100.133	20.045	5.891	0.535
1070.500	621.286	80.000	19.996	100.131	20.044	5.936	0.523
1071.000	621.528	79.998	19.996	100.127	20.041	6.117	0.499
1071.500	621.790	80.000	19.997	100.126	20.045	5.832	0.495
1072.000	622.045	79.998	19.996	100.130	20.047	5.731	0.511
1072.500	622.306	79.998	19.995	100.134	20.041	6.128	0.516
1073.000	622.590	79.999	19.995	100.137	20.042	6.038	0.530
1073.500	622.833	79.999	19.995	100.138	20.045	5.829	0.536
1074.000	623.088	79.998	19.995	100.138	20.050	5.524	0.513
1074.500	623.334	79.998	19.996	100.138	20.044	5.941	0.500
1075.000	623.585	80.000	19.995	100.138	20.044	5.923	0.499
1075.500	623.858	80.000	19.994	100.137	20.043	6.028	0.510
1076.000	624.085	79.997	19.995	100.136	20.041	6.153	0.512
1076.500	624.339	80.001	19.996	100.134	20.042	6.092	0.491
1077.000	624.573	79.998	19.996	100.132	20.042	6.059	0.484
1077.500	624.838	80.001	19.995	100.132	20.046	5.821	0.494
1078.000	625.107	79.999	19.995	100.131	20.046	5.805	0.517
1078.500	625.327	80.002	19.995	100.132	20.047	5.751	0.511
1079.000	625.600	79.998	19.996	100.134	20.042	6.039	0.490
1079.500	625.844	79.998	19.995	100.134	20.045	5.835	0.505
1080.000	626.085	80.001	19.997	100.128	20.044	5.931	0.501
1080.500	626.362	79.998	19.994	100.124	20.049	5.557	0.502
1081.000	626.605	80.000	19.994	100.119	20.045	5.857	0.519
1081.500	626.830	80.000	19.995	100.119	20.044	5.927	0.494
1082.000	627.105	80.000	19.996	100.122	20.049	5.585	0.484
1082.500	627.348	80.001	19.996	100.128	20.049	5.603	0.509
1083.000	627.582	79.999	19.997	100.134	20.050	5.516	0.498
1083.500	627.837	79.998	19.996	100.141	20.047	5.744	0.483
1084.000	628.113	79.999	19.995	100.142	20.047	5.716	0.510
1084.500	628.337	79.999	19.995	100.143	20.043	5.986	0.515
1085.000	628.569	80.001	19.997	100.141	20.048	5.647	0.478
1085.500	628.848	79.999	19.995	100.137	20.046	5.825	0.484
1086.000	629.085	79.999	19.996	100.131	20.046	5.759	0.513
1086.500	629.343	79.999	19.996	100.124	20.049	5.604	0.505
1087.000	629.609	79.999	19.996	100.117	20.048	5.668	0.509
1087.500	629.822	79.998	19.995	100.113	20.046	5.759	0.502
1088.000	630.094	79.999	19.995	100.112	20.044	5.903	0.482
1088.500	630.360	80.000	19.996	100.112	20.045	5.874	0.512
1089.000	630.593	79.999	19.995	100.116	20.046	5.786	0.519
1089.500	630.878	79.998	19.995	100.121	20.046	5.816	0.508
1090.000	631.113	79.998	19.994	100.124	20.046	5.802	0.519
1090.500	631.381	79.998	19.994	100.123	20.045	5.869	0.511
1091.000	631.631	79.998	19.994	100.125	20.044	5.942	0.510
1091.500	631.871	79.998	19.995	100.123	20.045	5.875	0.504
1092.000	632.088	79.998	19.996	100.122	20.043	5.989	0.474
1092.500	632.385	79.999	19.995	100.122	20.048	5.647	0.485
1093.000	632.646	79.996	19.996	100.124	20.043	6.002	0.536
1093.500	632.904	79.996	19.995	100.125	20.041	6.153	0.539
1094.000	633.161	79.998	19.996	100.129	20.047	5.700	0.517
1094.500	633.395	79.998	19.997	100.132	20.045	5.879	0.503
1095.000	633.635	79.995	19.996	100.137	20.045	5.880	0.483
1095.500	633.929	79.999	19.997	100.141	20.043	6.003	0.505
1096.000	634.179	79.998	19.996	100.141	20.045	5.828	0.539
1096.501	634.446	79.996	19.997	100.141	20.044	5.899	0.530
1097.001	634.685	79.999	19.996	100.141	20.044	5.925	0.512
1097.501	634.953	79.999	19.995	100.139	20.043	5.977	0.506
1098.001	635.221	79.997	19.997	100.138	20.046	5.798	0.521
1098.500	635.454	79.997	19.998	100.139	20.047	5.733	0.518
1099.000	635.710	79.998	19.997	100.140	20.038	6.316	0.496
1099.500	635.959	80.000	19.996	100.140	20.044	5.940	0.497
1100.000	636.190	79.997	19.996	100.141	20.044	5.953	0.492
1100.500	636.457	79.999	19.997	100.140	20.048	5.687	0.489
1101.001	636.703	79.999	19.997	100.136	20.045	5.854	0.506
1101.501	636.989	80.000	19.996	100.135	20.043	5.975	0.522
1102.001	637.214	79.999	19.997	100.136	20.047	5.697	0.522
1102.500	637.448	80.000	19.997	100.134	20.045	5.826	0.485
1103.000	637.704	79.998	19.997	100.135	20.043	5.987	0.474
1103.500	637.953	79.998	19.997	100.137	20.047	5.731	0.497
1104.000	638.207	79.998	19.996	100.130	20.046	5.825	0.504
1104.500	638.443	79.999	19.996	100.124	20.043	5.997	0.497
1105.000	638.682	79.997	19.997	100.118	20.046	5.768	0.482
1105.500	638.947	79.999	19.995	100.115	20.042	6.073	0.490
1106.000	639.195	79.999	19.997	100.117	20.047	5.740	0.509
1106.500	639.427	80.000	19.995	100.119	20.047	5.697	0.496
1107.000	639.695	80.001	19.996	100.121	20.044	5.932	0.490
1107.500	639.923	80.002	19.994	100.126	20.048	5.682	0.498
1108.000	640.188	79.999	19.995	100.123	20.043	5.988	0.495
1108.500	640.428	79.999	19.993	100.123	20.050	5.488	0.499
1109.000	640.707	80.000	19.995	100.124	20.045	5.841	0.512
1109.500	640.914	80.001	19.994	100.128	20.046	5.802	0.502
1110.000	641.213	80.000	19.996	100.128	20.045	5.892	0.495
1110.500	641.461	80.001	19.995	100.129	20.043	6.016	0.527
1111.000	641.720	80.000	19.995	100.125	20.042	6.068	0.528
1111.500	641.959	79.999	19.995	100.123	20.048	5.686	0.502
1112.001	642.226	80.000	19.994	100.120	20.043	6.030	0.502
1112.501	642.466	80.002	19.994	100.121	20.045	5.889	0.507
1113.000	642.713	80.000	19.993	100.126	20.044	5.908	0.497
1113.500	642.939	80.001	19.994	100.132	20.045	5.835	0.480
1114.000	643.228	79.999	19.994	100.138	20.045	5.837	0.494
1114.500	643.482	79.999	19.996	100.140	20.045	5.865	0.530
1115.000	643.722	80.001	19.994	100.140	20.044	5.912	0.519
1115.500	643.976	80.000	19.996	100.136	20.047	5.755	0.494
1116.000	644.239	80.000	19.996	100.135	20.049	5.611	0.505
1116.500	644.445	80.001	19.996	100.130	20.045	5.831	0.493
1117.000	644.723	79.999	19.995	100.126	20.042	6.065	0.477
1117.500	644.977	80.000	19.996	100.124	20.048	5.643	0.508
1118.000	645.225	80.001	19.995	100.124	20.044	5.941	0.517
1118.500	645.485	80.001	19.996	100.121	20.048	5.640	0.505
1119.000	645.732	80.001	19.996	100.124	20.044	5.924	0.507
1119.500	645.999	79.999	19.994	100.129	20.051	5.441	0.510
1120.000	646.244	79.999	19.994	100.131	20.043	5.995	0.513
1120.500	646.461	80.001	19.996	100.136	20.040	6.223	0.488
1121.000	646.733	80.001	19.995	100.138	20.043	5.996	0.476
1121.500	647.000	80.000	19.995	100.138	20.045	5.864	0.513
1122.000	647.257	80.001	19.996	100.137	20.044	5.905	0.531
1122.500	647.505	80.000	19.995	100.131	20.045	5.832	0.514
1123.000	647.740	80.000	19.996	100.125	20.043	6.013	0.494
1123.500	648.003	80.001	19.996	100.122	20.042	6.061	0.491
1124.000	648.275	80.000	19.995	100.118	20.042	6.050	0.516
1124.500	648.532	80.000	19.994	100.119	20.042	6.031	0.532
1125.000	648.761	80.000	19.994	100.123	20.041	6.110	0.508
1125.500	649.070	80.000	19.995	100.126	20.042	6.082	0.512
1126.000	649.317	80.000	19.994	100.126	20.047	5.751	0.547
1126.500	649.516	80.000	19.995	100.128	20.044	5.931	0.501
1127.000	649.797	80.002	19.995	100.122	20.043	6.006	0.463
1127.500	650.048	80.000	19.996	100.125	20.045	5.881	0.506
1128.000	650.296	80.000	19.996	100.127	20.044	5.940	0.516
1128.500	650.580	80.002	19.996	100.132	20.048	5.639	0.516
1129.001	650.804	80.001	19.995	100.135	20.041	6.129	0.520
1129.501	651.063	80.002	19.994	100.140	20.047	5.718	0.496
1130.000	651.309	80.001	19.996	100.139	20.044	5.940	0.494
1130.500	651.584	80.002	19.996	100.139	20.045	5.894	0.513
1131.000	651.847	79.999	19.997	100.137	20.044	5.911	0.529
1131.500	652.100	80.001	19.996	100.134	20.045	5.869	0.527
1132.000	652.343	80.000	19.996	100.130	20.043	5.984	0.506
1132.500	652.595	80.001	19.996	100.130	20.049	5.597	0.496
1133.000	652.840	80.001	19.994	100.129	20.048	5.666	0.496
1133.500	653.111	80.002	19.993	100.126	20.046	5.823	0.506
1134.000	653.344	80.002	19.995	100.122	20.047	5.718	0.510
1134.500	653.606	80.003	19.994	100.123	20.049	5.607	0.500
1135.000	653.866	80.000	19.994	100.119	20.047	5.723	0.509
1135.500	654.127	80.003	19.997	100.116	20.046	5.789	0.522
1136.000	654.389	80.002	19.996	100.119	20.046	5.789	0.522
1136.500	654.654	80.002	19.996	100.126	20.046	5.789	0.525
1137.000	654.879	80.002	19.995	100.129	20.046	5.822	0.509
1137.500	655.132	80.001	19.995	100.131	20.047	5.731	0.484
1138.000	655.454	80.003	19.995	100.134	20.044	5.948	0.526
1138.500	655.695	80.002	19.995	100.132	20.045	5.864	0.569
1139.000	655.943	80.000	19.995	100.127	20.048	5.664	0.526
1139.500	656.141	80.001	19.996	100.126	20.047	5.736	0.468
1140.001	656.445	80.000	19.995	100.127	20.047	5.697	0.474
1140.501	656.697	80.002	19.995	100.130	20.046	5.758	0.529
1141.000	656.943	80.000	19.995	100.132	20.044	5.958	0.527
1141.500	657.195	80.001	19.994	100.134	20.047	5.719	0.498
1142.000	657.473	80.001	19.995	100.134	20.048	5.668	0.514
1142.501	657.736	79.999	19.996	100.135	20.045	5.856	0.536
1143.001	657.986	80.002	19.997	100.135	20.042	6.070	0.528
1143.501	658.246	80.000	19.996	100.136	20.044	5.925	0.512
1144.000	658.481	80.000	19.996	100.139	20.049	5.559	0.502
1144.500	658.712	79.998	19.995	100.137	20.045	5.890	0.480
1145.000	658.997	79.999	19.996	100.132	20.046	5.795	0.491
1145.500	659.288	79.999	19.995	100.130	20.048	5.675	0.546
1146.000	659.511	79.999	19.997	100.129	20.045	5.832	0.545
1146.500	659.758	79.999	19.996	100.125	20.043	6.009	0.491
1147.000	660.007	79.999	19.994	100.128	20.047	5.725	0.483
1147.500	660.269	80.000	19.996	100.129	20.051	5.454	0.504
1148.000	660.515	79.999	19.995	100.130	20.048	5.626	0.509
1148.500	660.797	79.999	19.994	100.130	20.046	5.775	0.518
1149.000	661.039	80.000	19.995	100.134	20.044	5.901	0.526
1149.500	661.318	79.998	19.995	100.135	20.049	5.603	0.522
1150.000	661.542	79.999	19.995	100.135	20.048	5.628	0.512
1150.500	661.797	79.999	19.995	100.129	20.045	5.884	0.491
1151.000	662.034	80.000	19.994	100.126	20.048	5.673	0.486
1151.500	662.298	80.000	19.995	100.123	20.050	5.497	0.497
1152.000	662.561	79.999	19.996	100.118	20.046	5.782	0.514
1152.500	662.833	80.000	19.994	100.117	20.050	5.552	0.531
1153.000	663.101	79.998	19.995	100.119	20.051	5.421	0.538
1153.500	663.337	80.000	19.995	100.120	20.046	5.759	0.522
1154.000	663.588	80.000	19.995	100.118	20.051	5.458	0.495
1154.500	663.849	80.000	19.996	100.125	20.051	5.449	0.500
1155.000	664.147	80.000	19.995	100.130	20.051	5.482	0.536
1155.501	664.403	79.998	19.995	100.133	20.048	5.667	0.557
1156.001	664.650	79.998	19.996	100.132	20.050	5.503	0.528
1156.500	664.925	79.998	19.994	100.134	20.049	5.568	0.512
1157.000	665.166	79.998	19.995	100.131	20.052	5.389	0.519
1157.500	665.405	79.999	19.994	100.129	20.052	5.413	0.499
1158.000	665.672	79.998	19.995	100.125	20.052	5.391	0.493
1158.500	665.947	79.998	19.996	100.122	20.054	5.271	0.524
1159.000	666.189	79.998	19.995	100.121	20.052	5.360	0.529
1159.500	666.490	79.999	19.995	100.124	20.048	5.629	0.530
1160.001	666.714	79.999	19.995	100.125	20.053	5.332	0.534
1160.501	666.967	79.999	19.995	100.123	20.056	5.105	0.501
1161.000	667.245	79.999	19.997	100.126	20.051	5.450	0.504
1161.500	667.495	79.998	19.997	100.130	20.047	5.689	0.530
1162.000	667.768	80.000	19.995	100.130	20.048	5.665	0.526
1162.500	667.997	79.999	19.996	100.131	20.050	5.523	0.512
1163.000	668.265	79.998	19.996	100.138	20.052	5.402	0.500
1163.500	668.527	79.999	19.995	100.143	20.048	5.654	0.514
1164.000	668.778	79.999	19.996	100.142	20.052	5.394	0.522
1164.500	669.060	79.998	19.996	100.139	20.047	5.757	0.523
1165.000	669.300	79.999	19.997	100.136	20.048	5.654	0.527
1165.500	669.556	79.998	19.996	100.133	20.048	5.665	0.509
1166.000	669.823	80.000	19.995	100.131	20.048	5.662	0.510
1166.500	670.108	79.999	19.995	100.132	20.045	5.878	0.537
1167.000	670.339	79.999	19.995	100.131	20.051	5.482	0.534
1167.500	670.569	79.998	19.995	100.130	20.049	5.591	0.489
1168.000	670.860	79.999	19.996	100.131	20.046	5.793	0.491
1168.500	671.095	79.998	19.995	100.131	20.049	5.572	0.523
1169.000	671.377	79.998	19.994	100.131	20.052	5.412	0.522
1169.500	671.659	79.998	19.995	100.127	20.047	5.739	0.540
1170.000	671.897	79.998	19.995	100.123	20.050	5.531	0.542
1170.500	672.140	79.998	19.994	100.119	20.047	5.695	0.501
1171.000	672.412	79.998	19.995	100.115	20.045	5.867	0.498
1171.500	672.681	79.997	19.995	100.113	20.048	5.677	0.528
1172.000	672.917	79.999	19.995	100.118	20.048	5.649	0.523
1172.500	673.234	79.998	19.996	100.122	20.047	5.710	0.529
1173.000	673.475	79.998	19.995	100.126	20.051	5.468	0.555
1173.500	673.746	79.997	19.996	100.129	20.042	6.057	0.535
1174.000	673.954	79.998	19.996	100.129	20.047	5.735	0.496
1174.500	674.249	79.996	19.994	100.125	20.048	5.643	0.491
1175.000	674.508	79.998	19.996	100.124	20.049	5.610	0.528
1175.500	674.773	79.999	19.994	100.122	20.048	5.688	0.539
1176.000	675.023	79.998	19.994	100.122	20.047	5.750	0.520
1176.501	675.294	79.998	19.994	100.124	20.047	5.727	0.519
1177.001	675.555	79.997	19.995	100.131	20.048	5.647	0.527
1177.500	675.839	79.999	19.996	100.129	20.050	5.551	0.538
1178.001	676.092	79.998	19.995	100.131	20.050	5.512	0.541
1178.501	676.307	79.998	19.995	100.134	20.048	5.635	0.503
1179.000	676.591	79.996	19.995	100.137	20.052	5.403	0.483
1179.500	676.828	79.997	19.995	100.137	20.052	5.381	0.510
1180.000	677.130	79.997	19.995	100.143	20.051	5.463	0.530
1180.500	677.338	79.998	19.995	100.142	20.048	5.647	0.525
1181.000	677.602	79.998	19.996	100.134	20.050	5.489	0.491
1181.501	677.875	79.998	19.996	100.129	20.049	5.572	0.504
1182.001	678.129	80.000	19.997	100.129	20.054	5.254	0.532
1182.500	678.376	79.997	19.995	100.129	20.051	5.454	0.514
1183.000	678.624	79.997	19.996	100.130	20.049	5.592	0.499
1183.500	678.860	79.996	19.995	100.133	20.045	5.830	0.490
1184.000	679.109	79.997	19.995	100.137	20.051	5.473	0.484
1184.500	679.385	79.998	19.995	100.136	20.050	5.506	0.504
1185.000	679.564	79.997	19.995	100.136	20.052	5.375	0.490
1185.500	679.915	79.998	19.997	100.137	20.050	5.508	0.493
1186.000	680.160	79.999	19.996	100.140	20.053	5.336	0.564
1186.500	680.425	79.999	19.996	100.139	20.053	5.293	0.553
1187.000	680.666	79.999	19.995	100.137	20.051	5.472	0.508
1187.500	680.886	80.000	19.996	100.133	20.049	5.609	0.483
1188.000	681.148	79.998	19.996	100.129	20.045	5.871	0.471
1188.500	681.416	79.999	19.997	100.126	20.051	5.469	0.506
1189.000	681.685	79.999	19.995	100.125	20.047	5.708	0.533
1189.500	681.942	79.999	19.996	100.126	20.047	5.742	0.531
1190.000	682.163	80.000	19.996	100.127	20.048	5.624	0.502
1190.500	682.458	80.000	19.995	100.126	20.044	5.914	0.497
1191.000	682.675	80.000	19.996	100.129	20.051	5.415	0.514
1191.500	682.955	79.999	19.996	100.128	20.049	5.556	0.505
1192.000	683.183	80.000	19.997	100.127	20.050	5.552	0.502
1192.500	683.428	80.002	19.996	100.128	20.048	5.656	0.490
1193.000	683.721	79.999	19.996	100.130	20.049	5.619	0.506
1193.500	683.948	80.000	19.996	100.130	20.050	5.546	0.529
1194.000	684.197	80.001	19.995	100.129	20.050	5.549	0.498
1194.500	684.434	79.999	19.996	100.125	20.051	5.427	0.481
1195.000	684.718	80.000	19.996	100.126	20.051	5.418	0.504
1195.500	684.955	79.998	19.996	100.129	20.050	5.547	0.521
1196.000	685.230	80.001	19.996	100.125	20.053	5.343	0.516
1196.500	685.462	80.000	19.995	100.123	20.051	5.421	0.509
1197.000	685.664	79.999	19.995	100.124	20.049	5.578	0.471
1197.500	685.911	79.999	19.995	100.122	20.045	5.840	0.441
1198.000	686.182	80.000	19.996	100.123	20.051	5.425	0.483
1198.500	686.420	80.000	19.996	100.126	20.050	5.507	0.514
1199.000	686.665	79.999	19.995	100.127	20.051	5.424	0.497
1199.500	686.944	79.999	19.996	100.127	20.050	5.543	0.504
1200.000	687.200	79.999	19.996	100.129	20.050	5.542	0.529
1200.500	687.428	80.000	19.996	100.130	20.050	5.514	0.509
1201.000	687.696	80.000	19.997	100.131	20.049	5.568	0.490
1201.500	687.904	80.000	19.995	100.136	20.049	5.565	0.486
1202.000	688.182	80.000	19.995	100.140	20.050	5.494	0.481
1202.500	688.438	80.000	19.996	100.140	20.048	5.621	0.510
1203.000	688.702	79.999	19.996	100.139	20.050	5.529	0.527
1203.500	688.900	80.001	19.995	100.135	20.047	5.741	0.491
1204.000	689.212	80.002	19.995	100.131	20.049	5.561	0.486
1204.500	689.448	80.001	19.995	100.128	20.050	5.531	0.529
1205.000	689.662	79.998	19.995	100.121	20.051	5.434	0.499
1205.500	689.963	80.000	19.995	100.116	20.047	5.699	0.483
1206.000	690.208	80.001	19.995	100.114	20.050	5.488	0.531
1206.500	690.419	80.001	19.996	100.113	20.048	5.680	0.501
1207.000	690.675	80.001	19.996	100.109	20.049	5.613	0.461
1207.500	690.971	80.000	19.994	100.109	20.043	6.027	0.509
1208.000	691.219	80.000	19.994	100.112	20.047	5.717	0.548
1208.500	691.460	80.001	19.994	100.115	20.046	5.767	0.517
1209.000	691.716	80.000	19.994	100.114	20.045	5.847	0.493
1209.500	691.957	80.001	19.996	100.114	20.047	5.694	0.497
1210.000	692.214	80.002	19.995	100.118	20.047	5.734	0.498
1210.500	692.483	80.001	19.995	100.122	20.046	5.803	0.512
1211.000	692.710	80.000	19.995	100.125	20.048	5.674	0.511
1211.500	692.981	80.002	19.996	100.129	20.048	5.679	0.497
1212.000	693.222	80.002	19.995	100.136	20.048	5.670	0.505
1212.500	693.474	80.000	19.996	100.136	20.048	5.666	0.503
1213.000	693.743	80.001	19.995	100.136	20.052	5.410	0.508
1213.500	694.027	80.001	19.994	100.137	20.046	5.818	0.537
1214.000	694.275	80.000	19.995	100.138	20.047	5.709	0.542
1214.501	694.482	80.000	19.995	100.138	20.048	5.660	0.493
1215.001	694.756	80.002	19.995	100.138	20.046	5.760	0.468
1215.500	694.899	79.999	19.995	100.137	20.047	5.743	0.449
1216.000	695.248	80.000	19.995	100.137	20.047	5.719	0.455
1216.500	695.534	80.002	19.995	100.132	20.049	5.557	0.564
1217.000	695.763	80.002	19.995	100.128	20.047	5.718	0.575
1217.500	696.016	80.002	19.995	100.128	20.046	5.760	0.498
1218.000	696.257	80.003	19.996	100.121	20.046	5.762	0.488
1218.500	696.528	80.001	19.995	100.114	20.049	5.562	0.503
1219.000	696.782	80.002	19.996	100.112	20.048	5.685	0.518
1219.500	697.021	80.001	19.995	100.109	20.047	5.714	0.509
1220.000	697.271	80.001	19.995	100.106	20.052	5.379	0.491
1220.500	697.523	80.001	19.995	100.106	20.046	5.764	0.495
1221.000	697.756	80.001	19.994	100.112	20.045	5.852	0.494
1221.500	698.007	80.001	19.993	100.112	20.045	5.850	0.484
1222.000	698.313	80.000	19.995	100.113	20.044	5.923	0.520
1222.500	698.518	80.002	19.995	100.115	20.044	5.937	0.534
1223.000	698.773	80.000	19.994	100.117	20.045	5.894	0.486
1223.500	699.063	80.001	19.994	100.112	20.042	6.083	0.502
1224.000	699.306	80.000	19.994	100.112	20.042	6.100	0.540
1224.500	699.545	79.999	19.995	100.111	20.046	5.798	0.508
1225.001	699.787	79.999	19.995	100.111	20.046	5.821	0.481
1225.501	700.029	80.000	19.994	100.109	20.046	5.812	0.482
1226.000	700.317	79.999	19.995	100.113	20.048	5.631	0.507
1226.500	700.576	80.000	19.996	100.120	20.045	5.870	0.538
1227.001	700.846	79.998	19.994	100.125	20.043	5.990	0.537
1227.501	701.109	79.999	19.996	100.128	20.047	5.750	0.531
1228.000	701.348	79.999	19.994	100.130	20.045	5.829	0.518
1228.500	701.601	79.998	19.994	100.125	20.044	5.935	0.497
1229.000	701.856	80.000	19.995	100.118	20.043	5.984	0.500
1229.500	702.104	79.999	19.995	100.118	20.046	5.776	0.505
1230.000	702.394	79.999	19.995	100.121	20.043	6.001	0.520
1230.500	702.595	79.998	19.995	100.127	20.044	5.907	0.514
1231.000	702.879	79.999	19.995	100.128	20.046	5.795	0.488
1231.500	703.121	79.999	19.994	100.129	20.050	5.542	0.506
1232.000	703.410	79.999	19.994	100.130	20.045	5.854	0.529
1232.500	703.645	79.999	19.995	100.129	20.047	5.715	0.527
1233.000	703.904	80.000	19.997	100.130	20.046	5.771	0.509
1233.500	704.124	79.998	19.994	100.135	20.044	5.895	0.486
1234.000	704.364	79.999	19.995	100.138	20.044	5.962	0.469
1234.500	704.641	80.000	19.995	100.136	20.047	5.689	0.489
1235.000	704.903	80.000	19.994	100.137	20.046	5.758	0.528
1235.500	705.157	79.999	19.996	100.135	20.045	5.876	0.527
1236.000	705.382	79.999	19.995	100.135	20.045	5.885	0.497
1236.500	705.657	79.999	19.994	100.139	20.048	5.677	0.489
1237.000	705.915	79.999	19.994	100.142	20.047	5.733	0.517
1237.500	706.126	79.999	19.995	100.142	20.046	5.784	0.501
1238.000	706.390	80.000	19.994	100.142	20.046	5.795	0.472
1238.500	706.638	79.999	19.994	100.142	20.047	5.711	0.494
1239.001	706.891	79.999	19.993	100.142	20.047	5.691	0.506
1239.501	707.133	80.000	19.993	100.139	20.042	6.031	0.498
1240.000	707.397	79.998	19.993	100.140	20.045	5.846	0.501
1240.500	707.654	79.999	19.994	100.141	20.047	5.697	0.513
1241.000	707.891	79.999	19.995	100.141	20.046	5.773	0.507
1241.501	708.149	79.998	19.994	100.137	20.046	5.818	0.495
1242.001	708.425	79.999	19.994	100.132	20.046	5.788	0.515
1242.500	708.669	80.000	19.993	100.126	20.047	5.708	0.527
1243.000	708.932	79.999	19.993	100.120	20.044	5.914	0.513
1243.500	709.194	79.999	19.994	100.115	20.048	5.637	0.515
1244.000	709.430	79.998	19.995	100.114	20.046	5.774	0.511
1244.500	709.697	79.998	19.994	100.119	20.049	5.579	0.501
1245.000	709.938	79.998	19.994	100.123	20.049	5.563	0.505
1245.500	710.213	79.999	19.994	100.122	20.045	5.869	0.512
1246.000	710.466	80.000	19.995	100.122	20.046	5.824	0.523
1246.500	710.706	79.999	19.995	100.120	20.043	5.981	0.511
1247.000	710.985	79.999	19.994	100.113	20.043	6.026	0.506
1247.500	711.202	80.000	19.992	100.109	20.047	5.743	0.508
1248.000	711.481	79.999	19.995	100.112	20.042	6.070	0.496
1248.500	711.763	80.000	19.994	100.113	20.046	5.810	0.528
1249.000	711.959	79.999	19.994	100.114	20.044	5.937	0.520
1249.500	712.263	79.999	19.993	100.116	20.044	5.903	0.490
1250.000	712.475	79.999	19.994	100.117	20.047	5.700	0.508
1250.500	712.737	79.999	19.994	100.119	20.042	6.094	0.495
1251.000	713.035	79.999	19.996	100.119	20.044	5.939	0.517
1251.500	713.272	79.999	19.995	100.120	20.046	5.825	0.547
1252.000	713.536	79.999	19.994	100.121	20.047	5.711	0.518
1252.500	713.789	79.998	19.995	100.124	20.045	5.827	0.509
1253.000	714.040	79.998	19.995	100.124	20.043	5.971	0.511
1253.500	714.288	79.998	19.996	100.124	20.044	5.954	0.501
1254.000	714.556	79.999	19.996	100.125	20.043	5.978	0.508
1254.500	714.810	79.998	19.996	100.128	20.046	5.798	0.519
1255.000	715.082	79.998	19.996	100.131	20.044	5.908	0.524
1255.500	715.305	79.999	19.996	100.129	20.045	5.852	0.511
1256.000	715.570	79.999	19.995	100.130	20.045	5.873	0.491
1256.500	715.827	79.997	19.996	100.132	20.046	5.821	0.505
1257.000	716.093	80.000	19.996	100.132	20.049	5.619	0.523
1257.500	716.375	79.998	19.995	100.132	20.044	5.902	0.536
1258.000	716.646	80.000	19.995	100.134	20.047	5.718	0.550
1258.500	716.918	79.998	19.995	100.139	20.045	5.858	0.547
1259.000	717.137	79.998	19.995	100.140	20.047	5.692	0.517
1259.500	717.368	79.999	19.997	100.140	20.043	5.967	0.471
1260.000	717.633	80.000	19.996	100.140	20.048	5.628	0.473
1260.500	717.878	79.997	19.995	100.139	20.048	5.651	0.503
1261.000	718.140	79.999	19.995	100.139	20.045	5.834	0.509
1261.501	718.359	79.999	19.996	100.140	20.049	5.591	0.494
1262.001	718.619	79.999	19.997	100.140	20.048	5.651	0.481
1262.500	718.867	79.997	19.997	100.140	20.046	5.761	0.494
1263.000	719.126	79.998	19.995	100.140	20.049	5.607	0.507
1263.500	719.397	79.998	19.996	100.139	20.048	5.656	0.519
1264.001	719.669	79.999	19.996	100.138	20.047	5.730	0.537
1264.501	719.883	79.999	19.996	100.135	20.048	5.619	0.515
1265.000	720.174	79.998	19.996	100.136	20.049	5.569	0.495
1265.500	720.424	80.000	19.994	100.130	20.047	5.717	0.522
1266.000	720.652	80.001	19.996	100.129	20.042	6.050	0.509
1266.500	720.916	80.001	19.996	100.129	20.048	5.677	0.485
1267.000	721.184	79.999	19.996	100.134	20.045	5.845	0.512
1267.500	721.459	80.000	19.995	100.134	20.052	5.393	0.538
1268.000	721.712	79.999	19.996	100.141	20.043	5.969	0.536
1268.500	721.983	80.000	19.996	100.141	20.043	6.016	0.526
1269.000	722.202	80.001	19.995	100.140	20.040	6.167	0.507
1269.500	722.475	80.001	19.995	100.138	20.045	5.889	0.490
1270.000	722.740	80.000	19.995	100.136	20.044	5.924	0.515
1270.500	722.979	80.000	19.996	100.136	20.046	5.806	0.521
1271.000	723.261	79.998	19.995	100.138	20.045	5.847	0.513
1271.500	723.552	80.001	19.996	100.139	20.046	5.795	0.547
1272.000	723.796	80.000	19.995	100.139	20.047	5.728	0.554
1272.500	724.035	80.001	19.995	100.141	20.045	5.887	0.508
1273.000	724.294	80.001	19.995	100.141	20.048	5.648	0.490
1273.500	724.523	80.001	19.995	100.136	20.047	5.743	0.494
1274.000	724.812	80.001	19.995	100.130	20.045	5.874	0.504
1274.500	725.057	80.000	19.994	100.123	20.046	5.774	0.526
1275.000	725.348	79.999	19.996	100.116	20.045	5.878	0.535
1275.500	725.601	80.001	19.995	100.112	20.046	5.761	0.540
1276.000	725.866	80.001	19.996	100.113	20.043	6.009	0.531
1276.500	726.148	80.001	19.996	100.113	20.042	6.086	0.532
1277.000	726.362	80.000	19.994	100.113	20.044	5.942	0.521
1277.500	726.629	80.001	19.996	100.113	20.042	6.082	0.488
1278.000	726.860	80.000	19.994	100.109	20.045	5.852	0.490
1278.500	727.109	80.001	19.996	100.105	20.045	5.887	0.490
1279.000	727.373	79.999	19.996	100.110	20.043	5.996	0.497
1279.500	727.635	80.000	19.996	100.112	20.044	5.927	0.519
1280.000	727.883	80.000	19.995	100.115	20.043	5.964	0.518
1280.500	728.154	80.000	19.996	100.117	20.040	6.228	0.514
1281.000	728.372	80.000	19.995	100.115	20.041	6.142	0.504
1281.500	728.657	80.000	19.997	100.110	20.041	6.133	0.496
1282.000	728.897	80.000	19.997	100.110	20.044	5.910	0.514
1282.500	729.141	79.999	19.995	100.107	20.044	5.927	0.504
1283.000	729.373	79.998	19.997	100.109	20.039	6.271	0.480
1283.500	729.641	79.999	19.996	100.111	20.039	6.241	0.488
1284.000	729.895	79.999	19.996	100.116	20.041	6.109	0.512
1284.500	730.183	79.999	19.996	100.119	20.041	6.126	0.532
1285.000	730.424	79.999	19.997	100.124	20.044	5.961	0.535
1285.500	730.679	79.998	19.995	100.125	20.040	6.215	0.512
1286.000	730.933	79.999	19.995	100.125	20.042	6.051	0.502
1286.500	731.193	79.998	19.997	100.128	20.042	6.034	0.511
1287.000	731.449	79.997	19.996	100.131	20.046	5.776	0.515
1287.500	731.693	79.997	19.997	100.127	20.044	5.927	0.508
1288.000	731.926	79.998	19.996	100.128	20.043	5.996	0.489
1288.500	732.203	79.998	19.996	100.127	20.047	5.749	0.493
1289.000	732.445	79.999	19.996	100.120	20.041	6.108	0.514
1289.500	732.657	80.000	19.996	100.118	20.048	5.665	0.487
1290.000	732.918	79.999	19.995	100.122	20.044	5.916	0.464
1290.500	733.178	79.998	19.996	100.125	20.044	5.929	0.497
1291.000	733.411	79.999	19.995	100.128	20.043	5.972	0.506
1291.500	733.684	80.000	19.995	100.134	20.043	5.976	0.499
1292.000	733.923	80.000	19.995	100.135	20.045	5.875	0.509
1292.500	734.165	80.001	19.995	100.134	20.040	6.204	0.497
1293.000	734.423	80.000	19.994	100.133	20.040	6.187	0.491
1293.500	734.686	80.001	19.994	100.134	20.041	6.157	0.511
1294.000	734.927	79.999	19.994	100.129	20.044	5.959	0.513
1294.500	735.154	80.000	19.994	100.128	20.044	5.933	0.486
1295.000	735.433	80.000	19.996	100.132	20.043	5.973	0.486
1295.500	735.638	80.001	19.995	100.134	20.046	5.798	0.495
1296.000	735.899	80.001	19.995	100.134	20.045	5.861	0.475
1296.500	736.152	80.000	19.994	100.137	20.043	6.022	0.490
1297.000	736.403	80.001	19.995	100.138	20.046	5.779	0.510
1297.500	736.637	80.002	19.993	100.133	20.041	6.118	0.494
1298.001	736.871	80.002	19.993	100.130	20.044	5.963	0.476
1298.501	737.158	80.002	19.993	100.129	20.040	6.232	0.495
1299.000	737.380	80.002	19.994	100.126	20.040	6.173	0.515
1299.500	737.693	80.002	19.993	100.125	20.041	6.152	0.522
1300.000	737.939	80.000	19.994	100.128	20.042	6.096	0.547
1300.500	738.146	80.001	19.994	100.128	20.042	6.067	0.506
1301.000	738.421	80.003	19.995	100.130	20.038	6.366	0.468
1301.500	738.664	80.002	19.994	100.133	20.039	6.285	0.500
1302.000	738.915	80.002	19.994	100.134	20.041	6.132	0.506
1302.500	739.169	80.002	19.994	100.136	20.039	6.302	0.499
1303.001	739.395	80.002	19.995	100.139	20.039	6.255	0.492
1303.501	739.659	80.000	19.995	100.138	20.043	6.010	0.485
1304.000	739.938	80.001	19.994	100.136	20.039	6.276	0.517
1304.500	740.173	80.000	19.994	100.135	20.043	5.976	0.529
1305.000	740.427	80.000	19.993	100.133	20.040	6.199	0.502
1305.500	740.660	80.002	19.994	100.127	20.037	6.418	0.488
1306.000	740.920	80.001	19.994	100.121	20.039	6.248	0.490
1306.500	741.146	79.999	19.993	100.120	20.040	6.237	0.489
1307.000	741.446	80.000	19.993	100.118	20.038	6.354	0.506
1307.500	741.709	79.999	19.995	100.117	20.038	6.324	0.545
1308.000	741.951	79.999	19.995	100.121	20.040	6.236	0.534
1308.500	742.208	79.999	19.996	100.127	20.040	6.189	0.502
1309.000	742.456	79.999	19.995	100.132	20.037	6.377	0.501
1309.500	742.720	79.999	19.995	100.137	20.038	6.372	0.508
1310.000	742.941	79.999	19.995	100.143	20.041	6.117	0.499
1310.500	743.209	79.999	19.996	100.146	20.041	6.106	0.487
1311.000	743.439	79.998	19.994	100.147	20.040	6.172	0.494
1311.500	743.691	79.998	19.995	100.147	20.042	6.039	0.491
