Sample ID:	C:\MCC\MCC Cal\Test\R13_Fiberglas_InsulationB_MCC_30K_min_220215_R2.txt
Sample Weight (mg):	4.33
Heating Rate (C/s):	0.5
Combustor Temp (C):	900
N2 Flow Rate (cc/min):	80
O2 Flow Rate (cc/min):	20
Calibration File:	C:\MCC\MCC Cal\Coeff1 JN10440_30_210304.txt.txt
T Correction Coefficients:	0	1.024463	0
Time Shift (s):	14
*
Time (s)	Temperature (C)	N2 flow rate (cc/min)	O2 flow rate (cc/min)	Flow Rate (cc/min)	Oxygen (%)	HRR (W/g)	Heating rate (C/s)
0.000	112.851	80.007	19.994	103.646	20.020	0.118	-0.031
0.500	112.873	80.006	19.994	103.645	20.019	0.249	-0.001
1.000	112.868	80.006	19.994	103.644	20.020	0.166	0.025
1.500	112.886	80.005	19.993	103.643	20.020	0.116	0.015
2.000	112.856	80.005	19.995	103.639	20.020	0.178	0.001
2.500	112.915	80.005	19.995	103.643	20.022	0.028	0.009
3.000	112.870	80.006	19.995	103.649	20.021	0.074	0.022
3.500	112.852	80.006	19.994	103.655	20.020	0.168	-0.025
4.000	112.847	80.006	19.995	103.655	20.017	0.339	-0.043
4.500	112.830	80.006	19.996	103.658	20.023	-0.074	-0.023
5.000	112.833	80.006	19.995	103.656	20.018	0.257	-0.018
5.500	112.828	80.006	19.995	103.653	20.020	0.158	-0.008
6.000	112.856	80.006	19.993	103.647	20.016	0.427	0.010
6.500	112.859	80.006	19.994	103.645	20.017	0.373	0.027
7.000	112.842	80.006	19.994	103.646	20.017	0.333	0.009
7.500	112.822	80.006	19.993	103.648	20.016	0.467	-0.025
8.000	112.854	80.006	19.994	103.648	20.018	0.261	-0.013
8.500	112.867	80.006	19.993	103.653	20.018	0.257	0.028
9.000	112.832	80.006	19.993	103.653	20.019	0.195	0.012
9.500	112.836	80.008	19.993	103.650	20.016	0.443	-0.027
10.000	112.855	80.006	19.993	103.645	20.014	0.570	-0.004
10.500	112.850	80.007	19.993	103.641	20.018	0.265	0.019
11.000	112.842	80.006	19.993	103.640	20.018	0.317	0.001
11.501	112.847	80.006	19.993	103.640	20.016	0.473	-0.008
12.001	112.855	80.005	19.993	103.644	20.016	0.465	0.005
12.500	112.853	80.007	19.994	103.647	20.016	0.417	0.009
13.000	112.871	80.006	19.994	103.651	20.021	0.106	0.011
13.500	112.827	80.005	19.993	103.650	20.020	0.167	-0.005
14.000	112.846	80.006	19.993	103.649	20.015	0.532	-0.025
14.500	112.795	80.006	19.993	103.648	20.017	0.359	-0.028
15.000	112.839	80.005	19.992	103.646	20.018	0.289	-0.019
15.500	112.834	80.006	19.993	103.644	20.019	0.227	0.016
16.000	112.822	80.005	19.992	103.647	20.017	0.397	0.011
16.500	112.823	80.005	19.993	103.652	20.018	0.301	-0.014
17.000	112.826	80.005	19.994	103.654	20.016	0.480	-0.004
17.500	112.807	80.006	19.994	103.653	20.016	0.450	-0.006
18.000	112.830	80.006	19.993	103.654	20.013	0.640	-0.006
18.500	112.807	80.005	19.993	103.654	20.015	0.552	0.002
19.000	112.807	80.006	19.993	103.654	20.013	0.650	-0.011
19.500	112.811	80.005	19.993	103.656	20.014	0.604	-0.010
20.000	112.795	80.004	19.993	103.662	20.015	0.486	-0.004
20.500	112.795	80.005	19.992	103.666	20.012	0.729	-0.014
21.000	112.816	80.005	19.993	103.669	20.016	0.440	0.003
21.500	112.842	80.005	19.993	103.671	20.013	0.691	0.034
22.000	112.797	80.004	19.993	103.679	20.012	0.767	0.014
22.500	112.799	80.005	19.993	103.686	20.010	0.916	-0.031
23.000	112.802	80.003	19.992	103.694	20.009	0.962	-0.019
23.500	112.823	80.004	19.993	103.701	20.011	0.799	0.015
24.000	112.820	80.006	19.994	103.708	20.006	1.189	0.021
24.500	112.842	80.004	19.994	103.711	20.007	1.102	0.019
25.000	112.804	80.005	19.993	103.716	20.005	1.271	0.002
25.500	112.797	80.005	19.995	103.724	20.003	1.404	-0.030
26.000	112.820	80.006	19.993	103.730	20.002	1.466	-0.015
26.500	112.854	80.004	19.993	103.736	20.004	1.335	0.036
27.000	112.883	80.005	19.993	103.740	20.004	1.373	0.060
27.500	112.881	80.005	19.994	103.744	19.999	1.725	0.045
28.000	112.896	80.006	19.993	103.743	20.000	1.608	0.020
28.500	112.911	80.006	19.993	103.745	19.998	1.787	0.021
29.000	112.929	80.005	19.994	103.747	20.000	1.674	0.031
29.500	112.940	80.005	19.994	103.749	19.999	1.680	0.031
30.000	112.989	80.007	19.994	103.757	19.998	1.757	0.044
30.500	112.978	80.007	19.994	103.766	20.001	1.564	0.049
31.000	112.975	80.007	19.994	103.774	19.999	1.739	0.012
31.500	113.001	80.008	19.993	103.780	19.998	1.781	0.005
32.000	113.002	80.006	19.995	103.785	19.999	1.737	0.025
32.500	113.059	80.008	19.994	103.784	19.997	1.864	0.042
33.000	113.066	80.008	19.994	103.782	19.995	2.037	0.061
33.500	113.109	80.007	19.994	103.782	19.996	1.964	0.057
34.000	113.148	80.008	19.994	103.782	19.994	2.075	0.065
34.501	113.181	80.008	19.994	103.782	19.993	2.153	0.077
35.001	113.239	80.009	19.993	103.783	19.993	2.141	0.082
35.500	113.267	80.009	19.994	103.783	19.991	2.342	0.089
36.000	113.295	80.008	19.994	103.783	19.996	1.930	0.071
36.500	113.299	80.009	19.994	103.788	19.996	1.954	0.044
37.000	113.376	80.008	19.993	103.789	19.992	2.258	0.056
37.500	113.441	80.008	19.995	103.789	19.989	2.458	0.111
38.000	113.436	80.007	19.995	103.789	19.990	2.418	0.101
38.500	113.465	80.007	19.993	103.788	19.990	2.402	0.043
39.000	113.537	80.008	19.993	103.782	19.991	2.320	0.063
39.500	113.558	80.008	19.993	103.779	19.995	1.998	0.097
40.000	113.656	80.007	19.993	103.777	19.985	2.742	0.106
40.501	113.695	80.007	19.992	103.777	19.990	2.392	0.128
41.001	113.745	80.007	19.994	103.779	19.989	2.429	0.113
41.500	113.778	80.008	19.993	103.785	19.990	2.356	0.086
42.000	113.827	80.007	19.994	103.794	19.991	2.314	0.082
42.500	113.899	80.007	19.993	103.803	19.988	2.547	0.102
43.000	113.939	80.006	19.992	103.811	19.988	2.543	0.117
43.500	113.986	80.007	19.993	103.819	19.988	2.539	0.099
44.000	114.056	80.007	19.995	103.822	19.986	2.698	0.102
44.500	114.142	80.007	19.993	103.822	19.984	2.857	0.137
45.000	114.195	80.008	19.993	103.821	19.987	2.617	0.148
45.500	114.272	80.007	19.993	103.818	19.984	2.832	0.134
46.000	114.306	80.006	19.994	103.816	19.985	2.754	0.121
46.500	114.388	80.007	19.995	103.816	19.988	2.535	0.114
47.000	114.444	80.007	19.993	103.817	19.984	2.827	0.127
47.501	114.511	80.006	19.992	103.817	19.987	2.634	0.130
48.001	114.545	80.006	19.995	103.819	19.986	2.720	0.112
48.500	114.602	80.005	19.995	103.821	19.985	2.753	0.096
49.000	114.683	80.006	19.994	103.821	19.986	2.656	0.115
49.500	114.757	80.005	19.993	103.821	19.982	2.963	0.146
50.001	114.862	80.006	19.994	103.821	19.985	2.726	0.167
50.501	114.936	80.007	19.994	103.822	19.989	2.437	0.179
51.001	115.014	80.005	19.993	103.823	19.986	2.704	0.166
51.501	115.057	80.007	19.994	103.827	19.980	3.104	0.137
52.000	115.131	80.007	19.994	103.831	19.982	2.982	0.119
52.500	115.269	80.006	19.994	103.834	19.983	2.948	0.164
53.000	115.392	80.007	19.995	103.837	19.983	2.911	0.236
53.500	115.396	80.006	19.994	103.844	19.979	3.185	0.194
54.000	115.448	80.006	19.995	103.847	19.975	3.510	0.091
54.500	115.567	80.008	19.994	103.848	19.978	3.251	0.114
55.000	115.627	80.007	19.994	103.847	19.982	3.010	0.175
55.500	115.748	80.009	19.994	103.843	19.980	3.157	0.180
56.000	115.803	80.008	19.994	103.835	19.976	3.406	0.178
56.500	115.922	80.007	19.995	103.830	19.978	3.306	0.175
57.000	115.978	80.008	19.995	103.831	19.977	3.354	0.175
57.500	116.107	80.006	19.993	103.837	19.975	3.509	0.180
58.000	116.183	80.009	19.994	103.843	19.974	3.583	0.195
58.500	116.282	80.007	19.995	103.850	19.976	3.400	0.190
59.000	116.327	80.008	19.995	103.855	19.979	3.242	0.159
59.500	116.471	80.008	19.995	103.855	19.975	3.511	0.167
60.000	116.585	80.008	19.994	103.853	19.974	3.566	0.224
60.500	116.688	80.009	19.994	103.853	19.976	3.413	0.237
61.000	116.807	80.008	19.995	103.853	19.973	3.632	0.219
61.500	116.881	80.007	19.995	103.852	19.976	3.425	0.208
62.000	116.984	80.009	19.995	103.853	19.972	3.716	0.185
62.500	117.123	80.009	19.994	103.855	19.974	3.602	0.210
63.000	117.210	80.008	19.994	103.856	19.976	3.475	0.234
63.500	117.345	80.007	19.994	103.857	19.973	3.680	0.224
64.000	117.439	80.008	19.995	103.858	19.973	3.634	0.226
64.500	117.528	80.008	19.995	103.860	19.970	3.905	0.206
65.000	117.645	80.007	19.994	103.860	19.974	3.588	0.194
65.500	117.790	80.007	19.993	103.860	19.975	3.505	0.234
66.000	117.886	80.007	19.995	103.865	19.968	4.036	0.252
66.500	117.983	80.008	19.994	103.870	19.972	3.706	0.217
67.000	118.085	80.006	19.994	103.873	19.970	3.885	0.196
67.500	118.225	80.007	19.993	103.876	19.970	3.907	0.221
68.000	118.341	80.006	19.993	103.878	19.967	4.092	0.248
68.500	118.478	80.006	19.993	103.876	19.964	4.331	0.254
69.001	118.601	80.006	19.993	103.875	19.971	3.779	0.257
69.501	118.690	80.005	19.994	103.878	19.966	4.205	0.236
70.000	118.843	80.006	19.994	103.882	19.970	3.902	0.227
70.500	118.937	80.006	19.994	103.886	19.968	4.072	0.245
71.000	119.048	80.006	19.993	103.891	19.967	4.131	0.226
71.500	119.222	80.006	19.993	103.894	19.971	3.807	0.245
72.001	119.320	80.005	19.993	103.893	19.968	4.074	0.278
72.501	119.497	80.006	19.994	103.895	19.965	4.231	0.274
73.000	119.601	80.006	19.993	103.895	19.970	3.894	0.278
73.500	119.757	80.005	19.994	103.892	19.964	4.344	0.270
74.000	119.875	80.004	19.993	103.887	19.969	3.956	0.267
74.500	119.997	80.006	19.994	103.884	19.969	3.980	0.257
75.000	120.196	80.005	19.994	103.883	19.969	3.958	0.281
75.500	120.334	80.005	19.994	103.884	19.970	3.876	0.329
76.000	120.461	80.007	19.995	103.887	19.963	4.400	0.301
76.500	120.585	80.006	19.993	103.892	19.965	4.243	0.258
77.000	120.728	80.006	19.995	103.895	19.964	4.312	0.260
77.500	120.860	80.006	19.992	103.897	19.968	4.038	0.271
78.000	121.063	80.005	19.993	103.893	19.968	4.024	0.305
78.500	121.163	80.006	19.993	103.892	19.967	4.087	0.319
79.000	121.311	80.005	19.993	103.893	19.966	4.161	0.276
79.500	121.485	80.006	19.993	103.895	19.966	4.165	0.285
80.000	121.625	80.006	19.993	103.895	19.970	3.851	0.318
80.501	121.799	80.006	19.994	103.899	19.970	3.904	0.314
81.001	121.892	80.005	19.993	103.900	19.969	3.986	0.290
81.500	122.073	80.006	19.992	103.901	19.973	3.678	0.270
82.000	122.205	80.005	19.993	103.902	19.971	3.811	0.294
82.500	122.388	80.006	19.993	103.903	19.968	4.014	0.315
83.000	122.560	80.006	19.993	103.903	19.967	4.082	0.335
83.500	122.678	80.006	19.993	103.903	19.974	3.586	0.322
84.000	122.848	80.005	19.992	103.903	19.982	2.997	0.289
84.500	123.023	80.005	19.993	103.903	19.972	3.758	0.316
85.000	123.279	80.006	19.994	103.903	19.975	3.501	0.388
85.500	123.372	80.005	19.994	103.903	19.981	3.089	0.390
86.000	123.550	80.006	19.993	103.903	19.974	3.564	0.310
86.500	123.689	80.005	19.992	103.903	19.980	3.152	0.294
87.000	123.871	80.005	19.993	103.902	19.979	3.196	0.319
87.500	124.050	80.005	19.993	103.902	19.980	3.162	0.341
88.000	124.196	80.005	19.994	103.902	19.966	4.155	0.343
88.500	124.361	80.006	19.993	103.902	19.969	3.994	0.318
89.000	124.538	80.005	19.993	103.902	19.974	3.602	0.326
89.501	124.696	80.006	19.993	103.905	19.980	3.112	0.339
90.001	124.859	80.006	19.992	103.905	19.978	3.323	0.328
90.500	125.131	80.006	19.993	103.904	19.969	3.992	0.378
91.000	125.428	80.007	19.993	103.902	19.971	3.777	0.502
91.500	125.552	80.005	19.992	103.901	19.964	4.346	0.495
92.000	125.716	80.007	19.993	103.900	19.967	4.098	0.354
92.500	125.713	80.007	19.992	103.900	19.974	3.606	0.224
93.000	125.901	80.006	19.992	103.900	19.971	3.811	0.173
93.500	126.100	80.006	19.993	103.901	19.972	3.703	0.286
94.000	126.223	80.006	19.993	103.900	19.969	3.948	0.355
94.500	126.406	80.006	19.993	103.899	19.967	4.141	0.314
95.001	126.577	80.006	19.993	103.896	19.966	4.201	0.330
95.502	126.790	80.006	19.994	103.891	19.964	4.312	0.369
96.002	126.944	80.005	19.993	103.891	19.965	4.241	0.375
96.501	127.141	80.005	19.993	103.891	19.967	4.092	0.359
97.001	127.366	80.005	19.994	103.892	19.966	4.159	0.386
97.501	127.479	80.005	19.995	103.895	19.965	4.265	0.380
98.000	127.673	80.005	19.994	103.898	19.965	4.249	0.323
98.500	127.887	80.006	19.993	103.898	19.968	4.050	0.358
99.000	128.044	80.006	19.995	103.899	19.964	4.316	0.389
99.500	128.211	80.005	19.993	103.900	19.967	4.101	0.348
100.000	128.447	80.007	19.994	103.900	19.967	4.113	0.364
100.500	128.595	80.006	19.992	103.900	19.967	4.109	0.393
101.001	128.781	80.006	19.993	103.900	19.967	4.115	0.359
101.501	128.989	80.005	19.993	103.900	19.967	4.080	0.364
102.000	129.137	80.006	19.994	103.900	19.965	4.249	0.375
102.500	129.350	80.005	19.993	103.899	19.964	4.299	0.358
103.000	129.565	80.007	19.993	103.899	19.964	4.309	0.394
103.500	129.710	80.005	19.993	103.900	19.968	4.036	0.394
104.000	129.904	80.007	19.993	103.900	19.967	4.141	0.349
104.500	130.109	80.006	19.993	103.900	19.968	4.000	0.369
105.000	130.265	80.006	19.992	103.900	19.967	4.102	0.380
105.500	130.502	80.006	19.993	103.900	19.968	4.060	0.377
106.000	130.660	80.007	19.993	103.900	19.968	4.064	0.394
106.500	130.824	80.006	19.993	103.900	19.963	4.430	0.358
107.000	131.061	80.005	19.992	103.900	19.967	4.123	0.361
107.500	131.243	80.005	19.992	103.900	19.967	4.113	0.410
108.000	131.426	80.005	19.993	103.900	19.967	4.137	0.392
108.500	131.655	80.006	19.993	103.900	19.969	3.958	0.389
109.001	131.826	80.007	19.994	103.900	19.968	4.022	0.406
109.501	132.038	80.006	19.993	103.900	19.966	4.155	0.392
110.001	132.237	80.006	19.992	103.901	19.964	4.374	0.397
110.501	132.427	80.007	19.993	103.901	19.972	3.745	0.400
111.001	132.639	80.007	19.993	103.902	19.973	3.660	0.396
111.501	132.856	80.007	19.993	103.902	19.975	3.542	0.415
112.000	133.030	80.006	19.993	103.900	19.969	3.926	0.410
112.500	133.242	80.006	19.992	103.898	19.975	3.481	0.389
113.000	133.419	80.007	19.993	103.897	19.963	4.430	0.388
113.500	133.634	80.008	19.992	103.897	19.964	4.346	0.390
114.000	133.803	80.006	19.992	103.896	19.964	4.316	0.388
114.500	134.036	80.007	19.992	103.895	19.966	4.177	0.393
115.000	134.232	80.007	19.992	103.897	19.976	3.453	0.416
115.500	134.456	80.008	19.993	103.896	19.970	3.882	0.425
116.001	134.640	80.007	19.992	103.896	19.968	4.028	0.414
116.501	134.849	80.006	19.992	103.897	19.969	3.936	0.400
117.000	135.028	80.007	19.992	103.898	19.960	4.651	0.390
117.501	135.249	80.006	19.994	103.899	19.967	4.089	0.394
118.001	135.455	80.008	19.993	103.900	19.962	4.495	0.413
118.500	135.649	80.007	19.993	103.900	19.970	3.873	0.413
119.000	135.882	80.007	19.993	103.900	19.971	3.817	0.413
119.500	136.054	80.007	19.994	103.900	19.977	3.361	0.416
120.000	136.258	80.007	19.993	103.900	19.966	4.177	0.391
120.500	136.461	80.008	19.993	103.900	19.963	4.380	0.392
121.000	136.727	80.006	19.993	103.900	19.970	3.898	0.438
121.500	136.913	80.007	19.994	103.900	19.981	3.039	0.461
122.000	137.112	80.007	19.994	103.899	19.977	3.345	0.418
122.500	137.313	80.006	19.993	103.900	19.969	3.984	0.392
123.000	137.549	80.006	19.994	103.899	19.966	4.177	0.419
123.500	137.750	80.007	19.993	103.900	19.965	4.225	0.437
124.000	137.909	80.007	19.993	103.901	19.969	3.964	0.398
124.501	138.102	80.007	19.995	103.901	19.965	4.283	0.356
125.001	138.350	80.007	19.992	103.901	19.967	4.139	0.397
125.500	138.498	80.007	19.993	103.901	19.975	3.516	0.418
126.000	138.738	80.008	19.993	103.901	19.978	3.309	0.392
126.500	138.916	80.007	19.994	103.902	19.973	3.687	0.403
127.000	139.181	80.006	19.994	103.902	19.973	3.648	0.431
127.500	139.407	80.007	19.994	103.902	19.963	4.378	0.467
128.000	139.610	80.007	19.994	103.902	19.965	4.253	0.460
128.500	139.824	80.006	19.995	103.902	19.963	4.400	0.423
129.000	140.041	80.007	19.994	103.901	19.962	4.489	0.424
129.500	140.240	80.007	19.994	103.901	19.970	3.863	0.424
130.000	140.499	80.007	19.994	103.901	19.967	4.103	0.437
130.500	140.667	80.006	19.994	103.901	19.965	4.239	0.442
131.000	140.928	80.006	19.994	103.901	19.963	4.400	0.427
131.500	141.128	80.006	19.994	103.901	19.965	4.281	0.445
132.000	141.329	80.005	19.993	103.901	19.964	4.360	0.432
132.500	141.550	80.006	19.994	103.901	19.967	4.086	0.412
133.000	141.760	80.006	19.994	103.900	19.966	4.155	0.426
133.500	141.981	80.006	19.993	103.901	19.963	4.418	0.430
134.000	142.224	80.007	19.993	103.901	19.968	4.042	0.448
134.500	142.456	80.006	19.993	103.901	19.967	4.076	0.470
135.000	142.696	80.007	19.993	103.901	19.968	4.034	0.474
135.500	142.884	80.006	19.993	103.901	19.966	4.185	0.450
136.000	143.134	80.006	19.993	103.901	19.966	4.153	0.433
136.500	143.352	80.006	19.993	103.902	19.968	4.024	0.453
137.000	143.581	80.007	19.992	103.902	19.962	4.464	0.457
137.500	143.765	80.007	19.994	103.902	19.966	4.203	0.430
138.000	144.039	80.007	19.992	103.902	19.963	4.414	0.436
138.500	144.273	80.007	19.993	103.902	19.968	4.048	0.483
139.000	144.490	80.007	19.994	103.902	19.971	3.827	0.479
139.500	144.696	80.007	19.993	103.902	19.976	3.475	0.437
140.000	144.953	80.007	19.993	103.902	19.977	3.393	0.443
140.500	145.131	80.008	19.993	103.901	19.979	3.188	0.449
141.000	145.365	80.008	19.992	103.901	19.967	4.079	0.424
141.500	145.637	80.008	19.992	103.901	19.960	4.629	0.459
142.000	145.848	80.008	19.993	103.898	19.966	4.191	0.495
142.500	146.064	80.007	19.993	103.896	19.968	4.073	0.455
143.000	146.276	80.008	19.992	103.896	19.974	3.602	0.428
143.500	146.481	80.007	19.993	103.895	19.981	3.047	0.422
144.000	146.746	80.008	19.994	103.895	19.968	4.036	0.443
144.500	146.945	80.008	19.994	103.897	19.970	3.920	0.467
145.000	147.207	80.007	19.992	103.899	19.964	4.326	0.463
145.500	147.400	80.007	19.994	103.899	19.975	3.498	0.458
146.000	147.659	80.006	19.993	103.899	19.972	3.725	0.454
146.500	147.865	80.006	19.993	103.899	19.976	3.423	0.458
147.000	148.078	80.007	19.993	103.899	19.964	4.310	0.442
147.500	148.309	80.008	19.994	103.899	19.964	4.332	0.432
148.000	148.544	80.007	19.994	103.899	19.960	4.641	0.455
148.500	148.808	80.006	19.994	103.900	19.964	4.372	0.482
149.000	149.000	80.005	19.994	103.901	19.964	4.328	0.478
149.500	149.248	80.004	19.993	103.901	19.964	4.304	0.448
150.000	149.472	80.005	19.994	103.902	19.966	4.191	0.456
150.500	149.681	80.004	19.993	103.902	19.964	4.304	0.453
151.000	149.925	80.005	19.994	103.902	19.969	3.952	0.443
151.500	150.177	80.005	19.994	103.902	19.967	4.109	0.474
152.000	150.389	80.006	19.998	103.902	19.961	4.539	0.480
152.501	150.620	80.006	19.997	103.903	19.968	4.040	0.454
153.001	150.829	80.004	19.996	103.904	19.966	4.213	0.442
153.500	151.035	80.005	19.996	103.904	19.965	4.233	0.428
154.000	151.285	80.005	19.994	103.905	19.968	4.008	0.435
154.500	151.488	80.004	19.996	103.904	19.965	4.249	0.454
155.000	151.733	80.005	19.995	103.904	19.964	4.354	0.451
155.500	151.983	80.005	19.994	103.903	19.966	4.201	0.472
156.000	152.201	80.005	19.995	103.904	19.966	4.203	0.482
156.500	152.462	80.004	19.995	103.906	19.963	4.376	0.473
157.000	152.666	80.005	19.994	103.906	19.968	4.046	0.472
157.500	152.919	80.005	19.995	103.906	19.968	4.054	0.461
158.000	153.125	80.006	19.995	103.905	19.966	4.177	0.458
158.500	153.415	80.006	19.994	103.906	19.965	4.229	0.477
159.000	153.616	80.007	19.994	103.903	19.962	4.501	0.494
159.500	153.836	80.005	19.994	103.903	19.967	4.123	0.456
160.000	154.061	80.006	19.994	103.902	19.966	4.165	0.432
160.500	154.264	80.005	19.993	103.901	19.966	4.193	0.436
161.000	154.653	80.006	19.993	103.900	19.966	4.179	0.510
161.500	154.744	80.004	19.995	103.899	19.964	4.346	0.537
162.000	155.025	80.006	19.994	103.900	19.964	4.326	0.426
162.500	155.228	80.006	19.994	103.900	19.962	4.509	0.428
163.000	155.529	80.006	19.994	103.901	19.961	4.529	0.494
163.500	155.704	80.006	19.994	103.901	19.963	4.390	0.490
164.000	155.956	80.005	19.994	103.901	19.960	4.649	0.451
164.500	156.185	80.007	19.994	103.900	19.961	4.549	0.454
165.000	156.430	80.006	19.992	103.901	19.960	4.651	0.477
165.500	156.649	80.006	19.993	103.900	19.965	4.235	0.469
166.000	156.923	80.006	19.992	103.900	19.963	4.430	0.478
166.500	157.110	80.007	19.993	103.902	19.963	4.400	0.477
167.000	157.348	80.008	19.994	103.903	19.966	4.205	0.443
167.500	157.600	80.005	19.992	103.903	19.964	4.346	0.458
168.001	157.846	80.007	19.994	103.903	19.962	4.485	0.494
168.500	158.043	80.006	19.995	103.904	19.967	4.129	0.471
169.000	158.343	80.007	19.994	103.903	19.961	4.581	0.470
169.500	158.535	80.007	19.994	103.903	19.965	4.245	0.494
170.000	158.801	80.006	19.993	103.903	19.965	4.285	0.475
170.500	159.043	80.006	19.992	103.903	19.966	4.223	0.483
171.000	159.280	80.007	19.993	103.901	19.964	4.322	0.493
171.500	159.529	80.006	19.993	103.900	19.964	4.368	0.482
172.000	159.723	80.007	19.992	103.900	19.967	4.127	0.465
172.501	159.985	80.006	19.993	103.900	19.963	4.410	0.449
173.000	160.239	80.007	19.993	103.900	19.967	4.125	0.486
173.500	160.435	80.006	19.993	103.900	19.967	4.149	0.484
174.000	160.725	80.006	19.992	103.900	19.964	4.360	0.468
174.500	160.948	80.006	19.993	103.900	19.967	4.115	0.499
175.000	161.186	80.007	19.993	103.900	19.963	4.394	0.487
175.500	161.402	80.006	19.992	103.900	19.964	4.300	0.457
176.000	161.598	80.005	19.994	103.900	19.964	4.362	0.433
176.500	161.888	80.007	19.993	103.900	19.965	4.227	0.449
177.000	162.082	80.005	19.994	103.901	19.963	4.442	0.484
177.501	162.305	80.006	19.993	103.903	19.967	4.121	0.451
178.000	162.563	80.005	19.993	103.903	19.964	4.346	0.449
178.500	162.993	80.005	19.994	103.903	19.964	4.370	0.584
179.000	163.150	80.006	19.993	103.903	19.965	4.295	0.638
179.500	163.298	80.005	19.993	103.903	19.965	4.273	0.446
180.000	163.489	80.006	19.993	103.901	19.960	4.607	0.322
180.500	163.761	80.005	19.993	103.900	19.961	4.559	0.401
181.001	164.015	80.005	19.993	103.900	19.966	4.155	0.495
181.501	164.249	80.006	19.993	103.900	19.972	3.743	0.507
182.001	164.530	80.005	19.993	103.899	19.965	4.239	0.501
182.501	164.770	80.005	19.993	103.899	19.963	4.400	0.518
183.000	165.014	80.006	19.994	103.899	19.970	3.877	0.503
183.500	165.301	80.005	19.995	103.899	19.970	3.883	0.508
184.000	165.535	80.005	19.993	103.899	19.965	4.291	0.526
184.500	165.746	80.005	19.994	103.900	19.964	4.344	0.483
185.000	166.030	80.005	19.994	103.900	19.961	4.563	0.470
185.501	166.290	80.006	19.994	103.900	19.968	4.054	0.520
186.001	166.546	80.005	19.993	103.901	19.964	4.370	0.530
186.501	166.781	80.006	19.993	103.901	19.967	4.145	0.503
187.001	167.050	80.005	19.993	103.901	19.964	4.301	0.497
187.500	167.306	80.005	19.994	103.900	19.963	4.412	0.515
188.000	167.533	80.005	19.992	103.900	19.964	4.348	0.504
188.500	167.742	80.006	19.993	103.899	19.964	4.326	0.459
189.000	168.029	80.005	19.993	103.899	19.967	4.121	0.466
189.500	168.260	80.005	19.994	103.897	19.968	4.030	0.507
190.000	168.507	80.005	19.994	103.898	19.973	3.642	0.498
190.500	168.763	80.004	19.995	103.898	19.980	3.113	0.491
191.000	168.985	80.006	19.993	103.898	19.963	4.400	0.491
191.500	169.191	80.005	19.994	103.898	19.964	4.327	0.453
192.000	169.482	80.007	19.994	103.900	19.962	4.513	0.463
192.500	169.691	80.006	19.993	103.899	19.964	4.306	0.498
193.000	169.972	80.006	19.992	103.900	19.965	4.279	0.495
193.500	170.181	80.007	19.992	103.899	19.977	3.345	0.490
194.000	170.454	80.007	19.993	103.899	19.970	3.877	0.486
194.500	170.727	80.007	19.993	103.898	19.973	3.626	0.514
195.000	170.956	80.006	19.992	103.898	19.970	3.853	0.524
195.500	171.163	80.006	19.993	103.898	19.966	4.193	0.468
196.000	171.430	80.006	19.993	103.894	19.962	4.458	0.455
196.500	171.663	80.008	19.993	103.895	19.963	4.396	0.487
197.000	171.912	80.008	19.993	103.896	19.960	4.635	0.491
197.500	172.147	80.008	19.992	103.898	19.964	4.346	0.483
198.000	172.417	80.008	19.993	103.898	19.960	4.673	0.494
198.500	172.669	80.006	19.992	103.902	19.962	4.464	0.513
199.000	172.957	80.007	19.993	103.901	19.959	4.711	0.531
199.500	173.218	80.008	19.992	103.901	19.964	4.364	0.544
200.000	173.443	80.007	19.993	103.900	19.961	4.545	0.517
200.500	173.678	80.008	19.993	103.895	19.959	4.677	0.473
201.000	173.918	80.007	19.992	103.893	19.962	4.512	0.468
201.500	174.173	80.008	19.993	103.893	19.967	4.141	0.485
202.000	174.445	80.009	19.992	103.894	19.964	4.310	0.511
202.500	174.721	80.007	19.992	103.894	19.968	4.038	0.538
203.000	174.921	80.008	19.993	103.898	19.965	4.255	0.512
203.500	175.196	80.008	19.993	103.901	19.960	4.625	0.475
204.000	175.444	80.009	19.992	103.901	19.963	4.423	0.499
204.500	175.713	80.008	19.993	103.901	19.968	4.069	0.520
205.000	175.923	80.008	19.993	103.901	19.962	4.515	0.498
205.500	176.192	80.007	19.992	103.902	19.966	4.200	0.479
206.001	176.439	80.007	19.992	103.902	19.967	4.128	0.498
206.501	176.637	80.007	19.992	103.902	19.968	4.055	0.480
207.000	176.878	80.007	19.992	103.900	19.976	3.442	0.442
207.500	177.122	80.007	19.992	103.900	19.968	4.005	0.462
208.000	177.359	80.006	19.993	103.897	19.967	4.122	0.483
208.501	177.663	80.007	19.993	103.897	19.968	4.059	0.511
209.001	177.902	80.006	19.994	103.897	19.964	4.301	0.542
209.501	178.162	80.007	19.993	103.897	19.966	4.206	0.521
210.001	178.433	80.006	19.993	103.895	19.961	4.566	0.515
210.501	178.671	80.008	19.993	103.897	19.962	4.493	0.520
211.001	178.923	80.007	19.992	103.897	19.967	4.138	0.500
211.500	179.127	80.008	19.994	103.895	19.965	4.224	0.473
212.000	179.419	80.007	19.994	103.897	19.970	3.901	0.476
212.500	179.700	80.006	19.993	103.899	19.967	4.144	0.534
213.000	180.165	80.007	19.993	103.899	19.965	4.255	0.659
213.500	180.279	80.006	19.993	103.897	19.960	4.608	0.662
214.000	180.378	80.006	19.992	103.892	19.959	4.743	0.396
214.500	180.633	80.006	19.993	103.887	19.963	4.413	0.284
215.000	180.982	80.007	19.993	103.881	19.967	4.123	0.479
215.500	181.146	80.007	19.993	103.876	19.965	4.262	0.558
216.000	181.502	80.005	19.993	103.872	19.968	4.025	0.516
216.500	181.652	80.006	19.993	103.871	19.967	4.091	0.513
217.000	181.939	80.007	19.993	103.871	19.967	4.137	0.472
217.500	182.168	80.007	19.994	103.871	19.964	4.306	0.477
218.000	182.438	80.007	19.994	103.871	19.969	3.963	0.507
218.500	182.711	80.008	19.993	103.874	19.970	3.870	0.521
219.000	182.936	80.007	19.993	103.876	19.969	3.955	0.521
219.500	183.166	80.006	19.993	103.878	19.967	4.098	0.476
220.000	183.564	80.007	19.993	103.879	19.966	4.160	0.542
220.500	183.650	80.008	19.993	103.879	19.969	3.995	0.556
221.000	183.932	80.007	19.992	103.876	19.967	4.093	0.426
221.500	184.182	80.009	19.994	103.876	19.969	3.958	0.450
222.000	184.435	80.007	19.992	103.875	19.971	3.846	0.518
222.500	184.673	80.008	19.994	103.876	19.970	3.870	0.497
223.000	184.893	80.007	19.994	103.880	19.967	4.105	0.474
223.500	185.204	80.008	19.994	103.884	19.972	3.733	0.494
224.000	185.439	80.007	19.992	103.881	19.968	4.005	0.539
224.500	185.684	80.008	19.993	103.879	19.966	4.151	0.513
225.000	185.939	80.007	19.992	103.876	19.966	4.197	0.490
225.500	186.187	80.008	19.993	103.870	19.968	4.017	0.501
226.000	186.449	80.009	19.993	103.863	19.971	3.836	0.506
226.500	186.701	80.008	19.993	103.862	19.966	4.214	0.512
227.000	186.976	80.008	19.994	103.862	19.970	3.864	0.521
227.500	187.193	80.005	19.992	103.861	19.972	3.751	0.509
228.000	187.474	80.008	19.994	103.860	19.970	3.914	0.495
228.500	187.734	80.008	19.994	103.864	19.973	3.697	0.520
229.000	187.971	80.008	19.994	103.869	19.969	3.942	0.519
229.500	188.243	80.007	19.993	103.873	19.966	4.189	0.503
230.000	188.485	80.007	19.994	103.877	19.970	3.910	0.511
230.500	188.717	80.008	19.994	103.879	19.970	3.850	0.494
231.000	188.976	80.006	19.993	103.877	19.970	3.892	0.482
231.500	189.245	80.007	19.995	103.872	19.973	3.671	0.510
232.000	189.531	80.006	19.993	103.867	19.973	3.653	0.542
232.500	189.726	80.007	19.994	103.865	19.969	3.954	0.518
233.000	189.991	80.005	19.993	103.864	19.969	3.942	0.470
233.500	190.237	80.006	19.994	103.864	19.974	3.589	0.486
234.000	190.480	80.007	19.993	103.864	19.967	4.095	0.500
234.500	190.788	80.005	19.993	103.863	19.967	4.123	0.519
235.000	190.976	80.006	19.992	103.862	19.970	3.882	0.524
235.500	191.249	80.007	19.994	103.861	19.967	4.079	0.479
236.000	191.516	80.006	19.994	103.861	19.972	3.741	0.501
236.500	191.759	80.005	19.994	103.861	19.968	4.053	0.525
237.000	192.004	80.005	19.994	103.862	19.969	3.982	0.499
237.500	192.225	80.006	19.993	103.863	19.971	3.791	0.476
238.000	192.496	80.005	19.994	103.863	19.975	3.538	0.479
238.500	192.750	80.005	19.992	103.862	19.969	3.956	0.509
239.000	193.005	80.005	19.992	103.862	19.968	4.010	0.517
239.500	193.277	80.006	19.994	103.860	19.969	3.994	0.518
240.000	193.536	80.005	19.995	103.861	19.970	3.868	0.529
240.501	193.720	80.005	19.994	103.862	19.974	3.564	0.487
241.001	193.997	80.006	19.993	103.862	19.968	4.002	0.452
241.501	194.281	80.005	19.994	103.863	19.971	3.777	0.511
242.000	194.531	80.004	19.994	103.863	19.970	3.908	0.548
242.500	194.760	80.005	19.995	103.862	19.967	4.111	0.507
243.000	195.009	80.006	19.995	103.861	19.973	3.677	0.478
243.500	195.240	80.005	19.994	103.861	19.973	3.681	0.479
244.000	195.513	80.006	19.995	103.860	19.969	3.930	0.492
244.500	195.732	80.005	19.995	103.861	19.976	3.468	0.498
245.000	195.996	80.006	19.993	103.861	19.973	3.671	0.488
245.500	196.221	80.004	19.995	103.861	19.974	3.619	0.487
246.000	196.471	80.004	19.994	103.860	19.972	3.711	0.482
246.500	196.742	80.005	19.994	103.860	19.969	3.924	0.498
247.000	196.948	80.005	19.994	103.859	19.972	3.745	0.498
247.500	197.220	80.004	19.994	103.859	19.970	3.872	0.477
248.000	197.418	80.006	19.994	103.859	19.970	3.882	0.474
248.500	197.712	80.005	19.994	103.858	19.974	3.585	0.481
249.000	197.961	80.005	19.995	103.858	19.976	3.466	0.518
249.500	198.197	80.005	19.995	103.858	19.976	3.424	0.514
250.000	198.491	80.006	19.994	103.858	19.974	3.623	0.507
250.500	198.688	80.005	19.994	103.858	19.974	3.621	0.510
251.000	198.921	80.007	19.993	103.858	19.975	3.544	0.460
251.500	199.178	80.005	19.994	103.858	19.972	3.733	0.460
252.000	199.443	80.004	19.994	103.858	19.975	3.544	0.506
252.500	199.681	80.005	19.994	103.859	19.973	3.663	0.513
253.000	199.926	80.005	19.994	103.859	19.976	3.466	0.493
253.500	200.170	80.007	19.995	103.860	19.974	3.571	0.486
254.000	200.399	80.007	19.995	103.861	19.968	4.033	0.481
254.500	200.661	80.006	19.995	103.862	19.970	3.884	0.482
255.000	200.906	80.007	19.995	103.861	19.972	3.749	0.499
255.500	201.157	80.006	19.994	103.861	19.968	4.011	0.501
256.000	201.406	80.006	19.993	103.860	19.972	3.761	0.498
256.500	201.613	80.005	19.993	103.860	19.970	3.856	0.478
257.000	201.923	80.004	19.995	103.860	19.974	3.579	0.486
257.500	202.167	80.006	19.994	103.861	19.971	3.826	0.535
258.000	202.379	80.005	19.994	103.861	19.969	3.934	0.505
258.500	202.651	80.005	19.994	103.861	19.974	3.603	0.470
259.000	202.901	80.006	19.993	103.860	19.976	3.474	0.503
259.500	203.198	80.005	19.993	103.860	19.971	3.812	0.535
260.000	203.432	80.006	19.995	103.860	19.975	3.522	0.539
260.500	203.649	80.006	19.993	103.861	19.973	3.647	0.491
261.001	203.913	80.004	19.993	103.861	19.972	3.749	0.466
261.501	204.122	80.005	19.993	103.862	19.974	3.578	0.477
262.000	204.379	80.005	19.993	103.862	19.972	3.759	0.470
262.500	204.643	80.005	19.994	103.862	19.971	3.831	0.494
263.000	204.885	80.006	19.992	103.862	19.975	3.544	0.513
263.500	205.142	80.003	19.992	103.862	19.974	3.558	0.503
264.000	205.414	80.005	19.993	103.862	19.974	3.564	0.514
264.501	205.636	80.005	19.994	103.862	19.976	3.462	0.511
265.000	205.898	80.005	19.994	103.863	19.973	3.681	0.489
265.500	206.153	80.004	19.992	103.863	19.971	3.792	0.500
266.000	206.376	80.004	19.994	103.862	19.972	3.711	0.497
266.500	206.615	80.004	19.994	103.862	19.977	3.396	0.470
267.000	206.881	80.005	19.993	103.861	19.975	3.490	0.484
267.500	207.155	80.004	19.994	103.861	19.973	3.633	0.522
268.000	207.338	80.006	19.993	103.862	19.975	3.530	0.498
268.500	207.649	80.005	19.993	103.863	19.975	3.502	0.475
269.000	207.848	80.005	19.994	103.863	19.975	3.514	0.502
269.500	208.126	80.006	19.993	103.863	19.975	3.548	0.494
270.000	208.398	80.004	19.993	103.863	19.972	3.709	0.513
270.500	208.637	80.007	19.993	103.862	19.974	3.561	0.531
271.000	208.899	80.005	19.993	103.861	19.974	3.615	0.506
271.500	209.116	80.005	19.994	103.859	19.976	3.418	0.490
272.000	209.365	80.005	19.991	103.857	19.975	3.482	0.473
272.500	209.617	80.005	19.994	103.856	19.971	3.790	0.483
273.000	209.864	80.005	19.993	103.853	19.975	3.532	0.500
273.500	210.125	80.006	19.992	103.854	19.973	3.625	0.504
274.000	210.365	80.005	19.991	103.855	19.977	3.358	0.504
274.500	210.629	80.005	19.993	103.857	19.977	3.370	0.502
275.000	210.846	80.006	19.992	103.858	19.975	3.534	0.493
275.500	211.081	80.007	19.993	103.861	19.976	3.474	0.467
276.000	211.333	80.006	19.994	103.861	19.974	3.570	0.469
276.500	211.586	80.006	19.993	103.862	19.976	3.446	0.495
277.000	211.861	80.007	19.993	103.863	19.972	3.743	0.517
277.500	212.098	80.006	19.992	103.863	19.974	3.553	0.521
278.000	212.366	80.006	19.993	103.863	19.974	3.575	0.509
278.500	212.565	80.006	19.992	103.864	19.975	3.530	0.486
279.000	212.790	80.007	19.992	103.863	19.976	3.466	0.445
279.500	213.100	80.006	19.992	103.863	19.975	3.512	0.479
280.000	213.331	80.007	19.993	103.863	19.970	3.888	0.538
280.500	213.621	80.005	19.992	103.863	19.973	3.697	0.531
281.000	213.829	80.007	19.992	103.863	19.976	3.400	0.510
281.500	214.108	80.008	19.992	103.864	19.971	3.810	0.492
282.000	214.333	80.007	19.992	103.864	19.973	3.689	0.495
282.500	214.568	80.006	19.992	103.863	19.976	3.452	0.482
283.000	214.859	80.006	19.992	103.863	19.978	3.321	0.493
283.500	215.075	80.006	19.993	103.862	19.977	3.383	0.517
284.000	215.329	80.006	19.993	103.862	19.977	3.393	0.489
284.500	215.546	80.006	19.992	103.861	19.977	3.373	0.471
285.000	215.820	80.007	19.992	103.861	19.976	3.423	0.481
285.500	216.053	80.006	19.993	103.859	19.973	3.650	0.499
286.000	216.315	80.006	19.992	103.857	19.975	3.538	0.501
286.500	216.525	80.006	19.992	103.858	19.973	3.657	0.483
287.000	216.823	80.007	19.993	103.858	19.973	3.693	0.490
287.500	217.027	80.008	19.991	103.859	19.973	3.643	0.505
288.000	217.281	80.006	19.995	103.861	19.977	3.347	0.480
288.500	217.530	80.006	19.995	103.863	19.976	3.436	0.481
289.000	217.771	80.006	19.993	103.862	19.974	3.602	0.496
289.500	218.019	80.006	19.994	103.862	19.975	3.542	0.489
290.000	218.296	80.007	19.994	103.860	19.978	3.267	0.507
290.500	218.507	80.008	19.994	103.860	19.975	3.502	0.507
291.000	218.797	80.006	19.993	103.859	19.978	3.285	0.495
291.500	219.010	80.006	19.994	103.858	19.975	3.504	0.502
292.000	219.256	80.005	19.993	103.858	19.972	3.713	0.481
292.500	219.534	80.007	19.993	103.858	19.974	3.558	0.492
293.000	219.743	80.006	19.993	103.858	19.974	3.564	0.506
293.500	219.953	80.008	19.993	103.856	19.975	3.492	0.452
294.000	220.233	80.006	19.994	103.855	19.975	3.536	0.455
294.500	220.483	80.007	19.993	103.854	19.970	3.870	0.510
295.000	220.752	80.007	19.993	103.849	19.973	3.695	0.524
295.500	221.025	80.008	19.992	103.844	19.973	3.661	0.530
296.000	221.238	80.007	19.992	103.843	19.976	3.456	0.514
296.500	221.489	80.008	19.993	103.842	19.979	3.207	0.476
297.000	221.759	80.007	19.993	103.844	19.979	3.194	0.492
297.500	221.976	80.006	19.994	103.849	19.975	3.486	0.503
298.000	222.213	80.006	19.992	103.853	19.977	3.383	0.470
298.500	222.453	80.008	19.992	103.854	19.978	3.275	0.466
299.000	222.748	80.007	19.992	103.856	19.978	3.293	0.506
299.500	222.940	80.007	19.992	103.855	19.974	3.592	0.511
300.000	223.206	80.008	19.992	103.852	19.979	3.183	0.473
300.500	223.460	80.006	19.992	103.853	19.977	3.397	0.490
301.000	223.680	80.008	19.992	103.854	19.976	3.470	0.497
301.500	223.963	80.008	19.992	103.854	19.981	3.064	0.488
302.000	224.166	80.007	19.994	103.854	19.980	3.154	0.494
302.500	224.464	80.007	19.992	103.857	19.976	3.437	0.494
303.000	224.689	80.007	19.994	103.857	19.974	3.592	0.512
303.500	224.944	80.007	19.992	103.857	19.983	2.929	0.501
304.000	225.192	80.008	19.992	103.857	19.980	3.140	0.491
304.500	225.448	80.008	19.993	103.856	19.979	3.237	0.503
305.000	225.656	80.008	19.993	103.857	19.980	3.102	0.484
305.500	225.915	80.008	19.993	103.856	19.974	3.620	0.466
306.000	226.163	80.008	19.992	103.855	19.977	3.365	0.487
306.500	226.405	80.010	19.994	103.852	19.974	3.556	0.499
307.000	226.682	80.009	19.994	103.850	19.975	3.486	0.504
307.500	226.870	80.008	19.992	103.851	19.974	3.584	0.492
308.000	227.146	80.008	19.993	103.850	19.974	3.616	0.465
308.500	227.393	80.009	19.993	103.852	19.977	3.371	0.494
309.000	227.651	80.007	19.994	103.855	19.974	3.610	0.514
309.500	227.884	80.008	19.994	103.858	19.974	3.564	0.498
310.000	228.180	80.008	19.993	103.856	19.976	3.399	0.510
310.500	228.393	80.007	19.993	103.855	19.975	3.494	0.519
311.000	228.666	80.007	19.993	103.854	19.976	3.424	0.498
311.500	228.923	80.007	19.993	103.850	19.977	3.371	0.508
312.000	229.164	80.007	19.993	103.847	19.974	3.621	0.514
312.500	229.412	80.007	19.993	103.846	19.973	3.663	0.493
313.000	229.662	80.006	19.994	103.846	19.977	3.359	0.494
313.500	229.900	80.006	19.994	103.846	19.977	3.369	0.494
314.000	230.168	80.005	19.994	103.850	19.978	3.297	0.497
314.500	230.434	80.007	19.994	103.850	19.979	3.204	0.520
315.000	230.643	80.007	19.994	103.851	19.978	3.313	0.504
315.500	230.914	80.006	19.994	103.850	19.976	3.453	0.477
316.000	231.170	80.006	19.994	103.846	19.976	3.415	0.504
316.500	231.411	80.007	19.995	103.844	19.973	3.634	0.512
317.000	231.667	80.007	19.994	103.845	19.974	3.582	0.497
317.500	231.964	80.006	19.995	103.847	19.976	3.399	0.525
318.000	232.136	80.007	19.994	103.847	19.973	3.675	0.512
318.500	232.399	80.006	19.994	103.851	19.975	3.498	0.452
319.000	232.635	80.006	19.994	103.849	19.974	3.596	0.467
319.500	232.867	80.006	19.993	103.850	19.973	3.679	0.483
320.000	233.116	80.005	19.994	103.848	19.970	3.862	0.475
320.500	233.367	80.006	19.994	103.849	19.974	3.580	0.490
321.000	233.561	80.006	19.995	103.848	19.975	3.528	0.472
321.500	233.812	80.007	19.993	103.852	19.973	3.681	0.445
322.000	234.091	80.006	19.993	103.853	19.974	3.576	0.488
322.500	234.350	80.004	19.992	103.856	19.973	3.651	0.534
323.000	234.602	80.006	19.993	103.853	19.975	3.528	0.524
323.500	234.839	80.006	19.994	103.853	19.976	3.462	0.500
324.000	235.104	80.006	19.992	103.851	19.976	3.474	0.496
324.500	235.330	80.006	19.993	103.846	19.974	3.588	0.497
325.000	235.571	80.006	19.993	103.844	19.975	3.518	0.479
325.501	235.840	80.005	19.994	103.846	19.976	3.422	0.488
326.001	236.083	80.005	19.993	103.844	19.977	3.366	0.511
326.501	236.308	80.007	19.993	103.844	19.973	3.639	0.490
327.001	236.599	80.007	19.993	103.846	19.977	3.386	0.492
327.501	236.816	80.007	19.993	103.846	19.978	3.267	0.512
328.000	237.091	80.006	19.993	103.846	19.977	3.329	0.500
328.501	237.317	80.005	19.993	103.848	19.978	3.289	0.496
329.002	237.589	80.005	19.992	103.849	19.976	3.454	0.499
329.501	237.847	80.007	19.993	103.849	19.975	3.508	0.514
330.000	238.056	80.005	19.992	103.850	19.973	3.661	0.499
330.500	238.321	80.006	19.993	103.852	19.972	3.711	0.470
331.000	238.572	80.006	19.993	103.852	19.975	3.498	0.495
331.500	238.835	80.005	19.993	103.854	19.978	3.271	0.515
332.000	239.008	80.005	19.993	103.857	19.975	3.522	0.475
332.500	239.301	80.006	19.992	103.859	19.974	3.600	0.451
333.000	239.553	80.006	19.994	103.858	19.971	3.813	0.506
333.500	239.801	80.007	19.993	103.856	19.974	3.600	0.522
334.000	240.030	80.006	19.994	103.854	19.972	3.767	0.488
334.500	240.249	80.005	19.993	103.853	19.976	3.457	0.463
335.000	240.536	80.005	19.993	103.852	19.976	3.465	0.477
335.500	240.763	80.005	19.993	103.854	19.973	3.666	0.510
336.000	241.021	80.005	19.994	103.857	19.972	3.741	0.500
336.500	241.264	80.006	19.994	103.859	19.974	3.590	0.493
337.001	241.514	80.005	19.995	103.860	19.975	3.514	0.497
337.501	241.759	80.004	19.992	103.859	19.973	3.677	0.493
338.001	242.061	80.005	19.994	103.859	19.972	3.761	0.521
338.501	242.264	80.005	19.993	103.858	19.976	3.452	0.526
339.002	242.551	80.005	19.994	103.858	19.975	3.478	0.498
339.501	242.784	80.005	19.995	103.858	19.969	3.986	0.505
340.000	243.036	80.005	19.995	103.860	19.973	3.648	0.502
340.500	243.288	80.005	19.993	103.858	19.973	3.624	0.495
341.000	243.534	80.005	19.994	103.857	19.972	3.713	0.501
341.500	243.792	80.005	19.995	103.855	19.973	3.695	0.501
342.000	244.012	80.004	19.994	103.851	19.970	3.887	0.491
342.500	244.309	80.004	19.994	103.850	19.976	3.415	0.498
343.000	244.514	80.004	19.994	103.851	19.972	3.722	0.509
343.500	244.774	80.004	19.994	103.849	19.974	3.574	0.484
344.000	245.029	80.005	19.995	103.845	19.975	3.512	0.490
344.500	245.247	80.005	19.994	103.843	19.978	3.317	0.494
345.000	245.494	80.004	19.994	103.841	19.975	3.540	0.469
345.501	245.730	80.005	19.994	103.836	19.976	3.409	0.474
346.001	245.981	80.004	19.994	103.839	19.978	3.290	0.485
346.501	246.236	80.005	19.994	103.845	19.977	3.336	0.496
347.001	246.501	80.005	19.994	103.845	19.973	3.640	0.513
347.501	246.741	80.005	19.992	103.848	19.975	3.497	0.513
348.000	247.002	80.004	19.995	103.854	19.975	3.531	0.503
348.500	247.253	80.005	19.996	103.856	19.974	3.612	0.507
349.001	247.478	80.006	19.994	103.856	19.977	3.331	0.494
349.501	247.761	80.005	19.994	103.856	19.974	3.560	0.492
350.001	247.973	80.005	19.994	103.853	19.978	3.317	0.501
350.500	248.217	80.006	19.993	103.852	19.976	3.441	0.476
351.000	248.470	80.006	19.994	103.850	19.975	3.483	0.477
351.500	248.753	80.007	19.994	103.848	19.975	3.532	0.517
352.000	248.969	80.006	19.994	103.847	19.972	3.718	0.517
352.500	249.218	80.005	19.993	103.844	19.973	3.636	0.482
353.000	249.483	80.006	19.994	103.840	19.975	3.539	0.490
353.500	249.769	80.007	19.995	103.838	19.972	3.752	0.533
354.000	249.972	80.007	19.993	103.837	19.979	3.228	0.520
354.500	250.239	80.007	19.994	103.840	19.978	3.303	0.479
355.000	250.463	80.007	19.993	103.848	19.970	3.861	0.481
355.500	250.797	80.006	19.994	103.850	19.972	3.769	0.525
356.000	251.010	80.008	19.993	103.847	19.974	3.562	0.553
356.500	251.261	80.006	19.993	103.843	19.973	3.640	0.505
357.000	251.525	80.007	19.993	103.837	19.974	3.570	0.489
357.500	251.742	80.008	19.995	103.830	19.977	3.347	0.498
358.000	252.037	80.008	19.993	103.825	19.972	3.756	0.496
358.500	252.278	80.007	19.993	103.827	19.974	3.552	0.524
359.000	252.514	80.008	19.993	103.834	19.973	3.694	0.507
359.501	252.761	80.008	19.993	103.839	19.977	3.381	0.480
360.001	253.026	80.007	19.993	103.839	19.974	3.590	0.497
360.500	253.255	80.008	19.993	103.838	19.972	3.711	0.503
361.000	253.514	80.008	19.994	103.839	19.976	3.431	0.491
361.500	253.755	80.009	19.993	103.837	19.976	3.465	0.494
362.000	253.993	80.008	19.993	103.836	19.974	3.612	0.489
362.500	254.219	80.008	19.993	103.840	19.973	3.688	0.472
363.000	254.482	80.007	19.993	103.840	19.974	3.576	0.476
363.500	254.738	80.008	19.992	103.836	19.974	3.586	0.504
364.000	255.002	80.008	19.993	103.833	19.971	3.801	0.520
364.500	255.250	80.009	19.993	103.834	19.972	3.712	0.516
365.000	255.522	80.008	19.993	103.837	19.973	3.644	0.516
365.500	255.763	80.007	19.994	103.842	19.970	3.885	0.516
366.000	256.003	80.008	19.992	103.846	19.972	3.702	0.497
366.500	256.253	80.006	19.993	103.848	19.974	3.582	0.485
367.000	256.496	80.008	19.993	103.847	19.972	3.718	0.491
367.500	256.728	80.006	19.992	103.843	19.973	3.636	0.484
368.000	257.005	80.008	19.993	103.838	19.970	3.889	0.492
368.500	257.204	80.007	19.993	103.834	19.976	3.429	0.492
369.000	257.489	80.007	19.994	103.834	19.971	3.790	0.480
369.500	257.759	80.007	19.993	103.835	19.975	3.507	0.520
370.000	257.993	80.008	19.994	103.837	19.976	3.469	0.530
370.500	258.218	80.007	19.992	103.840	19.975	3.547	0.481
371.000	258.481	80.007	19.994	103.845	19.974	3.610	0.473
371.500	258.710	80.009	19.994	103.844	19.976	3.469	0.490
372.000	259.019	80.007	19.993	103.839	19.974	3.610	0.515
372.500	259.242	80.007	19.994	103.839	19.973	3.674	0.535
373.000	259.521	80.007	19.994	103.839	19.972	3.712	0.517
373.500	259.739	80.007	19.992	103.836	19.973	3.624	0.499
374.000	259.999	80.007	19.993	103.834	19.972	3.748	0.487
374.500	260.238	80.008	19.994	103.835	19.973	3.656	0.488
375.000	260.453	80.007	19.993	103.835	19.973	3.690	0.477
375.500	260.723	80.007	19.994	103.836	19.971	3.813	0.470
376.000	260.956	80.006	19.992	103.836	19.972	3.736	0.494
376.500	261.236	80.008	19.994	103.835	19.971	3.815	0.508
377.000	261.445	80.008	19.993	103.836	19.969	3.931	0.501
377.500	261.743	80.007	19.994	103.837	19.975	3.525	0.498
378.001	261.931	80.007	19.994	103.838	19.974	3.620	0.497
378.501	262.179	80.008	19.993	103.837	19.976	3.429	0.461
379.001	262.433	80.008	19.993	103.837	19.976	3.423	0.469
379.501	262.679	80.007	19.993	103.835	19.973	3.632	0.501
380.001	262.946	80.009	19.993	103.831	19.974	3.604	0.507
380.501	263.172	80.008	19.992	103.829	19.971	3.800	0.503
381.001	263.443	80.008	19.993	103.830	19.973	3.658	0.495
381.501	263.697	80.009	19.993	103.831	19.974	3.600	0.511
382.002	263.959	80.009	19.994	103.830	19.971	3.801	0.520
382.501	264.202	80.008	19.993	103.830	19.973	3.674	0.510
383.000	264.463	80.009	19.993	103.828	19.970	3.883	0.504
383.500	264.754	80.007	19.994	103.825	19.972	3.766	0.528
384.000	264.930	80.009	19.994	103.823	19.971	3.778	0.510
384.500	265.193	80.009	19.993	103.824	19.975	3.509	0.453
385.000	265.425	80.009	19.993	103.825	19.971	3.808	0.467
385.500	265.662	80.009	19.994	103.828	19.971	3.790	0.482
386.000	265.913	80.009	19.992	103.830	19.971	3.808	0.479
386.500	266.193	80.009	19.993	103.831	19.975	3.533	0.509
387.000	266.398	80.009	19.993	103.833	19.974	3.618	0.508
387.500	266.691	80.009	19.992	103.832	19.973	3.632	0.492
388.000	266.910	80.008	19.993	103.829	19.978	3.318	0.505
388.500	267.208	80.009	19.991	103.827	19.975	3.525	0.515
389.000	267.435	80.009	19.992	103.827	19.974	3.614	0.521
389.500	267.665	80.008	19.994	103.829	19.977	3.348	0.491
390.000	267.925	80.009	19.993	103.830	19.974	3.608	0.473
390.500	268.170	80.007	19.993	103.831	19.971	3.798	0.497
391.000	268.401	80.007	19.993	103.832	19.975	3.543	0.491
391.500	268.661	80.008	19.992	103.831	19.976	3.471	0.484
392.000	268.915	80.007	19.993	103.828	19.977	3.389	0.503
392.500	269.192	80.007	19.993	103.828	19.976	3.457	0.523
393.000	269.415	80.007	19.993	103.831	19.975	3.543	0.516
393.500	269.666	80.008	19.992	103.832	19.981	3.093	0.487
394.000	269.924	80.007	19.993	103.832	19.979	3.228	0.491
394.500	270.176	80.006	19.993	103.830	19.976	3.473	0.510
395.000	270.428	80.006	19.993	103.829	19.976	3.421	0.507
395.501	270.683	80.006	19.994	103.825	19.979	3.248	0.505
396.001	270.948	80.006	19.993	103.824	19.975	3.499	0.513
396.501	271.168	80.005	19.992	103.824	19.975	3.547	0.502
397.000	271.467	80.006	19.993	103.826	19.974	3.576	0.502
397.500	271.714	80.006	19.993	103.826	19.972	3.712	0.533
398.001	271.982	80.005	19.994	103.827	19.975	3.483	0.531
398.501	272.196	80.005	19.994	103.829	19.975	3.481	0.499
399.000	272.505	80.004	19.995	103.829	19.971	3.781	0.502
399.500	272.682	80.006	19.994	103.829	19.977	3.365	0.504
400.000	273.009	80.006	19.993	103.828	19.975	3.547	0.495
400.500	273.260	80.006	19.994	103.828	19.975	3.495	0.541
401.000	273.452	80.006	19.994	103.827	19.976	3.433	0.511
401.500	273.707	80.004	19.993	103.830	19.978	3.282	0.445
402.000	273.975	80.007	19.994	103.831	19.976	3.459	0.485
402.500	274.241	80.006	19.993	103.832	19.975	3.499	0.528
403.000	274.465	80.007	19.993	103.833	19.976	3.437	0.512
403.500	274.746	80.005	19.992	103.832	19.976	3.405	0.498
404.000	274.978	80.005	19.993	103.832	19.974	3.617	0.509
404.500	275.220	80.006	19.994	103.830	19.978	3.274	0.493
405.000	275.473	80.006	19.994	103.830	19.977	3.328	0.484
405.500	275.761	80.006	19.993	103.830	19.975	3.479	0.518
406.000	276.035	80.005	19.994	103.832	19.976	3.451	0.552
406.500	276.246	80.006	19.994	103.830	19.977	3.328	0.524
407.000	276.504	80.006	19.994	103.830	19.978	3.316	0.477
407.500	276.752	80.005	19.992	103.829	19.973	3.648	0.487
408.000	277.029	80.004	19.994	103.830	19.976	3.463	0.516
408.500	277.238	80.005	19.993	103.832	19.978	3.314	0.505
409.000	277.492	80.005	19.994	103.834	19.976	3.421	0.475
409.500	277.764	80.005	19.994	103.835	19.977	3.378	0.495
410.000	277.982	80.005	19.994	103.835	19.975	3.489	0.508
410.500	278.235	80.006	19.994	103.833	19.974	3.597	0.480
411.000	278.493	80.005	19.993	103.829	19.978	3.310	0.491
411.500	278.752	80.005	19.993	103.828	19.974	3.571	0.514
412.000	279.033	80.006	19.992	103.827	19.976	3.425	0.528
412.500	279.221	80.004	19.993	103.828	19.972	3.772	0.505
413.000	279.492	80.005	19.993	103.828	19.976	3.431	0.464
413.500	279.754	80.005	19.993	103.828	19.977	3.352	0.496
414.000	279.984	80.006	19.992	103.827	19.975	3.479	0.512
414.500	280.256	80.007	19.993	103.826	19.979	3.222	0.497
415.001	280.498	80.006	19.993	103.825	19.976	3.455	0.508
415.500	280.758	80.005	19.994	103.824	19.977	3.378	0.508
416.000	280.996	80.006	19.994	103.824	19.977	3.374	0.500
416.500	281.265	80.007	19.994	103.824	19.977	3.388	0.503
417.000	281.498	80.006	19.992	103.823	19.976	3.459	0.504
417.500	281.755	80.006	19.994	103.823	19.977	3.336	0.496
418.000	281.995	80.007	19.993	103.823	19.976	3.435	0.494
418.500	282.238	80.007	19.995	103.822	19.976	3.433	0.490
419.000	282.494	80.007	19.994	103.822	19.975	3.515	0.491
419.500	282.755	80.007	19.993	103.823	19.976	3.467	0.508
420.000	283.019	80.006	19.993	103.823	19.975	3.517	0.521
420.500	283.254	80.007	19.992	103.823	19.977	3.370	0.512
421.000	283.509	80.005	19.993	103.823	19.976	3.413	0.494
421.500	283.769	80.006	19.994	103.824	19.976	3.429	0.502
422.001	284.012	80.005	19.993	103.824	19.977	3.366	0.509
422.501	284.258	80.005	19.993	103.824	19.975	3.507	0.496
423.000	284.494	80.006	19.993	103.824	19.975	3.547	0.485
423.500	284.716	80.006	19.993	103.823	19.976	3.471	0.470
424.000	285.010	80.006	19.994	103.823	19.979	3.214	0.487
424.500	285.258	80.006	19.993	103.824	19.978	3.250	0.529
425.000	285.504	80.005	19.994	103.824	19.976	3.402	0.518
425.500	285.781	80.005	19.995	103.824	19.979	3.214	0.508
426.000	286.048	80.007	19.994	103.824	19.979	3.202	0.533
426.500	286.279	80.005	19.993	103.825	19.975	3.483	0.521
427.001	286.498	80.005	19.993	103.823	19.977	3.328	0.474
427.501	286.793	80.005	19.993	103.823	19.977	3.390	0.483
428.000	287.043	80.005	19.994	103.822	19.978	3.316	0.530
428.500	287.279	80.005	19.993	103.823	19.977	3.374	0.515
429.000	287.531	80.006	19.994	103.821	19.978	3.260	0.487
429.500	287.791	80.006	19.993	103.821	19.978	3.276	0.500
430.000	288.046	80.006	19.993	103.821	19.979	3.230	0.514
430.500	288.257	80.006	19.994	103.822	19.978	3.286	0.490
431.000	288.547	80.006	19.994	103.822	19.975	3.481	0.483
431.500	288.777	80.005	19.994	103.822	19.977	3.382	0.510
432.001	288.992	80.005	19.994	103.822	19.981	3.069	0.483
432.501	289.264	80.006	19.995	103.821	19.980	3.137	0.466
433.000	289.513	80.005	19.995	103.821	19.980	3.163	0.503
433.500	289.776	80.005	19.994	103.820	19.977	3.368	0.516
434.000	290.029	80.005	19.994	103.820	19.977	3.362	0.514
434.500	290.294	80.005	19.995	103.820	19.978	3.322	0.517
435.000	290.540	80.006	19.993	103.820	19.978	3.318	0.515
435.500	290.739	80.007	19.995	103.820	19.974	3.603	0.478
436.000	291.025	80.006	19.995	103.821	19.976	3.449	0.465
436.500	291.260	80.005	19.995	103.821	19.976	3.463	0.503
437.000	291.505	80.006	19.994	103.820	19.981	3.037	0.501
437.500	291.763	80.006	19.994	103.820	19.976	3.461	0.491
438.000	292.048	80.006	19.995	103.820	19.978	3.254	0.523
438.501	292.303	80.008	19.994	103.819	19.981	3.085	0.542
439.001	292.557	80.006	19.994	103.819	19.973	3.629	0.524
439.500	292.830	80.008	19.994	103.820	19.977	3.342	0.518
440.000	293.019	80.007	19.993	103.819	19.978	3.270	0.494
440.500	293.371	80.006	19.994	103.820	19.980	3.165	0.501
441.000	293.541	80.007	19.994	103.819	19.974	3.575	0.531
441.501	293.766	80.007	19.994	103.819	19.980	3.168	0.459
442.001	294.052	80.007	19.993	103.818	19.980	3.172	0.454
442.500	294.306	80.008	19.993	103.819	19.975	3.529	0.525
443.000	294.560	80.007	19.992	103.819	19.977	3.384	0.524
443.500	294.827	80.008	19.993	103.820	19.974	3.549	0.515
444.000	295.073	80.009	19.995	103.820	19.976	3.473	0.517
444.500	295.310	80.007	19.994	103.820	19.975	3.541	0.498
445.000	295.535	80.007	19.993	103.820	19.978	3.254	0.472
445.500	295.845	80.007	19.993	103.820	19.976	3.449	0.498
446.000	296.057	80.009	19.994	103.820	19.976	3.401	0.528
446.500	296.312	80.008	19.993	103.820	19.975	3.545	0.494
447.000	296.596	80.007	19.994	103.821	19.975	3.477	0.503
447.500	296.825	80.007	19.994	103.821	19.977	3.374	0.526
448.000	297.073	80.008	19.993	103.821	19.978	3.322	0.495
448.500	297.318	80.008	19.993	103.821	19.977	3.374	0.485
449.000	297.563	80.007	19.993	103.820	19.979	3.214	0.492
449.500	297.821	80.006	19.993	103.821	19.978	3.278	0.497
450.000	298.074	80.007	19.994	103.821	19.974	3.563	0.507
450.500	298.362	80.007	19.993	103.821	19.975	3.519	0.526
451.000	298.579	80.009	19.993	103.821	19.973	3.672	0.523
451.500	298.864	80.008	19.993	103.822	19.977	3.387	0.503
452.000	299.096	80.007	19.993	103.822	19.978	3.300	0.510
452.500	299.347	80.008	19.994	103.823	19.978	3.314	0.500
453.000	299.584	80.007	19.994	103.823	19.975	3.515	0.485
453.500	299.844	80.007	19.993	103.823	19.977	3.392	0.492
454.000	300.072	80.007	19.993	103.823	19.976	3.414	0.492
454.500	300.335	80.006	19.994	103.823	19.977	3.368	0.490
455.000	300.580	80.007	19.993	103.822	19.980	3.167	0.499
455.500	300.849	80.007	19.993	103.822	19.975	3.511	0.511
456.000	301.094	80.008	19.992	103.823	19.976	3.433	0.514
456.500	301.318	80.007	19.993	103.823	19.975	3.477	0.491
457.000	301.557	80.007	19.993	103.823	19.972	3.742	0.465
457.501	301.818	80.008	19.993	103.823	19.972	3.766	0.481
458.000	302.084	80.008	19.994	103.823	19.972	3.730	0.514
458.500	302.309	80.007	19.994	103.823	19.973	3.638	0.509
459.000	302.569	80.006	19.993	103.823	19.971	3.842	0.488
459.501	302.822	80.008	19.992	103.823	19.972	3.734	0.499
460.000	303.101	80.006	19.993	103.823	19.973	3.632	0.522
460.500	303.351	80.007	19.993	103.825	19.971	3.782	0.530
461.000	303.591	80.007	19.993	103.826	19.973	3.640	0.509
461.500	303.862	80.006	19.993	103.826	19.977	3.332	0.501
462.000	304.074	80.007	19.994	103.826	19.975	3.485	0.497
462.500	304.330	80.008	19.993	103.826	19.978	3.276	0.475
463.000	304.572	80.006	19.994	103.822	19.977	3.376	0.483
463.500	304.823	80.007	19.994	103.820	19.974	3.573	0.496
464.000	305.080	80.006	19.995	103.820	19.978	3.276	0.500
464.500	305.325	80.008	19.993	103.820	19.978	3.252	0.505
465.000	305.560	80.007	19.992	103.820	19.977	3.332	0.491
465.500	305.862	80.008	19.993	103.822	19.975	3.487	0.508
466.000	306.113	80.007	19.993	103.822	19.977	3.328	0.545
466.500	306.400	80.007	19.994	103.822	19.977	3.346	0.546
467.000	306.655	80.008	19.993	103.821	19.974	3.575	0.541
467.500	306.884	80.007	19.992	103.822	19.978	3.290	0.513
468.000	307.142	80.007	19.994	103.822	19.979	3.208	0.485
468.500	307.410	80.007	19.993	103.822	19.979	3.177	0.506
469.000	307.650	80.008	19.993	103.822	19.977	3.330	0.517
469.500	307.851	80.008	19.994	103.823	19.972	3.700	0.475
470.000	308.129	80.007	19.994	103.823	19.978	3.272	0.460
470.500	308.346	80.009	19.993	103.823	19.973	3.672	0.487
471.000	308.608	80.007	19.994	103.823	19.976	3.437	0.486
471.500	308.882	80.007	19.993	103.824	19.971	3.814	0.508
472.000	309.095	80.007	19.993	103.823	19.975	3.499	0.511
472.500	309.361	80.007	19.992	103.823	19.973	3.645	0.483
473.000	309.612	80.007	19.993	103.823	19.978	3.266	0.498
473.500	309.878	80.007	19.994	103.823	19.979	3.240	0.518
474.000	310.085	80.005	19.993	103.823	19.975	3.525	0.495
474.500	310.370	80.005	19.992	103.823	19.977	3.382	0.482
475.001	310.651	80.006	19.992	103.823	19.979	3.244	0.529
475.500	310.916	80.005	19.992	103.823	19.978	3.292	0.556
476.000	311.164	80.005	19.992	103.823	19.975	3.495	0.530
476.500	311.428	80.005	19.994	103.823	19.976	3.441	0.512
477.000	311.722	80.006	19.991	103.823	19.974	3.553	0.535
477.500	311.928	80.006	19.994	103.823	19.978	3.316	0.529
478.000	312.207	80.006	19.992	103.822	19.977	3.370	0.492
478.500	312.452	80.005	19.994	103.820	19.974	3.587	0.504
479.000	312.745	80.006	19.993	103.820	19.976	3.426	0.531
479.500	312.964	80.006	19.993	103.820	19.976	3.424	0.525
480.000	313.245	80.006	19.992	103.820	19.977	3.356	0.506
480.500	313.465	80.005	19.992	103.821	19.974	3.581	0.500
481.000	313.715	80.005	19.994	103.822	19.981	3.043	0.485
481.500	314.012	80.006	19.992	103.822	19.976	3.398	0.509
482.000	314.273	80.005	19.993	103.822	19.978	3.262	0.553
482.500	314.488	80.006	19.993	103.821	19.981	3.039	0.517
483.000	314.740	80.005	19.992	103.821	19.981	3.091	0.471
483.500	314.991	80.005	19.993	103.821	19.979	3.238	0.485
484.000	315.253	80.006	19.994	103.821	19.977	3.324	0.508
484.500	315.507	80.006	19.992	103.821	19.975	3.489	0.515
485.000	315.790	80.006	19.992	103.821	19.978	3.276	0.526
485.500	315.979	80.006	19.992	103.821	19.979	3.242	0.505
486.000	316.254	80.006	19.993	103.820	19.975	3.509	0.468
486.500	316.520	80.005	19.992	103.820	19.980	3.141	0.502
487.000	316.784	80.006	19.993	103.821	19.979	3.190	0.535
487.500	317.021	80.006	19.993	103.820	19.976	3.441	0.516
488.000	317.254	80.005	19.995	103.820	19.977	3.334	0.486
488.500	317.504	80.005	19.992	103.819	19.980	3.105	0.476
489.000	317.785	80.006	19.993	103.819	19.976	3.408	0.507
489.500	318.029	80.007	19.993	103.818	19.981	3.057	0.528
490.000	318.294	80.006	19.993	103.817	19.981	3.087	0.517
490.500	318.560	80.006	19.994	103.817	19.979	3.187	0.519
491.000	318.812	80.006	19.995	103.819	19.979	3.177	0.524
491.500	319.052	80.007	19.993	103.819	19.980	3.119	0.505
492.000	319.319	80.005	19.993	103.819	19.982	3.003	0.500
492.500	319.569	80.006	19.993	103.820	19.979	3.201	0.512
493.000	319.813	80.007	19.993	103.820	19.978	3.314	0.506
493.500	320.045	80.005	19.993	103.819	19.980	3.123	0.485
494.001	320.329	80.006	19.993	103.816	19.979	3.210	0.496
494.501	320.556	80.005	19.992	103.816	19.975	3.479	0.513
495.001	320.839	80.006	19.993	103.816	19.978	3.286	0.511
495.501	321.134	80.006	19.994	103.815	19.980	3.165	0.544
496.000	321.353	80.006	19.994	103.814	19.978	3.282	0.546
496.500	321.619	80.005	19.993	103.818	19.976	3.404	0.500
497.000	321.878	80.006	19.993	103.819	19.979	3.230	0.505
497.500	322.118	80.006	19.993	103.819	19.978	3.272	0.512
498.000	322.370	80.005	19.994	103.820	19.977	3.358	0.495
498.501	322.643	80.005	19.994	103.820	19.979	3.222	0.508
499.001	322.893	80.006	19.995	103.819	19.974	3.569	0.524
499.500	323.111	80.007	19.994	103.819	19.978	3.274	0.496
500.000	323.374	80.006	19.993	103.819	19.976	3.442	0.475
500.500	323.662	80.005	19.993	103.818	19.975	3.489	0.516
501.000	323.908	80.007	19.994	103.817	19.978	3.282	0.542
501.500	324.188	80.006	19.994	103.816	19.975	3.507	0.530
502.000	324.384	80.005	19.993	103.815	19.977	3.344	0.501
502.500	324.674	80.005	19.994	103.816	19.976	3.451	0.481
503.000	324.898	80.007	19.994	103.816	19.977	3.354	0.500
503.500	325.187	80.005	19.994	103.817	19.974	3.619	0.514
504.000	325.410	80.006	19.993	103.819	19.977	3.330	0.513
504.500	325.669	80.003	19.993	103.819	19.980	3.171	0.497
505.000	325.928	80.006	19.993	103.817	19.975	3.531	0.499
505.500	326.197	80.004	19.994	103.817	19.977	3.378	0.523
506.000	326.442	80.005	19.993	103.818	19.974	3.561	0.521
506.500	326.676	80.006	19.994	103.817	19.976	3.446	0.497
507.000	326.956	80.003	19.994	103.818	19.977	3.340	0.497
507.500	327.143	80.006	19.993	103.820	19.976	3.469	0.490
508.000	327.408	80.005	19.993	103.819	19.976	3.453	0.459
508.500	327.687	80.005	19.993	103.819	19.975	3.485	0.498
509.000	327.929	80.005	19.995	103.818	19.975	3.535	0.533
509.500	328.159	80.006	19.995	103.818	19.975	3.535	0.496
510.000	328.410	80.005	19.994	103.816	19.980	3.117	0.477
510.500	328.709	80.005	19.993	103.817	19.975	3.531	0.515
511.001	328.978	80.005	19.994	103.815	19.976	3.451	0.559
511.501	329.215	80.006	19.994	103.815	19.978	3.308	0.537
512.000	329.423	80.004	19.994	103.816	19.978	3.282	0.476
512.500	329.712	80.005	19.994	103.817	19.979	3.183	0.471
513.000	329.941	80.005	19.994	103.817	19.977	3.332	0.507
513.500	330.198	80.004	19.993	103.819	19.973	3.692	0.502
514.000	330.480	80.005	19.994	103.821	19.980	3.113	0.513
514.500	330.705	80.006	19.995	103.820	19.976	3.422	0.523
515.000	330.979	80.004	19.994	103.821	19.978	3.276	0.503
515.500	331.207	80.004	19.994	103.819	19.978	3.280	0.501
516.000	331.461	80.006	19.994	103.817	19.974	3.611	0.492
516.500	331.671	80.005	19.994	103.814	19.979	3.236	0.473
517.000	331.945	80.006	19.994	103.814	19.975	3.519	0.475
517.500	332.210	80.007	19.995	103.814	19.976	3.444	0.512
518.000	332.491	80.006	19.994	103.816	19.976	3.430	0.542
518.500	332.750	80.006	19.994	103.816	19.975	3.495	0.543
519.000	333.022	80.007	19.994	103.817	19.976	3.451	0.535
519.500	333.244	80.006	19.995	103.816	19.979	3.193	0.513
520.000	333.507	80.006	19.995	103.815	19.977	3.382	0.489
520.500	333.772	80.007	19.995	103.816	19.980	3.151	0.506
521.000	334.032	80.007	19.993	103.818	19.979	3.213	0.526
521.500	334.266	80.008	19.993	103.820	19.978	3.301	0.510
522.000	334.504	80.005	19.994	103.821	19.978	3.273	0.483
522.500	334.796	80.007	19.994	103.821	19.981	3.075	0.501
523.000	335.029	80.007	19.994	103.821	19.981	3.099	0.527
523.500	335.291	80.006	19.994	103.819	19.980	3.167	0.509
524.000	335.539	80.007	19.994	103.818	19.979	3.207	0.502
524.500	335.789	80.006	19.993	103.818	19.979	3.201	0.505
525.000	336.040	80.007	19.994	103.817	19.981	3.043	0.500
525.500	336.288	80.007	19.994	103.817	19.980	3.145	0.500
526.000	336.547	80.006	19.994	103.816	19.981	3.095	0.503
526.500	336.817	80.006	19.994	103.815	19.976	3.424	0.518
527.000	337.073	80.006	19.993	103.816	19.980	3.161	0.528
527.500	337.325	80.005	19.993	103.815	19.982	2.973	0.517
528.000	337.577	80.006	19.995	103.814	19.981	3.025	0.506
528.501	337.828	80.006	19.994	103.816	19.979	3.179	0.503
529.001	338.115	80.006	19.995	103.819	19.980	3.123	0.520
529.500	338.380	80.006	19.994	103.818	19.980	3.101	0.546
530.000	338.591	80.004	19.994	103.818	19.981	3.037	0.514
530.500	338.897	80.006	19.995	103.815	19.981	3.065	0.496
531.000	339.087	80.005	19.996	103.808	19.978	3.278	0.506
531.500	339.348	80.005	19.996	103.803	19.979	3.226	0.474
532.000	339.617	80.005	19.996	103.799	19.980	3.149	0.491
532.500	339.868	80.006	19.995	103.798	19.979	3.175	0.525
533.000	340.113	80.005	19.994	103.800	19.980	3.109	0.508
533.500	340.380	80.005	19.994	103.806	19.979	3.193	0.504
534.000	340.630	80.007	19.994	103.811	19.980	3.137	0.514
534.500	340.898	80.004	19.994	103.812	19.979	3.209	0.518
535.000	341.150	80.006	19.994	103.811	19.979	3.203	0.519
535.500	341.365	80.006	19.994	103.812	19.978	3.304	0.493
536.000	341.661	80.005	19.994	103.812	19.979	3.225	0.489
536.500	341.922	80.007	19.994	103.814	19.979	3.233	0.535
537.000	342.175	80.006	19.993	103.817	19.981	3.058	0.536
537.500	342.421	80.007	19.995	103.819	19.978	3.287	0.507
538.000	342.657	80.006	19.993	103.820	19.976	3.410	0.491
538.500	342.915	80.007	19.994	103.819	19.977	3.360	0.488
539.000	343.184	80.007	19.992	103.819	19.980	3.161	0.510
539.500	343.420	80.007	19.993	103.818	19.976	3.422	0.515
540.000	343.711	80.007	19.994	103.819	19.981	3.053	0.515
540.500	343.910	80.007	19.994	103.818	19.980	3.137	0.508
541.000	344.161	80.007	19.994	103.817	19.977	3.354	0.470
541.500	344.440	80.009	19.993	103.816	19.979	3.241	0.490
542.000	344.697	80.006	19.995	103.816	19.979	3.181	0.533
542.500	344.944	80.008	19.994	103.816	19.979	3.239	0.520
543.000	345.195	80.007	19.993	103.816	19.978	3.316	0.501
543.500	345.448	80.007	19.992	103.813	19.979	3.243	0.501
544.000	345.715	80.008	19.993	103.811	19.979	3.191	0.512
544.500	345.976	80.007	19.993	103.810	19.978	3.293	0.524
545.000	346.186	80.007	19.993	103.805	19.982	3.008	0.500
545.500	346.449	80.008	19.992	103.803	19.977	3.344	0.472
546.000	346.689	80.008	19.993	103.807	19.978	3.261	0.488
546.500	346.991	80.009	19.995	103.805	19.979	3.217	0.522
547.000	347.261	80.007	19.993	103.800	19.978	3.263	0.557
547.500	347.511	80.009	19.994	103.802	19.979	3.207	0.546
548.000	347.739	80.008	19.993	103.803	19.976	3.420	0.499
548.500	347.978	80.007	19.993	103.803	19.980	3.135	0.472
549.000	348.221	80.008	19.994	103.807	19.978	3.302	0.474
549.500	348.516	80.008	19.992	103.811	19.979	3.217	0.510
550.000	348.722	80.009	19.993	103.810	19.978	3.263	0.520
550.500	349.017	80.009	19.992	103.811	19.980	3.153	0.501
551.000	349.259	80.007	19.992	103.808	19.980	3.129	0.519
551.500	349.498	80.008	19.993	103.804	19.980	3.173	0.509
552.000	349.734	80.008	19.993	103.804	19.978	3.265	0.478
552.500	350.020	80.008	19.992	103.806	19.979	3.209	0.499
553.000	350.271	80.007	19.993	103.805	19.978	3.259	0.530
553.500	350.528	80.007	19.993	103.805	19.978	3.255	0.523
554.000	350.763	80.006	19.992	103.804	19.980	3.137	0.500
554.500	351.029	80.006	19.993	103.800	19.976	3.414	0.496
555.000	351.256	80.007	19.993	103.797	19.977	3.369	0.497
555.500	351.549	80.007	19.993	103.799	19.978	3.269	0.507
556.000	351.777	80.005	19.993	103.801	19.979	3.217	0.521
556.500	352.033	80.007	19.993	103.803	19.976	3.436	0.502
557.000	352.291	80.005	19.995	103.806	19.978	3.259	0.499
557.500	352.553	80.005	19.993	103.808	19.978	3.301	0.518
558.000	352.799	80.004	19.992	103.808	19.981	3.036	0.514
558.500	353.046	80.006	19.993	103.805	19.977	3.342	0.500
559.000	353.348	80.006	19.993	103.805	19.980	3.103	0.521
559.500	353.598	80.006	19.994	103.806	19.980	3.139	0.551
560.000	353.832	80.005	19.995	103.809	19.979	3.223	0.518
560.500	354.105	80.005	19.993	103.809	19.979	3.177	0.495
561.000	354.368	80.004	19.993	103.808	19.978	3.293	0.521
561.500	354.601	80.005	19.993	103.806	19.978	3.295	0.516
562.000	354.819	80.006	19.994	103.804	19.977	3.351	0.473
562.500	355.096	80.006	19.993	103.800	19.979	3.199	0.473
563.000	355.317	80.007	19.994	103.799	19.978	3.311	0.496
563.500	355.580	80.005	19.993	103.802	19.976	3.438	0.491
564.000	355.828	80.006	19.993	103.803	19.979	3.235	0.498
564.500	356.083	80.006	19.993	103.802	19.975	3.498	0.507
565.000	356.345	80.005	19.992	103.800	19.978	3.317	0.510
565.500	356.596	80.006	19.993	103.797	19.977	3.389	0.515
566.000	356.864	80.004	19.993	103.792	19.976	3.403	0.516
566.500	357.108	80.007	19.993	103.790	19.979	3.215	0.515
567.000	357.383	80.006	19.993	103.790	19.976	3.455	0.516
567.500	357.620	80.006	19.993	103.793	19.975	3.488	0.516
568.000	357.857	80.007	19.993	103.795	19.980	3.110	0.493
568.500	358.108	80.007	19.993	103.798	19.978	3.275	0.481
569.000	358.365	80.006	19.993	103.804	19.976	3.434	0.498
569.500	358.635	80.006	19.993	103.806	19.978	3.309	0.517
570.000	358.866	80.008	19.994	103.803	19.978	3.259	0.514
570.500	359.117	80.006	19.992	103.799	19.977	3.381	0.491
571.000	359.355	80.006	19.993	103.794	19.976	3.425	0.486
571.501	359.586	80.006	19.994	103.790	19.978	3.269	0.479
572.001	359.855	80.005	19.993	103.786	19.976	3.451	0.484
572.500	360.102	80.006	19.994	103.789	19.977	3.333	0.508
573.000	360.354	80.006	19.992	103.793	19.976	3.436	0.508
573.500	360.631	80.007	19.993	103.793	19.978	3.321	0.514
574.000	360.865	80.008	19.993	103.791	19.978	3.263	0.520
574.500	361.107	80.006	19.994	103.790	19.978	3.267	0.493
575.000	361.377	80.005	19.993	103.788	19.976	3.405	0.494
575.500	361.627	80.007	19.993	103.786	19.975	3.506	0.516
576.000	361.871	80.006	19.993	103.786	19.976	3.434	0.507
576.500	362.119	80.006	19.993	103.787	19.977	3.388	0.493
577.000	362.389	80.005	19.993	103.787	19.976	3.458	0.505
577.500	362.620	80.007	19.993	103.787	19.976	3.464	0.510
578.000	362.882	80.004	19.993	103.785	19.978	3.281	0.497
578.500	363.120	80.006	19.993	103.785	19.978	3.293	0.496
579.000	363.383	80.006	19.992	103.787	19.978	3.302	0.500
579.500	363.600	80.006	19.993	103.788	19.977	3.334	0.491
580.000	363.904	80.006	19.992	103.789	19.977	3.390	0.500
580.500	364.130	80.006	19.994	103.790	19.981	3.050	0.526
581.000	364.367	80.007	19.992	103.789	19.977	3.394	0.497
581.501	364.625	80.005	19.993	103.788	19.977	3.355	0.479
582.001	364.913	80.005	19.992	103.787	19.977	3.391	0.520
582.500	365.157	80.006	19.994	103.785	19.977	3.337	0.539
583.000	365.423	80.004	19.992	103.786	19.980	3.163	0.522
583.500	365.669	80.006	19.993	103.788	19.976	3.448	0.511
584.000	365.924	80.006	19.994	103.790	19.976	3.436	0.506
584.500	366.137	80.006	19.993	103.790	19.979	3.211	0.484
585.000	366.400	80.005	19.994	103.790	19.980	3.118	0.472
585.500	366.678	80.005	19.994	103.792	19.978	3.279	0.508
586.000	366.900	80.005	19.993	103.791	19.978	3.271	0.521
586.500	367.181	80.004	19.993	103.792	19.979	3.175	0.502
587.000	367.409	80.004	19.994	103.792	19.977	3.390	0.506
587.500	367.675	80.005	19.992	103.795	19.977	3.379	0.501
588.000	367.938	80.003	19.993	103.794	19.978	3.303	0.511
588.500	368.211	80.005	19.996	103.797	19.980	3.103	0.533
589.001	368.417	80.005	19.995	103.799	19.982	3.008	0.508
589.500	368.671	80.005	19.995	103.804	19.980	3.145	0.469
590.000	368.906	80.005	19.995	103.805	19.976	3.446	0.474
590.500	369.208	80.006	19.994	103.806	19.981	3.034	0.513
591.000	369.425	80.004	19.995	103.803	19.978	3.305	0.528
591.500	369.666	80.005	19.994	103.800	19.979	3.247	0.488
592.000	369.923	80.005	19.995	103.794	19.983	2.905	0.478
592.500	370.228	80.004	19.994	103.791	19.979	3.185	0.530
593.000	370.472	80.005	19.995	103.792	19.982	3.010	0.556
593.500	370.685	80.005	19.995	103.792	19.982	2.974	0.503
594.000	370.992	80.005	19.995	103.793	19.978	3.265	0.488
594.500	371.226	80.004	19.994	103.793	19.981	3.096	0.531
595.000	371.465	80.005	19.994	103.793	19.982	2.972	0.507
595.500	371.743	80.004	19.994	103.794	19.983	2.877	0.495
596.000	371.966	80.005	19.994	103.795	19.983	2.893	0.509
596.500	372.259	80.005	19.994	103.796	19.984	2.819	0.508
597.000	372.508	80.005	19.993	103.795	19.982	2.970	0.529
597.500	372.753	80.005	19.994	103.796	19.981	3.052	0.518
598.000	372.971	80.006	19.994	103.795	19.980	3.169	0.479
598.500	373.273	80.005	19.993	103.794	19.982	2.982	0.492
599.000	373.521	80.006	19.993	103.797	19.980	3.172	0.534
599.500	373.781	80.006	19.993	103.799	19.978	3.281	0.529
600.000	374.030	80.006	19.993	103.800	19.980	3.160	0.509
600.500	374.302	80.005	19.994	103.801	19.979	3.217	0.515
601.000	374.529	80.006	19.993	103.800	19.981	3.050	0.510
601.500	374.782	80.006	19.993	103.795	19.981	3.028	0.489
602.000	375.067	80.007	19.994	103.792	19.981	3.086	0.509
602.500	375.285	80.006	19.993	103.789	19.979	3.188	0.521
603.000	375.552	80.007	19.992	103.788	19.980	3.146	0.495
603.500	375.836	80.006	19.993	103.792	19.981	3.066	0.518
604.000	376.047	80.007	19.994	103.794	19.979	3.209	0.522
604.500	376.316	80.007	19.992	103.797	19.977	3.369	0.487
605.000	376.599	80.008	19.992	103.796	19.980	3.108	0.516
605.500	376.854	80.007	19.994	103.797	19.979	3.247	0.545
606.000	377.073	80.008	19.995	103.792	19.980	3.102	0.505
606.500	377.317	80.008	19.994	103.793	19.980	3.110	0.468
607.000	377.570	80.006	19.994	103.792	19.979	3.204	0.480
607.500	377.873	80.007	19.993	103.796	19.982	3.014	0.527
608.000	378.109	80.007	19.993	103.795	19.979	3.222	0.548
608.500	378.355	80.008	19.993	103.796	19.975	3.502	0.510
609.000	378.619	80.007	19.992	103.793	19.982	2.988	0.495
609.500	378.880	80.007	19.993	103.793	19.978	3.299	0.517
610.000	379.118	80.007	19.994	103.789	19.980	3.136	0.512
610.500	379.396	80.006	19.994	103.787	19.982	3.010	0.508
611.000	379.614	80.008	19.994	103.786	19.978	3.277	0.506
611.500	379.891	80.006	19.994	103.785	19.982	2.968	0.495
612.000	380.142	80.006	19.995	103.784	19.980	3.106	0.511
612.500	380.366	80.006	19.993	103.784	19.982	3.000	0.502
613.000	380.607	80.007	19.993	103.784	19.983	2.881	0.470
613.500	380.891	80.007	19.993	103.784	19.982	2.990	0.495
614.000	381.114	80.008	19.992	103.786	19.980	3.128	0.516
614.500	381.373	80.007	19.995	103.788	19.980	3.152	0.495
615.000	381.663	80.008	19.994	103.788	19.981	3.064	0.516
615.500	381.868	80.007	19.993	103.788	19.982	3.014	0.522
616.000	382.146	80.007	19.994	103.788	19.983	2.881	0.489
616.500	382.372	80.006	19.993	103.788	19.979	3.227	0.493
617.000	382.622	80.006	19.995	103.785	19.981	3.046	0.490
617.500	382.862	80.006	19.995	103.784	19.983	2.947	0.483
618.000	383.130	80.006	19.994	103.783	19.982	2.962	0.499
618.500	383.373	80.006	19.994	103.783	19.982	2.949	0.509
619.000	383.618	80.007	19.993	103.781	19.981	3.038	0.499
619.500	383.881	80.007	19.995	103.781	19.984	2.833	0.498
620.000	384.154	80.008	19.994	103.784	19.983	2.913	0.523
620.500	384.411	80.007	19.994	103.787	19.983	2.885	0.533
621.000	384.651	80.007	19.995	103.787	19.984	2.809	0.513
621.500	384.920	80.006	19.995	103.788	19.982	3.018	0.503
622.001	385.147	80.007	19.994	103.788	19.983	2.931	0.503
622.501	385.392	80.007	19.994	103.785	19.981	3.030	0.484
623.000	385.673	80.008	19.996	103.782	19.987	2.584	0.499
623.500	385.888	80.007	19.994	103.781	19.984	2.803	0.511
624.000	386.161	80.007	19.995	103.781	19.984	2.845	0.492
624.500	386.425	80.007	19.993	103.781	19.985	2.773	0.512
625.000	386.660	80.009	19.994	103.780	19.987	2.588	0.518
625.500	386.899	80.009	19.993	103.780	19.983	2.925	0.486
626.000	387.153	80.007	19.993	103.780	19.983	2.879	0.484
626.500	387.437	80.007	19.993	103.780	19.985	2.735	0.516
627.000	387.676	80.009	19.992	103.781	19.983	2.911	0.531
627.500	387.921	80.007	19.993	103.783	19.983	2.913	0.504
628.000	388.180	80.008	19.993	103.784	19.982	2.963	0.494
628.500	388.419	80.008	19.994	103.784	19.979	3.196	0.500
629.000	388.702	80.009	19.995	103.785	19.982	2.998	0.510
629.500	388.938	80.008	19.993	103.783	19.982	2.963	0.520
630.000	389.206	80.010	19.992	103.781	19.982	2.972	0.512
630.500	389.435	80.009	19.993	103.781	19.984	2.837	0.501
631.000	389.715	80.009	19.993	103.783	19.981	3.028	0.503
631.500	389.972	80.009	19.991	103.783	19.984	2.839	0.523
632.000	390.185	80.008	19.993	103.783	19.981	3.066	0.504
632.500	390.442	80.010	19.993	103.783	19.983	2.903	0.470
633.000	390.688	80.009	19.993	103.783	19.980	3.140	0.487
633.501	390.935	80.010	19.992	103.781	19.982	2.962	0.498
634.001	391.245	80.010	19.993	103.782	19.980	3.136	0.525
634.500	391.460	80.009	19.993	103.784	19.980	3.110	0.541
635.000	391.740	80.009	19.993	103.784	19.983	2.923	0.510
635.500	391.948	80.008	19.993	103.784	19.982	3.020	0.492
636.000	392.224	80.009	19.994	103.784	19.981	3.092	0.486
636.500	392.489	80.008	19.993	103.784	19.981	3.026	0.513
637.000	392.732	80.006	19.993	103.782	19.982	2.994	0.524
637.500	392.970	80.007	19.992	103.782	19.982	3.012	0.494
638.000	393.232	80.006	19.993	103.782	19.984	2.853	0.490
638.500	393.505	80.007	19.992	103.781	19.980	3.114	0.517
639.000	393.741	80.007	19.993	103.781	19.978	3.265	0.522
639.500	394.000	80.005	19.992	103.781	19.981	3.062	0.502
640.000	394.246	80.007	19.993	103.782	19.980	3.124	0.500
640.500	394.526	80.005	19.992	103.782	19.981	3.092	0.515
641.000	394.769	80.007	19.994	103.782	19.982	2.964	0.525
641.500	395.001	80.006	19.993	103.782	19.981	3.056	0.500
642.000	395.245	80.006	19.992	103.783	19.979	3.237	0.475
642.500	395.496	80.006	19.993	103.783	19.978	3.257	0.485
643.000	395.736	80.006	19.993	103.783	19.981	3.098	0.493
643.500	396.020	80.006	19.993	103.783	19.981	3.068	0.508
644.000	396.232	80.006	19.994	103.784	19.978	3.299	0.510
644.500	396.510	80.006	19.993	103.784	19.981	3.028	0.493
645.000	396.773	80.005	19.993	103.784	19.983	2.879	0.515
645.500	396.979	80.006	19.994	103.784	19.982	2.966	0.505
646.000	397.267	80.006	19.993	103.785	19.980	3.106	0.482
646.500	397.482	80.005	19.993	103.785	19.980	3.110	0.499
647.000	397.734	80.005	19.993	103.785	19.981	3.086	0.485
647.500	398.032	80.004	19.992	103.785	19.980	3.144	0.508
648.000	398.281	80.006	19.993	103.786	19.981	3.078	0.548
648.500	398.494	80.005	19.993	103.786	19.985	2.785	0.505
649.000	398.772	80.006	19.994	103.788	19.986	2.715	0.477
649.500	399.022	80.006	19.992	103.788	19.986	2.709	0.509
650.000	399.309	80.005	19.992	103.788	19.987	2.582	0.532
650.500	399.552	80.006	19.993	103.788	19.983	2.901	0.534
651.000	399.773	80.005	19.993	103.787	19.985	2.799	0.497
651.500	400.024	80.005	19.993	103.785	19.981	3.052	0.468
652.000	400.273	80.005	19.993	103.784	19.983	2.945	0.486
652.500	400.515	80.004	19.993	103.784	19.983	2.929	0.496
653.000	400.790	80.006	19.993	103.784	19.983	2.881	0.504
653.500	401.029	80.004	19.993	103.784	19.981	3.090	0.515
654.000	401.286	80.006	19.993	103.785	19.982	2.950	0.505
654.500	401.520	80.006	19.992	103.785	19.983	2.877	0.494
655.000	401.823	80.006	19.994	103.785	19.983	2.885	0.514
655.500	402.041	80.006	19.993	103.784	19.983	2.903	0.529
656.000	402.316	80.005	19.993	103.784	19.983	2.875	0.507
656.500	402.540	80.006	19.993	103.784	19.981	3.090	0.496
657.000	402.784	80.004	19.993	103.784	19.982	2.996	0.484
657.500	403.039	80.006	19.994	103.783	19.982	3.008	0.483
658.000	403.317	80.005	19.993	103.784	19.981	3.086	0.516
658.500	403.584	80.006	19.993	103.784	19.981	3.070	0.539
659.000	403.822	80.006	19.993	103.783	19.982	2.968	0.525
659.500	404.053	80.005	19.993	103.784	19.985	2.743	0.487
660.000	404.307	80.006	19.993	103.785	19.978	3.265	0.477
660.500	404.571	80.006	19.993	103.784	19.983	2.927	0.502
661.000	404.814	80.005	19.993	103.784	19.983	2.927	0.513
661.500	405.107	80.005	19.993	103.784	19.982	2.956	0.522
662.000	405.359	80.005	19.994	103.784	19.982	3.012	0.540
662.500	405.612	80.005	19.993	103.784	19.984	2.833	0.525
663.000	405.849	80.006	19.992	103.785	19.982	2.994	0.497
663.500	406.081	80.006	19.992	103.785	19.982	3.006	0.479
664.000	406.373	80.005	19.992	103.786	19.982	2.953	0.496
664.500	406.613	80.005	19.992	103.787	19.980	3.118	0.528
665.001	406.856	80.005	19.994	103.787	19.980	3.124	0.508
665.501	407.109	80.005	19.992	103.787	19.980	3.108	0.490
666.000	407.373	80.005	19.993	103.787	19.980	3.154	0.507
666.500	407.619	80.005	19.993	103.787	19.978	3.251	0.513
667.000	407.865	80.005	19.992	103.787	19.981	3.036	0.501
667.500	408.094	80.005	19.993	103.786	19.979	3.174	0.484
668.000	408.327	80.006	19.993	103.786	19.977	3.373	0.469
668.500	408.572	80.005	19.993	103.786	19.980	3.126	0.470
669.000	408.830	80.006	19.993	103.787	19.981	3.074	0.491
669.500	409.123	80.006	19.993	103.787	19.982	3.004	0.527
670.000	409.363	80.006	19.993	103.787	19.980	3.146	0.542
670.500	409.611	80.008	19.993	103.787	19.980	3.164	0.510
671.000	409.856	80.007	19.994	103.787	19.979	3.224	0.490
671.500	410.113	80.005	19.992	103.786	19.978	3.251	0.498
672.000	410.345	80.005	19.993	103.785	19.980	3.148	0.496
672.500	410.567	80.006	19.994	103.785	19.979	3.241	0.471
673.000	410.877	80.006	19.993	103.784	19.982	3.010	0.493
673.500	411.102	80.004	19.993	103.784	19.981	3.040	0.534
674.000	411.366	80.006	19.993	103.785	19.979	3.192	0.512
674.500	411.613	80.006	19.993	103.783	19.979	3.235	0.500
675.000	411.858	80.006	19.994	103.783	19.980	3.160	0.501
675.500	412.118	80.006	19.993	103.783	19.980	3.162	0.498
676.000	412.365	80.007	19.993	103.783	19.981	3.084	0.506
676.500	412.614	80.007	19.993	103.783	19.980	3.126	0.502
677.000	412.858	80.007	19.992	103.783	19.983	2.945	0.494
677.500	413.091	80.007	19.992	103.783	19.979	3.202	0.485
678.000	413.321	80.006	19.993	103.783	19.981	3.082	0.470
678.500	413.599	80.007	19.993	103.783	19.982	3.000	0.485
679.000	413.802	80.006	19.993	103.783	19.982	2.982	0.494
679.500	414.079	80.006	19.993	103.783	19.983	2.929	0.480
680.000	414.300	80.005	19.994	103.783	19.983	2.889	0.489
680.500	414.545	80.006	19.994	103.783	19.980	3.146	0.482
681.000	414.811	80.007	19.993	103.783	19.982	2.986	0.489
681.500	415.052	80.007	19.994	103.783	19.979	3.210	0.509
682.000	415.280	80.007	19.993	103.782	19.983	2.883	0.488
682.500	415.579	80.008	19.993	103.782	19.981	3.028	0.498
683.000	415.818	80.007	19.994	103.781	19.982	2.980	0.533
683.500	416.054	80.007	19.994	103.781	19.977	3.329	0.507
684.000	416.310	80.008	19.994	103.781	19.984	2.867	0.484
684.500	416.560	80.009	19.994	103.781	19.983	2.943	0.499
685.001	416.817	80.008	19.994	103.782	19.978	3.293	0.507
685.501	417.050	80.007	19.993	103.782	19.980	3.122	0.499
686.000	417.300	80.007	19.993	103.782	19.980	3.100	0.486
686.500	417.561	80.008	19.993	103.782	19.979	3.202	0.497
687.000	417.832	80.007	19.994	103.782	19.982	2.979	0.521
687.500	418.058	80.008	19.994	103.781	19.978	3.263	0.514
688.000	418.319	80.007	19.995	103.781	19.982	2.959	0.492
688.500	418.549	80.007	19.993	103.781	19.979	3.190	0.489
689.000	418.789	80.007	19.993	103.781	19.980	3.132	0.481
689.500	419.061	80.008	19.994	103.782	19.980	3.172	0.491
690.000	419.312	80.008	19.994	103.782	19.980	3.102	0.517
690.500	419.568	80.007	19.994	103.781	19.978	3.259	0.515
691.000	419.830	80.008	19.994	103.781	19.981	3.080	0.512
691.500	420.055	80.007	19.993	103.781	19.981	3.088	0.503
692.000	420.311	80.007	19.995	103.781	19.981	3.076	0.484
692.500	420.573	80.007	19.993	103.781	19.980	3.100	0.499
693.000	420.827	80.007	19.994	103.781	19.982	3.012	0.516
693.500	421.096	80.006	19.993	103.781	19.979	3.231	0.520
694.000	421.354	80.007	19.993	103.781	19.982	2.959	0.526
694.500	421.590	80.007	19.993	103.781	19.982	2.967	0.511
695.000	421.857	80.006	19.992	103.781	19.983	2.947	0.499
695.500	422.088	80.008	19.993	103.781	19.981	3.068	0.500
696.000	422.368	80.007	19.994	103.781	19.982	2.955	0.504
696.500	422.597	80.007	19.993	103.781	19.979	3.228	0.510
697.000	422.859	80.007	19.994	103.781	19.981	3.030	0.500
697.500	423.105	80.007	19.993	103.781	19.978	3.253	0.500
698.000	423.344	80.008	19.994	103.779	19.981	3.080	0.497
698.500	423.626	80.006	19.995	103.780	19.981	3.034	0.503
699.000	423.850	80.007	19.994	103.780	19.980	3.140	0.513
699.500	424.111	80.008	19.994	103.779	19.979	3.186	0.496
700.000	424.338	80.008	19.993	103.779	19.977	3.349	0.487
700.500	424.609	80.008	19.994	103.781	19.978	3.283	0.493
701.000	424.894	80.006	19.994	103.781	19.978	3.309	0.527
701.500	425.110	80.009	19.994	103.782	19.979	3.220	0.528
702.000	425.348	80.007	19.993	103.782	19.976	3.433	0.477
702.500	425.627	80.007	19.992	103.782	19.979	3.200	0.486
703.000	425.883	80.006	19.994	103.782	19.977	3.331	0.526
703.500	426.121	80.006	19.993	103.781	19.978	3.309	0.514
704.000	426.392	80.007	19.993	103.782	19.980	3.166	0.501
704.500	426.622	80.006	19.994	103.782	19.978	3.269	0.505
705.000	426.867	80.007	19.995	103.782	19.978	3.313	0.488
705.500	427.139	80.008	19.993	103.782	19.979	3.210	0.496
706.000	427.399	80.007	19.993	103.781	19.979	3.245	0.525
706.500	427.646	80.008	19.993	103.780	19.979	3.231	0.520
707.000	427.879	80.008	19.993	103.779	19.977	3.373	0.494
707.500	428.156	80.007	19.993	103.780	19.977	3.391	0.495
708.000	428.387	80.008	19.996	103.780	19.977	3.387	0.509
708.500	428.660	80.008	19.995	103.781	19.977	3.395	0.505
709.000	428.916	80.008	19.995	103.782	19.974	3.550	0.516
709.500	429.170	80.008	19.994	103.781	19.978	3.307	0.519
710.000	429.431	80.007	19.994	103.781	19.976	3.415	0.513
710.500	429.675	80.008	19.995	103.781	19.974	3.608	0.510
711.000	429.914	80.007	19.994	103.780	19.979	3.194	0.494
711.500	430.162	80.008	19.994	103.779	19.977	3.373	0.485
712.000	430.416	80.008	19.994	103.780	19.979	3.212	0.495
712.500	430.655	80.007	19.993	103.781	19.977	3.333	0.498
713.000	430.889	80.008	19.995	103.781	19.975	3.510	0.483
713.500	431.159	80.008	19.994	103.782	19.981	3.064	0.488
714.000	431.429	80.007	19.994	103.782	19.979	3.239	0.522
714.500	431.631	80.007	19.994	103.781	19.976	3.464	0.506
715.000	431.941	80.008	19.993	103.780	19.977	3.353	0.492
715.500	432.176	80.008	19.993	103.780	19.976	3.425	0.528
716.000	432.431	80.005	19.994	103.780	19.977	3.335	0.518
716.500	432.682	80.008	19.994	103.781	19.977	3.349	0.498
717.000	432.938	80.007	19.995	103.782	19.976	3.439	0.506
717.500	433.208	80.006	19.995	103.782	19.978	3.269	0.516
718.000	433.448	80.005	19.994	103.783	19.979	3.217	0.518
718.500	433.712	80.005	19.994	103.783	19.978	3.299	0.507
719.000	433.973	80.005	19.994	103.783	19.977	3.355	0.515
719.500	434.223	80.007	19.994	103.783	19.980	3.118	0.518
720.000	434.488	80.006	19.993	103.783	19.977	3.329	0.513
720.500	434.743	80.005	19.995	103.783	19.977	3.389	0.517
721.000	435.012	80.006	19.994	103.783	19.974	3.572	0.522
721.500	435.225	80.005	19.993	103.783	19.978	3.307	0.503
722.000	435.462	80.005	19.993	103.783	19.977	3.337	0.466
722.500	435.769	80.005	19.993	103.783	19.978	3.319	0.497
723.000	436.009	80.006	19.992	103.783	19.975	3.486	0.545
723.500	436.256	80.006	19.993	103.783	19.975	3.486	0.517
724.000	436.549	80.005	19.993	103.784	19.975	3.486	0.514
724.500	436.770	80.005	19.993	103.784	19.977	3.367	0.527
725.000	437.018	80.007	19.993	103.785	19.973	3.636	0.492
725.500	437.305	80.006	19.993	103.786	19.977	3.391	0.502
726.000	437.552	80.005	19.995	103.786	19.979	3.174	0.534
726.500	437.811	80.004	19.993	103.786	19.974	3.556	0.520
727.000	438.030	80.005	19.993	103.786	19.978	3.277	0.492
727.500	438.298	80.005	19.994	103.786	19.979	3.188	0.483
728.000	438.586	80.005	19.993	103.785	19.980	3.114	0.522
728.500	438.803	80.005	19.993	103.785	19.978	3.301	0.530
729.000	439.045	80.005	19.993	103.785	19.975	3.521	0.482
729.500	439.328	80.006	19.993	103.786	19.977	3.343	0.492
730.000	439.567	80.006	19.993	103.786	19.977	3.389	0.523
730.500	439.816	80.005	19.993	103.786	19.977	3.347	0.505
731.000	440.082	80.005	19.993	103.786	19.979	3.212	0.502
731.500	440.326	80.005	19.994	103.786	19.976	3.409	0.513
732.000	440.592	80.004	19.992	103.786	19.978	3.289	0.510
732.500	440.858	80.004	19.992	103.787	19.978	3.265	0.521
733.000	441.135	80.006	19.993	103.786	19.979	3.190	0.537
733.500	441.357	80.006	19.993	103.787	19.978	3.283	0.521
734.000	441.591	80.005	19.993	103.787	19.980	3.100	0.477
734.500	441.867	80.005	19.993	103.786	19.974	3.584	0.483
735.000	442.119	80.007	19.992	103.785	19.978	3.249	0.519
735.500	442.365	80.006	19.992	103.784	19.976	3.419	0.514
736.000	442.632	80.006	19.993	103.784	19.977	3.375	0.505
736.500	442.860	80.006	19.993	103.783	19.979	3.214	0.504
737.000	443.080	80.006	19.993	103.783	19.978	3.258	0.471
737.500	443.363	80.006	19.993	103.783	19.982	3.016	0.475
738.000	443.590	80.006	19.994	103.783	19.980	3.140	0.507
738.500	443.844	80.006	19.994	103.783	19.979	3.178	0.496
739.000	444.111	80.006	19.994	103.782	19.976	3.407	0.501
739.500	444.357	80.007	19.993	103.779	19.979	3.194	0.517
740.000	444.627	80.006	19.994	103.775	19.979	3.186	0.514
740.500	444.852	80.006	19.992	103.771	19.977	3.323	0.506
741.000	445.131	80.006	19.993	103.769	19.978	3.319	0.500
741.500	445.361	80.007	19.994	103.769	19.977	3.343	0.506
742.000	445.623	80.007	19.994	103.772	19.980	3.140	0.500
742.500	445.897	80.006	19.994	103.776	19.977	3.373	0.514
743.000	446.147	80.005	19.994	103.779	19.975	3.479	0.530
743.500	446.391	80.006	19.993	103.780	19.977	3.341	0.509
744.000	446.629	80.007	19.994	103.780	19.975	3.510	0.488
744.500	446.895	80.006	19.994	103.780	19.975	3.475	0.493
745.000	447.142	80.005	19.994	103.780	19.975	3.546	0.508
745.500	447.378	80.006	19.993	103.780	19.974	3.618	0.498
746.000	447.655	80.006	19.993	103.780	19.975	3.520	0.498
746.500	447.903	80.006	19.993	103.780	19.975	3.515	0.519
747.000	448.201	80.007	19.993	103.779	19.977	3.387	0.536
747.500	448.420	80.006	19.993	103.777	19.975	3.491	0.531
748.000	448.659	80.006	19.993	103.777	19.975	3.505	0.487
748.500	448.939	80.005	19.993	103.777	19.974	3.582	0.489
749.000	449.209	80.006	19.993	103.778	19.975	3.475	0.535
749.500	449.424	80.007	19.994	103.778	19.977	3.385	0.518
750.000	449.667	80.006	19.993	103.781	19.977	3.351	0.471
750.500	449.932	80.006	19.994	103.780	19.975	3.479	0.483
751.000	450.202	80.006	19.992	103.779	19.977	3.391	0.521
751.500	450.477	80.006	19.993	103.779	19.978	3.291	0.540
752.000	450.681	80.007	19.993	103.779	19.976	3.435	0.512
752.500	450.954	80.006	19.994	103.779	19.976	3.469	0.478
753.000	451.222	80.005	19.994	103.780	19.979	3.220	0.509
753.500	451.468	80.006	19.994	103.782	19.977	3.381	0.528
754.000	451.704	80.007	19.994	103.782	19.978	3.307	0.498
754.500	451.965	80.007	19.993	103.782	19.976	3.405	0.490
755.000	452.219	80.006	19.993	103.782	19.973	3.630	0.506
755.500	452.457	80.006	19.994	103.782	19.980	3.108	0.503
756.000	452.734	80.006	19.994	103.781	19.977	3.343	0.503
756.500	452.963	80.006	19.993	103.781	19.976	3.413	0.510
757.001	453.230	80.007	19.993	103.779	19.979	3.196	0.501
757.500	453.489	80.005	19.993	103.778	19.979	3.202	0.511
758.000	453.724	80.006	19.993	103.777	19.976	3.401	0.510
758.500	453.970	80.006	19.992	103.777	19.977	3.341	0.488
759.000	454.248	80.006	19.992	103.778	19.975	3.495	0.502
759.500	454.504	80.008	19.993	103.778	19.977	3.339	0.529
760.000	454.755	80.008	19.993	103.778	19.977	3.393	0.521
760.500	455.009	80.007	19.992	103.779	19.975	3.520	0.506
761.000	455.278	80.008	19.992	103.778	19.976	3.429	0.514
761.500	455.526	80.008	19.994	103.779	19.974	3.560	0.520
762.000	455.754	80.008	19.993	103.779	19.978	3.258	0.496
762.500	456.026	80.007	19.991	103.779	19.975	3.519	0.488
763.000	456.307	80.008	19.994	103.780	19.981	3.062	0.527
763.500	456.552	80.009	19.993	103.780	19.982	2.959	0.539
764.001	456.827	80.008	19.993	103.776	19.978	3.277	0.523
764.501	457.027	80.009	19.993	103.775	19.980	3.154	0.498
765.000	457.303	80.007	19.993	103.774	19.978	3.303	0.476
765.500	457.555	80.009	19.992	103.774	19.976	3.441	0.502
766.000	457.815	80.008	19.994	103.774	19.975	3.510	0.520
766.501	458.098	80.007	19.993	103.776	19.976	3.437	0.527
767.001	458.353	80.009	19.993	103.775	19.978	3.281	0.541
767.501	458.568	80.006	19.993	103.774	19.979	3.186	0.504
768.000	458.840	80.007	19.995	103.772	19.981	3.072	0.478
768.500	459.150	80.007	19.994	103.772	19.979	3.204	0.534
769.000	459.382	80.007	19.994	103.774	19.982	2.993	0.562
769.500	459.637	80.008	19.994	103.777	19.976	3.451	0.515
770.000	459.890	80.007	19.994	103.778	19.979	3.210	0.498
770.500	460.164	80.008	19.995	103.780	19.979	3.236	0.517
771.000	460.390	80.009	19.993	103.780	19.978	3.272	0.514
771.500	460.668	80.007	19.993	103.781	19.978	3.308	0.502
772.000	460.875	80.007	19.993	103.781	19.975	3.477	0.494
772.500	461.128	80.007	19.992	103.779	19.976	3.429	0.472
773.000	461.394	80.007	19.994	103.777	19.980	3.144	0.489
773.500	461.644	80.007	19.994	103.775	19.979	3.244	0.517
774.000	461.905	80.006	19.995	103.775	19.980	3.158	0.513
774.500	462.173	80.008	19.993	103.775	19.979	3.190	0.520
775.000	462.425	80.007	19.994	103.777	19.979	3.200	0.525
775.500	462.668	80.008	19.994	103.780	19.979	3.212	0.508
776.000	462.938	80.006	19.994	103.782	19.978	3.282	0.504
776.500	463.182	80.006	19.993	103.782	19.981	3.080	0.513
777.000	463.467	80.008	19.994	103.782	19.980	3.150	0.521
777.500	463.704	80.007	19.994	103.781	19.979	3.202	0.526
778.000	463.971	80.007	19.994	103.780	19.980	3.136	0.513
778.500	464.173	80.006	19.993	103.780	19.977	3.365	0.487
779.000	464.425	80.006	19.994	103.776	19.978	3.248	0.462
779.500	464.709	80.006	19.993	103.775	19.984	2.871	0.495
780.000	464.971	80.007	19.995	103.771	19.978	3.274	0.541
780.500	465.185	80.008	19.994	103.767	19.978	3.268	0.510
781.000	465.454	80.007	19.994	103.767	19.978	3.250	0.479
781.500	465.680	80.006	19.995	103.770	19.979	3.188	0.489
782.000	465.942	80.006	19.995	103.768	19.977	3.353	0.492
782.500	466.217	80.007	19.993	103.770	19.979	3.220	0.512
783.000	466.450	80.006	19.993	103.772	19.981	3.053	0.523
783.500	466.750	80.007	19.993	103.769	19.977	3.333	0.521
784.000	466.954	80.008	19.993	103.763	19.979	3.246	0.519
784.500	467.265	80.007	19.994	103.766	19.983	2.945	0.510
785.000	467.493	80.008	19.994	103.766	19.983	2.899	0.527
785.500	467.735	80.006	19.994	103.765	19.981	3.058	0.504
786.000	468.018	80.009	19.994	103.768	19.979	3.244	0.497
786.500	468.249	80.007	19.994	103.770	19.980	3.132	0.520
787.000	468.486	80.008	19.993	103.769	19.980	3.152	0.491
787.500	468.772	80.008	19.993	103.768	19.983	2.879	0.495
788.000	469.061	80.007	19.994	103.768	19.983	2.947	0.549
788.500	469.291	80.008	19.993	103.769	19.981	3.033	0.547
789.001	469.562	80.008	19.993	103.773	19.980	3.104	0.510
789.501	469.787	80.009	19.995	103.773	19.981	3.035	0.498
790.000	470.028	80.008	19.993	103.776	19.981	3.033	0.480
790.500	470.318	80.008	19.993	103.777	19.981	3.096	0.499
791.000	470.586	80.008	19.992	103.773	19.981	3.063	0.545
791.500	470.776	80.009	19.994	103.770	19.984	2.870	0.508
792.000	471.099	80.007	19.992	103.768	19.982	3.011	0.486
792.500	471.312	80.008	19.993	103.768	19.980	3.151	0.525
793.000	471.594	80.007	19.994	103.768	19.983	2.884	0.515
793.500	471.832	80.008	19.994	103.771	19.982	2.967	0.507
794.000	472.069	80.008	19.993	103.769	19.983	2.947	0.498
794.500	472.349	80.007	19.992	103.774	19.983	2.941	0.496
795.000	472.589	80.008	19.993	103.775	19.982	2.971	0.519
795.500	472.837	80.008	19.992	103.776	19.984	2.865	0.504
796.000	473.118	80.008	19.992	103.775	19.983	2.947	0.508
796.500	473.364	80.007	19.993	103.776	19.982	3.013	0.528
797.000	473.630	80.007	19.994	103.775	19.982	2.973	0.519
797.500	473.884	80.008	19.993	103.775	19.982	2.999	0.516
798.000	474.138	80.007	19.994	103.776	19.982	3.011	0.514
798.500	474.428	80.007	19.994	103.775	19.982	3.015	0.526
799.000	474.653	80.007	19.994	103.770	19.982	2.991	0.530
799.500	474.942	80.005	19.994	103.770	19.981	3.059	0.514
800.001	475.187	80.005	19.994	103.769	19.982	2.991	0.524
800.500	475.423	80.006	19.994	103.766	19.983	2.876	0.507
801.000	475.718	80.005	19.995	103.764	19.981	3.075	0.506
801.500	475.970	80.005	19.993	103.767	19.979	3.200	0.539
802.000	476.210	80.007	19.994	103.762	19.978	3.270	0.520
802.500	476.466	80.005	19.995	103.755	19.981	3.067	0.494
803.000	476.704	80.005	19.994	103.750	19.980	3.152	0.495
803.500	476.973	80.006	19.995	103.755	19.979	3.174	0.500
804.000	477.210	80.005	19.994	103.754	19.983	2.885	0.507
804.500	477.447	80.007	19.995	103.758	19.980	3.125	0.490
805.000	477.718	80.005	19.994	103.763	19.984	2.850	0.491
805.500	477.985	80.005	19.994	103.769	19.981	3.059	0.523
806.000	478.230	80.004	19.995	103.768	19.981	3.029	0.525
806.500	478.471	80.006	19.995	103.767	19.982	2.963	0.499
807.000	478.771	80.005	19.995	103.765	19.984	2.872	0.513
807.500	479.002	80.004	19.994	103.766	19.978	3.266	0.536
808.000	479.248	80.005	19.994	103.767	19.981	3.073	0.505
808.500	479.474	80.006	19.994	103.770	19.981	3.051	0.475
809.000	479.785	80.005	19.994	103.773	19.978	3.296	0.504
809.500	480.003	80.007	19.995	103.771	19.980	3.124	0.533
810.000	480.256	80.005	19.994	103.768	19.982	2.999	0.500
810.500	480.558	80.004	19.995	103.764	19.983	2.877	0.513
811.000	480.777	80.005	19.995	103.761	19.980	3.146	0.538
811.500	481.031	80.005	19.994	103.758	19.982	2.977	0.497
812.000	481.289	80.006	19.994	103.760	19.987	2.604	0.493
812.500	481.567	80.006	19.994	103.761	19.983	2.921	0.524
813.000	481.816	80.007	19.994	103.761	19.984	2.865	0.531
813.500	482.044	80.008	19.993	103.762	19.979	3.208	0.502
814.000	482.293	80.005	19.994	103.763	19.984	2.863	0.477
814.500	482.580	80.007	19.993	103.760	19.982	2.949	0.506
815.000	482.825	80.005	19.992	103.761	19.979	3.210	0.534
815.500	483.066	80.007	19.994	103.760	19.983	2.939	0.509
816.000	483.339	80.005	19.993	103.755	19.982	2.961	0.500
816.500	483.565	80.006	19.993	103.752	19.982	2.977	0.507
817.000	483.855	80.005	19.994	103.753	19.985	2.794	0.508
817.500	484.059	80.005	19.994	103.754	19.983	2.881	0.505
818.000	484.317	80.005	19.993	103.753	19.984	2.873	0.478
818.500	484.585	80.006	19.993	103.758	19.982	2.995	0.494
819.000	484.851	80.006	19.993	103.761	19.984	2.807	0.530
819.500	485.064	80.007	19.994	103.763	19.985	2.746	0.507
820.000	485.341	80.007	19.994	103.763	19.985	2.772	0.485
820.500	485.595	80.007	19.993	103.763	19.986	2.720	0.511
821.000	485.872	80.006	19.994	103.761	19.984	2.831	0.531
821.500	486.084	80.007	19.993	103.762	19.982	2.995	0.509
822.000	486.345	80.008	19.993	103.762	19.985	2.742	0.481
822.500	486.594	80.005	19.993	103.761	19.983	2.947	0.492
823.000	486.852	80.007	19.994	103.765	19.980	3.133	0.509
823.500	487.106	80.008	19.993	103.770	19.985	2.748	0.510
824.000	487.373	80.007	19.995	103.768	19.982	2.999	0.516
824.500	487.636	80.004	19.994	103.769	19.982	3.007	0.525
825.000	487.890	80.006	19.994	103.771	19.982	2.995	0.523
825.500	488.175	80.006	19.994	103.767	19.981	3.094	0.528
826.000	488.423	80.006	19.994	103.762	19.986	2.686	0.537
826.500	488.658	80.007	19.993	103.764	19.980	3.114	0.508
827.000	488.902	80.005	19.993	103.761	19.979	3.246	0.481
827.500	489.152	80.005	19.992	103.758	19.981	3.091	0.487
828.000	489.444	80.006	19.993	103.762	19.981	3.085	0.518
828.500	489.632	80.006	19.996	103.767	19.981	3.075	0.511
829.000	489.924	80.005	19.995	103.770	19.981	3.027	0.480
829.500	490.170	80.006	19.994	103.774	19.980	3.146	0.509
830.000	490.449	80.007	19.993	103.777	19.981	3.086	0.531
830.500	490.703	80.005	19.994	103.776	19.980	3.136	0.529
831.000	490.969	80.005	19.995	103.771	19.980	3.132	0.527
831.500	491.210	80.006	19.994	103.769	19.982	2.981	0.514
832.000	491.491	80.005	19.994	103.765	19.980	3.131	0.515
832.500	491.720	80.005	19.993	103.762	19.981	3.081	0.516
833.000	491.948	80.004	19.994	103.758	19.980	3.116	0.483
833.500	492.207	80.006	19.993	103.757	19.979	3.194	0.472
834.000	492.461	80.006	19.993	103.754	19.981	3.084	0.500
834.500	492.715	80.005	19.992	103.755	19.984	2.815	0.511
835.001	492.967	80.004	19.993	103.760	19.982	2.999	0.507
835.500	493.212	80.005	19.994	103.763	19.984	2.811	0.501
836.000	493.482	80.005	19.993	103.767	19.983	2.925	0.506
836.500	493.740	80.005	19.995	103.772	19.983	2.897	0.522
837.000	493.996	80.008	19.993	103.771	19.983	2.907	0.521
837.500	494.229	80.004	19.994	103.765	19.986	2.704	0.502
838.000	494.519	80.005	19.993	103.763	19.985	2.760	0.506
838.500	494.745	80.005	19.993	103.759	19.984	2.873	0.519
839.000	495.033	80.005	19.993	103.757	19.984	2.861	0.515
839.500	495.295	80.004	19.994	103.762	19.985	2.762	0.532
840.000	495.540	80.007	19.994	103.767	19.982	2.971	0.529
840.500	495.777	80.006	19.993	103.772	19.985	2.752	0.495
841.000	495.984	80.006	19.993	103.772	19.982	2.959	0.463
841.500	496.280	80.005	19.993	103.768	19.985	2.772	0.473
842.000	496.517	80.007	19.994	103.766	19.982	2.951	0.518
842.500	496.764	80.006	19.993	103.765	19.984	2.868	0.508
843.001	497.042	80.005	19.993	103.761	19.983	2.911	0.505
843.500	497.269	80.007	19.993	103.765	19.984	2.861	0.516
844.000	497.538	80.007	19.993	103.772	19.984	2.805	0.500
844.500	497.774	80.007	19.993	103.771	19.985	2.783	0.500
845.000	498.025	80.007	19.993	103.773	19.985	2.761	0.496
845.500	498.305	80.007	19.993	103.774	19.985	2.740	0.509
846.000	498.525	80.005	19.992	103.771	19.983	2.897	0.515
846.500	498.821	80.008	19.993	103.771	19.982	2.995	0.508
847.000	499.087	80.007	19.993	103.773	19.985	2.784	0.539
847.500	499.309	80.007	19.993	103.771	19.982	3.015	0.525
848.000	499.581	80.008	19.994	103.769	19.982	2.977	0.491
848.500	499.863	80.006	19.992	103.769	19.986	2.708	0.524
849.000	500.121	80.006	19.994	103.770	19.986	2.700	0.547
849.500	500.362	80.008	19.993	103.769	19.985	2.774	0.519
850.000	500.592	80.008	19.994	103.770	19.984	2.841	0.485
850.500	500.845	80.008	19.993	103.773	19.984	2.835	0.477
851.000	501.117	80.006	19.993	103.775	19.983	2.925	0.504
851.500	501.390	80.007	19.992	103.769	19.987	2.618	0.535
852.000	501.622	80.005	19.993	103.766	19.986	2.664	0.525
852.500	501.862	80.006	19.992	103.762	19.987	2.590	0.489
853.000	502.138	80.007	19.993	103.759	19.983	2.943	0.494
853.500	502.383	80.008	19.993	103.758	19.983	2.874	0.518
854.000	502.665	80.007	19.993	103.764	19.988	2.541	0.524
854.500	502.906	80.008	19.992	103.769	19.986	2.682	0.525
855.000	503.112	80.007	19.992	103.776	19.984	2.862	0.485
855.500	503.419	80.005	19.992	103.781	19.984	2.812	0.480
856.000	503.666	80.004	19.992	103.779	19.989	2.469	0.534
856.500	503.883	80.005	19.993	103.776	19.987	2.636	0.509
857.000	504.167	80.006	19.992	103.772	19.985	2.728	0.482
857.500	504.429	80.006	19.994	103.771	19.986	2.662	0.524
858.000	504.686	80.006	19.994	103.771	19.987	2.622	0.533
858.500	504.956	80.007	19.992	103.773	19.987	2.628	0.523
859.000	505.182	80.005	19.993	103.773	19.986	2.696	0.511
859.500	505.505	80.006	19.992	103.775	19.983	2.911	0.523
860.000	505.698	80.007	19.993	103.774	19.990	2.419	0.533
860.500	505.963	80.006	19.992	103.772	19.983	2.883	0.487
861.000	506.242	80.005	19.993	103.773	19.986	2.666	0.500
861.500	506.479	80.007	19.992	103.773	19.986	2.710	0.530
862.000	506.769	80.007	19.993	103.771	19.983	2.895	0.522
862.500	507.023	80.006	19.994	103.769	19.988	2.521	0.536
863.000	507.238	80.006	19.993	103.767	19.985	2.766	0.506
863.500	507.481	80.007	19.994	103.764	19.984	2.804	0.464
864.000	507.779	80.009	19.994	103.760	19.985	2.766	0.499
864.500	508.036	80.007	19.994	103.759	19.986	2.664	0.548
865.000	508.317	80.006	19.993	103.760	19.988	2.537	0.547
865.500	508.544	80.008	19.993	103.759	19.984	2.848	0.523
866.000	508.833	80.009	19.993	103.760	19.985	2.748	0.512
866.500	509.088	80.007	19.994	103.762	19.985	2.760	0.530
867.000	509.338	80.008	19.995	103.764	19.985	2.736	0.525
867.500	509.589	80.008	19.993	103.765	19.985	2.764	0.503
868.000	509.878	80.007	19.993	103.767	19.980	3.114	0.521
868.500	510.138	80.010	19.993	103.766	19.985	2.760	0.545
869.000	510.397	80.009	19.993	103.769	19.984	2.863	0.534
869.500	510.662	80.009	19.994	103.770	19.985	2.766	0.521
870.000	510.870	80.008	19.993	103.771	19.984	2.871	0.499
870.500	511.167	80.010	19.994	103.772	19.983	2.877	0.490
871.000	511.406	80.009	19.993	103.771	19.984	2.819	0.521
871.500	511.655	80.008	19.994	103.769	19.986	2.722	0.512
872.000	511.936	80.010	19.993	103.766	19.985	2.744	0.509
872.500	512.177	80.009	19.993	103.762	19.983	2.883	0.526
873.000	512.431	80.008	19.995	103.760	19.984	2.847	0.508
873.500	512.683	80.009	19.994	103.755	19.985	2.782	0.501
874.000	512.915	80.007	19.993	103.755	19.986	2.706	0.495
874.500	513.209	80.008	19.994	103.754	19.984	2.809	0.505
875.000	513.455	80.008	19.993	103.752	19.985	2.738	0.533
875.500	513.717	80.008	19.993	103.754	19.984	2.837	0.524
876.000	513.981	80.009	19.992	103.754	19.985	2.775	0.517
876.500	514.252	80.009	19.993	103.756	19.986	2.710	0.531
877.000	514.541	80.007	19.993	103.759	19.986	2.720	0.548
877.500	514.759	80.008	19.994	103.764	19.985	2.762	0.533
878.000	515.035	80.008	19.992	103.763	19.983	2.909	0.501
878.500	515.288	80.008	19.994	103.769	19.986	2.662	0.512
879.000	515.575	80.007	19.993	103.770	19.987	2.620	0.535
879.500	515.853	80.007	19.996	103.769	19.988	2.560	0.553
880.000	516.114	80.008	19.993	103.768	19.988	2.551	0.552
880.500	516.338	80.006	19.995	103.770	19.987	2.636	0.512
881.000	516.642	80.006	19.994	103.769	19.986	2.692	0.506
881.500	516.873	80.006	19.994	103.769	19.985	2.734	0.531
882.000	517.154	80.008	19.995	103.771	19.986	2.682	0.523
882.500	517.439	80.006	19.994	103.774	19.985	2.734	0.539
883.000	517.658	80.007	19.994	103.776	19.983	2.888	0.535
883.500	517.908	80.007	19.994	103.777	19.987	2.642	0.487
884.000	518.206	80.006	19.993	103.773	19.988	2.535	0.508
884.500	518.449	80.006	19.994	103.770	19.985	2.770	0.545
885.000	518.712	80.005	19.993	103.770	19.988	2.543	0.524
885.500	519.002	80.007	19.995	103.769	19.984	2.822	0.529
886.000	519.257	80.006	19.993	103.769	19.987	2.605	0.549
886.500	519.531	80.006	19.994	103.771	19.987	2.607	0.537
887.000	519.791	80.006	19.994	103.773	19.987	2.622	0.531
887.500	520.032	80.006	19.993	103.769	19.988	2.525	0.517
888.000	520.297	80.004	19.994	103.767	19.988	2.549	0.504
888.500	520.572	80.005	19.995	103.768	19.993	2.136	0.523
889.000	520.876	80.006	19.995	103.771	19.989	2.433	0.560
889.500	521.080	80.004	19.994	103.771	19.993	2.186	0.543
890.000	521.331	80.007	19.994	103.773	19.989	2.453	0.481
890.500	521.612	80.005	19.995	103.770	19.991	2.296	0.493
891.000	521.856	80.006	19.995	103.766	19.986	2.718	0.528
891.500	522.126	80.004	19.995	103.761	19.986	2.692	0.520
892.000	522.402	80.005	19.995	103.758	19.991	2.342	0.530
892.500	522.660	80.005	19.993	103.756	19.991	2.300	0.540
893.000	522.898	80.004	19.994	103.757	19.987	2.611	0.515
893.500	523.193	80.005	19.994	103.754	19.989	2.481	0.515
894.000	523.432	80.008	19.994	103.752	19.988	2.511	0.534
894.500	523.700	80.006	19.994	103.755	19.987	2.576	0.520
895.000	523.939	80.007	19.994	103.757	19.987	2.600	0.507
895.500	524.204	80.006	19.993	103.760	19.984	2.863	0.506
896.000	524.471	80.006	19.994	103.761	19.989	2.449	0.518
896.500	524.740	80.004	19.996	103.762	19.987	2.610	0.534
897.000	524.975	80.005	19.995	103.758	19.990	2.355	0.520
897.500	525.228	80.004	19.994	103.758	19.989	2.435	0.496
898.001	525.489	80.004	19.994	103.757	19.989	2.427	0.501
898.500	525.783	80.006	19.994	103.757	19.989	2.477	0.534
899.000	526.043	80.003	19.993	103.756	19.990	2.399	0.554
899.500	526.297	80.004	19.995	103.761	19.988	2.547	0.534
900.000	526.547	80.006	19.994	103.761	19.987	2.622	0.509
900.500	526.807	80.005	19.994	103.762	19.990	2.379	0.507
901.000	527.079	80.007	19.994	103.761	19.990	2.363	0.521
901.500	527.350	80.004	19.994	103.763	19.988	2.553	0.537
902.000	527.596	80.004	19.995	103.758	19.993	2.186	0.530
902.500	527.851	80.006	19.994	103.754	19.988	2.509	0.509
903.000	528.152	80.006	19.993	103.750	19.991	2.302	0.529
903.500	528.408	80.006	19.994	103.749	19.989	2.445	0.557
904.000	528.648	80.004	19.994	103.751	19.990	2.399	0.526
904.500	528.907	80.005	19.994	103.758	19.989	2.467	0.497
905.000	529.189	80.003	19.994	103.765	19.990	2.417	0.520
905.500	529.402	80.005	19.994	103.770	19.989	2.455	0.518
906.000	529.673	80.006	19.994	103.775	19.990	2.407	0.490
906.500	529.929	80.005	19.994	103.777	19.989	2.479	0.505
907.000	530.192	80.005	19.994	103.773	19.991	2.345	0.523
907.500	530.460	80.004	19.994	103.767	19.989	2.471	0.525
908.000	530.721	80.005	19.994	103.765	19.990	2.377	0.530
908.500	531.007	80.006	19.993	103.764	19.989	2.497	0.538
909.000	531.223	80.006	19.995	103.761	19.987	2.610	0.525
909.500	531.476	80.004	19.994	103.761	19.990	2.387	0.485
910.000	531.764	80.004	19.995	103.764	19.989	2.467	0.505
910.500	532.012	80.004	19.994	103.764	19.988	2.502	0.539
911.000	532.292	80.006	19.993	103.762	19.988	2.502	0.532
911.500	532.540	80.005	19.994	103.762	19.988	2.544	0.528
912.000	532.830	80.004	19.994	103.759	19.988	2.548	0.533
912.500	533.052	80.006	19.993	103.759	19.986	2.674	0.525
913.000	533.310	80.006	19.992	103.756	19.991	2.307	0.496
913.500	533.597	80.006	19.994	103.756	19.990	2.357	0.513
914.000	533.824	80.006	19.993	103.756	19.987	2.616	0.530
914.500	534.080	80.004	19.993	103.762	19.989	2.451	0.499
915.000	534.362	80.006	19.993	103.766	19.989	2.463	0.511
915.500	534.659	80.006	19.994	103.769	19.989	2.479	0.558
916.000	534.916	80.005	19.993	103.774	19.992	2.240	0.566
916.500	535.186	80.005	19.993	103.776	19.991	2.319	0.540
917.000	535.462	80.007	19.993	103.772	19.987	2.636	0.537
917.500	535.712	80.006	19.993	103.768	19.989	2.489	0.536
918.000	535.969	80.004	19.994	103.765	19.986	2.686	0.516
918.500	536.218	80.005	19.993	103.764	19.987	2.584	0.506
919.000	536.488	80.007	19.994	103.764	19.988	2.558	0.513
919.500	536.758	80.004	19.994	103.764	19.985	2.726	0.530
920.000	537.048	80.006	19.995	103.768	19.989	2.467	0.550
920.500	537.271	80.004	19.995	103.774	19.990	2.365	0.536
921.000	537.570	80.006	19.992	103.774	19.986	2.714	0.518
921.500	537.806	80.006	19.993	103.776	19.986	2.678	0.529
922.000	538.080	80.006	19.993	103.776	19.991	2.294	0.522
922.500	538.360	80.005	19.993	103.773	19.987	2.611	0.532
923.000	538.599	80.006	19.993	103.769	19.990	2.389	0.537
923.500	538.877	80.008	19.994	103.772	19.987	2.609	0.518
924.000	539.160	80.007	19.992	103.776	19.989	2.431	0.539
924.500	539.442	80.009	19.993	103.779	19.991	2.342	0.563
925.000	539.697	80.007	19.993	103.777	19.989	2.499	0.552
925.500	539.934	80.008	19.994	103.774	19.991	2.326	0.515
926.000	540.190	80.008	19.993	103.768	19.991	2.282	0.492
926.500	540.484	80.006	19.994	103.766	19.992	2.224	0.521
927.000	540.743	80.007	19.993	103.764	19.991	2.332	0.552
927.500	540.981	80.008	19.994	103.764	19.988	2.539	0.525
928.000	541.260	80.008	19.994	103.766	19.991	2.340	0.507
928.500	541.556	80.007	19.994	103.769	19.989	2.435	0.546
929.000	541.778	80.007	19.993	103.769	19.987	2.621	0.546
929.500	542.041	80.006	19.992	103.769	19.986	2.710	0.501
930.000	542.284	80.007	19.994	103.772	19.989	2.467	0.496
930.500	542.554	80.009	19.993	103.775	19.984	2.844	0.510
931.000	542.823	80.007	19.994	103.772	19.988	2.555	0.526
931.500	543.113	80.007	19.993	103.770	19.987	2.579	0.549
932.000	543.353	80.009	19.993	103.768	19.986	2.686	0.544
932.500	543.623	80.008	19.993	103.761	19.988	2.507	0.520
933.000	543.880	80.007	19.992	103.755	19.986	2.654	0.518
933.500	544.145	80.006	19.993	103.752	19.988	2.552	0.524
934.000	544.401	80.007	19.994	103.750	19.987	2.622	0.521
934.500	544.655	80.008	19.992	103.748	19.985	2.788	0.515
935.000	544.907	80.009	19.994	103.749	19.986	2.708	0.508
935.500	545.184	80.009	19.994	103.749	19.990	2.409	0.518
936.000	545.457	80.007	19.992	103.748	19.988	2.545	0.539
936.500	545.676	80.008	19.994	103.747	19.987	2.631	0.520
937.000	545.941	80.009	19.993	103.747	19.987	2.595	0.488
937.500	546.215	80.007	19.992	103.748	19.984	2.832	0.512
938.000	546.485	80.006	19.993	103.751	19.985	2.766	0.542
938.500	546.699	80.007	19.994	103.754	19.988	2.561	0.514
939.000	547.031	80.008	19.994	103.756	19.986	2.692	0.515
939.500	547.291	80.008	19.992	103.756	19.989	2.427	0.570
940.000	547.556	80.007	19.993	103.754	19.987	2.612	0.559
940.500	547.804	80.007	19.993	103.752	19.987	2.597	0.519
941.000	548.038	80.006	19.992	103.754	19.987	2.640	0.498
941.500	548.321	80.008	19.994	103.753	19.988	2.503	0.500
942.000	548.590	80.007	19.993	103.755	19.987	2.619	0.534
942.500	548.824	80.008	19.993	103.762	19.986	2.669	0.527
943.000	549.095	80.008	19.993	103.769	19.985	2.746	0.504
943.500	549.363	80.008	19.992	103.772	19.984	2.862	0.522
944.000	549.659	80.007	19.992	103.777	19.985	2.734	0.552
944.500	549.849	80.006	19.994	103.774	19.988	2.503	0.525
945.000	550.124	80.008	19.992	103.769	19.989	2.487	0.475
945.500	550.410	80.009	19.993	103.763	19.991	2.344	0.513
946.000	550.674	80.010	19.992	103.756	19.988	2.567	0.556
946.500	550.924	80.007	19.991	103.750	19.985	2.754	0.532
947.000	551.225	80.009	19.993	103.749	19.993	2.172	0.532
947.500	551.459	80.008	19.991	103.748	19.987	2.581	0.543
948.000	551.737	80.009	19.993	103.749	19.990	2.419	0.524
948.500	551.976	80.008	19.994	103.753	19.988	2.533	0.514
949.000	552.247	80.008	19.992	103.758	19.993	2.184	0.513
949.500	552.466	80.009	19.993	103.759	19.990	2.354	0.501
950.000	552.742	80.009	19.993	103.764	19.989	2.497	0.492
950.500	552.997	80.009	19.995	103.767	19.988	2.563	0.512
951.000	553.255	80.008	19.994	103.762	19.986	2.653	0.522
951.500	553.533	80.009	19.993	103.758	19.989	2.433	0.525
952.001	553.752	80.008	19.993	103.755	19.989	2.433	0.516
952.501	554.042	80.009	19.992	103.749	19.989	2.459	0.503
953.000	554.306	80.010	19.994	103.745	19.988	2.549	0.532
953.500	554.555	80.009	19.993	103.745	19.990	2.387	0.534
954.000	554.845	80.008	19.993	103.746	19.987	2.614	0.526
954.500	555.069	80.011	19.993	103.748	19.987	2.593	0.526
955.000	555.364	80.008	19.993	103.749	19.989	2.487	0.516
955.500	555.586	80.010	19.993	103.751	19.989	2.483	0.518
956.000	555.877	80.008	19.993	103.754	19.986	2.649	0.515
956.500	556.156	80.008	19.992	103.754	19.989	2.491	0.542
957.000	556.343	80.010	19.992	103.755	19.989	2.445	0.518
957.500	556.622	80.007	19.993	103.760	19.988	2.501	0.466
958.000	556.891	80.008	19.993	103.759	19.990	2.371	0.507
958.500	557.132	80.009	19.993	103.756	19.990	2.397	0.529
959.000	557.415	80.008	19.993	103.755	19.990	2.423	0.517
959.500	557.726	80.008	19.992	103.756	19.989	2.487	0.558
960.000	557.936	80.007	19.992	103.756	19.989	2.495	0.557
960.500	558.211	80.007	19.994	103.754	19.992	2.254	0.503
961.000	558.425	80.007	19.993	103.754	19.992	2.272	0.487
961.500	558.703	80.007	19.993	103.754	19.990	2.372	0.491
962.000	558.963	80.008	19.994	103.750	19.990	2.419	0.515
962.500	559.236	80.006	19.993	103.748	19.989	2.465	0.535
963.000	559.482	80.008	19.993	103.752	19.990	2.387	0.526
963.500	559.759	80.006	19.994	103.752	19.991	2.344	0.521
964.000	559.988	80.006	19.993	103.755	19.991	2.338	0.515
964.500	560.225	80.007	19.995	103.759	19.990	2.362	0.486
965.000	560.510	80.006	19.994	103.758	19.986	2.722	0.494
965.500	560.763	80.005	19.994	103.757	19.990	2.421	0.530
966.000	560.995	80.006	19.994	103.757	19.990	2.350	0.511
966.500	561.275	80.004	19.995	103.755	19.991	2.316	0.498
967.000	561.512	80.007	19.993	103.751	19.988	2.501	0.515
967.500	561.788	80.006	19.993	103.750	19.991	2.321	0.515
968.000	562.042	80.006	19.994	103.748	19.992	2.254	0.521
968.500	562.293	80.006	19.994	103.750	19.992	2.216	0.517
969.000	562.544	80.005	19.993	103.755	19.991	2.298	0.504
969.500	562.815	80.007	19.994	103.756	19.990	2.407	0.512
970.000	563.103	80.006	19.994	103.755	19.990	2.377	0.541
970.500	563.314	80.006	19.994	103.754	19.989	2.461	0.529
971.000	563.557	80.005	19.994	103.752	19.990	2.389	0.477
971.500	563.842	80.006	19.994	103.747	19.991	2.302	0.491
972.000	564.095	80.007	19.993	103.746	19.990	2.390	0.532
972.500	564.356	80.006	19.994	103.746	19.987	2.615	0.526
973.000	564.585	80.005	19.993	103.749	19.990	2.380	0.503
973.500	564.817	80.007	19.993	103.753	19.988	2.535	0.475
974.000	565.076	80.007	19.993	103.753	19.986	2.649	0.476
974.500	565.359	80.007	19.994	103.753	19.987	2.603	0.516
975.000	565.584	80.009	19.993	103.754	19.986	2.656	0.525
975.500	565.871	80.006	19.993	103.751	19.988	2.527	0.510
976.000	566.127	80.007	19.994	103.748	19.990	2.417	0.527
976.500	566.367	80.006	19.993	103.749	19.988	2.511	0.520
977.000	566.623	80.006	19.994	103.753	19.986	2.650	0.496
977.500	566.888	80.005	19.994	103.758	19.987	2.637	0.509
978.000	567.131	80.007	19.992	103.760	19.986	2.712	0.514
978.500	567.370	80.005	19.993	103.762	19.985	2.768	0.495
979.000	567.603	80.006	19.992	103.764	19.986	2.688	0.477
979.500	567.879	80.006	19.993	103.761	19.988	2.529	0.491
980.000	568.183	80.006	19.993	103.756	19.989	2.455	0.544
980.500	568.408	80.006	19.993	103.754	19.988	2.521	0.555
981.000	568.662	80.007	19.993	103.753	19.987	2.577	0.504
981.500	568.926	80.005	19.992	103.752	19.986	2.710	0.498
982.000	569.177	80.005	19.993	103.750	19.986	2.666	0.517
982.500	569.431	80.006	19.993	103.749	19.986	2.690	0.510
983.000	569.707	80.006	19.993	103.748	19.989	2.445	0.517
983.500	569.949	80.005	19.994	103.748	19.988	2.549	0.524
984.000	570.219	80.007	19.994	103.748	19.987	2.636	0.515
984.500	570.467	80.004	19.994	103.749	19.989	2.491	0.515
985.000	570.720	80.006	19.994	103.750	19.987	2.601	0.509
985.500	570.937	80.005	19.993	103.753	19.987	2.645	0.485
986.000	571.221	80.005	19.993	103.753	19.989	2.455	0.486
986.500	571.447	80.005	19.994	103.757	19.986	2.666	0.506
987.000	571.692	80.006	19.993	103.758	19.986	2.684	0.490
987.501	571.945	80.006	19.993	103.756	19.985	2.742	0.485
988.001	572.173	80.006	19.994	103.754	19.988	2.501	0.490
988.500	572.449	80.006	19.993	103.753	19.987	2.637	0.492
989.000	572.753	80.004	19.993	103.749	19.990	2.400	0.542
989.500	572.990	80.004	19.993	103.747	19.987	2.645	0.561
990.000	573.212	80.005	19.994	103.747	19.987	2.583	0.500
990.500	573.509	80.003	19.994	103.746	19.985	2.776	0.489
991.000	573.782	80.004	19.994	103.747	19.988	2.551	0.545
991.500	574.016	80.006	19.994	103.747	19.987	2.609	0.538
992.000	574.246	80.005	19.995	103.747	19.988	2.539	0.485
992.500	574.534	80.005	19.994	103.750	19.991	2.346	0.491
993.000	574.777	80.005	19.994	103.751	19.989	2.457	0.524
993.500	575.074	80.003	19.996	103.755	19.986	2.696	0.536
994.000	575.326	80.005	19.995	103.757	19.989	2.485	0.544
994.500	575.570	80.004	19.997	103.757	19.991	2.340	0.522
995.000	575.828	80.005	19.995	103.755	19.992	2.256	0.499
995.500	576.061	80.005	19.995	103.755	19.987	2.613	0.497
996.000	576.329	80.005	19.995	103.751	19.990	2.392	0.496
996.500	576.589	80.005	19.994	103.749	19.991	2.310	0.514
997.000	576.836	80.007	19.994	103.751	19.989	2.487	0.517
997.500	577.080	80.006	19.994	103.756	19.989	2.473	0.499
998.000	577.326	80.006	19.994	103.756	19.989	2.441	0.491
998.500	577.592	80.004	19.995	103.757	19.995	1.993	0.501
999.000	577.842	80.007	19.993	103.755	19.992	2.222	0.514
999.500	578.111	80.007	19.993	103.753	19.991	2.324	0.518
1000.000	578.342	80.006	19.994	103.747	19.989	2.453	0.510
1000.500	578.591	80.008	19.993	103.745	19.989	2.469	0.491
1001.000	578.849	80.006	19.994	103.744	19.986	2.691	0.493
1001.500	579.093	80.005	19.994	103.744	19.987	2.619	0.504
1002.000	579.381	80.006	19.995	103.743	19.987	2.607	0.517
1002.500	579.640	80.007	19.994	103.744	19.988	2.523	0.539
1003.000	579.886	80.006	19.992	103.746	19.988	2.553	0.526
1003.500	580.118	80.006	19.994	103.746	19.987	2.623	0.492
1004.000	580.349	80.009	19.994	103.747	19.991	2.338	0.471
1004.500	580.608	80.006	19.994	103.748	19.988	2.545	0.476
1005.000	580.871	80.007	19.993	103.748	19.987	2.595	0.506
1005.501	581.168	80.007	19.993	103.745	19.988	2.571	0.541
1006.001	581.393	80.008	19.994	103.745	19.987	2.635	0.541
1006.501	581.667	80.007	19.993	103.744	19.987	2.609	0.510
1007.000	581.931	80.008	19.993	103.744	19.986	2.652	0.519
1007.500	582.120	80.007	19.993	103.744	19.987	2.585	0.496
1008.000	582.450	80.009	19.994	103.744	19.987	2.583	0.486
1008.500	582.678	80.009	19.995	103.746	19.987	2.640	0.538
1009.000	582.912	80.010	19.994	103.754	19.986	2.660	0.510
1009.500	583.193	80.008	19.994	103.758	19.988	2.543	0.489
1010.000	583.416	80.009	19.994	103.758	19.986	2.710	0.510
1010.500	583.695	80.010	19.995	103.758	19.989	2.443	0.503
1011.000	583.954	80.007	19.994	103.756	19.989	2.457	0.520
1011.500	584.163	80.008	19.993	103.749	19.985	2.742	0.503
1012.000	584.443	80.009	19.993	103.744	19.986	2.708	0.479
1012.500	584.752	80.009	19.993	103.747	19.988	2.507	0.539
1013.000	584.975	80.008	19.993	103.749	19.985	2.748	0.560
1013.500	585.221	80.008	19.993	103.751	19.986	2.708	0.501
1014.000	585.466	80.009	19.993	103.752	19.988	2.543	0.480
1014.500	585.719	80.009	19.993	103.752	19.989	2.485	0.494
1015.000	585.999	80.009	19.994	103.750	19.989	2.449	0.515
1015.500	586.225	80.010	19.993	103.749	19.986	2.672	0.519
1016.000	586.492	80.007	19.993	103.749	19.988	2.537	0.500
1016.500	586.716	80.008	19.994	103.752	19.986	2.651	0.492
1017.000	586.999	80.008	19.994	103.753	19.989	2.483	0.499
1017.500	587.232	80.009	19.994	103.754	19.987	2.627	0.511
1018.000	587.475	80.007	19.992	103.758	19.987	2.601	0.496
1018.500	587.787	80.007	19.994	103.757	19.988	2.523	0.515
1019.000	588.019	80.006	19.994	103.754	19.984	2.824	0.549
1019.500	588.275	80.008	19.992	103.756	19.987	2.603	0.516
1020.000	588.504	80.007	19.994	103.756	19.988	2.539	0.487
1020.501	588.746	80.007	19.994	103.752	19.989	2.495	0.478
1021.000	589.012	80.006	19.994	103.752	19.991	2.304	0.489
1021.500	589.274	80.008	19.994	103.751	19.986	2.708	0.518
1022.000	589.523	80.008	19.993	103.749	19.984	2.800	0.519
1022.500	589.800	80.007	19.996	103.749	19.985	2.786	0.519
1023.000	590.100	80.007	19.994	103.748	19.989	2.483	0.552
1023.500	590.346	80.007	19.993	103.748	19.984	2.808	0.561
1024.000	590.616	80.007	19.994	103.747	19.983	2.874	0.531
1024.500	590.837	80.009	19.993	103.748	19.988	2.533	0.504
1025.000	591.080	80.009	19.994	103.749	19.985	2.788	0.478
1025.500	591.335	80.009	19.993	103.750	19.985	2.750	0.481
1026.000	591.624	80.007	19.994	103.750	19.988	2.531	0.521
1026.500	591.834	80.009	19.994	103.751	19.986	2.714	0.522
1027.000	592.101	80.008	19.993	103.752	19.989	2.495	0.488
1027.500	592.382	80.008	19.993	103.752	19.986	2.668	0.513
1028.000	592.603	80.008	19.994	103.751	19.989	2.451	0.525
1028.500	592.907	80.010	19.993	103.751	19.990	2.355	0.513
1029.000	593.121	80.008	19.993	103.751	19.988	2.531	0.521
1029.500	593.410	80.008	19.993	103.751	19.988	2.527	0.511
1030.000	593.655	80.008	19.993	103.751	19.988	2.541	0.519
1030.501	593.950	80.010	19.993	103.752	19.990	2.387	0.537
1031.001	594.182	80.010	19.993	103.752	19.993	2.194	0.533
1031.500	594.502	80.008	19.994	103.751	19.986	2.676	0.539
1032.000	594.715	80.008	19.993	103.748	19.985	2.744	0.543
1032.500	594.965	80.009	19.993	103.747	19.986	2.659	0.498
1033.000	595.262	80.008	19.993	103.748	19.987	2.635	0.505
1033.500	595.473	80.009	19.993	103.748	19.984	2.816	0.527
1034.000	595.735	80.009	19.992	103.748	19.987	2.625	0.490
1034.500	595.998	80.009	19.993	103.749	19.986	2.677	0.499
1035.000	596.257	80.010	19.993	103.749	19.988	2.561	0.524
1035.500	596.515	80.008	19.993	103.748	19.985	2.776	0.520
1036.000	596.762	80.009	19.993	103.747	19.985	2.728	0.511
1036.500	597.023	80.009	19.993	103.747	19.985	2.782	0.506
1037.000	597.277	80.010	19.993	103.748	19.987	2.643	0.512
1037.500	597.559	80.008	19.992	103.750	19.989	2.455	0.526
1038.000	597.804	80.010	19.993	103.754	19.989	2.477	0.532
1038.500	598.001	80.010	19.992	103.755	19.986	2.722	0.484
1039.000	598.300	80.007	19.992	103.756	19.987	2.641	0.469
1039.500	598.549	80.007	19.994	103.755	19.981	3.051	0.522
1040.000	598.822	80.007	19.993	103.752	19.984	2.844	0.535
1040.500	599.073	80.007	19.994	103.750	19.987	2.589	0.523
1041.000	599.335	80.008	19.992	103.750	19.984	2.870	0.519
1041.500	599.583	80.007	19.993	103.750	19.984	2.836	0.511
1042.000	599.851	80.007	19.992	103.750	19.985	2.738	0.513
1042.500	600.102	80.007	19.994	103.751	19.985	2.786	0.518
1043.000	600.361	80.006	19.993	103.749	19.984	2.802	0.514
1043.500	600.602	80.006	19.994	103.748	19.984	2.822	0.505
1044.000	600.870	80.006	19.994	103.747	19.986	2.698	0.505
1044.500	601.096	80.006	19.994	103.746	19.985	2.796	0.502
1045.000	601.361	80.006	19.993	103.747	19.985	2.754	0.492
1045.500	601.577	80.006	19.995	103.747	19.987	2.597	0.486
1046.000	601.864	80.007	19.993	103.748	19.987	2.613	0.492
1046.500	602.091	80.007	19.993	103.750	19.988	2.567	0.509
1047.000	602.352	80.007	19.994	103.751	19.989	2.481	0.501
1047.500	602.576	80.006	19.991	103.753	19.990	2.408	0.487
1048.000	602.868	80.006	19.993	103.752	19.984	2.862	0.501
1048.500	603.118	80.007	19.994	103.753	19.986	2.677	0.529
1049.000	603.341	80.005	19.993	103.752	19.984	2.836	0.508
1049.500	603.623	80.005	19.993	103.751	19.988	2.571	0.489
1050.000	603.872	80.006	19.992	103.751	19.986	2.712	0.518
1050.500	604.120	80.005	19.994	103.753	19.986	2.655	0.513
1051.000	604.389	80.006	19.995	103.754	19.986	2.686	0.507
1051.500	604.654	80.004	19.993	103.757	19.991	2.280	0.526
1052.000	604.880	80.005	19.994	103.758	19.988	2.549	0.513
1052.500	605.116	80.006	19.993	103.757	19.989	2.461	0.477
1053.000	605.365	80.006	19.994	103.755	19.988	2.529	0.474
1053.501	605.628	80.006	19.994	103.753	19.989	2.465	0.499
1054.001	605.853	80.008	19.994	103.752	19.987	2.629	0.500
1054.500	606.161	80.006	19.993	103.752	19.986	2.691	0.510
1055.000	606.387	80.006	19.994	103.752	19.988	2.557	0.534
1055.500	606.648	80.006	19.995	103.752	19.985	2.738	0.510
1056.000	606.905	80.006	19.994	103.752	19.987	2.641	0.503
1056.500	607.111	80.007	19.994	103.748	19.986	2.712	0.491
1057.000	607.399	80.006	19.994	103.746	19.987	2.633	0.478
1057.500	607.641	80.006	19.995	103.744	19.985	2.782	0.512
1058.000	607.875	80.006	19.994	103.744	19.982	2.965	0.503
1058.500	608.141	80.006	19.995	103.743	19.986	2.672	0.488
1059.000	608.415	80.007	19.994	103.745	19.985	2.794	0.520
1059.500	608.650	80.006	19.994	103.745	19.985	2.790	0.524
1060.000	608.907	80.007	19.995	103.745	19.985	2.780	0.500
1060.501	609.147	80.007	19.994	103.744	19.985	2.734	0.494
1061.001	609.439	80.005	19.994	103.746	19.984	2.848	0.514
1061.501	609.660	80.007	19.993	103.746	19.982	2.988	0.523
1062.001	609.943	80.006	19.995	103.747	19.984	2.868	0.509
1062.500	610.197	80.006	19.995	103.748	19.983	2.908	0.521
1063.001	610.410	80.007	19.993	103.749	19.983	2.906	0.502
1063.501	610.662	80.007	19.993	103.749	19.979	3.228	0.466
1064.001	610.934	80.006	19.994	103.747	19.980	3.121	0.494
1064.501	611.158	80.006	19.994	103.746	19.985	2.752	0.510
1065.000	611.439	80.007	19.993	103.746	19.981	3.057	0.500
1065.500	611.711	80.008	19.993	103.745	19.981	3.035	0.529
1066.000	611.940	80.006	19.993	103.743	19.979	3.222	0.527
1066.500	612.206	80.008	19.993	103.744	19.983	2.909	0.498
1067.000	612.451	80.008	19.993	103.744	19.980	3.115	0.503
1067.500	612.670	80.006	19.993	103.745	19.980	3.153	0.488
1068.000	612.958	80.007	19.995	103.745	19.977	3.388	0.486
1068.500	613.224	80.006	19.994	103.749	19.980	3.145	0.531
1069.001	613.472	80.008	19.993	103.751	19.979	3.210	0.534
1069.501	613.725	80.007	19.994	103.755	19.980	3.151	0.507
1070.001	613.980	80.008	19.995	103.759	19.980	3.099	0.504
1070.501	614.231	80.006	19.994	103.759	19.983	2.907	0.507
1071.001	614.478	80.007	19.994	103.754	19.982	2.965	0.502
1071.501	614.699	80.006	19.995	103.753	19.984	2.848	0.483
1072.000	615.019	80.004	19.994	103.748	19.986	2.655	0.505
1072.500	615.253	80.007	19.994	103.744	19.986	2.714	0.548
1073.000	615.526	80.006	19.993	103.745	19.983	2.894	0.531
1073.500	615.790	80.006	19.994	103.746	19.983	2.944	0.522
1074.000	616.023	80.006	19.994	103.749	19.982	2.995	0.517
1074.500	616.271	80.007	19.993	103.752	19.983	2.878	0.489
1075.000	616.523	80.006	19.995	103.756	19.984	2.840	0.491
1075.500	616.767	80.006	19.993	103.757	19.985	2.798	0.498
1076.000	617.003	80.007	19.994	103.758	19.986	2.694	0.488
1076.501	617.261	80.006	19.994	103.760	19.982	2.997	0.487
1077.001	617.546	80.006	19.993	103.762	19.982	2.971	0.518
1077.500	617.781	80.005	19.995	103.758	19.982	2.977	0.532
1078.000	618.031	80.006	19.993	103.756	19.982	2.997	0.503
1078.500	618.300	80.007	19.995	103.755	19.982	2.987	0.502
1079.000	618.539	80.005	19.994	103.749	19.978	3.278	0.513
1079.501	618.800	80.006	19.995	103.747	19.982	2.971	0.504
1080.001	619.045	80.004	19.995	103.753	19.978	3.253	0.503
1080.500	619.278	80.008	19.995	103.756	19.982	2.994	0.492
1081.000	619.539	80.007	19.994	103.757	19.981	3.035	0.487
1081.500	619.805	80.006	19.995	103.759	19.981	3.025	0.511
1082.000	620.059	80.006	19.994	103.757	19.980	3.103	0.523
1082.500	620.312	80.006	19.996	103.751	19.981	3.063	0.513
1083.000	620.577	80.007	19.994	103.747	19.980	3.165	0.512
1083.500	620.844	80.007	19.994	103.745	19.979	3.192	0.525
1084.000	621.107	80.005	19.996	103.743	19.980	3.148	0.532
1084.501	621.319	80.007	19.994	103.743	19.982	2.977	0.503
1085.001	621.597	80.007	19.995	103.745	19.981	3.095	0.482
1085.500	621.866	80.007	19.994	103.750	19.983	2.883	0.518
1086.000	622.109	80.007	19.994	103.755	19.979	3.194	0.529
1086.501	622.374	80.007	19.994	103.757	19.979	3.225	0.510
1087.001	622.652	80.008	19.994	103.760	19.985	2.746	0.526
1087.501	622.894	80.007	19.993	103.759	19.983	2.890	0.531
1088.001	623.147	80.007	19.993	103.755	19.981	3.055	0.507
1088.501	623.415	80.007	19.995	103.752	19.980	3.133	0.508
1089.001	623.622	80.008	19.994	103.753	19.977	3.362	0.498
1089.502	623.932	80.008	19.995	103.749	19.980	3.165	0.496
1090.001	624.169	80.007	19.994	103.748	19.981	3.081	0.532
1090.500	624.451	80.009	19.994	103.748	19.980	3.171	0.533
1091.000	624.671	80.008	19.994	103.745	19.979	3.179	0.510
1091.500	624.927	80.007	19.994	103.743	19.979	3.200	0.489
1092.000	625.193	80.008	19.994	103.744	19.979	3.191	0.499
1092.500	625.449	80.007	19.993	103.744	19.981	3.033	0.522
1093.000	625.679	80.008	19.994	103.745	19.981	3.043	0.504
1093.501	625.940	80.007	19.993	103.746	19.980	3.129	0.489
1094.001	626.191	80.007	19.993	103.751	19.980	3.125	0.501
1094.500	626.489	80.008	19.992	103.756	19.979	3.238	0.530
1095.000	626.701	80.009	19.993	103.763	19.981	3.035	0.530
1095.500	627.021	80.007	19.993	103.765	19.979	3.219	0.521
1096.000	627.233	80.007	19.994	103.765	19.982	2.987	0.531
1096.500	627.461	80.007	19.993	103.761	19.981	3.055	0.486
1097.000	627.730	80.007	19.993	103.756	19.981	3.097	0.469
1097.500	627.975	80.006	19.992	103.749	19.980	3.099	0.505
1098.000	628.258	80.006	19.993	103.747	19.981	3.095	0.521
1098.500	628.470	80.008	19.993	103.746	19.979	3.179	0.512
1099.000	628.762	80.008	19.993	103.747	19.982	3.011	0.499
1099.500	628.996	80.007	19.993	103.747	19.980	3.163	0.515
1100.000	629.258	80.006	19.992	103.748	19.982	3.009	0.511
1100.500	629.517	80.007	19.993	103.749	19.983	2.878	0.508
1101.000	629.751	80.008	19.992	103.749	19.980	3.155	0.507
1101.500	630.022	80.007	19.995	103.751	19.979	3.244	0.499
1102.000	630.308	80.008	19.994	103.752	19.978	3.314	0.531
1102.500	630.519	80.007	19.994	103.753	19.981	3.079	0.527
1103.000	630.799	80.006	19.992	103.754	19.981	3.089	0.494
1103.500	631.049	80.007	19.993	103.754	19.984	2.824	0.510
1104.000	631.355	80.007	19.994	103.753	19.984	2.814	0.543
1104.501	631.568	80.006	19.993	103.752	19.982	3.013	0.538
1105.001	631.801	80.007	19.993	103.750	19.984	2.802	0.482
1105.500	632.075	80.007	19.993	103.750	19.981	3.069	0.476
1106.000	632.330	80.008	19.992	103.750	19.981	3.023	0.518
1106.500	632.589	80.008	19.993	103.749	19.981	3.085	0.522
1107.000	632.830	80.006	19.992	103.749	19.985	2.728	0.507
1107.500	633.093	80.006	19.991	103.749	19.982	2.958	0.502
1108.000	633.354	80.006	19.993	103.748	19.984	2.854	0.514
1108.500	633.622	80.009	19.993	103.747	19.983	2.878	0.526
1109.000	633.905	80.007	19.992	103.747	19.984	2.818	0.540
1109.500	634.103	80.008	19.994	103.746	19.985	2.752	0.516
1110.000	634.379	80.007	19.992	103.747	19.986	2.705	0.477
1110.500	634.653	80.008	19.993	103.751	19.982	2.948	0.512
1111.000	634.911	80.008	19.992	103.753	19.985	2.798	0.541
1111.500	635.167	80.007	19.993	103.753	19.981	3.041	0.523
1112.000	635.435	80.007	19.992	103.754	19.984	2.838	0.519
1112.500	635.701	80.009	19.993	103.756	19.981	3.089	0.529
1113.000	635.953	80.008	19.992	103.756	19.982	2.974	0.526
1113.500	636.194	80.008	19.993	103.758	19.982	3.001	0.505
1114.000	636.444	80.008	19.993	103.759	19.983	2.892	0.492
1114.500	636.715	80.008	19.993	103.758	19.983	2.930	0.506
1115.000	636.984	80.008	19.994	103.755	19.983	2.922	0.530
1115.500	637.198	80.009	19.993	103.751	19.985	2.778	0.512
1116.000	637.435	80.008	19.992	103.747	19.982	2.997	0.467
1116.500	637.703	80.008	19.992	103.746	19.981	3.043	0.478
1117.000	637.943	80.007	19.993	103.746	19.983	2.934	0.507
1117.501	638.227	80.008	19.993	103.746	19.981	3.035	0.516
1118.001	638.466	80.008	19.993	103.745	19.981	3.041	0.524
1118.500	638.761	80.010	19.993	103.746	19.980	3.123	0.528
1119.000	639.017	80.009	19.993	103.746	19.981	3.087	0.542
1119.500	639.276	80.008	19.992	103.745	19.981	3.037	0.533
1120.000	639.551	80.008	19.993	103.745	19.981	3.061	0.525
1120.500	639.785	80.008	19.993	103.745	19.981	3.075	0.522
1121.000	640.040	80.007	19.993	103.744	19.982	2.965	0.499
1121.500	640.300	80.007	19.993	103.744	19.983	2.882	0.501
1122.000	640.535	80.007	19.992	103.744	19.981	3.083	0.505
1122.500	640.806	80.005	19.993	103.745	19.981	3.029	0.501
1123.000	641.084	80.006	19.994	103.745	19.985	2.738	0.527
1123.500	641.345	80.007	19.993	103.745	19.981	3.089	0.544
1124.000	641.577	80.007	19.993	103.744	19.985	2.780	0.517
1124.500	641.842	80.007	19.993	103.744	19.997	1.828	0.495
1125.000	642.114	80.008	19.993	103.745	19.987	2.599	0.517
1125.500	642.375	80.008	19.993	103.745	19.996	1.935	0.535
1126.000	642.607	80.006	19.993	103.745	19.983	2.884	0.513
1126.500	642.882	80.007	19.992	103.746	19.989	2.467	0.500
1127.000	643.120	80.005	19.993	103.746	19.986	2.693	0.510
1127.500	643.384	80.006	19.993	103.744	19.984	2.840	0.508
1128.000	643.625	80.006	19.994	103.745	19.987	2.589	0.503
1128.500	643.917	80.006	19.995	103.751	19.990	2.394	0.519
1129.000	644.168	80.007	19.993	103.755	19.995	1.993	0.538
1129.500	644.430	80.006	19.994	103.758	19.993	2.192	0.529
1130.000	644.709	80.007	19.994	103.762	19.987	2.587	0.527
1130.500	644.904	80.005	19.993	103.762	19.985	2.752	0.507
1131.000	645.170	80.006	19.994	103.757	19.985	2.764	0.467
1131.500	645.423	80.007	19.994	103.752	19.981	3.079	0.490
1132.000	645.692	80.006	19.994	103.750	19.977	3.380	0.520
1132.500	645.907	80.006	19.993	103.746	19.982	3.003	0.503
1133.001	646.188	80.007	19.993	103.745	19.982	3.019	0.491
1133.501	646.485	80.006	19.993	103.745	19.982	3.011	0.537
1134.001	646.706	80.007	19.993	103.743	19.985	2.746	0.548
1134.501	646.947	80.008	19.994	103.744	19.985	2.736	0.490
1135.001	647.214	80.008	19.993	103.743	19.982	2.958	0.485
1135.501	647.495	80.007	19.993	103.744	19.984	2.844	0.529
1136.001	647.734	80.006	19.993	103.744	19.982	3.017	0.534
1136.501	647.997	80.007	19.993	103.744	19.980	3.111	0.510
1137.000	648.253	80.007	19.994	103.744	19.983	2.894	0.511
1137.500	648.475	80.007	19.994	103.744	19.983	2.874	0.499
1138.000	648.805	80.008	19.993	103.745	19.983	2.918	0.515
1138.500	649.035	80.007	19.994	103.745	19.980	3.141	0.556
1139.000	649.265	80.007	19.993	103.745	19.981	3.093	0.510
1139.500	649.505	80.006	19.994	103.745	19.979	3.197	0.465
1140.000	649.768	80.006	19.994	103.745	19.977	3.328	0.487
1140.500	650.058	80.008	19.992	103.744	19.977	3.368	0.528
1141.000	650.296	80.008	19.992	103.744	19.978	3.278	0.540
1141.500	650.540	80.006	19.993	103.744	19.978	3.302	0.505
1142.000	650.834	80.006	19.994	103.744	19.977	3.376	0.511
1142.500	651.095	80.007	19.993	103.744	19.978	3.280	0.547
1143.000	651.310	80.006	19.994	103.745	19.979	3.193	0.515
1143.500	651.579	80.006	19.993	103.745	19.978	3.263	0.480
1144.000	651.871	80.006	19.994	103.745	19.979	3.219	0.523
1144.500	652.153	80.007	19.994	103.744	19.977	3.356	0.567
1145.001	652.332	80.007	19.994	103.744	19.979	3.205	0.517
1145.501	652.595	80.005	19.994	103.743	19.979	3.185	0.452
1146.000	652.843	80.006	19.994	103.743	19.979	3.177	0.477
1146.500	653.149	80.006	19.994	103.744	19.980	3.153	0.532
1147.000	653.404	80.006	19.994	103.745	19.980	3.105	0.557
1147.500	653.626	80.007	19.994	103.745	19.982	3.003	0.519
1148.000	653.906	80.007	19.994	103.746	19.981	3.087	0.489
1148.500	654.160	80.005	19.993	103.746	19.984	2.832	0.518
1149.000	654.403	80.005	19.993	103.745	19.980	3.149	0.516
1149.500	654.686	80.006	19.994	103.745	19.981	3.087	0.512
1150.000	654.931	80.007	19.994	103.746	19.980	3.107	0.527
1150.500	655.174	80.006	19.994	103.747	19.980	3.161	0.508
1151.000	655.445	80.006	19.994	103.747	19.979	3.209	0.501
1151.500	655.661	80.006	19.995	103.747	19.979	3.233	0.500
1152.000	655.957	80.005	19.994	103.747	19.981	3.089	0.500
1152.500	656.167	80.006	19.993	103.745	19.980	3.155	0.509
1153.000	656.419	80.006	19.994	103.744	19.980	3.167	0.484
1153.500	656.690	80.006	19.995	103.744	19.979	3.175	0.492
1154.000	656.905	80.005	19.993	103.744	19.980	3.129	0.505
1154.500	657.161	80.005	19.994	103.744	19.979	3.246	0.479
1155.000	657.420	80.006	19.992	103.744	19.978	3.276	0.494
1155.500	657.684	80.004	19.994	103.745	19.980	3.129	0.519
1156.000	657.920	80.006	19.994	103.745	19.976	3.410	0.511
1156.500	658.197	80.004	19.993	103.748	19.978	3.282	0.506
1157.000	658.466	80.005	19.995	103.750	19.977	3.392	0.529
1157.500	658.685	80.005	19.994	103.750	19.974	3.613	0.516
1158.000	658.936	80.005	19.994	103.750	19.975	3.492	0.479
1158.500	659.194	80.006	19.994	103.751	19.977	3.378	0.490
1159.000	659.453	80.005	19.994	103.748	19.979	3.185	0.513
1159.500	659.696	80.006	19.994	103.747	19.978	3.263	0.510
1160.000	659.955	80.006	19.994	103.746	19.977	3.392	0.503
1160.501	660.183	80.006	19.994	103.746	19.980	3.171	0.494
1161.001	660.442	80.005	19.994	103.746	19.978	3.316	0.486
1161.500	660.720	80.008	19.993	103.745	19.982	3.005	0.512
1162.000	660.980	80.005	19.993	103.746	19.980	3.121	0.538
1162.500	661.227	80.006	19.994	103.746	19.980	3.167	0.523
1163.000	661.435	80.006	19.994	103.748	19.982	3.001	0.481
1163.500	661.695	80.006	19.994	103.749	19.981	3.027	0.461
1164.000	661.941	80.007	19.994	103.750	19.979	3.207	0.487
1164.500	662.192	80.007	19.993	103.750	19.980	3.105	0.502
1165.000	662.449	80.008	19.993	103.750	19.980	3.113	0.503
1165.501	662.724	80.006	19.993	103.748	19.982	2.952	0.520
1166.001	662.947	80.007	19.994	103.747	19.979	3.183	0.515
1166.500	663.209	80.006	19.993	103.746	19.979	3.201	0.491
1167.000	663.427	80.007	19.994	103.746	19.980	3.171	0.482
1167.501	663.659	80.007	19.994	103.746	19.978	3.261	0.465
1168.001	663.952	80.007	19.992	103.746	19.978	3.266	0.487
1168.500	664.193	80.007	19.994	103.746	19.979	3.221	0.530
1169.000	664.453	80.007	19.993	103.746	19.978	3.272	0.518
1169.500	664.674	80.008	19.994	103.745	19.982	3.007	0.491
1170.000	664.947	80.009	19.995	103.746	19.981	3.065	0.487
1170.500	665.176	80.008	19.994	103.746	19.980	3.157	0.498
1171.000	665.437	80.009	19.993	103.746	19.981	3.043	0.496
1171.500	665.679	80.006	19.994	103.745	19.983	2.928	0.496
1172.000	665.918	80.007	19.993	103.746	19.979	3.231	0.492
1172.500	666.168	80.007	19.994	103.746	19.982	2.986	0.485
1173.000	666.436	80.007	19.995	103.746	19.982	3.001	0.503
1173.500	666.699	80.007	19.994	103.745	19.984	2.868	0.524
1174.000	666.938	80.007	19.994	103.745	19.981	3.073	0.516
1174.500	667.215	80.007	19.993	103.745	19.980	3.109	0.509
1175.001	667.466	80.006	19.993	103.745	19.981	3.059	0.522
1175.501	667.689	80.008	19.994	103.745	19.979	3.185	0.501
1176.001	668.011	80.005	19.995	103.746	19.976	3.444	0.510
1176.501	668.220	80.007	19.993	103.746	19.980	3.157	0.538
1177.001	668.474	80.007	19.995	103.746	19.978	3.300	0.497
1177.502	668.692	80.006	19.994	103.746	19.979	3.235	0.468
1178.001	668.975	80.007	19.994	103.746	19.981	3.063	0.487
1178.500	669.286	80.007	19.993	103.745	19.979	3.207	0.548
1179.000	669.495	80.007	19.994	103.746	19.981	3.051	0.557
1179.500	669.742	80.007	19.995	103.746	19.980	3.117	0.488
1180.000	670.021	80.007	19.994	103.746	19.982	2.954	0.491
1180.500	670.280	80.006	19.994	103.746	19.979	3.227	0.532
1181.000	670.493	80.007	19.994	103.746	19.982	2.950	0.505
1181.500	670.776	80.005	19.993	103.746	19.983	2.932	0.484
1182.000	671.027	80.008	19.994	103.745	19.980	3.131	0.515
1182.500	671.275	80.006	19.993	103.745	19.979	3.201	0.516
1183.000	671.522	80.007	19.994	103.744	19.979	3.175	0.497
1183.500	671.815	80.006	19.993	103.744	19.981	3.053	0.518
1184.000	672.047	80.007	19.994	103.744	19.981	3.035	0.533
1184.500	672.296	80.007	19.994	103.743	19.982	2.980	0.503
1185.000	672.535	80.005	19.992	103.743	19.978	3.275	0.485
1185.500	672.810	80.007	19.994	103.743	19.978	3.283	0.501
1186.000	673.036	80.009	19.993	103.743	19.979	3.211	0.507
1186.500	673.315	80.007	19.994	103.743	19.981	3.081	0.504
1187.000	673.550	80.007	19.993	103.743	19.981	3.087	0.510
1187.500	673.842	80.007	19.992	103.743	19.981	3.087	0.520
1188.000	674.102	80.008	19.994	103.743	19.978	3.294	0.539
1188.501	674.348	80.008	19.993	103.743	19.978	3.304	0.529
1189.001	674.583	80.007	19.994	103.743	19.980	3.133	0.494
1189.500	674.807	80.008	19.993	103.743	19.979	3.197	0.470
1190.000	675.104	80.008	19.993	103.743	19.980	3.121	0.490
1190.500	675.383	80.007	19.993	103.743	19.978	3.320	0.548
1191.000	675.630	80.009	19.994	103.742	19.978	3.290	0.551
1191.500	675.852	80.009	19.993	103.743	19.981	3.079	0.498
1192.000	676.133	80.009	19.993	103.742	19.981	3.077	0.486
1192.500	676.348	80.009	19.994	103.743	19.981	3.043	0.500
1193.000	676.630	80.009	19.994	103.745	19.979	3.181	0.496
1193.500	676.876	80.008	19.993	103.746	19.980	3.133	0.512
1194.000	677.150	80.006	19.993	103.746	19.978	3.281	0.524
1194.500	677.385	80.009	19.993	103.746	19.982	2.976	0.515
1195.000	677.612	80.010	19.994	103.745	19.982	3.013	0.485
1195.501	677.902	80.008	19.994	103.743	19.979	3.183	0.489
1196.001	678.160	80.009	19.993	103.743	19.984	2.830	0.533
1196.500	678.373	80.009	19.994	103.743	19.978	3.253	0.509
1197.000	678.632	80.010	19.994	103.743	19.983	2.928	0.471
1197.500	678.884	80.009	19.992	103.744	19.982	2.952	0.492
1198.000	679.146	80.010	19.992	103.744	19.980	3.143	0.512
1198.500	679.373	80.008	19.992	103.744	19.982	2.954	0.501
1199.001	679.662	80.009	19.994	103.743	19.983	2.882	0.503
1199.501	679.913	80.007	19.995	103.744	19.980	3.115	0.528
1200.000	680.134	80.009	19.993	103.745	19.982	2.994	0.506
1200.500	680.383	80.007	19.994	103.747	19.983	2.878	0.471
1201.000	680.644	80.008	19.992	103.747	19.982	2.948	0.490
1201.500	680.898	80.007	19.993	103.747	19.986	2.710	0.513
1202.000	681.152	80.008	19.993	103.747	19.983	2.930	0.512
1202.501	681.415	80.007	19.994	103.745	19.981	3.031	0.513
1203.001	681.636	80.007	19.994	103.744	19.983	2.892	0.501
1203.500	681.898	80.006	19.993	103.743	19.982	3.019	0.483
1204.000	682.149	80.006	19.993	103.743	19.981	3.091	0.498
1204.500	682.352	80.006	19.993	103.743	19.984	2.816	0.484
1205.000	682.585	80.004	19.992	103.743	19.982	2.997	0.445
1205.500	682.853	80.007	19.994	103.744	19.980	3.159	0.469
1206.000	683.149	80.007	19.994	103.744	19.984	2.870	0.532
1206.500	683.419	80.006	19.993	103.744	19.981	3.051	0.565
1207.000	683.653	80.007	19.992	103.744	19.983	2.946	0.535
1207.500	683.910	80.009	19.993	103.744	19.980	3.131	0.498
1208.000	684.159	80.007	19.993	103.744	19.980	3.149	0.499
1208.500	684.392	80.006	19.994	103.744	19.982	3.017	0.494
1209.000	684.630	80.007	19.994	103.744	19.981	3.043	0.476
1209.500	684.896	80.006	19.993	103.743	19.986	2.671	0.487
1210.000	685.180	80.006	19.993	103.743	19.981	3.023	0.527
1210.500	685.428	80.006	19.992	103.744	19.978	3.282	0.541
1211.000	685.680	80.006	19.993	103.744	19.980	3.167	0.516
1211.500	685.948	80.006	19.994	103.744	19.981	3.051	0.510
1212.000	686.160	80.007	19.994	103.744	19.981	3.057	0.500
1212.500	686.408	80.007	19.992	103.744	19.977	3.368	0.470
1213.000	686.684	80.007	19.993	103.744	19.978	3.254	0.492
1213.500	686.924	80.007	19.993	103.744	19.983	2.876	0.520
1214.000	687.174	80.008	19.993	103.744	19.980	3.121	0.503
1214.500	687.453	80.006	19.993	103.747	19.980	3.135	0.510
1215.000	687.689	80.007	19.993	103.752	19.980	3.139	0.521
1215.500	687.943	80.008	19.994	103.755	19.979	3.207	0.502
1216.000	688.206	80.006	19.993	103.755	19.981	3.061	0.504
1216.500	688.430	80.008	19.993	103.755	19.978	3.247	0.502
1217.000	688.668	80.006	19.993	103.753	19.979	3.203	0.474
1217.500	688.893	80.006	19.993	103.748	19.981	3.071	0.463
1218.000	689.170	80.007	19.994	103.746	19.979	3.187	0.483
1218.500	689.452	80.007	19.993	103.745	19.978	3.288	0.531
1219.000	689.717	80.008	19.993	103.745	19.978	3.253	0.553
1219.500	689.930	80.007	19.993	103.745	19.981	3.053	0.512
1220.000	690.187	80.006	19.993	103.745	19.978	3.247	0.473
1220.500	690.400	80.005	19.992	103.744	19.978	3.247	0.470
1221.000	690.702	80.006	19.993	103.745	19.980	3.139	0.493
1221.500	690.929	80.007	19.993	103.746	19.980	3.121	0.522
1222.000	691.160	80.008	19.992	103.748	19.983	2.942	0.493
1222.500	691.440	80.007	19.994	103.750	19.982	2.964	0.484
1223.000	691.695	80.006	19.992	103.752	19.982	3.021	0.523
1223.500	692.135	80.007	19.993	103.752	19.982	2.987	0.616
1224.000	692.390	80.007	19.993	103.751	19.982	2.982	0.695
1224.500	692.391	80.008	19.994	103.750	19.976	3.404	0.475
1225.000	692.677	80.007	19.993	103.748	19.980	3.145	0.272
1225.500	692.946	80.008	19.993	103.747	19.980	3.167	0.421
1226.000	693.204	80.007	19.993	103.746	19.977	3.358	0.541
1226.500	693.396	80.006	19.992	103.746	19.980	3.163	0.488
1227.000	693.719	80.006	19.993	103.746	19.981	3.075	0.482
1227.500	693.901	80.006	19.992	103.746	19.979	3.209	0.510
1228.000	694.175	80.007	19.992	103.745	19.977	3.356	0.481
1228.500	694.438	80.006	19.992	103.745	19.978	3.308	0.496
1229.000	694.638	80.006	19.993	103.744	19.976	3.432	0.500
1229.500	694.915	80.006	19.993	103.744	19.978	3.282	0.470
1230.001	695.160	80.007	19.993	103.744	19.981	3.071	0.499
1230.501	695.422	80.006	19.993	103.744	19.979	3.227	0.515
1231.000	695.686	80.006	19.992	103.745	19.975	3.541	0.517
1231.500	695.959	80.006	19.993	103.746	19.977	3.358	0.531
1232.000	696.181	80.005	19.992	103.746	19.975	3.529	0.516
1232.500	696.445	80.005	19.992	103.746	19.977	3.386	0.491
1233.000	696.671	80.006	19.994	103.746	19.979	3.195	0.488
1233.500	696.961	80.005	19.994	103.746	19.976	3.398	0.503
1234.000	697.180	80.006	19.993	103.746	19.977	3.394	0.513
1234.500	697.452	80.005	19.994	103.745	19.976	3.424	0.500
1235.000	697.687	80.006	19.994	103.745	19.979	3.227	0.499
1235.500	697.930	80.007	19.994	103.745	19.978	3.312	0.493
1236.000	698.169	80.006	19.994	103.744	19.978	3.296	0.480
1236.500	698.453	80.006	19.994	103.745	19.976	3.412	0.502
1237.001	698.681	80.007	19.993	103.745	19.976	3.404	0.517
1237.501	698.965	80.006	19.993	103.745	19.976	3.428	0.512
1238.000	699.195	80.006	19.994	103.746	19.976	3.436	0.513
1238.500	699.426	80.004	19.994	103.747	19.976	3.422	0.488
1239.000	699.659	80.006	19.994	103.747	19.977	3.388	0.463
1239.500	699.881	80.005	19.994	103.747	19.978	3.306	0.459
1240.000	700.170	80.005	19.994	103.747	19.978	3.320	0.483
1240.500	700.454	80.007	19.994	103.747	19.977	3.394	0.542
1241.000	700.657	80.004	19.994	103.748	19.976	3.408	0.530
1241.500	700.936	80.005	19.994	103.748	19.974	3.555	0.484
1242.000	701.171	80.006	19.994	103.748	19.975	3.527	0.498
1242.500	701.429	80.007	19.995	103.749	19.977	3.378	0.504
1243.000	701.648	80.006	19.994	103.749	19.980	3.159	0.485
1243.500	701.966	80.006	19.994	103.748	19.977	3.366	0.507
1244.000	702.183	80.006	19.994	103.747	19.975	3.490	0.536
1244.500	702.450	80.005	19.994	103.747	19.977	3.386	0.509
1245.000	702.691	80.006	19.993	103.746	19.978	3.298	0.496
1245.501	702.955	80.007	19.994	103.746	19.977	3.376	0.506
1246.001	703.190	80.007	19.993	103.747	19.977	3.362	0.502
1246.500	703.388	80.008	19.993	103.748	19.976	3.396	0.466
1247.001	703.663	80.008	19.994	103.748	19.977	3.360	0.453
1247.501	704.053	80.008	19.993	103.747	19.977	3.344	0.569
1248.001	704.232	80.008	19.996	103.746	19.976	3.414	0.617
1248.501	704.457	80.007	19.995	103.746	19.979	3.189	0.487
1249.000	704.725	80.009	19.995	103.746	19.978	3.300	0.449
1249.500	704.981	80.007	19.993	103.748	19.980	3.127	0.509
1250.000	705.257	80.007	19.994	103.750	19.978	3.286	0.528
1250.500	705.481	80.007	19.994	103.752	19.977	3.374	0.516
1251.001	705.765	80.008	19.994	103.752	19.980	3.123	0.504
1251.501	706.016	80.008	19.993	103.753	19.979	3.183	0.521
1252.000	706.270	80.008	19.994	103.751	19.978	3.306	0.520
1252.500	706.508	80.009	19.993	103.749	19.978	3.287	0.499
1253.000	706.778	80.007	19.994	103.748	19.980	3.161	0.500
1253.500	707.035	80.009	19.994	103.746	19.978	3.287	0.517
1254.000	707.279	80.009	19.994	103.744	19.980	3.139	0.514
1254.500	707.525	80.008	19.995	103.744	19.979	3.237	0.495
1255.000	707.786	80.008	19.994	103.744	19.977	3.330	0.499
1255.500	708.055	80.008	19.993	103.744	19.979	3.227	0.519
1256.000	708.300	80.008	19.993	103.744	19.978	3.320	0.522
1256.500	708.536	80.009	19.994	103.744	19.978	3.320	0.497
1257.000	708.819	80.007	19.994	103.744	19.978	3.288	0.500
1257.500	709.045	80.007	19.994	103.744	19.976	3.406	0.514
1258.000	709.333	80.008	19.993	103.743	19.976	3.436	0.511
1258.500	709.583	80.007	19.994	103.743	19.976	3.442	0.526
1259.000	709.829	80.007	19.994	103.743	19.976	3.434	0.517
1259.500	710.092	80.008	19.993	103.743	19.977	3.374	0.502
1260.000	710.350	80.009	19.994	103.743	19.977	3.372	0.515
1260.500	710.559	80.009	19.994	103.743	19.978	3.287	0.494
1261.000	710.872	80.008	19.994	103.744	19.978	3.253	0.495
1261.500	711.127	80.007	19.994	103.743	19.980	3.169	0.545
1262.000	711.366	80.008	19.993	103.743	19.976	3.420	0.531
1262.500	711.604	80.008	19.993	103.743	19.978	3.257	0.486
1263.001	711.861	80.008	19.994	103.743	19.978	3.299	0.486
1263.501	712.159	80.005	19.994	103.743	19.979	3.179	0.524
1264.000	712.390	80.009	19.994	103.743	19.977	3.382	0.542
1264.500	712.673	80.008	19.995	103.742	19.976	3.408	0.522
1265.000	712.903	80.009	19.994	103.742	19.974	3.582	0.514
1265.500	713.173	80.008	19.994	103.742	19.976	3.436	0.506
1266.000	713.413	80.006	19.995	103.742	19.974	3.550	0.505
1266.500	713.637	80.008	19.995	103.744	19.979	3.225	0.487
1267.000	713.912	80.007	19.995	103.743	19.977	3.328	0.481
1267.500	714.179	80.009	19.995	103.744	19.978	3.306	0.520
1268.000	714.418	80.009	19.996	103.743	19.977	3.342	0.524
1268.500	714.684	80.008	19.994	103.744	19.977	3.390	0.506
1269.001	714.972	80.009	19.994	103.742	19.979	3.179	0.530
1269.501	715.203	80.008	19.995	103.742	19.981	3.093	0.537
1270.001	715.467	80.009	19.994	103.742	19.978	3.287	0.507
1270.501	715.722	80.008	19.995	103.742	19.979	3.197	0.507
1271.000	715.968	80.009	19.995	103.742	19.979	3.229	0.510
1271.500	716.228	80.007	19.995	103.742	19.980	3.105	0.503
1272.001	716.492	80.008	19.995	103.742	19.980	3.127	0.515
1272.501	716.725	80.008	19.994	103.741	19.981	3.039	0.510
1273.001	717.020	80.010	19.994	103.739	19.980	3.109	0.512
1273.501	717.253	80.010	19.994	103.739	19.980	3.115	0.528
1274.000	717.497	80.009	19.993	103.739	19.977	3.324	0.503
1274.500	717.760	80.010	19.995	103.739	19.977	3.348	0.492
1275.000	718.018	80.010	19.995	103.738	19.976	3.446	0.514
1275.500	718.254	80.009	19.993	103.740	19.977	3.350	0.508
1276.001	718.510	80.009	19.995	103.739	19.977	3.362	0.493
1276.501	718.766	80.011	19.994	103.740	19.978	3.290	0.502
1277.000	719.041	80.009	19.995	103.740	19.976	3.456	0.521
1277.500	719.283	80.010	19.993	103.740	19.975	3.486	0.524
1278.000	719.529	80.009	19.993	103.741	19.977	3.366	0.502
1278.500	719.750	80.010	19.993	103.742	19.977	3.326	0.477
1279.000	720.044	80.011	19.993	103.741	19.979	3.199	0.491
1279.500	720.294	80.008	19.993	103.741	19.977	3.330	0.530
1280.000	720.522	80.009	19.994	103.741	19.979	3.227	0.511
1280.500	720.810	80.008	19.992	103.741	19.977	3.328	0.497
1281.000	721.073	80.009	19.992	103.741	19.978	3.296	0.534
1281.500	721.298	80.007	19.993	103.741	19.976	3.398	0.520
1282.000	721.578	80.008	19.993	103.742	19.977	3.392	0.496
1282.500	721.808	80.008	19.994	103.743	19.976	3.406	0.507
1283.000	722.103	80.007	19.994	103.744	19.978	3.274	0.517
1283.500	722.335	80.008	19.993	103.744	19.975	3.508	0.526
1284.000	722.618	80.008	19.992	103.745	19.977	3.388	0.521
1284.500	722.831	80.007	19.993	103.745	19.977	3.376	0.505
1285.000	723.102	80.007	19.993	103.745	19.977	3.346	0.490
1285.500	723.348	80.007	19.994	103.743	19.977	3.372	0.500
1286.000	723.631	80.008	19.994	103.743	19.975	3.520	0.523
1286.500	723.871	80.008	19.992	103.742	19.977	3.324	0.526
1287.001	724.098	80.008	19.993	103.743	19.977	3.390	0.495
1287.501	724.360	80.007	19.994	103.743	19.977	3.326	0.478
1288.001	724.591	80.007	19.993	103.746	19.975	3.540	0.491
1288.502	724.867	80.008	19.993	103.746	19.976	3.436	0.500
1289.001	725.105	80.007	19.993	103.747	19.978	3.318	0.510
1289.501	725.362	80.007	19.993	103.746	19.976	3.430	0.504
1290.001	725.582	80.006	19.993	103.746	19.974	3.559	0.486
1290.500	725.867	80.008	19.993	103.746	19.978	3.300	0.491
1291.000	726.088	80.007	19.993	103.745	19.978	3.271	0.506
1291.500	726.342	80.008	19.992	103.746	19.977	3.344	0.490
1292.000	726.615	80.006	19.993	103.746	19.974	3.615	0.500
1292.500	726.850	80.008	19.994	103.746	19.980	3.111	0.518
1293.000	727.131	80.008	19.993	103.746	19.978	3.257	0.513
1293.500	727.365	80.008	19.993	103.746	19.979	3.243	0.516
1294.000	727.625	80.008	19.993	103.746	19.976	3.404	0.504
1294.500	727.867	80.007	19.994	103.745	19.976	3.462	0.498
1295.000	728.121	80.006	19.993	103.746	19.977	3.340	0.499
1295.500	728.353	80.007	19.993	103.746	19.979	3.239	0.491
1296.000	728.615	80.006	19.993	103.746	19.980	3.103	0.490
1296.500	728.877	80.007	19.993	103.746	19.977	3.358	0.509
1297.000	729.154	80.007	19.992	103.746	19.978	3.308	0.531
1297.500	729.375	80.007	19.993	103.746	19.975	3.514	0.518
1298.000	729.605	80.007	19.994	103.745	19.978	3.278	0.475
1298.501	729.873	80.006	19.994	103.744	19.975	3.504	0.474
1299.001	730.140	80.007	19.993	103.744	19.975	3.539	0.516
1299.500	730.395	80.008	19.994	103.744	19.975	3.533	0.528
1300.000	730.674	80.007	19.993	103.744	19.974	3.567	0.529
1300.501	730.922	80.007	19.994	103.745	19.976	3.466	0.531
1301.001	731.126	80.005	19.994	103.745	19.977	3.392	0.489
1301.500	731.405	80.006	19.992	103.745	19.977	3.388	0.468
1302.000	731.668	80.007	19.994	103.745	19.976	3.406	0.513
1302.500	731.872	80.007	19.993	103.744	19.976	3.422	0.505
1303.000	732.144	80.007	19.993	103.745	19.978	3.274	0.472
1303.500	732.388	80.007	19.994	103.745	19.980	3.159	0.496
1304.000	732.660	80.006	19.993	103.746	19.978	3.306	0.516
1304.500	732.904	80.007	19.993	103.746	19.981	3.091	0.516
1305.000	733.142	80.005	19.994	103.745	19.977	3.382	0.499
1305.500	733.413	80.007	19.993	103.744	19.978	3.294	0.495
1306.000	733.646	80.007	19.993	103.744	19.976	3.414	0.507
1306.500	733.930	80.006	19.993	103.743	19.978	3.316	0.511
1307.000	734.162	80.007	19.993	103.743	19.976	3.420	0.517
1307.501	734.402	80.006	19.991	103.745	19.977	3.360	0.494
1308.001	734.664	80.006	19.995	103.746	19.980	3.145	0.487
1308.500	734.933	80.008	19.996	103.747	19.979	3.209	0.516
1309.000	735.177	80.007	19.995	103.750	19.979	3.197	0.522
1309.501	735.432	80.009	19.994	103.750	19.981	3.059	0.506
1310.001	735.697	80.007	19.995	103.750	19.981	3.065	0.509
1310.501	735.965	80.007	19.995	103.749	19.980	3.103	0.526
1311.001	736.202	80.008	19.995	103.748	19.981	3.097	0.519
1311.501	736.404	80.007	19.994	103.745	19.982	2.984	0.472
1312.000	736.691	80.006	19.993	103.745	19.981	3.053	0.464
1312.500	736.923	80.008	19.994	103.745	19.979	3.195	0.504
1313.000	737.176	80.007	19.994	103.745	19.981	3.025	0.502
1313.500	737.444	80.007	19.993	103.745	19.980	3.123	0.503
1314.000	737.676	80.007	19.993	103.745	19.979	3.229	0.510
1314.500	737.932	80.007	19.993	103.744	19.980	3.153	0.494
1315.000	738.179	80.006	19.994	103.744	19.978	3.279	0.496
1315.500	738.470	80.007	19.994	103.744	19.977	3.374	0.521
1316.000	738.693	80.006	19.993	103.744	19.979	3.225	0.526
1316.500	738.977	80.007	19.995	103.744	19.977	3.322	0.511
1317.000	739.225	80.007	19.994	103.743	19.975	3.544	0.520
1317.500	739.447	80.007	19.992	103.744	19.976	3.428	0.500
1318.000	739.754	80.006	19.993	103.743	19.978	3.273	0.499
1318.500	740.032	80.007	19.994	103.743	19.975	3.476	0.557
1319.000	740.222	80.008	19.994	103.743	19.976	3.454	0.527
1319.500	740.485	80.006	19.992	103.745	19.976	3.444	0.461
1320.000	740.748	80.007	19.993	103.746	19.979	3.227	0.490
1320.500	740.995	80.007	19.993	103.746	19.978	3.316	0.518
1321.000	741.270	80.007	19.993	103.747	19.978	3.288	0.516
1321.500	741.520	80.007	19.993	103.746	19.978	3.263	0.524
1322.000	741.775	80.009	19.994	103.746	19.979	3.227	0.515
1322.500	742.047	80.008	19.994	103.745	19.979	3.233	0.516
1323.000	742.276	80.007	19.993	103.745	19.977	3.370	0.514
1323.500	742.563	80.007	19.993	103.745	19.978	3.318	0.509
1324.000	742.845	80.008	19.993	103.745	19.977	3.376	0.543
1324.500	743.059	80.007	19.993	103.745	19.977	3.334	0.532
1325.001	743.327	80.008	19.993	103.744	19.977	3.364	0.489
1325.501	743.555	80.007	19.994	103.744	19.977	3.348	0.489
