Sample ID:	C:\MCC\MCC Cal\Test\PineLap_SidingB_MCC_30K_min_211122_R1.txt
Sample Weight (mg):	4.9
Heating Rate (C/s):	0.5
Combustor Temp (C):	900
N2 Flow Rate (cc/min):	80
O2 Flow Rate (cc/min):	20
Calibration File:	C:\MCC\MCC Cal\Coeff1 JN10440_30_210304.txt.txt
T Correction Coefficients:	0	1.024463	0
Time Shift (s):	14
*
Time (s)	Temperature (C)	N2 flow rate (cc/min)	O2 flow rate (cc/min)	Flow Rate (cc/min)	Oxygen (%)	HRR (W/g)	Heating rate (C/s)
0.000	109.070	80.005	19.992	103.130	20.008	0.202	-0.010
0.500	109.087	80.005	19.995	103.129	20.006	0.340	-0.014
1.000	109.115	80.007	19.995	103.130	20.008	0.179	0.022
1.500	109.068	80.004	19.995	103.131	20.010	0.047	0.013
2.000	109.090	80.006	19.995	103.132	20.010	0.023	-0.023
2.500	109.116	80.007	19.994	103.134	20.008	0.154	0.011
3.000	109.099	80.006	19.996	103.135	20.007	0.220	0.029
3.500	109.088	80.005	19.995	103.135	20.006	0.321	-0.009
4.000	109.108	80.006	19.992	103.135	20.011	-0.004	-0.009
4.500	109.092	80.006	19.995	103.135	20.004	0.466	0.007
5.000	109.071	80.006	19.995	103.135	20.005	0.403	-0.017
5.500	109.120	80.005	19.995	103.135	20.005	0.365	-0.005
6.000	109.132	80.007	19.994	103.133	20.002	0.604	0.044
6.500	109.094	80.006	19.995	103.133	20.004	0.464	0.017
7.000	109.063	80.006	19.994	103.134	20.006	0.332	-0.047
7.500	109.078	80.006	19.996	103.132	20.011	-0.005	-0.042
8.000	109.088	80.007	19.996	103.132	20.006	0.285	0.004
8.500	109.088	80.007	19.995	103.134	20.005	0.359	0.017
9.000	109.096	80.006	19.995	103.134	20.006	0.305	0.009
9.500	109.092	80.007	19.995	103.134	20.006	0.314	0.006
10.000	109.102	80.006	19.994	103.134	20.007	0.235	0.005
10.500	109.122	80.005	19.994	103.135	20.003	0.499	0.017
11.000	109.095	80.007	19.994	103.134	20.006	0.312	0.011
11.500	109.100	80.007	19.994	103.131	20.005	0.387	-0.014
12.000	109.077	80.007	19.994	103.131	20.003	0.488	-0.020
12.500	109.105	80.008	19.995	103.130	20.004	0.423	-0.006
13.000	109.052	80.009	19.995	103.131	20.000	0.681	-0.010
13.500	109.076	80.007	19.995	103.133	20.005	0.377	-0.027
14.000	109.110	80.007	19.995	103.141	20.001	0.653	0.015
14.500	109.062	80.006	19.994	103.148	19.999	0.746	0.022
15.000	109.091	80.007	19.994	103.135	20.001	0.619	-0.017
15.500	109.048	80.006	19.996	103.121	20.000	0.683	-0.016
16.000	109.065	80.007	19.996	103.116	19.999	0.771	-0.020
16.500	109.082	80.008	19.995	103.114	19.998	0.854	0.004
17.000	109.083	80.008	19.994	103.115	19.996	0.947	0.026
17.500	109.065	80.006	19.994	103.150	19.998	0.832	0.000
18.000	109.051	80.009	19.995	103.205	19.996	0.968	-0.025
18.500	109.054	80.006	19.996	103.237	19.995	1.054	-0.022
19.000	109.058	80.007	19.995	103.253	19.996	0.981	-0.002
19.500	109.066	80.007	19.996	103.262	19.997	0.904	0.010
20.000	109.084	80.008	19.994	103.257	19.995	1.065	0.019
20.500	109.168	80.007	19.995	103.230	19.994	1.108	0.064
21.000	109.123	80.008	19.994	103.219	19.990	1.359	0.070
21.500	109.146	80.006	19.994	103.215	19.993	1.144	0.008
22.000	109.164	80.006	19.995	103.215	19.988	1.512	0.010
22.500	109.186	80.006	19.994	103.216	19.989	1.431	0.041
23.000	109.221	80.005	19.994	103.217	19.992	1.261	0.048
23.500	109.207	80.007	19.994	103.217	19.991	1.309	0.039
24.000	109.279	80.006	19.995	103.216	19.989	1.410	0.040
24.500	109.276	80.007	19.994	103.211	19.994	1.091	0.063
25.000	109.291	80.007	19.995	103.210	19.992	1.265	0.040
25.500	109.348	80.007	19.994	103.210	19.993	1.168	0.042
26.000	109.332	80.007	19.994	103.210	19.992	1.243	0.057
26.500	109.367	80.007	19.994	103.211	19.991	1.326	0.030
27.000	109.417	80.007	19.994	103.216	19.987	1.546	0.052
27.500	109.381	80.008	19.995	103.216	19.990	1.374	0.049
28.000	109.452	80.008	19.993	103.216	19.988	1.471	0.025
28.500	109.457	80.009	19.994	103.216	19.992	1.252	0.056
29.000	109.515	80.007	19.994	103.217	19.989	1.425	0.069
29.500	109.514	80.006	19.994	103.218	19.989	1.436	0.060
30.000	109.542	80.006	19.994	103.219	19.989	1.400	0.043
30.500	109.591	80.008	19.993	103.218	19.987	1.545	0.052
31.000	109.575	80.006	19.994	103.219	19.984	1.750	0.055
31.500	109.655	80.007	19.993	103.218	19.986	1.646	0.048
32.000	109.651	80.007	19.993	103.217	19.987	1.558	0.070
32.499	109.687	80.007	19.993	103.216	19.986	1.637	0.054
32.999	109.743	80.009	19.993	103.218	19.982	1.881	0.062
33.499	109.781	80.009	19.994	103.223	19.987	1.560	0.093
33.999	109.837	80.006	19.994	103.229	19.986	1.638	0.094
34.499	109.867	80.007	19.993	103.237	19.984	1.771	0.090
34.999	109.900	80.009	19.993	103.245	19.987	1.588	0.074
35.500	109.948	80.007	19.994	103.251	19.983	1.857	0.072
36.000	109.970	80.009	19.993	103.254	19.985	1.685	0.075
36.500	110.005	80.007	19.993	103.256	19.984	1.731	0.063
37.000	110.046	80.007	19.993	103.257	19.982	1.891	0.066
37.500	110.086	80.006	19.993	103.257	19.978	2.182	0.079
38.000	110.146	80.007	19.994	103.258	19.978	2.139	0.091
38.499	110.202	80.008	19.994	103.264	19.976	2.258	0.108
38.999	110.240	80.008	19.993	103.272	19.978	2.157	0.105
39.499	110.316	80.008	19.994	103.279	19.979	2.096	0.104
39.999	110.352	80.008	19.994	103.288	19.983	1.847	0.113
40.499	110.414	80.008	19.994	103.299	19.973	2.498	0.105
40.999	110.463	80.008	19.994	103.305	19.973	2.455	0.105
41.500	110.550	80.008	19.995	103.311	19.976	2.272	0.123
42.000	110.544	80.009	19.993	103.315	19.974	2.388	0.108
42.499	110.674	80.008	19.994	103.320	19.975	2.338	0.102
42.999	110.722	80.009	19.993	103.323	19.975	2.359	0.151
43.499	110.781	80.006	19.995	103.327	19.973	2.504	0.142
43.999	110.852	80.007	19.994	103.333	19.970	2.701	0.118
44.499	110.906	80.008	19.993	103.345	19.970	2.704	0.128
44.999	110.989	80.007	19.995	103.353	19.972	2.536	0.131
45.499	111.071	80.003	19.993	103.361	19.966	2.936	0.151
45.999	111.134	80.006	19.994	103.366	19.969	2.766	0.155
46.499	111.201	80.006	19.994	103.369	19.968	2.782	0.138
46.999	111.278	80.007	19.995	103.372	19.968	2.801	0.137
47.499	111.389	80.007	19.994	103.373	19.966	2.942	0.166
47.999	111.495	80.006	19.994	103.373	19.965	3.030	0.203
48.500	111.562	80.005	19.994	103.372	19.967	2.877	0.195
49.000	111.650	80.006	19.996	103.363	19.962	3.206	0.164
49.499	111.729	80.005	19.996	103.332	19.962	3.227	0.161
49.999	111.838	80.007	19.995	103.308	19.962	3.195	0.178
50.499	111.937	80.006	19.995	103.294	19.960	3.332	0.198
50.999	112.054	80.004	19.995	103.286	19.960	3.348	0.213
51.500	112.129	80.005	19.994	103.294	19.961	3.285	0.204
52.000	112.244	80.007	19.995	103.357	19.965	3.016	0.190
52.499	112.311	80.007	19.995	103.399	19.963	3.117	0.186
52.999	112.472	80.005	19.994	103.417	19.957	3.528	0.205
53.499	112.552	80.003	19.994	103.424	19.961	3.264	0.235
53.999	112.696	80.006	19.996	103.424	19.960	3.331	0.232
54.499	112.760	80.005	19.996	103.387	19.963	3.155	0.215
54.999	112.879	80.005	19.995	103.366	19.959	3.439	0.195
55.499	113.028	80.005	19.995	103.362	19.956	3.622	0.226
55.999	113.151	80.004	19.995	103.360	19.959	3.406	0.270
56.499	113.259	80.006	19.995	103.359	19.959	3.408	0.252
57.000	113.377	80.005	19.995	103.363	19.955	3.663	0.228
57.501	113.523	80.006	19.996	103.364	19.956	3.622	0.245
58.000	113.602	80.005	19.995	103.364	19.954	3.760	0.245
58.499	113.768	80.005	19.993	103.366	19.957	3.526	0.235
58.999	113.869	80.005	19.996	103.366	19.955	3.701	0.256
59.499	114.009	80.005	19.994	103.367	19.957	3.527	0.254
59.999	114.141	80.005	19.994	103.373	19.955	3.694	0.257
60.499	114.266	80.006	19.995	103.375	19.953	3.780	0.264
60.999	114.405	80.006	19.995	103.376	19.951	3.924	0.260
61.499	114.549	80.006	19.995	103.384	19.954	3.736	0.274
61.999	114.677	80.006	19.995	103.391	19.953	3.788	0.277
62.499	114.798	80.007	19.995	103.393	19.955	3.677	0.260
62.999	114.965	80.007	19.994	103.400	19.958	3.464	0.268
63.499	115.091	80.006	19.994	103.407	19.956	3.573	0.290
63.999	115.238	80.006	19.995	103.407	19.955	3.641	0.283
64.499	115.384	80.007	19.996	103.408	19.956	3.578	0.284
64.999	115.514	80.005	19.994	103.409	19.957	3.519	0.285
65.499	115.655	80.005	19.994	103.409	19.953	3.822	0.273
65.999	115.838	80.004	19.995	103.411	19.955	3.640	0.298
66.500	116.001	80.006	19.995	103.411	19.956	3.582	0.335
67.000	116.153	80.005	19.996	103.411	19.954	3.707	0.330
67.499	116.320	80.006	19.995	103.411	19.952	3.859	0.317
67.999	116.449	80.006	19.996	103.407	19.957	3.516	0.308
68.499	116.591	80.006	19.995	103.397	19.954	3.757	0.283
68.999	116.758	80.006	19.995	103.388	19.951	3.942	0.290
69.499	116.861	80.006	19.996	103.380	19.959	3.408	0.289
69.999	117.031	80.005	19.996	103.372	19.956	3.579	0.271
70.499	117.233	80.006	19.995	103.369	19.961	3.275	0.323
70.999	117.373	80.005	19.995	103.370	19.957	3.525	0.357
71.499	117.574	80.006	19.995	103.371	19.957	3.521	0.342
71.999	117.744	80.005	19.995	103.375	19.958	3.460	0.356
72.499	117.910	80.005	19.996	103.380	19.958	3.499	0.353
72.999	118.039	80.006	19.996	103.386	19.956	3.625	0.315
73.499	118.229	80.006	19.995	103.393	19.954	3.763	0.307
73.999	118.390	80.004	19.995	103.399	19.955	3.686	0.335
74.499	118.592	80.006	19.996	103.399	19.956	3.623	0.357
74.999	118.740	80.005	19.995	103.397	19.955	3.656	0.356
75.499	118.930	80.005	19.996	103.392	19.954	3.710	0.344
75.999	119.144	80.007	19.995	103.389	19.954	3.713	0.371
76.500	119.310	80.006	19.995	103.390	19.957	3.517	0.392
77.000	119.485	80.005	19.997	103.398	19.954	3.754	0.360
77.500	119.655	80.006	19.995	103.407	19.955	3.674	0.343
78.000	119.826	80.005	19.995	103.413	19.955	3.699	0.344
78.499	120.013	80.005	19.995	103.417	19.956	3.604	0.349
78.999	120.217	80.005	19.995	103.417	19.955	3.678	0.374
79.499	120.363	80.004	19.995	103.413	19.958	3.505	0.370
79.999	120.583	80.006	19.995	103.408	19.953	3.784	0.358
80.499	120.746	80.006	19.996	103.407	19.956	3.611	0.374
81.000	120.931	80.004	19.995	103.407	19.954	3.737	0.366
81.501	121.152	80.004	19.995	103.404	19.955	3.701	0.377
82.000	121.356	80.004	19.996	103.400	19.954	3.753	0.415
82.499	121.509	80.003	19.995	103.399	19.956	3.617	0.391
82.999	121.714	80.005	19.996	103.399	19.953	3.793	0.358
83.499	121.942	80.006	19.995	103.398	19.955	3.701	0.396
84.000	122.164	80.007	19.996	103.397	19.954	3.742	0.442
84.500	122.324	80.008	19.996	103.398	19.951	3.949	0.416
84.999	122.530	80.005	19.996	103.398	19.952	3.874	0.374
85.499	122.768	80.008	19.996	103.398	19.950	3.983	0.405
85.999	122.953	80.007	19.995	103.398	19.947	4.172	0.433
86.499	123.166	80.005	19.995	103.402	19.950	3.976	0.411
86.999	123.362	80.009	19.994	103.402	19.948	4.145	0.404
87.499	123.560	80.006	19.995	103.399	19.952	3.883	0.401
88.000	123.797	80.005	19.995	103.397	19.952	3.893	0.414
88.500	123.976	80.006	19.994	103.398	19.951	3.961	0.426
88.999	124.179	80.005	19.995	103.399	19.947	4.180	0.399
89.499	124.382	80.004	19.994	103.402	19.948	4.114	0.394
89.999	124.598	80.006	19.995	103.406	19.952	3.842	0.413
90.499	124.798	80.006	19.995	103.409	19.953	3.787	0.418
90.999	125.002	80.006	19.994	103.409	19.951	3.914	0.410
91.499	125.237	80.006	19.995	103.409	19.953	3.791	0.422
92.000	125.430	80.006	19.995	103.411	19.953	3.771	0.433
92.501	125.644	80.007	19.994	103.412	19.949	4.044	0.417
93.000	125.889	80.007	19.994	103.412	19.953	3.801	0.433
93.499	126.095	80.007	19.994	103.412	19.951	3.952	0.455
93.999	126.316	80.007	19.995	103.412	19.951	3.945	0.439
94.499	126.534	80.005	19.994	103.411	19.951	3.909	0.433
94.999	126.753	80.007	19.994	103.412	19.952	3.884	0.438
95.499	126.892	80.008	19.994	103.412	19.949	4.048	0.397
96.000	127.182	80.006	19.994	103.412	19.949	4.055	0.393
96.500	127.375	80.008	19.996	103.412	19.952	3.881	0.456
96.999	127.574	80.007	19.993	103.411	19.946	4.288	0.438
97.499	127.813	80.007	19.995	103.410	19.948	4.152	0.415
97.999	128.047	80.008	19.994	103.410	19.945	4.316	0.455
98.499	128.239	80.006	19.994	103.410	19.950	4.010	0.449
98.999	128.488	80.008	19.994	103.407	19.947	4.217	0.433
99.499	128.711	80.007	19.993	103.402	19.949	4.097	0.457
99.999	128.896	80.006	19.994	103.399	19.949	4.035	0.440
100.499	129.140	80.007	19.995	103.398	19.948	4.154	0.418
100.999	129.379	80.006	19.994	103.397	19.950	3.999	0.456
101.499	129.591	80.006	19.994	103.398	19.950	4.006	0.467
101.999	129.820	80.007	19.994	103.398	19.948	4.123	0.446
102.500	130.021	80.007	19.993	103.400	19.945	4.362	0.436
103.001	130.253	80.005	19.994	103.401	19.949	4.066	0.432
103.501	130.515	80.006	19.994	103.395	19.948	4.132	0.463
104.001	130.717	80.006	19.994	103.393	19.948	4.157	0.478
104.501	130.963	80.007	19.994	103.398	19.949	4.064	0.456
105.000	131.205	80.005	19.994	103.399	19.949	4.062	0.469
105.499	131.442	80.005	19.994	103.400	19.948	4.161	0.483
105.999	131.670	80.005	19.993	103.405	19.947	4.177	0.471
106.500	131.888	80.005	19.994	103.407	19.947	4.186	0.455
107.000	132.150	80.007	19.994	103.406	19.949	4.049	0.463
107.499	132.347	80.006	19.995	103.407	19.949	4.067	0.469
107.999	132.609	80.007	19.995	103.407	19.949	4.062	0.459
108.499	132.833	80.006	19.994	103.409	19.948	4.145	0.473
109.000	133.076	80.007	19.994	103.416	19.951	3.954	0.477
109.500	133.290	80.006	19.994	103.416	19.949	4.044	0.462
109.999	133.485	80.007	19.994	103.416	19.948	4.152	0.433
110.499	133.761	80.006	19.994	103.416	19.949	4.080	0.440
111.000	134.003	80.006	19.994	103.415	19.949	4.080	0.495
111.501	134.214	80.005	19.994	103.411	19.950	3.970	0.485
112.000	134.481	80.006	19.993	103.411	19.946	4.253	0.466
112.499	134.697	80.008	19.995	103.410	19.946	4.234	0.481
112.999	134.971	80.007	19.994	103.411	19.953	3.793	0.487
113.499	135.180	80.008	19.995	103.411	19.948	4.144	0.486
113.999	135.426	80.005	19.994	103.412	19.951	3.921	0.469
114.499	135.708	80.008	19.995	103.413	19.948	4.157	0.492
114.999	135.928	80.008	19.994	103.413	19.951	3.950	0.515
115.499	136.195	80.006	19.994	103.412	19.953	3.826	0.494
116.000	136.396	80.008	19.993	103.412	19.950	3.984	0.478
116.500	136.664	80.007	19.993	103.410	19.950	4.024	0.469
116.999	136.909	80.007	19.994	103.408	19.953	3.781	0.491
117.499	137.146	80.007	19.995	103.407	19.947	4.220	0.498
118.000	137.377	80.008	19.994	103.404	19.949	4.038	0.475
118.500	137.649	80.008	19.994	103.403	19.955	3.689	0.485
118.999	137.900	80.007	19.995	103.403	19.947	4.171	0.513
119.500	138.130	80.008	19.994	103.405	19.950	3.986	0.502
120.001	138.348	80.009	19.994	103.405	19.951	3.925	0.465
120.500	138.609	80.009	19.995	103.406	19.951	3.916	0.464
120.999	138.888	80.009	19.994	103.407	19.952	3.844	0.509
121.499	139.119	80.008	19.994	103.404	19.950	4.011	0.525
121.999	139.382	80.010	19.993	103.399	19.952	3.869	0.502
122.500	139.621	80.009	19.993	103.391	19.949	4.086	0.498
123.000	139.879	80.008	19.994	103.387	19.949	4.039	0.499
123.499	140.131	80.008	19.993	103.385	19.949	4.079	0.504
123.999	140.398	80.009	19.992	103.382	19.951	3.907	0.514
124.499	140.612	80.008	19.994	103.382	19.951	3.902	0.500
124.999	140.861	80.008	19.994	103.387	19.949	4.055	0.472
125.499	141.106	80.009	19.994	103.388	19.950	4.008	0.478
125.999	141.344	80.009	19.993	103.383	19.950	3.970	0.489
126.499	141.569	80.007	19.993	103.387	19.948	4.130	0.474
126.999	141.877	80.008	19.994	103.390	19.948	4.110	0.498
127.499	142.120	80.009	19.993	103.391	19.950	3.971	0.542
127.999	142.390	80.008	19.994	103.390	19.953	3.833	0.532
128.500	142.594	80.006	19.993	103.392	19.954	3.754	0.493
129.000	142.858	80.008	19.995	103.391	19.958	3.446	0.471
129.500	143.128	80.008	19.995	103.386	19.953	3.793	0.501
130.000	143.341	80.007	19.993	103.386	19.955	3.687	0.508
130.500	143.628	80.008	19.994	103.388	19.955	3.674	0.491
131.000	143.862	80.007	19.995	103.388	19.955	3.694	0.510
131.500	144.146	80.006	19.994	103.387	19.952	3.841	0.519
132.000	144.393	80.006	19.993	103.386	19.957	3.538	0.524
132.500	144.678	80.007	19.996	103.382	19.951	3.910	0.532
133.000	144.922	80.005	19.994	103.378	19.960	3.339	0.530
133.500	145.186	80.007	19.994	103.377	19.955	3.682	0.518
134.000	145.419	80.007	19.994	103.378	19.954	3.737	0.503
134.500	145.675	80.007	19.994	103.381	19.950	3.991	0.493
135.000	145.949	80.007	19.993	103.385	19.955	3.644	0.509
135.500	146.205	80.005	19.994	103.391	19.952	3.874	0.530
136.000	146.419	80.006	19.994	103.398	19.951	3.908	0.500
136.500	146.720	80.007	19.994	103.396	19.955	3.678	0.493
137.000	146.944	80.007	19.995	103.396	19.954	3.752	0.520
137.500	147.210	80.006	19.995	103.394	19.954	3.727	0.508
138.000	147.425	80.007	19.995	103.390	19.953	3.779	0.486
138.500	147.715	80.006	19.995	103.383	19.954	3.728	0.493
139.000	147.979	80.006	19.995	103.379	19.957	3.534	0.529
139.500	148.221	80.006	19.995	103.376	19.954	3.719	0.530
140.000	148.473	80.007	19.995	103.372	19.955	3.673	0.501
140.500	148.731	80.007	19.995	103.369	19.954	3.742	0.502
141.000	148.991	80.006	19.995	103.368	19.950	4.003	0.514
141.500	149.245	80.005	19.995	103.368	19.954	3.735	0.516
142.000	149.524	80.005	19.995	103.368	19.953	3.820	0.523
142.500	149.772	80.007	19.996	103.368	19.955	3.660	0.530
143.000	149.984	80.006	19.996	103.370	19.955	3.674	0.493
143.500	150.281	80.006	19.995	103.373	19.953	3.771	0.485
144.000	150.488	80.005	19.995	103.373	19.955	3.642	0.506
144.500	150.796	80.006	19.995	103.373	19.954	3.737	0.509
145.000	151.033	80.006	19.995	103.372	19.957	3.570	0.530
145.500	151.297	80.006	19.995	103.371	19.955	3.653	0.523
146.000	151.552	80.007	19.996	103.369	19.953	3.816	0.510
146.500	151.828	80.006	19.994	103.369	19.956	3.608	0.525
147.000	152.039	80.008	19.997	103.368	19.954	3.757	0.509
147.500	152.279	80.006	19.995	103.369	19.955	3.666	0.469
148.000	152.555	80.006	19.997	103.370	19.959	3.416	0.483
148.500	152.838	80.005	19.995	103.370	19.956	3.635	0.538
149.000	153.035	80.008	19.996	103.372	19.956	3.626	0.520
149.500	153.327	80.006	19.995	103.373	19.956	3.628	0.485
150.000	153.564	80.005	19.995	103.372	19.954	3.761	0.509
150.500	153.816	80.006	19.996	103.372	19.956	3.583	0.509
151.000	154.077	80.007	19.995	103.370	19.954	3.703	0.501
151.500	154.305	80.007	19.996	103.362	19.953	3.780	0.501
152.000	154.533	80.006	19.994	103.360	19.958	3.493	0.472
152.500	154.813	80.006	19.995	103.359	19.953	3.780	0.482
153.000	155.042	80.006	19.995	103.359	19.955	3.689	0.508
153.500	155.317	80.006	19.994	103.360	19.952	3.867	0.506
154.000	155.541	80.006	19.995	103.367	19.950	3.994	0.501
154.500	155.799	80.005	19.995	103.370	19.956	3.574	0.490
155.000	156.062	80.005	19.994	103.371	19.955	3.687	0.502
155.500	156.298	80.005	19.995	103.372	19.962	3.222	0.510
156.000	156.548	80.006	19.995	103.372	19.955	3.702	0.492
156.500	156.773	80.007	19.995	103.372	19.956	3.610	0.481
157.000	157.050	80.007	19.993	103.372	19.958	3.452	0.489
157.500	157.301	80.005	19.993	103.371	19.959	3.409	0.515
158.000	157.612	80.006	19.994	103.371	19.960	3.357	0.545
158.500	157.846	80.005	19.994	103.371	19.955	3.680	0.554
159.000	158.112	80.006	19.995	103.369	19.961	3.279	0.523
159.500	158.349	80.007	19.994	103.369	19.958	3.468	0.501
160.000	158.573	80.006	19.995	103.369	19.953	3.784	0.482
160.500	158.828	80.006	19.994	103.368	19.953	3.780	0.470
161.000	159.113	80.005	19.994	103.365	19.957	3.524	0.509
161.500	159.318	80.005	19.993	103.365	19.957	3.527	0.515
162.000	159.599	80.006	19.995	103.366	19.957	3.568	0.488
162.500	159.877	80.005	19.994	103.366	19.954	3.723	0.522
163.000	160.124	80.003	19.994	103.368	19.955	3.647	0.542
163.500	160.333	80.007	19.995	103.371	19.957	3.522	0.491
164.000	160.625	80.007	19.995	103.372	19.956	3.579	0.478
164.500	160.893	80.006	19.995	103.373	19.961	3.272	0.530
165.000	161.103	80.005	19.995	103.373	19.954	3.730	0.519
165.500	161.393	80.004	19.994	103.376	19.954	3.709	0.489
166.000	161.639	80.005	19.996	103.383	19.954	3.728	0.519
166.500	161.892	80.004	19.995	103.384	19.956	3.626	0.517
167.000	162.139	80.005	19.994	103.383	19.957	3.561	0.499
167.500	162.414	80.005	19.995	103.383	19.952	3.858	0.511
168.000	162.671	80.005	19.995	103.381	19.956	3.595	0.527
168.500	162.928	80.004	19.995	103.374	19.953	3.812	0.523
169.000	163.165	80.004	19.995	103.373	19.960	3.353	0.505
169.500	163.464	80.004	19.996	103.373	19.956	3.627	0.515
170.000	163.731	80.005	19.995	103.373	19.957	3.539	0.550
170.500	163.974	80.004	19.995	103.372	19.953	3.796	0.538
171.000	164.210	80.005	19.996	103.372	19.956	3.588	0.495
171.500	164.518	80.005	19.995	103.371	19.957	3.516	0.512
172.000	164.768	80.006	19.996	103.367	19.951	3.920	0.551
172.500	165.003	80.005	19.995	103.363	19.954	3.722	0.521
173.000	165.249	80.005	19.996	103.360	19.957	3.535	0.483
173.500	165.519	80.006	19.995	103.359	19.954	3.740	0.499
174.000	165.759	80.005	19.995	103.360	19.954	3.758	0.513
174.500	166.048	80.007	19.995	103.364	19.955	3.701	0.519
175.000	166.269	80.007	19.996	103.367	19.956	3.599	0.519
175.500	166.548	80.005	19.995	103.370	19.954	3.714	0.505
176.000	166.797	80.005	19.995	103.371	19.957	3.529	0.514
176.500	167.035	80.004	19.995	103.371	19.959	3.404	0.508
177.000	167.319	80.006	19.995	103.371	19.953	3.787	0.504
177.500	167.564	80.005	19.995	103.370	19.956	3.616	0.525
178.000	167.796	80.006	19.995	103.370	19.956	3.614	0.503
178.500	168.067	80.007	19.995	103.366	19.953	3.804	0.490
179.000	168.295	80.007	19.994	103.364	19.955	3.645	0.502
179.500	168.584	80.007	19.995	103.358	19.955	3.664	0.508
180.000	168.841	80.007	19.995	103.356	19.956	3.605	0.531
180.500	169.078	80.007	19.995	103.354	19.958	3.478	0.520
181.000	169.342	80.007	19.995	103.357	19.961	3.293	0.498
181.500	169.643	80.007	19.994	103.359	19.957	3.526	0.533
182.000	169.877	80.007	19.995	103.364	19.961	3.262	0.550
182.500	170.099	80.007	19.994	103.365	19.960	3.354	0.495
183.000	170.338	80.007	19.994	103.360	19.957	3.560	0.459
183.500	170.622	80.008	19.994	103.352	19.957	3.522	0.492
184.000	170.850	80.006	19.994	103.347	19.955	3.700	0.517
184.500	171.104	80.008	19.995	103.347	19.959	3.400	0.497
185.000	171.328	80.007	19.994	103.348	19.960	3.314	0.480
185.500	171.576	80.007	19.994	103.355	19.960	3.312	0.475
186.000	171.840	80.008	19.994	103.362	19.958	3.476	0.492
186.500	172.123	80.007	19.995	103.364	19.957	3.551	0.530
187.000	172.370	80.008	19.995	103.357	19.957	3.546	0.538
187.500	172.626	80.007	19.994	103.349	19.956	3.600	0.516
188.000	172.882	80.006	19.993	103.341	19.955	3.682	0.507
188.500	173.123	80.007	19.994	103.333	19.959	3.422	0.505
189.000	173.391	80.007	19.995	103.330	19.959	3.404	0.503
189.500	173.664	80.007	19.994	103.330	19.956	3.590	0.525
190.000	173.891	80.007	19.994	103.336	19.957	3.517	0.521
190.500	174.153	80.007	19.994	103.341	19.954	3.720	0.495
191.000	174.428	80.007	19.995	103.344	19.960	3.364	0.513
191.500	174.638	80.007	19.994	103.343	19.955	3.662	0.511
192.000	174.885	80.007	19.994	103.343	19.954	3.725	0.471
192.500	175.154	80.006	19.994	103.337	19.958	3.445	0.487
193.000	175.379	80.007	19.993	103.332	19.952	3.867	0.505
193.500	175.650	80.007	19.994	103.332	19.955	3.641	0.495
194.000	175.909	80.006	19.994	103.334	19.956	3.583	0.513
194.500	176.156	80.008	19.995	103.334	19.955	3.664	0.518
195.000	176.394	80.006	19.995	103.334	19.952	3.856	0.495
195.500	176.669	80.006	19.994	103.334	19.955	3.646	0.499
196.000	176.942	80.007	19.996	103.334	19.955	3.698	0.531
196.500	177.173	80.007	19.994	103.335	19.951	3.935	0.526
197.000	177.464	80.006	19.995	103.336	19.955	3.671	0.513
197.500	177.688	80.007	19.994	103.336	19.958	3.449	0.518
198.000	177.951	80.006	19.993	103.335	19.957	3.519	0.501
198.500	178.213	80.007	19.995	103.334	19.958	3.479	0.506
199.000	178.457	80.008	19.995	103.330	19.953	3.829	0.515
199.500	178.724	80.007	19.995	103.330	19.955	3.661	0.509
200.000	178.967	80.008	19.995	103.330	19.958	3.501	0.511
200.500	179.188	80.009	19.993	103.330	19.957	3.508	0.487
201.000	179.458	80.008	19.994	103.330	19.953	3.824	0.477
201.500	179.736	80.008	19.994	103.332	19.955	3.697	0.520
202.000	179.912	80.008	19.994	103.333	19.956	3.621	0.502
202.500	180.215	80.008	19.994	103.333	19.954	3.758	0.466
203.000	180.431	80.008	19.994	103.333	19.957	3.522	0.498
203.500	180.708	80.009	19.994	103.331	19.955	3.659	0.506
204.000	180.938	80.007	19.994	103.330	19.955	3.653	0.500
204.500	181.188	80.008	19.993	103.329	19.956	3.571	0.494
205.000	181.458	80.007	19.994	103.329	19.956	3.589	0.500
205.500	181.722	80.009	19.994	103.329	19.956	3.619	0.527
206.000	181.952	80.007	19.994	103.329	19.957	3.567	0.514
206.500	182.194	80.010	19.995	103.330	19.955	3.650	0.483
207.000	182.465	80.008	19.994	103.332	19.957	3.535	0.493
207.500	182.680	80.009	19.994	103.332	19.958	3.443	0.500
208.000	182.940	80.008	19.995	103.333	19.957	3.515	0.480
208.500	183.174	80.007	19.994	103.334	19.958	3.490	0.484
209.000	183.442	80.007	19.993	103.333	19.953	3.799	0.498
209.500	183.672	80.008	19.995	103.330	19.958	3.468	0.500
210.000	183.906	80.007	19.993	103.331	19.956	3.614	0.481
210.500	184.171	80.008	19.993	103.331	19.959	3.407	0.481
211.000	184.452	80.007	19.994	103.329	19.953	3.770	0.523
211.500	184.701	80.007	19.994	103.329	19.957	3.555	0.538
212.000	184.945	80.008	19.994	103.331	19.956	3.601	0.511
212.500	185.172	80.008	19.994	103.333	19.956	3.632	0.482
213.000	185.426	80.006	19.994	103.333	19.956	3.610	0.476
213.500	185.660	80.007	19.993	103.333	19.961	3.294	0.485
214.000	185.958	80.006	19.994	103.333	19.962	3.224	0.510
214.500	186.222	80.006	19.994	103.332	19.958	3.488	0.547
215.000	186.439	80.006	19.994	103.330	19.960	3.343	0.522
215.500	186.740	80.007	19.994	103.330	19.963	3.122	0.500
216.000	186.959	80.007	19.995	103.331	19.961	3.284	0.519
216.500	187.176	80.006	19.995	103.331	19.964	3.054	0.478
217.000	187.426	80.006	19.995	103.331	19.961	3.278	0.452
217.500	187.705	80.006	19.994	103.331	19.960	3.363	0.498
218.000	187.942	80.008	19.993	103.332	19.960	3.336	0.523
218.500	188.214	80.008	19.995	103.331	19.955	3.677	0.512
219.000	188.447	80.006	19.994	103.333	19.960	3.354	0.507
219.500	188.705	80.006	19.994	103.333	19.957	3.508	0.498
220.000	188.932	80.005	19.994	103.333	19.957	3.555	0.488
220.500	189.166	80.006	19.994	103.333	19.960	3.356	0.473
221.000	189.414	80.006	19.994	103.333	19.960	3.338	0.472
221.500	189.664	80.006	19.993	103.332	19.955	3.641	0.490
222.000	189.943	80.007	19.994	103.332	19.956	3.625	0.513
222.500	190.159	80.006	19.994	103.332	19.957	3.565	0.512
223.000	190.410	80.005	19.994	103.332	19.956	3.621	0.481
223.500	190.671	80.006	19.994	103.332	19.957	3.510	0.489
224.000	190.901	80.006	19.994	103.333	19.959	3.400	0.502
224.500	191.172	80.005	19.993	103.333	19.954	3.748	0.496
225.000	191.453	80.007	19.993	103.332	19.952	3.867	0.526
225.500	191.676	80.006	19.993	103.332	19.953	3.781	0.528
226.000	191.951	80.006	19.993	103.332	19.960	3.345	0.501
226.500	192.155	80.007	19.993	103.331	19.957	3.551	0.488
227.000	192.432	80.005	19.993	103.331	19.960	3.328	0.480
227.500	192.700	80.007	19.993	103.331	19.958	3.445	0.513
228.000	192.887	80.006	19.994	103.331	19.959	3.420	0.500
228.500	193.189	80.007	19.994	103.332	19.954	3.709	0.472
229.000	193.430	80.007	19.995	103.332	19.959	3.429	0.516
229.500	193.653	80.006	19.994	103.332	19.960	3.368	0.503
230.000	193.920	80.008	19.995	103.333	19.956	3.623	0.477
230.500	194.206	80.007	19.995	103.336	19.955	3.652	0.522
231.000	194.393	80.008	19.995	103.339	19.957	3.558	0.513
231.500	194.627	80.007	19.994	103.340	19.958	3.483	0.447
232.000	194.882	80.007	19.994	103.340	19.957	3.567	0.455
232.500	195.145	80.006	19.994	103.339	19.955	3.695	0.503
233.000	195.388	80.008	19.995	103.337	19.953	3.770	0.512
233.500	195.610	80.006	19.995	103.332	19.953	3.794	0.486
234.000	195.871	80.006	19.995	103.328	19.957	3.535	0.474
234.500	196.131	80.006	19.995	103.326	19.952	3.844	0.502
235.000	196.306	80.006	19.995	103.325	19.954	3.711	0.478
235.500	196.570	80.004	19.994	103.325	19.957	3.512	0.437
236.000	196.805	80.006	19.996	103.326	19.956	3.630	0.469
236.500	197.076	80.006	19.994	103.329	19.956	3.605	0.502
237.000	197.293	80.005	19.995	103.331	19.956	3.583	0.497
237.500	197.532	80.007	19.995	103.331	19.955	3.660	0.473
238.000	197.798	80.006	19.995	103.331	19.955	3.644	0.480
238.500	198.054	80.005	19.995	103.331	19.959	3.422	0.513
239.000	198.300	80.004	19.995	103.330	19.958	3.465	0.512
239.500	198.529	80.006	19.995	103.329	19.953	3.808	0.489
240.000	198.817	80.007	19.995	103.329	19.956	3.598	0.496
240.500	199.045	80.005	19.995	103.329	19.955	3.677	0.517
241.000	199.301	80.007	19.995	103.330	19.957	3.549	0.500
241.500	199.560	80.006	19.995	103.331	19.953	3.770	0.499
242.000	199.781	80.007	19.995	103.334	19.957	3.533	0.497
242.500	200.016	80.006	19.995	103.335	19.954	3.714	0.468
243.000	200.287	80.006	19.994	103.339	19.955	3.640	0.481
243.500	200.532	80.005	19.995	103.339	19.956	3.628	0.511
244.000	200.732	80.006	19.994	103.339	19.959	3.432	0.480
244.500	200.995	80.005	19.995	103.339	19.954	3.751	0.453
245.000	201.275	80.006	19.994	103.337	19.960	3.351	0.503
245.500	201.514	80.005	19.994	103.333	19.956	3.599	0.531
246.000	201.758	80.005	19.995	103.332	19.956	3.610	0.501
246.500	201.952	80.005	19.995	103.331	19.959	3.421	0.460
247.000	202.246	80.006	19.995	103.326	19.954	3.766	0.463
247.500	202.438	80.006	19.995	103.321	19.955	3.637	0.488
248.000	202.729	80.007	19.995	103.321	19.960	3.369	0.484
248.500	202.986	80.006	19.994	103.321	19.957	3.522	0.515
249.000	203.188	80.005	19.994	103.321	19.960	3.367	0.503
249.500	203.438	80.007	19.995	103.325	19.953	3.784	0.456
250.000	203.711	80.005	19.994	103.330	19.953	3.794	0.488
250.500	203.926	80.005	19.995	103.330	19.957	3.554	0.505
251.000	204.198	80.005	19.995	103.331	19.954	3.704	0.487
251.500	204.425	80.006	19.995	103.330	19.955	3.658	0.493
252.000	204.658	80.006	19.994	103.330	19.953	3.823	0.480
252.500	204.917	80.007	19.995	103.330	19.956	3.576	0.476
253.000	205.119	80.006	19.995	103.327	19.955	3.653	0.476
253.500	205.412	80.006	19.995	103.321	19.951	3.945	0.478
254.000	205.600	80.006	19.994	103.317	19.956	3.599	0.488
254.500	205.896	80.006	19.995	103.314	19.953	3.775	0.483
255.000	206.144	80.006	19.996	103.311	19.956	3.606	0.514
255.500	206.384	80.006	19.995	103.306	19.955	3.698	0.516
256.000	206.672	80.007	19.995	103.310	19.959	3.434	0.508
256.500	206.925	80.005	19.994	103.314	19.955	3.639	0.535
257.000	207.146	80.007	19.995	103.312	19.958	3.491	0.508
257.500	207.420	80.006	19.994	103.315	19.956	3.603	0.485
258.000	207.665	80.007	19.994	103.321	19.956	3.635	0.507
258.500	207.880	80.007	19.994	103.323	19.955	3.641	0.489
259.000	208.153	80.007	19.995	103.321	19.958	3.488	0.474
259.500	208.382	80.007	19.995	103.320	19.954	3.732	0.495
260.000	208.629	80.006	19.994	103.315	19.954	3.711	0.489
260.500	208.891	80.006	19.995	103.310	19.957	3.535	0.493
261.000	209.111	80.006	19.995	103.302	19.955	3.700	0.495
261.500	209.390	80.009	19.995	103.300	19.957	3.549	0.490
262.000	209.594	80.008	19.995	103.302	19.952	3.834	0.491
262.500	209.855	80.009	19.995	103.306	19.954	3.741	0.474
263.000	210.093	80.007	19.994	103.311	19.953	3.796	0.482
263.500	210.323	80.007	19.995	103.317	19.959	3.409	0.484
264.000	210.540	80.007	19.995	103.317	19.956	3.629	0.457
264.500	210.785	80.006	19.996	103.313	19.951	3.934	0.454
265.000	211.036	80.007	19.995	103.309	19.954	3.752	0.479
265.500	211.279	80.006	19.995	103.308	19.957	3.540	0.495
266.000	211.540	80.008	19.994	103.309	19.954	3.721	0.499
266.500	211.755	80.007	19.995	103.312	19.952	3.868	0.490
267.000	212.012	80.009	19.996	103.314	19.956	3.624	0.474
267.500	212.241	80.006	19.995	103.318	19.952	3.842	0.479
268.000	212.493	80.007	19.997	103.319	19.955	3.698	0.484
268.500	212.742	80.008	19.995	103.320	19.951	3.949	0.491
269.000	212.975	80.007	19.995	103.320	19.953	3.773	0.491
269.500	213.199	80.008	19.996	103.326	19.955	3.685	0.469
270.000	213.458	80.008	19.995	103.326	19.952	3.897	0.470
270.500	213.674	80.006	19.996	103.326	19.952	3.885	0.479
271.000	213.927	80.007	19.996	103.326	19.950	3.998	0.472
271.500	214.147	80.007	19.995	103.327	19.955	3.646	0.471
272.000	214.420	80.007	19.994	103.326	19.954	3.730	0.483
272.500	214.675	80.007	19.995	103.325	19.949	4.032	0.511
273.000	214.898	80.007	19.996	103.323	19.953	3.827	0.503
273.500	215.120	80.008	19.994	103.320	19.954	3.712	0.461
274.000	215.368	80.006	19.995	103.317	19.950	4.003	0.457
274.500	215.607	80.007	19.996	103.316	19.952	3.897	0.479
275.000	215.836	80.007	19.995	103.314	19.948	4.119	0.478
275.500	216.088	80.008	19.994	103.312	19.952	3.863	0.474
276.000	216.329	80.007	19.996	103.316	19.950	4.024	0.487
276.500	216.519	80.007	19.995	103.319	19.948	4.145	0.462
277.000	216.777	80.007	19.994	103.318	19.948	4.104	0.440
277.500	217.017	80.007	19.996	103.321	19.950	3.971	0.473
278.000	217.280	80.009	19.995	103.323	19.949	4.034	0.500
278.500	217.492	80.007	19.994	103.322	19.944	4.394	0.489
279.000	217.715	80.008	19.995	103.321	19.948	4.138	0.455
279.500	217.964	80.008	19.994	103.323	19.949	4.034	0.454
280.000	218.229	80.007	19.994	103.325	19.950	4.005	0.493
280.500	218.446	80.008	19.994	103.327	19.947	4.222	0.498
281.000	218.696	80.007	19.994	103.327	19.947	4.210	0.475
281.500	218.923	80.008	19.994	103.330	19.949	4.093	0.472
282.000	219.172	80.008	19.994	103.331	19.948	4.118	0.477
282.500	219.396	80.008	19.994	103.330	19.947	4.179	0.474
283.000	219.586	80.009	19.995	103.328	19.947	4.163	0.443
283.500	219.830	80.010	19.994	103.323	19.949	4.094	0.424
284.000	220.119	80.010	19.994	103.323	19.949	4.049	0.484
284.500	220.316	80.010	19.995	103.319	19.945	4.297	0.509
285.000	220.602	80.008	19.993	103.315	19.949	4.081	0.485
285.500	220.826	80.008	19.995	103.311	19.948	4.101	0.497
286.000	221.077	80.010	19.994	103.314	19.946	4.246	0.492
286.500	221.288	80.008	19.993	103.315	19.949	4.051	0.468
287.000	221.500	80.009	19.994	103.319	19.947	4.200	0.443
287.500	221.731	80.010	19.994	103.324	19.949	4.037	0.433
288.000	221.974	80.010	19.994	103.326	19.943	4.486	0.459
288.500	222.210	80.009	19.994	103.325	19.946	4.272	0.476
289.000	222.478	80.008	19.993	103.323	19.943	4.439	0.491
289.500	222.697	80.010	19.994	103.321	19.945	4.333	0.495
290.000	222.903	80.009	19.994	103.318	19.947	4.208	0.456
290.500	223.134	80.010	19.994	103.322	19.944	4.421	0.431
291.000	223.381	80.010	19.994	103.324	19.944	4.420	0.458
291.500	223.637	80.010	19.994	103.327	19.944	4.412	0.491
292.000	223.881	80.009	19.994	103.328	19.945	4.324	0.501
292.500	224.098	80.009	19.994	103.329	19.943	4.457	0.480
293.000	224.341	80.009	19.993	103.326	19.943	4.474	0.460
293.500	224.596	80.009	19.994	103.325	19.941	4.615	0.479
294.000	224.852	80.008	19.994	103.318	19.945	4.332	0.505
294.500	225.071	80.009	19.995	103.311	19.945	4.345	0.493
295.000	225.326	80.007	19.994	103.306	19.944	4.400	0.474
295.500	225.522	80.007	19.994	103.302	19.947	4.196	0.462
296.000	225.804	80.008	19.994	103.298	19.946	4.289	0.464
296.500	226.008	80.008	19.994	103.298	19.942	4.537	0.482
297.000	226.267	80.006	19.994	103.302	19.942	4.538	0.475
297.500	226.518	80.008	19.994	103.305	19.941	4.560	0.486
298.000	226.770	80.007	19.995	103.310	19.942	4.535	0.506
298.500	227.007	80.006	19.994	103.315	19.941	4.605	0.497
299.000	227.209	80.006	19.995	103.319	19.942	4.519	0.464
299.500	227.426	80.008	19.994	103.320	19.940	4.668	0.429
300.000	227.696	80.007	19.994	103.323	19.939	4.736	0.452
300.500	227.925	80.007	19.994	103.325	19.938	4.813	0.493
301.000	228.159	80.006	19.994	103.323	19.940	4.673	0.481
301.500	228.431	80.007	19.995	103.325	19.944	4.420	0.485
302.000	228.696	80.006	19.994	103.327	19.941	4.598	0.522
302.500	228.927	80.006	19.994	103.325	19.942	4.510	0.517
303.000	229.157	80.005	19.994	103.322	19.939	4.705	0.479
303.500	229.351	80.007	19.994	103.324	19.942	4.524	0.442
304.000	229.636	80.006	19.994	103.325	19.941	4.587	0.451
304.500	229.844	80.008	19.996	103.326	19.940	4.680	0.486
305.000	230.102	80.006	19.994	103.328	19.935	4.956	0.480
305.500	230.321	80.006	19.995	103.332	19.940	4.639	0.472
306.000	230.572	80.007	19.996	103.332	19.939	4.754	0.473
306.500	230.837	80.008	19.995	103.332	19.936	4.899	0.493
307.000	231.068	80.007	19.994	103.332	19.935	5.016	0.506
307.500	231.263	80.007	19.995	103.333	19.934	5.018	0.462
308.000	231.576	80.006	19.994	103.333	19.937	4.870	0.467
308.500	231.802	80.008	19.995	103.333	19.932	5.183	0.523
309.000	232.059	80.007	19.993	103.333	19.936	4.935	0.511
309.500	232.251	80.007	19.994	103.333	19.933	5.134	0.466
310.000	232.496	80.008	19.995	103.335	19.932	5.152	0.443
310.500	232.722	80.007	19.994	103.336	19.936	4.951	0.454
311.000	232.959	80.007	19.994	103.336	19.930	5.314	0.467
311.500	233.214	80.009	19.995	103.337	19.933	5.107	0.477
312.000	233.465	80.007	19.994	103.336	19.930	5.287	0.498
312.500	233.685	80.007	19.994	103.334	19.928	5.466	0.489
313.000	233.970	80.006	19.994	103.333	19.926	5.572	0.488
313.500	234.190	80.007	19.993	103.332	19.926	5.547	0.505
314.000	234.432	80.007	19.994	103.331	19.930	5.303	0.483
314.500	234.653	80.008	19.994	103.329	19.924	5.712	0.462
315.000	234.892	80.008	19.993	103.327	19.925	5.635	0.461
315.500	235.182	80.008	19.994	103.327	19.930	5.301	0.495
316.000	235.417	80.009	19.994	103.327	19.926	5.606	0.527
316.500	235.637	80.008	19.994	103.327	19.930	5.317	0.490
317.000	235.853	80.009	19.993	103.329	19.929	5.367	0.446
317.500	236.091	80.008	19.994	103.331	19.926	5.554	0.445
318.000	236.344	80.008	19.994	103.331	19.929	5.411	0.472
318.500	236.581	80.008	19.993	103.331	19.924	5.727	0.491
319.000	236.779	80.009	19.995	103.331	19.925	5.664	0.462
319.500	237.030	80.009	19.994	103.330	19.923	5.756	0.442
320.000	237.286	80.008	19.995	103.330	19.918	6.075	0.479
320.500	237.505	80.008	19.994	103.330	19.923	5.743	0.491
321.000	237.724	80.007	19.994	103.330	19.922	5.849	0.456
321.500	238.005	80.008	19.994	103.330	19.920	5.940	0.469
322.000	238.200	80.008	19.994	103.330	19.919	6.027	0.489
322.500	238.483	80.008	19.994	103.330	19.918	6.118	0.477
323.000	238.696	80.008	19.994	103.330	19.916	6.212	0.487
323.500	238.935	80.007	19.994	103.329	19.916	6.228	0.474
324.000	239.210	80.007	19.994	103.329	19.918	6.125	0.483
324.500	239.435	80.009	19.995	103.329	19.911	6.574	0.507
325.000	239.680	80.007	19.995	103.329	19.915	6.319	0.485
325.500	239.922	80.008	19.995	103.329	19.910	6.612	0.479
326.000	240.136	80.006	19.994	103.330	19.916	6.265	0.472
326.500	240.378	80.007	19.995	103.330	19.915	6.291	0.456
327.000	240.606	80.006	19.994	103.329	19.914	6.343	0.463
327.500	240.884	80.006	19.995	103.327	19.915	6.294	0.487
328.000	241.120	80.006	19.994	103.324	19.915	6.280	0.510
328.500	241.331	80.006	19.996	103.324	19.909	6.715	0.481
329.000	241.584	80.007	19.995	103.324	19.911	6.550	0.456
329.500	241.814	80.008	19.995	103.325	19.910	6.609	0.473
330.000	242.066	80.006	19.996	103.327	19.909	6.720	0.482
330.500	242.332	80.005	19.995	103.330	19.909	6.717	0.500
331.000	242.557	80.006	19.995	103.330	19.908	6.765	0.505
331.500	242.815	80.005	19.995	103.330	19.910	6.657	0.487
332.000	243.064	80.006	19.995	103.330	19.907	6.811	0.495
332.500	243.269	80.007	19.995	103.330	19.906	6.876	0.480
333.000	243.518	80.006	19.996	103.330	19.905	6.985	0.454
333.500	243.808	80.006	19.994	103.330	19.908	6.747	0.497
334.000	244.005	80.007	19.995	103.330	19.905	6.930	0.513
334.500	244.269	80.005	19.994	103.330	19.906	6.924	0.474
335.000	244.516	80.006	19.995	103.331	19.909	6.693	0.486
335.500	244.762	80.006	19.995	103.331	19.908	6.741	0.502
336.000	244.975	80.007	19.995	103.330	19.905	6.976	0.476
336.500	245.215	80.007	19.995	103.331	19.902	7.167	0.455
337.000	245.487	80.007	19.995	103.331	19.901	7.208	0.483
337.500	245.717	80.008	19.996	103.331	19.897	7.486	0.507
338.000	245.940	80.008	19.995	103.331	19.903	7.079	0.477
338.500	246.203	80.006	19.994	103.331	19.902	7.147	0.469
339.000	246.426	80.008	19.996	103.332	19.900	7.309	0.487
339.500	246.692	80.008	19.995	103.336	19.898	7.434	0.488
340.000	246.950	80.007	19.995	103.339	19.896	7.551	0.507
340.500	247.204	80.007	19.995	103.340	19.895	7.594	0.518
341.000	247.430	80.008	19.994	103.341	19.899	7.337	0.496
341.500	247.723	80.008	19.996	103.340	19.897	7.463	0.499
342.000	247.923	80.008	19.994	103.336	19.892	7.802	0.506
342.500	248.169	80.007	19.995	103.333	19.896	7.537	0.469
343.000	248.407	80.008	19.995	103.331	19.895	7.614	0.465
343.500	248.662	80.009	19.995	103.332	19.894	7.677	0.489
344.000	248.945	80.007	19.994	103.331	19.891	7.872	0.516
344.500	249.162	80.009	19.994	103.331	19.889	7.985	0.519
345.000	249.450	80.008	19.995	103.331	19.889	8.037	0.502
345.500	249.719	80.007	19.995	103.331	19.891	7.881	0.530
346.000	249.980	80.008	19.994	103.330	19.895	7.633	0.543
346.500	250.258	80.006	19.994	103.330	19.887	8.127	0.535
347.000	250.432	80.009	19.995	103.330	19.890	7.942	0.495
347.500	250.697	80.008	19.995	103.330	19.885	8.274	0.446
348.000	250.965	80.008	19.994	103.331	19.886	8.215	0.487
348.500	251.254	80.008	19.993	103.331	19.885	8.305	0.545
349.000	251.482	80.008	19.995	103.330	19.882	8.483	0.537
349.500	251.702	80.008	19.995	103.332	19.887	8.120	0.483
350.000	251.977	80.008	19.995	103.332	19.881	8.553	0.472
350.500	252.198	80.008	19.994	103.331	19.884	8.345	0.495
351.000	252.431	80.006	19.993	103.331	19.879	8.683	0.475
351.500	252.714	80.007	19.994	103.332	19.880	8.636	0.485
352.000	252.943	80.006	19.995	103.331	19.881	8.565	0.514
352.500	253.219	80.007	19.995	103.333	19.878	8.726	0.509
353.000	253.436	80.006	19.994	103.333	19.875	8.915	0.499
353.500	253.665	80.007	19.993	103.333	19.876	8.837	0.470
354.000	253.922	80.006	19.995	103.334	19.871	9.198	0.466
354.500	254.152	80.007	19.994	103.333	19.875	8.959	0.486
355.000	254.420	80.007	19.995	103.332	19.874	8.970	0.492
355.500	254.653	80.006	19.995	103.332	19.876	8.898	0.499
356.000	254.901	80.006	19.994	103.332	19.876	8.885	0.491
356.500	255.194	80.006	19.996	103.331	19.872	9.145	0.512
357.000	255.396	80.005	19.995	103.331	19.870	9.246	0.518
357.500	255.624	80.006	19.995	103.332	19.870	9.255	0.462
358.000	255.875	80.006	19.994	103.332	19.873	9.093	0.454
358.500	256.142	80.006	19.994	103.333	19.868	9.388	0.499
359.000	256.394	80.006	19.994	103.333	19.866	9.505	0.518
359.500	256.652	80.007	19.995	103.333	19.865	9.620	0.514
360.000	256.884	80.006	19.995	103.333	19.864	9.665	0.500
360.500	257.137	80.005	19.996	103.333	19.865	9.604	0.488
361.000	257.422	80.005	19.994	103.332	19.862	9.780	0.512
361.500	257.623	80.006	19.995	103.333	19.857	10.119	0.512
362.000	257.848	80.006	19.994	103.339	19.863	9.754	0.456
362.500	258.106	80.007	19.995	103.342	19.861	9.866	0.454
363.000	258.330	80.007	19.996	103.346	19.859	10.015	0.482
363.500	258.586	80.006	19.996	103.347	19.856	10.169	0.481
364.000	258.848	80.004	19.994	103.348	19.853	10.379	0.499
364.500	259.074	80.006	19.996	103.342	19.853	10.399	0.503
365.000	259.349	80.008	19.998	103.342	19.858	10.062	0.495
365.500	259.554	80.008	19.996	103.340	19.855	10.269	0.491
366.000	259.849	80.008	19.995	103.339	19.855	10.276	0.490
366.500	260.090	80.007	19.994	103.338	19.850	10.589	0.518
367.000	260.307	80.007	19.995	103.337	19.854	10.343	0.497
367.500	260.551	80.007	19.994	103.334	19.849	10.620	0.459
368.000	260.833	80.007	19.994	103.332	19.844	10.969	0.493
368.500	261.070	80.008	19.994	103.332	19.848	10.702	0.523
369.000	261.325	80.007	19.994	103.332	19.849	10.650	0.505
369.500	261.547	80.008	19.995	103.334	19.847	10.797	0.484
370.000	261.788	80.008	19.995	103.337	19.842	11.099	0.471
370.500	262.044	80.008	19.994	103.342	19.844	10.980	0.480
371.000	262.243	80.009	19.994	103.346	19.839	11.282	0.476
371.500	262.501	80.008	19.994	103.346	19.847	10.800	0.456
372.000	262.778	80.008	19.996	103.344	19.846	10.862	0.496
372.500	263.015	80.008	19.994	103.342	19.840	11.261	0.525
373.000	263.232	80.007	19.995	103.339	19.842	11.132	0.484
373.500	263.502	80.008	19.995	103.338	19.839	11.328	0.470
374.000	263.753	80.008	19.994	103.338	19.837	11.426	0.504
374.500	263.983	80.007	19.994	103.339	19.840	11.227	0.501
375.000	264.220	80.009	19.994	103.342	19.832	11.751	0.474
375.500	264.498	80.008	19.993	103.342	19.834	11.657	0.491
376.000	264.702	80.009	19.994	103.342	19.837	11.403	0.499
376.500	264.969	80.009	19.994	103.346	19.837	11.459	0.476
377.000	265.190	80.007	19.993	103.350	19.833	11.687	0.479
377.500	265.428	80.007	19.995	103.351	19.831	11.829	0.473
378.000	265.691	80.007	19.994	103.354	19.830	11.867	0.480
378.500	265.922	80.006	19.994	103.354	19.827	12.103	0.498
379.000	266.188	80.008	19.994	103.352	19.830	11.885	0.496
379.500	266.395	80.007	19.994	103.356	19.826	12.182	0.485
380.000	266.698	80.006	19.995	103.358	19.825	12.202	0.491
380.500	266.927	80.005	19.993	103.355	19.825	12.207	0.521
381.000	267.225	80.006	19.993	103.352	19.828	12.059	0.530
381.500	267.454	80.007	19.994	103.351	19.821	12.480	0.527
382.000	267.705	80.006	19.993	103.350	19.824	12.280	0.503
382.500	267.950	80.007	19.995	103.350	19.822	12.422	0.488
383.000	268.205	80.007	19.995	103.353	19.812	13.074	0.498
383.500	268.426	80.007	19.995	103.358	19.814	12.934	0.488
384.000	268.730	80.005	19.993	103.360	19.812	13.072	0.500
384.500	268.954	80.007	19.994	103.360	19.809	13.278	0.526
385.000	269.187	80.005	19.993	103.360	19.810	13.183	0.493
385.500	269.475	80.008	19.995	103.359	19.813	13.048	0.489
386.000	269.706	80.005	19.994	103.359	19.811	13.138	0.520
386.500	269.939	80.005	19.994	103.362	19.814	12.959	0.492
387.000	270.223	80.006	19.994	103.363	19.808	13.333	0.490
387.500	270.469	80.008	19.994	103.363	19.802	13.724	0.523
388.000	270.738	80.005	19.993	103.365	19.805	13.553	0.523
388.500	270.948	80.005	19.994	103.366	19.801	13.783	0.497
389.000	271.229	80.007	19.995	103.367	19.803	13.656	0.485
389.500	271.503	80.007	19.995	103.368	19.800	13.873	0.523
390.000	271.757	80.006	19.994	103.368	19.803	13.647	0.542
390.500	272.018	80.006	19.994	103.369	19.800	13.843	0.521
391.000	272.234	80.007	19.994	103.370	19.799	13.970	0.496
391.500	272.516	80.006	19.995	103.368	19.794	14.297	0.488
392.000	272.749	80.006	19.995	103.367	19.798	14.008	0.507
392.500	272.957	80.007	19.994	103.367	19.793	14.324	0.477
393.000	273.228	80.005	19.994	103.367	19.788	14.631	0.460
393.500	273.497	80.007	19.994	103.367	19.799	13.956	0.510
394.000	273.725	80.005	19.994	103.368	19.794	14.260	0.519
394.500	273.973	80.006	19.994	103.368	19.784	14.894	0.487
395.000	274.219	80.008	19.995	103.367	19.785	14.884	0.485
395.500	274.460	80.007	19.995	103.364	19.777	15.367	0.490
396.000	274.727	80.008	19.995	103.362	19.781	15.103	0.498
396.500	275.001	80.006	19.995	103.363	19.780	15.159	0.525
397.000	275.223	80.006	19.995	103.364	19.788	14.668	0.518
397.500	275.512	80.006	19.994	103.365	19.781	15.095	0.504
398.000	275.745	80.005	19.994	103.367	19.779	15.240	0.517
398.500	276.006	80.006	19.994	103.367	19.779	15.264	0.508
399.000	276.303	80.007	19.993	103.367	19.778	15.335	0.526
399.500	276.487	80.007	19.994	103.366	19.772	15.722	0.520
400.000	276.759	80.007	19.995	103.365	19.775	15.542	0.468
400.500	277.046	80.007	19.995	103.366	19.771	15.779	0.508
401.000	277.287	80.008	19.995	103.367	19.767	16.036	0.544
401.500	277.506	80.007	19.993	103.367	19.766	16.097	0.494
402.000	277.764	80.007	19.994	103.368	19.769	15.887	0.468
402.500	278.055	80.007	19.994	103.368	19.764	16.225	0.513
403.000	278.276	80.006	19.995	103.368	19.768	15.999	0.530
403.500	278.532	80.007	19.994	103.368	19.762	16.390	0.494
404.000	278.771	80.007	19.995	103.368	19.758	16.631	0.486
404.500	279.007	80.007	19.995	103.369	19.758	16.642	0.485
405.000	279.316	80.007	19.995	103.371	19.759	16.584	0.510
405.500	279.429	80.007	19.994	103.374	19.750	17.149	0.483
406.000	279.737	80.007	19.995	103.378	19.754	16.882	0.421
406.500	280.043	80.008	19.994	103.379	19.753	16.968	0.518
407.000	280.250	80.007	19.994	103.378	19.754	16.930	0.564
407.500	280.806	80.007	19.995	103.377	19.746	17.456	0.638
408.000	280.936	80.008	19.994	103.374	19.744	17.560	0.724
408.500	281.087	80.008	19.995	103.370	19.740	17.845	0.483
409.000	281.178	80.007	19.995	103.369	19.745	17.493	0.261
409.500	281.434	80.006	19.994	103.371	19.741	17.752	0.295
410.000	281.596	80.008	19.994	103.370	19.737	17.991	0.383
410.500	281.801	80.004	19.993	103.370	19.744	17.537	0.392
411.000	282.199	80.007	19.994	103.371	19.733	18.314	0.485
411.500	282.680	80.006	19.993	103.372	19.742	17.692	0.741
412.000	282.751	80.006	19.995	103.370	19.733	18.293	0.716
412.500	283.014	80.007	19.994	103.371	19.732	18.325	0.443
413.000	283.279	80.007	19.994	103.372	19.731	18.424	0.431
413.500	283.525	80.006	19.993	103.373	19.729	18.545	0.519
414.000	283.810	80.007	19.993	103.373	19.726	18.761	0.521
414.500	283.975	80.006	19.995	103.373	19.724	18.850	0.491
415.000	284.196	80.006	19.994	103.375	19.729	18.517	0.418
415.500	284.522	80.006	19.994	103.375	19.725	18.823	0.466
416.000	284.730	80.006	19.994	103.375	19.726	18.748	0.540
416.500	285.037	80.004	19.993	103.379	19.721	19.063	0.525
417.000	285.272	80.005	19.994	103.381	19.721	19.103	0.529
417.500	285.502	80.004	19.992	103.380	19.714	19.533	0.503
418.000	285.730	80.006	19.994	103.379	19.711	19.710	0.461
418.500	286.021	80.005	19.993	103.379	19.720	19.137	0.489
419.000	286.205	80.006	19.994	103.376	19.713	19.626	0.497
419.500	286.521	80.006	19.993	103.374	19.705	20.116	0.487
420.000	286.743	80.006	19.994	103.375	19.708	19.905	0.519
420.500	287.041	80.007	19.995	103.379	19.713	19.597	0.529
421.000	287.234	80.007	19.994	103.380	19.702	20.356	0.506
421.500	287.498	80.006	19.993	103.381	19.705	20.155	0.475
422.000	287.708	80.006	19.995	103.387	19.705	20.138	0.465
422.500	288.012	80.006	19.994	103.391	19.700	20.449	0.493
423.000	288.206	80.007	19.994	103.388	19.699	20.521	0.506
423.500	288.436	80.007	19.994	103.388	19.699	20.503	0.461
424.000	288.698	80.005	19.993	103.388	19.696	20.725	0.458
424.500	288.938	80.009	19.996	103.381	19.693	20.907	0.497
425.000	289.191	80.007	19.995	103.376	19.689	21.174	0.498
425.500	289.458	80.009	19.997	103.378	19.693	20.914	0.506
426.000	289.681	80.008	19.994	103.378	19.690	21.116	0.505
426.500	289.939	80.005	19.994	103.378	19.688	21.231	0.486
427.000	290.174	80.007	19.996	103.381	19.684	21.543	0.487
427.500	290.444	80.006	19.994	103.385	19.684	21.543	0.498
428.000	290.691	80.006	19.994	103.387	19.681	21.684	0.511
428.500	290.948	80.006	19.994	103.392	19.680	21.786	0.511
429.000	291.212	80.008	19.994	103.397	19.678	21.931	0.512
429.500	291.425	80.007	19.996	103.398	19.671	22.388	0.499
430.000	291.724	80.008	19.995	103.398	19.669	22.471	0.495
430.500	291.910	80.006	19.994	103.396	19.669	22.496	0.498
431.000	292.190	80.007	19.994	103.390	19.669	22.530	0.476
431.500	292.435	80.007	19.993	103.387	19.667	22.618	0.496
432.000	292.677	80.007	19.994	103.384	19.662	22.978	0.506
432.500	292.916	80.008	19.995	103.384	19.657	23.305	0.484
433.000	293.150	80.007	19.993	103.388	19.657	23.296	0.477
433.500	293.374	80.006	19.994	103.391	19.655	23.398	0.465
434.000	293.636	80.007	19.994	103.391	19.655	23.433	0.472
434.500	293.910	80.007	19.995	103.390	19.659	23.131	0.511
435.000	294.078	80.006	19.995	103.390	19.656	23.352	0.489
435.500	294.354	80.008	19.995	103.392	19.651	23.714	0.443
436.000	294.587	80.007	19.995	103.395	19.644	24.155	0.477
436.500	294.856	80.005	19.993	103.400	19.645	24.118	0.506
437.000	295.104	80.007	19.994	103.405	19.651	23.693	0.510
437.500	295.344	80.007	19.995	103.402	19.643	24.200	0.502
438.000	295.575	80.008	19.994	103.398	19.638	24.525	0.479
438.500	295.827	80.005	19.994	103.398	19.636	24.671	0.477
439.000	296.062	80.008	19.994	103.398	19.636	24.683	0.485
439.500	296.286	80.008	19.995	103.400	19.634	24.830	0.474
440.000	296.545	80.008	19.994	103.407	19.632	24.966	0.471
440.500	296.797	80.006	19.994	103.411	19.628	25.214	0.497
441.000	297.054	80.007	19.993	103.412	19.630	25.078	0.510
441.500	297.291	80.008	19.994	103.412	19.626	25.332	0.501
442.000	297.530	80.007	19.994	103.412	19.625	25.425	0.485
442.500	297.794	80.007	19.994	103.413	19.624	25.452	0.490
443.000	297.984	80.007	19.995	103.413	19.625	25.378	0.479
443.500	298.234	80.006	19.994	103.413	19.621	25.670	0.447
444.000	298.487	80.008	19.993	103.412	19.609	26.453	0.471
444.500	298.739	80.007	19.994	103.412	19.616	25.982	0.504
445.000	298.984	80.009	19.995	103.410	19.613	26.181	0.501
445.500	299.198	80.008	19.996	103.410	19.608	26.519	0.478
446.000	299.448	80.007	19.994	103.409	19.615	26.098	0.462
446.500	299.724	80.006	19.994	103.411	19.606	26.646	0.495
447.000	299.949	80.007	19.993	103.415	19.601	26.967	0.513
447.500	300.166	80.009	19.994	103.420	19.605	26.713	0.471
448.000	300.426	80.007	19.994	103.428	19.597	27.261	0.459
448.500	300.632	80.008	19.995	103.433	19.593	27.537	0.472
449.000	300.905	80.008	19.996	103.432	19.593	27.489	0.473
449.500	301.166	80.008	19.995	103.430	19.589	27.758	0.507
450.000	301.392	80.009	19.995	103.429	19.591	27.617	0.510
450.500	301.694	80.009	19.994	103.427	19.588	27.819	0.507
451.000	301.914	80.010	19.996	103.426	19.586	27.991	0.525
451.500	302.155	80.008	19.995	103.432	19.579	28.456	0.491
452.000	302.400	80.009	19.995	103.436	19.584	28.084	0.473
452.500	302.662	80.010	19.994	103.439	19.579	28.416	0.496
453.000	302.890	80.009	19.994	103.441	19.579	28.470	0.499
453.500	303.129	80.010	19.995	103.444	19.573	28.862	0.479
454.000	303.397	80.010	19.994	103.443	19.568	29.157	0.487
454.500	303.650	80.008	19.994	103.444	19.568	29.163	0.514
455.000	303.869	80.009	19.995	103.443	19.566	29.268	0.496
455.500	304.115	80.009	19.995	103.442	19.560	29.684	0.468
456.000	304.391	80.008	19.995	103.442	19.559	29.736	0.494
456.500	304.581	80.009	19.995	103.443	19.553	30.144	0.494
457.000	304.838	80.009	19.996	103.440	19.563	29.486	0.457
457.500	305.093	80.008	19.995	103.439	19.559	29.770	0.480
458.000	305.311	80.007	19.994	103.437	19.549	30.438	0.492
458.500	305.568	80.009	19.996	103.436	19.544	30.757	0.474
459.000	305.871	80.009	19.995	103.435	19.542	30.891	0.518
459.500	306.091	80.008	19.996	103.439	19.542	30.891	0.542
460.000	306.336	80.008	19.996	103.440	19.546	30.646	0.493
460.500	306.571	80.009	19.996	103.444	19.536	31.301	0.472
461.000	306.848	80.006	19.996	103.447	19.531	31.601	0.496
461.500	307.058	80.005	19.996	103.449	19.532	31.528	0.500
462.000	307.291	80.007	19.995	103.449	19.526	31.913	0.465
462.500	307.564	80.008	19.995	103.448	19.527	31.864	0.475
463.000	307.803	80.004	19.994	103.447	19.528	31.813	0.509
463.500	308.061	80.005	19.996	103.445	19.525	32.012	0.504
464.000	308.299	80.006	19.996	103.445	19.519	32.388	0.496
464.500	308.547	80.006	19.996	103.445	19.518	32.459	0.491
465.000	308.796	80.007	19.996	103.448	19.510	32.970	0.492
465.500	309.038	80.007	19.995	103.450	19.510	32.984	0.495
466.000	309.319	80.007	19.994	103.453	19.505	33.322	0.507
466.500	309.565	80.006	19.995	103.461	19.506	33.276	0.525
467.000	309.879	80.007	19.994	103.468	19.504	33.371	0.544
467.500	310.152	80.007	19.996	103.473	19.501	33.608	0.573
468.000	310.333	80.007	19.995	103.479	19.500	33.629	0.520
468.500	310.584	80.007	19.995	103.484	19.487	34.485	0.443
469.000	310.833	80.007	19.994	103.483	19.492	34.174	0.466
469.500	311.048	80.006	19.993	103.480	19.489	34.372	0.481
470.000	311.302	80.005	19.994	103.476	19.485	34.666	0.467
470.500	311.639	80.006	19.994	103.470	19.484	34.697	0.530
471.000	311.901	80.007	19.995	103.462	19.477	35.198	0.595
471.500	312.124	80.008	19.995	103.459	19.472	35.491	0.542
472.000	312.388	80.007	19.994	103.456	19.473	35.413	0.486
472.500	312.671	80.008	19.994	103.453	19.470	35.630	0.517
473.000	312.926	80.005	19.993	103.456	19.466	35.928	0.543
473.500	313.108	80.005	19.995	103.459	19.466	35.875	0.487
474.000	313.425	80.006	19.995	103.458	19.463	36.121	0.468
474.500	313.667	80.006	19.994	103.462	19.459	36.382	0.529
475.000	313.893	80.007	19.994	103.469	19.450	36.947	0.513
475.500	314.172	80.006	19.994	103.472	19.448	37.058	0.486
476.000	314.450	80.007	19.993	103.477	19.448	37.084	0.531
476.500	314.664	80.007	19.995	103.482	19.444	37.370	0.524
477.000	314.904	80.008	19.994	103.478	19.442	37.485	0.473
477.500	315.216	80.006	19.993	103.478	19.434	37.997	0.503
478.000	315.427	80.006	19.993	103.478	19.430	38.257	0.538
478.500	315.693	80.006	19.994	103.478	19.432	38.164	0.500
479.000	315.922	80.006	19.993	103.481	19.426	38.524	0.486
479.500	316.183	80.006	19.994	103.486	19.430	38.300	0.492
480.000	316.469	80.006	19.993	103.487	19.426	38.555	0.519
480.500	316.710	80.008	19.994	103.489	19.416	39.230	0.537
481.000	316.983	80.007	19.994	103.491	19.414	39.339	0.521
481.500	317.227	80.008	19.994	103.492	19.410	39.614	0.516
482.000	317.506	80.006	19.995	103.495	19.411	39.543	0.520
482.500	317.745	80.006	19.994	103.499	19.406	39.894	0.520
483.000	317.986	80.006	19.995	103.504	19.405	39.962	0.499
483.500	318.245	80.008	19.995	103.507	19.398	40.416	0.490
484.000	318.527	80.005	19.993	103.505	19.396	40.542	0.521
484.500	318.761	80.008	19.996	103.505	19.392	40.817	0.529
485.000	319.036	80.006	19.995	103.503	19.390	40.902	0.512
485.500	319.254	80.008	19.996	103.497	19.390	40.929	0.501
486.000	319.532	80.006	19.994	103.493	19.385	41.234	0.495
486.500	319.799	80.007	19.994	103.493	19.386	41.204	0.520
487.000	320.052	80.006	19.994	103.491	19.377	41.775	0.532
487.500	320.305	80.006	19.994	103.490	19.375	41.911	0.513
488.000	320.529	80.007	19.994	103.494	19.373	42.037	0.492
488.500	320.752	80.007	19.995	103.499	19.374	41.999	0.462
489.000	321.025	80.007	19.995	103.505	19.369	42.291	0.472
489.500	321.333	80.005	19.993	103.508	19.364	42.644	0.538
490.000	321.555	80.006	19.994	103.509	19.366	42.523	0.556
490.500	321.854	80.006	19.995	103.512	19.356	43.137	0.526
491.000	322.106	80.005	19.994	103.515	19.352	43.395	0.536
491.500	322.342	80.006	19.993	103.515	19.354	43.273	0.519
492.000	322.587	80.005	19.994	103.520	19.345	43.909	0.484
492.500	322.845	80.005	19.994	103.524	19.345	43.891	0.492
493.000	323.105	80.005	19.993	103.525	19.341	44.119	0.511
493.500	323.380	80.005	19.994	103.525	19.342	44.106	0.527
494.000	323.647	80.007	19.995	103.525	19.336	44.461	0.539
494.500	323.917	80.006	19.995	103.524	19.335	44.555	0.539
495.000	324.124	80.006	19.994	103.524	19.334	44.618	0.507
495.500	324.397	80.005	19.994	103.522	19.324	45.250	0.479
496.000	324.637	80.005	19.994	103.523	19.324	45.282	0.496
496.500	324.905	80.004	19.994	103.525	19.324	45.288	0.510
497.000	325.145	80.007	19.994	103.526	19.322	45.375	0.508
497.500	325.411	80.004	19.994	103.527	19.312	46.055	0.507
498.000	325.653	80.005	19.994	103.529	19.309	46.230	0.507
498.500	325.909	80.005	19.994	103.529	19.312	46.089	0.503
499.000	326.207	80.005	19.994	103.529	19.308	46.340	0.526
499.500	326.437	80.005	19.994	103.529	19.300	46.823	0.541
500.000	326.731	80.005	19.994	103.529	19.298	46.955	0.526
500.500	326.967	80.006	19.995	103.530	19.293	47.284	0.527
501.000	327.234	80.005	19.993	103.530	19.295	47.203	0.517
501.500	327.489	80.006	19.994	103.530	19.287	47.698	0.513
502.000	327.753	80.007	19.994	103.530	19.292	47.387	0.521
502.500	328.011	80.008	19.995	103.530	19.280	48.184	0.520
503.000	328.247	80.006	19.994	103.528	19.282	48.013	0.508
503.500	328.541	80.005	19.992	103.527	19.286	47.749	0.512
504.000	328.812	80.007	19.994	103.525	19.277	48.376	0.547
504.500	329.010	80.006	19.993	103.521	19.276	48.467	0.516
505.000	329.300	80.008	19.993	103.519	19.271	48.755	0.478
505.500	329.578	80.006	19.994	103.520	19.267	49.006	0.528
506.000	329.803	80.008	19.993	103.520	19.266	49.109	0.536
506.500	330.108	80.008	19.993	103.521	19.259	49.575	0.517
507.000	330.360	80.007	19.993	103.525	19.264	49.248	0.543
507.500	330.607	80.009	19.994	103.526	19.256	49.784	0.528
508.000	330.861	80.007	19.993	103.527	19.260	49.471	0.500
508.500	331.111	80.009	19.993	103.527	19.256	49.760	0.503
509.000	331.350	80.008	19.994	103.528	19.255	49.815	0.497
509.500	331.617	80.010	19.993	103.529	19.253	49.955	0.497
510.000	331.872	80.008	19.993	103.529	19.247	50.323	0.514
510.500	332.143	80.010	19.994	103.528	19.242	50.680	0.524
511.000	332.404	80.009	19.994	103.528	19.242	50.706	0.529
511.500	332.656	80.007	19.994	103.528	19.237	50.991	0.522
512.000	332.915	80.009	19.994	103.528	19.234	51.219	0.512
512.500	333.150	80.008	19.994	103.530	19.237	50.983	0.503
513.000	333.452	80.008	19.994	103.531	19.233	51.280	0.515
513.500	333.678	80.009	19.994	103.530	19.229	51.563	0.533
514.000	333.973	80.007	19.993	103.533	19.228	51.627	0.525
514.500	334.209	80.008	19.993	103.535	19.224	51.844	0.526
515.000	334.461	80.007	19.993	103.532	19.225	51.812	0.509
515.500	334.737	80.006	19.993	103.535	19.224	51.879	0.508
516.000	334.980	80.006	19.995	103.539	19.218	52.293	0.524
516.500	335.253	80.007	19.993	103.541	19.218	52.265	0.517
517.000	335.508	80.007	19.994	103.543	19.219	52.199	0.521
517.500	335.768	80.007	19.994	103.543	19.209	52.891	0.521
518.000	336.004	80.008	19.994	103.540	19.206	53.079	0.505
518.500	336.292	80.007	19.993	103.535	19.209	52.884	0.510
519.000	336.526	80.007	19.993	103.533	19.204	53.156	0.523
519.500	336.793	80.006	19.993	103.531	19.200	53.441	0.512
520.000	337.034	80.008	19.994	103.532	19.200	53.451	0.505
520.500	337.281	80.006	19.995	103.536	19.196	53.697	0.498
521.000	337.578	80.008	19.994	103.539	19.197	53.632	0.516
521.500	337.831	80.006	19.994	103.536	19.197	53.668	0.547
522.000	338.068	80.006	19.994	103.534	19.195	53.765	0.520
522.500	338.380	80.007	19.995	103.532	19.192	53.956	0.519
523.000	338.596	80.006	19.995	103.528	19.185	54.480	0.539
523.500	338.899	80.007	19.995	103.528	19.180	54.749	0.524
524.000	339.086	80.007	19.995	103.527	19.178	54.944	0.504
524.500	339.378	80.007	19.995	103.531	19.185	54.479	0.484
525.000	339.612	80.008	19.995	103.532	19.174	55.186	0.503
525.500	339.862	80.007	19.995	103.533	19.173	55.210	0.505
526.000	340.126	80.007	19.994	103.530	19.172	55.273	0.499
526.500	340.397	80.007	19.995	103.535	19.173	55.264	0.525
527.000	340.649	80.009	19.995	103.538	19.166	55.672	0.529
527.500	340.923	80.007	19.993	103.544	19.171	55.358	0.524
528.000	341.181	80.007	19.994	103.544	19.166	55.714	0.529
528.500	341.434	80.008	19.994	103.548	19.166	55.694	0.521
529.000	341.706	80.009	19.996	103.547	19.157	56.297	0.518
529.500	341.946	80.007	19.996	103.540	19.159	56.160	0.519
530.000	342.207	80.007	19.994	103.541	19.159	56.153	0.507
530.500	342.430	80.007	19.995	103.546	19.155	56.428	0.493
531.000	342.684	80.006	19.994	103.549	19.154	56.505	0.480
531.500	342.915	80.008	19.994	103.552	19.151	56.696	0.481
532.000	343.198	80.009	19.994	103.558	19.150	56.757	0.499
532.500	343.428	80.008	19.995	103.558	19.147	56.967	0.514
533.000	343.714	80.009	19.995	103.558	19.149	56.858	0.515
533.500	343.922	80.010	19.995	103.558	19.141	57.347	0.505
534.000	344.181	80.011	19.995	103.559	19.140	57.401	0.481
534.500	344.455	80.008	19.994	103.560	19.140	57.435	0.500
535.000	344.693	80.011	19.995	103.561	19.137	57.634	0.522
535.500	344.980	80.008	19.995	103.561	19.133	57.862	0.518
536.000	345.201	80.008	19.995	103.556	19.130	58.096	0.517
536.500	345.463	80.008	19.994	103.554	19.133	57.863	0.496
537.000	345.737	80.009	19.994	103.554	19.131	57.988	0.510
537.500	345.964	80.009	19.996	103.554	19.127	58.304	0.518
538.000	346.226	80.008	19.994	103.554	19.126	58.370	0.495
538.500	346.460	80.009	19.995	103.559	19.125	58.408	0.493
539.000	346.755	80.009	19.993	103.562	19.117	58.917	0.513
539.500	346.978	80.010	19.994	103.561	19.116	59.035	0.524
540.000	347.251	80.007	19.994	103.561	19.112	59.298	0.507
540.500	347.495	80.009	19.995	103.562	19.106	59.678	0.506
541.000	347.779	80.008	19.995	103.562	19.106	59.651	0.522
541.500	348.001	80.008	19.994	103.561	19.103	59.874	0.517
542.000	348.276	80.008	19.995	103.561	19.103	59.913	0.501
542.500	348.551	80.009	19.994	103.562	19.093	60.548	0.523
543.000	348.760	80.007	19.995	103.563	19.098	60.249	0.518
543.500	349.048	80.007	19.995	103.563	19.089	60.782	0.491
544.000	349.268	80.007	19.993	103.565	19.085	61.046	0.502
544.500	349.522	80.005	19.995	103.566	19.088	60.892	0.491
545.000	349.863	80.007	19.995	103.566	19.080	61.413	0.534
545.500	350.032	80.006	19.995	103.566	19.072	61.919	0.552
546.000	350.314	80.006	19.997	103.566	19.074	61.807	0.480
546.500	350.544	80.006	19.996	103.567	19.079	61.443	0.482
547.000	350.866	80.005	19.996	103.567	19.074	61.798	0.532
547.500	351.136	80.005	19.995	103.567	19.059	62.771	0.572
548.000	351.379	80.005	19.995	103.567	19.064	62.481	0.553
548.500	351.619	80.005	19.995	103.570	19.059	62.765	0.499
549.000	351.866	80.005	19.996	103.569	19.054	63.129	0.485
549.500	352.122	80.005	19.994	103.569	19.054	63.092	0.495
550.000	352.364	80.006	19.995	103.571	19.051	63.350	0.500
550.500	352.652	80.005	19.995	103.577	19.043	63.830	0.514
551.000	352.872	80.006	19.997	103.583	19.040	64.050	0.519
551.500	353.146	80.005	19.995	103.590	19.040	64.044	0.501
552.000	353.429	80.005	19.996	103.600	19.038	64.169	0.526
552.500	353.674	80.005	19.996	103.608	19.032	64.574	0.543
553.000	353.964	80.006	19.997	103.610	19.027	64.908	0.531
553.500	354.167	80.005	19.997	103.610	19.021	65.319	0.514
554.000	354.423	80.006	19.996	103.609	19.026	64.996	0.476
554.500	354.682	80.005	19.995	103.607	19.018	65.522	0.487
555.000	354.899	80.006	19.994	103.605	19.015	65.698	0.496
555.500	355.216	80.006	19.996	103.607	19.008	66.196	0.506
556.000	355.426	80.006	19.996	103.608	19.000	66.706	0.530
556.500	355.678	80.007	19.997	103.609	19.000	66.695	0.494
557.000	355.930	80.005	19.995	103.614	18.999	66.787	0.483
557.500	356.156	80.005	19.995	103.614	18.990	67.356	0.491
558.000	356.387	80.005	19.993	103.611	18.983	67.834	0.467
558.500	356.630	80.007	19.996	103.609	18.980	68.054	0.465
559.000	356.871	80.006	19.995	103.609	18.980	68.052	0.479
559.500	357.129	80.004	19.994	103.608	18.976	68.316	0.492
560.000	357.419	80.005	19.995	103.609	18.966	68.940	0.524
560.500	357.668	80.007	19.996	103.611	18.964	69.071	0.544
561.000	357.957	80.006	19.996	103.617	18.962	69.223	0.538
561.500	358.166	80.006	19.996	103.623	18.956	69.583	0.518
562.000	358.439	80.005	19.994	103.620	18.953	69.836	0.490
562.500	358.687	80.005	19.995	103.624	18.947	70.189	0.501
563.000	358.953	80.004	19.994	103.628	18.944	70.385	0.517
563.500	359.197	80.007	19.995	103.626	18.939	70.710	0.512
564.000	359.429	80.007	19.995	103.622	18.938	70.811	0.493
564.500	359.652	80.008	19.995	103.623	18.930	71.334	0.466
565.000	359.923	80.006	19.994	103.621	18.926	71.617	0.475
565.500	360.186	80.006	19.994	103.622	18.920	71.982	0.514
566.000	360.410	80.007	19.994	103.626	18.915	72.300	0.510
566.500	360.710	80.007	19.994	103.632	18.913	72.429	0.506
567.000	360.962	80.007	19.993	103.638	18.909	72.725	0.538
567.500	361.180	80.007	19.994	103.643	18.904	73.061	0.511
568.000	361.453	80.006	19.994	103.645	18.900	73.317	0.480
568.500	361.683	80.007	19.993	103.645	18.898	73.445	0.497
569.000	361.934	80.007	19.995	103.645	18.895	73.642	0.492
569.500	362.184	80.006	19.995	103.645	18.891	73.935	0.491
570.000	362.406	80.006	19.994	103.641	18.885	74.319	0.487
570.500	362.698	80.005	19.993	103.641	18.882	74.526	0.493
571.000	362.943	80.009	19.996	103.640	18.877	74.812	0.525
571.500	363.209	80.006	19.994	103.642	18.871	75.265	0.524
572.000	363.424	80.007	19.994	103.642	18.868	75.429	0.496
572.500	363.695	80.007	19.994	103.645	18.864	75.662	0.483
573.000	363.934	80.008	19.995	103.646	18.856	76.217	0.498
573.500	364.193	80.008	19.995	103.647	18.855	76.242	0.504
574.000	364.425	80.008	19.993	103.646	18.853	76.409	0.495
574.500	364.697	80.008	19.993	103.645	18.854	76.352	0.498
575.000	364.917	80.008	19.993	103.645	18.849	76.635	0.498
575.500	365.182	80.007	19.994	103.644	18.841	77.196	0.488
576.000	365.448	80.006	19.993	103.647	18.838	77.396	0.507
576.500	365.676	80.005	19.994	103.654	18.837	77.463	0.513
577.000	365.887	80.006	19.994	103.660	18.836	77.497	0.467
577.500	366.132	80.005	19.993	103.662	18.828	78.074	0.448
578.000	366.402	80.007	19.995	103.663	18.828	78.071	0.485
578.500	366.655	80.006	19.994	103.659	18.824	78.315	0.519
579.000	366.890	80.005	19.995	103.651	18.819	78.612	0.506
579.500	367.120	80.006	19.994	103.646	18.818	78.682	0.477
580.000	367.415	80.004	19.995	103.648	18.815	78.892	0.495
580.500	367.641	80.007	19.994	103.655	18.810	79.216	0.523
581.000	367.886	80.006	19.995	103.663	18.809	79.295	0.496
581.500	368.169	80.007	19.994	103.670	18.812	79.112	0.500
582.000	368.403	80.007	19.996	103.672	18.808	79.365	0.522
582.500	368.696	80.005	19.994	103.674	18.803	79.672	0.522
583.000	368.945	80.006	19.995	103.669	18.800	79.868	0.535
583.500	369.125	80.007	19.995	103.660	18.796	80.158	0.485
584.000	369.444	80.005	19.995	103.650	18.802	79.732	0.464
584.500	369.641	80.006	19.995	103.645	18.794	80.269	0.508
585.000	369.900	80.007	19.994	103.640	18.796	80.123	0.486
585.500	370.158	80.007	19.994	103.638	18.791	80.464	0.486
586.000	370.374	80.007	19.994	103.638	18.795	80.221	0.496
586.500	370.668	80.007	19.995	103.640	18.791	80.488	0.492
587.000	370.902	80.007	19.994	103.640	18.791	80.487	0.519
587.500	371.148	80.007	19.995	103.640	18.789	80.606	0.504
588.000	371.425	80.007	19.995	103.640	18.792	80.397	0.502
588.500	371.674	80.007	19.996	103.641	18.793	80.303	0.525
589.000	371.918	80.007	19.994	103.642	18.791	80.452	0.509
589.500	372.153	80.007	19.994	103.641	18.791	80.458	0.486
590.000	372.399	80.009	19.994	103.638	18.793	80.305	0.480
590.500	372.646	80.008	19.994	103.636	18.797	80.018	0.487
591.000	372.952	80.008	19.995	103.631	18.799	79.926	0.523
591.500	373.173	80.008	19.994	103.625	18.798	79.936	0.540
592.000	373.383	80.008	19.995	103.618	18.796	80.052	0.479
592.500	373.633	80.008	19.995	103.614	18.802	79.686	0.445
593.000	373.956	80.008	19.993	103.609	18.804	79.553	0.516
593.500	374.182	80.008	19.994	103.605	18.806	79.398	0.561
594.000	374.395	80.008	19.995	103.603	18.808	79.287	0.494
594.500	374.672	80.008	19.994	103.603	18.814	78.859	0.464
595.000	374.942	80.008	19.993	103.603	18.814	78.888	0.518
595.500	375.157	80.007	19.995	103.600	18.816	78.756	0.516
596.000	375.442	80.008	19.994	103.600	18.822	78.357	0.493
596.500	375.670	80.009	19.995	103.600	18.827	78.001	0.507
597.000	375.926	80.009	19.993	103.600	18.829	77.868	0.498
597.500	376.212	80.009	19.994	103.599	18.832	77.697	0.513
598.000	376.455	80.009	19.994	103.598	18.840	77.146	0.536
598.500	376.652	80.009	19.995	103.591	18.846	76.750	0.485
599.000	376.952	80.009	19.994	103.584	18.850	76.490	0.469
599.500	377.176	80.007	19.993	103.576	18.853	76.276	0.510
600.000	377.405	80.009	19.995	103.571	18.861	75.781	0.488
600.500	377.616	80.008	19.994	103.567	18.864	75.596	0.447
601.000	377.878	80.009	19.994	103.565	18.870	75.182	0.457
601.500	378.183	80.008	19.994	103.561	18.879	74.597	0.520
602.000	378.413	80.008	19.993	103.554	18.883	74.331	0.551
602.500	378.631	80.008	19.994	103.546	18.893	73.637	0.491
603.000	378.896	80.007	19.993	103.538	18.896	73.451	0.465
603.500	379.186	80.008	19.995	103.531	18.909	72.611	0.519
604.000	379.440	80.007	19.993	103.527	18.916	72.102	0.549
604.500	379.706	80.008	19.994	103.526	18.926	71.470	0.531
605.000	379.944	80.008	19.994	103.527	18.933	70.978	0.512
605.500	380.195	80.008	19.995	103.530	18.940	70.520	0.497
606.000	380.450	80.008	19.993	103.530	18.949	69.935	0.497
606.500	380.677	80.008	19.994	103.529	18.960	69.171	0.494
607.000	380.911	80.008	19.995	103.523	18.969	68.604	0.472
607.500	381.203	80.008	19.994	103.514	18.975	68.187	0.493
608.000	381.461	80.007	19.993	103.504	18.990	67.179	0.537
608.500	381.670	80.008	19.993	103.497	18.996	66.826	0.508
609.000	381.920	80.008	19.994	103.493	19.008	66.011	0.463
609.500	382.160	80.009	19.993	103.493	19.018	65.376	0.475
610.000	382.462	80.008	19.994	103.493	19.027	64.733	0.516
610.500	382.731	80.007	19.994	103.493	19.041	63.853	0.557
611.000	382.990	80.009	19.993	103.492	19.048	63.342	0.550
611.500	383.209	80.008	19.995	103.490	19.056	62.869	0.503
612.000	383.481	80.007	19.995	103.489	19.072	61.807	0.484
612.500	383.735	80.008	19.994	103.489	19.086	60.885	0.508
613.000	384.000	80.009	19.994	103.484	19.093	60.418	0.522
613.500	384.265	80.008	19.994	103.479	19.106	59.542	0.525
614.000	384.501	80.009	19.994	103.478	19.122	58.490	0.516
614.500	384.738	80.010	19.994	103.475	19.132	57.851	0.487
615.000	384.993	80.009	19.994	103.467	19.142	57.154	0.482
615.500	385.251	80.008	19.994	103.463	19.160	56.020	0.502
616.000	385.486	80.009	19.994	103.453	19.170	55.323	0.503
616.500	385.739	80.009	19.994	103.435	19.180	54.670	0.491
617.000	386.011	80.007	19.994	103.422	19.192	53.867	0.506
617.500	386.252	80.009	19.994	103.413	19.205	52.984	0.519
618.000	386.526	80.009	19.994	103.407	19.220	52.032	0.514
618.500	386.742	80.008	19.995	103.407	19.227	51.559	0.503
619.000	387.012	80.009	19.993	103.406	19.240	50.674	0.488
619.500	387.261	80.009	19.994	103.400	19.258	49.526	0.502
620.000	387.538	80.009	19.994	103.393	19.269	48.779	0.522
620.500	387.790	80.008	19.994	103.385	19.280	48.078	0.528
621.000	388.012	80.008	19.995	103.376	19.289	47.475	0.502
621.500	388.328	80.009	19.995	103.371	19.309	46.132	0.506
622.000	388.527	80.010	19.994	103.369	19.324	45.152	0.526
622.500	388.799	80.008	19.994	103.369	19.329	44.850	0.493
623.000	389.035	80.009	19.994	103.367	19.347	43.691	0.490
623.500	389.338	80.007	19.994	103.367	19.359	42.857	0.524
624.000	389.536	80.009	19.995	103.366	19.372	42.039	0.520
624.500	389.788	80.008	19.994	103.367	19.382	41.375	0.475
625.000	390.075	80.008	19.995	103.367	19.395	40.472	0.495
625.500	390.323	80.008	19.995	103.367	19.402	40.036	0.537
626.000	390.571	80.007	19.994	103.368	19.418	38.978	0.515
626.500	390.852	80.008	19.994	103.362	19.436	37.814	0.512
627.000	391.093	80.006	19.994	103.355	19.446	37.114	0.525
627.500	391.360	80.006	19.994	103.347	19.450	36.860	0.515
628.000	391.609	80.005	19.994	103.339	19.468	35.719	0.512
628.500	391.858	80.006	19.994	103.325	19.483	34.730	0.507
629.000	392.137	80.006	19.995	103.317	19.489	34.315	0.513
629.500	392.367	80.006	19.995	103.313	19.508	33.071	0.519
630.000	392.637	80.006	19.993	103.311	19.516	32.508	0.505
630.500	392.871	80.006	19.995	103.305	19.530	31.594	0.501
631.000	393.140	80.007	19.995	103.304	19.538	31.072	0.503
631.500	393.395	80.006	19.995	103.303	19.551	30.264	0.513
632.000	393.671	80.005	19.995	103.300	19.562	29.523	0.528
632.500	393.929	80.007	19.994	103.301	19.569	29.055	0.533
633.000	394.175	80.006	19.995	103.306	19.580	28.332	0.519
633.500	394.440	80.008	19.995	103.308	19.595	27.328	0.507
634.000	394.735	80.006	19.994	103.306	19.599	27.109	0.535
634.500	394.976	80.005	19.995	103.307	19.613	26.138	0.548
635.000	395.216	80.007	19.993	103.300	19.618	25.831	0.509
635.500	395.485	80.006	19.994	103.295	19.631	24.984	0.495
636.000	395.736	80.007	19.995	103.295	19.642	24.231	0.515
636.500	395.979	80.007	19.995	103.295	19.645	24.065	0.507
637.000	396.233	80.007	19.995	103.295	19.659	23.127	0.495
637.500	396.491	80.006	19.994	103.295	19.662	22.944	0.504
638.000	396.763	80.004	19.994	103.294	19.673	22.229	0.521
638.500	396.985	80.005	19.995	103.292	19.683	21.580	0.512
639.000	397.250	80.008	19.995	103.291	19.691	21.043	0.490
639.500	397.548	80.007	19.994	103.290	19.697	20.623	0.525
640.000	397.780	80.006	19.994	103.290	19.703	20.249	0.546
640.500	398.043	80.007	19.995	103.289	19.705	20.118	0.513
641.000	398.301	80.006	19.995	103.290	19.717	19.326	0.509
641.500	398.589	80.005	19.994	103.288	19.724	18.829	0.534
642.000	398.824	80.008	19.995	103.284	19.724	18.836	0.534
642.500	399.117	80.006	19.995	103.280	19.733	18.289	0.525
643.000	399.350	80.006	19.995	103.275	19.739	17.874	0.527
643.500	399.618	80.007	19.995	103.276	19.748	17.295	0.513
644.000	399.863	80.008	19.995	103.277	19.748	17.270	0.507
644.500	400.138	80.005	19.994	103.281	19.756	16.778	0.517
645.000	400.402	80.005	19.995	103.280	19.758	16.647	0.530
645.500	400.660	80.005	19.994	103.279	19.768	15.936	0.530
646.000	400.955	80.006	19.996	103.278	19.766	16.062	0.538
646.500	401.152	80.006	19.995	103.278	19.774	15.599	0.523
647.000	401.407	80.005	19.996	103.278	19.773	15.615	0.472
647.500	401.672	80.007	19.995	103.282	19.781	15.135	0.486
648.000	401.922	80.006	19.995	103.286	19.781	15.096	0.518
648.500	402.212	80.006	19.995	103.288	19.789	14.550	0.528
649.000	402.470	80.005	19.995	103.288	19.796	14.117	0.544
649.500	402.726	80.008	19.996	103.284	19.794	14.228	0.531
650.000	402.953	80.006	19.996	103.281	19.799	13.953	0.498
650.500	403.183	80.006	19.994	103.280	19.798	13.964	0.470
651.000	403.473	80.006	19.995	103.279	19.806	13.445	0.489
651.500	403.711	80.006	19.996	103.279	19.806	13.434	0.524
652.000	403.956	80.005	19.994	103.283	19.812	13.051	0.506
652.500	404.203	80.006	19.996	103.286	19.811	13.154	0.487
653.000	404.480	80.006	19.996	103.285	19.818	12.685	0.508
653.500	404.708	80.006	19.996	103.283	19.821	12.503	0.514
654.000	404.956	80.007	19.995	103.281	19.822	12.407	0.490
654.500	405.194	80.006	19.995	103.276	19.825	12.221	0.481
655.000	405.468	80.007	19.995	103.273	19.827	12.071	0.499
655.500	405.740	80.006	19.994	103.271	19.826	12.164	0.529
656.000	405.939	80.007	19.994	103.273	19.825	12.201	0.509
656.500	406.235	80.008	19.994	103.272	19.827	12.094	0.483
657.000	406.503	80.007	19.994	103.271	19.828	12.010	0.529
657.500	406.725	80.008	19.994	103.269	19.834	11.608	0.527
658.000	407.022	80.007	19.995	103.268	19.829	11.971	0.504
658.500	407.243	80.007	19.994	103.266	19.839	11.282	0.518
659.000	407.547	80.007	19.995	103.267	19.833	11.711	0.521
659.500	407.768	80.006	19.995	103.273	19.835	11.546	0.525
660.000	408.012	80.006	19.995	103.273	19.838	11.381	0.495
660.500	408.254	80.007	19.994	103.270	19.837	11.393	0.475
661.000	408.531	80.006	19.994	103.270	19.841	11.169	0.502
661.500	408.779	80.005	19.995	103.268	19.839	11.319	0.522
662.000	409.021	80.006	19.993	103.262	19.840	11.199	0.507
662.500	409.300	80.007	19.994	103.261	19.841	11.193	0.505
663.000	409.575	80.007	19.994	103.259	19.843	11.018	0.538
663.500	409.778	80.006	19.996	103.258	19.846	10.832	0.516
664.000	410.042	80.004	19.993	103.257	19.845	10.889	0.472
664.500	410.302	80.006	19.995	103.263	19.843	11.012	0.496
665.000	410.570	80.007	19.995	103.270	19.842	11.102	0.527
665.500	410.860	80.006	19.995	103.278	19.849	10.623	0.543
666.000	411.094	80.006	19.995	103.282	19.844	10.942	0.540
666.500	411.338	80.006	19.994	103.282	19.846	10.857	0.501
667.000	411.622	80.008	19.995	103.277	19.850	10.586	0.503
667.500	411.871	80.006	19.995	103.276	19.846	10.847	0.530
668.000	412.126	80.007	19.994	103.269	19.852	10.450	0.518
668.500	412.392	80.008	19.994	103.265	19.849	10.647	0.513
669.000	412.630	80.007	19.995	103.269	19.851	10.514	0.513
669.500	412.857	80.007	19.995	103.271	19.850	10.570	0.485
670.000	413.111	80.006	19.995	103.271	19.852	10.459	0.473
670.500	413.373	80.008	19.995	103.273	19.855	10.264	0.499
671.000	413.572	80.008	19.994	103.277	19.854	10.284	0.489
671.500	413.835	80.007	19.994	103.272	19.855	10.266	0.461
672.000	414.049	80.007	19.994	103.268	19.853	10.375	0.470
672.500	414.296	80.006	19.994	103.268	19.857	10.128	0.469
673.000	414.579	80.007	19.993	103.269	19.853	10.341	0.495
673.500	414.810	80.007	19.993	103.265	19.865	9.579	0.522
674.000	415.105	80.009	19.995	103.269	19.855	10.241	0.520
674.500	415.343	80.007	19.993	103.276	19.860	9.934	0.530
675.000	415.591	80.008	19.994	103.275	19.858	10.055	0.510
675.500	415.824	80.009	19.995	103.276	19.859	9.999	0.483
676.000	416.045	80.008	19.993	103.281	19.862	9.802	0.467
676.500	416.345	80.007	19.994	103.281	19.860	9.945	0.488
677.000	416.577	80.008	19.992	103.281	19.862	9.772	0.527
677.500	416.850	80.008	19.994	103.277	19.860	9.936	0.519
678.000	417.095	80.008	19.994	103.274	19.863	9.748	0.511
678.500	417.339	80.008	19.994	103.267	19.858	10.029	0.503
679.000	417.601	80.009	19.995	103.262	19.865	9.602	0.497
679.500	417.876	80.008	19.993	103.255	19.858	10.029	0.522
680.000	418.116	80.008	19.994	103.254	19.855	10.234	0.526
680.500	418.341	80.007	19.994	103.254	19.859	9.982	0.489
681.000	418.617	80.007	19.993	103.258	19.859	9.961	0.483
681.500	418.877	80.007	19.993	103.263	19.863	9.685	0.518
682.000	419.104	80.007	19.994	103.263	19.866	9.536	0.512
682.500	419.361	80.009	19.995	103.264	19.863	9.694	0.486
683.000	419.574	80.008	19.995	103.263	19.859	9.997	0.477
683.500	419.856	80.007	19.993	103.263	19.862	9.755	0.482
684.000	420.138	80.008	19.994	103.259	19.861	9.854	0.529
684.500	420.403	80.007	19.993	103.263	19.864	9.683	0.555
685.000	420.625	80.007	19.994	103.266	19.865	9.587	0.517
685.500	420.880	80.006	19.993	103.270	19.868	9.390	0.483
686.000	421.141	80.007	19.994	103.270	19.868	9.372	0.497
686.500	421.404	80.007	19.994	103.273	19.865	9.594	0.520
687.000	421.627	80.008	19.993	103.272	19.865	9.565	0.505
687.500	421.904	80.007	19.994	103.272	19.869	9.308	0.493
688.000	422.159	80.008	19.994	103.274	19.867	9.480	0.516
688.500	422.405	80.008	19.994	103.270	19.865	9.602	0.517
689.000	422.664	80.007	19.994	103.267	19.867	9.469	0.503
689.500	422.933	80.008	19.994	103.264	19.868	9.386	0.516
690.000	423.175	80.007	19.993	103.265	19.870	9.246	0.520
690.500	423.400	80.007	19.993	103.266	19.867	9.465	0.489
691.000	423.653	80.008	19.994	103.272	19.866	9.490	0.472
691.500	423.885	80.007	19.994	103.279	19.871	9.164	0.481
692.000	424.168	80.006	19.994	103.287	19.871	9.216	0.500
692.500	424.393	80.007	19.994	103.289	19.874	8.961	0.512
693.000	424.668	80.008	19.994	103.286	19.871	9.169	0.504
693.500	424.882	80.006	19.995	103.287	19.874	9.013	0.494
694.000	425.147	80.007	19.995	103.287	19.873	9.053	0.483
694.500	425.392	80.006	19.994	103.287	19.870	9.273	0.495
695.000	425.658	80.007	19.993	103.287	19.872	9.144	0.511
695.500	425.905	80.007	19.995	103.285	19.873	9.045	0.512
696.000	426.169	80.009	19.994	103.282	19.876	8.832	0.512
696.500	426.377	80.006	19.994	103.279	19.876	8.850	0.492
697.000	426.652	80.008	19.992	103.279	19.871	9.221	0.477
697.500	426.889	80.008	19.993	103.276	19.876	8.886	0.497
698.000	427.191	80.008	19.993	103.274	19.875	8.935	0.525
698.500	427.392	80.008	19.992	103.271	19.876	8.846	0.521
699.000	427.662	80.008	19.994	103.268	19.873	9.065	0.487
699.500	427.928	80.009	19.994	103.261	19.876	8.830	0.504
700.000	428.179	80.009	19.993	103.259	19.875	8.955	0.527
700.500	428.446	80.010	19.994	103.261	19.879	8.675	0.518
701.000	428.693	80.010	19.993	103.261	19.874	8.973	0.516
701.500	428.915	80.009	19.993	103.260	19.878	8.736	0.491
702.000	429.152	80.009	19.993	103.261	19.876	8.849	0.464
702.500	429.402	80.008	19.993	103.260	19.876	8.833	0.473
703.000	429.631	80.009	19.993	103.257	19.882	8.436	0.483
703.500	429.918	80.009	19.994	103.259	19.879	8.630	0.498
704.000	430.146	80.009	19.994	103.260	19.878	8.738	0.515
704.500	430.382	80.008	19.993	103.260	19.879	8.641	0.489
705.000	430.673	80.010	19.994	103.259	19.883	8.399	0.495
705.500	430.903	80.007	19.993	103.258	19.878	8.730	0.524
706.000	431.181	80.010	19.995	103.256	19.879	8.689	0.515
706.500	431.419	80.009	19.993	103.254	19.881	8.560	0.512
707.000	431.661	80.009	19.993	103.257	19.882	8.497	0.498
707.500	431.908	80.009	19.995	103.261	19.882	8.450	0.484
708.000	432.179	80.010	19.994	103.262	19.882	8.471	0.504
708.500	432.398	80.008	19.995	103.266	19.882	8.480	0.504
709.000	432.657	80.008	19.995	103.267	19.884	8.315	0.484
709.500	432.916	80.007	19.995	103.262	19.884	8.347	0.498
710.000	433.118	80.007	19.994	103.257	19.880	8.601	0.490
710.500	433.428	80.007	19.995	103.256	19.882	8.457	0.486
711.000	433.637	80.007	19.994	103.252	19.884	8.343	0.515
711.500	433.925	80.007	19.995	103.250	19.884	8.304	0.508
712.000	434.185	80.005	19.995	103.250	19.882	8.440	0.522
712.500	434.418	80.006	19.994	103.250	19.884	8.321	0.521
713.000	434.675	80.005	19.994	103.250	19.877	8.766	0.492
713.500	434.909	80.007	19.993	103.250	19.883	8.384	0.490
714.000	435.160	80.007	19.995	103.250	19.883	8.413	0.487
714.500	435.413	80.006	19.995	103.250	19.884	8.350	0.494
715.000	435.657	80.007	19.996	103.250	19.885	8.271	0.501
715.500	435.924	80.005	19.995	103.252	19.883	8.410	0.504
716.000	436.175	80.006	19.995	103.254	19.881	8.539	0.515
716.500	436.413	80.006	19.994	103.260	19.884	8.336	0.503
717.000	436.704	80.007	19.995	103.261	19.878	8.719	0.509
717.500	436.930	80.004	19.994	103.263	19.882	8.476	0.523
718.000	437.161	80.006	19.996	103.262	19.883	8.421	0.487
718.500	437.420	80.006	19.996	103.260	19.880	8.625	0.473
719.000	437.679	80.006	19.996	103.253	19.886	8.188	0.504
719.500	437.920	80.005	19.994	103.254	19.884	8.310	0.509
720.000	438.184	80.006	19.995	103.256	19.886	8.235	0.503
720.500	438.409	80.007	19.995	103.258	19.885	8.255	0.497
721.000	438.673	80.006	19.995	103.264	19.884	8.343	0.489
721.500	438.926	80.005	19.995	103.266	19.882	8.447	0.503
722.000	439.153	80.007	19.996	103.268	19.878	8.716	0.498
722.500	439.395	80.006	19.994	103.270	19.885	8.251	0.474
723.000	439.645	80.005	19.994	103.273	19.882	8.446	0.481
723.500	439.903	80.006	19.994	103.270	19.887	8.154	0.501
724.000	440.137	80.004	19.994	103.269	19.889	8.016	0.500
724.500	440.401	80.005	19.995	103.266	19.887	8.115	0.494
725.000	440.664	80.006	19.995	103.265	19.889	7.990	0.512
725.500	440.878	80.005	19.995	103.265	19.885	8.238	0.502
726.000	441.122	80.007	19.995	103.269	19.891	7.888	0.468
726.500	441.380	80.006	19.994	103.273	19.885	8.303	0.480
727.000	441.609	80.006	19.994	103.272	19.887	8.164	0.494
727.500	441.878	80.006	19.995	103.267	19.890	7.951	0.493
728.000	442.123	80.007	19.995	103.262	19.892	7.805	0.506
728.500	442.351	80.007	19.995	103.256	19.886	8.183	0.494
729.000	442.619	80.006	19.995	103.253	19.893	7.745	0.485
729.500	442.863	80.005	19.996	103.258	19.888	8.091	0.504
730.000	443.138	80.007	19.994	103.258	19.891	7.882	0.516
730.500	443.359	80.007	19.995	103.261	19.890	7.947	0.507
731.000	443.585	80.007	19.995	103.269	19.889	8.006	0.471
731.500	443.860	80.005	19.994	103.270	19.895	7.608	0.474
732.000	444.077	80.006	19.994	103.268	19.888	8.085	0.497
732.500	444.338	80.007	19.995	103.272	19.893	7.739	0.485
733.000	444.605	80.005	19.995	103.270	19.892	7.839	0.503
733.500	444.902	80.007	19.994	103.265	19.896	7.565	0.546
734.000	445.096	80.007	19.994	103.262	19.892	7.798	0.527
734.500	445.358	80.006	19.995	103.266	19.893	7.757	0.474
735.000	445.621	80.007	19.994	103.268	19.889	8.033	0.491
735.500	445.828	80.007	19.995	103.273	19.894	7.667	0.498
736.000	446.112	80.006	19.994	103.277	19.890	7.936	0.481
736.500	446.375	80.005	19.994	103.285	19.889	7.974	0.519
737.000	446.600	80.006	19.995	103.283	19.887	8.132	0.517
737.500	446.864	80.006	19.994	103.282	19.894	7.646	0.488
738.000	447.110	80.006	19.994	103.280	19.894	7.709	0.499
738.500	447.348	80.004	19.994	103.277	19.895	7.605	0.497
739.000	447.638	80.005	19.995	103.270	19.896	7.556	0.506
739.500	447.860	80.004	19.994	103.265	19.897	7.502	0.520
740.000	448.123	80.006	19.994	103.258	19.895	7.608	0.498
740.500	448.408	80.005	19.996	103.254	19.895	7.599	0.516
741.000	448.642	80.003	19.995	103.251	19.896	7.531	0.533
741.500	448.882	80.004	19.995	103.251	19.895	7.624	0.497
742.000	449.187	80.006	19.995	103.251	19.897	7.461	0.510
742.500	449.401	80.005	19.996	103.253	19.896	7.531	0.532
743.000	449.653	80.004	19.995	103.254	19.900	7.276	0.493
743.500	449.905	80.005	19.996	103.254	19.897	7.481	0.485
744.000	450.168	80.003	19.995	103.254	19.897	7.479	0.509
744.500	450.446	80.004	19.995	103.254	19.899	7.357	0.528
745.000	450.703	80.004	19.995	103.255	19.898	7.420	0.538
745.500	450.945	80.003	19.994	103.255	19.899	7.354	0.517
746.000	451.186	80.005	19.995	103.256	19.898	7.415	0.491
746.500	451.439	80.004	19.995	103.256	19.900	7.311	0.488
747.000	451.725	80.003	19.995	103.256	19.894	7.645	0.517
747.500	452.001	80.004	19.996	103.257	19.905	6.947	0.551
748.000	452.199	80.004	19.995	103.260	19.902	7.122	0.518
748.500	452.500	80.005	19.995	103.261	19.902	7.120	0.486
749.000	452.745	80.005	19.996	103.260	19.898	7.404	0.522
749.500	452.994	80.004	19.995	103.260	19.901	7.186	0.520
750.000	453.239	80.006	19.995	103.258	19.898	7.394	0.494
750.500	453.484	80.006	19.995	103.254	19.901	7.189	0.492
751.000	453.740	80.005	19.995	103.255	19.898	7.411	0.496
751.500	454.030	80.007	19.994	103.256	19.905	6.962	0.524
752.000	454.309	80.004	19.995	103.256	19.902	7.127	0.557
752.500	454.566	80.007	19.996	103.257	19.904	6.996	0.552
753.000	454.797	80.006	19.995	103.257	19.906	6.896	0.512
753.500	455.074	80.006	19.995	103.255	19.906	6.909	0.498
754.000	455.353	80.007	19.995	103.254	19.907	6.835	0.532
754.500	455.572	80.007	19.994	103.256	19.904	7.021	0.527
755.000	455.836	80.007	19.994	103.260	19.905	6.928	0.491
755.500	456.118	80.008	19.995	103.262	19.908	6.734	0.514
756.000	456.363	80.007	19.993	103.264	19.908	6.770	0.536
756.500	456.633	80.006	19.994	103.265	19.907	6.806	0.521
757.000	456.886	80.007	19.994	103.264	19.910	6.646	0.519
757.500	457.147	80.008	19.994	103.265	19.911	6.535	0.518
758.000	457.392	80.008	19.994	103.268	19.910	6.618	0.510
758.500	457.649	80.007	19.994	103.273	19.909	6.679	0.504
759.000	457.943	80.007	19.993	103.279	19.910	6.636	0.526
759.500	458.196	80.006	19.993	103.286	19.911	6.533	0.549
760.000	458.442	80.008	19.995	103.283	19.910	6.625	0.523
760.500	458.687	80.008	19.994	103.279	19.911	6.526	0.495
761.000	458.933	80.007	19.994	103.271	19.913	6.458	0.491
761.500	459.203	80.006	19.994	103.266	19.908	6.747	0.504
762.000	459.475	80.007	19.994	103.259	19.913	6.408	0.529
762.500	459.729	80.006	19.993	103.256	19.916	6.225	0.534
763.000	459.987	80.007	19.994	103.257	19.908	6.767	0.519
763.500	460.196	80.008	19.994	103.257	19.911	6.578	0.490
764.000	460.483	80.007	19.993	103.257	19.912	6.514	0.481
764.500	460.724	80.007	19.994	103.256	19.915	6.302	0.512
765.000	460.963	80.007	19.994	103.256	19.911	6.557	0.504
765.500	461.249	80.008	19.994	103.255	19.909	6.670	0.503
766.000	461.525	80.008	19.994	103.256	19.915	6.298	0.544
766.500	461.767	80.006	19.993	103.256	19.911	6.531	0.540
767.000	462.021	80.006	19.994	103.256	19.914	6.381	0.507
767.500	462.300	80.008	19.994	103.255	19.916	6.218	0.514
768.000	462.559	80.005	19.993	103.255	19.915	6.323	0.536
768.500	462.802	80.007	19.994	103.253	19.915	6.293	0.520
769.000	463.030	80.007	19.994	103.252	19.917	6.164	0.486
769.500	463.309	80.007	19.994	103.252	19.919	6.035	0.489
770.000	463.553	80.007	19.994	103.252	19.911	6.569	0.516
770.500	463.830	80.006	19.993	103.252	19.913	6.431	0.522
771.000	464.077	80.008	19.994	103.253	19.916	6.232	0.522
771.500	464.315	80.007	19.995	103.254	19.914	6.341	0.504
772.000	464.585	80.007	19.994	103.253	19.916	6.246	0.497
772.500	464.820	80.007	19.995	103.253	19.919	6.040	0.507
773.000	465.049	80.007	19.994	103.252	19.919	6.041	0.484
773.500	465.306	80.007	19.994	103.252	19.917	6.144	0.475
774.000	465.556	80.008	19.994	103.252	19.922	5.835	0.497
774.500	465.817	80.008	19.994	103.252	19.918	6.094	0.509
775.000	466.120	80.007	19.995	103.252	19.920	5.964	0.537
775.500	466.370	80.008	19.994	103.253	19.919	6.050	0.559
776.000	466.580	80.006	19.995	103.252	19.919	6.026	0.506
776.500	466.831	80.008	19.994	103.251	19.921	5.893	0.460
777.000	467.110	80.008	19.994	103.251	19.920	5.963	0.496
777.500	467.353	80.008	19.994	103.251	19.920	5.981	0.526
778.000	467.630	80.009	19.994	103.250	19.922	5.848	0.521
778.500	467.856	80.007	19.995	103.251	19.920	5.982	0.511
779.000	468.089	80.008	19.995	103.252	19.925	5.633	0.481
779.500	468.326	80.008	19.994	103.252	19.922	5.841	0.465
780.000	468.577	80.007	19.995	103.255	19.921	5.886	0.479
780.500	468.845	80.009	19.995	103.258	19.922	5.862	0.504
781.000	469.109	80.007	19.994	103.257	19.925	5.618	0.526
781.500	469.361	80.007	19.994	103.256	19.922	5.848	0.524
782.000	469.590	80.009	19.995	103.256	19.926	5.591	0.498
782.500	469.873	80.009	19.993	103.250	19.924	5.699	0.496
783.000	470.122	80.009	19.994	103.246	19.927	5.485	0.522
783.500	470.350	80.009	19.994	103.246	19.926	5.595	0.505
784.000	470.583	80.007	19.993	103.246	19.926	5.563	0.469
784.500	470.852	80.009	19.994	103.243	19.926	5.552	0.482
785.000	471.111	80.009	19.996	103.247	19.927	5.518	0.515
785.500	471.358	80.009	19.994	103.248	19.927	5.500	0.517
786.000	471.601	80.009	19.994	103.248	19.927	5.496	0.498
786.500	471.838	80.012	19.994	103.247	19.928	5.469	0.485
787.000	472.109	80.010	19.994	103.250	19.928	5.444	0.494
787.500	472.345	80.010	19.996	103.249	19.928	5.414	0.507
788.000	472.609	80.009	19.994	103.249	19.926	5.568	0.503
788.500	472.870	80.008	19.994	103.250	19.924	5.711	0.513
789.000	473.135	80.008	19.992	103.250	19.928	5.473	0.526
789.500	473.382	80.009	19.994	103.250	19.928	5.451	0.519
790.000	473.622	80.008	19.994	103.250	19.932	5.159	0.499
790.500	473.913	80.009	19.992	103.250	19.931	5.215	0.509
791.000	474.142	80.010	19.993	103.250	19.927	5.487	0.526
791.500	474.395	80.009	19.995	103.250	19.927	5.538	0.501
792.000	474.644	80.009	19.994	103.249	19.929	5.376	0.492
792.500	474.866	80.009	19.993	103.249	19.926	5.590	0.487
793.000	475.147	80.008	19.994	103.249	19.927	5.484	0.487
793.500	475.406	80.009	19.993	103.249	19.927	5.518	0.522
794.000	475.637	80.007	19.995	103.249	19.928	5.462	0.515
794.500	475.910	80.008	19.994	103.248	19.927	5.481	0.497
795.000	476.133	80.008	19.994	103.249	19.927	5.506	0.500
795.500	476.376	80.008	19.995	103.249	19.926	5.598	0.481
796.000	476.613	80.006	19.994	103.248	19.926	5.593	0.473
796.500	476.891	80.006	19.994	103.250	19.924	5.718	0.497
797.000	477.146	80.006	19.994	103.251	19.922	5.853	0.524
797.500	477.418	80.006	19.994	103.251	19.927	5.510	0.530
798.000	477.662	80.007	19.994	103.251	19.928	5.473	0.521
798.500	477.937	80.006	19.993	103.249	19.927	5.507	0.518
799.000	478.183	80.006	19.994	103.246	19.928	5.467	0.520
799.500	478.451	80.006	19.995	103.245	19.931	5.277	0.517
800.000	478.719	80.007	19.994	103.245	19.928	5.442	0.525
800.500	478.919	80.005	19.995	103.243	19.928	5.454	0.502
801.000	479.191	80.008	19.994	103.246	19.934	5.068	0.469
801.500	479.444	80.005	19.995	103.249	19.928	5.431	0.498
802.000	479.691	80.006	19.994	103.248	19.927	5.531	0.513
802.500	479.948	80.006	19.994	103.249	19.927	5.516	0.502
803.000	480.207	80.006	19.994	103.251	19.928	5.420	0.510
803.500	480.475	80.006	19.994	103.251	19.930	5.278	0.522
804.000	480.724	80.007	19.994	103.250	19.929	5.383	0.522
804.500	480.974	80.005	19.995	103.251	19.933	5.139	0.508
805.000	481.234	80.004	19.994	103.254	19.932	5.161	0.505
805.500	481.482	80.007	19.995	103.260	19.931	5.231	0.509
806.000	481.729	80.005	19.995	103.264	19.932	5.179	0.501
806.500	481.967	80.006	19.994	103.270	19.931	5.238	0.490
807.000	482.246	80.006	19.995	103.274	19.929	5.376	0.501
807.500	482.490	80.005	19.995	103.273	19.933	5.114	0.520
808.000	482.750	80.005	19.995	103.273	19.935	4.958	0.514
808.500	482.999	80.006	19.995	103.275	19.934	5.066	0.507
809.000	483.264	80.006	19.995	103.276	19.934	5.029	0.512
809.500	483.504	80.004	19.995	103.277	19.932	5.146	0.509
810.000	483.749	80.005	19.995	103.276	19.937	4.833	0.495
810.500	484.019	80.005	19.994	103.274	19.938	4.790	0.500
811.000	484.258	80.006	19.995	103.269	19.936	4.936	0.512
811.500	484.543	80.006	19.995	103.262	19.933	5.135	0.517
812.000	484.781	80.006	19.995	103.259	19.933	5.080	0.523
812.500	485.056	80.006	19.995	103.260	19.935	4.973	0.518
813.000	485.344	80.006	19.995	103.258	19.932	5.173	0.538
813.500	485.598	80.006	19.995	103.257	19.933	5.082	0.553
814.000	485.827	80.006	19.995	103.256	19.936	4.939	0.513
814.500	486.115	80.006	19.995	103.255	19.934	5.043	0.500
815.000	486.349	80.007	19.994	103.252	19.934	5.064	0.519
815.500	486.606	80.006	19.995	103.252	19.936	4.883	0.506
816.000	486.867	80.006	19.994	103.252	19.932	5.183	0.505
816.500	487.133	80.006	19.994	103.253	19.935	4.973	0.523
817.000	487.395	80.007	19.995	103.253	19.938	4.786	0.527
817.500	487.654	80.006	19.994	103.253	19.933	5.082	0.524
818.000	487.926	80.006	19.993	103.253	19.935	4.993	0.526
818.500	488.173	80.006	19.995	103.253	19.935	4.973	0.525
819.000	488.390	80.007	19.994	103.253	19.935	4.998	0.492
819.500	488.651	80.005	19.995	103.248	19.936	4.948	0.471
820.000	488.912	80.007	19.996	103.240	19.937	4.836	0.500
820.500	489.167	80.006	19.993	103.234	19.937	4.865	0.519
821.000	489.451	80.007	19.995	103.230	19.938	4.768	0.528
821.500	489.702	80.006	19.994	103.230	19.936	4.887	0.537
822.000	489.989	80.006	19.995	103.235	19.936	4.942	0.537
822.500	490.198	80.006	19.994	103.241	19.937	4.829	0.517
823.000	490.499	80.006	19.994	103.247	19.937	4.870	0.503
823.500	490.747	80.004	19.995	103.249	19.933	5.087	0.530
824.000	491.012	80.007	19.994	103.249	19.936	4.946	0.531
824.500	491.277	80.006	19.994	103.251	19.930	5.315	0.521
825.000	491.504	80.006	19.995	103.252	19.935	4.951	0.511
825.500	491.767	80.005	19.993	103.253	19.936	4.906	0.491
826.000	492.001	80.006	19.995	103.256	19.934	5.021	0.494
826.500	492.293	80.005	19.994	103.257	19.938	4.790	0.511
827.000	492.520	80.005	19.994	103.255	19.937	4.860	0.522
827.500	492.789	80.005	19.994	103.254	19.936	4.886	0.508
828.000	493.043	80.006	19.994	103.254	19.939	4.712	0.510
828.500	493.326	80.005	19.994	103.255	19.933	5.083	0.530
829.000	493.590	80.005	19.995	103.256	19.935	4.952	0.541
829.500	493.855	80.005	19.995	103.255	19.936	4.914	0.538
830.000	494.129	80.006	19.995	103.257	19.938	4.801	0.535
830.500	494.358	80.004	19.994	103.256	19.933	5.103	0.521
831.000	494.621	80.005	19.993	103.255	19.935	4.960	0.497
831.500	494.887	80.005	19.996	103.255	19.932	5.160	0.511
832.000	495.147	80.006	19.994	103.255	19.935	4.969	0.527
832.500	495.394	80.006	19.994	103.254	19.936	4.918	0.516
833.000	495.674	80.005	19.994	103.254	19.932	5.162	0.517
833.500	495.945	80.006	19.994	103.254	19.933	5.123	0.540
834.000	496.219	80.006	19.995	103.251	19.937	4.881	0.549
834.500	496.463	80.006	19.994	103.249	19.935	4.951	0.532
835.000	496.728	80.005	19.995	103.249	19.934	5.030	0.513
835.500	497.000	80.007	19.995	103.250	19.935	4.956	0.523
836.000	497.249	80.006	19.995	103.250	19.936	4.902	0.529
836.500	497.494	80.006	19.995	103.252	19.935	5.006	0.508
837.000	497.759	80.006	19.995	103.252	19.932	5.164	0.502
837.500	498.013	80.008	19.995	103.252	19.938	4.793	0.514
838.000	498.279	80.007	19.995	103.251	19.937	4.832	0.519
838.500	498.540	80.007	19.996	103.250	19.934	5.071	0.523
839.000	498.797	80.007	19.995	103.244	19.934	5.041	0.522
839.500	499.080	80.007	19.995	103.244	19.938	4.809	0.529
840.000	499.310	80.007	19.996	103.240	19.935	4.981	0.527
840.500	499.566	80.007	19.995	103.235	19.938	4.806	0.500
841.000	499.836	80.007	19.995	103.236	19.938	4.780	0.506
841.500	500.061	80.007	19.995	103.241	19.936	4.917	0.510
842.000	500.354	80.007	19.995	103.240	19.938	4.759	0.506
842.500	500.599	80.007	19.996	103.240	19.940	4.671	0.528
843.000	500.851	80.007	19.996	103.241	19.941	4.574	0.517
843.500	501.132	80.008	19.996	103.241	19.937	4.836	0.515
844.000	501.392	80.007	19.995	103.239	19.937	4.849	0.537
844.500	501.616	80.008	19.997	103.239	19.938	4.779	0.512
845.000	501.930	80.007	19.996	103.243	19.938	4.797	0.511
845.500	502.155	80.009	19.995	103.246	19.936	4.926	0.539
846.000	502.442	80.007	19.996	103.241	19.937	4.838	0.526
846.500	502.672	80.008	19.995	103.239	19.936	4.906	0.514
847.000	502.935	80.008	19.995	103.235	19.940	4.677	0.505
847.500	503.184	80.008	19.995	103.235	19.939	4.707	0.502
848.000	503.429	80.007	19.995	103.235	19.942	4.513	0.503
848.500	503.692	80.007	19.995	103.240	19.940	4.668	0.501
849.000	503.956	80.008	19.995	103.246	19.940	4.662	0.517
849.500	504.251	80.009	19.995	103.250	19.943	4.486	0.543
850.000	504.490	80.007	19.995	103.250	19.940	4.682	0.546
850.500	504.755	80.008	19.994	103.249	19.942	4.490	0.519
851.000	505.018	80.007	19.995	103.246	19.941	4.590	0.516
851.500	505.275	80.007	19.995	103.247	19.940	4.628	0.524
852.000	505.523	80.008	19.994	103.247	19.938	4.788	0.513
852.500	505.778	80.008	19.993	103.248	19.940	4.642	0.504
853.000	506.022	80.007	19.995	103.249	19.941	4.561	0.501
853.500	506.280	80.009	19.994	103.251	19.942	4.531	0.500
854.000	506.561	80.009	19.995	103.251	19.943	4.447	0.520
854.500	506.831	80.008	19.994	103.252	19.941	4.570	0.545
855.000	507.091	80.007	19.995	103.251	19.943	4.484	0.541
855.500	507.351	80.009	19.995	103.251	19.940	4.651	0.525
856.000	507.595	80.007	19.993	103.251	19.943	4.425	0.512
856.500	507.865	80.007	19.993	103.251	19.943	4.479	0.509
857.000	508.126	80.008	19.995	103.251	19.941	4.599	0.523
857.500	508.329	80.008	19.994	103.251	19.938	4.806	0.498
858.000	508.645	80.008	19.995	103.251	19.943	4.434	0.491
858.500	508.919	80.008	19.994	103.250	19.941	4.599	0.554
859.000	509.150	80.008	19.994	103.251	19.941	4.568	0.548
859.500	509.404	80.008	19.994	103.251	19.941	4.554	0.495
860.000	509.666	80.009	19.994	103.252	19.944	4.412	0.500
860.500	509.939	80.009	19.994	103.252	19.942	4.522	0.526
861.000	510.214	80.009	19.995	103.251	19.940	4.640	0.541
861.500	510.470	80.008	19.994	103.251	19.938	4.771	0.540
862.000	510.741	80.008	19.994	103.248	19.943	4.474	0.529
862.500	510.932	80.010	19.994	103.247	19.944	4.414	0.495
863.000	511.255	80.009	19.995	103.247	19.943	4.445	0.488
863.500	511.485	80.010	19.994	103.246	19.944	4.380	0.533
864.000	511.763	80.009	19.994	103.244	19.942	4.505	0.530
864.500	512.014	80.009	19.995	103.245	19.944	4.369	0.518
865.000	512.273	80.009	19.993	103.245	19.947	4.188	0.520
865.500	512.503	80.008	19.994	103.245	19.944	4.412	0.500
866.000	512.776	80.009	19.994	103.246	19.945	4.310	0.496
866.500	513.038	80.008	19.994	103.249	19.946	4.285	0.519
867.000	513.305	80.010	19.995	103.249	19.946	4.278	0.532
867.500	513.575	80.009	19.994	103.248	19.940	4.626	0.533
868.000	513.859	80.010	19.994	103.249	19.944	4.420	0.546
868.500	514.118	80.009	19.994	103.248	19.943	4.465	0.548
869.000	514.382	80.011	19.994	103.244	19.942	4.531	0.533
869.500	514.642	80.008	19.994	103.240	19.942	4.517	0.524
870.000	514.927	80.009	19.995	103.240	19.942	4.521	0.535
870.500	515.166	80.009	19.993	103.239	19.944	4.404	0.534
871.000	515.416	80.009	19.993	103.240	19.941	4.558	0.507
871.500	515.656	80.008	19.993	103.241	19.941	4.601	0.489
872.000	515.924	80.007	19.995	103.244	19.944	4.386	0.499
872.500	516.194	80.008	19.993	103.244	19.939	4.707	0.523
873.000	516.429	80.008	19.992	103.242	19.939	4.716	0.522
873.500	516.716	80.007	19.993	103.240	19.939	4.703	0.514
874.000	516.988	80.009	19.993	103.241	19.941	4.595	0.540
874.500	517.248	80.006	19.995	103.237	19.941	4.557	0.545
875.000	517.527	80.006	19.994	103.232	19.943	4.464	0.535
875.500	517.736	80.007	19.994	103.232	19.944	4.385	0.514
876.000	517.966	80.007	19.995	103.232	19.941	4.575	0.464
876.500	518.275	80.008	19.995	103.233	19.943	4.480	0.489
877.000	518.491	80.005	19.994	103.238	19.940	4.618	0.532
877.500	518.811	80.007	19.994	103.243	19.943	4.464	0.530
878.000	519.055	80.007	19.994	103.243	19.943	4.446	0.550
878.500	519.322	80.007	19.994	103.245	19.941	4.561	0.537
879.000	519.551	80.006	19.995	103.246	19.944	4.384	0.504
879.500	519.875	80.006	19.994	103.247	19.944	4.406	0.525
880.000	520.115	80.007	19.995	103.248	19.943	4.456	0.559
880.500	520.378	80.006	19.994	103.253	19.942	4.495	0.534
881.000	520.609	80.005	19.994	103.253	19.945	4.347	0.499
881.500	520.874	80.006	19.994	103.254	19.942	4.496	0.495
882.000	521.115	80.006	19.994	103.252	19.946	4.289	0.501
882.500	521.415	80.006	19.994	103.250	19.942	4.526	0.524
883.000	521.644	80.006	19.994	103.248	19.945	4.300	0.535
883.500	521.901	80.006	19.995	103.243	19.942	4.551	0.507
884.000	522.124	80.006	19.995	103.239	19.944	4.408	0.483
884.500	522.452	80.006	19.994	103.236	19.943	4.474	0.515
885.000	522.685	80.007	19.994	103.231	19.946	4.265	0.556
885.500	522.927	80.007	19.994	103.228	19.941	4.559	0.518
886.000	523.195	80.007	19.995	103.228	19.945	4.326	0.493
886.500	523.481	80.006	19.994	103.230	19.947	4.201	0.532
887.000	523.700	80.006	19.994	103.232	19.946	4.233	0.530
887.500	523.990	80.005	19.994	103.234	19.944	4.372	0.508
888.000	524.229	80.005	19.995	103.234	19.947	4.221	0.519
888.500	524.467	80.007	19.994	103.238	19.948	4.147	0.503
889.000	524.706	80.005	19.993	103.235	19.947	4.181	0.477
889.500	525.008	80.006	19.994	103.237	19.946	4.253	0.509
890.000	525.218	80.007	19.994	103.241	19.944	4.411	0.527
890.500	525.510	80.006	19.993	103.246	19.944	4.377	0.507
891.000	525.793	80.008	19.993	103.248	19.943	4.470	0.538
891.500	526.031	80.005	19.993	103.252	19.945	4.310	0.548
892.000	526.256	80.006	19.993	103.253	19.945	4.334	0.492
892.500	526.557	80.006	19.994	103.255	19.946	4.228	0.494
893.000	526.792	80.006	19.994	103.256	19.945	4.332	0.531
893.500	527.074	80.006	19.994	103.257	19.946	4.269	0.527
894.000	527.342	80.008	19.994	103.259	19.943	4.425	0.534
894.500	527.606	80.008	19.994	103.258	19.946	4.287	0.541
895.000	527.844	80.006	19.993	103.254	19.945	4.321	0.517
895.500	528.098	80.007	19.994	103.247	19.944	4.384	0.496
896.000	528.332	80.008	19.993	103.241	19.942	4.495	0.490
896.500	528.622	80.007	19.994	103.237	19.942	4.495	0.506
897.000	528.890	80.006	19.994	103.237	19.946	4.257	0.541
897.500	529.126	80.007	19.993	103.240	19.943	4.474	0.531
898.000	529.399	80.005	19.994	103.246	19.944	4.389	0.507
898.500	529.635	80.007	19.995	103.251	19.943	4.484	0.509
899.000	529.903	80.006	19.994	103.248	19.944	4.373	0.506
899.500	530.160	80.007	19.995	103.245	19.949	4.057	0.514
900.000	530.431	80.007	19.996	103.243	19.943	4.428	0.527
900.500	530.666	80.006	19.993	103.238	19.946	4.242	0.517
901.001	530.949	80.007	19.994	103.237	19.943	4.468	0.512
901.500	531.215	80.005	19.995	103.241	19.942	4.538	0.533
902.000	531.464	80.006	19.996	103.242	19.946	4.267	0.532
902.500	531.692	80.007	19.995	103.240	19.943	4.477	0.496
903.000	531.991	80.005	19.996	103.243	19.943	4.430	0.502
903.500	532.249	80.006	19.996	103.243	19.945	4.341	0.542
904.000	532.457	80.005	19.994	103.242	19.946	4.242	0.511
904.500	532.720	80.007	19.996	103.242	19.944	4.421	0.468
905.000	532.987	80.008	19.995	103.246	19.942	4.550	0.501
905.500	533.225	80.006	19.996	103.245	19.941	4.557	0.518
906.000	533.477	80.007	19.996	103.246	19.945	4.332	0.498
906.500	533.778	80.007	19.996	103.246	19.943	4.459	0.521
907.000	534.009	80.007	19.996	103.247	19.941	4.607	0.542
907.500	534.256	80.006	19.996	103.247	19.942	4.497	0.505
908.000	534.545	80.006	19.994	103.246	19.945	4.345	0.507
908.500	534.777	80.005	19.996	103.242	19.942	4.526	0.529
909.000	535.014	80.007	19.995	103.239	19.943	4.485	0.494
909.500	535.282	80.006	19.996	103.236	19.942	4.543	0.487
910.000	535.542	80.006	19.996	103.233	19.941	4.590	0.517
910.500	535.796	80.008	19.995	103.232	19.942	4.500	0.521
911.000	536.072	80.007	19.995	103.236	19.942	4.511	0.522
911.500	536.321	80.007	19.995	103.238	19.943	4.479	0.527
912.000	536.577	80.007	19.995	103.240	19.943	4.427	0.514
912.500	536.826	80.007	19.995	103.242	19.944	4.378	0.505
913.000	537.062	80.006	19.994	103.245	19.943	4.484	0.496
913.500	537.322	80.007	19.995	103.244	19.940	4.681	0.491
914.000	537.608	80.007	19.994	103.241	19.942	4.511	0.521
914.500	537.825	80.006	19.994	103.236	19.940	4.662	0.525
915.000	538.083	80.006	19.995	103.231	19.942	4.529	0.489
915.500	538.320	80.008	19.995	103.230	19.944	4.422	0.485
916.000	538.570	80.008	19.994	103.231	19.943	4.438	0.491
916.500	538.851	80.008	19.994	103.234	19.943	4.480	0.509
917.000	539.058	80.007	19.994	103.240	19.946	4.283	0.509
917.500	539.299	80.007	19.995	103.246	19.943	4.457	0.468
918.000	539.572	80.007	19.995	103.248	19.944	4.378	0.481
918.500	539.857	80.009	19.994	103.249	19.942	4.491	0.536
919.000	540.147	80.009	19.995	103.250	19.942	4.514	0.567
919.500	540.350	80.009	19.994	103.251	19.945	4.301	0.534
920.000	540.610	80.008	19.995	103.249	19.942	4.491	0.478
920.500	540.843	80.007	19.995	103.242	19.943	4.439	0.478
921.000	541.095	80.008	19.994	103.242	19.940	4.640	0.489
921.500	541.412	80.008	19.994	103.239	19.941	4.563	0.527
922.000	541.633	80.008	19.996	103.236	19.943	4.462	0.554
922.500	541.853	80.008	19.996	103.238	19.944	4.369	0.489
923.000	542.121	80.010	19.993	103.243	19.941	4.613	0.465
923.500	542.369	80.007	19.995	103.242	19.942	4.548	0.502
924.000	542.619	80.008	19.995	103.237	19.944	4.409	0.507
924.500	542.895	80.008	19.993	103.238	19.943	4.459	0.511
925.000	543.167	80.009	19.995	103.238	19.939	4.724	0.537
925.500	543.379	80.008	19.994	103.239	19.941	4.574	0.517
926.000	543.638	80.009	19.995	103.239	19.942	4.531	0.478
926.500	543.899	80.009	19.995	103.247	19.940	4.670	0.495
927.000	544.154	80.009	19.996	103.244	19.946	4.233	0.518
927.500	544.392	80.007	19.996	103.237	19.941	4.579	0.504
928.000	544.661	80.008	19.995	103.231	19.944	4.382	0.500
928.500	544.904	80.009	19.995	103.230	19.942	4.506	0.510
929.000	545.164	80.006	19.995	103.224	19.945	4.332	0.508
929.500	545.378	80.008	19.996	103.223	19.946	4.289	0.488
930.000	545.656	80.007	19.996	103.229	19.944	4.397	0.482
930.500	545.881	80.008	19.996	103.231	19.944	4.357	0.497
931.000	546.158	80.008	19.995	103.232	19.942	4.508	0.503
931.500	546.402	80.007	19.995	103.237	19.943	4.425	0.512
932.000	546.679	80.007	19.995	103.239	19.945	4.326	0.521
932.500	546.949	80.007	19.996	103.237	19.945	4.349	0.533
933.000	547.146	80.007	19.996	103.234	19.945	4.340	0.507
933.500	547.416	80.006	19.996	103.232	19.944	4.408	0.467
934.000	547.681	80.008	19.995	103.227	19.946	4.245	0.501
934.500	547.915	80.007	19.995	103.230	19.942	4.498	0.517
935.000	548.166	80.006	19.995	103.233	19.943	4.477	0.492
935.500	548.421	80.005	19.997	103.236	19.944	4.391	0.496
936.000	548.682	80.007	19.995	103.234	19.947	4.190	0.511
936.500	548.955	80.006	19.995	103.238	19.941	4.559	0.525
937.000	549.182	80.006	19.997	103.234	19.944	4.400	0.518
937.500	549.446	80.005	19.996	103.228	19.945	4.335	0.495
938.000	549.706	80.004	20.002	103.230	19.946	4.279	0.507
938.500	549.940	80.007	19.998	103.232	19.947	4.220	0.509
939.000	550.182	80.007	19.993	103.233	19.942	4.523	0.486
939.500	550.476	80.008	19.992	103.237	19.946	4.281	0.506
940.000	550.714	80.007	19.996	103.244	19.942	4.493	0.534
940.500	550.968	80.006	19.997	103.247	19.942	4.550	0.512
941.000	551.247	80.006	19.996	103.249	19.943	4.427	0.513
941.500	551.470	80.006	19.996	103.248	19.941	4.613	0.517
942.000	551.705	80.008	19.994	103.245	19.945	4.349	0.480
942.500	551.990	80.007	19.995	103.241	19.942	4.529	0.489
943.000	552.225	80.006	19.994	103.236	19.944	4.386	0.520
943.500	552.531	80.008	19.996	103.231	19.943	4.452	0.530
944.000	552.763	80.009	19.994	103.225	19.941	4.554	0.539
944.500	553.009	80.008	19.995	103.224	19.942	4.516	0.508
945.000	553.280	80.007	19.994	103.222	19.945	4.311	0.498
945.500	553.529	80.011	19.994	103.227	19.945	4.328	0.518
946.000	553.781	80.011	19.991	103.231	19.946	4.276	0.510
946.500	554.021	80.011	19.995	103.233	19.944	4.378	0.497
947.000	554.271	80.007	19.992	103.233	19.946	4.253	0.492
947.500	554.526	80.009	19.994	103.238	19.944	4.359	0.498
948.000	554.807	80.010	19.995	103.236	19.945	4.310	0.520
948.500	555.038	80.011	19.995	103.234	19.945	4.296	0.524
949.000	555.305	80.009	19.993	103.231	19.943	4.471	0.505
949.500	555.566	80.009	19.994	103.233	19.943	4.464	0.513
950.000	555.818	80.010	19.994	103.230	19.946	4.238	0.520
950.500	556.049	80.009	19.994	103.233	19.948	4.114	0.498
951.000	556.306	80.009	19.994	103.236	19.943	4.446	0.486
951.500	556.557	80.010	19.994	103.236	19.949	4.037	0.498
952.000	556.799	80.010	19.995	103.237	19.947	4.222	0.501
952.500	557.027	80.008	19.996	103.238	19.946	4.275	0.481
953.000	557.314	80.011	19.993	103.236	19.947	4.175	0.492
953.500	557.575	80.010	19.994	103.234	19.946	4.229	0.531
954.000	557.788	80.007	19.994	103.240	19.948	4.107	0.511
954.500	558.045	80.009	19.993	103.236	19.947	4.206	0.472
955.000	558.300	80.008	19.992	103.230	19.942	4.487	0.491
955.500	558.588	80.008	19.994	103.226	19.945	4.353	0.528
956.000	558.841	80.008	19.995	103.226	19.945	4.294	0.542
956.500	559.079	80.009	19.993	103.226	19.948	4.156	0.516
957.000	559.329	80.007	19.994	103.233	19.949	4.048	0.489
957.500	559.607	80.007	19.994	103.239	19.947	4.197	0.508
958.000	559.820	80.006	19.995	103.241	19.945	4.327	0.509
958.500	560.073	80.008	19.994	103.242	19.948	4.147	0.478
959.000	560.351	80.006	19.994	103.243	19.945	4.335	0.499
959.500	560.606	80.006	19.997	103.237	19.946	4.260	0.532
960.000	560.836	80.005	19.996	103.233	19.944	4.387	0.509
960.500	561.131	80.007	19.994	103.230	19.944	4.363	0.505
961.000	561.364	80.007	19.995	103.228	19.943	4.426	0.526
961.500	561.639	80.006	19.994	103.223	19.942	4.505	0.518
962.000	561.904	80.007	19.995	103.222	19.945	4.348	0.524
962.500	562.143	80.005	19.994	103.221	19.944	4.414	0.522
963.000	562.384	80.007	19.994	103.221	19.946	4.254	0.492
963.500	562.625	80.006	19.994	103.222	19.944	4.415	0.481
964.000	562.885	80.006	19.993	103.221	19.946	4.266	0.492
964.500	563.174	80.007	19.994	103.221	19.944	4.412	0.525
965.000	563.400	80.007	19.995	103.222	19.941	4.553	0.532
965.500	563.686	80.007	19.993	103.228	19.943	4.426	0.514
966.000	563.883	80.005	19.995	103.228	19.943	4.476	0.498
966.500	564.124	80.006	19.993	103.229	19.942	4.548	0.461
967.000	564.410	80.002	19.991	103.231	19.946	4.285	0.482
967.500	564.677	80.009	19.994	103.235	19.943	4.466	0.539
968.000	564.896	80.011	19.991	103.236	19.942	4.524	0.519
968.500	565.119	80.006	20.000	103.241	19.940	4.673	0.464
969.000	565.402	80.004	19.997	103.245	19.943	4.484	0.474
969.500	565.637	80.007	19.996	103.243	19.942	4.547	0.512
970.000	565.875	80.005	19.994	103.235	19.944	4.379	0.496
970.500	566.144	80.006	19.994	103.232	19.946	4.282	0.490
971.000	566.382	80.007	19.993	103.227	19.945	4.352	0.507
971.500	566.639	80.006	19.995	103.223	19.943	4.440	0.501
972.000	566.862	80.006	19.993	103.227	19.947	4.221	0.488
972.500	567.102	80.006	19.996	103.235	19.944	4.382	0.472
973.000	567.364	80.007	19.994	103.232	19.943	4.468	0.482
973.500	567.645	80.008	19.996	103.231	19.941	4.597	0.523
974.000	567.874	80.006	19.993	103.230	19.943	4.457	0.527
974.500	568.127	80.009	19.994	103.226	19.943	4.433	0.496
975.000	568.416	80.003	19.995	103.224	19.943	4.486	0.512
975.500	568.634	80.007	19.995	103.223	19.944	4.414	0.524
976.000	568.921	80.006	19.994	103.222	19.940	4.660	0.506
976.500	569.192	80.008	19.996	103.223	19.943	4.432	0.532
977.000	569.467	80.008	19.992	103.223	19.945	4.350	0.552
977.500	569.702	80.006	19.993	103.222	19.941	4.558	0.528
978.000	569.917	80.007	19.995	103.227	19.943	4.486	0.480
978.500	570.189	80.005	19.995	103.233	19.943	4.423	0.468
979.000	570.403	80.008	19.994	103.238	19.945	4.348	0.487
979.500	570.679	80.006	19.994	103.243	19.941	4.570	0.488
980.000	570.942	80.007	19.996	103.245	19.946	4.267	0.514
980.500	571.185	80.006	19.995	103.245	19.945	4.353	0.522
981.000	571.423	80.008	19.995	103.244	19.943	4.481	0.494
981.500	571.713	80.008	19.994	103.245	19.942	4.518	0.505
982.000	571.920	80.007	19.995	103.247	19.946	4.274	0.512
982.500	572.188	80.006	19.994	103.246	19.943	4.473	0.486
983.000	572.411	80.008	19.994	103.246	19.943	4.459	0.484
983.500	572.713	80.007	19.995	103.243	19.946	4.238	0.508
984.000	572.985	80.008	19.995	103.238	19.943	4.466	0.549
984.500	573.233	80.007	19.994	103.232	19.942	4.487	0.547
985.000	573.515	80.005	19.995	103.229	19.944	4.358	0.525
985.500	573.768	80.006	19.996	103.229	19.946	4.286	0.532
986.000	573.994	80.008	19.995	103.233	19.945	4.319	0.507
986.500	574.279	80.011	19.995	103.239	19.943	4.464	0.495
987.000	574.506	80.009	19.994	103.240	19.946	4.263	0.511
987.500	574.777	80.006	19.993	103.246	19.945	4.298	0.505
988.000	575.038	80.007	19.994	103.247	19.944	4.411	0.515
988.500	575.296	80.007	19.995	103.247	19.945	4.327	0.525
989.000	575.574	80.008	19.993	103.242	19.945	4.291	0.527
989.500	575.803	80.006	19.995	103.245	19.945	4.310	0.522
990.000	576.049	80.006	19.995	103.241	19.939	4.705	0.491
990.500	576.348	80.007	19.994	103.239	19.941	4.581	0.510
991.000	576.573	80.005	19.995	103.239	19.942	4.522	0.534
991.500	576.826	80.007	19.994	103.244	19.939	4.700	0.501
992.000	577.077	80.007	19.995	103.241	19.943	4.485	0.491
992.500	577.300	80.005	19.996	103.240	19.941	4.580	0.489
993.000	577.591	80.005	19.994	103.242	19.945	4.343	0.494
993.500	577.843	80.006	19.995	103.239	19.944	4.370	0.529
994.000	578.064	80.005	19.994	103.234	19.947	4.212	0.508
994.500	578.341	80.006	19.996	103.234	19.941	4.567	0.485
995.000	578.589	80.007	19.995	103.230	19.943	4.458	0.511
995.500	578.834	80.005	19.997	103.224	19.944	4.364	0.510
996.000	579.100	80.006	19.995	103.225	19.943	4.465	0.502
996.500	579.359	80.005	19.995	103.226	19.943	4.450	0.518
997.000	579.610	80.007	19.994	103.225	19.940	4.628	0.518
997.500	579.859	80.008	19.997	103.231	19.942	4.547	0.505
998.000	580.140	80.006	19.995	103.238	19.943	4.479	0.515
998.500	580.409	80.006	19.994	103.242	19.939	4.719	0.540
999.000	580.614	80.006	19.995	103.246	19.940	4.657	0.512
999.500	580.907	80.006	19.995	103.250	19.936	4.888	0.486
1000.000	581.132	80.007	19.995	103.251	19.937	4.825	0.508
1000.500	581.395	80.004	19.993	103.246	19.940	4.658	0.503
1001.000	581.679	80.009	19.992	103.242	19.941	4.563	0.517
1001.500	581.900	80.009	19.995	103.242	19.941	4.566	0.526
1002.000	582.166	80.004	19.995	103.242	19.941	4.617	0.496
1002.500	582.427	80.006	19.997	103.243	19.939	4.749	0.507
1003.000	582.675	80.007	19.996	103.248	19.940	4.663	0.518
1003.500	582.934	80.007	19.995	103.251	19.939	4.688	0.508
1004.000	583.189	80.007	19.995	103.250	19.939	4.749	0.510
1004.500	583.407	80.006	19.994	103.251	19.937	4.855	0.493
1005.000	583.634	80.007	19.996	103.251	19.943	4.469	0.459
1005.500	583.951	80.009	19.994	103.251	19.942	4.546	0.495
1006.000	584.175	80.007	19.995	103.247	19.942	4.493	0.542
1006.500	584.429	80.007	19.995	103.245	19.940	4.652	0.509
1007.000	584.691	80.007	19.996	103.244	19.943	4.475	0.497
1007.500	584.963	80.006	19.995	103.242	19.937	4.863	0.525
1008.000	585.222	80.007	19.994	103.241	19.941	4.603	0.532
1008.500	585.434	80.008	19.994	103.245	19.941	4.594	0.501
1009.000	585.695	80.008	19.994	103.247	19.944	4.411	0.472
1009.500	585.940	80.007	19.993	103.247	19.941	4.603	0.489
1010.000	586.224	80.007	19.995	103.246	19.941	4.573	0.517
1010.500	586.489	80.008	19.994	103.244	19.941	4.554	0.539
1011.000	586.722	80.004	19.997	103.242	19.942	4.508	0.523
1011.500	586.931	80.008	19.994	103.239	19.942	4.509	0.470
1012.000	587.220	80.005	19.995	103.234	19.940	4.619	0.470
1012.500	587.458	80.008	19.995	103.232	19.942	4.543	0.513
1013.000	587.705	80.007	19.995	103.232	19.940	4.676	0.506
1013.500	587.975	80.007	19.993	103.229	19.942	4.489	0.501
1014.000	588.208	80.006	19.995	103.226	19.939	4.715	0.509
1014.500	588.473	80.005	19.995	103.225	19.938	4.774	0.500
1015.000	588.744	80.007	19.993	103.225	19.944	4.394	0.517
1015.500	589.008	80.006	19.992	103.225	19.942	4.547	0.536
1016.000	589.263	80.002	20.003	103.227	19.942	4.493	0.527
1016.500	589.495	80.007	19.998	103.229	19.943	4.466	0.503
1017.000	589.741	80.006	20.000	103.231	19.944	4.382	0.482
1017.500	590.004	80.008	19.995	103.230	19.944	4.367	0.494
1018.000	590.263	80.007	19.996	103.234	19.942	4.507	0.516
1018.500	590.545	80.006	19.991	103.239	19.940	4.653	0.531
1019.000	590.787	80.004	19.997	103.244	19.941	4.590	0.532
1019.500	591.043	80.009	19.995	103.249	19.944	4.393	0.511
1020.000	591.248	80.003	19.997	103.253	19.943	4.443	0.480
1020.500	591.543	80.001	19.999	103.252	19.940	4.681	0.481
1021.000	591.779	80.005	20.003	103.251	19.941	4.565	0.515
1021.500	592.016	80.004	19.987	103.247	19.940	4.620	0.502
1022.000	592.349	80.010	19.989	103.244	19.942	4.523	0.522
1022.500	592.572	80.009	19.995	103.240	19.942	4.509	0.563
1023.000	592.813	80.007	19.995	103.240	19.943	4.469	0.510
1023.500	593.069	80.005	20.002	103.238	19.943	4.446	0.481
1024.000	593.326	80.001	19.992	103.236	19.944	4.369	0.505
1024.499	593.588	80.004	20.001	103.237	19.943	4.434	0.516
1024.999	593.837	80.005	20.000	103.234	19.940	4.634	0.515
1025.499	594.093	80.010	20.001	103.229	19.943	4.464	0.507
1025.999	594.354	80.003	19.999	103.230	19.943	4.467	0.511
1026.499	594.611	80.003	20.001	103.232	19.943	4.471	0.518
1026.999	594.880	80.004	19.996	103.231	19.944	4.378	0.522
1027.499	595.191	80.006	19.993	103.233	19.942	4.494	0.553
1027.999	595.404	80.006	19.994	103.235	19.941	4.595	0.552
1028.499	595.668	80.004	19.994	103.231	19.941	4.605	0.500
1028.999	595.915	80.007	19.999	103.231	19.941	4.607	0.493
1029.499	596.169	80.010	19.993	103.234	19.939	4.704	0.506
1029.999	596.443	80.008	19.993	103.237	19.941	4.555	0.515
1030.500	596.670	80.004	20.000	103.239	19.938	4.793	0.515
1031.001	596.921	80.008	19.995	103.240	19.940	4.675	0.490
1031.500	597.202	80.010	19.994	103.239	19.941	4.560	0.505
1031.999	597.479	80.007	19.991	103.233	19.941	4.577	0.545
1032.499	597.681	80.009	19.998	103.228	19.940	4.649	0.519
1032.999	597.928	80.011	19.993	103.224	19.939	4.704	0.464
1033.499	598.205	80.012	19.997	103.225	19.938	4.751	0.486
1033.999	598.461	80.009	19.995	103.226	19.942	4.525	0.529
1034.499	598.681	80.009	19.994	103.231	19.941	4.603	0.504
1034.999	598.944	80.007	19.998	103.233	19.941	4.559	0.479
1035.499	599.196	80.005	19.995	103.232	19.944	4.410	0.499
1036.000	599.397	80.004	19.999	103.227	19.941	4.600	0.484
1036.500	599.706	80.008	20.001	103.220	19.941	4.597	0.481
1036.999	599.961	80.005	20.001	103.219	19.942	4.498	0.537
1037.499	600.236	80.009	19.995	103.221	19.943	4.472	0.547
1037.999	600.473	80.006	19.998	103.222	19.943	4.480	0.521
1038.499	600.700	80.004	19.998	103.221	19.945	4.300	0.488
1039.000	600.946	80.012	19.993	103.222	19.942	4.508	0.468
1039.500	601.224	80.009	19.993	103.218	19.942	4.496	0.498
1039.999	601.500	80.006	19.995	103.212	19.941	4.582	0.539
1040.499	601.754	80.005	19.995	103.215	19.941	4.602	0.542
1040.999	601.964	80.010	19.996	103.217	19.942	4.496	0.497
1041.499	602.236	80.009	19.995	103.218	19.944	4.417	0.473
1041.999	602.473	80.007	19.996	103.219	19.942	4.494	0.496
1042.499	602.735	80.006	20.000	103.222	19.943	4.438	0.504
1042.999	602.982	80.008	19.992	103.222	19.941	4.595	0.504
1043.499	603.197	80.009	19.994	103.228	19.939	4.690	0.485
1043.999	603.468	80.007	19.994	103.233	19.941	4.553	0.474
1044.499	603.722	80.007	19.995	103.236	19.940	4.623	0.505
1044.999	603.981	80.006	19.994	103.240	19.940	4.632	0.519
1045.499	604.250	80.008	19.996	103.240	19.939	4.745	0.521
1045.999	604.507	80.008	19.995	103.236	19.940	4.683	0.527
1046.499	604.746	80.008	19.994	103.233	19.942	4.527	0.511
1046.999	604.986	80.007	19.994	103.231	19.939	4.699	0.487
1047.499	605.227	80.008	19.994	103.227	19.940	4.642	0.480
1047.999	605.505	80.006	19.996	103.222	19.942	4.522	0.500
1048.499	605.779	80.007	19.995	103.218	19.939	4.697	0.535
1048.999	605.995	80.010	19.995	103.221	19.939	4.742	0.521
1049.499	606.284	80.008	19.990	103.219	19.940	4.668	0.498
1049.999	606.507	80.007	19.992	103.220	19.943	4.425	0.509
1050.499	606.805	80.006	19.996	103.222	19.943	4.464	0.517
1050.999	607.005	80.009	19.993	103.222	19.937	4.855	0.509
1051.499	607.253	80.006	19.994	103.220	19.942	4.507	0.473
1051.999	607.515	80.007	19.994	103.218	19.940	4.678	0.479
1052.499	607.792	80.005	19.996	103.216	19.941	4.568	0.524
1052.999	608.060	80.007	19.996	103.218	19.941	4.565	0.541
1053.499	608.282	80.007	19.995	103.220	19.940	4.671	0.517
1053.999	608.536	80.007	19.994	103.220	19.940	4.666	0.483
1054.499	608.801	80.008	19.994	103.220	19.940	4.676	0.498
1054.999	609.059	80.007	19.995	103.220	19.945	4.305	0.521
1055.500	609.269	80.008	19.993	103.222	19.940	4.677	0.496
1056.000	609.530	80.007	19.995	103.221	19.941	4.601	0.470
1056.499	609.771	80.006	19.996	103.224	19.941	4.565	0.486
1056.999	610.002	80.008	19.995	103.229	19.941	4.588	0.486
1057.499	610.303	80.009	19.993	103.235	19.944	4.364	0.502
1057.999	610.545	80.010	19.993	103.236	19.943	4.452	0.538
1058.499	610.784	80.006	19.994	103.241	19.940	4.649	0.512
1058.999	611.043	80.008	19.995	103.236	19.939	4.696	0.490
1059.499	611.272	80.008	19.995	103.234	19.942	4.500	0.493
1059.999	611.536	80.008	19.995	103.231	19.942	4.502	0.490
1060.499	611.759	80.007	19.995	103.230	19.939	4.731	0.490
1060.999	612.033	80.007	19.993	103.231	19.942	4.527	0.492
1061.499	612.263	80.008	19.995	103.233	19.941	4.559	0.500
1061.999	612.562	80.006	19.994	103.235	19.941	4.617	0.516
1062.499	612.808	80.008	19.994	103.238	19.939	4.717	0.537
1062.999	613.065	80.008	19.994	103.236	19.943	4.444	0.524
1063.499	613.294	80.008	19.995	103.236	19.942	4.507	0.494
1063.999	613.568	80.005	19.994	103.241	19.942	4.530	0.495
1064.499	613.837	80.007	19.995	103.244	19.942	4.505	0.523
1064.999	614.049	80.007	19.994	103.245	19.941	4.595	0.512
1065.499	614.332	80.007	19.994	103.249	19.943	4.468	0.488
1065.999	614.571	80.007	19.994	103.249	19.941	4.613	0.508
1066.499	614.839	80.008	19.994	103.250	19.939	4.739	0.514
1066.999	615.055	80.007	19.994	103.250	19.940	4.624	0.496
1067.499	615.314	80.004	19.999	103.248	19.937	4.863	0.480
1067.999	615.634	80.007	19.995	103.246	19.938	4.759	0.527
1068.499	615.832	80.007	19.993	103.244	19.941	4.565	0.549
1068.999	616.107	80.005	19.996	103.240	19.941	4.594	0.495
1069.500	616.376	80.009	19.996	103.237	19.941	4.603	0.509
1070.000	616.625	80.006	19.995	103.235	19.943	4.470	0.531
1070.499	616.861	80.005	19.995	103.233	19.940	4.631	0.501
1070.999	617.131	80.007	19.996	103.234	19.942	4.508	0.495
1071.500	617.423	80.007	19.994	103.233	19.942	4.497	0.534
1072.000	617.590	80.005	19.994	103.234	19.943	4.457	0.511
1072.499	617.847	80.008	19.995	103.234	19.943	4.481	0.442
1073.000	618.099	80.006	19.994	103.232	19.940	4.651	0.466
1073.500	618.376	80.007	19.994	103.227	19.942	4.548	0.519
1073.999	618.646	80.006	19.995	103.227	19.944	4.416	0.538
1074.499	618.870	80.008	19.993	103.225	19.940	4.651	0.520
1074.999	619.128	80.006	19.995	103.226	19.942	4.516	0.488
1075.499	619.383	80.005	19.993	103.231	19.941	4.588	0.497
1075.999	619.607	80.006	19.996	103.234	19.941	4.574	0.496
1076.499	619.900	80.005	19.995	103.237	19.939	4.718	0.498
1076.999	620.156	80.007	19.992	103.243	19.939	4.732	0.534
1077.499	620.407	80.005	19.995	103.245	19.936	4.900	0.528
1077.999	620.655	80.009	19.995	103.245	19.938	4.768	0.502
1078.499	620.929	80.006	19.994	103.251	19.936	4.900	0.510
1079.000	621.186	80.006	19.994	103.251	19.942	4.522	0.527
1079.500	621.411	80.007	19.994	103.249	19.939	4.712	0.506
1080.000	621.669	80.007	19.995	103.248	19.940	4.662	0.482
1080.500	621.892	80.008	19.995	103.248	19.941	4.599	0.482
1081.000	622.198	80.006	19.995	103.245	19.938	4.782	0.505
1081.500	622.433	80.008	19.993	103.245	19.937	4.816	0.535
1081.999	622.685	80.007	19.994	103.247	19.941	4.567	0.514
1082.499	622.962	80.007	19.994	103.244	19.935	4.990	0.508
1082.999	623.197	80.006	19.993	103.240	19.936	4.897	0.520
1083.499	623.489	80.006	19.994	103.240	19.938	4.796	0.520
1083.999	623.767	80.006	19.993	103.236	19.939	4.710	0.549
1084.499	623.998	80.007	19.994	103.230	19.937	4.857	0.540
1084.999	624.233	80.007	19.994	103.229	19.935	4.972	0.487
1085.499	624.504	80.008	19.994	103.232	19.935	4.990	0.486
1085.999	624.792	80.006	19.997	103.235	19.937	4.818	0.532
1086.499	625.018	80.007	19.993	103.238	19.935	4.957	0.537
1086.999	625.254	80.008	19.995	103.244	19.936	4.893	0.488
1087.499	625.546	80.008	19.994	103.247	19.939	4.742	0.495
1087.999	625.751	80.009	19.994	103.246	19.934	5.065	0.512
1088.499	626.054	80.010	19.993	103.241	19.934	5.035	0.502
1088.999	626.315	80.009	19.993	103.241	19.933	5.114	0.536
1089.499	626.582	80.007	19.994	103.238	19.933	5.094	0.546
1089.999	626.819	80.008	19.995	103.237	19.935	4.988	0.516
1090.499	627.111	80.008	19.993	103.236	19.937	4.832	0.517
1090.999	627.304	80.007	19.994	103.241	19.934	5.027	0.507
1091.499	627.580	80.007	19.995	103.244	19.936	4.925	0.477
1091.999	627.828	80.006	19.996	103.246	19.933	5.131	0.497
1092.499	628.110	80.009	19.993	103.248	19.932	5.145	0.527
1092.999	628.383	80.007	19.995	103.251	19.937	4.862	0.543
1093.499	628.611	80.008	19.995	103.248	19.932	5.198	0.528
1093.999	628.876	80.007	19.995	103.247	19.935	4.972	0.497
1094.499	629.122	80.007	19.993	103.244	19.939	4.708	0.502
1094.999	629.423	80.007	19.997	103.243	19.932	5.149	0.529
1095.499	629.630	80.005	19.996	103.243	19.934	5.031	0.528
1096.000	629.874	80.008	19.994	103.243	19.935	4.966	0.479
1096.500	630.162	80.010	19.994	103.243	19.937	4.832	0.491
1096.999	630.417	80.005	19.990	103.239	19.936	4.918	0.538
1097.499	630.688	80.011	19.993	103.235	19.936	4.888	0.535
1097.999	630.956	80.008	19.992	103.229	19.938	4.812	0.532
1098.499	631.210	80.007	19.995	103.231	19.940	4.680	0.531
1098.999	631.456	80.002	19.994	103.231	19.938	4.798	0.511
1099.499	631.691	80.006	19.995	103.235	19.937	4.866	0.491
1100.000	631.956	80.007	19.995	103.236	19.936	4.910	0.491
1100.501	632.227	80.006	19.994	103.238	19.935	4.991	0.518
1101.000	632.448	80.011	19.991	103.237	19.936	4.903	0.514
1101.499	632.735	80.009	19.993	103.237	19.935	4.982	0.500
1101.999	632.974	80.008	19.995	103.235	19.937	4.850	0.517
1102.499	633.234	80.008	19.995	103.236	19.937	4.846	0.512
1102.999	633.496	80.006	19.995	103.232	19.937	4.848	0.511
1103.499	633.776	80.004	19.996	103.228	19.939	4.717	0.532
1103.999	634.068	80.006	19.993	103.226	19.938	4.756	0.557
1104.499	634.266	80.009	19.996	103.229	19.938	4.814	0.531
1104.999	634.547	80.013	19.995	103.232	19.936	4.903	0.484
1105.499	634.842	80.013	19.992	103.233	19.937	4.846	0.528
1105.999	635.089	80.006	19.989	103.231	19.938	4.794	0.559
1106.500	635.328	80.008	19.991	103.230	19.938	4.760	0.514
1107.000	635.611	80.008	19.995	103.231	19.940	4.666	0.504
1107.499	635.888	80.007	19.989	103.229	19.936	4.910	0.541
1107.999	636.182	80.011	19.994	103.233	19.935	4.989	0.565
1108.499	636.462	80.010	19.995	103.236	19.937	4.821	0.572
1108.999	636.663	80.004	20.002	103.238	19.935	4.980	0.528
1109.499	636.920	80.006	19.998	103.237	19.937	4.826	0.470
1109.999	637.220	80.009	19.994	103.234	19.934	5.046	0.507
1110.499	637.458	80.007	19.994	103.229	19.933	5.132	0.547
1110.999	637.707	80.007	19.997	103.225	19.931	5.213	0.513
1111.499	637.986	80.007	19.995	103.222	19.934	5.037	0.508
1111.999	638.295	80.009	19.995	103.220	19.934	5.030	0.558
1112.499	638.510	80.008	19.997	103.224	19.935	4.984	0.556
1112.999	638.797	80.010	19.993	103.229	19.931	5.267	0.513
1113.499	639.003	80.010	19.997	103.232	19.934	5.078	0.498
1113.999	639.302	80.010	19.994	103.234	19.935	4.983	0.499
1114.499	639.559	80.009	19.992	103.231	19.934	5.074	0.531
1114.999	639.828	80.011	19.992	103.228	19.932	5.191	0.541
1115.499	640.043	80.008	19.995	103.227	19.935	4.964	0.505
1115.999	640.377	80.006	19.994	103.226	19.939	4.731	0.516
1116.499	640.595	80.012	19.996	103.224	19.938	4.808	0.550
1116.999	640.862	80.007	19.994	103.228	19.935	5.008	0.519
1117.499	641.136	80.014	19.989	103.227	19.936	4.890	0.513
1117.999	641.384	80.012	19.993	103.226	19.938	4.784	0.531
1118.499	641.588	80.012	19.991	103.226	19.937	4.822	0.487
1118.999	641.906	80.004	20.004	103.228	19.935	5.009	0.487
1119.499	642.148	80.006	19.998	103.223	19.936	4.944	0.541
1120.000	642.429	80.009	19.994	103.222	19.932	5.188	0.541
1120.500	642.637	80.008	19.995	103.219	19.935	4.948	0.506
1120.999	642.910	80.009	19.995	103.215	19.936	4.939	0.485
1121.499	643.172	80.008	19.996	103.210	19.932	5.156	0.508
1121.999	643.397	80.008	19.994	103.211	19.933	5.110	0.511
1122.499	643.650	80.010	19.992	103.214	19.929	5.361	0.482
1122.999	643.956	80.007	19.995	103.217	19.933	5.090	0.518
1123.499	644.181	80.007	19.995	103.223	19.932	5.163	0.545
1123.999	644.439	80.006	19.996	103.228	19.935	4.978	0.508
1124.499	644.659	80.006	19.996	103.234	19.935	5.009	0.481
1124.999	644.922	80.006	19.996	103.237	19.935	4.966	0.480
1125.499	645.142	80.006	19.996	103.237	19.936	4.891	0.483
1125.999	645.434	80.005	19.995	103.233	19.936	4.929	0.497
1126.499	645.633	80.007	19.996	103.228	19.936	4.920	0.502
1126.999	645.888	80.006	19.995	103.221	19.935	4.953	0.472
1127.499	646.197	80.007	19.995	103.216	19.936	4.885	0.509
1127.999	646.416	80.007	19.996	103.212	19.937	4.852	0.546
1128.499	646.700	80.008	19.993	103.211	19.935	4.994	0.516
1128.999	646.961	80.008	19.993	103.214	19.936	4.906	0.524
1129.499	647.195	80.009	19.995	103.216	19.937	4.843	0.520
1129.999	647.466	80.006	19.996	103.216	19.939	4.733	0.500
1130.499	647.717	80.006	19.997	103.216	19.936	4.885	0.513
1130.999	647.983	80.005	19.997	103.219	19.940	4.645	0.519
1131.499	648.204	80.001	19.998	103.222	19.938	4.776	0.502
1131.999	648.477	80.009	19.995	103.227	19.938	4.751	0.491
1132.499	648.742	80.003	19.991	103.230	19.936	4.946	0.516
1132.999	649.002	80.007	19.994	103.231	19.938	4.781	0.531
1133.500	649.252	80.002	19.994	103.230	19.941	4.609	0.517
1134.000	649.503	80.001	19.996	103.227	19.939	4.727	0.505
1134.499	649.725	80.006	19.994	103.222	19.938	4.787	0.487
1134.999	650.024	80.007	19.996	103.221	19.938	4.758	0.497
1135.499	650.263	80.006	19.993	103.222	19.938	4.752	0.530
1135.999	650.496	79.996	20.001	103.225	19.935	4.975	0.505
1136.499	650.775	80.007	19.991	103.229	19.936	4.933	0.492
1137.000	651.030	80.007	19.990	103.235	19.937	4.840	0.523
1137.500	651.288	80.008	19.994	103.242	19.936	4.928	0.524
1137.999	651.562	80.007	19.993	103.247	19.934	5.019	0.523
1138.499	651.773	80.002	19.996	103.249	19.936	4.944	0.509
1138.999	652.032	80.006	19.993	103.249	19.936	4.919	0.477
1139.499	652.275	80.008	19.996	103.244	19.934	5.014	0.486
1139.999	652.556	80.012	19.994	103.237	19.939	4.724	0.513
1140.499	652.816	80.009	19.993	103.236	19.936	4.919	0.533
1140.999	653.071	80.005	19.992	103.233	19.937	4.858	0.528
1141.499	653.303	80.006	19.995	103.228	19.935	4.948	0.501
1141.999	653.577	80.006	19.996	103.229	19.934	5.054	0.496
1142.500	653.837	80.007	19.994	103.231	19.935	4.980	0.520
1143.000	654.118	80.008	19.995	103.225	19.937	4.848	0.538
1143.499	654.344	80.005	19.995	103.221	19.939	4.737	0.524
1143.999	654.615	80.005	19.994	103.225	19.937	4.827	0.502
1144.499	654.853	80.009	19.996	103.223	19.938	4.780	0.503
1144.999	655.134	80.008	19.993	103.224	19.939	4.744	0.514
1145.499	655.418	80.009	19.994	103.227	19.936	4.886	0.542
1145.999	655.650	80.008	19.996	103.226	19.938	4.805	0.540
1146.499	655.879	80.007	19.994	103.223	19.936	4.910	0.488
1146.999	656.177	80.007	19.989	103.222	19.940	4.673	0.494
1147.499	656.400	80.004	20.005	103.219	19.935	4.948	0.524
1147.999	656.701	80.008	19.992	103.215	19.935	5.007	0.522
1148.499	656.917	80.011	19.993	103.217	19.936	4.882	0.520
1148.999	657.178	80.005	19.992	103.216	19.937	4.837	0.497
1149.499	657.417	80.008	19.994	103.216	19.935	4.988	0.489
1149.999	657.665	80.008	19.994	103.215	19.935	4.954	0.493
1150.500	657.918	80.009	19.996	103.217	19.937	4.875	0.494
1151.000	658.169	80.011	19.999	103.219	19.938	4.789	0.502
1151.499	658.469	80.006	19.992	103.218	19.941	4.608	0.527
1151.999	658.683	80.005	19.994	103.219	19.937	4.832	0.532
1152.500	658.929	80.006	19.995	103.219	19.939	4.736	0.487
1153.000	659.191	80.005	19.993	103.222	19.938	4.776	0.484
1153.499	659.407	80.006	19.995	103.223	19.936	4.896	0.493
1153.999	659.733	80.007	19.994	103.226	19.935	4.950	0.510
1154.499	659.968	80.005	19.995	103.232	19.937	4.821	0.552
1154.999	660.189	80.008	19.994	103.238	19.934	5.060	0.509
1155.499	660.466	80.005	19.995	103.237	19.935	4.973	0.477
1155.999	660.692	80.006	19.994	103.233	19.930	5.308	0.500
1156.499	660.954	80.005	19.996	103.232	19.934	5.070	0.496
1156.999	661.229	80.008	19.994	103.225	19.935	4.959	0.513
1157.499	661.480	80.006	19.993	103.221	19.934	5.075	0.531
1157.999	661.721	80.008	19.995	103.221	19.935	4.988	0.509
1158.499	661.984	80.003	19.998	103.226	19.936	4.946	0.498
1158.999	662.253	80.006	19.993	103.227	19.934	5.014	0.518
1159.499	662.480	80.004	19.991	103.230	19.934	5.043	0.514
1159.999	662.761	80.008	19.990	103.233	19.934	5.041	0.502
1160.499	663.002	80.014	19.992	103.237	19.936	4.924	0.515
1160.999	663.222	80.007	19.993	103.239	19.937	4.835	0.492
1161.499	663.476	80.008	19.998	103.244	19.935	4.960	0.467
1161.999	663.740	80.007	19.994	103.240	19.938	4.806	0.496
1162.499	663.960	80.003	19.996	103.235	19.934	5.056	0.501
1162.999	664.235	80.006	19.994	103.231	19.938	4.788	0.489
1163.499	664.486	80.008	19.996	103.227	19.936	4.917	0.510
1163.999	664.737	80.009	19.994	103.225	19.937	4.833	0.514
1164.499	665.014	80.007	19.996	103.230	19.939	4.735	0.515
1164.999	665.255	80.008	19.995	103.230	19.934	5.012	0.524
1165.499	665.511	80.007	19.994	103.233	19.936	4.905	0.508
1165.999	665.758	80.008	19.996	103.233	19.936	4.896	0.500
1166.500	666.006	80.008	19.994	103.226	19.934	5.025	0.499
1167.000	666.277	80.009	19.990	103.223	19.937	4.829	0.507
1167.500	666.515	80.011	19.991	103.229	19.934	5.021	0.514
1168.000	666.765	80.008	19.994	103.227	19.939	4.686	0.499
1168.499	667.002	80.013	19.995	103.226	19.934	5.057	0.488
1168.999	667.279	80.007	19.996	103.228	19.936	4.935	0.500
1169.499	667.515	80.001	19.990	103.230	19.933	5.102	0.513
1169.999	667.783	80.006	19.994	103.224	19.938	4.750	0.509
1170.499	668.015	80.014	19.995	103.221	19.937	4.817	0.502
1170.999	668.240	80.011	19.995	103.220	19.935	4.975	0.478
1171.499	668.556	80.008	19.995	103.218	19.935	4.984	0.499
1171.999	668.787	80.003	19.996	103.216	19.938	4.803	0.544
1172.499	669.024	80.009	19.996	103.218	19.938	4.796	0.508
1172.999	669.310	80.008	19.998	103.220	19.936	4.920	0.496
1173.500	669.548	80.005	19.990	103.223	19.935	4.954	0.523
1174.000	669.836	80.011	19.993	103.224	19.937	4.821	0.525
1174.499	670.078	80.010	19.994	103.224	19.935	4.962	0.528
1174.999	670.349	80.008	19.995	103.225	19.938	4.806	0.521
1175.499	670.582	80.008	19.995	103.223	19.935	5.007	0.509
1175.999	670.872	80.008	19.994	103.221	19.936	4.940	0.514
1176.499	671.111	80.008	19.993	103.221	19.936	4.883	0.526
1176.999	671.429	80.008	19.993	103.219	19.933	5.079	0.542
1177.499	671.611	80.009	19.993	103.216	19.934	5.025	0.528
1177.999	671.868	80.007	19.995	103.216	19.934	5.077	0.470
1178.499	672.142	80.008	19.993	103.216	19.933	5.097	0.486
1178.999	672.381	80.011	19.991	103.214	19.934	5.025	0.522
1179.499	672.616	80.012	19.989	103.215	19.935	4.960	0.493
1179.999	672.887	80.008	19.993	103.219	19.936	4.914	0.489
1180.499	673.141	80.008	19.994	103.218	19.938	4.808	0.515
1180.999	673.425	80.011	19.996	103.219	19.937	4.859	0.532
1181.499	673.674	80.012	19.993	103.223	19.933	5.117	0.536
1181.999	673.916	80.010	19.996	103.227	19.936	4.895	0.512
1182.499	674.165	80.007	19.992	103.225	19.933	5.110	0.491
1182.999	674.433	80.005	19.998	103.232	19.934	5.027	0.504
1183.499	674.715	80.008	19.993	103.236	19.935	4.954	0.533
1183.999	674.964	80.008	19.994	103.234	19.935	5.000	0.540
1184.500	675.238	80.009	19.994	103.229	19.935	5.004	0.527
1185.000	675.497	80.008	19.995	103.229	19.935	5.007	0.528
1185.499	675.739	80.008	19.995	103.222	19.935	4.989	0.517
1185.999	675.990	80.007	19.992	103.219	19.934	5.025	0.497
1186.499	676.264	80.005	19.996	103.216	19.936	4.916	0.509
1186.999	676.494	80.007	19.996	103.216	19.931	5.211	0.515
1187.499	676.768	80.007	19.992	103.216	19.935	5.009	0.504
1187.999	676.990	80.007	19.998	103.221	19.935	4.995	0.500
1188.499	677.269	80.008	19.991	103.220	19.934	5.033	0.498
1188.999	677.489	80.011	19.995	103.221	19.933	5.130	0.500
1189.499	677.745	80.011	19.992	103.223	19.932	5.167	0.488
1189.999	677.989	80.007	19.997	103.223	19.933	5.094	0.488
1190.499	678.229	80.006	20.000	103.221	19.935	4.979	0.492
1190.999	678.485	80.010	19.993	103.227	19.938	4.783	0.490
1191.499	678.715	80.009	19.993	103.231	19.936	4.898	0.491
1191.999	678.993	80.009	19.995	103.234	19.935	4.962	0.497
1192.499	679.256	80.007	19.994	103.239	19.933	5.088	0.524
1192.999	679.505	80.010	19.994	103.241	19.939	4.686	0.526
1193.499	679.740	80.009	19.995	103.239	19.937	4.875	0.498
1193.999	680.011	80.009	19.993	103.237	19.933	5.118	0.495
1194.499	680.245	80.010	19.994	103.234	19.936	4.907	0.505
1195.000	680.510	80.011	19.991	103.229	19.934	5.077	0.502
1195.500	680.752	80.009	19.995	103.228	19.935	4.955	0.503
1195.999	681.009	80.011	19.998	103.230	19.936	4.926	0.503
1196.499	681.276	80.012	19.993	103.223	19.935	4.995	0.511
1197.000	681.555	80.008	19.994	103.225	19.935	4.971	0.535
1197.500	681.769	80.008	19.996	103.224	19.933	5.115	0.519
1197.999	682.018	80.010	19.993	103.221	19.931	5.246	0.478
1198.499	682.270	80.010	19.994	103.220	19.932	5.194	0.482
1198.999	682.549	80.011	19.994	103.229	19.934	5.038	0.516
1199.499	682.817	80.009	19.994	103.233	19.937	4.858	0.539
1199.999	682.995	80.008	19.995	103.232	19.934	5.026	0.497
1200.500	683.270	80.009	19.993	103.231	19.937	4.861	0.449
1201.000	683.511	80.009	19.995	103.232	19.934	5.023	0.484
1201.499	683.795	80.010	19.995	103.228	19.932	5.175	0.521
1201.999	684.036	80.009	19.995	103.221	19.934	5.053	0.525
1202.499	684.247	80.008	19.995	103.223	19.934	5.023	0.488
1202.999	684.534	80.008	19.993	103.226	19.936	4.946	0.475
1203.499	684.763	80.008	19.992	103.226	19.934	5.019	0.508
1203.999	685.040	80.004	19.996	103.226	19.934	5.075	0.511
1204.499	685.282	80.009	19.994	103.227	19.935	4.957	0.512
1204.999	685.548	80.008	19.994	103.227	19.937	4.874	0.514
1205.500	685.821	80.007	19.995	103.228	19.938	4.777	0.523
1206.000	686.049	80.003	20.002	103.225	19.938	4.770	0.519
1206.499	686.291	80.008	19.996	103.222	19.938	4.784	0.485
1206.999	686.580	80.006	19.995	103.222	19.936	4.933	0.501
1207.499	686.822	80.007	19.996	103.226	19.935	5.000	0.531
1207.999	687.056	80.006	19.995	103.225	19.933	5.132	0.503
1208.499	687.254	80.005	20.002	103.229	19.933	5.100	0.453
1208.999	687.581	80.006	19.994	103.231	19.936	4.921	0.478
1209.499	687.806	80.005	19.996	103.230	19.936	4.921	0.539
1209.999	688.054	80.005	19.996	103.224	19.934	5.062	0.513
1210.500	688.319	80.005	20.001	103.220	19.932	5.181	0.493
1211.000	688.573	80.007	19.994	103.214	19.936	4.896	0.516
1211.499	688.841	80.010	19.993	103.215	19.935	4.982	0.521
1211.999	689.065	80.006	19.994	103.215	19.936	4.944	0.507
1212.499	689.361	80.005	19.995	103.214	19.937	4.831	0.506
1212.999	689.588	80.010	19.993	103.214	19.935	5.007	0.522
1213.499	689.840	80.005	19.997	103.216	19.935	4.989	0.502
1213.999	690.107	80.003	19.993	103.215	19.935	4.976	0.499
1214.499	690.345	80.010	19.996	103.214	19.933	5.139	0.512
1214.999	690.614	80.009	19.996	103.215	19.936	4.922	0.506
1215.499	690.849	80.010	19.993	103.216	19.935	4.951	0.506
1215.999	691.097	80.003	19.997	103.215	19.936	4.926	0.493
1216.499	691.364	80.007	19.996	103.215	19.938	4.806	0.499
1216.999	691.606	80.007	19.994	103.218	19.937	4.851	0.512
1217.499	691.850	80.004	19.994	103.217	19.934	5.059	0.498
1217.999	692.135	80.008	19.995	103.217	19.934	5.019	0.507
1218.499	692.409	80.005	19.996	103.217	19.936	4.890	0.544
1219.000	692.658	80.006	19.994	103.217	19.936	4.942	0.541
1219.501	692.907	80.006	19.994	103.216	19.938	4.813	0.510
1220.001	693.169	80.006	19.997	103.215	19.936	4.881	0.504
1220.500	693.456	80.012	19.993	103.215	19.934	5.012	0.530
1220.999	693.703	80.009	19.993	103.216	19.936	4.921	0.542
1221.500	693.960	80.009	19.994	103.216	19.936	4.922	0.519
1222.000	694.243	80.004	19.992	103.216	19.935	4.955	0.522
1222.499	694.415	80.002	19.997	103.217	19.936	4.915	0.498
1222.999	694.720	80.008	19.994	103.218	19.934	5.041	0.466
1223.499	694.986	80.004	19.999	103.218	19.935	4.996	0.524
1223.999	695.240	80.006	19.994	103.217	19.936	4.923	0.545
1224.499	695.454	80.005	19.996	103.216	19.935	4.976	0.494
1224.999	695.713	80.004	19.995	103.215	19.936	4.888	0.470
1225.499	695.994	80.006	19.999	103.215	19.935	4.975	0.507
1225.999	696.233	80.004	19.994	103.213	19.934	5.032	0.530
1226.499	696.499	80.004	19.999	103.213	19.936	4.903	0.512
1226.999	696.753	80.008	19.998	103.213	19.937	4.862	0.512
1227.500	696.962	80.003	19.997	103.213	19.936	4.916	0.491
1228.000	697.276	80.007	19.994	103.212	19.933	5.091	0.493
1228.499	697.504	80.004	19.997	103.212	19.933	5.086	0.533
1228.999	697.752	80.009	19.996	103.212	19.934	5.046	0.509
1229.499	698.027	80.004	19.996	103.211	19.938	4.806	0.499
1229.999	698.289	80.008	19.994	103.208	19.936	4.940	0.530
1230.499	698.565	80.006	19.998	103.209	19.936	4.921	0.538
1230.999	698.798	80.004	19.994	103.208	19.937	4.835	0.523
1231.499	699.064	80.008	19.994	103.211	19.934	5.020	0.504
1231.999	699.302	80.005	19.999	103.214	19.936	4.884	0.502
1232.499	699.530	80.007	19.993	103.215	19.935	4.980	0.485
1232.999	699.792	80.010	19.994	103.214	19.937	4.862	0.479
1233.499	700.066	80.009	19.991	103.216	19.937	4.817	0.513
1233.999	700.309	80.008	19.993	103.215	19.936	4.922	0.526
1234.499	700.594	80.009	19.991	103.215	19.935	4.982	0.522
1234.999	700.807	80.006	19.995	103.217	19.933	5.129	0.513
1235.499	701.049	80.007	19.994	103.218	19.934	5.023	0.477
1235.999	701.342	80.007	19.994	103.218	19.935	4.956	0.495
1236.499	701.564	80.007	19.994	103.220	19.933	5.082	0.525
1237.000	701.813	80.008	19.992	103.221	19.934	5.025	0.493
1237.500	702.067	80.005	19.991	103.222	19.934	5.012	0.487
1237.999	702.328	80.010	19.994	103.227	19.936	4.938	0.509
1238.499	702.568	80.007	19.992	103.227	19.933	5.096	0.508
1238.999	702.850	80.007	19.996	103.225	19.934	5.066	0.511
1239.499	703.092	80.005	19.995	103.221	19.936	4.886	0.523
1239.999	703.336	80.006	19.994	103.218	19.938	4.784	0.506
1240.499	703.614	80.009	19.994	103.213	19.937	4.861	0.504
1240.999	703.809	80.012	19.993	103.214	19.936	4.894	0.497
1241.499	704.092	80.005	19.993	103.220	19.936	4.946	0.476
1241.999	704.320	80.007	19.995	103.223	19.936	4.933	0.494
1242.499	704.562	80.002	19.997	103.225	19.936	4.906	0.490
1242.999	704.856	80.006	19.996	103.227	19.936	4.917	0.503
1243.499	705.083	80.005	19.994	103.225	19.937	4.852	0.529
1243.999	705.331	80.010	19.993	103.218	19.937	4.858	0.498
1244.499	705.587	80.006	19.995	103.216	19.935	4.978	0.489
1244.999	705.854	80.006	19.994	103.216	19.937	4.820	0.514
1245.499	706.095	80.007	19.995	103.214	19.940	4.651	0.516
1245.999	706.368	80.007	19.994	103.215	19.936	4.899	0.511
1246.499	706.588	80.007	19.993	103.215	19.938	4.768	0.504
1246.999	706.832	80.008	19.994	103.215	19.936	4.913	0.478
1247.499	707.104	80.010	19.994	103.215	19.937	4.861	0.490
1247.999	707.350	80.010	19.995	103.214	19.936	4.944	0.517
1248.499	707.607	80.010	19.996	103.213	19.931	5.220	0.511
1249.000	707.834	80.007	19.994	103.212	19.934	5.055	0.493
1249.500	708.096	80.007	19.993	103.212	19.931	5.216	0.487
1249.999	708.335	80.008	19.995	103.211	19.934	5.048	0.495
1250.499	708.583	80.007	19.994	103.209	19.933	5.082	0.494
1250.999	708.848	80.008	19.993	103.209	19.934	5.075	0.500
1251.499	709.119	80.008	19.993	103.211	19.933	5.139	0.525
1251.999	709.394	80.013	19.991	103.212	19.938	4.801	0.541
1252.499	709.624	80.008	19.993	103.213	19.933	5.088	0.526
1252.999	709.863	80.007	19.994	103.215	19.936	4.885	0.487
1253.499	710.073	80.011	19.996	103.216	19.936	4.897	0.458
1253.999	710.362	80.007	19.993	103.214	19.933	5.109	0.474
1254.499	710.603	80.008	19.997	103.212	19.936	4.894	0.515
1254.999	710.857	80.004	20.001	103.210	19.935	4.994	0.513
1255.499	711.139	80.009	19.995	103.210	19.934	5.044	0.516
1255.999	711.388	80.008	19.994	103.210	19.937	4.815	0.533
1256.500	711.617	80.011	19.995	103.211	19.937	4.836	0.504
1257.000	711.850	80.003	20.000	103.212	19.939	4.743	0.470
1257.499	712.087	80.004	19.999	103.213	19.936	4.917	0.466
1257.999	712.355	80.013	19.996	103.211	19.938	4.784	0.487
1258.499	712.619	80.005	19.988	103.211	19.937	4.822	0.518
1258.999	712.932	80.008	19.993	103.213	19.940	4.671	0.555
1259.499	713.178	80.010	19.991	103.213	19.937	4.879	0.568
1259.999	713.394	80.003	19.992	103.212	19.934	5.066	0.510
1260.499	713.647	80.004	19.996	103.213	19.935	4.985	0.465
1260.999	713.912	80.008	19.993	103.212	19.936	4.944	0.493
1261.499	714.137	80.008	19.996	103.212	19.936	4.944	0.505
1261.999	714.394	80.007	19.994	103.211	19.934	5.077	0.486
1262.500	714.629	80.011	19.993	103.214	19.936	4.923	0.487
1263.000	714.898	80.006	19.991	103.215	19.934	5.055	0.498
1263.499	715.174	80.007	19.990	103.217	19.936	4.912	0.524
1263.999	715.434	80.007	19.989	103.217	19.930	5.278	0.540
1264.499	715.682	80.008	19.995	103.218	19.937	4.849	0.522
1264.999	715.947	80.006	19.991	103.216	19.937	4.856	0.511
1265.499	716.194	80.004	19.990	103.217	19.937	4.845	0.513
1265.999	716.433	80.012	19.994	103.216	19.937	4.872	0.499
1266.499	716.712	80.009	19.991	103.216	19.934	5.012	0.502
1266.999	716.954	80.010	19.997	103.216	19.937	4.820	0.520
1267.499	717.227	80.010	19.994	103.217	19.936	4.913	0.518
1267.999	717.454	80.009	19.992	103.216	19.936	4.886	0.507
1268.499	717.696	80.006	20.000	103.218	19.937	4.861	0.484
1269.000	717.959	80.009	19.990	103.217	19.938	4.799	0.487
1269.500	718.210	80.011	19.994	103.217	19.937	4.836	0.510
1270.000	718.476	80.006	19.995	103.217	19.938	4.808	0.516
1270.500	718.741	80.007	19.994	103.217	19.936	4.888	0.524
1270.999	718.958	80.005	19.993	103.215	19.938	4.765	0.506
1271.499	719.216	80.005	19.996	103.216	19.936	4.885	0.478
1271.999	719.439	80.013	19.991	103.215	19.935	5.010	0.478
1272.499	719.713	80.007	19.994	103.217	19.935	4.973	0.489
1272.999	719.961	80.007	19.995	103.219	19.933	5.125	0.509
1273.499	720.203	80.009	19.992	103.218	19.936	4.928	0.506
1273.999	720.477	80.010	19.992	103.218	19.937	4.831	0.503
1274.499	720.690	80.009	19.994	103.220	19.937	4.831	0.501
1275.000	720.949	80.009	19.994	103.217	19.935	4.989	0.479
1275.500	721.170	80.005	19.996	103.215	19.933	5.100	0.476
1275.999	721.406	80.008	19.989	103.216	19.934	5.028	0.469
1276.499	721.658	80.009	20.000	103.217	19.936	4.926	0.473
1276.999	721.908	80.007	19.995	103.215	19.936	4.919	0.495
1277.499	722.161	80.008	20.001	103.215	19.937	4.829	0.503
1277.999	722.399	80.007	19.988	103.212	19.936	4.906	0.497
1278.499	722.662	80.013	19.995	103.214	19.935	4.971	0.495
1278.999	722.861	80.005	19.998	103.212	19.936	4.937	0.481
1279.499	723.130	80.012	19.991	103.213	19.936	4.885	0.465
1279.999	723.359	80.012	19.993	103.214	19.937	4.833	0.484
1280.499	723.621	80.009	19.996	103.216	19.933	5.095	0.495
1280.999	723.813	80.011	19.994	103.214	19.933	5.095	0.472
1281.499	724.098	80.010	19.994	103.213	19.936	4.935	0.465
1281.999	724.334	80.012	19.986	103.213	19.936	4.890	0.499
1282.500	724.601	80.009	19.998	103.214	19.934	5.026	0.512
1283.001	724.829	80.013	19.993	103.213	19.936	4.919	0.498
1283.500	725.039	80.014	19.992	103.213	19.936	4.935	0.466
1284.000	725.306	80.009	19.993	103.215	19.937	4.861	0.458
1284.500	725.565	80.008	19.996	103.216	19.935	4.969	0.502
1285.000	725.788	80.009	19.995	103.214	19.935	4.981	0.504
1285.500	725.976	80.010	19.995	103.215	19.936	4.895	0.447
1285.999	726.233	80.006	19.994	103.214	19.935	4.987	0.428
1286.499	726.480	80.008	19.993	103.214	19.937	4.838	0.475
1286.999	726.707	80.007	19.995	103.213	19.935	4.960	0.489
1287.499	726.978	80.006	19.993	103.213	19.941	4.578	0.486
1287.999	727.195	80.006	19.994	103.214	19.935	4.980	0.493
1288.499	727.468	80.006	19.995	103.214	19.938	4.795	0.489
1288.999	727.696	80.005	19.994	103.215	19.936	4.895	0.496
1289.500	727.911	80.005	19.996	103.215	19.936	4.903	0.472
1290.000	728.175	80.003	19.996	103.215	19.937	4.861	0.461
1290.499	728.446	80.005	19.994	103.215	19.938	4.775	0.507
1290.999	728.658	80.006	19.994	103.216	19.936	4.931	0.509
1291.499	728.934	80.007	19.994	103.216	19.936	4.944	0.485
1291.999	729.174	80.010	19.992	103.216	19.933	5.091	0.502
1292.499	729.378	80.004	19.995	103.216	19.935	4.980	0.480
1292.999	729.655	80.004	19.998	103.216	19.934	5.016	0.462
1293.499	729.895	80.009	19.997	103.215	19.937	4.851	0.499
1293.999	730.117	80.005	19.996	103.211	19.935	4.947	0.490
1294.500	730.406	80.006	19.993	103.207	19.936	4.894	0.487
1295.000	730.655	80.006	19.994	103.206	19.936	4.901	0.525
1295.500	730.880	80.009	19.995	103.207	19.934	5.026	0.506
1296.000	731.153	80.003	19.997	103.207	19.935	4.983	0.486
1296.499	731.422	80.005	19.995	103.210	19.934	5.050	0.520
1296.999	731.637	80.006	19.995	103.213	19.936	4.942	0.513
1297.500	731.901	80.005	19.998	103.214	19.937	4.878	0.481
1298.001	732.129	80.007	19.994	103.214	19.938	4.786	0.486
1298.500	732.393	80.006	19.995	103.214	19.936	4.921	0.493
1298.999	732.657	80.005	19.995	103.214	19.934	5.014	0.510
1299.499	732.885	80.008	19.993	103.214	19.935	5.005	0.510
1299.999	733.118	80.005	19.993	103.214	19.938	4.795	0.476
1300.499	733.367	80.005	19.995	103.214	19.937	4.878	0.471
1300.999	733.637	80.006	19.992	103.213	19.936	4.926	0.500
1301.499	733.852	80.006	19.996	103.213	19.935	4.987	0.502
1301.999	734.144	80.005	19.994	103.214	19.934	5.018	0.496
1302.499	734.367	80.006	19.994	103.213	19.939	4.723	0.511
1302.999	734.616	80.004	19.994	103.212	19.936	4.892	0.494
1303.499	734.877	80.006	19.996	103.212	19.937	4.859	0.491
1303.999	735.137	80.008	19.996	103.212	19.937	4.854	0.515
1304.499	735.374	80.008	19.996	103.212	19.935	4.984	0.509
1304.999	735.638	80.004	19.997	103.213	19.934	5.075	0.499
1305.500	735.855	80.005	19.997	103.212	19.937	4.866	0.491
1306.001	736.108	80.008	19.994	103.213	19.935	5.004	0.475
1306.501	736.368	80.008	19.992	103.214	19.938	4.805	0.491
1307.000	736.631	80.003	20.003	103.213	19.933	5.102	0.518
1307.499	736.888	80.015	19.999	103.211	19.936	4.928	0.522
1307.999	737.145	80.009	19.995	103.213	19.934	5.025	0.517
1308.499	737.376	80.008	19.993	103.213	19.938	4.791	0.500
1308.999	737.637	80.014	19.992	103.213	19.935	4.956	0.490
1309.499	737.915	80.001	19.995	103.214	19.936	4.890	0.515
1309.999	738.164	80.010	19.998	103.215	19.937	4.851	0.533
1310.499	738.395	80.012	19.995	103.212	19.937	4.844	0.504
1310.999	738.676	80.006	19.995	103.213	19.937	4.871	0.497
1311.499	738.922	80.012	19.994	103.214	19.937	4.820	0.519
1311.999	739.216	80.006	19.994	103.214	19.937	4.863	0.533
1312.499	739.440	80.007	19.994	103.215	19.937	4.874	0.529
1312.999	739.688	80.004	19.994	103.216	19.937	4.872	0.495
1313.499	739.937	79.999	19.995	103.216	19.937	4.824	0.484
1313.999	740.218	80.003	19.996	103.212	19.939	4.702	0.513
1314.499	740.447	80.010	19.993	103.211	19.940	4.652	0.520
1314.999	740.722	80.008	19.994	103.213	19.937	4.844	0.508
1315.499	740.984	80.006	19.995	103.218	19.937	4.819	0.521
1315.999	741.197	80.005	19.994	103.223	19.936	4.881	0.506
1316.499	741.486	80.008	19.996	103.231	19.939	4.732	0.488
1316.999	741.742	80.009	19.998	103.232	19.935	4.971	0.524
1317.499	741.976	79.998	19.997	103.229	19.939	4.718	0.518
1317.999	742.237	80.007	19.995	103.223	19.937	4.859	0.493
1318.499	742.460	80.006	19.996	103.217	19.938	4.813	0.489
1318.999	742.720	80.003	19.994	103.212	19.936	4.937	0.483
1319.499	743.001	80.007	19.995	103.212	19.936	4.906	0.512
1319.999	743.241	80.007	19.996	103.212	19.942	4.496	0.531
1320.499	743.467	80.005	19.995	103.216	19.939	4.690	0.494
