Sample ID:	C:\MCC\MCC Cal\Test\Corian_Countertop_30K_min_210930_R2.txt
Sample Weight (mg):	4.78
Heating Rate (C/s):	0.5
Combustor Temp (C):	900
N2 Flow Rate (cc/min):	80
O2 Flow Rate (cc/min):	20
Calibration File:	C:\MCC\MCC Cal\Coeff1 JN10440_30_210304.txt.txt
T Correction Coefficients:	0	1.024463	0
Time Shift (s):	14
*
Time (s)	Temperature (C)	N2 flow rate (cc/min)	O2 flow rate (cc/min)	Flow Rate (cc/min)	Oxygen (%)	HRR (W/g)	Heating rate (C/s)
-0.001	106.174	80.001	19.995	100.569	20.339	0.070	-0.013
0.499	106.140	80.002	19.996	100.569	20.341	-0.110	-0.016
1.000	106.110	80.002	19.996	100.570	20.343	-0.199	-0.045
1.500	106.141	80.003	19.995	100.570	20.341	-0.065	-0.031
2.000	106.112	80.001	19.994	100.574	20.339	0.034	0.002
2.499	106.142	80.001	19.996	100.574	20.341	-0.108	0.002
2.999	106.135	80.001	19.999	100.574	20.338	0.116	0.012
3.499	106.183	80.002	19.996	100.575	20.340	-0.020	0.031
3.999	106.172	80.003	19.998	100.575	20.343	-0.200	0.039
4.499	106.124	80.003	19.997	100.571	20.340	-0.042	-0.011
4.999	106.195	80.001	19.995	100.571	20.340	-0.018	-0.018
5.499	106.183	80.004	19.996	100.570	20.340	-0.007	0.041
5.999	106.177	80.002	19.996	100.569	20.340	0.005	0.021
6.499	106.192	80.001	19.996	100.568	20.344	-0.289	-0.005
6.999	106.141	80.002	19.994	100.568	20.338	0.121	-0.014
7.499	106.174	80.003	19.996	100.569	20.338	0.108	-0.027
7.999	106.153	80.002	19.996	100.569	20.339	0.052	-0.003
8.499	106.157	80.003	19.996	100.571	20.340	0.002	-0.002
8.999	106.162	80.003	19.996	100.572	20.338	0.089	-0.004
9.499	106.178	80.003	19.997	100.572	20.341	-0.098	0.015
9.999	106.160	80.004	19.996	100.571	20.338	0.117	0.009
10.499	106.175	80.003	19.996	100.572	20.340	-0.029	-0.003
10.999	106.181	80.003	19.995	100.571	20.338	0.105	0.009
11.499	106.185	80.003	19.996	100.570	20.339	0.058	0.016
11.999	106.190	80.002	19.996	100.571	20.339	0.045	0.010
12.499	106.169	80.002	19.996	100.571	20.339	0.038	-0.004
12.999	106.169	80.003	19.995	100.572	20.340	-0.020	-0.019
13.499	106.155	80.002	19.995	100.574	20.337	0.193	-0.017
13.999	106.176	80.003	19.996	100.574	20.337	0.179	-0.003
14.499	106.195	80.003	19.996	100.576	20.337	0.154	0.024
14.999	106.184	80.001	19.997	100.583	20.335	0.309	0.024
15.499	106.184	80.001	19.995	100.583	20.333	0.446	-0.001
15.999	106.194	80.001	19.995	100.589	20.335	0.316	-0.000
16.499	106.174	80.001	19.995	100.597	20.333	0.412	-0.000
16.999	106.176	80.000	19.996	100.602	20.335	0.305	-0.014
17.499	106.150	80.002	19.995	100.604	20.333	0.466	-0.021
17.999	106.199	80.000	19.996	100.611	20.331	0.559	-0.000
18.499	106.198	80.000	19.995	100.615	20.330	0.631	0.035
18.999	106.169	80.000	19.996	100.616	20.328	0.747	0.009
19.499	106.193	80.000	19.996	100.619	20.331	0.564	-0.017
19.999	106.178	80.000	19.995	100.623	20.332	0.483	0.002
20.500	106.219	80.000	19.996	100.625	20.332	0.472	0.018
21.000	106.207	79.999	19.996	100.626	20.329	0.667	0.028
21.499	106.214	79.999	19.995	100.631	20.331	0.551	0.012
21.999	106.242	80.000	19.996	100.636	20.332	0.521	0.015
22.499	106.218	80.000	19.996	100.643	20.328	0.785	0.020
22.999	106.256	80.001	19.995	100.652	20.328	0.765	0.009
23.499	106.245	80.000	19.996	100.658	20.328	0.752	0.020
23.999	106.271	80.001	19.996	100.666	20.326	0.920	0.021
24.499	106.302	80.001	19.996	100.674	20.324	1.003	0.036
24.999	106.295	79.999	19.996	100.677	20.325	0.982	0.040
25.499	106.334	80.001	19.995	100.678	20.325	0.951	0.028
25.999	106.347	80.001	19.995	100.678	20.327	0.828	0.042
26.499	106.381	80.000	19.995	100.677	20.324	1.025	0.049
26.999	106.379	80.000	19.995	100.675	20.323	1.083	0.039
27.499	106.372	79.999	19.997	100.675	20.322	1.135	0.012
27.999	106.415	79.999	19.995	100.678	20.324	1.005	0.014
28.499	106.432	79.999	19.996	100.684	20.323	1.079	0.047
29.000	106.464	80.002	19.996	100.686	20.323	1.063	0.054
29.500	106.511	80.000	19.997	100.689	20.322	1.186	0.064
30.000	106.543	79.999	19.996	100.690	20.321	1.255	0.080
30.500	106.530	79.999	19.997	100.690	20.321	1.211	0.049
31.000	106.580	80.001	19.996	100.688	20.322	1.184	0.028
31.499	106.601	80.000	19.996	100.688	20.320	1.260	0.054
32.000	106.648	80.001	19.996	100.688	20.318	1.441	0.070
32.500	106.661	80.000	19.996	100.688	20.321	1.240	0.064
32.999	106.691	80.000	19.996	100.690	20.319	1.383	0.051
33.500	106.762	80.001	19.995	100.695	20.315	1.589	0.072
34.000	106.785	79.999	19.996	100.698	20.317	1.484	0.098
34.499	106.827	80.001	19.997	100.698	20.317	1.495	0.080
34.999	106.893	80.001	19.996	100.696	20.317	1.481	0.086
35.499	106.937	80.000	19.997	100.694	20.318	1.428	0.109
35.999	106.940	80.001	19.996	100.690	20.314	1.691	0.078
36.499	107.027	80.002	19.998	100.687	20.317	1.490	0.069
36.999	107.048	80.001	19.997	100.687	20.321	1.246	0.100
37.499	107.060	80.001	19.995	100.687	20.317	1.472	0.071
37.999	107.115	80.001	19.997	100.687	20.318	1.398	0.050
38.499	107.168	80.001	19.997	100.690	20.317	1.508	0.087
38.999	107.218	80.001	19.998	100.694	20.317	1.476	0.105
39.499	107.281	80.001	19.997	100.694	20.316	1.562	0.108
39.999	107.304	80.000	19.997	100.695	20.319	1.385	0.099
40.499	107.349	80.000	19.997	100.694	20.315	1.639	0.077
40.999	107.411	80.000	19.998	100.691	20.312	1.821	0.087
41.499	107.478	80.001	19.996	100.688	20.314	1.668	0.118
42.000	107.565	80.000	19.996	100.690	20.315	1.640	0.142
42.500	107.604	80.001	19.996	100.695	20.313	1.738	0.140
42.999	107.642	80.000	19.997	100.702	20.313	1.733	0.101
43.499	107.710	80.000	19.997	100.707	20.312	1.827	0.091
43.999	107.761	80.001	19.997	100.709	20.314	1.657	0.113
44.499	107.817	80.001	19.996	100.710	20.313	1.755	0.114
44.999	107.879	80.001	19.997	100.706	20.314	1.686	0.113
45.499	107.935	80.001	19.997	100.706	20.316	1.577	0.118
45.999	107.991	80.000	19.997	100.708	20.316	1.586	0.115
46.499	108.049	79.998	19.996	100.712	20.315	1.626	0.113
46.999	108.129	80.000	19.997	100.716	20.310	1.923	0.126
47.500	108.178	80.001	19.997	100.721	20.312	1.845	0.134
48.000	108.226	80.001	19.996	100.722	20.313	1.737	0.112
48.500	108.293	80.000	19.996	100.722	20.313	1.728	0.106
49.001	108.369	80.000	19.996	100.722	20.312	1.849	0.129
49.500	108.428	79.999	19.997	100.724	20.313	1.776	0.139
49.999	108.483	80.000	19.996	100.726	20.309	2.003	0.125
50.499	108.575	80.002	19.997	100.733	20.309	2.026	0.131
50.999	108.695	80.001	19.996	100.736	20.308	2.070	0.180
51.499	108.748	80.000	19.996	100.738	20.309	1.994	0.193
51.999	108.848	80.002	19.996	100.739	20.305	2.247	0.163
52.499	108.915	80.001	19.996	100.743	20.307	2.135	0.160
52.999	108.979	80.000	19.996	100.744	20.305	2.261	0.148
53.499	109.043	80.002	19.996	100.749	20.308	2.075	0.130
54.000	109.139	80.000	19.995	100.755	20.305	2.279	0.145
54.500	109.201	80.001	19.996	100.762	20.305	2.281	0.159
54.999	109.310	80.002	19.997	100.764	20.304	2.326	0.164
55.499	109.353	80.001	19.996	100.764	20.305	2.270	0.162
55.999	109.447	80.002	19.996	100.764	20.305	2.301	0.144
56.499	109.557	80.001	19.996	100.764	20.308	2.097	0.171
56.999	109.629	80.002	19.997	100.764	20.307	2.173	0.193
57.499	109.709	80.001	19.995	100.765	20.304	2.365	0.167
57.999	109.812	80.001	19.995	100.765	20.306	2.233	0.168
58.499	109.942	80.001	19.995	100.765	20.305	2.258	0.208
58.999	110.038	80.002	19.996	100.767	20.305	2.299	0.229
59.499	110.121	80.002	19.995	100.766	20.303	2.421	0.202
59.999	110.228	80.002	19.995	100.766	20.303	2.408	0.184
60.499	110.319	80.001	19.996	100.766	20.304	2.343	0.194
61.000	110.425	80.002	19.996	100.767	20.304	2.352	0.197
61.500	110.503	80.001	19.995	100.767	20.305	2.256	0.191
61.999	110.625	80.001	19.996	100.771	20.303	2.441	0.193
62.499	110.692	80.002	19.996	100.771	20.303	2.396	0.195
62.999	110.814	80.002	19.996	100.771	20.302	2.470	0.189
63.499	110.910	80.002	19.996	100.769	20.304	2.316	0.203
63.999	111.015	80.003	19.996	100.768	20.305	2.253	0.209
64.499	111.130	80.002	19.996	100.765	20.304	2.329	0.211
64.999	111.236	80.002	19.996	100.765	20.303	2.391	0.220
65.499	111.332	80.003	19.996	100.767	20.303	2.398	0.211
65.999	111.432	80.002	19.997	100.770	20.300	2.633	0.199
66.499	111.541	80.004	19.996	100.772	20.298	2.742	0.203
66.999	111.693	80.002	19.996	100.776	20.300	2.615	0.235
67.499	111.778	80.005	19.996	100.782	20.300	2.601	0.249
67.999	111.915	80.002	19.996	100.782	20.300	2.613	0.230
68.499	112.014	80.002	19.996	100.785	20.299	2.653	0.229
68.999	112.121	80.003	19.996	100.785	20.300	2.611	0.221
69.499	112.251	80.003	19.994	100.781	20.298	2.713	0.221
69.999	112.365	80.003	19.996	100.776	20.300	2.626	0.241
70.499	112.493	80.002	19.994	100.778	20.300	2.577	0.243
70.999	112.619	80.001	19.995	100.776	20.299	2.668	0.248
71.499	112.757	80.003	19.995	100.780	20.298	2.769	0.259
71.999	112.855	80.001	19.995	100.786	20.295	2.937	0.251
72.500	112.973	80.002	19.996	100.793	20.301	2.530	0.226
73.000	113.100	80.002	19.995	100.795	20.299	2.669	0.230
73.499	113.216	80.003	19.997	100.798	20.300	2.628	0.243
73.999	113.361	80.002	19.995	100.800	20.295	2.932	0.252
74.499	113.473	80.003	19.995	100.802	20.294	2.988	0.259
74.999	113.638	80.001	19.996	100.803	20.297	2.817	0.267
75.499	113.741	80.003	19.995	100.804	20.296	2.893	0.272
75.999	113.912	80.001	19.996	100.805	20.298	2.755	0.271
76.499	113.993	80.001	19.993	100.806	20.295	2.962	0.263
76.999	114.181	80.000	19.996	100.806	20.294	3.016	0.261
77.500	114.305	80.002	19.997	100.806	20.294	2.980	0.291
78.000	114.487	80.003	19.997	100.806	20.294	2.984	0.309
78.499	114.616	80.002	19.996	100.807	20.295	2.960	0.308
79.000	114.753	80.001	19.995	100.807	20.294	2.987	0.289
79.500	114.873	80.003	19.995	100.807	20.294	3.020	0.261
79.999	115.009	80.002	19.995	100.807	20.299	2.685	0.256
80.499	115.126	80.001	19.996	100.806	20.296	2.875	0.255
80.999	115.278	80.002	19.994	100.805	20.295	2.940	0.261
81.499	115.410	80.002	19.995	100.806	20.296	2.873	0.276
81.999	115.589	80.001	19.995	100.805	20.294	3.013	0.297
82.499	115.731	80.001	19.996	100.806	20.300	2.616	0.316
82.999	115.876	80.002	19.996	100.806	20.296	2.904	0.305
83.499	116.015	80.003	19.995	100.807	20.294	3.016	0.286
83.999	116.190	80.002	19.996	100.810	20.296	2.889	0.299
84.499	116.295	80.001	19.996	100.816	20.298	2.741	0.297
84.999	116.511	80.001	19.995	100.820	20.298	2.746	0.300
85.499	116.621	80.001	19.995	100.827	20.297	2.828	0.323
85.999	116.796	80.003	19.995	100.834	20.295	2.917	0.305
86.499	116.949	80.004	19.995	100.838	20.298	2.743	0.307
86.999	117.102	80.003	19.994	100.841	20.294	3.005	0.317
87.499	117.269	80.001	19.994	100.844	20.294	3.032	0.313
87.999	117.458	80.003	19.994	100.844	20.296	2.886	0.338
88.499	117.607	80.002	19.995	100.844	20.292	3.107	0.348
88.999	117.778	80.003	19.995	100.845	20.290	3.237	0.329
89.499	117.953	80.003	19.995	100.845	20.291	3.186	0.333
89.999	118.127	80.003	19.995	100.843	20.287	3.443	0.347
90.499	118.280	80.004	19.995	100.841	20.290	3.260	0.338
90.999	118.452	80.004	19.995	100.840	20.291	3.189	0.326
91.499	118.618	80.004	19.995	100.840	20.292	3.111	0.331
91.999	118.781	80.004	19.994	100.840	20.287	3.432	0.333
92.499	118.951	80.003	19.994	100.843	20.288	3.370	0.331
92.999	119.168	80.003	19.995	100.846	20.288	3.417	0.360
93.499	119.345	80.003	19.995	100.846	20.287	3.434	0.391
93.999	119.503	80.003	19.994	100.846	20.288	3.414	0.365
94.500	119.671	80.004	19.996	100.846	20.287	3.467	0.330
95.001	119.869	80.005	19.994	100.846	20.291	3.215	0.346
95.500	120.032	80.001	19.995	100.845	20.285	3.583	0.363
95.999	120.245	80.003	19.995	100.845	20.288	3.393	0.369
96.499	120.437	80.003	19.994	100.845	20.285	3.566	0.391
97.000	120.579	80.004	19.995	100.844	20.285	3.582	0.370
97.500	120.798	80.002	19.995	100.844	20.289	3.316	0.347
97.999	120.952	80.003	19.995	100.844	20.291	3.200	0.367
98.499	121.179	80.003	19.996	100.844	20.286	3.553	0.377
98.999	121.360	80.003	19.996	100.843	20.288	3.382	0.395
99.500	121.566	80.004	19.995	100.842	20.287	3.434	0.398
100.000	121.739	80.003	19.995	100.840	20.285	3.585	0.383
100.500	121.917	80.003	19.995	100.840	20.288	3.377	0.365
101.000	122.124	80.001	19.995	100.838	20.287	3.469	0.368
101.499	122.300	80.001	19.995	100.834	20.288	3.389	0.384
101.999	122.463	80.002	19.996	100.829	20.287	3.442	0.362
102.499	122.686	80.001	19.996	100.823	20.285	3.603	0.363
102.999	122.892	80.001	19.996	100.819	20.288	3.422	0.407
103.499	123.084	80.000	19.995	100.819	20.286	3.541	0.413
104.000	123.283	80.001	19.996	100.823	20.286	3.523	0.394
104.500	123.453	80.001	19.996	100.827	20.288	3.371	0.380
104.999	123.659	80.001	19.996	100.834	20.287	3.458	0.373
105.499	123.846	80.002	19.996	100.839	20.288	3.429	0.385
105.999	124.032	80.001	19.996	100.839	20.284	3.639	0.383
106.499	124.231	80.001	19.997	100.838	20.286	3.539	0.379
106.999	124.461	80.001	19.996	100.841	20.288	3.416	0.407
107.499	124.622	80.001	19.996	100.839	20.289	3.336	0.410
107.999	124.807	80.002	19.996	100.835	20.287	3.438	0.368
108.499	125.040	80.002	19.995	100.834	20.287	3.489	0.382
108.999	125.237	80.001	19.997	100.834	20.284	3.675	0.424
109.499	125.445	80.000	19.997	100.834	20.285	3.608	0.417
109.999	125.685	80.002	19.997	100.835	20.286	3.536	0.426
110.500	125.871	80.001	19.996	100.841	20.285	3.570	0.437
111.000	126.064	80.001	19.996	100.845	20.287	3.494	0.403
111.499	126.291	80.001	19.996	100.847	20.287	3.489	0.399
111.999	126.490	80.001	19.997	100.848	20.287	3.469	0.423
112.499	126.717	80.001	19.996	100.849	20.286	3.507	0.427
112.999	126.933	80.002	19.996	100.846	20.284	3.677	0.434
113.499	127.103	80.001	19.995	100.843	20.289	3.364	0.414
113.999	127.346	80.001	19.997	100.841	20.287	3.479	0.399
114.499	127.506	80.001	19.997	100.840	20.284	3.659	0.408
114.999	127.765	80.001	19.995	100.840	20.284	3.630	0.411
115.499	127.971	80.002	19.996	100.842	20.283	3.699	0.442
115.999	128.153	80.001	19.995	100.841	20.284	3.690	0.426
116.499	128.390	80.002	19.996	100.843	20.285	3.610	0.404
116.999	128.643	80.000	19.996	100.843	20.283	3.738	0.455
117.499	128.817	80.000	19.996	100.843	20.282	3.816	0.459
117.999	129.042	80.001	19.996	100.841	20.284	3.659	0.414
118.499	129.232	80.000	19.996	100.841	20.283	3.709	0.407
118.999	129.476	80.002	19.996	100.841	20.282	3.823	0.424
119.499	129.708	80.002	19.996	100.841	20.283	3.747	0.454
120.000	129.902	80.003	19.997	100.841	20.285	3.615	0.451
120.500	130.093	80.001	19.996	100.843	20.285	3.575	0.406
120.999	130.341	80.003	19.995	100.843	20.283	3.742	0.412
121.499	130.558	80.002	19.996	100.843	20.283	3.724	0.452
121.999	130.781	80.002	19.997	100.843	20.284	3.689	0.453
122.499	130.979	80.002	19.996	100.842	20.282	3.791	0.431
122.999	131.214	80.002	19.997	100.841	20.282	3.789	0.427
123.500	131.429	80.001	19.996	100.841	20.285	3.599	0.441
124.000	131.644	80.002	19.996	100.840	20.284	3.688	0.440
124.499	131.880	80.001	19.996	100.840	20.285	3.624	0.440
125.000	132.109	80.001	19.995	100.840	20.280	3.901	0.458
125.500	132.333	80.001	19.996	100.841	20.283	3.724	0.459
125.999	132.532	80.001	19.996	100.842	20.286	3.557	0.438
126.499	132.770	80.002	19.996	100.843	20.286	3.548	0.430
126.999	132.996	80.001	19.997	100.843	20.283	3.717	0.451
127.499	133.202	80.001	19.997	100.844	20.284	3.655	0.448
127.999	133.448	80.001	19.996	100.844	20.284	3.632	0.442
128.500	133.636	80.001	19.996	100.843	20.282	3.769	0.443
129.000	133.863	80.001	19.995	100.842	20.285	3.612	0.424
129.500	134.067	80.001	19.996	100.842	20.282	3.807	0.423
130.000	134.328	80.001	19.997	100.842	20.285	3.592	0.448
130.500	134.550	80.000	19.995	100.841	20.283	3.702	0.474
131.000	134.796	80.000	19.996	100.840	20.287	3.474	0.476
131.500	135.030	79.999	19.996	100.840	20.281	3.831	0.474
132.000	135.196	80.000	19.996	100.839	20.282	3.796	0.439
132.500	135.451	80.000	19.998	100.837	20.283	3.738	0.410
133.000	135.697	79.998	19.996	100.838	20.285	3.613	0.461
133.500	135.906	79.999	19.996	100.838	20.281	3.831	0.478
134.000	136.156	80.001	19.997	100.839	20.282	3.765	0.457
134.500	136.351	80.000	19.997	100.841	20.282	3.774	0.452
135.000	136.646	80.000	19.997	100.842	20.282	3.771	0.468
135.500	136.872	79.999	19.997	100.842	20.281	3.859	0.506
136.000	137.090	80.001	19.997	100.843	20.284	3.690	0.482
136.500	137.337	79.999	19.997	100.843	20.282	3.805	0.454
137.000	137.587	80.001	19.998	100.843	20.281	3.848	0.481
137.500	137.772	80.001	19.996	100.844	20.283	3.732	0.466
138.000	138.018	79.999	19.997	100.842	20.280	3.899	0.433
138.500	138.250	79.999	19.996	100.842	20.281	3.860	0.455
139.000	138.502	80.000	19.997	100.842	20.282	3.771	0.481
139.500	138.740	79.999	19.997	100.842	20.281	3.878	0.487
140.000	138.978	80.000	19.997	100.842	20.282	3.823	0.483
140.500	139.232	80.000	19.997	100.843	20.281	3.865	0.485
141.000	139.418	79.999	19.997	100.841	20.282	3.805	0.466
141.500	139.660	79.999	19.997	100.841	20.283	3.706	0.434
142.000	139.940	79.999	19.997	100.839	20.281	3.858	0.475
142.500	140.160	80.000	19.997	100.838	20.282	3.809	0.510
143.000	140.436	79.999	19.997	100.835	20.280	3.916	0.498
143.500	140.640	79.999	19.996	100.835	20.281	3.872	0.489
144.000	140.868	80.000	19.996	100.836	20.279	4.005	0.456
144.500	141.113	80.002	19.995	100.837	20.282	3.769	0.452
145.000	141.367	80.000	19.996	100.836	20.284	3.635	0.486
145.500	141.599	80.000	19.996	100.835	20.282	3.793	0.492
146.000	141.839	79.999	19.996	100.829	20.280	3.945	0.479
146.500	142.041	80.001	19.996	100.823	20.277	4.090	0.457
147.000	142.325	80.002	19.996	100.818	20.281	3.831	0.464
147.500	142.516	80.001	19.996	100.818	20.279	3.997	0.480
148.000	142.739	80.001	19.996	100.821	20.278	4.054	0.445
148.500	143.006	80.002	19.994	100.828	20.277	4.119	0.452
149.000	143.257	80.001	19.996	100.832	20.276	4.179	0.504
149.500	143.486	80.001	19.996	100.837	20.278	4.028	0.499
150.000	143.757	80.002	19.996	100.840	20.278	4.059	0.490
150.500	144.015	80.002	19.995	100.839	20.276	4.193	0.514
151.000	144.224	80.002	19.995	100.839	20.275	4.263	0.498
151.500	144.474	80.003	19.995	100.841	20.278	4.079	0.464
152.000	144.694	80.002	19.995	100.840	20.276	4.180	0.465
152.500	144.945	80.002	19.995	100.839	20.275	4.281	0.470
153.000	145.200	80.003	19.995	100.841	20.277	4.152	0.488
153.500	145.433	80.002	19.995	100.841	20.273	4.398	0.497
154.000	145.687	80.001	19.993	100.842	20.273	4.357	0.487
154.500	145.884	80.002	19.996	100.843	20.276	4.203	0.469
155.000	146.175	80.003	19.996	100.843	20.275	4.276	0.469
155.500	146.382	80.002	19.995	100.845	20.274	4.332	0.493
156.000	146.689	80.003	19.996	100.845	20.275	4.276	0.506
156.500	146.885	80.002	19.996	100.845	20.273	4.390	0.509
157.000	147.138	80.001	19.995	100.845	20.274	4.324	0.476
157.500	147.367	80.001	19.995	100.845	20.275	4.232	0.466
158.000	147.617	80.002	19.995	100.845	20.272	4.435	0.480
158.500	147.870	80.001	19.997	100.845	20.275	4.285	0.491
159.000	148.105	80.000	19.996	100.846	20.273	4.363	0.495
159.500	148.334	80.000	19.995	100.846	20.272	4.450	0.476
160.000	148.585	80.002	19.996	100.847	20.272	4.482	0.472
160.500	148.841	80.000	19.996	100.846	20.272	4.446	0.494
161.000	149.077	80.002	19.996	100.846	20.273	4.375	0.500
161.500	149.343	80.001	19.995	100.845	20.271	4.535	0.497
162.000	149.566	80.001	19.996	100.842	20.273	4.368	0.495
162.500	149.824	80.001	19.995	100.837	20.271	4.497	0.485
163.000	150.064	80.002	19.996	100.830	20.271	4.522	0.490
163.500	150.283	80.002	19.995	100.823	20.270	4.551	0.479
164.000	150.545	80.002	19.996	100.819	20.269	4.667	0.469
164.500	150.759	80.003	19.996	100.818	20.271	4.499	0.478
165.000	150.999	80.003	19.997	100.821	20.268	4.692	0.465
165.500	151.240	80.002	19.995	100.825	20.271	4.548	0.468
166.000	151.532	80.002	19.995	100.830	20.269	4.640	0.508
166.500	151.746	80.002	19.995	100.830	20.266	4.824	0.520
167.000	151.987	80.004	19.995	100.830	20.267	4.779	0.480
167.500	152.251	80.003	19.995	100.828	20.265	4.893	0.479
168.000	152.483	80.003	19.996	100.829	20.268	4.732	0.500
168.500	152.730	80.002	19.995	100.830	20.268	4.719	0.488
169.000	152.995	80.002	19.995	100.831	20.268	4.707	0.495
169.500	153.266	80.003	19.996	100.833	20.268	4.725	0.524
170.000	153.494	80.002	19.996	100.834	20.265	4.905	0.518
170.500	153.734	80.002	19.995	100.834	20.268	4.744	0.484
171.000	153.995	80.003	19.995	100.833	20.267	4.807	0.484
171.500	154.200	80.004	19.996	100.835	20.270	4.566	0.483
172.000	154.446	80.003	19.995	100.837	20.266	4.869	0.459
172.500	154.678	80.003	19.995	100.840	20.267	4.802	0.465
173.000	154.958	80.003	19.996	100.839	20.267	4.757	0.495
173.500	155.212	80.004	19.996	100.838	20.262	5.110	0.523
174.000	155.426	80.004	19.996	100.839	20.262	5.130	0.501
174.500	155.718	80.004	19.995	100.839	20.261	5.169	0.487
175.000	155.957	80.005	19.995	100.839	20.261	5.154	0.518
175.500	156.203	80.004	19.994	100.841	20.265	4.892	0.508
176.000	156.457	80.004	19.994	100.841	20.265	4.901	0.492
176.500	156.679	80.004	19.995	100.839	20.264	4.963	0.488
177.000	156.932	80.004	19.994	100.838	20.264	4.979	0.476
177.500	157.124	80.003	19.995	100.838	20.262	5.133	0.460
178.000	157.369	80.004	19.994	100.836	20.264	4.954	0.441
178.500	157.655	80.003	19.996	100.833	20.260	5.229	0.484
179.000	157.919	80.004	19.995	100.834	20.257	5.406	0.540
179.500	158.142	80.005	19.996	100.834	20.259	5.332	0.518
180.000	158.406	80.004	19.995	100.834	20.257	5.453	0.487
180.500	158.663	80.004	19.996	100.830	20.256	5.508	0.504
181.000	158.891	80.005	19.995	100.827	20.259	5.332	0.503
181.500	159.141	80.002	19.996	100.822	20.256	5.504	0.482
182.000	159.389	80.003	19.997	100.817	20.253	5.712	0.489
182.500	159.636	80.005	19.995	100.815	20.259	5.305	0.497
183.000	159.883	80.004	19.995	100.820	20.257	5.452	0.494
183.500	160.120	80.004	19.995	100.826	20.255	5.589	0.489
184.000	160.365	80.003	19.995	100.826	20.255	5.590	0.483
184.500	160.617	80.002	19.995	100.823	20.256	5.535	0.489
185.000	160.899	80.002	19.995	100.824	20.252	5.769	0.516
185.500	161.181	80.003	19.996	100.816	20.255	5.586	0.549
186.000	161.370	80.002	19.993	100.812	20.253	5.727	0.517
186.500	161.634	80.003	19.995	100.814	20.253	5.712	0.462
187.000	161.901	80.001	19.995	100.816	20.254	5.634	0.492
187.500	162.119	80.002	19.995	100.815	20.254	5.603	0.508
188.000	162.333	80.002	19.994	100.817	20.254	5.605	0.458
188.500	162.565	80.001	19.994	100.816	20.254	5.665	0.439
189.000	162.848	80.002	19.995	100.812	20.250	5.913	0.481
189.500	163.088	80.002	19.996	100.812	20.248	6.045	0.519
190.000	163.361	80.001	19.995	100.812	20.248	6.004	0.518
190.500	163.599	80.003	19.995	100.813	20.251	5.823	0.512
191.000	163.857	80.001	19.996	100.817	20.250	5.872	0.504
191.500	164.073	80.001	19.996	100.821	20.251	5.859	0.485
192.000	164.353	80.001	19.995	100.821	20.250	5.920	0.485
192.500	164.621	80.003	19.995	100.821	20.248	6.051	0.522
193.000	164.834	80.002	19.996	100.821	20.246	6.156	0.515
193.500	165.108	80.001	19.996	100.821	20.249	5.982	0.484
194.000	165.339	80.001	19.995	100.821	20.249	5.978	0.496
194.500	165.591	80.000	19.995	100.823	20.246	6.150	0.493
195.000	165.817	80.002	19.995	100.826	20.244	6.322	0.480
195.500	166.077	80.001	19.996	100.825	20.243	6.328	0.482
196.000	166.345	80.002	19.997	100.826	20.243	6.385	0.507
196.500	166.588	80.002	19.997	100.825	20.242	6.402	0.520
197.000	166.870	80.000	19.995	100.821	20.246	6.181	0.518
197.500	167.074	80.001	19.995	100.817	20.242	6.420	0.505
198.000	167.316	80.000	19.995	100.815	20.242	6.456	0.466
198.500	167.591	80.001	19.995	100.812	20.242	6.402	0.482
199.000	167.836	80.000	19.996	100.812	20.243	6.375	0.519
199.500	168.102	80.001	19.995	100.815	20.238	6.655	0.515
200.000	168.313	80.001	19.995	100.819	20.241	6.483	0.494
200.500	168.561	80.002	19.997	100.822	20.240	6.577	0.468
201.000	168.799	80.000	19.996	100.823	20.241	6.499	0.472
201.500	169.072	80.001	19.996	100.822	20.241	6.496	0.498
202.000	169.299	80.000	19.996	100.820	20.240	6.581	0.506
202.500	169.556	80.000	19.997	100.822	20.240	6.550	0.492
203.000	169.811	80.002	19.997	100.820	20.242	6.434	0.498
203.500	170.059	80.002	19.996	100.819	20.238	6.662	0.508
204.000	170.299	80.001	19.994	100.820	20.238	6.718	0.496
204.500	170.578	80.000	19.997	100.824	20.238	6.700	0.503
205.000	170.815	80.000	19.997	100.817	20.238	6.661	0.517
205.500	171.025	80.001	19.997	100.816	20.239	6.617	0.482
206.000	171.303	80.001	19.997	100.818	20.238	6.694	0.468
206.500	171.568	80.002	19.997	100.818	20.235	6.899	0.515
207.000	171.807	80.001	19.996	100.817	20.236	6.814	0.523
207.500	172.048	80.002	19.997	100.821	20.236	6.816	0.492
208.000	172.292	80.001	19.996	100.825	20.237	6.747	0.482
208.500	172.535	80.001	19.996	100.822	20.234	6.957	0.486
209.000	172.749	80.001	19.997	100.822	20.231	7.173	0.472
209.500	173.015	80.001	19.997	100.821	20.231	7.172	0.469
210.000	173.269	80.001	19.997	100.820	20.229	7.283	0.500
210.500	173.501	80.000	19.996	100.817	20.234	6.976	0.503
211.000	173.803	80.002	19.996	100.817	20.232	7.077	0.510
211.500	174.015	80.001	19.996	100.816	20.232	7.084	0.524
212.000	174.268	80.002	19.996	100.815	20.230	7.236	0.490
212.500	174.525	80.002	19.996	100.814	20.231	7.164	0.487
213.000	174.766	80.002	19.996	100.813	20.232	7.079	0.504
213.500	174.981	80.001	19.996	100.811	20.232	7.076	0.477
214.000	175.227	80.001	19.997	100.812	20.228	7.353	0.458
214.500	175.495	80.001	19.996	100.811	20.229	7.297	0.487
215.000	175.765	80.001	19.996	100.810	20.230	7.223	0.526
215.500	176.012	80.002	19.995	100.813	20.226	7.447	0.527
216.000	176.247	80.002	19.996	100.819	20.230	7.236	0.500
216.500	176.546	80.000	19.995	100.822	20.227	7.402	0.508
217.000	176.744	80.001	19.995	100.826	20.230	7.192	0.516
217.500	176.993	80.000	19.996	100.831	20.232	7.109	0.472
218.000	177.264	80.001	19.997	100.833	20.232	7.089	0.483
218.500	177.523	80.000	19.996	100.835	20.230	7.228	0.525
219.000	177.773	80.001	19.996	100.839	20.231	7.161	0.520
219.500	177.997	80.001	19.995	100.842	20.230	7.217	0.491
220.000	178.277	80.000	19.996	100.842	20.232	7.085	0.489
220.500	178.505	80.000	19.996	100.839	20.230	7.221	0.506
221.000	178.743	79.999	19.996	100.833	20.231	7.179	0.487
221.500	179.009	80.001	19.996	100.830	20.230	7.213	0.485
222.000	179.291	80.000	19.996	100.824	20.230	7.206	0.526
222.500	179.489	79.999	19.997	100.818	20.232	7.112	0.514
223.000	179.711	79.999	19.996	100.817	20.230	7.199	0.451
223.500	179.975	80.000	19.996	100.820	20.231	7.150	0.453
224.000	180.242	80.000	19.996	100.821	20.230	7.215	0.508
224.500	180.477	80.000	19.997	100.828	20.229	7.291	0.516
225.000	180.740	80.001	19.995	100.832	20.230	7.195	0.500
225.500	181.016	80.001	19.997	100.833	20.229	7.309	0.519
226.000	181.212	80.000	19.996	100.831	20.232	7.099	0.506
226.500	181.465	80.002	19.996	100.827	20.234	6.935	0.460
227.000	181.735	80.001	19.996	100.819	20.232	7.114	0.486
227.500	181.988	80.001	19.995	100.814	20.231	7.172	0.523
228.000	182.220	80.001	19.997	100.811	20.231	7.170	0.504
228.500	182.433	80.002	19.997	100.808	20.232	7.080	0.465
229.000	182.712	80.001	19.996	100.807	20.229	7.280	0.469
229.500	182.937	80.002	19.996	100.807	20.226	7.505	0.499
230.000	183.205	80.001	19.996	100.806	20.230	7.241	0.499
230.500	183.438	80.002	19.997	100.806	20.228	7.313	0.496
231.000	183.681	80.001	19.997	100.805	20.226	7.449	0.488
231.500	183.955	80.001	19.996	100.805	20.231	7.126	0.497
232.000	184.231	80.001	19.997	100.804	20.230	7.181	0.534
232.500	184.471	80.003	19.996	100.804	20.232	7.112	0.533
233.000	184.695	80.003	19.996	100.804	20.232	7.072	0.490
233.500	184.965	80.002	19.998	100.804	20.233	7.005	0.479
234.000	185.212	80.002	19.998	100.805	20.232	7.078	0.506
234.500	185.490	80.000	19.997	100.805	20.232	7.078	0.521
235.000	185.696	80.003	19.997	100.806	20.234	6.951	0.504
235.500	185.969	80.002	19.997	100.806	20.233	7.023	0.482
236.000	186.243	80.002	19.998	100.805	20.232	7.056	0.513
236.500	186.501	80.003	19.997	100.805	20.236	6.821	0.539
237.000	186.726	80.002	19.996	100.805	20.235	6.915	0.507
237.500	186.968	80.002	19.997	100.805	20.239	6.620	0.475
238.000	187.206	80.002	19.996	100.805	20.235	6.899	0.474
238.500	187.472	80.001	19.997	100.805	20.237	6.727	0.492
239.000	187.732	80.003	19.997	100.805	20.235	6.851	0.515
239.500	187.969	80.002	19.995	100.805	20.237	6.725	0.511
240.000	188.190	80.002	19.997	100.804	20.237	6.761	0.477
240.500	188.459	80.002	19.998	100.804	20.235	6.886	0.474
241.000	188.718	80.002	19.996	100.804	20.238	6.705	0.509
241.500	188.948	80.002	19.995	100.803	20.238	6.679	0.509
242.000	189.185	80.004	19.996	100.803	20.238	6.659	0.478
242.500	189.457	80.003	19.995	100.802	20.239	6.591	0.488
243.000	189.698	80.002	19.995	100.801	20.238	6.704	0.511
243.500	189.898	80.003	19.995	100.801	20.242	6.442	0.477
244.000	190.205	80.003	19.995	100.801	20.239	6.592	0.474
244.500	190.416	80.001	19.996	100.802	20.241	6.475	0.513
245.000	190.670	80.002	19.996	100.803	20.241	6.468	0.491
245.500	190.886	80.002	19.995	100.804	20.241	6.495	0.467
246.000	191.159	80.001	19.995	100.804	20.242	6.431	0.479
246.500	191.388	80.002	19.996	100.804	20.245	6.254	0.495
247.000	191.626	80.003	19.997	100.804	20.244	6.287	0.485
247.500	191.906	80.004	19.996	100.804	20.246	6.155	0.493
248.000	192.116	80.003	19.996	100.805	20.248	6.008	0.504
248.500	192.355	80.003	19.995	100.805	20.247	6.068	0.470
249.000	192.598	80.002	19.996	100.805	20.250	5.898	0.466
249.500	192.868	80.003	19.995	100.802	20.249	5.988	0.498
250.000	193.101	80.002	19.996	100.802	20.248	5.999	0.508
250.500	193.375	80.003	19.995	100.802	20.249	5.937	0.505
251.000	193.617	80.002	19.994	100.802	20.249	5.957	0.511
251.500	193.875	80.003	19.995	100.801	20.249	5.965	0.508
252.000	194.098	80.003	19.994	100.803	20.251	5.813	0.490
252.500	194.346	80.002	19.995	100.803	20.252	5.737	0.476
253.000	194.591	80.004	19.995	100.801	20.250	5.905	0.482
253.500	194.800	80.002	19.995	100.799	20.249	5.981	0.473
254.000	195.037	80.004	19.995	100.798	20.249	5.979	0.450
254.500	195.295	80.003	19.995	100.797	20.251	5.807	0.471
255.000	195.506	80.005	19.995	100.797	20.254	5.651	0.482
255.500	195.799	80.002	19.996	100.798	20.252	5.798	0.486
256.000	196.051	80.003	19.995	100.800	20.256	5.523	0.524
256.500	196.290	80.005	19.995	100.801	20.255	5.570	0.518
257.000	196.530	80.004	19.995	100.801	20.253	5.684	0.485
257.500	196.777	80.003	19.996	100.801	20.253	5.730	0.483
258.000	196.994	80.003	19.996	100.800	20.255	5.567	0.476
258.500	197.204	80.005	19.996	100.800	20.253	5.681	0.445
259.000	197.477	80.004	19.995	100.800	20.254	5.650	0.455
259.500	197.746	80.004	19.996	100.801	20.257	5.429	0.513
260.000	198.023	80.003	19.996	100.801	20.257	5.420	0.544
260.500	198.250	80.003	19.996	100.801	20.259	5.326	0.525
261.000	198.486	80.004	19.997	100.802	20.258	5.390	0.483
261.500	198.737	80.004	19.996	100.802	20.257	5.449	0.475
262.000	199.003	80.003	19.996	100.802	20.257	5.446	0.502
262.500	199.241	80.004	19.996	100.803	20.258	5.341	0.511
263.000	199.467	80.003	19.996	100.803	20.259	5.315	0.484
263.500	199.733	80.004	19.994	100.803	20.260	5.243	0.478
264.000	199.960	80.003	19.995	100.802	20.259	5.282	0.492
264.500	200.221	80.003	19.995	100.800	20.260	5.208	0.491
265.000	200.471	80.003	19.995	100.798	20.257	5.416	0.500
265.500	200.680	80.003	19.995	100.797	20.261	5.181	0.486
266.000	200.931	80.003	19.996	100.795	20.264	4.968	0.460
266.500	201.166	80.001	19.996	100.798	20.259	5.284	0.473
267.000	201.426	80.002	19.996	100.800	20.263	5.036	0.490
267.500	201.676	80.001	19.994	100.802	20.265	4.910	0.502
268.000	201.913	80.001	19.995	100.803	20.264	4.955	0.499
268.500	202.164	80.001	19.994	100.804	20.263	5.020	0.488
269.000	202.412	80.001	19.996	100.805	20.266	4.845	0.493
269.500	202.703	80.001	19.995	100.805	20.266	4.825	0.519
270.000	202.887	80.000	19.995	100.805	20.267	4.789	0.507
270.500	203.152	80.001	19.995	100.808	20.268	4.718	0.462
271.000	203.404	80.001	19.996	100.810	20.267	4.805	0.483
271.500	203.621	80.001	19.995	100.810	20.265	4.932	0.493
272.000	203.919	80.000	19.994	100.811	20.270	4.586	0.492
272.500	204.125	80.002	19.996	100.812	20.267	4.801	0.510
273.000	204.376	80.001	19.994	100.810	20.268	4.716	0.481
273.500	204.655	80.001	19.995	100.806	20.262	5.103	0.493
274.000	204.848	80.001	19.996	100.805	20.268	4.743	0.501
274.500	205.140	80.002	19.995	100.803	20.265	4.926	0.479
275.000	205.375	80.002	19.996	100.802	20.264	4.953	0.506
275.500	205.627	80.002	19.995	100.800	20.264	4.974	0.506
276.000	205.856	80.001	19.995	100.802	20.268	4.718	0.484
276.500	206.119	80.002	19.996	100.803	20.268	4.684	0.487
277.000	206.389	80.002	19.995	100.804	20.271	4.535	0.513
277.500	206.612	80.003	19.994	100.804	20.271	4.521	0.513
278.000	206.829	80.002	19.995	100.803	20.269	4.649	0.467
278.500	207.123	80.002	19.997	100.803	20.271	4.533	0.475
279.000	207.341	80.002	19.997	100.803	20.274	4.287	0.511
279.500	207.600	80.002	19.996	100.804	20.271	4.508	0.494
280.000	207.875	80.001	19.995	100.805	20.273	4.410	0.506
280.500	208.129	80.001	19.995	100.808	20.272	4.448	0.531
281.000	208.379	80.002	19.994	100.809	20.272	4.421	0.516
281.500	208.656	80.002	19.994	100.808	20.276	4.215	0.516
282.000	208.909	80.002	19.996	100.808	20.270	4.600	0.529
282.500	209.101	80.003	19.995	100.808	20.272	4.461	0.488
283.000	209.368	80.002	19.996	100.808	20.274	4.307	0.453
283.500	209.643	80.002	19.996	100.808	20.273	4.395	0.500
284.000	209.878	80.002	19.996	100.806	20.272	4.421	0.525
284.500	210.126	80.002	19.996	100.801	20.273	4.401	0.496
285.000	210.355	80.002	19.996	100.797	20.272	4.449	0.480
285.500	210.614	80.002	19.995	100.796	20.271	4.486	0.483
286.000	210.851	80.002	19.996	100.794	20.274	4.341	0.492
286.500	211.088	80.002	19.995	100.796	20.274	4.294	0.485
287.000	211.346	80.002	19.995	100.802	20.272	4.479	0.484
287.500	211.592	80.002	19.995	100.804	20.274	4.329	0.500
288.000	211.797	80.004	19.995	100.804	20.273	4.387	0.478
288.500	212.073	80.001	19.995	100.806	20.270	4.564	0.466
289.000	212.306	80.003	19.996	100.806	20.273	4.376	0.495
289.500	212.562	80.001	19.994	100.804	20.272	4.479	0.498
290.000	212.832	80.001	19.996	100.801	20.269	4.623	0.507
290.500	213.084	80.002	19.996	100.798	20.272	4.441	0.524
291.000	213.315	80.002	19.996	100.798	20.273	4.388	0.503
291.500	213.583	80.003	19.995	100.798	20.274	4.339	0.491
292.000	213.825	80.001	19.996	100.799	20.272	4.452	0.504
292.500	214.117	80.003	19.996	100.800	20.272	4.446	0.522
293.000	214.338	80.002	19.996	100.802	20.271	4.540	0.524
293.500	214.632	80.002	19.996	100.801	20.270	4.564	0.514
294.000	214.823	80.001	19.997	100.798	20.269	4.662	0.500
294.500	215.093	80.002	19.995	100.796	20.269	4.680	0.473
295.000	215.327	80.002	19.997	100.794	20.271	4.522	0.482
295.500	215.585	80.000	19.996	100.790	20.270	4.611	0.498
296.000	215.826	80.001	19.995	100.789	20.271	4.544	0.495
296.500	216.089	80.001	19.995	100.791	20.271	4.513	0.502
297.000	216.312	80.003	19.996	100.794	20.269	4.615	0.495
297.500	216.576	80.002	19.996	100.797	20.271	4.535	0.487
298.000	216.785	80.003	19.996	100.801	20.269	4.649	0.480
298.500	217.058	80.002	19.996	100.803	20.268	4.707	0.477
299.000	217.303	80.001	19.995	100.803	20.270	4.560	0.501
299.500	217.579	80.001	19.996	100.801	20.270	4.577	0.520
300.000	217.819	80.002	19.996	100.800	20.271	4.546	0.518
300.500	218.076	80.002	19.996	100.801	20.271	4.488	0.506
301.000	218.315	80.001	19.996	100.798	20.269	4.660	0.496
301.500	218.532	80.001	19.997	100.797	20.271	4.506	0.476
302.000	218.785	80.001	19.996	100.798	20.273	4.352	0.463
302.500	219.029	80.001	19.996	100.799	20.272	4.450	0.483
303.000	219.317	79.999	19.995	100.799	20.270	4.593	0.515
303.500	219.539	80.000	19.995	100.801	20.271	4.506	0.521
304.000	219.735	80.002	19.996	100.802	20.270	4.589	0.464
304.500	220.041	80.001	19.998	100.802	20.271	4.490	0.460
305.000	220.286	80.001	19.996	100.802	20.272	4.455	0.527
305.500	220.531	80.001	19.996	100.803	20.270	4.586	0.521
306.000	220.779	80.000	19.996	100.803	20.269	4.667	0.491
306.500	220.988	80.001	19.996	100.804	20.273	4.405	0.475
307.000	221.271	80.000	19.996	100.804	20.267	4.750	0.475
307.500	221.468	80.001	19.995	100.803	20.266	4.857	0.486
308.000	221.722	80.001	19.995	100.803	20.265	4.897	0.465
308.500	221.999	80.002	19.996	100.800	20.269	4.636	0.491
309.000	222.236	80.002	19.996	100.800	20.270	4.598	0.523
309.500	222.489	80.002	19.996	100.800	20.270	4.600	0.502
310.000	222.733	80.002	19.996	100.801	20.269	4.633	0.493
310.500	222.969	80.001	19.995	100.800	20.268	4.730	0.488
311.000	223.207	80.002	19.995	100.803	20.267	4.806	0.477
311.500	223.471	80.002	19.995	100.800	20.267	4.763	0.488
312.000	223.717	80.002	19.995	100.799	20.269	4.674	0.506
312.500	223.982	80.003	19.997	100.797	20.267	4.793	0.511
313.000	224.207	80.003	19.996	100.797	20.269	4.663	0.500
313.500	224.450	80.002	19.995	100.797	20.268	4.708	0.479
314.000	224.730	80.004	19.996	100.800	20.271	4.547	0.496
314.500	224.931	80.004	19.995	100.801	20.267	4.780	0.502
315.000	225.198	80.002	19.995	100.803	20.270	4.564	0.475
315.500	225.470	80.003	19.996	100.803	20.266	4.855	0.503
316.000	225.737	80.003	19.996	100.803	20.270	4.609	0.538
316.500	225.977	80.003	19.996	100.802	20.268	4.707	0.523
317.000	226.238	80.004	19.997	100.799	20.268	4.721	0.504
317.500	226.472	80.003	19.995	100.798	20.267	4.747	0.498
318.000	226.715	80.004	19.998	100.798	20.264	5.004	0.486
318.500	226.963	80.002	19.996	100.798	20.266	4.830	0.484
319.000	227.224	80.002	19.997	100.799	20.266	4.864	0.500
319.500	227.475	80.003	19.996	100.802	20.264	5.006	0.511
320.000	227.703	80.002	19.996	100.802	20.267	4.770	0.495
320.500	227.948	80.003	19.995	100.802	20.266	4.863	0.476
321.000	228.179	80.003	19.997	100.801	20.267	4.761	0.475
321.500	228.453	80.003	19.996	100.800	20.269	4.635	0.490
322.000	228.687	80.003	19.996	100.800	20.269	4.678	0.506
322.500	228.958	80.003	19.997	100.799	20.268	4.703	0.506
323.000	229.204	80.003	19.997	100.793	20.269	4.640	0.511
323.500	229.467	80.003	19.997	100.788	20.267	4.792	0.513
324.000	229.701	80.002	19.997	100.783	20.265	4.939	0.503
324.500	229.935	80.001	19.997	100.782	20.267	4.754	0.483
325.000	230.186	80.003	19.996	100.781	20.262	5.096	0.477
325.500	230.431	80.003	19.997	100.787	20.266	4.861	0.491
326.000	230.685	80.002	19.997	100.792	20.266	4.814	0.498
326.500	230.921	80.002	19.997	100.798	20.261	5.174	0.495
327.000	231.194	80.002	19.997	100.800	20.263	5.060	0.499
327.500	231.393	80.002	19.997	100.802	20.266	4.825	0.490
328.000	231.635	80.002	19.996	100.802	20.268	4.745	0.457
328.500	231.880	80.002	19.996	100.802	20.268	4.711	0.465
329.000	232.116	80.002	19.997	100.803	20.265	4.910	0.484
329.500	232.361	80.001	19.997	100.804	20.269	4.631	0.481
330.000	232.573	80.002	19.996	100.804	20.265	4.897	0.469
330.500	232.833	80.001	19.997	100.804	20.266	4.870	0.464
331.000	233.052	80.002	19.997	100.805	20.266	4.850	0.476
331.500	233.317	80.003	19.996	100.804	20.266	4.867	0.482
332.000	233.556	80.002	19.994	100.805	20.268	4.737	0.494
332.500	233.779	80.003	19.996	100.804	20.266	4.833	0.483
333.000	234.054	80.002	19.995	100.805	20.266	4.858	0.479
333.500	234.292	80.004	19.996	100.805	20.263	5.072	0.506
334.000	234.556	80.002	19.995	100.805	20.263	5.050	0.508
334.500	234.793	80.004	19.996	100.805	20.263	5.027	0.501
335.000	235.015	80.003	19.997	100.806	20.261	5.180	0.480
335.500	235.265	80.004	19.997	100.806	20.264	4.956	0.465
336.000	235.527	80.003	19.996	100.807	20.263	5.062	0.492
336.500	235.768	80.003	19.995	100.807	20.265	4.917	0.508
337.000	235.967	80.004	19.995	100.807	20.265	4.883	0.471
337.500	236.203	80.002	19.996	100.807	20.268	4.702	0.437
338.000	236.449	80.004	19.996	100.807	20.265	4.932	0.459
338.500	236.717	80.004	19.995	100.808	20.265	4.890	0.498
339.000	236.944	80.003	19.996	100.808	20.264	5.008	0.505
339.500	237.197	80.004	19.995	100.811	20.265	4.939	0.487
340.000	237.439	80.003	19.996	100.810	20.264	4.961	0.487
340.500	237.669	80.004	19.995	100.812	20.264	4.988	0.484
341.000	237.896	80.003	19.995	100.812	20.261	5.189	0.464
341.500	238.177	80.004	19.995	100.813	20.260	5.236	0.482
342.000	238.423	80.004	19.995	100.814	20.261	5.167	0.518
342.500	238.647	80.005	19.995	100.818	20.263	5.072	0.499
343.000	238.880	80.006	19.994	100.821	20.264	4.970	0.464
343.500	239.112	80.005	19.996	100.826	20.263	5.041	0.461
344.000	239.390	80.003	19.996	100.829	20.262	5.084	0.487
344.500	239.593	80.003	19.995	100.831	20.263	5.075	0.496
345.000	239.851	80.003	19.995	100.830	20.261	5.204	0.471
345.500	240.059	80.004	19.994	100.827	20.264	4.965	0.463
346.000	240.325	80.003	19.994	100.823	20.261	5.158	0.470
346.500	240.587	80.003	19.995	100.819	20.262	5.125	0.501
347.000	240.790	80.004	19.995	100.815	20.258	5.366	0.497
347.500	241.055	80.004	19.995	100.813	20.258	5.346	0.466
348.000	241.314	80.003	19.995	100.811	20.259	5.312	0.496
348.500	241.535	80.003	19.995	100.814	20.260	5.267	0.502
349.000	241.776	80.003	19.994	100.814	20.257	5.420	0.471
349.500	242.045	80.002	19.996	100.814	20.260	5.272	0.486
350.000	242.295	80.002	19.994	100.816	20.261	5.187	0.515
350.500	242.537	80.002	19.995	100.819	20.257	5.404	0.505
351.000	242.798	80.002	19.995	100.820	20.260	5.247	0.497
351.500	243.083	80.001	19.994	100.821	20.256	5.529	0.525
352.000	243.315	80.002	19.995	100.820	20.256	5.504	0.531
352.500	243.517	80.001	19.996	100.818	20.258	5.354	0.476
353.000	243.781	80.001	19.995	100.819	20.257	5.415	0.450
353.500	243.982	80.001	19.995	100.819	20.255	5.566	0.465
354.000	244.227	80.001	19.996	100.819	20.259	5.319	0.455
354.500	244.501	80.002	19.996	100.820	20.259	5.319	0.482
355.000	244.709	80.000	19.995	100.821	20.259	5.280	0.501
355.500	244.958	80.003	19.996	100.819	20.254	5.618	0.470
356.000	245.227	80.001	19.995	100.817	20.257	5.458	0.487
356.500	245.432	80.000	19.996	100.815	20.257	5.456	0.496
357.000	245.736	80.000	19.995	100.814	20.255	5.593	0.491
357.500	245.995	80.001	19.995	100.812	20.258	5.398	0.536
358.000	246.228	80.001	19.997	100.810	20.255	5.564	0.528
358.500	246.430	80.000	19.996	100.810	20.259	5.336	0.464
359.000	246.699	80.001	19.995	100.811	20.257	5.422	0.453
359.500	246.940	80.001	19.996	100.810	20.254	5.605	0.490
360.000	247.152	80.001	19.996	100.810	20.256	5.530	0.481
360.500	247.428	80.002	19.995	100.811	20.253	5.699	0.470
361.000	247.655	80.002	19.996	100.815	20.257	5.460	0.496
361.500	247.870	80.001	19.996	100.815	20.252	5.786	0.473
362.000	248.122	80.001	19.996	100.815	20.255	5.599	0.454
362.500	248.386	80.002	19.996	100.815	20.252	5.778	0.491
363.000	248.631	80.001	19.995	100.818	20.254	5.647	0.513
363.500	248.841	80.001	19.995	100.817	20.250	5.872	0.482
364.000	249.139	80.002	19.997	100.818	20.254	5.628	0.481
364.500	249.363	80.000	19.996	100.818	20.247	6.090	0.515
365.000	249.608	80.001	19.997	100.818	20.250	5.889	0.495
365.500	249.843	80.001	19.995	100.818	20.250	5.875	0.474
366.000	250.144	80.003	19.996	100.820	20.247	6.123	0.508
366.500	250.375	80.003	19.996	100.825	20.248	6.056	0.534
367.000	250.652	80.002	19.995	100.829	20.249	5.949	0.520
367.500	250.878	80.003	19.995	100.831	20.250	5.887	0.506
368.000	251.137	80.003	19.995	100.831	20.247	6.108	0.494
368.500	251.356	80.003	19.995	100.831	20.248	6.001	0.482
369.000	251.604	80.003	19.995	100.828	20.248	6.032	0.473
369.500	251.827	80.002	19.996	100.829	20.245	6.215	0.469
370.000	252.074	80.002	19.996	100.833	20.244	6.320	0.470
370.500	252.362	80.002	19.996	100.836	20.242	6.407	0.503
371.000	252.615	80.002	19.995	100.837	20.244	6.312	0.538
371.500	252.832	80.003	19.996	100.840	20.244	6.291	0.505
372.000	253.093	80.004	19.996	100.836	20.245	6.212	0.474
372.500	253.363	80.004	19.996	100.834	20.244	6.301	0.505
373.000	253.609	80.003	19.995	100.828	20.243	6.339	0.524
373.500	253.833	80.002	19.995	100.824	20.242	6.410	0.493
374.000	254.048	80.002	19.994	100.826	20.241	6.515	0.454
374.500	254.309	80.003	19.995	100.830	20.239	6.628	0.457
375.000	254.527	80.002	19.995	100.834	20.240	6.550	0.478
375.500	254.747	80.004	19.995	100.839	20.241	6.460	0.458
376.000	255.039	80.003	19.995	100.844	20.239	6.630	0.475
376.500	255.272	80.003	19.995	100.844	20.238	6.660	0.519
377.000	255.529	80.002	19.995	100.843	20.239	6.626	0.508
377.500	255.802	80.003	19.995	100.843	20.239	6.647	0.510
378.000	256.043	80.002	19.995	100.842	20.237	6.745	0.522
378.500	256.271	80.002	19.996	100.842	20.238	6.658	0.492
379.000	256.527	80.002	19.995	100.841	20.237	6.774	0.477
379.500	256.756	80.002	19.996	100.840	20.234	6.921	0.484
380.000	256.978	80.003	19.996	100.840	20.235	6.876	0.468
380.500	257.245	80.002	19.996	100.841	20.234	6.970	0.470
381.000	257.512	80.002	19.996	100.839	20.234	6.948	0.512
381.500	257.733	80.002	19.996	100.837	20.233	7.008	0.511
382.000	258.009	80.001	19.997	100.834	20.233	7.039	0.492
382.500	258.211	80.001	19.997	100.833	20.230	7.196	0.487
383.000	258.500	80.000	19.996	100.830	20.232	7.104	0.485
383.500	258.724	80.001	19.997	100.829	20.228	7.327	0.502
384.000	258.956	80.000	19.996	100.832	20.230	7.209	0.485
384.500	259.269	80.000	19.996	100.835	20.229	7.256	0.501
385.000	259.526	80.001	19.996	100.836	20.228	7.333	0.557
385.500	259.750	80.001	19.996	100.841	20.228	7.328	0.525
386.000	259.990	80.001	19.998	100.844	20.226	7.458	0.472
386.500	260.218	80.001	19.997	100.844	20.227	7.411	0.466
387.000	260.452	80.001	19.996	100.842	20.227	7.438	0.465
387.500	260.708	80.001	19.997	100.840	20.225	7.525	0.476
388.000	260.975	80.001	19.997	100.840	20.222	7.746	0.506
388.500	261.221	80.001	19.996	100.839	20.226	7.492	0.518
389.000	261.469	80.000	19.996	100.839	20.222	7.727	0.504
389.500	261.734	80.001	19.997	100.841	20.222	7.735	0.503
390.000	261.946	80.002	19.997	100.842	20.220	7.862	0.494
390.500	262.228	80.001	19.998	100.841	20.219	7.933	0.485
391.000	262.480	80.002	19.996	100.841	20.217	8.063	0.514
391.500	262.710	80.001	19.997	100.841	20.214	8.252	0.508
392.000	262.938	80.002	19.996	100.840	20.214	8.279	0.470
392.500	263.237	80.001	19.997	100.840	20.215	8.215	0.492
393.000	263.465	80.002	19.995	100.841	20.210	8.539	0.527
393.500	263.699	80.002	19.996	100.841	20.210	8.513	0.495
394.000	263.968	80.002	19.996	100.841	20.211	8.475	0.482
394.500	264.237	80.002	19.997	100.842	20.208	8.630	0.520
395.000	264.481	80.002	19.997	100.842	20.209	8.587	0.525
395.500	264.720	80.003	19.997	100.836	20.204	8.914	0.498
396.000	264.963	80.003	19.997	100.836	20.203	8.984	0.482
396.500	265.200	80.002	19.997	100.837	20.201	9.095	0.481
397.000	265.432	80.004	19.996	100.835	20.202	9.071	0.475
397.500	265.717	80.003	19.996	100.833	20.202	9.031	0.493
398.000	265.963	80.003	19.997	100.832	20.200	9.194	0.524
398.500	266.213	80.001	19.997	100.829	20.198	9.315	0.514
399.000	266.477	80.003	19.996	100.828	20.199	9.251	0.505
399.500	266.676	80.002	19.998	100.828	20.194	9.596	0.488
400.000	266.939	80.002	19.997	100.829	20.196	9.429	0.462
400.500	267.180	80.002	19.995	100.834	20.197	9.373	0.483
401.000	267.486	80.002	19.995	100.838	20.191	9.750	0.526
401.500	267.732	80.004	19.995	100.839	20.190	9.857	0.549
402.000	267.985	80.004	19.995	100.839	20.184	10.257	0.526
402.500	268.190	80.004	19.996	100.841	20.185	10.186	0.478
403.000	268.466	80.003	19.995	100.840	20.184	10.259	0.469
403.500	268.697	80.003	19.997	100.838	20.184	10.260	0.494
404.000	268.940	80.003	19.997	100.834	20.179	10.557	0.491
404.500	269.156	80.003	19.997	100.830	20.175	10.844	0.467
405.000	269.445	80.001	19.997	100.824	20.175	10.816	0.482
405.500	269.675	80.003	19.997	100.822	20.173	10.963	0.512
406.000	269.968	80.002	19.997	100.822	20.169	11.225	0.521
406.500	270.189	80.003	19.997	100.824	20.168	11.302	0.519
407.000	270.426	80.001	19.997	100.828	20.165	11.490	0.486
407.500	270.723	80.002	19.996	100.833	20.166	11.414	0.496
408.000	271.011	80.000	19.998	100.836	20.160	11.816	0.560
408.500	271.211	80.002	19.997	100.836	20.162	11.703	0.536
409.000	271.461	80.001	19.998	100.835	20.158	11.982	0.469
409.500	271.722	80.002	19.998	100.829	20.153	12.264	0.481
410.000	271.978	80.002	19.997	100.824	20.148	12.616	0.514
410.500	272.240	80.003	19.997	100.819	20.145	12.773	0.517
411.000	272.472	80.003	19.995	100.813	20.143	12.958	0.506
411.500	272.706	80.001	19.996	100.810	20.142	12.983	0.480
412.000	273.013	80.003	19.996	100.813	20.143	12.913	0.503
412.500	273.238	80.002	19.995	100.814	20.139	13.166	0.536
413.000	273.507	80.002	19.998	100.814	20.134	13.524	0.513
413.500	273.707	80.002	19.997	100.815	20.131	13.702	0.482
414.000	273.963	80.000	19.996	100.817	20.129	13.821	0.462
414.500	274.268	80.001	19.997	100.813	20.126	14.076	0.509
415.000	274.470	80.001	19.996	100.816	20.122	14.287	0.535
415.500	274.739	80.001	19.997	100.819	20.121	14.410	0.489
416.000	274.963	80.003	19.998	100.820	20.118	14.571	0.482
416.500	275.207	80.002	19.997	100.817	20.116	14.737	0.481
417.000	275.488	80.002	19.996	100.817	20.110	15.079	0.497
417.500	275.706	80.001	19.997	100.812	20.112	14.946	0.512
418.000	276.007	80.002	19.996	100.809	20.102	15.621	0.509
418.500	276.168	80.002	19.997	100.806	20.101	15.716	0.490
419.000	276.486	80.002	19.997	100.806	20.099	15.795	0.470
419.500	276.703	80.002	19.996	100.805	20.093	16.209	0.507
420.000	276.993	80.002	19.996	100.804	20.091	16.369	0.521
420.500	277.157	80.003	19.996	100.802	20.089	16.455	0.481
421.000	277.435	80.001	19.995	100.797	20.085	16.724	0.448
421.500	277.886	80.003	19.997	100.789	20.084	16.780	0.585
422.000	277.872	80.001	19.996	100.782	20.079	17.114	0.583
422.500	278.217	80.001	19.997	100.775	20.075	17.391	0.384
423.000	278.560	80.002	19.997	100.770	20.069	17.761	0.510
423.500	278.589	80.004	19.996	100.767	20.063	18.189	0.530
424.000	278.735	80.002	19.997	100.767	20.059	18.419	0.274
424.500	278.991	80.002	19.996	100.767	20.055	18.736	0.288
425.000	279.285	80.002	19.998	100.767	20.054	18.748	0.476
425.500	279.560	80.004	19.996	100.765	20.047	19.249	0.559
426.000	279.951	80.003	19.997	100.765	20.042	19.575	0.618
426.500	280.402	80.003	19.997	100.764	20.040	19.699	0.754
427.000	280.438	80.004	19.997	100.763	20.034	20.050	0.665
427.500	280.730	80.005	19.996	100.756	20.029	20.425	0.407
428.000	280.997	80.003	19.996	100.750	20.030	20.322	0.443
428.500	281.230	80.004	19.996	100.742	20.028	20.490	0.530
429.000	281.513	80.003	19.996	100.735	20.022	20.884	0.508
429.500	281.730	80.002	19.995	100.727	20.017	21.223	0.508
430.000	281.956	80.003	19.996	100.726	20.013	21.474	0.472
430.500	282.262	80.003	19.996	100.726	20.007	21.867	0.487
431.000	282.483	80.004	19.995	100.726	20.004	22.069	0.530
431.500	282.771	80.002	19.995	100.722	19.996	22.584	0.518
432.000	283.008	80.003	19.995	100.719	19.996	22.591	0.517
432.500	283.269	80.003	19.995	100.710	19.991	22.896	0.512
433.000	283.499	80.002	19.995	100.704	19.986	23.234	0.495
433.500	283.777	80.003	19.995	100.700	19.978	23.734	0.499
434.000	284.045	80.000	19.996	100.697	19.976	23.904	0.526
434.500	284.303	80.002	19.995	100.692	19.971	24.232	0.536
435.000	284.585	80.001	19.995	100.687	19.965	24.590	0.533
435.500	284.806	80.002	19.995	100.679	19.960	24.960	0.521
436.000	285.042	80.001	19.994	100.668	19.954	25.338	0.480
436.500	285.334	80.002	19.995	100.660	19.953	25.408	0.493
437.000	285.588	80.002	19.995	100.653	19.948	25.752	0.537
437.500	285.774	80.001	19.994	100.650	19.938	26.404	0.493
438.000	286.075	80.002	19.996	100.650	19.934	26.623	0.464
438.500	286.369	80.002	19.995	100.649	19.931	26.844	0.541
439.000	286.562	80.001	19.997	100.649	19.926	27.142	0.541
439.500	286.874	80.002	19.993	100.648	19.921	27.527	0.496
440.000	287.109	80.001	19.995	100.647	19.914	27.991	0.526
440.500	287.354	80.000	19.994	100.643	19.910	28.208	0.514
441.000	287.624	80.001	19.996	100.636	19.908	28.365	0.497
441.500	287.880	80.000	19.995	100.629	19.900	28.903	0.520
442.000	288.165	80.001	19.996	100.622	19.895	29.250	0.534
442.500	288.455	80.001	19.997	100.615	19.891	29.510	0.558
443.000	288.694	80.002	19.996	100.613	19.887	29.725	0.551
443.500	288.943	80.001	19.996	100.611	19.879	30.277	0.508
444.000	289.236	80.003	19.996	100.612	19.875	30.555	0.516
444.500	289.477	80.001	19.997	100.612	19.868	31.007	0.538
445.000	289.730	80.000	19.996	100.611	19.866	31.124	0.513
445.500	290.008	80.000	19.996	100.612	19.865	31.224	0.512
446.000	290.263	80.000	19.996	100.613	19.857	31.699	0.532
446.500	290.548	80.001	19.996	100.619	19.853	32.000	0.537
447.000	290.811	80.000	19.996	100.620	19.843	32.654	0.544
447.500	291.120	80.001	19.994	100.624	19.842	32.723	0.560
448.000	291.375	80.001	19.997	100.629	19.837	33.022	0.568
448.500	291.622	80.000	19.996	100.635	19.836	33.091	0.533
449.000	291.883	80.000	19.997	100.636	19.833	33.292	0.505
449.500	292.151	80.000	19.994	100.643	19.827	33.707	0.519
450.000	292.427	80.002	19.997	100.652	19.827	33.720	0.537
450.500	292.699	80.001	19.997	100.659	19.823	33.978	0.546
451.000	292.966	80.002	19.995	100.663	19.818	34.290	0.543
451.500	293.223	80.001	19.995	100.670	19.816	34.438	0.532
452.000	293.503	80.000	19.995	100.677	19.819	34.250	0.530
452.500	293.759	80.002	19.994	100.681	19.813	34.612	0.536
453.000	294.074	80.000	19.995	100.686	19.812	34.717	0.554
453.500	294.319	80.001	19.996	100.692	19.813	34.627	0.565
454.000	294.618	80.002	19.995	100.698	19.811	34.741	0.552
454.500	294.834	80.003	19.996	100.704	19.811	34.748	0.530
455.000	295.092	80.003	19.997	100.709	19.809	34.880	0.495
455.500	295.380	80.001	19.996	100.714	19.810	34.819	0.510
456.000	295.669	80.001	19.997	100.719	19.807	35.040	0.561
456.500	295.921	80.001	19.996	100.722	19.808	34.961	0.559
457.000	296.167	80.002	19.997	100.724	19.809	34.900	0.520
457.500	296.417	80.000	19.995	100.726	19.810	34.799	0.497
458.000	296.670	80.000	19.997	100.727	19.809	34.884	0.499
458.500	296.977	80.001	19.997	100.727	19.812	34.716	0.531
459.000	297.249	80.001	19.998	100.727	19.818	34.270	0.569
459.500	297.509	80.002	19.996	100.728	19.819	34.264	0.556
460.000	297.750	80.002	19.996	100.730	19.823	33.947	0.517
460.500	298.035	80.003	19.995	100.732	19.824	33.905	0.513
461.000	298.328	79.999	19.996	100.733	19.830	33.512	0.552
461.500	298.568	80.004	19.996	100.737	19.829	33.553	0.556
462.000	298.833	80.002	19.996	100.740	19.829	33.550	0.519
462.500	299.141	80.002	19.997	100.740	19.833	33.288	0.539
463.000	299.377	80.001	19.995	100.740	19.840	32.879	0.559
463.500	299.689	80.001	19.994	100.747	19.843	32.676	0.546
464.000	299.927	80.000	19.996	100.750	19.846	32.457	0.549
464.500	300.183	80.002	19.997	100.752	19.849	32.274	0.522
465.000	300.457	80.001	19.996	100.753	19.852	32.069	0.512
465.500	300.715	80.001	19.995	100.756	19.857	31.724	0.531
466.000	300.992	80.002	19.996	100.751	19.864	31.261	0.534
466.500	301.246	80.001	19.996	100.744	19.864	31.297	0.534
467.000	301.506	80.001	19.995	100.744	19.869	30.946	0.523
467.500	301.785	80.002	19.996	100.745	19.876	30.459	0.526
468.000	302.045	80.000	19.997	100.747	19.881	30.182	0.539
468.500	302.265	80.000	19.995	100.748	19.884	29.983	0.510
469.000	302.553	80.001	19.996	100.747	19.890	29.587	0.494
469.500	302.803	80.000	19.995	100.743	19.896	29.202	0.523
470.000	303.057	80.000	19.994	100.740	19.901	28.842	0.521
470.500	303.293	80.001	19.995	100.734	19.909	28.345	0.497
471.000	303.544	80.000	19.996	100.735	19.913	28.083	0.488
471.500	303.828	80.000	19.995	100.736	19.916	27.860	0.511
472.000	304.077	80.001	19.996	100.740	19.926	27.209	0.534
472.500	304.346	80.002	19.995	100.742	19.927	27.151	0.526
473.000	304.618	80.001	19.995	100.741	19.930	26.955	0.529
473.500	304.871	80.001	19.995	100.740	19.936	26.567	0.533
474.000	305.160	80.001	19.995	100.740	19.939	26.340	0.533
474.500	305.424	80.002	19.996	100.737	19.947	25.819	0.548
475.000	305.660	80.001	19.997	100.736	19.955	25.284	0.527
475.500	305.913	80.001	19.996	100.737	19.961	24.890	0.494
476.000	306.188	80.000	19.995	100.736	19.968	24.426	0.508
476.500	306.450	80.001	19.995	100.734	19.972	24.148	0.533
477.000	306.701	80.001	19.995	100.736	19.975	23.980	0.525
477.500	306.950	80.002	19.996	100.734	19.982	23.487	0.507
478.000	307.198	80.002	19.995	100.735	19.984	23.406	0.499
478.500	307.436	80.002	19.996	100.738	19.990	22.980	0.491
479.000	307.718	80.002	19.996	100.739	19.996	22.619	0.503
479.500	307.978	80.002	19.996	100.737	20.002	22.171	0.531
480.000	308.255	80.003	19.995	100.739	20.007	21.899	0.540
480.500	308.496	80.000	19.997	100.739	20.009	21.719	0.527
481.000	308.715	80.002	19.996	100.737	20.015	21.372	0.489
481.500	308.985	80.001	19.996	100.741	20.019	21.088	0.475
482.000	309.249	80.002	19.995	100.741	20.025	20.684	0.512
482.500	309.469	80.001	19.996	100.740	20.025	20.697	0.509
483.000	309.737	80.001	19.995	100.739	20.034	20.111	0.486
483.500	310.023	80.003	19.998	100.739	20.037	19.909	0.521
484.000	310.269	80.003	19.997	100.735	20.042	19.602	0.543
484.500	310.551	80.002	19.998	100.738	20.043	19.482	0.530
485.000	310.773	80.003	19.996	100.741	20.045	19.374	0.516
485.500	311.041	80.002	19.996	100.742	20.052	18.930	0.497
486.000	311.298	80.004	19.995	100.742	20.050	19.036	0.508
486.500	311.553	80.003	19.996	100.743	20.057	18.586	0.519
487.000	311.818	80.004	19.998	100.741	20.061	18.330	0.516
487.500	312.071	80.001	19.996	100.742	20.066	18.010	0.519
488.000	312.338	79.999	19.997	100.742	20.065	18.063	0.519
488.500	312.575	80.001	19.996	100.745	20.067	17.940	0.512
489.000	312.842	80.001	19.996	100.745	20.069	17.794	0.504
489.500	313.124	80.002	19.997	100.744	20.075	17.424	0.527
490.000	313.351	80.002	19.996	100.744	20.076	17.309	0.529
490.500	313.610	80.003	19.997	100.747	20.078	17.208	0.497
491.000	313.898	80.002	19.996	100.746	20.082	16.964	0.517
491.500	314.146	80.002	19.996	100.749	20.083	16.854	0.541
492.000	314.362	80.003	19.997	100.753	20.088	16.547	0.499
492.500	314.616	80.002	19.997	100.750	20.087	16.630	0.467
493.000	314.874	80.003	19.996	100.749	20.091	16.373	0.491
493.500	315.109	80.003	19.997	100.751	20.093	16.228	0.503
494.000	315.369	80.003	19.996	100.751	20.091	16.329	0.494
494.500	315.652	80.002	19.995	100.752	20.097	15.964	0.519
495.000	315.831	80.001	19.997	100.755	20.097	15.985	0.502
495.500	316.097	80.001	19.996	100.759	20.098	15.922	0.454
496.000	316.369	80.002	19.997	100.754	20.101	15.692	0.492
496.500	316.631	80.003	19.995	100.750	20.099	15.824	0.536
497.000	316.830	80.003	19.996	100.748	20.103	15.566	0.497
497.500	317.123	80.003	19.996	100.746	20.104	15.513	0.476
498.000	317.358	80.002	19.996	100.743	20.100	15.757	0.510
498.500	317.610	80.002	19.996	100.744	20.103	15.566	0.507
499.000	317.870	80.002	19.996	100.746	20.101	15.694	0.499
499.500	318.119	80.002	19.996	100.747	20.107	15.332	0.511
500.000	318.344	80.002	19.995	100.749	20.106	15.387	0.491
500.500	318.613	80.003	19.995	100.753	20.104	15.493	0.484
501.000	318.852	80.002	19.996	100.757	20.107	15.311	0.501
501.500	319.068	80.003	19.996	100.760	20.103	15.571	0.482
502.000	319.353	80.003	19.996	100.762	20.104	15.515	0.478
502.500	319.618	80.003	19.998	100.763	20.107	15.293	0.525
503.000	319.833	80.003	19.996	100.763	20.110	15.109	0.515
503.500	320.157	80.001	19.996	100.763	20.107	15.324	0.509
504.000	320.344	80.003	19.996	100.763	20.105	15.450	0.525
504.500	320.632	80.004	19.996	100.763	20.108	15.261	0.493
505.000	320.899	80.005	19.996	100.763	20.107	15.293	0.515
505.500	321.116	80.001	19.995	100.762	20.105	15.431	0.519
506.000	321.388	80.013	19.998	100.759	20.105	15.443	0.487
506.500	321.629	80.023	20.004	100.760	20.107	15.302	0.501
507.000	321.876	80.025	20.003	100.759	20.104	15.477	0.500
507.500	322.114	80.025	20.005	100.759	20.106	15.351	0.486
508.000	322.393	80.023	20.003	100.761	20.102	15.608	0.501
508.500	322.652	80.021	20.001	100.762	20.099	15.814	0.528
509.000	322.863	80.017	20.000	100.760	20.104	15.468	0.504
509.500	323.122	80.008	20.001	100.760	20.101	15.673	0.470
510.000	323.381	80.004	19.999	100.760	20.102	15.626	0.494
510.500	323.609	80.005	19.998	100.759	20.096	15.998	0.502
511.000	323.832	80.003	19.999	100.761	20.099	15.834	0.468
511.500	324.115	80.003	19.998	100.761	20.100	15.739	0.478
512.000	324.334	80.003	19.997	100.762	20.099	15.800	0.504
512.500	324.583	80.003	19.997	100.762	20.098	15.890	0.486
513.000	324.809	80.005	19.998	100.762	20.095	16.105	0.471
513.500	325.084	80.003	19.998	100.762	20.098	15.888	0.487
514.000	325.359	80.001	19.998	100.764	20.094	16.178	0.525
514.500	325.608	80.003	19.997	100.763	20.093	16.242	0.537
515.000	325.833	80.002	19.996	100.763	20.092	16.269	0.499
515.500	326.116	80.001	19.997	100.755	20.090	16.422	0.491
516.000	326.339	80.001	19.997	100.754	20.093	16.230	0.507
516.500	326.579	80.003	19.999	100.754	20.086	16.690	0.485
517.000	326.836	80.002	19.997	100.754	20.086	16.704	0.480
517.500	327.094	80.001	19.997	100.754	20.090	16.395	0.506
518.000	327.317	80.001	19.998	100.762	20.086	16.657	0.498
518.500	327.567	80.002	19.999	100.763	20.086	16.706	0.477
519.000	327.836	80.002	19.998	100.763	20.082	16.931	0.496
519.500	328.111	80.001	19.998	100.762	20.085	16.779	0.532
520.000	328.339	80.001	19.998	100.762	20.083	16.878	0.523
520.500	328.541	80.000	19.998	100.762	20.079	17.115	0.466
521.000	328.804	80.002	19.995	100.763	20.078	17.178	0.448
521.500	329.036	80.002	19.997	100.763	20.075	17.399	0.480
522.000	329.330	80.003	19.997	100.763	20.078	17.207	0.510
522.500	329.539	80.002	19.995	100.759	20.075	17.410	0.514
523.000	329.799	80.001	19.996	100.758	20.073	17.511	0.486
523.500	330.046	80.001	19.997	100.754	20.069	17.812	0.488
524.000	330.268	80.002	19.996	100.754	20.071	17.689	0.488
524.500	330.523	80.002	19.995	100.752	20.069	17.780	0.473
525.000	330.758	80.001	19.995	100.755	20.067	17.906	0.484
525.500	331.021	80.002	19.997	100.757	20.068	17.843	0.494
526.000	331.318	80.003	19.996	100.760	20.068	17.852	0.529
526.500	331.556	80.001	19.995	100.762	20.062	18.288	0.548
527.000	331.786	80.002	19.995	100.765	20.062	18.254	0.502
527.500	332.054	80.000	19.996	100.765	20.063	18.176	0.483
528.000	332.247	80.002	19.997	100.766	20.063	18.174	0.479
528.500	332.502	80.001	19.996	100.766	20.060	18.385	0.454
529.000	332.738	80.001	19.995	100.766	20.059	18.465	0.470
529.500	333.059	80.004	19.996	100.766	20.057	18.572	0.524
530.000	333.283	80.001	19.996	100.767	20.055	18.718	0.551
530.500	333.516	80.001	19.996	100.767	20.054	18.774	0.501
531.000	333.756	80.001	19.995	100.768	20.052	18.930	0.465
531.500	334.004	80.002	19.995	100.768	20.051	18.977	0.481
532.000	334.263	80.002	19.996	100.765	20.050	19.082	0.498
532.500	334.503	80.002	19.996	100.764	20.049	19.145	0.503
533.000	334.757	80.002	19.995	100.765	20.047	19.245	0.497
533.500	335.010	80.002	19.995	100.765	20.047	19.275	0.500
534.000	335.253	80.003	19.996	100.765	20.043	19.514	0.501
534.500	335.484	80.002	19.996	100.768	20.041	19.627	0.485
535.000	335.752	80.003	19.995	100.769	20.038	19.818	0.487
535.500	335.992	80.002	19.994	100.770	20.040	19.730	0.504
536.000	336.246	80.002	19.997	100.769	20.039	19.793	0.501
536.500	336.540	80.002	19.995	100.770	20.036	19.985	0.521
537.000	336.750	80.002	19.996	100.770	20.034	20.106	0.526
537.500	336.978	80.002	19.996	100.769	20.033	20.182	0.471
538.000	337.224	80.002	19.997	100.769	20.031	20.305	0.456
538.500	337.455	80.001	19.996	100.769	20.028	20.493	0.476
539.000	337.727	80.003	19.997	100.769	20.026	20.627	0.490
539.500	338.001	80.003	19.995	100.769	20.026	20.611	0.524
540.000	338.210	80.002	19.997	100.768	20.025	20.676	0.514
540.500	338.490	80.001	19.996	100.768	20.024	20.774	0.486
541.000	338.733	80.002	19.995	100.768	20.020	20.994	0.506
541.500	338.993	80.001	19.997	100.769	20.020	21.022	0.513
542.000	339.204	80.003	19.996	100.769	20.015	21.325	0.487
542.500	339.482	80.002	19.996	100.769	20.014	21.441	0.480
543.000	339.697	80.001	19.998	100.768	20.014	21.411	0.491
543.500	339.973	80.000	19.996	100.769	20.012	21.545	0.492
544.000	340.217	80.003	19.996	100.769	20.012	21.534	0.505
544.500	340.463	80.002	19.997	100.769	20.006	21.932	0.505
545.000	340.737	80.001	19.995	100.769	20.008	21.842	0.506
545.500	340.967	80.003	19.995	100.769	20.007	21.855	0.512
546.000	341.219	80.001	19.996	100.769	20.002	22.231	0.493
546.500	341.465	80.002	19.996	100.769	19.998	22.497	0.490
547.000	341.702	80.001	19.995	100.769	19.997	22.569	0.491
547.500	341.966	79.998	19.997	100.769	19.998	22.500	0.492
548.000	342.207	80.005	19.995	100.769	19.995	22.669	0.503
548.500	342.441	80.000	19.996	100.769	19.993	22.819	0.490
549.000	342.660	80.001	19.994	100.769	19.992	22.841	0.465
549.500	342.894	80.001	19.997	100.769	19.992	22.877	0.453
550.000	343.148	80.001	19.997	100.769	19.986	23.266	0.470
550.500	343.386	80.000	19.996	100.770	19.987	23.203	0.490
551.000	343.626	79.999	19.996	100.770	19.986	23.273	0.485
551.500	343.876	80.003	19.996	100.770	19.983	23.487	0.483
552.000	344.108	79.999	19.997	100.770	19.981	23.592	0.486
552.500	344.390	80.000	19.997	100.771	19.982	23.540	0.499
553.000	344.600	80.002	19.996	100.770	19.977	23.862	0.503
553.500	344.868	80.002	19.995	100.770	19.980	23.669	0.485
554.000	345.113	80.000	19.996	100.770	19.973	24.099	0.496
554.500	345.346	79.999	19.994	100.773	19.976	23.920	0.496
555.000	345.593	80.000	19.996	100.773	19.972	24.148	0.479
555.500	345.832	80.002	19.996	100.774	19.969	24.407	0.483
556.000	346.054	80.001	19.996	100.774	19.968	24.462	0.473
556.500	346.290	80.000	19.996	100.776	19.964	24.703	0.459
557.000	346.538	80.001	19.996	100.774	19.963	24.751	0.471
557.500	346.790	80.000	19.995	100.773	19.960	24.972	0.492
558.000	347.030	80.001	19.998	100.773	19.960	24.967	0.496
558.500	347.288	80.003	19.995	100.773	19.959	25.020	0.495
559.000	347.506	80.001	19.996	100.769	19.953	25.454	0.487
559.500	347.773	80.002	19.996	100.767	19.957	25.173	0.480
560.000	347.997	80.001	19.994	100.768	19.952	25.500	0.488
560.500	348.259	80.002	19.996	100.767	19.951	25.541	0.489
561.000	348.487	80.001	19.994	100.768	19.947	25.796	0.488
561.500	348.727	80.003	19.995	100.768	19.947	25.839	0.479
562.000	348.971	80.001	19.994	100.768	19.945	25.983	0.476
562.500	349.243	80.001	19.995	100.767	19.940	26.262	0.500
563.000	349.507	80.004	19.995	100.770	19.943	26.107	0.526
563.500	349.729	80.002	19.996	100.771	19.938	26.401	0.511
564.000	349.982	80.002	19.996	100.771	19.936	26.535	0.480
564.500	350.264	80.002	19.994	100.772	19.934	26.652	0.505
565.000	350.495	80.004	19.997	100.773	19.934	26.685	0.524
565.500	350.735	80.003	19.994	100.771	19.933	26.769	0.492
566.000	350.961	80.003	19.997	100.773	19.928	27.102	0.469
566.500	351.239	80.006	19.996	100.775	19.927	27.135	0.485
567.000	351.452	80.004	19.997	100.775	19.923	27.428	0.498
567.500	351.726	80.004	19.995	100.778	19.921	27.535	0.489
568.000	351.958	80.004	19.995	100.781	19.919	27.647	0.496
568.500	352.241	80.003	19.994	100.781	19.914	27.972	0.511
569.000	352.441	80.005	19.996	100.783	19.915	27.923	0.499
569.500	352.727	80.003	19.996	100.788	19.914	28.001	0.484
570.000	352.966	80.004	19.996	100.785	19.912	28.107	0.505
570.500	353.259	80.003	19.996	100.785	19.912	28.146	0.528
571.000	353.461	80.002	19.996	100.787	19.905	28.617	0.513
571.500	353.725	80.002	19.996	100.787	19.903	28.727	0.481
572.000	353.967	80.003	19.996	100.784	19.900	28.926	0.486
572.500	354.225	80.002	19.996	100.784	19.898	29.017	0.503
573.000	354.469	80.003	19.996	100.781	19.891	29.486	0.501
573.500	354.749	80.004	19.996	100.776	19.886	29.816	0.513
574.000	354.959	80.000	19.995	100.772	19.888	29.734	0.507
574.500	355.212	80.005	19.996	100.769	19.886	29.826	0.476
575.000	355.480	80.002	19.997	100.767	19.882	30.096	0.492
575.500	355.681	80.004	19.997	100.767	19.881	30.193	0.495
576.000	355.942	80.001	19.996	100.767	19.879	30.297	0.465
576.500	356.216	80.002	19.995	100.769	19.878	30.342	0.499
577.000	356.470	80.002	19.997	100.771	19.875	30.532	0.532
577.500	356.707	80.001	19.996	100.772	19.872	30.731	0.509
578.000	356.975	80.001	19.997	100.772	19.870	30.876	0.498
578.500	357.209	80.001	19.997	100.778	19.871	30.854	0.504
579.000	357.441	80.004	19.999	100.780	19.867	31.117	0.484
579.500	357.711	80.001	19.999	100.785	19.865	31.205	0.484
580.000	357.942	80.000	19.998	100.790	19.859	31.611	0.502
580.500	358.198	80.001	19.996	100.796	19.855	31.869	0.494
581.000	358.450	80.001	19.997	100.794	19.858	31.715	0.497
581.500	358.683	80.002	19.997	100.791	19.857	31.740	0.496
582.000	358.930	80.004	19.996	100.785	19.853	31.981	0.482
582.500	359.197	80.003	19.996	100.779	19.852	32.096	0.497
583.000	359.423	80.003	19.997	100.772	19.846	32.476	0.504
583.500	359.687	80.003	19.997	100.767	19.848	32.357	0.492
584.000	359.943	80.003	19.998	100.770	19.843	32.658	0.505
584.500	360.191	80.005	19.997	100.773	19.837	33.051	0.512
585.000	360.403	80.004	19.997	100.776	19.838	33.017	0.482
585.500	360.691	80.003	19.997	100.782	19.836	33.114	0.480
586.000	360.912	80.003	19.996	100.788	19.830	33.497	0.504
586.500	361.156	80.006	19.996	100.788	19.831	33.476	0.487
587.000	361.370	80.003	19.997	100.783	19.829	33.580	0.462
587.500	361.646	80.003	19.996	100.783	19.825	33.866	0.474
588.000	361.872	80.005	19.996	100.781	19.827	33.730	0.496
588.500	362.156	80.004	19.996	100.776	19.819	34.253	0.505
589.000	362.416	80.003	19.995	100.776	19.820	34.189	0.527
589.500	362.622	80.005	19.995	100.776	19.816	34.439	0.505
590.000	362.879	80.005	19.997	100.778	19.812	34.744	0.465
590.500	363.127	80.006	19.996	100.781	19.812	34.711	0.484
591.000	363.376	80.005	19.996	100.783	19.808	34.958	0.501
591.500	363.650	80.003	19.995	100.783	19.807	35.061	0.510
592.000	363.870	80.004	19.995	100.789	19.807	35.010	0.509
592.500	364.125	80.006	19.996	100.788	19.802	35.394	0.485
593.000	364.385	80.005	19.995	100.783	19.799	35.549	0.495
593.500	364.590	80.005	19.996	100.780	19.800	35.502	0.490
594.000	364.865	80.005	19.996	100.779	19.793	35.964	0.473
594.500	365.125	80.004	19.996	100.774	19.790	36.183	0.507
595.000	365.389	80.002	19.996	100.770	19.789	36.245	0.529
595.500	365.650	80.001	19.995	100.774	19.784	36.544	0.525
596.000	365.883	80.003	19.996	100.779	19.786	36.408	0.510
596.500	366.122	80.003	19.995	100.783	19.782	36.709	0.483
597.000	366.384	80.003	19.997	100.791	19.780	36.802	0.487
597.500	366.619	80.002	19.995	100.794	19.777	37.046	0.499
598.000	366.903	80.001	19.994	100.792	19.774	37.239	0.507
598.500	367.137	80.003	19.995	100.792	19.773	37.270	0.518
599.000	367.375	80.001	19.996	100.790	19.768	37.604	0.495
599.500	367.635	80.001	19.997	100.785	19.766	37.738	0.485
600.000	367.870	80.002	19.998	100.788	19.763	37.950	0.496
600.500	368.126	80.002	19.995	100.794	19.765	37.789	0.493
601.000	368.384	80.001	19.997	100.794	19.759	38.178	0.502
601.500	368.611	80.002	19.996	100.796	19.756	38.427	0.500
602.000	368.851	80.000	19.996	100.800	19.755	38.471	0.476
602.500	369.133	80.002	19.996	100.799	19.753	38.603	0.494
603.000	369.343	79.999	19.997	100.799	19.752	38.679	0.507
603.500	369.586	80.000	19.997	100.800	19.751	38.711	0.473
604.000	369.864	80.000	19.997	100.802	19.749	38.875	0.487
604.500	370.102	80.000	19.997	100.803	19.746	39.078	0.519
605.000	370.350	80.002	19.997	100.804	19.744	39.208	0.502
605.500	370.602	80.001	19.996	100.805	19.740	39.448	0.493
606.000	370.871	80.001	19.996	100.805	19.738	39.558	0.510
606.500	371.123	80.001	19.995	100.802	19.739	39.505	0.521
607.000	371.365	80.003	19.997	100.801	19.734	39.852	0.507
607.500	371.610	80.000	19.995	100.799	19.736	39.684	0.490
608.000	371.888	80.000	19.996	100.799	19.731	40.071	0.505
608.500	372.141	80.002	19.997	100.798	19.729	40.162	0.527
609.000	372.398	80.001	19.997	100.800	19.727	40.319	0.520
609.500	372.633	79.998	19.996	100.802	19.722	40.618	0.501
610.000	372.913	79.999	19.998	100.804	19.719	40.810	0.503
610.500	373.187	80.000	19.997	100.805	19.722	40.614	0.535
611.000	373.385	80.002	19.997	100.805	19.721	40.722	0.514
611.500	373.665	79.998	19.997	100.805	19.718	40.883	0.475
612.000	373.888	80.001	19.996	100.805	19.718	40.906	0.490
612.500	374.135	80.003	19.997	100.805	19.716	41.008	0.486
613.000	374.374	79.998	19.997	100.804	19.713	41.239	0.478
613.500	374.641	80.000	19.996	100.805	19.713	41.226	0.496
614.000	374.892	80.002	19.997	100.804	19.707	41.646	0.512
614.500	375.130	80.000	19.997	100.800	19.708	41.580	0.504
615.000	375.393	80.000	19.997	100.797	19.706	41.704	0.495
615.500	375.642	80.001	19.996	100.793	19.702	41.919	0.506
616.000	375.863	80.003	19.996	100.788	19.704	41.807	0.491
616.500	376.138	80.000	19.997	100.785	19.702	41.939	0.483
617.000	376.377	80.000	19.998	100.785	19.700	42.070	0.505
617.500	376.636	80.001	19.995	100.788	19.700	42.088	0.506
618.000	376.905	80.005	19.996	100.792	19.696	42.324	0.513
618.500	377.141	80.002	19.995	100.798	19.695	42.382	0.517
619.000	377.391	80.003	19.996	100.801	19.690	42.699	0.496
619.500	377.630	80.000	19.997	100.806	19.695	42.372	0.487
620.000	377.896	80.004	19.995	100.807	19.693	42.510	0.497
620.500	378.152	80.003	19.996	100.808	19.691	42.641	0.513
621.000	378.394	80.003	19.996	100.807	19.690	42.720	0.510
621.500	378.639	80.003	19.997	100.805	19.689	42.792	0.493
622.000	378.882	80.001	19.996	100.800	19.688	42.832	0.488
622.500	379.174	80.002	19.996	100.799	19.689	42.786	0.512
623.000	379.386	80.000	19.995	100.798	19.687	42.911	0.520
623.500	379.625	80.003	19.996	100.797	19.685	43.059	0.478
624.000	379.912	80.004	19.996	100.794	19.685	43.072	0.488
624.500	380.175	80.004	19.995	100.793	19.687	42.922	0.537
625.000	380.408	80.002	19.996	100.789	19.686	42.981	0.523
625.500	380.642	80.003	19.996	100.787	19.685	43.048	0.482
626.000	380.922	80.004	19.996	100.787	19.684	43.115	0.490
626.500	381.169	80.002	19.996	100.786	19.683	43.227	0.521
627.000	381.399	80.001	19.995	100.789	19.683	43.200	0.502
627.500	381.642	80.003	19.998	100.788	19.685	43.081	0.475
628.000	381.908	80.002	19.995	100.784	19.687	42.905	0.491
628.500	382.156	80.002	19.996	100.779	19.684	43.101	0.511
629.000	382.380	80.004	19.996	100.777	19.682	43.288	0.493
629.500	382.672	80.002	19.996	100.772	19.680	43.360	0.494
630.000	382.900	80.001	19.996	100.769	19.684	43.151	0.518
630.500	383.140	80.002	19.996	100.769	19.678	43.544	0.494
631.000	383.394	80.002	19.995	100.770	19.679	43.455	0.480
631.500	383.614	80.004	19.995	100.772	19.683	43.194	0.484
632.000	383.874	80.002	19.996	100.775	19.681	43.326	0.477
632.500	384.121	80.002	19.997	100.775	19.684	43.112	0.493
633.000	384.371	80.001	19.996	100.776	19.684	43.133	0.502
633.500	384.606	80.003	19.996	100.777	19.684	43.123	0.491
634.000	384.880	80.003	19.996	100.777	19.690	42.740	0.497
634.500	385.109	80.003	19.998	100.777	19.682	43.277	0.506
635.000	385.385	80.002	19.998	100.778	19.685	43.069	0.504
635.500	385.593	80.002	19.998	100.781	19.688	42.834	0.494
636.000	385.853	80.002	19.996	100.784	19.688	42.843	0.476
636.500	386.116	80.001	19.996	100.784	19.686	42.985	0.496
637.000	386.320	80.002	19.996	100.785	19.687	42.952	0.495
637.500	386.620	80.002	19.995	100.785	19.691	42.660	0.485
638.000	386.862	80.002	19.997	100.781	19.691	42.683	0.523
638.500	387.144	80.003	19.996	100.776	19.690	42.703	0.533
639.000	387.320	80.003	19.999	100.777	19.691	42.649	0.491
639.500	387.599	80.003	19.998	100.775	19.691	42.674	0.457
640.000	387.843	80.003	19.997	100.774	19.696	42.333	0.489
640.500	388.113	80.003	19.997	100.774	19.699	42.129	0.518
641.000	388.327	80.003	19.998	100.773	19.694	42.471	0.499
641.500	388.598	80.004	19.998	100.770	19.698	42.200	0.484
642.000	388.858	80.003	19.998	100.768	19.692	42.582	0.508
642.500	389.067	80.001	19.996	100.767	19.697	42.274	0.500
643.000	389.295	80.003	19.996	100.766	19.700	42.067	0.453
643.500	389.566	80.003	19.996	100.769	19.702	41.905	0.468
644.000	389.800	80.004	19.995	100.772	19.704	41.786	0.502
644.500	390.019	80.003	19.996	100.774	19.705	41.761	0.479
645.000	390.287	80.003	19.996	100.775	19.707	41.630	0.470
645.500	390.535	80.002	19.996	100.774	19.711	41.357	0.502
646.000	390.786	80.003	19.997	100.772	19.710	41.384	0.508
646.500	391.051	80.004	19.997	100.767	19.712	41.304	0.507
647.000	391.290	80.003	19.997	100.766	19.715	41.049	0.510
647.500	391.532	80.003	19.997	100.763	19.716	41.015	0.492
648.000	391.825	80.003	19.997	100.763	19.718	40.887	0.508
648.500	392.042	80.002	19.996	100.765	19.723	40.571	0.522
649.000	392.278	80.005	19.996	100.766	19.725	40.450	0.482
649.500	392.545	80.005	19.996	100.765	19.724	40.473	0.478
650.000	392.793	80.005	19.996	100.765	19.724	40.494	0.509
650.500	393.015	80.004	19.996	100.765	19.731	40.030	0.492
651.000	393.281	80.005	19.995	100.763	19.732	39.973	0.479
651.500	393.549	80.004	19.997	100.764	19.736	39.672	0.511
652.000	393.794	80.006	19.995	100.764	19.737	39.610	0.524
652.500	394.033	80.005	19.996	100.765	19.739	39.481	0.499
653.000	394.297	80.003	19.996	100.765	19.742	39.291	0.493
653.500	394.555	80.004	19.997	100.765	19.743	39.218	0.513
654.000	394.780	80.005	19.996	100.763	19.746	39.053	0.503
654.500	395.039	80.003	19.995	100.760	19.754	38.538	0.483
655.000	395.291	80.005	19.995	100.760	19.751	38.720	0.498
655.500	395.534	80.004	19.996	100.761	19.753	38.563	0.503
656.000	395.771	80.005	19.996	100.760	19.762	37.993	0.487
656.500	396.037	80.003	19.995	100.761	19.761	38.063	0.492
657.000	396.292	80.003	19.995	100.764	19.765	37.819	0.512
657.500	396.563	80.005	19.995	100.764	19.766	37.710	0.524
658.000	396.754	80.003	19.995	100.764	19.771	37.374	0.494
658.500	396.989	80.003	19.996	100.765	19.777	37.028	0.444
659.000	397.270	80.003	19.995	100.766	19.780	36.829	0.470
659.500	397.511	80.003	19.996	100.766	19.779	36.871	0.519
660.000	397.787	80.005	19.996	100.767	19.785	36.449	0.520
660.500	398.021	80.003	19.995	100.766	19.784	36.572	0.514
661.000	398.278	80.003	19.996	100.765	19.788	36.260	0.501
661.500	398.497	80.004	19.996	100.765	19.794	35.863	0.483
662.000	398.735	80.003	19.996	100.766	19.797	35.666	0.466
662.500	399.027	80.003	19.997	100.766	19.801	35.419	0.494
663.000	399.268	80.003	19.996	100.767	19.805	35.140	0.532
663.500	399.502	80.003	19.995	100.769	19.810	34.819	0.504
664.000	399.749	80.003	19.996	100.769	19.809	34.894	0.478
664.500	400.012	80.002	19.995	100.768	19.818	34.326	0.496
665.000	400.221	80.003	19.997	100.767	19.812	34.667	0.491
665.500	400.497	80.002	19.997	100.767	19.822	34.026	0.478
666.000	400.727	80.005	19.995	100.767	19.822	34.013	0.495
666.500	401.013	80.002	19.996	100.767	19.831	33.480	0.510
667.000	401.229	80.001	19.996	100.766	19.836	33.138	0.509
667.500	401.470	80.002	19.995	100.766	19.837	33.067	0.480
668.000	401.705	80.002	19.995	100.765	19.843	32.651	0.467
668.500	401.989	80.003	19.996	100.765	19.848	32.334	0.497
669.000	402.240	80.004	19.996	100.764	19.855	31.865	0.527
669.500	402.486	80.004	19.995	100.759	19.856	31.784	0.516
670.000	402.722	80.004	19.996	100.759	19.856	31.804	0.489
670.500	402.942	80.003	19.996	100.755	19.865	31.240	0.469
671.000	403.194	80.005	19.996	100.755	19.868	31.031	0.464
671.500	403.431	80.005	19.996	100.755	19.868	31.009	0.481
672.000	403.726	80.004	19.996	100.756	19.875	30.534	0.511
672.500	403.983	80.004	19.997	100.750	19.879	30.278	0.542
673.000	404.197	80.001	19.997	100.749	19.887	29.761	0.511
673.500	404.455	80.003	19.996	100.741	19.886	29.808	0.472
674.000	404.713	80.002	19.996	100.734	19.892	29.416	0.494
674.500	404.946	80.004	19.995	100.731	19.898	29.070	0.503
675.000	405.191	80.005	19.996	100.734	19.899	28.992	0.485
675.500	405.463	80.004	19.996	100.735	19.901	28.814	0.498
676.000	405.691	80.003	19.996	100.741	19.910	28.283	0.508
676.500	405.924	80.005	19.998	100.747	19.911	28.169	0.481
677.000	406.186	80.003	19.996	100.754	19.917	27.818	0.478
677.500	406.465	80.003	19.996	100.757	19.921	27.544	0.517
678.000	406.692	80.002	19.997	100.761	19.925	27.256	0.523
678.500	406.959	80.002	19.996	100.761	19.927	27.145	0.501
679.000	407.182	80.001	19.995	100.761	19.933	26.774	0.492
679.500	407.482	80.003	19.996	100.758	19.937	26.455	0.506
680.000	407.706	80.004	19.995	100.753	19.940	26.256	0.523
680.500	407.970	80.001	19.996	100.752	19.946	25.874	0.506
681.000	408.258	80.001	19.996	100.754	19.950	25.622	0.520
681.500	408.504	80.003	19.995	100.755	19.954	25.370	0.543
682.000	408.774	80.002	19.995	100.758	19.962	24.855	0.525
682.500	409.039	80.002	19.995	100.763	19.960	24.966	0.525
683.000	409.296	80.001	19.996	100.764	19.968	24.454	0.528
683.500	409.580	80.001	19.997	100.763	19.972	24.143	0.532
684.000	409.804	80.004	19.996	100.765	19.974	24.031	0.525
684.500	410.081	80.001	19.996	100.763	19.978	23.792	0.505
685.000	410.359	80.002	19.997	100.758	19.986	23.241	0.528
685.500	410.613	80.002	19.996	100.757	19.988	23.100	0.543
686.000	410.888	80.000	19.996	100.756	19.986	23.269	0.531
686.500	411.116	80.004	19.995	100.755	19.988	23.140	0.516
687.000	411.403	80.002	19.997	100.757	20.000	22.357	0.508
687.500	411.670	80.003	19.996	100.762	20.001	22.270	0.534
688.000	411.953	80.002	19.996	100.764	20.005	22.021	0.552
688.500	412.204	80.003	19.996	100.765	20.009	21.722	0.542
689.000	412.506	80.003	19.996	100.764	20.011	21.621	0.543
689.500	412.753	80.002	19.996	100.764	20.018	21.171	0.551
690.000	413.056	80.002	19.995	100.763	20.019	21.056	0.550
690.500	413.318	80.002	19.997	100.758	20.025	20.701	0.557
691.000	413.575	80.004	19.996	100.752	20.032	20.245	0.542
691.500	413.846	80.002	19.996	100.750	20.029	20.406	0.524
692.000	414.143	80.003	19.996	100.743	20.034	20.073	0.548
692.500	414.397	80.001	19.996	100.739	20.043	19.513	0.559
693.000	414.628	80.003	19.996	100.739	20.040	19.693	0.518
693.500	414.950	80.002	19.997	100.737	20.047	19.262	0.519
694.000	415.192	79.999	19.997	100.736	20.050	19.060	0.559
694.500	415.495	80.001	19.997	100.735	20.054	18.799	0.555
695.000	415.785	80.002	19.996	100.737	20.059	18.451	0.569
695.500	416.062	80.000	19.995	100.735	20.062	18.243	0.580
696.000	416.356	80.002	19.997	100.739	20.066	17.982	0.569
696.500	416.608	80.001	19.996	100.740	20.062	18.270	0.559
697.000	416.875	80.002	19.997	100.741	20.069	17.789	0.533
697.500	417.174	80.002	19.995	100.741	20.071	17.664	0.542
698.000	417.439	80.001	19.996	100.745	20.077	17.298	0.565
698.500	417.757	80.002	19.996	100.747	20.082	16.911	0.573
699.000	418.038	80.001	19.999	100.750	20.080	17.047	0.591
699.500	418.277	80.002	19.997	100.755	20.088	16.539	0.560
700.000	418.610	80.002	19.997	100.755	20.090	16.405	0.546
700.500	418.857	80.001	19.996	100.752	20.090	16.387	0.576
701.000	419.121	80.001	19.998	100.746	20.100	15.749	0.545
701.500	419.436	80.001	19.997	100.744	20.098	15.855	0.545
702.000	419.704	80.001	19.998	100.742	20.101	15.658	0.581
702.500	419.967	80.002	19.997	100.740	20.108	15.246	0.557
703.000	420.241	80.002	19.998	100.739	20.113	14.876	0.535
703.500	420.573	80.001	19.998	100.741	20.112	14.988	0.571
704.000	420.832	80.002	19.997	100.741	20.114	14.822	0.598
704.500	421.106	80.001	19.998	100.738	20.121	14.361	0.562
705.000	421.445	80.002	19.997	100.736	20.123	14.268	0.573
705.500	421.691	80.001	19.996	100.737	20.130	13.752	0.599
706.000	421.973	80.002	19.997	100.734	20.125	14.104	0.557
706.500	422.259	80.002	19.997	100.732	20.132	13.667	0.548
707.000	422.538	80.003	19.996	100.731	20.137	13.294	0.567
707.500	422.837	80.001	19.997	100.731	20.134	13.528	0.571
708.000	423.103	80.002	19.997	100.729	20.133	13.582	0.571
708.500	423.422	80.000	19.995	100.729	20.139	13.199	0.575
709.000	423.691	80.003	19.997	100.727	20.145	12.783	0.586
709.500	423.943	80.002	19.997	100.727	20.150	12.486	0.554
710.000	424.231	80.003	19.997	100.727	20.150	12.436	0.531
710.500	424.519	80.001	19.997	100.727	20.152	12.351	0.558
711.000	424.773	80.002	19.996	100.726	20.152	12.327	0.559
711.500	425.081	80.001	19.996	100.727	20.155	12.123	0.552
712.000	425.369	80.001	19.996	100.727	20.163	11.642	0.579
712.500	425.660	80.001	19.996	100.726	20.163	11.611	0.588
713.000	425.964	80.003	19.995	100.726	20.164	11.539	0.587
713.500	426.207	80.003	19.997	100.729	20.167	11.380	0.570
714.000	426.534	80.000	19.995	100.733	20.168	11.313	0.558
714.500	426.796	80.000	19.994	100.733	20.169	11.239	0.580
715.000	427.066	80.002	19.997	100.732	20.166	11.385	0.561
715.500	427.365	80.002	19.997	100.732	20.173	10.939	0.551
716.000	427.627	80.000	19.995	100.730	20.179	10.574	0.565
716.500	427.920	80.002	19.996	100.725	20.179	10.536	0.558
717.000	428.221	80.001	19.996	100.724	20.181	10.413	0.575
717.500	428.503	80.000	19.994	100.725	20.187	10.053	0.588
718.000	428.786	80.001	19.996	100.725	20.187	10.020	0.574
718.500	429.072	80.001	19.996	100.725	20.189	9.901	0.567
719.000	429.379	80.000	19.996	100.726	20.189	9.883	0.581
719.500	429.652	80.001	19.995	100.727	20.189	9.893	0.587
720.000	429.914	80.001	19.995	100.726	20.195	9.528	0.558
720.500	430.185	80.002	19.995	100.726	20.198	9.336	0.534
721.000	430.496	80.002	19.996	100.726	20.198	9.331	0.558
721.500	430.779	80.001	19.996	100.726	20.201	9.130	0.588
722.000	431.058	80.000	19.995	100.727	20.204	8.904	0.578
722.500	431.300	80.000	19.996	100.727	20.205	8.834	0.541
723.000	431.616	80.002	19.997	100.729	20.205	8.870	0.539
723.500	431.887	80.002	19.997	100.729	20.205	8.837	0.572
724.000	432.153	80.002	19.996	100.729	20.206	8.789	0.562
724.500	432.452	80.001	19.996	100.729	20.212	8.380	0.551
725.000	432.730	80.002	19.995	100.729	20.214	8.259	0.571
725.500	433.020	80.001	19.997	100.728	20.217	8.074	0.572
726.000	433.269	80.004	19.997	100.728	20.217	8.060	0.553
726.500	433.587	80.002	19.995	100.730	20.215	8.219	0.553
727.000	433.886	80.002	19.998	100.731	20.217	8.089	0.592
727.500	434.156	80.003	19.995	100.732	20.221	7.798	0.593
728.000	434.446	80.002	19.997	100.733	20.222	7.760	0.565
728.500	434.710	80.003	19.997	100.733	20.224	7.581	0.557
729.000	434.984	80.002	19.996	100.731	20.224	7.622	0.546
729.500	435.277	80.004	19.997	100.731	20.223	7.671	0.552
730.000	435.528	80.003	19.995	100.730	20.223	7.700	0.555
730.500	435.813	80.004	19.997	100.729	20.227	7.384	0.540
731.000	436.129	80.004	19.996	100.728	20.228	7.320	0.568
731.500	436.392	80.004	19.996	100.729	20.230	7.216	0.590
732.000	436.697	80.004	19.996	100.728	20.233	7.040	0.573
732.500	436.943	80.003	19.996	100.728	20.230	7.210	0.560
733.000	437.231	80.004	19.996	100.728	20.234	6.939	0.542
733.500	437.481	80.004	19.995	100.729	20.233	7.022	0.536
734.000	437.768	80.003	19.996	100.729	20.235	6.870	0.538
734.500	438.056	80.003	19.996	100.729	20.241	6.510	0.556
735.000	438.342	80.002	19.996	100.729	20.239	6.595	0.575
735.500	438.625	80.003	19.996	100.729	20.242	6.429	0.572
736.000	438.904	80.003	19.997	100.728	20.242	6.441	0.565
736.500	439.192	80.002	19.996	100.728	20.239	6.602	0.564
737.000	439.412	80.003	19.996	100.728	20.239	6.602	0.537
737.500	439.708	80.002	19.994	100.728	20.241	6.479	0.512
738.000	440.004	80.003	19.995	100.728	20.239	6.593	0.554
738.500	440.276	80.003	19.996	100.728	20.243	6.352	0.580
739.000	440.552	80.004	19.996	100.729	20.244	6.318	0.558
739.500	440.843	80.002	19.997	100.729	20.248	6.054	0.557
740.000	441.086	80.003	19.997	100.729	20.245	6.228	0.551
740.500	441.388	80.001	19.996	100.730	20.244	6.316	0.540
741.000	441.638	80.002	19.997	100.731	20.246	6.166	0.549
741.500	441.948	80.003	19.995	100.731	20.250	5.884	0.556
742.000	442.227	80.002	19.995	100.733	20.248	6.047	0.574
742.500	442.512	80.002	19.995	100.733	20.246	6.163	0.576
743.000	442.758	80.002	19.996	100.733	20.250	5.906	0.548
743.500	443.028	80.003	19.996	100.732	20.250	5.899	0.523
744.000	443.278	80.002	19.997	100.732	20.251	5.843	0.518
744.500	443.586	80.002	19.995	100.731	20.253	5.719	0.539
745.000	443.857	80.002	19.996	100.731	20.253	5.685	0.569
745.500	444.131	80.001	19.996	100.730	20.250	5.916	0.562
746.000	444.391	80.002	19.996	100.730	20.248	6.014	0.539
746.500	444.651	80.002	19.995	100.730	20.252	5.748	0.527
747.000	444.964	80.002	19.995	100.729	20.253	5.663	0.547
747.500	445.224	80.002	19.995	100.728	20.255	5.549	0.573
748.000	445.507	80.003	19.995	100.727	20.253	5.701	0.558
748.500	445.756	80.002	19.996	100.726	20.250	5.866	0.537
749.000	446.057	80.002	19.994	100.725	20.254	5.613	0.540
749.500	446.312	80.004	19.995	100.725	20.253	5.725	0.553
750.000	446.603	80.002	19.994	100.726	20.258	5.358	0.551
750.500	446.851	80.003	19.994	100.729	20.258	5.354	0.543
751.000	447.134	80.004	19.996	100.728	20.260	5.240	0.535
751.500	447.397	80.003	19.996	100.728	20.255	5.533	0.539
752.000	447.670	80.004	19.996	100.728	20.260	5.220	0.541
752.500	447.946	80.003	19.995	100.728	20.260	5.222	0.542
753.000	448.217	80.004	19.996	100.727	20.260	5.220	0.548
753.500	448.494	80.004	19.995	100.729	20.263	5.038	0.547
754.000	448.756	80.003	19.996	100.729	20.259	5.294	0.543
754.500	449.011	80.003	19.995	100.728	20.259	5.269	0.528
755.000	449.279	80.003	19.996	100.728	20.262	5.099	0.520
755.500	449.572	80.004	19.996	100.724	20.264	4.940	0.542
756.000	449.822	80.004	19.994	100.721	20.263	5.038	0.552
756.500	450.076	80.005	19.995	100.720	20.266	4.851	0.523
757.000	450.388	80.006	19.995	100.719	20.264	4.947	0.535
757.500	450.658	80.003	19.994	100.718	20.265	4.915	0.574
758.000	450.915	80.005	19.996	100.720	20.261	5.179	0.555
758.500	451.169	80.004	19.996	100.721	20.262	5.078	0.519
759.000	451.437	80.005	19.996	100.722	20.257	5.406	0.517
759.500	451.728	80.004	19.996	100.722	20.265	4.933	0.541
760.000	451.962	80.006	19.996	100.721	20.266	4.810	0.542
760.500	452.218	80.003	19.996	100.721	20.265	4.889	0.507
761.000	452.497	80.004	19.997	100.719	20.265	4.929	0.513
761.500	452.772	80.004	19.995	100.719	20.262	5.072	0.544
762.000	453.050	80.003	19.996	100.718	20.261	5.183	0.553
762.500	453.319	80.003	19.996	100.720	20.262	5.072	0.550
763.000	453.579	80.002	19.997	100.722	20.264	4.951	0.538
763.500	453.832	80.001	19.995	100.720	20.264	4.967	0.521
764.000	454.093	80.002	19.996	100.720	20.264	4.985	0.514
764.500	454.329	80.002	19.995	100.720	20.259	5.276	0.506
765.000	454.610	80.003	19.996	100.720	20.261	5.168	0.507
765.500	454.897	80.000	19.995	100.721	20.261	5.173	0.542
766.000	455.129	80.001	19.997	100.722	20.263	5.070	0.543
766.500	455.438	80.001	19.997	100.722	20.264	4.943	0.530
767.000	455.694	80.002	19.996	100.722	20.262	5.131	0.553
767.500	455.958	80.002	19.998	100.721	20.259	5.269	0.542
768.000	456.243	80.003	19.997	100.721	20.268	4.714	0.534
768.500	456.510	80.001	19.996	100.724	20.262	5.106	0.551
769.000	456.796	80.001	19.997	100.725	20.267	4.772	0.552
769.500	457.057	80.003	19.997	100.723	20.262	5.083	0.550
770.000	457.320	80.001	19.996	100.720	20.264	4.983	0.536
770.500	457.560	80.002	19.997	100.716	20.266	4.864	0.514
771.000	457.851	80.002	19.996	100.716	20.267	4.792	0.517
771.500	458.097	80.002	19.997	100.717	20.265	4.916	0.534
772.000	458.337	80.000	19.996	100.719	20.262	5.093	0.511
772.500	458.609	80.001	19.997	100.724	20.263	5.031	0.499
773.000	458.862	80.001	19.996	100.727	20.266	4.813	0.519
773.500	459.132	80.001	19.997	100.727	20.267	4.786	0.524
774.000	459.368	80.001	19.996	100.726	20.266	4.815	0.514
774.500	459.660	80.002	19.997	100.726	20.267	4.793	0.517
775.000	459.927	80.002	19.996	100.723	20.264	4.972	0.544
775.500	460.221	80.001	19.994	100.723	20.264	4.992	0.560
776.000	460.454	80.000	19.996	100.720	20.267	4.764	0.544
776.500	460.729	80.001	19.995	100.717	20.264	4.954	0.518
777.000	460.967	80.002	19.997	100.715	20.264	4.992	0.511
777.500	461.253	80.001	19.996	100.717	20.265	4.911	0.519
778.000	461.455	80.002	19.996	100.716	20.263	5.070	0.506
778.500	461.746	80.003	19.996	100.715	20.263	5.018	0.490
779.000	461.976	80.003	19.996	100.716	20.265	4.927	0.506
779.500	462.254	80.001	19.995	100.717	20.265	4.898	0.514
780.000	462.511	80.003	19.995	100.718	20.266	4.811	0.522
780.500	462.745	80.001	19.997	100.719	20.259	5.276	0.514
781.000	463.022	80.001	19.997	100.721	20.265	4.874	0.501
781.500	463.276	80.003	19.996	100.719	20.261	5.142	0.520
782.000	463.534	80.004	19.997	100.716	20.265	4.902	0.522
782.500	463.806	80.004	19.996	100.715	20.265	4.936	0.522
783.000	464.051	80.002	19.996	100.709	20.266	4.864	0.523
783.500	464.282	80.002	19.997	100.706	20.266	4.873	0.496
784.000	464.550	80.001	19.995	100.707	20.267	4.761	0.487
784.500	464.821	80.002	19.996	100.711	20.265	4.911	0.519
785.000	465.089	80.002	19.998	100.710	20.263	5.047	0.539
785.500	465.339	80.003	19.996	100.713	20.266	4.855	0.528
786.000	465.597	80.002	19.996	100.715	20.264	4.962	0.513
786.500	465.852	80.003	19.996	100.717	20.265	4.938	0.511
787.000	466.127	80.003	19.996	100.714	20.262	5.118	0.522
787.500	466.358	80.002	19.997	100.712	20.262	5.135	0.518
788.000	466.593	80.003	19.997	100.716	20.264	4.943	0.486
788.500	466.856	80.003	19.997	100.718	20.266	4.826	0.482
789.000	467.138	80.001	19.997	100.718	20.267	4.793	0.521
789.500	467.405	80.002	19.996	100.721	20.262	5.130	0.547
790.000	467.663	80.002	19.997	100.721	20.266	4.837	0.537
790.500	467.875	80.002	19.996	100.715	20.268	4.718	0.497
791.000	468.120	80.001	19.996	100.710	20.264	4.971	0.464
791.500	468.384	80.003	19.997	100.708	20.264	4.996	0.484
792.000	468.673	80.002	19.997	100.707	20.267	4.799	0.531
792.500	468.858	80.001	19.995	100.711	20.265	4.918	0.514
793.000	469.183	80.001	19.998	100.717	20.267	4.795	0.492
793.500	469.413	80.001	19.996	100.722	20.268	4.700	0.532
794.000	469.665	80.000	19.995	100.720	20.265	4.875	0.518
794.500	469.923	80.001	19.996	100.721	20.265	4.877	0.495
795.000	470.164	80.002	19.996	100.721	20.266	4.808	0.504
795.500	470.419	80.001	19.997	100.720	20.264	4.976	0.498
796.000	470.656	80.002	19.996	100.717	20.270	4.593	0.494
796.500	470.926	80.001	19.996	100.721	20.266	4.841	0.499
797.000	471.210	80.001	19.997	100.717	20.264	4.949	0.531
797.500	471.468	80.001	19.997	100.710	20.265	4.931	0.548
798.000	471.706	80.001	19.997	100.709	20.266	4.871	0.519
798.500	471.939	80.001	19.997	100.711	20.263	5.025	0.483
799.000	472.237	80.001	19.997	100.709	20.263	5.041	0.501
799.500	472.472	80.000	19.996	100.712	20.266	4.830	0.532
800.000	472.720	80.000	19.996	100.718	20.269	4.672	0.508
800.500	472.991	80.000	19.997	100.718	20.266	4.812	0.501
801.000	473.281	80.000	19.996	100.718	20.268	4.725	0.541
801.500	473.526	80.001	19.997	100.721	20.269	4.633	0.548
802.000	473.784	80.001	19.998	100.724	20.262	5.092	0.519
802.500	474.024	80.002	19.997	100.722	20.270	4.605	0.501
803.000	474.307	80.000	19.997	100.722	20.264	4.976	0.511
803.500	474.577	80.000	19.996	100.722	20.270	4.572	0.538
804.000	474.839	79.999	19.996	100.722	20.266	4.813	0.542
804.500	475.090	80.000	19.997	100.721	20.266	4.847	0.523
805.000	475.355	80.001	19.997	100.722	20.268	4.728	0.515
805.500	475.571	80.002	19.996	100.723	20.266	4.828	0.498
806.000	475.865	80.002	19.996	100.724	20.262	5.134	0.495
806.500	476.108	80.001	19.996	100.724	20.267	4.788	0.523
807.000	476.322	80.002	19.997	100.724	20.266	4.835	0.497
807.500	476.661	80.001	19.995	100.725	20.267	4.764	0.505
808.000	476.875	80.001	19.996	100.723	20.259	5.298	0.553
808.500	477.137	80.003	19.996	100.720	20.268	4.683	0.514
809.000	477.395	80.003	19.998	100.720	20.271	4.531	0.497
809.500	477.605	80.002	19.996	100.721	20.271	4.502	0.494
810.000	477.890	80.003	19.997	100.722	20.267	4.766	0.482
810.500	478.198	80.003	19.997	100.722	20.266	4.867	0.544
811.000	478.385	80.002	19.995	100.723	20.268	4.715	0.544
811.500	478.656	80.003	19.995	100.721	20.270	4.567	0.476
812.000	478.908	80.003	19.995	100.721	20.271	4.531	0.491
812.500	479.147	80.004	19.994	100.720	20.269	4.614	0.508
813.000	479.434	80.003	19.993	100.721	20.270	4.602	0.508
813.500	479.662	80.002	19.995	100.716	20.267	4.757	0.520
814.000	479.895	80.004	19.996	100.712	20.268	4.708	0.488
814.500	480.164	80.002	19.995	100.707	20.271	4.488	0.482
815.000	480.402	80.005	19.996	100.708	20.269	4.652	0.504
815.500	480.695	80.003	19.995	100.709	20.267	4.784	0.519
816.000	480.943	80.003	19.995	100.715	20.267	4.757	0.536
816.500	481.211	80.005	19.997	100.722	20.265	4.904	0.528
817.000	481.460	80.004	19.995	100.722	20.267	4.781	0.516
817.500	481.685	80.003	19.995	100.718	20.264	4.970	0.496
818.000	481.958	80.004	19.997	100.713	20.269	4.611	0.486
818.500	482.208	80.004	19.995	100.712	20.268	4.741	0.510
819.000	482.457	80.004	19.996	100.712	20.267	4.748	0.511
819.500	482.694	80.003	19.995	100.713	20.267	4.795	0.493
820.000	482.954	80.003	19.994	100.712	20.263	5.042	0.491
820.500	483.210	80.003	19.995	100.711	20.264	4.995	0.507
821.000	483.488	80.003	19.995	100.707	20.269	4.666	0.525
821.500	483.718	80.005	19.997	100.703	20.264	4.967	0.521
822.000	483.961	80.003	19.996	100.702	20.268	4.699	0.490
822.500	484.223	80.004	19.997	100.703	20.263	5.066	0.489
823.000	484.501	80.005	19.997	100.707	20.265	4.920	0.523
823.500	484.742	80.003	19.995	100.711	20.271	4.484	0.530
824.000	484.981	80.003	19.995	100.714	20.266	4.835	0.499
824.500	485.242	80.003	19.997	100.716	20.261	5.142	0.490
825.000	485.493	80.004	19.997	100.717	20.273	4.382	0.506
825.500	485.728	80.003	19.996	100.719	20.271	4.509	0.499
826.000	485.983	80.002	19.996	100.719	20.269	4.636	0.488
826.500	486.257	80.002	19.997	100.718	20.265	4.927	0.509
827.000	486.551	80.002	19.997	100.714	20.269	4.670	0.548
827.500	486.753	80.003	19.996	100.717	20.271	4.536	0.532
828.000	487.028	80.003	19.995	100.716	20.273	4.386	0.486
828.500	487.261	80.002	19.996	100.715	20.275	4.269	0.493
829.000	487.538	80.002	19.995	100.717	20.272	4.449	0.509
829.500	487.770	80.002	19.996	100.717	20.274	4.326	0.510
830.000	487.999	80.004	19.995	100.713	20.268	4.710	0.485
830.500	488.259	80.002	19.995	100.711	20.270	4.552	0.475
831.000	488.530	80.003	19.996	100.709	20.264	4.959	0.510
831.500	488.788	80.004	19.995	100.705	20.270	4.587	0.530
832.000	489.053	80.003	19.995	100.708	20.267	4.768	0.526
832.500	489.287	80.004	19.996	100.712	20.272	4.462	0.511
833.000	489.504	80.004	19.997	100.714	20.272	4.455	0.475
833.500	489.772	80.004	19.995	100.716	20.272	4.439	0.468
834.000	490.054	80.002	19.995	100.718	20.275	4.231	0.517
834.500	490.275	80.003	19.995	100.719	20.268	4.704	0.527
835.000	490.567	80.004	19.997	100.715	20.267	4.747	0.508
835.500	490.793	80.003	19.995	100.710	20.270	4.565	0.515
836.000	491.079	80.004	19.995	100.705	20.264	4.947	0.515
836.500	491.323	80.003	19.996	100.706	20.272	4.435	0.521
837.000	491.568	80.006	19.996	100.705	20.270	4.562	0.510
837.500	491.825	80.004	19.997	100.707	20.271	4.517	0.496
838.000	492.103	80.004	19.995	100.713	20.275	4.275	0.518
838.500	492.350	80.004	19.995	100.715	20.262	5.101	0.530
839.000	492.567	80.006	19.995	100.710	20.271	4.513	0.495
839.500	492.833	80.007	19.997	100.707	20.271	4.544	0.473
840.000	493.076	80.006	19.995	100.704	20.267	4.746	0.496
840.500	493.355	80.004	19.994	100.702	20.269	4.645	0.515
841.000	493.623	80.005	19.997	100.705	20.268	4.704	0.534
841.500	493.878	80.006	19.995	100.709	20.269	4.632	0.535
842.000	494.143	80.006	19.995	100.710	20.272	4.428	0.522
842.500	494.397	80.005	19.997	100.714	20.271	4.512	0.519
843.000	494.666	80.005	19.996	100.714	20.268	4.694	0.521
843.500	494.952	80.004	19.996	100.714	20.263	5.009	0.539
844.000	495.179	80.004	19.995	100.713	20.264	4.976	0.534
844.500	495.439	80.003	19.994	100.712	20.271	4.533	0.500
845.000	495.720	80.004	19.996	100.706	20.267	4.761	0.514
845.500	495.918	80.004	19.995	100.703	20.269	4.625	0.510
846.000	496.194	80.005	19.996	100.702	20.269	4.636	0.477
846.500	496.439	80.002	19.994	100.706	20.268	4.732	0.498
847.000	496.680	80.004	19.997	100.712	20.270	4.598	0.504
847.500	496.943	80.003	19.994	100.719	20.266	4.825	0.496
848.000	497.193	80.003	19.995	100.723	20.269	4.630	0.509
848.500	497.416	80.003	19.993	100.725	20.270	4.585	0.493
849.000	497.677	80.002	19.996	100.724	20.273	4.361	0.478
849.500	497.911	80.002	19.995	100.723	20.270	4.590	0.490
850.000	498.200	80.002	19.996	100.718	20.268	4.729	0.509
850.500	498.440	80.002	19.997	100.713	20.269	4.623	0.526
851.000	498.725	80.002	19.998	100.709	20.268	4.711	0.527
851.500	498.982	80.002	19.996	100.710	20.275	4.225	0.533
852.000	499.214	80.002	19.996	100.711	20.268	4.685	0.515
852.500	499.463	80.002	19.996	100.716	20.267	4.755	0.485
853.000	499.737	80.002	19.998	100.721	20.268	4.728	0.502
853.500	499.984	80.002	19.996	100.722	20.272	4.466	0.522
854.000	500.224	80.002	19.996	100.722	20.269	4.645	0.504
854.500	500.477	80.002	19.996	100.717	20.270	4.554	0.491
855.000	500.758	80.001	19.996	100.713	20.270	4.563	0.514
855.500	501.018	80.003	19.996	100.714	20.273	4.399	0.537
856.000	501.255	80.001	19.997	100.717	20.275	4.269	0.519
856.500	501.498	80.001	19.997	100.714	20.270	4.576	0.489
857.000	501.785	80.000	19.996	100.715	20.270	4.565	0.505
857.500	502.023	80.002	19.996	100.714	20.271	4.534	0.527
858.000	502.249	80.000	19.997	100.710	20.272	4.455	0.495
858.500	502.524	80.001	19.996	100.706	20.271	4.504	0.483
859.000	502.764	80.001	19.996	100.706	20.269	4.612	0.508
859.500	503.011	80.001	19.997	100.705	20.271	4.522	0.501
860.000	503.294	80.002	19.996	100.702	20.273	4.379	0.508
860.500	503.548	80.000	19.996	100.701	20.268	4.681	0.533
861.000	503.779	80.001	19.996	100.698	20.274	4.304	0.511
861.500	504.041	80.000	19.997	100.701	20.271	4.515	0.489
862.000	504.290	80.001	19.997	100.705	20.271	4.515	0.502
862.500	504.578	80.001	19.996	100.709	20.267	4.797	0.524
863.000	504.821	80.002	19.997	100.710	20.275	4.267	0.534
863.500	505.062	80.000	19.995	100.711	20.269	4.650	0.508
864.000	505.291	80.000	19.996	100.707	20.272	4.460	0.477
864.500	505.592	80.000	19.996	100.705	20.271	4.526	0.500
865.000	505.827	80.000	19.996	100.706	20.265	4.913	0.533
865.500	506.097	80.002	19.997	100.711	20.270	4.554	0.521
866.000	506.350	80.001	19.995	100.711	20.270	4.601	0.514
866.500	506.586	79.999	19.995	100.712	20.266	4.868	0.506
867.000	506.851	80.002	19.997	100.707	20.270	4.606	0.495
867.500	507.084	80.001	19.998	100.705	20.269	4.661	0.499
868.000	507.330	80.003	19.997	100.705	20.265	4.921	0.489
868.500	507.597	80.001	19.997	100.706	20.271	4.527	0.496
869.000	507.820	80.003	19.997	100.703	20.272	4.460	0.501
869.500	508.085	80.003	19.998	100.706	20.267	4.769	0.488
870.000	508.337	80.000	19.996	100.708	20.269	4.652	0.502
870.500	508.599	80.001	19.996	100.708	20.266	4.811	0.516
871.000	508.860	80.001	19.996	100.710	20.274	4.295	0.518
871.500	509.132	80.001	19.997	100.716	20.267	4.780	0.528
872.000	509.360	80.001	19.996	100.721	20.265	4.889	0.517
872.500	509.620	80.002	19.997	100.721	20.261	5.149	0.494
873.000	509.845	80.002	19.997	100.716	20.266	4.813	0.486
873.500	510.097	80.001	19.996	100.710	20.267	4.806	0.481
874.000	510.377	80.002	19.996	100.703	20.272	4.471	0.505
874.500	510.618	80.001	19.995	100.696	20.264	4.945	0.527
875.000	510.835	80.001	19.996	100.692	20.266	4.813	0.490
875.500	511.107	80.002	19.997	100.693	20.267	4.775	0.474
876.000	511.349	80.001	19.997	100.695	20.267	4.798	0.502
876.500	511.565	80.001	19.997	100.698	20.267	4.800	0.486
877.000	511.794	80.003	19.998	100.698	20.268	4.681	0.451
877.500	512.066	80.000	19.996	100.700	20.264	4.963	0.473
878.000	512.309	80.003	19.997	100.700	20.272	4.458	0.508
878.500	512.553	80.001	19.994	100.701	20.266	4.851	0.501
879.000	512.794	80.001	19.996	100.704	20.267	4.748	0.486
879.500	513.026	80.001	19.996	100.709	20.265	4.915	0.479
880.000	513.250	80.001	19.997	100.708	20.261	5.188	0.464
880.500	513.515	80.001	19.998	100.709	20.268	4.735	0.472
881.000	513.794	80.001	19.998	100.707	20.260	5.225	0.516
881.500	514.011	80.000	19.997	100.702	20.264	4.974	0.520
882.000	514.247	80.001	19.996	100.698	20.267	4.782	0.474
882.500	514.560	80.000	19.997	100.700	20.263	5.035	0.501
883.000	514.765	80.001	19.996	100.704	20.268	4.697	0.534
883.500	515.014	80.000	19.995	100.707	20.268	4.687	0.486
884.000	515.251	80.001	19.996	100.709	20.264	4.980	0.470
884.500	515.523	80.001	19.997	100.711	20.271	4.496	0.498
885.000	515.717	80.002	19.998	100.712	20.265	4.924	0.487
885.500	515.971	80.001	19.997	100.707	20.264	4.953	0.457
886.000	516.237	80.001	19.997	100.707	20.264	4.986	0.484
886.500	516.468	80.001	19.996	100.708	20.269	4.646	0.509
887.000	516.736	80.002	19.997	100.704	20.270	4.593	0.498
887.500	516.992	80.000	19.997	100.701	20.268	4.703	0.512
888.000	517.242	80.001	19.996	100.706	20.263	5.014	0.515
888.500	517.471	80.001	19.996	100.707	20.267	4.761	0.492
889.000	517.737	80.002	19.997	100.704	20.264	4.986	0.487
889.500	517.955	80.000	19.996	100.706	20.263	5.018	0.490
890.000	518.212	80.000	19.997	100.704	20.264	4.980	0.479
890.500	518.431	80.001	19.996	100.700	20.268	4.708	0.476
891.000	518.675	80.001	19.997	100.697	20.265	4.921	0.470
891.500	518.935	80.002	19.997	100.702	20.260	5.221	0.483
892.000	519.170	80.001	19.997	100.703	20.263	5.026	0.499
892.500	519.408	80.003	19.997	100.706	20.261	5.146	0.484
893.000	519.661	80.003	19.996	100.704	20.266	4.853	0.482
893.500	519.897	80.002	19.996	100.705	20.264	4.961	0.490
894.000	520.115	80.002	19.996	100.699	20.269	4.629	0.471
894.500	520.394	80.002	19.996	100.694	20.266	4.839	0.475
895.000	520.624	80.003	19.995	100.695	20.265	4.898	0.503
895.500	520.858	80.003	19.996	100.700	20.263	5.034	0.487
896.000	521.125	80.004	19.997	100.699	20.262	5.077	0.483
896.500	521.363	80.002	19.995	100.698	20.263	5.029	0.503
897.000	521.628	80.002	19.997	100.698	20.262	5.093	0.504
897.500	521.838	80.004	19.997	100.697	20.263	5.004	0.489
898.000	522.069	80.003	19.997	100.693	20.266	4.842	0.458
898.500	522.337	80.003	19.996	100.690	20.264	4.940	0.470
899.000	522.568	80.004	19.997	100.691	20.263	5.016	0.499
899.500	522.804	80.003	19.996	100.693	20.269	4.670	0.483
900.000	523.077	80.005	19.996	100.695	20.268	4.741	0.488
900.500	523.302	80.004	19.997	100.695	20.266	4.831	0.503
901.000	523.560	80.004	19.997	100.698	20.269	4.625	0.490
901.500	523.782	80.005	19.997	100.700	20.267	4.760	0.482
902.000	524.039	80.003	19.996	100.705	20.267	4.764	0.480
902.500	524.284	80.003	19.998	100.704	20.261	5.154	0.491
903.000	524.518	80.003	19.996	100.709	20.267	4.796	0.491
903.500	524.786	80.002	19.995	100.714	20.266	4.814	0.490
904.000	524.986	80.004	19.996	100.715	20.263	5.037	0.485
904.500	525.248	80.002	19.995	100.715	20.266	4.847	0.465
905.000	525.436	80.002	19.996	100.719	20.267	4.800	0.456
905.500	525.702	80.001	19.995	100.720	20.262	5.089	0.452
906.000	525.993	80.002	19.996	100.716	20.266	4.871	0.506
906.500	526.224	80.002	19.995	100.715	20.267	4.802	0.539
907.000	526.467	80.002	19.995	100.709	20.268	4.687	0.498
907.500	526.703	80.003	19.996	100.702	20.264	4.965	0.477
908.000	526.913	80.002	19.995	100.700	20.264	4.941	0.463
908.500	527.178	80.001	19.994	100.703	20.266	4.831	0.461
909.000	527.398	80.003	19.996	100.707	20.265	4.896	0.480
909.500	527.668	80.002	19.994	100.712	20.267	4.780	0.487
910.000	527.913	80.001	19.995	100.714	20.267	4.786	0.503
910.500	528.138	80.003	19.997	100.712	20.270	4.607	0.493
911.000	528.389	80.003	19.995	100.709	20.267	4.744	0.473
911.500	528.622	80.001	19.996	100.709	20.261	5.149	0.480
912.000	528.874	80.004	19.996	100.705	20.271	4.484	0.484
912.500	529.135	80.003	19.996	100.704	20.265	4.885	0.499
913.000	529.354	80.003	19.995	100.705	20.269	4.643	0.497
913.500	529.620	80.003	19.996	100.706	20.269	4.623	0.483
914.000	529.836	80.002	19.996	100.703	20.271	4.541	0.483
914.500	530.122	80.002	19.996	100.702	20.265	4.889	0.492
915.000	530.389	80.004	19.997	100.702	20.266	4.818	0.528
915.500	530.625	80.001	19.994	100.700	20.267	4.789	0.528
916.000	530.837	80.003	19.996	100.703	20.266	4.840	0.476
916.500	531.130	80.003	19.995	100.705	20.267	4.796	0.476
917.000	531.367	80.004	19.997	100.709	20.264	4.997	0.517
917.500	531.609	80.003	19.995	100.712	20.266	4.861	0.504
918.000	531.865	80.003	19.994	100.715	20.266	4.854	0.489
918.500	532.122	80.003	19.997	100.710	20.265	4.919	0.506
919.000	532.354	80.002	19.996	100.708	20.265	4.926	0.501
919.500	532.569	80.002	19.994	100.711	20.269	4.630	0.468
920.000	532.808	80.004	19.995	100.711	20.267	4.764	0.450
920.500	533.113	80.003	19.995	100.712	20.266	4.811	0.499
921.000	533.346	80.004	19.997	100.717	20.269	4.641	0.541
921.500	533.638	80.004	19.996	100.717	20.267	4.771	0.532
922.000	533.853	80.005	19.996	100.714	20.266	4.807	0.516
922.500	534.134	80.005	19.996	100.715	20.264	4.952	0.502
923.000	534.370	80.004	19.995	100.711	20.262	5.099	0.506
923.500	534.622	80.004	19.995	100.705	20.265	4.918	0.502
924.000	534.868	80.005	19.996	100.706	20.266	4.869	0.493
924.500	535.127	80.006	19.995	100.707	20.265	4.883	0.501
925.000	535.401	80.006	19.996	100.702	20.263	5.036	0.519
925.500	535.621	80.005	19.994	100.704	20.265	4.874	0.514
926.000	535.895	80.005	19.996	100.707	20.266	4.854	0.494
926.500	536.163	80.003	19.995	100.703	20.267	4.771	0.518
927.000	536.375	80.005	19.995	100.699	20.267	4.746	0.511
927.500	536.661	80.004	19.994	100.698	20.270	4.589	0.489
928.000	536.940	80.005	19.995	100.696	20.266	4.862	0.532
928.500	537.207	80.004	19.994	100.693	20.270	4.558	0.556
929.000	537.414	80.004	19.996	100.693	20.268	4.739	0.510
929.500	537.709	80.006	19.996	100.696	20.265	4.920	0.488
930.000	537.919	80.004	19.996	100.700	20.262	5.101	0.503
930.500	538.222	80.003	19.995	100.699	20.269	4.620	0.509
931.000	538.494	80.002	19.994	100.700	20.263	5.023	0.544
931.500	538.715	80.002	19.995	100.701	20.263	5.009	0.534
932.000	538.980	80.003	19.994	100.703	20.266	4.808	0.490
932.500	539.244	80.002	19.994	100.702	20.263	5.012	0.508
933.000	539.495	80.003	19.995	100.706	20.264	4.979	0.522
933.500	539.777	80.002	19.995	100.709	20.266	4.840	0.524
934.000	540.018	80.002	19.996	100.709	20.268	4.686	0.528
934.500	540.254	80.002	19.995	100.705	20.270	4.594	0.500
935.000	540.544	80.002	19.995	100.703	20.268	4.741	0.501
935.500	540.767	80.003	19.995	100.699	20.264	4.969	0.520
936.000	541.037	80.003	19.995	100.696	20.268	4.719	0.503
936.500	541.358	80.004	19.994	100.698	20.264	4.989	0.542
937.000	541.605	80.003	19.995	100.703	20.262	5.101	0.580
937.500	541.826	80.002	19.996	100.705	20.265	4.912	0.518
938.000	542.094	80.001	19.995	100.710	20.262	5.075	0.478
938.500	542.344	80.002	19.996	100.714	20.265	4.874	0.504
939.000	542.584	80.002	19.995	100.714	20.264	4.984	0.504
939.500	542.857	80.002	19.995	100.710	20.266	4.820	0.501
940.000	543.139	80.002	19.994	100.711	20.267	4.804	0.534
940.500	543.389	80.001	19.994	100.712	20.267	4.766	0.544
941.000	543.657	80.002	19.996	100.713	20.266	4.855	0.525
941.500	543.922	80.001	19.994	100.716	20.262	5.074	0.526
942.000	544.171	80.003	19.996	100.720	20.258	5.381	0.523
942.500	544.425	80.001	19.994	100.719	20.263	5.005	0.508
943.000	544.701	80.001	19.994	100.714	20.266	4.856	0.517
943.500	544.931	80.002	19.995	100.707	20.266	4.811	0.518
944.000	545.179	80.003	19.996	100.704	20.263	5.069	0.492
944.500	545.443	80.002	19.996	100.705	20.263	5.035	0.495
945.000	545.702	80.002	19.995	100.710	20.264	4.981	0.517
945.500	545.976	80.002	19.995	100.715	20.266	4.872	0.527
946.000	546.224	80.002	19.995	100.720	20.268	4.693	0.527
946.500	546.509	80.002	19.994	100.718	20.268	4.733	0.528
947.000	546.752	80.003	19.995	100.718	20.267	4.742	0.531
947.500	547.033	80.002	19.995	100.716	20.269	4.670	0.526
948.000	547.268	80.004	19.995	100.713	20.267	4.759	0.520
948.500	547.590	80.003	19.996	100.713	20.268	4.715	0.536
949.000	547.845	80.002	19.995	100.712	20.269	4.623	0.567
949.500	548.038	80.002	19.994	100.707	20.266	4.852	0.512
950.000	548.332	80.002	19.996	100.701	20.267	4.761	0.467
950.500	548.602	80.004	19.995	100.706	20.271	4.504	0.526
951.000	548.869	80.002	19.995	100.709	20.269	4.671	0.551
951.500	549.110	80.004	19.996	100.713	20.269	4.644	0.523
952.000	549.386	80.003	19.995	100.719	20.265	4.877	0.512
952.500	549.695	80.004	19.996	100.721	20.261	5.138	0.551
953.000	549.924	80.003	19.996	100.715	20.267	4.801	0.561
953.500	550.165	80.005	19.997	100.710	20.264	4.956	0.504
954.000	550.477	80.002	19.996	100.705	20.268	4.683	0.512
954.500	550.695	80.003	19.997	100.700	20.267	4.745	0.542
955.000	550.980	80.003	19.996	100.701	20.268	4.738	0.516
955.500	551.248	80.003	19.996	100.702	20.265	4.931	0.528
956.000	551.510	80.001	19.996	100.704	20.265	4.889	0.541
956.500	551.739	80.002	19.996	100.701	20.265	4.918	0.510
957.000	552.015	80.003	19.997	100.698	20.266	4.831	0.498
957.500	552.279	80.002	19.995	100.700	20.265	4.910	0.523
958.000	552.550	80.002	19.996	100.703	20.268	4.730	0.538
958.500	552.804	80.002	19.997	100.705	20.266	4.871	0.530
959.000	553.020	80.002	19.996	100.707	20.269	4.650	0.497
959.500	553.336	80.002	19.997	100.707	20.266	4.832	0.500
960.000	553.622	80.003	19.996	100.702	20.269	4.662	0.567
960.500	553.874	80.001	19.997	100.697	20.268	4.693	0.570
961.000	554.144	80.001	19.996	100.691	20.270	4.597	0.530
961.500	554.386	80.001	19.995	100.671	20.269	4.673	0.517
962.000	554.666	80.004	19.998	100.660	20.266	4.827	0.517
962.500	554.929	80.001	19.996	100.657	20.268	4.686	0.532
963.000	555.184	80.002	19.997	100.656	20.271	4.531	0.531
963.500	555.474	80.002	19.996	100.659	20.266	4.831	0.532
964.000	555.703	80.003	19.996	100.684	20.266	4.849	0.532
964.500	555.968	80.001	19.997	100.708	20.264	4.943	0.506
965.000	556.221	80.001	19.997	100.744	20.265	4.890	0.505
965.500	556.450	80.002	19.996	100.759	20.268	4.715	0.500
966.000	556.747	80.002	19.996	100.762	20.267	4.800	0.505
966.500	556.990	80.001	19.995	100.759	20.267	4.786	0.533
967.000	557.267	80.002	19.996	100.749	20.268	4.715	0.530
967.500	557.514	80.002	19.996	100.718	20.271	4.534	0.522
968.000	557.794	80.001	19.996	100.705	20.271	4.536	0.525
968.500	558.058	80.001	19.997	100.704	20.264	4.941	0.536
969.000	558.319	80.003	19.996	100.706	20.272	4.457	0.535
969.500	558.578	80.002	19.995	100.705	20.269	4.650	0.523
970.000	558.827	80.001	19.994	100.703	20.273	4.361	0.514
970.500	559.111	80.002	19.995	100.703	20.270	4.553	0.520
971.000	559.375	80.002	19.996	100.699	20.271	4.491	0.541
971.500	559.595	80.002	19.996	100.693	20.269	4.616	0.516
972.000	559.861	80.002	19.996	100.693	20.270	4.545	0.485
972.500	560.138	80.003	19.996	100.697	20.269	4.619	0.514
973.000	560.366	80.003	19.997	100.700	20.264	4.998	0.524
973.500	560.686	80.002	19.996	100.700	20.269	4.632	0.527
974.000	560.898	80.002	19.996	100.703	20.272	4.447	0.540
974.500	561.154	80.002	19.995	100.707	20.272	4.446	0.500
975.000	561.413	80.003	19.996	100.705	20.267	4.789	0.492
975.500	561.703	80.003	19.997	100.701	20.269	4.648	0.532
976.000	561.929	80.004	19.996	100.701	20.270	4.549	0.533
976.500	562.210	80.004	19.996	100.702	20.268	4.677	0.512
977.000	562.458	80.003	19.996	100.700	20.267	4.764	0.518
977.500	562.715	80.002	19.997	100.705	20.269	4.625	0.517
978.000	562.974	80.003	19.996	100.709	20.269	4.652	0.511
978.500	563.257	80.002	19.996	100.709	20.267	4.785	0.529
979.000	563.518	80.002	19.995	100.707	20.269	4.633	0.543
979.500	563.787	80.005	19.997	100.707	20.268	4.735	0.537
980.000	564.022	80.003	19.996	100.707	20.270	4.545	0.517
980.500	564.288	80.004	19.996	100.708	20.272	4.415	0.502
981.000	564.521	80.003	19.996	100.710	20.268	4.733	0.499
981.500	564.815	80.003	19.996	100.712	20.269	4.649	0.513
982.000	565.070	80.003	19.997	100.707	20.273	4.386	0.539
982.500	565.285	80.002	19.997	100.703	20.268	4.741	0.510
983.000	565.549	80.004	19.997	100.698	20.267	4.781	0.474
983.500	565.802	80.004	19.996	100.695	20.272	4.423	0.498
984.000	566.061	80.004	19.997	100.696	20.268	4.712	0.514
984.500	566.309	80.003	19.996	100.700	20.269	4.623	0.510
985.000	566.561	80.004	19.997	100.701	20.268	4.706	0.504
985.500	566.839	80.003	19.996	100.705	20.265	4.894	0.515
986.000	567.063	80.002	19.997	100.706	20.272	4.477	0.516
986.500	567.309	80.003	19.996	100.706	20.273	4.369	0.486
987.000	567.606	80.002	19.996	100.709	20.268	4.696	0.507
987.500	567.828	80.003	19.997	100.712	20.269	4.663	0.531
988.000	568.085	80.001	19.995	100.712	20.271	4.520	0.499
988.500	568.322	80.002	19.996	100.710	20.270	4.560	0.487
989.000	568.604	80.003	19.996	100.705	20.272	4.469	0.506
989.500	568.872	80.003	19.996	100.700	20.272	4.464	0.535
990.000	569.120	80.003	19.998	100.697	20.266	4.872	0.533
990.500	569.397	80.002	19.996	100.699	20.269	4.661	0.520
991.000	569.642	80.002	19.997	100.704	20.270	4.553	0.523
991.500	569.897	80.001	19.997	100.708	20.272	4.415	0.511
992.000	570.193	80.001	19.995	100.709	20.272	4.468	0.526
992.500	570.407	80.003	19.998	100.714	20.267	4.754	0.531
993.000	570.655	80.002	19.996	100.714	20.269	4.622	0.486
993.500	570.908	80.002	19.995	100.714	20.272	4.462	0.481
994.000	571.153	80.003	19.996	100.716	20.268	4.693	0.500
994.500	571.392	80.003	19.997	100.714	20.271	4.536	0.491
995.000	571.673	80.002	19.997	100.709	20.272	4.451	0.502
995.500	571.964	80.001	19.996	100.707	20.271	4.538	0.546
996.000	572.206	80.003	19.995	100.708	20.275	4.245	0.553
996.500	572.468	80.002	19.996	100.709	20.271	4.502	0.519
997.000	572.716	80.002	19.995	100.714	20.270	4.601	0.507
997.500	572.997	80.002	19.996	100.721	20.273	4.402	0.519
998.000	573.231	80.002	19.996	100.723	20.272	4.461	0.522
998.500	573.482	80.003	19.997	100.720	20.273	4.391	0.500
999.000	573.732	80.004	19.996	100.714	20.270	4.548	0.493
999.500	573.993	80.003	19.995	100.712	20.268	4.677	0.506
1000.000	574.298	80.003	19.995	100.706	20.269	4.675	0.539
1000.500	574.555	80.003	19.996	100.700	20.273	4.377	0.564
1001.000	574.830	80.005	19.996	100.703	20.270	4.554	0.547
1001.500	575.081	80.004	19.995	100.710	20.272	4.423	0.529
1002.000	575.350	80.004	19.996	100.711	20.274	4.343	0.523
1002.500	575.597	80.005	19.995	100.718	20.270	4.592	0.518
1003.000	575.830	80.003	19.996	100.722	20.270	4.549	0.498
1003.500	576.084	80.004	19.998	100.720	20.275	4.243	0.484
1004.000	576.351	80.005	19.996	100.716	20.274	4.310	0.504
1004.500	576.605	80.004	19.995	100.713	20.268	4.686	0.521
1005.000	576.851	80.005	19.996	100.706	20.270	4.600	0.511
1005.500	577.141	80.005	19.996	100.703	20.273	4.385	0.518
1006.000	577.381	80.004	19.995	100.705	20.272	4.475	0.533
1006.500	577.620	80.003	19.995	100.705	20.272	4.441	0.504
1007.000	577.904	80.004	19.994	100.701	20.269	4.649	0.501
1007.500	578.117	80.004	19.996	100.701	20.278	4.030	0.510
1008.000	578.350	80.004	19.994	100.701	20.276	4.180	0.471
1008.500	578.604	80.006	19.996	100.696	20.272	4.415	0.467
1009.000	578.907	80.005	19.996	100.694	20.273	4.379	0.522
1009.500	579.160	80.004	19.994	100.698	20.271	4.533	0.556
1010.000	579.408	80.004	19.995	100.697	20.272	4.452	0.529
1010.500	579.659	80.005	19.994	100.696	20.268	4.730	0.500
1011.000	579.929	80.003	19.994	100.703	20.268	4.719	0.510
1011.500	580.151	80.003	19.995	100.707	20.270	4.547	0.506
1012.000	580.419	80.003	19.994	100.710	20.270	4.590	0.491
1012.500	580.707	80.002	19.995	100.714	20.269	4.657	0.523
1013.000	580.927	80.003	19.996	100.714	20.268	4.684	0.532
1013.500	581.200	80.004	19.995	100.714	20.272	4.428	0.501
1014.000	581.410	80.003	19.996	100.710	20.270	4.560	0.488
1014.500	581.701	80.002	19.995	100.709	20.270	4.598	0.492
1015.000	581.945	80.002	19.996	100.710	20.271	4.507	0.518
1015.500	582.228	80.001	19.995	100.711	20.267	4.784	0.531
1016.000	582.451	80.002	19.996	100.711	20.272	4.417	0.516
1016.500	582.697	80.002	19.995	100.714	20.269	4.616	0.487
1017.000	582.960	80.002	19.995	100.715	20.266	4.808	0.489
1017.500	583.236	80.001	19.996	100.714	20.272	4.437	0.524
1018.000	583.437	80.003	19.996	100.713	20.269	4.626	0.508
1018.500	583.699	80.001	19.996	100.714	20.272	4.467	0.470
1019.000	583.968	80.003	19.995	100.712	20.270	4.583	0.497
1019.500	584.229	80.001	19.995	100.713	20.271	4.537	0.530
1020.000	584.474	80.001	19.996	100.716	20.271	4.530	0.518
1020.500	584.721	80.001	19.996	100.720	20.270	4.597	0.499
1021.000	584.962	80.002	19.996	100.716	20.267	4.750	0.490
1021.500	585.241	80.001	19.996	100.713	20.272	4.446	0.504
1022.000	585.480	80.002	19.996	100.712	20.267	4.752	0.519
1022.500	585.725	80.001	19.995	100.710	20.272	4.426	0.501
1023.000	586.015	80.003	19.996	100.707	20.269	4.654	0.510
1023.500	586.260	80.002	19.996	100.707	20.269	4.658	0.535
1024.000	586.490	80.002	19.995	100.709	20.270	4.569	0.504
1024.500	586.762	80.002	19.994	100.709	20.270	4.604	0.488
1025.000	586.986	80.002	19.995	100.709	20.271	4.529	0.499
1025.500	587.260	80.002	19.996	100.709	20.273	4.406	0.497
1026.000	587.513	80.003	19.997	100.709	20.273	4.354	0.513
1026.500	587.782	80.001	19.996	100.710	20.271	4.533	0.525
1027.000	588.021	80.001	19.995	100.711	20.271	4.518	0.515
1027.499	588.252	80.003	19.996	100.709	20.272	4.462	0.489
1027.999	588.511	80.002	19.996	100.711	20.277	4.118	0.480
1028.499	588.772	80.003	19.995	100.709	20.273	4.411	0.505
1028.999	589.049	80.001	19.995	100.703	20.274	4.344	0.529
1029.499	589.239	80.002	19.996	100.697	20.271	4.494	0.502
1029.999	589.553	80.001	19.995	100.695	20.274	4.346	0.485
1030.500	589.775	80.003	19.996	100.696	20.268	4.679	0.520
1031.001	590.036	80.002	19.995	100.699	20.275	4.272	0.509
1031.500	590.260	80.002	19.995	100.703	20.269	4.654	0.484
1032.000	590.518	80.001	19.995	100.708	20.273	4.375	0.484
1032.501	590.782	80.003	19.996	100.713	20.268	4.706	0.503
1033.000	591.032	80.002	19.995	100.712	20.273	4.389	0.518
1033.499	591.293	80.003	19.996	100.713	20.269	4.613	0.512
1033.999	591.521	80.003	19.997	100.713	20.269	4.646	0.500
1034.499	591.796	80.003	19.995	100.713	20.271	4.487	0.496
1034.999	592.064	80.003	19.994	100.714	20.269	4.619	0.523
1035.499	592.298	80.002	19.995	100.718	20.270	4.567	0.523
1035.999	592.566	80.003	19.996	100.717	20.270	4.581	0.502
1036.500	592.807	80.003	19.995	100.715	20.271	4.516	0.505
1037.001	593.073	80.003	19.995	100.712	20.269	4.619	0.508
1037.500	593.355	80.003	19.995	100.707	20.269	4.610	0.528
1037.999	593.591	80.003	19.996	100.704	20.271	4.512	0.533
1038.499	593.858	80.002	19.996	100.701	20.266	4.828	0.511
1038.999	594.101	80.003	19.996	100.699	20.272	4.474	0.507
1039.499	594.381	80.005	19.996	100.698	20.267	4.778	0.516
1039.999	594.625	80.003	19.997	100.698	20.268	4.718	0.523
1040.499	594.891	80.002	19.995	100.700	20.267	4.748	0.517
1040.999	595.167	80.003	19.995	100.706	20.271	4.505	0.526
1041.499	595.416	80.002	19.996	100.707	20.272	4.476	0.534
1041.999	595.708	80.002	19.997	100.709	20.272	4.469	0.533
1042.499	595.934	80.003	19.996	100.707	20.272	4.433	0.529
1042.999	596.207	80.003	19.996	100.701	20.272	4.446	0.508
1043.499	596.406	80.002	19.995	100.695	20.272	4.462	0.486
1043.999	596.688	80.003	19.996	100.694	20.271	4.514	0.477
1044.499	596.944	80.002	19.996	100.695	20.272	4.471	0.509
1044.999	597.201	80.002	19.995	100.696	20.274	4.333	0.526
1045.499	597.424	80.002	19.996	100.699	20.274	4.330	0.497
1045.999	597.721	80.003	19.996	100.702	20.276	4.210	0.500
1046.499	597.933	80.001	19.995	100.701	20.273	4.406	0.514
1046.999	598.238	80.001	19.997	100.699	20.274	4.288	0.512
1047.499	598.493	80.002	19.996	100.699	20.274	4.314	0.538
1047.999	598.737	80.002	19.996	100.697	20.273	4.356	0.530
1048.499	598.996	80.003	19.996	100.696	20.275	4.279	0.501
1049.000	599.233	80.002	19.996	100.695	20.275	4.259	0.499
1049.500	599.490	80.003	19.997	100.695	20.275	4.270	0.495
1049.999	599.763	80.001	19.996	100.696	20.272	4.420	0.512
1050.499	600.007	80.000	19.997	100.699	20.272	4.451	0.524
1050.999	600.248	80.001	19.996	100.701	20.271	4.503	0.501
1051.499	600.506	80.003	19.995	100.704	20.277	4.144	0.492
1051.999	600.769	80.002	19.998	100.706	20.269	4.621	0.510
1052.499	601.023	80.001	19.996	100.705	20.278	4.078	0.519
1052.999	601.301	80.002	19.996	100.703	20.274	4.335	0.524
1053.499	601.533	80.003	19.995	100.704	20.273	4.402	0.521
1054.000	601.783	80.002	19.996	100.705	20.274	4.315	0.496
1054.500	602.061	80.001	19.997	100.703	20.272	4.436	0.505
1054.999	602.288	80.001	19.996	100.705	20.273	4.353	0.517
1055.499	602.569	80.002	19.997	100.704	20.275	4.275	0.506
1055.999	602.796	80.002	19.995	100.700	20.272	4.461	0.508
1056.499	603.080	80.001	19.996	100.696	20.275	4.255	0.510
1056.999	603.314	80.002	19.996	100.699	20.269	4.653	0.515
1057.499	603.595	80.002	19.996	100.702	20.273	4.364	0.516
1057.999	603.850	80.003	19.996	100.707	20.272	4.449	0.525
1058.499	604.125	80.003	19.995	100.712	20.271	4.486	0.533
1059.000	604.370	80.003	19.996	100.712	20.268	4.694	0.526
1059.500	604.641	80.003	19.996	100.708	20.272	4.426	0.518
1059.999	604.892	80.003	19.996	100.703	20.273	4.395	0.519
1060.499	605.121	80.005	19.997	100.700	20.274	4.299	0.501
1060.999	605.403	80.002	19.996	100.696	20.271	4.500	0.495
1061.499	605.672	80.003	19.994	100.698	20.270	4.556	0.531
1061.999	605.933	80.003	19.996	100.699	20.271	4.514	0.540
1062.499	606.162	80.004	19.997	100.701	20.271	4.502	0.510
1062.999	606.412	80.005	19.997	100.700	20.272	4.460	0.485
1063.500	606.650	80.003	19.996	100.698	20.275	4.268	0.483
1064.001	606.923	80.004	19.996	100.697	20.275	4.254	0.500
1064.500	607.168	80.003	19.994	100.696	20.275	4.254	0.515
1064.999	607.450	80.004	19.996	100.695	20.275	4.245	0.522
1065.499	607.714	80.003	19.996	100.693	20.272	4.469	0.536
1065.999	607.928	80.005	19.997	100.693	20.280	3.915	0.512
1066.499	608.196	80.005	19.996	100.692	20.274	4.311	0.480
1066.999	608.471	80.004	19.996	100.694	20.278	4.051	0.513
1067.499	608.688	80.003	19.996	100.697	20.277	4.125	0.518
1067.999	608.961	80.004	19.995	100.702	20.275	4.255	0.491
1068.499	609.222	80.002	19.995	100.707	20.275	4.247	0.512
1068.999	609.470	80.003	19.996	100.709	20.269	4.657	0.522
1069.499	609.705	80.002	19.996	100.710	20.273	4.374	0.496
1069.999	609.984	80.004	19.996	100.712	20.273	4.410	0.498
1070.499	610.240	80.003	19.996	100.710	20.272	4.460	0.525
1071.000	610.469	80.002	19.996	100.706	20.271	4.534	0.510
1071.500	610.748	80.004	19.996	100.706	20.274	4.303	0.496
1071.999	610.972	80.003	19.996	100.708	20.275	4.259	0.506
1072.500	611.221	80.004	19.995	100.703	20.274	4.288	0.488
1073.000	611.487	80.003	19.997	100.703	20.273	4.369	0.494
1073.499	611.781	80.003	19.996	100.703	20.272	4.427	0.538
1073.999	611.999	80.003	19.996	100.702	20.275	4.259	0.536
1074.499	612.269	80.002	19.996	100.698	20.278	4.036	0.500
1074.999	612.525	80.002	19.996	100.700	20.275	4.241	0.507
1075.499	612.746	80.002	19.996	100.696	20.277	4.100	0.501
1075.999	613.016	80.004	19.997	100.694	20.276	4.194	0.484
1076.499	613.322	80.003	19.996	100.695	20.273	4.400	0.534
1076.999	613.555	80.002	19.996	100.693	20.274	4.328	0.557
1077.499	613.810	80.001	19.998	100.691	20.276	4.190	0.513
1077.999	614.042	80.002	19.995	100.692	20.274	4.288	0.487
1078.499	614.326	80.001	19.997	100.694	20.274	4.284	0.502
1078.999	614.537	80.001	19.998	100.694	20.277	4.086	0.506
1079.499	614.826	80.002	19.996	100.698	20.277	4.149	0.497
1079.999	615.064	80.003	19.998	100.705	20.276	4.214	0.513
1080.499	615.305	80.002	19.997	100.712	20.273	4.360	0.503
1080.999	615.646	80.003	19.998	100.712	20.274	4.317	0.531
1081.499	615.811	80.003	19.996	100.710	20.274	4.329	0.544
1081.999	616.071	80.003	19.997	100.708	20.273	4.372	0.465
1082.499	616.306	80.003	19.996	100.703	20.274	4.333	0.460
1082.999	616.559	80.003	19.996	100.696	20.273	4.400	0.492
1083.499	616.803	80.003	19.997	100.695	20.274	4.304	0.493
1084.000	617.054	80.003	19.996	100.696	20.271	4.499	0.496
1084.500	617.296	80.004	19.997	100.693	20.276	4.169	0.494
1084.999	617.571	80.005	19.997	100.690	20.276	4.181	0.505
1085.499	617.779	80.006	19.997	100.688	20.274	4.283	0.499
1085.999	618.062	80.005	19.998	100.687	20.278	4.053	0.487
1086.499	618.314	80.005	19.997	100.686	20.278	4.055	0.513
1087.000	618.577	80.004	19.997	100.686	20.272	4.460	0.525
1087.500	618.795	80.005	19.997	100.688	20.275	4.255	0.498
1087.999	619.071	80.004	19.996	100.695	20.272	4.452	0.487
1088.499	619.307	80.006	19.997	100.697	20.272	4.422	0.503
1088.999	619.553	80.006	19.996	100.698	20.270	4.570	0.497
1089.499	619.833	80.005	19.996	100.696	20.274	4.329	0.504
1089.999	620.065	80.007	19.996	100.696	20.273	4.396	0.518
1090.499	620.287	80.005	19.995	100.694	20.273	4.356	0.483
1090.999	620.560	80.007	19.996	100.691	20.274	4.335	0.475
1091.499	620.826	80.006	19.996	100.690	20.271	4.488	0.517
1091.999	621.037	80.006	19.995	100.690	20.272	4.432	0.507
1092.499	621.298	80.005	19.995	100.688	20.271	4.494	0.474
1092.999	621.520	80.005	19.996	100.683	20.275	4.270	0.478
1093.499	621.812	80.003	19.995	100.684	20.276	4.201	0.499
1093.999	622.032	80.006	19.996	100.686	20.272	4.434	0.513
1094.499	622.252	80.005	19.996	100.688	20.271	4.487	0.476
1094.999	622.501	80.005	19.994	100.692	20.276	4.194	0.454
1095.500	622.757	80.006	19.995	100.693	20.272	4.427	0.487
1096.000	622.989	80.005	19.995	100.694	20.269	4.631	0.497
1096.499	623.240	80.004	19.994	100.695	20.273	4.395	0.485
1096.999	623.554	80.002	19.995	100.695	20.277	4.127	0.524
1097.499	623.758	80.004	19.995	100.692	20.276	4.158	0.542
1097.999	623.985	80.003	19.996	100.694	20.271	4.480	0.475
1098.499	624.245	80.003	19.995	100.695	20.271	4.525	0.459
1099.000	624.479	80.002	19.996	100.693	20.274	4.326	0.491
1099.501	624.726	80.003	19.996	100.692	20.273	4.407	0.487
1100.000	624.973	80.002	19.995	100.691	20.273	4.366	0.487
1100.499	625.243	80.002	19.996	100.691	20.272	4.442	0.506
1100.999	625.476	80.003	19.996	100.690	20.275	4.238	0.511
1101.499	625.733	80.003	19.995	100.689	20.272	4.437	0.497
1101.999	625.942	80.002	19.996	100.691	20.272	4.415	0.478
1102.499	626.201	80.002	19.997	100.692	20.273	4.388	0.467
1102.999	626.442	80.003	19.996	100.689	20.273	4.373	0.484
1103.499	626.671	80.003	19.996	100.688	20.274	4.338	0.485
1103.999	626.905	80.003	19.995	100.689	20.270	4.570	0.467
1104.499	627.175	80.003	19.995	100.689	20.275	4.257	0.483
1104.999	627.435	80.002	19.996	100.690	20.270	4.575	0.517
1105.499	627.689	80.003	19.996	100.690	20.271	4.526	0.522
1105.999	627.944	80.002	19.996	100.691	20.272	4.436	0.511
1106.499	628.170	80.002	19.996	100.694	20.272	4.474	0.494
1107.000	628.421	80.001	19.998	100.694	20.273	4.382	0.479
1107.501	628.680	80.002	19.996	100.694	20.276	4.151	0.494
1108.000	628.916	80.002	19.996	100.696	20.274	4.326	0.503
1108.500	629.192	80.002	19.996	100.698	20.277	4.093	0.503
1109.000	629.437	80.004	19.996	100.694	20.272	4.461	0.516
1109.499	629.698	80.001	19.996	100.694	20.273	4.356	0.513
1109.999	629.950	80.002	19.997	100.694	20.270	4.565	0.510
1110.499	630.180	80.002	19.996	100.694	20.268	4.684	0.498
1110.999	630.433	80.001	19.997	100.698	20.273	4.369	0.482
1111.499	630.691	80.003	19.996	100.706	20.270	4.574	0.497
1111.999	630.939	80.001	19.996	100.708	20.272	4.415	0.508
1112.499	631.214	80.001	19.996	100.707	20.273	4.375	0.514
1113.000	631.460	80.002	19.996	100.707	20.272	4.418	0.522
1113.500	631.692	80.002	19.996	100.701	20.273	4.366	0.499
1113.999	631.990	80.003	19.996	100.693	20.270	4.592	0.504
1114.499	632.274	80.004	19.995	100.689	20.268	4.707	0.556
1114.999	632.452	80.004	19.996	100.690	20.271	4.539	0.522
1115.499	632.736	80.003	19.996	100.688	20.268	4.740	0.462
1116.000	632.992	80.004	19.996	100.688	20.270	4.566	0.501
1116.500	633.248	80.002	19.994	100.688	20.272	4.465	0.526
1116.999	633.498	80.003	19.995	100.689	20.270	4.595	0.509
1117.499	633.751	80.002	19.994	100.696	20.275	4.266	0.504
1117.999	634.022	80.002	19.996	100.699	20.271	4.535	0.513
1118.499	634.296	80.004	19.995	100.700	20.266	4.817	0.535
1118.999	634.591	80.005	19.996	100.701	20.274	4.340	0.557
1119.499	634.798	80.004	19.995	100.700	20.267	4.754	0.536
1119.999	635.071	80.003	19.996	100.693	20.274	4.335	0.491
1120.500	635.317	80.002	19.997	100.692	20.271	4.519	0.500
1121.000	635.580	80.004	19.994	100.695	20.271	4.521	0.514
1121.499	635.848	80.002	19.996	100.695	20.269	4.619	0.520
1122.000	636.119	80.002	19.995	100.696	20.273	4.375	0.535
1122.500	636.377	80.003	19.996	100.701	20.272	4.445	0.533
1123.000	636.604	80.003	19.996	100.701	20.271	4.525	0.507
1123.501	636.865	80.002	19.994	100.699	20.271	4.517	0.487
1124.000	637.111	80.003	19.996	100.699	20.268	4.682	0.498
1124.499	637.393	80.003	19.995	100.701	20.271	4.510	0.518
1124.999	637.632	80.002	19.995	100.698	20.276	4.150	0.524
1125.499	637.896	80.003	19.995	100.697	20.275	4.273	0.512
1125.999	638.139	80.004	19.997	100.695	20.274	4.284	0.505
1126.499	638.414	80.005	19.996	100.694	20.272	4.461	0.513
1126.999	638.698	80.003	19.996	100.692	20.268	4.740	0.539
1127.499	638.931	80.003	19.997	100.691	20.272	4.476	0.538
1128.000	639.207	80.004	19.996	100.690	20.272	4.431	0.513
1128.500	639.450	80.002	19.995	100.690	20.273	4.382	0.514
1128.999	639.704	80.004	19.996	100.690	20.272	4.438	0.508
1129.499	639.997	80.002	19.996	100.690	20.276	4.186	0.522
1130.000	640.205	80.002	19.996	100.690	20.271	4.521	0.524
1130.500	640.494	80.003	19.995	100.690	20.272	4.470	0.499
1130.999	640.757	80.002	19.996	100.690	20.268	4.707	0.524
1131.499	640.999	80.002	19.995	100.690	20.269	4.635	0.529
1131.999	641.261	80.002	19.996	100.691	20.270	4.575	0.505
1132.499	641.507	80.002	19.997	100.692	20.269	4.610	0.506
1132.999	641.776	80.002	19.996	100.693	20.267	4.756	0.512
1133.499	642.036	80.002	19.996	100.693	20.268	4.729	0.522
1133.999	642.279	80.003	19.997	100.694	20.267	4.767	0.515
1134.499	642.557	80.003	19.996	100.693	20.270	4.570	0.512
1134.999	642.812	80.002	19.996	100.692	20.271	4.496	0.527
1135.499	643.047	80.001	19.997	100.691	20.270	4.566	0.512
1135.999	643.267	80.002	19.995	100.691	20.269	4.620	0.473
1136.499	643.594	80.002	19.995	100.691	20.272	4.441	0.501
1136.999	643.829	80.001	19.997	100.691	20.272	4.465	0.555
1137.499	644.107	80.003	19.997	100.692	20.275	4.261	0.537
1137.999	644.362	80.002	19.996	100.693	20.273	4.347	0.522
1138.499	644.609	80.002	19.996	100.692	20.272	4.420	0.517
1138.999	644.867	80.000	19.996	100.692	20.271	4.483	0.504
1139.499	645.149	80.002	19.997	100.692	20.272	4.413	0.523
1139.999	645.390	80.001	19.995	100.691	20.271	4.496	0.531
1140.499	645.663	80.002	19.995	100.690	20.273	4.366	0.518
1140.999	645.866	80.002	19.995	100.690	20.273	4.411	0.495
1141.499	646.131	80.002	19.996	100.691	20.269	4.622	0.472
1141.999	646.411	80.002	19.997	100.692	20.271	4.496	0.506
1142.499	646.667	80.002	19.996	100.693	20.268	4.721	0.541
1142.999	646.922	80.003	19.995	100.694	20.272	4.430	0.524
1143.499	647.141	80.004	19.996	100.696	20.274	4.299	0.492
1143.999	647.437	80.003	19.996	100.699	20.270	4.557	0.494
1144.499	647.670	80.004	19.996	100.702	20.274	4.322	0.522
1144.999	647.918	80.003	19.996	100.702	20.273	4.402	0.505
1145.500	648.184	80.005	19.996	100.701	20.275	4.261	0.498
1146.000	648.429	80.003	19.996	100.700	20.275	4.233	0.513
1146.499	648.685	80.003	19.997	100.696	20.270	4.575	0.506
1146.999	648.926	80.003	19.996	100.691	20.274	4.333	0.499
1147.499	649.208	80.005	19.995	100.691	20.272	4.419	0.510
1147.999	649.495	80.004	19.996	100.690	20.274	4.291	0.546
1148.499	649.754	80.004	19.996	100.689	20.276	4.201	0.558
1148.999	649.989	80.004	19.997	100.688	20.271	4.492	0.520
1149.499	650.290	80.004	19.996	100.689	20.269	4.658	0.515
1149.999	650.520	80.003	19.998	100.691	20.276	4.199	0.533
1150.500	650.793	80.004	19.996	100.697	20.271	4.541	0.517
1151.000	651.032	80.004	19.996	100.702	20.275	4.233	0.508
1151.499	651.307	80.003	19.998	100.702	20.268	4.720	0.513
1151.999	651.552	80.004	19.997	100.701	20.271	4.517	0.516
1152.499	651.789	80.005	19.996	100.697	20.266	4.832	0.501
1153.000	652.059	80.003	19.995	100.691	20.273	4.353	0.495
1153.500	652.311	80.004	19.996	100.686	20.278	4.042	0.515
1153.999	652.592	80.004	19.998	100.686	20.273	4.376	0.527
1154.499	652.819	80.003	19.995	100.688	20.273	4.358	0.520
1154.999	653.099	80.003	19.997	100.690	20.266	4.808	0.507
1155.499	653.307	80.004	19.996	100.690	20.272	4.438	0.498
1155.999	653.586	80.003	19.996	100.690	20.267	4.790	0.488
1156.499	653.844	80.002	19.997	100.690	20.271	4.501	0.512
1156.999	654.087	80.004	19.996	100.688	20.273	4.389	0.519
1157.499	654.387	80.004	19.996	100.685	20.270	4.608	0.522
1157.999	654.626	80.002	19.995	100.686	20.272	4.467	0.541
1158.500	654.906	80.002	19.996	100.686	20.268	4.725	0.530
1159.001	655.167	80.003	19.995	100.686	20.269	4.669	0.530
1159.500	655.409	80.003	19.997	100.686	20.267	4.750	0.522
1160.000	655.670	80.003	19.996	100.687	20.270	4.560	0.503
1160.501	655.916	80.003	19.996	100.687	20.274	4.306	0.505
1161.000	656.137	80.004	19.997	100.687	20.275	4.248	0.487
1161.499	656.433	80.003	19.996	100.687	20.271	4.533	0.492
1161.999	656.691	80.002	19.996	100.686	20.271	4.499	0.536
1162.500	656.934	80.003	19.996	100.687	20.274	4.334	0.527
1163.001	657.205	80.002	19.996	100.688	20.273	4.392	0.508
1163.500	657.436	80.005	19.997	100.692	20.273	4.383	0.508
1163.999	657.694	80.002	19.996	100.692	20.276	4.202	0.495
1164.500	657.920	80.005	19.997	100.692	20.277	4.090	0.486
1165.000	658.166	80.005	19.997	100.692	20.272	4.445	0.478
1165.500	658.422	80.003	19.996	100.691	20.272	4.428	0.488
1166.000	658.653	80.003	19.995	100.688	20.275	4.257	0.495
1166.499	658.940	80.003	19.996	100.688	20.274	4.305	0.502
1166.999	659.182	80.005	19.997	100.688	20.272	4.427	0.523
1167.499	659.425	80.004	19.997	100.687	20.272	4.454	0.507
1167.999	659.708	80.004	19.998	100.687	20.271	4.521	0.506
1168.499	659.948	80.004	19.997	100.687	20.270	4.571	0.524
1168.999	660.164	80.006	19.997	100.687	20.272	4.437	0.489
1169.499	660.434	80.005	19.995	100.687	20.271	4.528	0.471
1169.999	660.689	80.006	19.997	100.686	20.271	4.517	0.506
1170.499	660.922	80.004	19.996	100.685	20.275	4.260	0.507
1170.999	661.173	80.005	19.997	100.684	20.273	4.400	0.486
1171.499	661.384	80.005	19.997	100.684	20.274	4.329	0.473
1172.000	661.686	80.004	19.998	100.683	20.272	4.449	0.488
1172.500	661.927	80.005	19.997	100.682	20.274	4.333	0.528
1172.999	662.125	80.004	19.996	100.683	20.270	4.559	0.491
1173.499	662.439	80.005	19.997	100.683	20.269	4.667	0.475
1173.999	662.669	80.004	19.998	100.683	20.270	4.557	0.528
1174.499	662.927	80.005	19.996	100.683	20.268	4.695	0.516
1174.999	663.168	80.005	19.996	100.683	20.271	4.528	0.493
1175.499	663.428	80.004	19.995	100.682	20.269	4.668	0.500
1175.999	663.696	80.006	19.997	100.682	20.270	4.601	0.514
1176.499	663.924	80.004	19.998	100.681	20.272	4.431	0.511
1176.999	664.159	80.005	19.996	100.681	20.273	4.395	0.480
1177.499	664.397	80.004	19.995	100.682	20.273	4.396	0.468
1177.999	664.685	80.002	19.996	100.681	20.268	4.720	0.499
1178.499	664.915	80.002	19.997	100.682	20.269	4.658	0.522
1178.999	665.149	80.002	19.997	100.682	20.272	4.434	0.491
1179.499	665.428	80.003	19.997	100.683	20.272	4.420	0.488
1179.999	665.647	80.003	19.998	100.682	20.270	4.590	0.505
1180.499	665.888	80.003	19.995	100.683	20.272	4.476	0.479
1180.999	666.141	80.004	19.997	100.684	20.273	4.356	0.477
1181.499	666.405	80.001	19.997	100.685	20.267	4.794	0.506
1181.999	666.640	80.001	19.997	100.687	20.269	4.619	0.508
1182.499	666.900	80.003	19.996	100.687	20.270	4.561	0.497
1182.999	667.127	80.003	19.997	100.688	20.274	4.333	0.491
1183.499	667.378	80.003	19.996	100.688	20.272	4.438	0.483
1183.999	667.628	80.003	19.997	100.688	20.271	4.510	0.489
1184.499	667.862	80.003	19.997	100.691	20.269	4.656	0.493
1184.999	668.111	80.002	19.996	100.694	20.268	4.678	0.484
1185.499	668.353	80.004	19.995	100.694	20.269	4.628	0.487
1185.999	668.604	80.003	19.995	100.696	20.271	4.515	0.492
1186.499	668.873	80.003	19.997	100.697	20.269	4.651	0.506
1186.999	669.115	80.004	19.996	100.694	20.267	4.743	0.515
1187.500	669.349	80.004	19.998	100.693	20.271	4.478	0.493
1188.000	669.623	80.002	19.996	100.695	20.271	4.510	0.492
1188.499	669.865	80.003	19.996	100.694	20.270	4.573	0.512
1188.999	670.114	80.002	19.996	100.693	20.266	4.834	0.504
1189.499	670.327	80.002	19.996	100.691	20.270	4.582	0.476
1189.999	670.577	80.002	19.995	100.691	20.267	4.787	0.462
1190.499	670.825	80.002	19.996	100.689	20.269	4.613	0.481
1190.999	671.130	80.001	19.996	100.689	20.273	4.405	0.526
1191.499	671.420	80.003	19.995	100.690	20.266	4.850	0.574
1191.999	671.613	80.002	19.995	100.691	20.271	4.508	0.539
1192.499	671.894	80.003	19.995	100.691	20.272	4.463	0.479
1192.999	672.130	80.003	19.996	100.692	20.267	4.788	0.495
1193.499	672.330	80.003	19.996	100.692	20.266	4.817	0.476
1193.999	672.616	80.002	19.997	100.691	20.274	4.306	0.461
1194.499	672.865	80.003	19.996	100.690	20.268	4.694	0.511
1194.999	673.105	80.002	19.997	100.691	20.264	4.949	0.512
1195.499	673.316	80.003	19.996	100.689	20.270	4.573	0.470
1195.999	673.601	80.002	19.996	100.689	20.267	4.770	0.474
1196.499	673.852	80.001	19.994	100.689	20.271	4.535	0.516
1196.999	674.095	80.003	19.997	100.689	20.271	4.535	0.515
1197.499	674.371	80.002	19.995	100.688	20.268	4.692	0.506
1197.999	674.629	80.003	19.997	100.689	20.268	4.692	0.526
1198.499	674.883	80.003	19.995	100.690	20.271	4.524	0.523
1198.999	675.164	80.002	19.997	100.690	20.270	4.597	0.524
1199.499	675.404	80.002	19.996	100.690	20.273	4.407	0.528
1199.999	675.628	80.003	19.997	100.689	20.270	4.602	0.493
1200.499	675.898	80.004	19.995	100.689	20.269	4.664	0.479
1200.999	676.125	80.003	19.996	100.689	20.268	4.709	0.495
1201.499	676.391	80.004	19.995	100.688	20.266	4.870	0.495
1201.999	676.635	80.004	19.996	100.688	20.268	4.738	0.502
1202.499	676.864	80.003	19.997	100.688	20.265	4.893	0.492
1202.999	677.122	80.003	19.996	100.688	20.270	4.561	0.480
1203.499	677.351	80.002	19.995	100.688	20.269	4.622	0.487
1203.999	677.643	80.005	19.996	100.686	20.266	4.861	0.504
1204.499	677.892	80.004	19.996	100.686	20.264	4.967	0.530
1204.999	678.123	80.002	19.995	100.686	20.268	4.734	0.510
1205.499	678.426	80.003	19.995	100.686	20.269	4.640	0.507
1205.999	678.617	80.002	19.996	100.686	20.271	4.506	0.514
1206.499	678.869	80.003	19.996	100.688	20.267	4.767	0.468
1206.999	679.125	80.001	19.996	100.688	20.267	4.754	0.475
1207.499	679.398	80.003	19.997	100.686	20.271	4.530	0.519
1207.999	679.612	80.003	19.996	100.685	20.267	4.747	0.508
1208.499	679.915	80.002	19.996	100.685	20.265	4.929	0.502
1209.000	680.138	80.002	19.995	100.684	20.267	4.774	0.522
1209.500	680.360	80.002	19.995	100.685	20.268	4.687	0.485
1209.999	680.653	80.003	19.995	100.687	20.266	4.852	0.480
1210.499	680.907	80.001	19.995	100.688	20.264	4.994	0.531
1210.999	681.148	80.002	19.996	100.689	20.270	4.555	0.521
1211.499	681.409	80.002	19.996	100.691	20.266	4.868	0.499
1211.999	681.627	80.001	19.996	100.691	20.266	4.821	0.491
1212.499	681.900	80.004	19.996	100.691	20.267	4.788	0.485
1212.999	682.167	80.003	19.994	100.691	20.274	4.318	0.515
1213.499	682.392	80.001	19.995	100.690	20.270	4.590	0.516
1213.999	682.641	80.002	19.996	100.689	20.266	4.861	0.483
1214.499	682.886	80.003	19.995	100.689	20.269	4.664	0.483
1214.999	683.118	80.002	19.996	100.689	20.267	4.756	0.485
1215.499	683.374	80.002	19.995	100.688	20.267	4.752	0.483
1215.999	683.644	80.004	19.995	100.688	20.269	4.624	0.507
1216.499	683.892	80.003	19.996	100.688	20.271	4.533	0.522
1216.999	684.165	80.001	19.996	100.687	20.270	4.566	0.519
1217.500	684.394	80.001	19.997	100.687	20.269	4.624	0.511
1218.001	684.677	80.002	19.996	100.687	20.272	4.436	0.507
1218.500	684.893	80.003	19.995	100.687	20.269	4.638	0.506
1218.999	685.173	80.002	19.995	100.688	20.271	4.521	0.498
1219.499	685.445	80.001	19.995	100.688	20.270	4.570	0.524
1219.999	685.719	80.004	19.994	100.688	20.268	4.707	0.549
1220.499	685.961	80.002	19.995	100.688	20.264	4.989	0.531
1220.999	686.176	80.003	19.996	100.687	20.267	4.774	0.486
1221.499	686.419	80.002	19.995	100.686	20.265	4.877	0.457
1221.999	686.671	80.003	19.996	100.686	20.270	4.593	0.477
1222.500	686.945	80.003	19.994	100.686	20.269	4.656	0.511
1223.001	687.220	80.002	19.995	100.687	20.268	4.676	0.538
1223.500	687.489	80.004	19.995	100.687	20.267	4.749	0.547
1223.999	687.736	80.004	19.995	100.688	20.272	4.450	0.530
1224.499	687.998	80.004	19.995	100.688	20.268	4.738	0.512
1224.999	688.216	80.004	19.996	100.688	20.266	4.812	0.494
1225.499	688.474	80.003	19.995	100.687	20.270	4.550	0.478
1225.999	688.703	80.005	19.996	100.687	20.270	4.608	0.482
1226.499	689.017	80.005	19.995	100.687	20.266	4.850	0.515
1226.999	689.268	80.005	19.996	100.687	20.263	5.007	0.553
1227.499	689.520	80.006	19.996	100.687	20.264	4.983	0.534
1227.999	689.767	80.005	19.996	100.686	20.271	4.539	0.501
1228.499	690.035	80.006	19.996	100.687	20.268	4.728	0.507
1228.999	690.277	80.005	19.995	100.689	20.269	4.642	0.513
1229.499	690.553	80.005	19.996	100.688	20.267	4.772	0.515
1229.999	690.806	80.004	19.996	100.692	20.270	4.598	0.524
1230.500	691.074	80.005	19.995	100.693	20.267	4.748	0.525
1231.000	691.328	80.006	19.996	100.692	20.270	4.602	0.521
1231.499	691.562	80.007	19.996	100.690	20.271	4.523	0.505
1231.999	691.837	80.003	19.996	100.690	20.261	5.135	0.498
1232.499	692.093	80.004	19.997	100.687	20.267	4.765	0.520
1232.999	692.343	80.003	19.996	100.686	20.267	4.790	0.519
1233.499	692.608	80.004	19.996	100.687	20.268	4.714	0.511
1233.999	692.865	80.004	19.996	100.687	20.264	4.955	0.519
1234.499	693.133	80.003	19.996	100.688	20.269	4.620	0.523
1234.999	693.392	80.004	19.996	100.688	20.268	4.676	0.526
1235.500	693.639	80.005	19.996	100.688	20.269	4.674	0.516
1236.000	693.898	80.005	19.997	100.687	20.269	4.660	0.505
1236.499	694.159	80.003	19.996	100.687	20.266	4.812	0.513
1236.999	694.413	80.005	19.996	100.686	20.267	4.788	0.518
1237.499	694.684	80.003	19.995	100.685	20.269	4.667	0.520
1237.999	694.916	80.005	19.996	100.683	20.268	4.707	0.515
1238.499	695.179	80.005	19.996	100.683	20.266	4.828	0.499
1238.999	695.459	80.004	19.996	100.683	20.271	4.517	0.519
1239.499	695.722	80.002	19.997	100.683	20.266	4.861	0.543
1239.999	695.963	80.005	19.996	100.684	20.266	4.806	0.524
1240.500	696.213	80.003	19.997	100.685	20.269	4.609	0.498
1241.000	696.496	80.004	19.997	100.685	20.264	4.966	0.512
1241.499	696.721	80.003	19.996	100.685	20.267	4.743	0.520
1241.999	697.001	80.003	19.996	100.685	20.273	4.385	0.507
1242.499	697.255	80.002	19.996	100.687	20.267	4.760	0.520
1242.999	697.521	80.005	19.998	100.687	20.264	4.944	0.527
1243.499	697.747	80.005	19.996	100.687	20.268	4.685	0.506
1243.999	698.021	80.002	19.996	100.687	20.268	4.702	0.496
1244.499	698.286	80.001	19.997	100.686	20.270	4.590	0.519
1244.999	698.546	80.003	19.997	100.685	20.267	4.768	0.532
1245.499	698.798	80.002	19.996	100.685	20.268	4.729	0.519
1246.000	699.071	80.005	19.996	100.684	20.272	4.463	0.519
1246.500	699.310	80.003	19.996	100.684	20.269	4.633	0.518
1247.000	699.573	80.005	19.996	100.685	20.265	4.893	0.507
1247.500	699.836	80.005	19.996	100.685	20.271	4.539	0.514
1247.999	700.096	80.006	19.995	100.685	20.270	4.582	0.525
1248.499	700.345	80.003	19.996	100.686	20.268	4.725	0.516
1248.999	700.606	80.002	19.996	100.687	20.270	4.546	0.510
1249.499	700.858	80.004	19.995	100.687	20.272	4.445	0.511
1249.999	701.116	80.004	19.995	100.687	20.269	4.653	0.511
1250.499	701.367	80.005	19.997	100.687	20.266	4.837	0.509
1250.999	701.626	80.003	19.994	100.688	20.265	4.881	0.510
1251.500	701.876	80.003	19.996	100.689	20.266	4.846	0.510
1252.001	702.122	80.003	19.998	100.690	20.269	4.646	0.503
1252.500	702.363	80.004	19.997	100.690	20.270	4.572	0.492
1252.999	702.603	80.003	19.996	100.690	20.269	4.626	0.484
1253.499	702.846	80.004	19.997	100.690	20.271	4.514	0.482
1253.999	703.110	80.004	19.996	100.688	20.272	4.447	0.495
1254.499	703.389	80.005	19.996	100.687	20.266	4.846	0.525
1254.999	703.641	80.006	19.996	100.688	20.271	4.524	0.537
1255.499	703.893	80.007	19.994	100.688	20.268	4.682	0.517
1255.999	704.162	80.004	19.997	100.689	20.265	4.891	0.512
1256.499	704.349	80.004	19.995	100.690	20.270	4.593	0.488
1256.999	704.642	80.004	19.995	100.689	20.268	4.687	0.468
1257.499	704.889	80.004	19.995	100.688	20.266	4.863	0.510
1257.999	705.127	80.003	19.995	100.688	20.268	4.680	0.513
1258.499	705.381	80.005	19.996	100.687	20.269	4.651	0.488
1258.999	705.671	80.004	19.995	100.686	20.267	4.761	0.518
1259.499	705.906	80.004	19.996	100.687	20.272	4.448	0.535
1259.999	706.151	80.003	19.996	100.687	20.269	4.638	0.503
1260.499	706.396	80.004	19.996	100.687	20.268	4.734	0.485
1261.000	706.670	80.002	19.997	100.689	20.268	4.707	0.504
1261.500	706.905	80.001	19.997	100.689	20.266	4.841	0.514
1261.999	707.169	80.003	19.996	100.693	20.268	4.711	0.504
1262.500	707.428	80.003	19.996	100.693	20.267	4.781	0.512
1263.000	707.658	80.002	19.997	100.693	20.265	4.901	0.506
1263.499	707.925	80.000	19.996	100.694	20.267	4.803	0.492
1264.000	708.166	80.000	19.997	100.694	20.265	4.921	0.502
1264.500	708.395	80.002	19.997	100.691	20.269	4.639	0.489
1264.999	708.629	80.000	19.997	100.690	20.265	4.890	0.467
1265.499	708.921	80.000	19.997	100.690	20.267	4.747	0.495
1265.999	709.169	80.003	19.997	100.689	20.266	4.816	0.533
1266.499	709.399	80.000	19.996	100.688	20.270	4.600	0.509
1266.999	709.673	80.001	19.996	100.689	20.267	4.790	0.491
1267.499	709.931	80.000	19.996	100.690	20.262	5.094	0.518
1267.999	710.197	80.001	19.996	100.689	20.268	4.718	0.527
1268.499	710.391	80.000	19.998	100.689	20.267	4.754	0.492
1268.999	710.662	80.000	19.996	100.688	20.267	4.761	0.462
1269.499	710.907	79.999	19.997	100.687	20.267	4.785	0.490
1269.999	711.188	80.002	19.996	100.686	20.267	4.779	0.521
1270.499	711.434	80.001	19.997	100.686	20.266	4.843	0.527
1270.999	711.662	79.998	19.998	100.687	20.266	4.855	0.500
1271.499	711.887	80.001	19.997	100.688	20.265	4.917	0.463
1271.999	712.202	79.997	19.997	100.689	20.267	4.799	0.496
1272.499	712.438	80.002	19.997	100.688	20.265	4.933	0.546
1272.999	712.691	79.998	19.997	100.689	20.267	4.783	0.520
1273.499	712.958	79.999	19.997	100.689	20.267	4.792	0.505
1273.999	713.171	80.002	19.996	100.691	20.264	4.949	0.500
1274.500	713.439	80.002	19.996	100.691	20.265	4.918	0.481
1275.000	713.703	80.002	19.997	100.694	20.265	4.893	0.506
1275.499	713.925	80.000	19.996	100.693	20.268	4.701	0.508
1275.999	714.154	80.001	19.995	100.692	20.267	4.754	0.468
1276.499	714.415	80.003	19.996	100.691	20.266	4.808	0.471
1277.000	714.672	80.003	19.996	100.691	20.267	4.765	0.504
1277.500	714.926	80.001	19.997	100.689	20.268	4.727	0.515
1278.000	715.213	80.000	19.995	100.691	20.266	4.837	0.526
1278.500	715.454	80.003	19.996	100.691	20.264	4.949	0.535
1279.000	715.669	80.001	19.995	100.691	20.265	4.899	0.492
1279.501	715.959	80.002	19.996	100.690	20.266	4.815	0.480
1280.000	716.233	80.001	19.995	100.690	20.269	4.674	0.534
1280.499	716.445	80.001	19.995	100.689	20.272	4.438	0.525
1280.999	716.741	80.001	19.995	100.688	20.268	4.729	0.497
1281.499	716.937	80.003	19.995	100.688	20.266	4.859	0.500
1281.999	717.209	80.002	19.996	100.688	20.266	4.839	0.480
1282.500	717.468	80.004	19.995	100.688	20.268	4.711	0.500
1283.000	717.709	80.000	19.995	100.689	20.266	4.859	0.515
1283.499	717.959	80.001	19.997	100.688	20.266	4.834	0.495
1283.999	718.189	80.002	19.997	100.688	20.267	4.797	0.485
1284.499	718.488	80.002	19.996	100.688	20.260	5.200	0.504
1284.999	718.708	80.003	19.996	100.685	20.266	4.848	0.524
1285.499	718.948	80.002	19.997	100.684	20.266	4.830	0.490
1286.000	719.178	80.002	19.996	100.684	20.268	4.685	0.465
1286.500	719.465	80.001	19.996	100.683	20.261	5.146	0.494
1286.999	719.712	80.002	19.995	100.683	20.264	4.998	0.526
1287.499	719.940	80.003	19.996	100.685	20.262	5.126	0.505
1287.999	720.178	80.003	19.997	100.685	20.265	4.924	0.470
1288.500	720.426	80.004	19.998	100.685	20.265	4.873	0.476
1289.000	720.681	80.004	19.996	100.686	20.262	5.096	0.494
1289.499	720.932	80.001	19.998	100.685	20.265	4.890	0.504
1289.999	721.167	80.001	19.995	100.686	20.264	4.944	0.496
1290.499	721.416	80.003	19.996	100.686	20.267	4.754	0.485
1290.999	721.685	80.001	19.998	100.686	20.266	4.810	0.501
1291.499	721.920	80.001	19.996	100.687	20.266	4.857	0.511
1291.999	722.147	80.002	19.995	100.687	20.267	4.786	0.483
1292.499	722.428	80.001	19.996	100.688	20.264	4.969	0.485
1292.999	722.634	80.000	19.996	100.689	20.266	4.832	0.497
1293.499	722.902	80.000	19.996	100.689	20.268	4.738	0.481
1293.999	723.107	80.001	19.996	100.687	20.267	4.767	0.474
1294.499	723.397	79.999	19.997	100.687	20.269	4.635	0.484
1294.999	723.669	80.002	19.996	100.687	20.265	4.927	0.529
1295.499	723.909	80.000	19.996	100.686	20.267	4.779	0.537
1295.999	724.177	80.003	19.997	100.685	20.267	4.765	0.510
1296.499	724.408	80.002	19.998	100.687	20.269	4.673	0.503
1297.000	724.628	80.004	19.996	100.686	20.268	4.720	0.475
1297.501	724.880	80.002	19.995	100.686	20.268	4.725	0.462
1298.001	725.137	80.001	19.997	100.686	20.265	4.875	0.491
1298.500	725.388	80.002	19.997	100.687	20.264	4.973	0.508
1298.999	725.625	80.002	19.998	100.686	20.260	5.224	0.498
1299.499	725.894	80.002	19.996	100.687	20.265	4.937	0.497
1299.999	726.103	80.002	19.996	100.688	20.265	4.879	0.492
1300.499	726.353	80.002	19.998	100.688	20.263	5.016	0.468
1300.999	726.611	80.003	19.996	100.688	20.262	5.110	0.483
1301.499	726.843	80.003	19.996	100.688	20.266	4.808	0.499
1301.999	727.069	80.001	19.997	100.687	20.264	4.962	0.474
1302.499	727.326	80.003	19.996	100.687	20.265	4.882	0.471
1303.000	727.545	80.002	19.997	100.686	20.265	4.909	0.480
1303.500	727.796	80.004	19.997	100.687	20.260	5.218	0.473
1303.999	728.093	80.003	19.997	100.687	20.263	5.023	0.509
1304.499	728.333	80.004	19.995	100.687	20.267	4.745	0.542
1304.999	728.608	80.003	19.995	100.687	20.263	5.056	0.526
1305.499	728.834	80.003	19.997	100.687	20.266	4.844	0.508
1305.999	729.100	80.002	19.996	100.687	20.264	4.985	0.497
1306.499	729.357	80.003	19.996	100.688	20.266	4.844	0.508
1307.000	729.595	80.002	19.997	100.689	20.265	4.937	0.509
1307.500	729.839	80.005	19.995	100.690	20.266	4.816	0.488
1308.000	730.082	80.004	19.996	100.690	20.266	4.812	0.484
1308.500	730.333	80.004	19.995	100.689	20.265	4.906	0.490
1308.999	730.601	80.002	19.996	100.690	20.263	5.050	0.507
1309.499	730.839	80.002	19.996	100.688	20.262	5.108	0.513
1310.000	731.095	80.005	19.995	100.687	20.269	4.615	0.500
1310.500	731.347	80.001	19.996	100.686	20.265	4.909	0.501
1310.999	731.597	80.005	19.996	100.686	20.264	4.964	0.505
1311.500	731.845	80.004	19.996	100.683	20.266	4.850	0.500
1312.000	732.106	80.004	19.997	100.683	20.267	4.750	0.504
1312.499	732.339	80.005	19.996	100.683	20.266	4.864	0.501
1313.000	732.575	80.004	19.996	100.683	20.266	4.872	0.481
1313.501	732.837	80.003	19.996	100.683	20.262	5.103	0.483
1314.000	733.091	80.004	19.996	100.686	20.262	5.074	0.507
1314.499	733.357	80.004	19.997	100.684	20.264	4.998	0.518
1315.000	733.569	80.003	19.995	100.684	20.267	4.790	0.499
1315.501	733.807	80.002	19.996	100.685	20.263	5.011	0.464
1316.000	734.083	80.002	19.995	100.685	20.266	4.832	0.482
1316.500	734.288	80.002	19.994	100.686	20.262	5.088	0.498
1317.000	734.550	80.002	19.996	100.689	20.263	5.059	0.474
1317.499	734.798	80.001	19.995	100.689	20.263	5.025	0.488
1317.999	735.030	80.001	19.995	100.689	20.263	5.061	0.495
1318.499	735.287	80.002	19.996	100.690	20.263	5.065	0.484
1318.999	735.509	80.004	19.996	100.689	20.263	5.054	0.484
1319.499	735.797	80.002	19.995	100.689	20.263	5.067	0.495
1319.999	736.007	80.003	19.995	100.689	20.263	5.061	0.503
1320.499	736.275	80.005	19.995	100.688	20.262	5.070	0.488
1320.999	736.567	80.002	19.996	100.688	20.262	5.099	0.519
1321.500	736.790	80.003	19.995	100.687	20.265	4.913	0.537
1322.000	737.040	80.003	19.995	100.688	20.264	4.965	0.494
1322.499	737.274	80.002	19.996	100.688	20.262	5.125	0.479
1322.999	737.510	80.003	19.994	100.689	20.264	4.978	0.477
1323.499	737.762	80.003	19.995	100.688	20.262	5.070	0.479
1324.000	738.013	79.999	19.995	100.689	20.261	5.135	0.495
1324.500	738.223	80.002	19.994	100.688	20.262	5.076	0.482
1324.999	738.456	80.001	19.997	100.689	20.259	5.321	0.452
1325.499	738.767	80.001	19.996	100.688	20.262	5.110	0.494
1325.999	738.998	80.000	19.996	100.689	20.258	5.354	0.543
1326.499	739.260	80.004	19.995	100.688	20.264	4.989	0.517
1326.999	739.507	80.004	19.997	100.688	20.265	4.924	0.501
1327.499	739.736	79.999	19.996	100.688	20.259	5.314	0.493
1327.999	739.989	80.003	19.996	100.688	20.265	4.893	0.479
1328.499	740.258	80.002	19.995	100.688	20.261	5.141	0.502
1328.999	740.508	80.002	19.996	100.689	20.262	5.103	0.520
1329.500	740.719	80.003	19.997	100.690	20.263	5.034	0.489
1330.000	740.982	80.004	19.996	100.690	20.261	5.199	0.467
1330.499	741.255	80.001	19.995	100.687	20.263	5.041	0.505
1330.999	741.483	80.003	19.997	100.687	20.264	4.980	0.518
1331.499	741.736	80.003	19.995	100.686	20.263	5.018	0.491
1331.999	741.990	80.002	19.996	100.685	20.265	4.882	0.494
1332.499	742.258	80.004	19.997	100.685	20.263	5.056	0.514
1332.999	742.497	80.003	19.996	100.688	20.262	5.087	0.514
1333.499	742.728	80.004	19.995	100.688	20.262	5.101	0.489
1333.999	742.981	80.003	19.995	100.687	20.263	5.014	0.477
1334.500	743.221	80.002	19.996	100.685	20.263	5.052	0.489
1335.000	743.497	80.003	19.997	100.685	20.260	5.231	0.505
1335.499	743.747	80.004	19.996	100.685	20.263	5.059	0.521
