Sample ID:	C:\MCC\MCC Cal\Test\Bean_Bag_Chair_Outer_Cover\Bean_Bag_Chair_Outer_Cover_MCC_30K_min_220330_R6.txt
Sample Weight (mg):	4.94
Heating Rate (C/s):	0.5
Combustor Temp (C):	900
N2 Flow Rate (cc/min):	80
O2 Flow Rate (cc/min):	20
Calibration File:	C:\MCC\MCC Cal\Coeff1 JN10440_30_210304.txt.txt
T Correction Coefficients:	0	1.024463	0
Time Shift (s):	14
*
Time (s)	Temperature (C)	N2 flow rate (cc/min)	O2 flow rate (cc/min)	Flow Rate (cc/min)	Oxygen (%)	HRR (W/g)	Heating rate (C/s)
0.000	108.526	80.010	19.992	103.685	20.079	-0.071	-0.028
0.500	108.523	80.011	19.993	103.683	20.078	-0.029	-0.015
1.000	108.516	80.011	19.993	103.682	20.080	-0.163	0.004
1.500	108.509	80.012	19.994	103.679	20.077	0.054	-0.012
2.000	108.489	80.011	19.993	103.677	20.076	0.081	-0.021
2.500	108.473	80.011	19.993	103.675	20.079	-0.072	-0.032
3.000	108.512	80.011	19.993	103.671	20.077	0.033	-0.006
3.500	108.460	80.012	19.992	103.671	20.078	0.009	0.005
4.000	108.478	80.013	19.994	103.671	20.080	-0.138	-0.024
4.500	108.469	80.011	19.993	103.676	20.076	0.136	-0.013
5.002	108.493	80.012	19.994	103.683	20.077	0.062	0.012
5.501	108.472	80.013	19.992	103.684	20.079	-0.063	0.009
6.001	108.488	80.012	19.992	103.684	20.075	0.169	-0.001
6.501	108.504	80.012	19.993	103.682	20.076	0.082	0.013
7.001	108.492	80.012	19.994	103.680	20.076	0.083	0.018
7.501	108.488	80.013	19.993	103.675	20.077	0.051	-0.006
8.001	108.475	80.012	19.993	103.676	20.075	0.150	-0.016
8.500	108.492	80.012	19.993	103.678	20.075	0.185	-0.007
9.001	108.478	80.010	19.994	103.681	20.075	0.172	0.003
9.501	108.502	80.014	19.994	103.680	20.076	0.085	0.007
10.000	108.477	80.013	19.994	103.681	20.074	0.221	0.005
10.500	108.514	80.012	19.992	103.684	20.074	0.228	0.005
11.000	108.489	80.013	19.994	103.688	20.071	0.469	0.012
11.500	108.495	80.013	19.993	103.695	20.071	0.448	-0.004
12.000	108.487	80.014	19.993	103.690	20.071	0.433	-0.011
12.500	108.492	80.013	19.993	103.664	20.068	0.633	-0.003
13.000	108.504	80.014	19.992	103.641	20.072	0.346	0.007
13.500	108.515	80.012	19.992	103.627	20.074	0.270	0.020
14.000	108.498	80.012	19.992	103.617	20.070	0.533	0.009
14.500	108.507	80.013	19.992	103.627	20.071	0.419	-0.007
15.000	108.502	80.012	19.993	103.665	20.068	0.663	-0.002
15.500	108.503	80.014	19.992	103.736	20.070	0.515	-0.000
16.000	108.532	80.012	19.993	103.787	20.069	0.544	0.013
16.500	108.524	80.013	19.992	103.815	20.069	0.557	0.026
17.000	108.554	80.013	19.993	103.830	20.069	0.593	0.022
17.500	108.561	80.011	19.991	103.836	20.066	0.785	0.029
18.000	108.560	80.012	19.993	103.800	20.067	0.691	0.021
18.500	108.575	80.011	19.992	103.771	20.065	0.845	0.010
19.000	108.547	80.012	19.992	103.752	20.064	0.907	0.000
19.500	108.553	80.011	19.992	103.743	20.062	1.032	-0.018
20.000	108.575	80.010	19.994	103.740	20.061	1.074	0.003
20.500	108.579	80.010	19.993	103.746	20.062	1.017	0.027
21.000	108.601	80.011	19.993	103.758	20.062	1.045	0.026
21.500	108.640	80.011	19.993	103.779	20.059	1.257	0.044
22.000	108.645	80.011	19.993	103.794	20.059	1.233	0.053
22.500	108.659	80.010	19.993	103.804	20.059	1.237	0.031
23.000	108.669	80.010	19.993	103.807	20.058	1.313	0.021
23.500	108.718	80.009	19.994	103.806	20.053	1.603	0.042
24.000	108.738	80.011	19.993	103.800	20.055	1.484	0.064
24.500	108.749	80.011	19.993	103.798	20.053	1.625	0.050
25.000	108.783	80.009	19.992	103.803	20.055	1.498	0.038
25.500	108.765	80.010	19.994	103.808	20.055	1.498	0.031
26.000	108.821	80.010	19.994	103.814	20.052	1.654	0.027
26.500	108.872	80.010	19.994	103.819	20.055	1.517	0.072
27.000	108.924	80.010	19.994	103.822	20.051	1.729	0.105
27.500	108.910	80.010	19.994	103.824	20.050	1.794	0.071
28.000	108.979	80.012	19.995	103.831	20.047	2.043	0.047
28.500	109.037	80.011	19.993	103.838	20.049	1.854	0.091
29.000	109.061	80.011	19.993	103.846	20.050	1.791	0.105
29.500	109.109	80.010	19.994	103.854	20.051	1.780	0.077
30.000	109.125	80.010	19.994	103.858	20.048	1.934	0.068
30.500	109.175	80.010	19.994	103.858	20.046	2.079	0.065
31.000	109.221	80.010	19.994	103.857	20.045	2.146	0.081
31.500	109.280	80.010	19.995	103.858	20.045	2.155	0.101
32.001	109.332	80.009	19.994	103.858	20.046	2.110	0.108
32.500	109.357	80.009	19.994	103.860	20.041	2.413	0.094
33.000	109.427	80.011	19.994	103.868	20.043	2.259	0.086
33.500	109.444	80.010	19.994	103.872	20.040	2.497	0.091
34.000	109.516	80.009	19.993	103.874	20.040	2.457	0.088
34.500	109.625	80.009	19.994	103.879	20.039	2.512	0.135
35.000	109.650	80.010	19.995	103.884	20.039	2.572	0.157
35.500	109.690	80.010	19.993	103.885	20.039	2.508	0.099
36.001	109.786	80.010	19.994	103.889	20.041	2.412	0.100
36.501	109.867	80.010	19.993	103.894	20.040	2.506	0.156
37.000	109.906	80.011	19.993	103.894	20.040	2.470	0.149
37.500	110.029	80.009	19.994	103.894	20.039	2.550	0.142
38.000	110.094	80.010	19.994	103.895	20.037	2.684	0.175
38.500	110.131	80.009	19.994	103.896	20.035	2.833	0.145
39.000	110.254	80.010	19.993	103.896	20.034	2.866	0.131
39.500	110.332	80.011	19.992	103.897	20.035	2.817	0.180
40.000	110.398	80.012	19.994	103.897	20.037	2.697	0.172
40.500	110.489	80.011	19.994	103.897	20.035	2.824	0.150
41.000	110.588	80.010	19.992	103.898	20.034	2.848	0.174
41.500	110.637	80.010	19.994	103.900	20.035	2.808	0.169
42.001	110.728	80.011	19.993	103.902	20.033	2.947	0.144
42.501	110.839	80.011	19.992	103.906	20.030	3.107	0.171
43.000	110.941	80.011	19.993	103.913	20.032	3.004	0.208
43.500	111.034	80.012	19.993	103.918	20.032	3.002	0.204
44.001	111.103	80.011	19.992	103.926	20.028	3.278	0.179
44.501	111.223	80.011	19.992	103.933	20.029	3.211	0.175
45.000	111.319	80.012	19.994	103.937	20.030	3.153	0.202
45.500	111.422	80.009	19.993	103.938	20.031	3.042	0.207
46.000	111.499	80.012	19.993	103.939	20.029	3.176	0.189
46.500	111.627	80.010	19.992	103.939	20.027	3.305	0.192
47.001	111.707	80.011	19.994	103.939	20.030	3.113	0.206
47.501	111.827	80.010	19.993	103.939	20.030	3.125	0.204
48.000	111.904	80.010	19.993	103.940	20.030	3.120	0.199
48.500	112.046	80.011	19.993	103.940	20.028	3.249	0.208
49.000	112.159	80.012	19.993	103.940	20.026	3.403	0.237
49.500	112.252	80.011	19.993	103.942	20.026	3.371	0.231
50.001	112.386	80.010	19.993	103.943	20.026	3.364	0.217
50.501	112.494	80.009	19.993	103.942	20.029	3.171	0.235
51.000	112.608	80.011	19.992	103.943	20.026	3.427	0.232
51.500	112.756	80.009	19.992	103.943	20.026	3.422	0.242
52.000	112.833	80.010	19.993	103.941	20.024	3.551	0.244
52.500	112.980	80.010	19.992	103.942	20.027	3.342	0.225
53.000	113.110	80.011	19.995	103.942	20.026	3.395	0.250
53.500	113.229	80.011	19.995	103.944	20.024	3.557	0.263
54.000	113.377	80.011	19.994	103.947	20.025	3.450	0.258
54.500	113.492	80.009	19.993	103.951	20.027	3.346	0.265
55.000	113.620	80.009	19.994	103.952	20.024	3.519	0.253
55.500	113.781	80.009	19.994	103.953	20.023	3.617	0.266
56.000	113.914	80.009	19.993	103.951	20.026	3.411	0.292
56.500	114.058	80.010	19.994	103.948	20.024	3.502	0.285
57.000	114.195	80.010	19.993	103.945	20.026	3.428	0.279
57.500	114.306	80.011	19.993	103.944	20.025	3.479	0.265
58.000	114.464	80.010	19.993	103.943	20.026	3.428	0.259
58.500	114.605	80.009	19.992	103.943	20.021	3.700	0.284
59.000	114.715	80.009	19.992	103.946	20.023	3.622	0.274
59.500	114.921	80.010	19.992	103.948	20.023	3.593	0.283
60.000	115.051	80.009	19.993	103.952	20.021	3.724	0.326
60.500	115.235	80.010	19.993	103.954	20.021	3.731	0.325
61.000	115.366	80.009	19.995	103.959	20.024	3.548	0.315
61.500	115.510	80.009	19.997	103.963	20.024	3.500	0.295
62.000	115.675	80.010	19.996	103.968	20.022	3.636	0.292
62.500	115.796	80.009	19.995	103.972	20.024	3.556	0.298
63.000	115.980	80.011	19.994	103.976	20.026	3.364	0.295
63.500	116.162	80.009	19.994	103.978	20.021	3.743	0.335
64.000	116.304	80.009	19.993	103.978	20.022	3.636	0.345
64.500	116.453	80.011	19.994	103.979	20.020	3.812	0.307
65.000	116.614	80.010	19.992	103.980	20.024	3.558	0.300
65.500	116.804	80.010	19.992	103.980	20.023	3.577	0.330
66.000	116.948	80.010	19.993	103.980	20.020	3.780	0.343
66.500	117.131	80.011	19.992	103.980	20.021	3.695	0.331
67.000	117.344	80.011	19.992	103.980	20.018	3.934	0.362
67.501	117.498	80.011	19.993	103.979	20.020	3.780	0.382
68.001	117.678	80.011	19.992	103.979	20.022	3.627	0.351
68.500	117.844	80.013	19.993	103.979	20.020	3.789	0.340
69.000	118.022	80.012	19.992	103.979	20.019	3.845	0.345
69.500	118.224	80.012	19.992	103.978	20.018	3.929	0.361
70.000	118.372	80.013	19.992	103.978	20.019	3.841	0.365
70.500	118.574	80.013	19.993	103.977	20.017	3.996	0.350
71.000	118.760	80.012	19.992	103.976	20.018	3.912	0.369
71.500	118.903	80.012	19.993	103.977	20.019	3.825	0.359
72.000	119.080	80.012	19.993	103.977	20.019	3.881	0.325
72.500	119.264	80.013	19.993	103.978	20.018	3.910	0.341
73.000	119.472	80.012	19.992	103.977	20.017	3.956	0.376
73.500	119.681	80.013	19.992	103.974	20.016	4.079	0.405
74.000	119.852	80.012	19.992	103.973	20.016	4.021	0.398
74.501	120.015	80.012	19.992	103.972	20.018	3.918	0.357
75.001	120.197	80.012	19.992	103.972	20.016	4.061	0.340
75.501	120.403	80.013	19.993	103.973	20.018	3.921	0.367
76.000	120.626	80.013	19.993	103.976	20.019	3.841	0.409
76.500	120.835	80.013	19.992	103.978	20.017	4.007	0.431
77.000	120.974	80.013	19.992	103.978	20.017	4.018	0.390
77.500	121.194	80.011	19.992	103.978	20.015	4.110	0.353
78.000	121.400	80.012	19.992	103.977	20.016	4.056	0.392
78.500	121.619	80.012	19.992	103.976	20.021	3.707	0.426
79.000	121.833	80.012	19.993	103.975	20.019	3.868	0.429
79.500	122.015	80.013	19.992	103.974	20.019	3.829	0.415
80.000	122.216	80.013	19.993	103.972	20.017	3.994	0.390
80.500	122.408	80.012	19.993	103.973	20.018	3.917	0.388
81.000	122.617	80.012	19.993	103.973	20.021	3.732	0.396
81.500	122.854	80.013	19.993	103.974	20.017	3.976	0.423
82.000	123.022	80.011	19.993	103.975	20.017	3.981	0.426
82.500	123.261	80.011	19.992	103.974	20.016	4.043	0.406
83.001	123.422	80.012	19.992	103.973	20.018	3.947	0.403
83.501	123.638	80.012	19.992	103.972	20.019	3.827	0.388
84.000	123.844	80.011	19.993	103.971	20.020	3.774	0.399
84.500	124.108	80.013	19.991	103.969	20.019	3.863	0.446
85.000	124.285	80.012	19.992	103.968	20.021	3.705	0.456
85.500	124.498	80.013	19.992	103.970	20.021	3.749	0.416
86.000	124.661	80.012	19.994	103.971	20.019	3.885	0.383
86.500	124.928	80.013	19.992	103.971	20.018	3.889	0.403
87.000	125.104	80.012	19.991	103.973	20.018	3.912	0.436
87.500	125.335	80.012	19.993	103.975	20.016	4.057	0.425
88.000	125.586	80.012	19.992	103.976	20.017	3.963	0.445
88.500	125.796	80.013	19.993	103.975	20.019	3.870	0.472
89.000	126.018	80.013	19.992	103.971	20.020	3.767	0.446
89.500	126.237	80.013	19.992	103.970	20.018	3.932	0.436
90.000	126.461	80.013	19.993	103.967	20.018	3.888	0.442
90.500	126.656	80.013	19.992	103.967	20.018	3.894	0.432
91.000	126.861	80.013	19.992	103.965	20.018	3.910	0.410
91.500	127.145	80.012	19.992	103.966	20.020	3.787	0.444
92.000	127.332	80.012	19.992	103.968	20.021	3.722	0.480
92.500	127.548	80.014	19.992	103.971	20.023	3.611	0.437
93.000	127.823	80.013	19.993	103.971	20.020	3.789	0.447
93.500	128.016	80.014	19.992	103.974	20.021	3.741	0.479
94.000	128.220	80.014	19.993	103.977	20.020	3.776	0.432
94.500	128.438	80.014	19.993	103.976	20.021	3.741	0.409
95.000	128.706	80.012	19.992	103.975	20.022	3.689	0.454
95.500	128.873	80.012	19.992	103.975	20.021	3.722	0.461
96.000	129.102	80.013	19.993	103.975	20.018	3.925	0.416
96.500	129.384	80.014	19.992	103.975	20.016	4.041	0.453
97.000	129.587	80.013	19.993	103.975	20.017	4.016	0.498
97.500	129.818	80.015	19.992	103.974	20.018	3.925	0.460
98.000	130.061	80.014	19.992	103.972	20.017	3.969	0.454
98.500	130.272	80.013	19.992	103.972	20.021	3.711	0.464
99.000	130.538	80.014	19.993	103.971	20.017	3.980	0.466
99.500	130.736	80.012	19.993	103.970	20.016	4.076	0.471
100.000	130.963	80.012	19.992	103.970	20.017	3.981	0.444
100.500	131.209	80.013	19.993	103.968	20.018	3.925	0.449
101.000	131.418	80.013	19.993	103.964	20.019	3.834	0.464
101.500	131.639	80.012	19.993	103.964	20.019	3.825	0.442
102.000	131.899	80.012	19.993	103.966	20.015	4.101	0.455
102.500	132.095	80.012	19.993	103.966	20.016	4.072	0.469
103.000	132.352	80.012	19.993	103.970	20.018	3.943	0.454
103.500	132.576	80.011	19.993	103.974	20.018	3.894	0.467
104.000	132.821	80.011	19.993	103.973	20.017	3.979	0.475
104.500	133.067	80.012	19.992	103.969	20.017	3.985	0.480
105.001	133.335	80.011	19.993	103.969	20.015	4.112	0.502
105.502	133.570	80.010	19.993	103.969	20.020	3.770	0.509
106.001	133.810	80.011	19.993	103.970	20.016	4.034	0.489
106.500	134.056	80.011	19.993	103.973	20.020	3.776	0.481
107.001	134.269	80.011	19.994	103.977	20.020	3.761	0.472
107.501	134.516	80.011	19.993	103.978	20.017	3.994	0.459
108.000	134.793	80.011	19.993	103.977	20.019	3.841	0.493
108.500	135.015	80.011	19.994	103.976	20.015	4.119	0.512
109.000	135.244	80.010	19.994	103.975	20.017	4.017	0.475
109.500	135.506	80.010	19.993	103.975	20.019	3.847	0.471
110.000	135.688	80.010	19.994	103.975	20.017	4.007	0.467
110.500	135.937	80.011	19.993	103.976	20.020	3.779	0.438
111.000	136.186	80.010	19.992	103.976	20.022	3.663	0.465
111.501	136.457	80.011	19.993	103.976	20.021	3.723	0.509
112.001	136.679	80.011	19.993	103.974	20.022	3.628	0.506
112.500	136.918	80.009	19.992	103.973	20.022	3.661	0.477
113.000	137.161	80.012	19.994	103.970	20.023	3.616	0.472
113.500	137.392	80.011	19.994	103.972	20.020	3.761	0.478
114.000	137.646	80.011	19.994	103.973	20.019	3.876	0.479
114.501	137.891	80.010	19.994	103.975	20.018	3.944	0.492
115.001	138.135	80.010	19.994	103.970	20.021	3.736	0.494
115.501	138.397	80.010	19.994	103.970	20.017	3.961	0.497
116.001	138.638	80.011	19.992	103.966	20.018	3.912	0.504
116.501	138.897	80.011	19.994	103.965	20.019	3.845	0.501
117.001	139.145	80.011	19.994	103.965	20.018	3.946	0.503
117.500	139.369	80.012	19.993	103.971	20.017	3.965	0.490
118.000	139.637	80.010	19.992	103.969	20.019	3.852	0.482
118.501	139.871	80.011	19.994	103.970	20.018	3.926	0.497
119.001	140.121	80.011	19.993	103.970	20.017	4.017	0.493
119.500	140.368	80.010	19.996	103.969	20.016	4.024	0.490
120.001	140.636	80.009	19.993	103.970	20.018	3.950	0.506
120.501	140.889	80.011	19.994	103.974	20.015	4.089	0.518
121.000	141.122	80.009	19.993	103.973	20.014	4.153	0.504
121.500	141.386	80.011	19.993	103.966	20.016	4.080	0.492
122.000	141.583	80.009	19.993	103.961	20.018	3.913	0.479
122.500	141.855	80.010	19.994	103.954	20.022	3.637	0.465
123.000	142.078	80.010	19.994	103.950	20.018	3.928	0.482
123.500	142.360	80.011	19.993	103.949	20.022	3.688	0.500
124.000	142.615	80.011	19.993	103.955	20.020	3.780	0.522
124.500	142.893	80.010	19.993	103.960	20.022	3.664	0.535
125.000	143.138	80.010	19.993	103.962	20.022	3.684	0.528
125.500	143.399	80.010	19.993	103.959	20.021	3.713	0.514
126.000	143.624	80.010	19.992	103.957	20.022	3.661	0.496
126.500	143.900	80.010	19.994	103.958	20.019	3.826	0.493
127.001	144.179	80.010	19.993	103.959	20.026	3.374	0.528
127.501	144.414	80.011	19.992	103.963	20.020	3.773	0.535
128.000	144.632	80.010	19.993	103.964	20.023	3.603	0.484
128.500	144.907	80.010	19.993	103.968	20.023	3.619	0.473
129.000	145.167	80.010	19.993	103.961	20.020	3.769	0.514
129.500	145.408	80.010	19.993	103.954	20.025	3.485	0.519
130.000	145.632	80.010	19.994	103.952	20.025	3.432	0.483
130.500	145.888	80.010	19.993	103.952	20.022	3.684	0.473
131.000	146.145	80.010	19.993	103.950	20.021	3.748	0.496
131.500	146.384	80.010	19.993	103.951	20.019	3.846	0.504
132.000	146.624	80.010	19.993	103.953	20.019	3.840	0.487
132.500	146.864	80.010	19.994	103.953	20.022	3.670	0.480
133.000	147.137	80.009	19.993	103.952	20.019	3.833	0.497
133.500	147.378	80.010	19.993	103.948	20.019	3.822	0.514
134.000	147.605	80.011	19.993	103.947	20.021	3.704	0.491
134.500	147.850	80.010	19.993	103.944	20.021	3.735	0.470
135.000	148.107	80.009	19.993	103.942	20.024	3.503	0.487
135.500	148.388	80.010	19.993	103.941	20.018	3.904	0.520
136.000	148.635	80.009	19.993	103.940	20.020	3.815	0.533
136.500	148.916	80.010	19.993	103.940	20.023	3.582	0.528
137.000	149.199	80.011	19.994	103.940	20.023	3.599	0.546
137.500	149.449	80.011	19.993	103.939	20.023	3.619	0.548
138.000	149.705	80.010	19.994	103.939	20.024	3.523	0.520
138.500	149.946	80.009	19.995	103.940	20.021	3.695	0.502
139.000	150.250	80.009	19.993	103.940	20.022	3.635	0.521
139.500	150.462	80.009	19.994	103.940	20.024	3.530	0.530
140.000	150.709	80.011	19.994	103.940	20.023	3.582	0.487
140.500	150.945	80.009	19.994	103.940	20.024	3.508	0.471
141.000	151.194	80.009	19.994	103.938	20.024	3.542	0.484
141.500	151.425	80.010	19.994	103.939	20.025	3.492	0.482
142.000	151.708	80.010	19.994	103.940	20.024	3.512	0.497
142.500	151.974	80.010	19.993	103.940	20.021	3.746	0.532
143.000	152.235	80.011	19.993	103.939	20.025	3.428	0.538
143.500	152.508	80.011	19.993	103.939	20.027	3.307	0.530
144.000	152.726	80.010	19.993	103.940	20.022	3.670	0.512
144.500	152.958	80.010	19.994	103.939	20.028	3.294	0.471
145.000	153.184	80.010	19.993	103.940	20.023	3.562	0.454
145.500	153.452	80.012	19.992	103.941	20.024	3.510	0.476
146.000	153.712	80.011	19.993	103.941	20.025	3.486	0.511
146.500	153.925	80.011	19.993	103.939	20.023	3.564	0.501
147.000	154.186	80.011	19.993	103.939	20.022	3.635	0.474
147.500	154.429	80.010	19.992	103.938	20.025	3.475	0.489
148.000	154.700	80.011	19.993	103.938	20.022	3.630	0.509
148.500	154.992	80.012	19.993	103.938	20.021	3.711	0.538
149.000	155.206	80.011	19.993	103.938	20.025	3.477	0.534
149.500	155.442	80.011	19.993	103.937	20.021	3.737	0.478
150.000	155.706	80.011	19.993	103.932	20.024	3.526	0.475
150.500	155.959	80.012	19.993	103.930	20.023	3.601	0.509
151.000	156.220	80.012	19.993	103.930	20.022	3.680	0.515
151.500	156.447	80.013	19.992	103.929	20.026	3.421	0.501
152.000	156.744	80.012	19.993	103.929	20.024	3.519	0.506
152.500	156.962	80.012	19.993	103.934	20.027	3.328	0.519
153.000	157.230	80.011	19.992	103.935	20.025	3.459	0.500
153.500	157.474	80.012	19.993	103.935	20.028	3.277	0.499
154.000	157.716	80.012	19.993	103.936	20.023	3.615	0.499
154.500	157.975	80.012	19.992	103.937	20.026	3.381	0.494
155.000	158.201	80.011	19.993	103.936	20.023	3.589	0.493
155.500	158.467	80.012	19.992	103.937	20.025	3.432	0.489
156.000	158.720	80.012	19.992	103.937	20.027	3.341	0.506
156.500	158.968	80.012	19.993	103.937	20.028	3.252	0.510
157.000	159.249	80.012	19.993	103.937	20.025	3.466	0.515
157.500	159.472	80.011	19.993	103.938	20.026	3.412	0.516
158.000	159.759	80.012	19.993	103.938	20.023	3.599	0.507
158.500	159.975	80.012	19.994	103.938	20.023	3.575	0.507
159.000	160.229	80.012	19.994	103.938	20.023	3.571	0.487
159.500	160.474	80.011	19.991	103.939	20.025	3.433	0.484
160.000	160.742	80.012	19.992	103.938	20.026	3.360	0.506
160.500	161.002	80.013	19.993	103.938	20.026	3.409	0.521
161.000	161.227	80.011	19.993	103.938	20.025	3.469	0.506
161.500	161.479	80.012	19.994	103.938	20.027	3.342	0.481
162.000	161.720	80.012	19.993	103.937	20.030	3.148	0.485
162.500	161.919	80.012	19.993	103.936	20.030	3.148	0.467
163.000	162.238	80.013	19.993	103.933	20.028	3.276	0.479
163.500	162.452	80.012	19.993	103.933	20.027	3.353	0.525
164.000	162.709	80.011	19.992	103.933	20.029	3.168	0.502
164.500	162.999	80.012	19.992	103.934	20.027	3.337	0.509
165.000	163.222	80.011	19.993	103.934	20.028	3.263	0.530
165.501	163.469	80.013	19.992	103.934	20.032	3.014	0.492
166.001	163.699	80.013	19.992	103.931	20.028	3.248	0.474
166.500	164.022	80.013	19.992	103.929	20.030	3.125	0.515
167.000	164.249	80.011	19.993	103.927	20.029	3.179	0.551
167.500	164.520	80.011	19.992	103.926	20.031	3.058	0.524
168.000	164.780	80.011	19.993	103.929	20.030	3.132	0.515
168.500	165.028	80.011	19.993	103.932	20.028	3.248	0.520
169.000	165.309	80.012	19.993	103.933	20.026	3.372	0.518
169.500	165.558	80.011	19.992	103.932	20.030	3.105	0.530
170.000	165.805	80.013	19.993	103.926	20.027	3.299	0.513
170.500	166.007	80.012	19.993	103.921	20.031	3.085	0.472
171.000	166.303	80.011	19.992	103.914	20.030	3.139	0.474
171.500	166.527	80.012	19.992	103.909	20.032	2.999	0.509
172.000	166.781	80.012	19.991	103.912	20.029	3.175	0.498
172.500	167.029	80.012	19.992	103.916	20.031	3.090	0.490
173.000	167.263	80.012	19.996	103.920	20.031	3.079	0.492
173.500	167.518	80.012	19.995	103.927	20.028	3.273	0.486
174.000	167.795	80.012	19.993	103.931	20.030	3.117	0.510
174.500	168.026	80.013	19.993	103.927	20.032	3.028	0.520
175.000	168.194	80.013	19.993	103.928	20.029	3.209	0.454
175.500	168.512	80.010	19.992	103.924	20.027	3.349	0.442
176.000	168.776	80.012	19.993	103.922	20.029	3.222	0.534
176.500	168.991	80.012	19.992	103.923	20.029	3.166	0.531
177.000	169.262	80.013	19.993	103.927	20.031	3.081	0.483
177.500	169.526	80.013	19.992	103.929	20.031	3.051	0.510
178.000	169.775	80.012	19.992	103.933	20.029	3.211	0.524
178.500	170.065	80.013	19.991	103.936	20.028	3.257	0.526
179.000	170.301	80.012	19.992	103.935	20.028	3.233	0.533
179.500	170.530	80.013	19.992	103.934	20.028	3.284	0.496
180.000	170.804	80.013	19.992	103.932	20.032	3.006	0.484
180.500	170.984	80.012	19.992	103.932	20.028	3.239	0.479
181.000	171.233	80.012	19.991	103.926	20.030	3.144	0.441
181.500	171.473	80.013	19.992	103.920	20.028	3.279	0.458
182.000	171.731	80.013	19.991	103.915	20.029	3.202	0.493
182.500	172.012	80.013	19.990	103.909	20.031	3.075	0.519
183.000	172.254	80.013	19.991	103.901	20.030	3.128	0.531
183.500	172.522	80.013	19.991	103.900	20.030	3.131	0.516
184.000	172.767	80.015	19.992	103.903	20.027	3.315	0.511
184.500	172.987	80.014	19.993	103.904	20.028	3.287	0.489
185.000	173.279	80.013	19.990	103.905	20.027	3.326	0.488
185.500	173.498	80.012	19.991	103.907	20.022	3.654	0.512
186.000	173.759	80.013	19.993	103.907	20.029	3.215	0.496
186.500	173.993	80.012	19.993	103.904	20.027	3.307	0.487
187.000	174.189	80.013	19.993	103.903	20.027	3.358	0.463
187.500	174.465	80.012	19.993	103.902	20.029	3.164	0.452
188.000	174.688	80.013	19.993	103.902	20.027	3.306	0.486
188.500	174.950	80.014	19.993	103.902	20.026	3.371	0.492
189.000	175.204	80.011	19.992	103.902	20.029	3.175	0.501
189.500	175.453	80.013	19.993	103.903	20.025	3.447	0.510
190.000	175.682	80.012	19.993	103.903	20.028	3.273	0.491
190.500	175.970	80.011	19.993	103.903	20.028	3.282	0.497
191.000	176.195	80.010	19.993	103.905	20.023	3.618	0.515
191.501	176.419	80.010	19.993	103.909	20.025	3.465	0.481
192.001	176.675	80.013	19.993	103.912	20.025	3.453	0.465
192.500	176.892	80.011	19.992	103.911	20.025	3.482	0.477
193.000	177.141	80.011	19.993	103.911	20.029	3.206	0.469
193.500	177.395	80.010	19.992	103.910	20.027	3.302	0.484
194.000	177.682	80.010	19.992	103.906	20.026	3.423	0.522
194.500	177.919	80.011	19.993	103.904	20.023	3.592	0.533
195.001	178.136	80.010	19.993	103.904	20.027	3.320	0.489
195.500	178.369	80.010	19.993	103.905	20.028	3.293	0.452
196.000	178.616	80.010	19.993	103.904	20.024	3.534	0.465
196.500	178.871	80.011	19.993	103.904	20.026	3.363	0.491
197.000	179.109	80.009	19.992	103.904	20.028	3.233	0.498
197.500	179.416	80.011	19.992	103.904	20.028	3.275	0.519
198.000	179.612	80.011	19.993	103.904	20.030	3.133	0.524
198.500	179.806	80.010	19.992	103.905	20.027	3.295	0.446
199.000	180.071	80.010	19.993	103.905	20.030	3.119	0.424
199.500	180.334	80.011	19.992	103.905	20.030	3.162	0.494
200.000	180.585	80.009	19.993	103.905	20.027	3.324	0.521
200.500	180.828	80.010	19.992	103.904	20.028	3.235	0.504
201.000	181.093	80.011	19.993	103.908	20.025	3.474	0.501
201.500	181.345	80.009	19.992	103.911	20.027	3.304	0.513
202.000	181.591	80.011	19.994	103.911	20.026	3.425	0.508
202.500	181.826	80.009	19.994	103.911	20.027	3.314	0.489
203.000	182.058	80.010	19.993	103.911	20.026	3.425	0.474
203.500	182.276	80.011	19.993	103.906	20.025	3.429	0.459
204.000	182.532	80.011	19.993	103.903	20.027	3.333	0.462
204.500	182.739	80.009	19.994	103.902	20.027	3.309	0.468
205.000	183.010	80.011	19.993	103.900	20.026	3.394	0.471
205.500	183.216	80.010	19.993	103.898	20.030	3.160	0.478
206.000	183.464	80.010	19.993	103.897	20.033	2.941	0.465
206.501	183.727	80.011	19.993	103.898	20.030	3.126	0.482
207.000	183.997	80.010	19.993	103.897	20.031	3.041	0.522
207.500	184.220	80.010	19.993	103.901	20.030	3.099	0.513
208.000	184.471	80.011	19.994	103.903	20.031	3.084	0.483
208.500	184.705	80.010	19.993	103.903	20.029	3.207	0.480
209.000	184.957	80.009	19.993	103.903	20.028	3.251	0.485
209.500	185.206	80.010	19.994	103.903	20.032	2.995	0.493
210.000	185.485	80.011	19.993	103.901	20.032	3.015	0.515
210.500	185.687	80.012	19.992	103.900	20.030	3.162	0.505
211.000	185.929	80.010	19.993	103.899	20.026	3.371	0.463
211.500	186.219	80.010	19.993	103.899	20.033	2.952	0.488
212.000	186.475	80.011	19.993	103.899	20.031	3.093	0.538
212.500	186.734	80.011	19.994	103.900	20.032	2.981	0.531
213.000	186.970	80.010	19.993	103.900	20.032	3.017	0.506
213.500	187.198	80.012	19.993	103.901	20.030	3.117	0.479
214.000	187.421	80.011	19.993	103.900	20.031	3.068	0.457
214.500	187.672	80.011	19.993	103.900	20.029	3.207	0.463
215.000	187.919	80.010	19.993	103.901	20.031	3.048	0.486
215.500	188.154	80.009	19.992	103.901	20.034	2.845	0.489
216.000	188.350	80.010	19.992	103.901	20.028	3.249	0.457
216.500	188.646	80.011	19.993	103.901	20.029	3.227	0.462
217.000	188.888	80.011	19.993	103.901	20.029	3.173	0.515
217.500	189.155	80.011	19.991	103.901	20.031	3.084	0.523
218.000	189.391	80.011	19.993	103.899	20.029	3.227	0.506
218.500	189.616	80.011	19.993	103.899	20.030	3.100	0.482
219.000	189.880	80.010	19.995	103.898	20.030	3.157	0.475
219.500	190.128	80.011	19.994	103.898	20.031	3.053	0.501
220.000	190.430	80.011	19.993	103.897	20.031	3.053	0.531
220.500	190.630	80.010	19.994	103.898	20.030	3.102	0.526
221.000	190.849	80.010	19.993	103.898	20.032	3.015	0.460
221.500	191.140	80.010	19.992	103.898	20.033	2.957	0.464
222.000	191.400	80.010	19.993	103.898	20.029	3.186	0.530
222.500	191.616	80.010	19.993	103.899	20.025	3.438	0.514
223.000	191.862	80.009	19.993	103.900	20.026	3.407	0.469
223.500	192.107	80.011	19.995	103.899	20.025	3.456	0.476
224.000	192.306	80.010	19.994	103.900	20.026	3.385	0.468
224.500	192.570	80.010	19.994	103.900	20.024	3.512	0.454
225.000	192.803	80.009	19.994	103.901	20.025	3.460	0.480
225.500	193.064	80.010	19.993	103.901	20.023	3.565	0.495
226.000	193.330	80.011	19.995	103.900	20.028	3.287	0.511
226.500	193.545	80.010	19.995	103.899	20.028	3.255	0.504
227.000	193.831	80.011	19.994	103.899	20.030	3.151	0.491
227.500	194.039	80.010	19.994	103.898	20.026	3.416	0.498
228.000	194.311	80.010	19.995	103.898	20.026	3.407	0.487
228.500	194.530	80.008	19.993	103.900	20.026	3.390	0.485
229.000	194.771	80.009	19.993	103.900	20.030	3.160	0.475
229.500	194.983	80.009	19.994	103.900	20.026	3.414	0.456
230.000	195.271	80.009	19.995	103.900	20.027	3.345	0.476
230.500	195.510	80.009	19.994	103.901	20.029	3.175	0.514
231.000	195.730	80.010	19.993	103.902	20.031	3.042	0.494
231.501	196.007	80.010	19.994	103.901	20.029	3.182	0.478
232.001	196.227	80.009	19.995	103.900	20.031	3.084	0.497
232.500	196.477	80.009	19.994	103.900	20.027	3.304	0.483
233.000	196.731	80.010	19.995	103.899	20.030	3.146	0.487
233.500	196.983	80.010	19.995	103.898	20.027	3.338	0.505
234.000	197.197	80.010	19.996	103.899	20.024	3.554	0.487
234.500	197.456	80.011	19.995	103.899	20.025	3.483	0.470
235.000	197.686	80.012	19.994	103.899	20.029	3.178	0.481
235.500	197.867	80.010	19.994	103.899	20.027	3.336	0.450
236.000	198.132	80.011	19.994	103.899	20.030	3.138	0.428
236.500	198.378	80.009	19.995	103.899	20.028	3.238	0.479
237.000	198.609	80.010	19.994	103.899	20.027	3.323	0.494
237.500	198.812	80.010	19.995	103.899	20.025	3.483	0.455
238.000	199.096	80.011	19.993	103.895	20.025	3.429	0.460
238.500	199.366	80.012	19.994	103.891	20.026	3.364	0.520
239.000	199.607	80.012	19.993	103.890	20.023	3.579	0.532
239.500	199.824	80.012	19.994	103.890	20.027	3.345	0.485
240.000	200.067	80.010	19.992	103.891	20.024	3.550	0.459
240.500	200.346	80.011	19.993	103.893	20.026	3.365	0.491
241.000	200.587	80.011	19.994	103.898	20.024	3.509	0.521
241.500	200.819	80.011	19.993	103.899	20.025	3.485	0.496
242.000	201.066	80.011	19.992	103.900	20.026	3.398	0.476
242.500	201.332	80.010	19.993	103.900	20.027	3.334	0.496
243.000	201.584	80.011	19.993	103.901	20.030	3.144	0.516
243.500	201.797	80.012	19.993	103.901	20.025	3.447	0.492
244.000	202.076	80.011	19.994	103.900	20.026	3.425	0.478
244.500	202.286	80.012	19.993	103.900	20.028	3.282	0.490
245.000	202.522	80.012	19.993	103.900	20.029	3.166	0.468
245.500	202.802	80.011	19.992	103.900	20.027	3.320	0.481
246.000	203.071	80.012	19.994	103.900	20.025	3.441	0.532
246.500	203.273	80.012	19.993	103.902	20.024	3.550	0.510
247.000	203.534	80.013	19.993	103.898	20.026	3.423	0.467
247.500	203.760	80.011	19.992	103.898	20.031	3.077	0.475
248.000	203.993	80.010	19.993	103.898	20.026	3.405	0.473
248.500	204.210	80.012	19.992	103.899	20.027	3.320	0.455
249.000	204.528	80.012	19.992	103.899	20.029	3.213	0.492
249.500	204.711	80.012	19.993	103.902	20.026	3.387	0.518
250.000	204.962	80.011	19.994	103.902	20.026	3.422	0.468
250.500	205.217	80.012	19.992	103.902	20.026	3.425	0.470
251.000	205.464	80.010	19.993	103.900	20.027	3.329	0.504
251.500	205.719	80.011	19.992	103.899	20.023	3.567	0.502
252.000	205.931	80.012	19.992	103.899	20.022	3.647	0.485
252.500	206.145	80.011	19.993	103.899	20.023	3.567	0.447
253.000	206.401	80.013	19.991	103.899	20.023	3.621	0.448
253.500	206.665	80.010	19.994	103.901	20.022	3.628	0.495
254.000	206.866	80.011	19.991	103.900	20.021	3.690	0.493
254.500	207.131	80.011	19.992	103.897	20.024	3.543	0.465
255.000	207.431	80.011	19.993	103.897	20.019	3.871	0.515
255.500	207.654	80.011	19.993	103.897	20.018	3.913	0.544
256.000	207.888	80.012	19.992	103.896	20.015	4.129	0.490
256.500	208.153	80.011	19.994	103.897	20.015	4.127	0.478
257.000	208.441	80.011	19.992	103.897	20.017	3.973	0.526
257.500	208.660	80.011	19.993	103.897	20.018	3.924	0.530
258.000	208.928	80.011	19.992	103.898	20.016	4.062	0.497
258.500	209.192	80.012	19.992	103.899	20.019	3.844	0.509
259.000	209.413	80.012	19.992	103.900	20.018	3.917	0.509
259.500	209.634	80.012	19.992	103.902	20.019	3.853	0.464
260.000	209.899	80.012	19.993	103.902	20.020	3.817	0.464
260.500	210.116	80.012	19.992	103.900	20.019	3.879	0.484
261.000	210.396	80.012	19.992	103.900	20.021	3.744	0.489
261.500	210.603	80.013	19.993	103.900	20.020	3.811	0.492
262.000	210.860	80.012	19.993	103.900	20.022	3.639	0.476
262.500	211.096	80.011	19.991	103.900	20.022	3.650	0.478
263.000	211.362	80.012	19.991	103.902	20.022	3.650	0.497
263.500	211.568	80.011	19.992	103.902	20.022	3.648	0.487
264.000	211.816	80.011	19.992	103.902	20.020	3.779	0.463
264.500	212.068	80.011	19.992	103.902	20.020	3.795	0.477
265.000	212.280	80.013	19.991	103.900	20.020	3.792	0.482
265.500	212.529	80.013	19.992	103.900	20.019	3.873	0.462
266.000	212.787	80.013	19.991	103.899	20.018	3.909	0.484
266.500	213.030	80.014	19.992	103.900	20.020	3.771	0.504
267.000	213.268	80.014	19.992	103.900	20.018	3.886	0.491
267.500	213.519	80.013	19.992	103.901	20.024	3.510	0.485
268.000	213.781	80.013	19.992	103.901	20.022	3.623	0.501
268.500	214.021	80.013	19.991	103.900	20.022	3.644	0.508
269.000	214.272	80.012	19.992	103.899	20.020	3.757	0.496
269.500	214.502	80.014	19.992	103.899	20.021	3.692	0.486
270.000	214.709	80.013	19.992	103.898	20.021	3.721	0.459
270.500	214.972	80.013	19.993	103.896	20.022	3.682	0.453
271.000	215.156	80.014	19.992	103.898	20.019	3.869	0.458
271.500	215.429	80.013	19.992	103.898	20.019	3.828	0.452
272.000	215.686	80.013	19.993	103.898	20.021	3.753	0.494
272.500	215.935	80.013	19.992	103.898	20.021	3.753	0.518
273.000	216.213	80.013	19.992	103.898	20.018	3.920	0.517
273.500	216.455	80.013	19.992	103.897	20.019	3.857	0.524
274.000	216.698	80.013	19.993	103.896	20.017	3.958	0.502
274.500	216.909	80.013	19.993	103.896	20.020	3.786	0.469
275.000	217.165	80.012	19.992	103.897	20.016	4.060	0.460
275.500	217.431	80.013	19.993	103.898	20.017	3.980	0.495
276.000	217.708	80.012	19.992	103.899	20.019	3.827	0.533
276.500	217.964	80.011	19.991	103.899	20.016	4.038	0.538
277.000	218.212	80.010	19.993	103.897	20.021	3.711	0.519
277.500	218.458	80.010	19.992	103.895	20.020	3.765	0.499
278.000	218.694	80.010	19.992	103.895	20.026	3.374	0.488
278.500	218.943	80.009	19.993	103.894	20.021	3.708	0.483
279.000	219.181	80.009	19.993	103.894	20.019	3.822	0.486
279.500	219.450	80.011	19.992	103.893	20.021	3.701	0.497
280.000	219.682	80.012	19.992	103.891	20.021	3.740	0.504
280.500	219.953	80.011	19.992	103.891	20.020	3.782	0.502
281.000	220.155	80.011	19.993	103.893	20.020	3.780	0.488
281.500	220.459	80.010	19.993	103.892	20.020	3.814	0.489
282.000	220.675	80.011	19.993	103.894	20.019	3.832	0.514
282.500	220.928	80.009	19.992	103.897	20.023	3.619	0.495
283.000	221.181	80.012	19.991	103.894	20.020	3.778	0.487
283.500	221.433	80.010	19.991	103.895	20.017	4.014	0.505
284.000	221.687	80.011	19.992	103.895	20.017	3.969	0.505
284.501	221.864	80.010	19.992	103.896	20.016	4.069	0.469
285.001	222.132	80.011	19.992	103.896	20.017	3.951	0.438
285.500	222.422	80.010	19.993	103.899	20.016	4.071	0.501
286.000	222.686	80.012	19.991	103.899	20.017	3.980	0.556
286.500	222.907	80.010	19.992	103.895	20.018	3.924	0.520
287.000	223.151	80.011	19.992	103.888	20.017	3.969	0.475
287.500	223.415	80.012	19.992	103.882	20.015	4.133	0.487
288.000	223.678	80.010	19.992	103.880	20.014	4.158	0.517
288.500	223.901	80.012	19.992	103.880	20.014	4.212	0.506
289.000	224.128	80.011	19.991	103.885	20.017	3.993	0.468
289.500	224.418	80.011	19.993	103.889	20.016	4.056	0.483
290.000	224.642	80.011	19.994	103.893	20.019	3.879	0.516
290.500	224.919	80.011	19.993	103.890	20.016	4.073	0.508
291.000	225.175	80.011	19.993	103.885	20.017	4.013	0.517
291.500	225.425	80.011	19.992	103.879	20.018	3.898	0.520
292.000	225.698	80.012	19.993	103.875	20.018	3.942	0.514
292.500	225.954	80.012	19.991	103.872	20.020	3.799	0.526
293.000	226.196	80.011	19.994	103.873	20.019	3.831	0.514
293.500	226.399	80.012	19.995	103.878	20.017	3.951	0.472
294.000	226.645	80.012	19.995	103.883	20.017	3.964	0.447
294.500	226.931	80.012	19.993	103.890	20.022	3.685	0.490
295.000	227.211	80.010	19.992	103.895	20.016	4.022	0.548
295.500	227.437	80.011	19.994	103.896	20.016	4.018	0.536
296.000	227.670	80.013	19.993	103.895	20.015	4.105	0.483
296.500	227.912	80.011	19.994	103.896	20.014	4.211	0.467
297.000	228.188	80.010	19.993	103.896	20.013	4.230	0.496
297.500	228.434	80.010	19.993	103.896	20.013	4.240	0.520
298.000	228.696	80.011	19.993	103.899	20.012	4.339	0.515
298.500	228.916	80.012	19.993	103.899	20.017	3.975	0.495
299.000	229.190	80.013	19.993	103.899	20.016	4.067	0.488
299.500	229.436	80.012	19.993	103.897	20.013	4.245	0.508
300.000	229.685	80.012	19.994	103.898	20.017	4.000	0.508
300.500	229.911	80.009	19.993	103.897	20.015	4.125	0.485
301.000	230.176	80.010	19.993	103.897	20.015	4.129	0.483
301.500	230.424	80.011	19.994	103.897	20.017	3.973	0.503
302.000	230.674	80.010	19.992	103.894	20.015	4.105	0.505
302.500	230.947	80.011	19.993	103.890	20.015	4.111	0.510
303.000	231.172	80.011	19.993	103.891	20.015	4.120	0.511
303.500	231.442	80.010	19.994	103.890	20.016	4.033	0.496
304.000	231.691	80.010	19.994	103.890	20.013	4.243	0.507
304.500	231.946	80.012	19.993	103.895	20.016	4.029	0.512
305.001	232.196	80.010	19.993	103.899	20.015	4.094	0.504
305.500	232.429	80.010	19.993	103.898	20.016	4.020	0.494
306.000	232.709	80.011	19.993	103.897	20.015	4.134	0.498
306.500	232.969	80.010	19.993	103.897	20.015	4.122	0.527
307.000	233.200	80.011	19.993	103.895	20.014	4.207	0.516
307.500	233.451	80.010	19.994	103.896	20.012	4.339	0.486
308.000	233.720	80.010	19.993	103.897	20.012	4.337	0.501
308.500	233.955	80.009	19.994	103.897	20.013	4.265	0.512
309.000	234.183	80.011	19.994	103.896	20.008	4.575	0.483
309.500	234.424	80.008	19.993	103.896	20.011	4.345	0.466
310.000	234.717	80.010	19.993	103.895	20.013	4.278	0.501
310.500	234.914	80.011	19.995	103.894	20.008	4.572	0.512
311.000	235.151	80.011	19.994	103.896	20.017	4.004	0.462
311.500	235.446	80.011	19.994	103.897	20.014	4.179	0.483
312.000	235.639	80.010	19.992	103.895	20.014	4.167	0.510
312.500	235.917	80.011	19.993	103.893	20.008	4.560	0.479
313.000	236.210	80.010	19.992	103.891	20.013	4.214	0.521
313.500	236.432	80.009	19.992	103.890	20.016	4.047	0.543
314.000	236.721	80.010	19.993	103.889	20.014	4.171	0.513
314.500	236.938	80.011	19.994	103.893	20.013	4.227	0.508
315.000	237.179	80.011	19.994	103.894	20.015	4.093	0.482
315.500	237.433	80.012	19.993	103.897	20.017	4.002	0.477
316.001	237.714	80.009	19.994	103.895	20.018	3.933	0.515
316.501	237.956	80.010	19.995	103.896	20.014	4.151	0.528
317.000	238.206	80.012	19.994	103.897	20.016	4.022	0.507
317.500	238.418	80.011	19.994	103.897	20.012	4.316	0.477
318.000	238.669	80.012	19.994	103.893	20.014	4.192	0.462
318.500	238.943	80.012	19.994	103.891	20.012	4.290	0.494
319.000	239.199	80.011	19.993	103.888	20.015	4.094	0.527
319.500	239.444	80.011	19.994	103.888	20.014	4.174	0.515
320.000	239.673	80.012	19.993	103.890	20.016	4.027	0.488
320.500	239.931	80.010	19.994	103.894	20.016	4.069	0.481
321.000	240.114	80.011	19.993	103.900	20.016	4.052	0.464
321.500	240.423	80.011	19.993	103.899	20.014	4.203	0.467
322.000	240.654	80.011	19.993	103.892	20.016	4.040	0.516
322.500	240.857	80.010	19.993	103.888	20.018	3.929	0.486
323.000	241.103	80.013	19.993	103.886	20.016	4.034	0.442
323.500	241.463	80.010	19.993	103.886	20.013	4.228	0.528
324.000	241.654	80.011	19.993	103.889	20.014	4.199	0.579
324.500	241.866	80.011	19.993	103.896	20.013	4.259	0.477
325.000	242.307	80.011	19.993	103.900	20.012	4.335	0.528
325.500	242.479	80.013	19.994	103.901	20.013	4.252	0.633
326.000	242.442	80.010	19.994	103.900	20.012	4.317	0.374
326.500	242.784	80.010	19.993	103.899	20.014	4.176	0.220
327.000	243.319	80.011	19.993	103.898	20.011	4.352	0.591
327.500	243.515	80.012	19.993	103.893	20.009	4.484	0.804
328.000	243.686	80.010	19.993	103.893	20.012	4.337	0.549
328.500	244.052	80.010	19.993	103.893	20.007	4.671	0.452
329.000	244.117	80.011	19.995	103.893	20.011	4.399	0.484
329.500	244.479	80.010	19.994	103.893	20.009	4.521	0.429
330.000	244.902	80.010	19.993	103.896	20.008	4.544	0.606
330.500	244.876	80.011	19.993	103.895	20.008	4.590	0.591
331.000	245.264	80.010	19.994	103.891	20.009	4.501	0.380
331.500	245.469	80.009	19.993	103.887	20.008	4.593	0.477
332.000	245.640	80.011	19.993	103.886	20.009	4.523	0.485
332.500	245.921	80.010	19.993	103.887	20.005	4.767	0.414
333.000	246.277	80.010	19.993	103.886	20.009	4.481	0.544
333.500	246.537	80.010	19.994	103.884	20.008	4.602	0.626
334.000	246.702	80.010	19.993	103.885	20.008	4.552	0.521
334.500	247.021	80.011	19.993	103.884	20.010	4.423	0.454
335.000	247.281	80.012	19.994	103.879	20.011	4.367	0.531
335.500	247.464	80.010	19.993	103.877	20.013	4.265	0.511
336.000	247.797	80.012	19.994	103.877	20.011	4.401	0.480
336.500	247.993	80.011	19.994	103.880	20.009	4.492	0.523
337.000	248.246	80.011	19.994	103.882	20.009	4.499	0.489
337.500	248.496	80.011	19.993	103.883	20.008	4.586	0.476
338.000	248.697	80.011	19.994	103.888	20.008	4.602	0.477
338.500	249.040	80.011	19.994	103.894	20.004	4.821	0.497
339.000	249.286	80.011	19.994	103.895	20.010	4.431	0.567
339.500	249.491	80.010	19.994	103.896	20.009	4.478	0.520
340.000	249.799	80.011	19.993	103.900	20.007	4.660	0.482
340.500	250.027	80.011	19.994	103.899	20.007	4.653	0.525
341.000	250.335	80.012	19.992	103.899	20.004	4.854	0.536
341.500	250.568	80.011	19.993	103.898	20.006	4.728	0.538
342.000	250.771	80.012	19.994	103.897	20.005	4.778	0.489
342.500	251.026	80.011	19.993	103.896	20.005	4.748	0.447
343.000	251.285	80.010	19.994	103.896	20.002	4.978	0.486
343.500	251.548	80.011	19.993	103.896	20.005	4.738	0.518
344.000	251.786	80.012	19.992	103.896	20.008	4.553	0.512
344.500	252.042	80.011	19.992	103.896	20.005	4.780	0.497
345.000	252.260	80.011	19.994	103.897	20.004	4.850	0.484
345.500	252.537	80.012	19.992	103.898	20.004	4.861	0.485
346.000	252.770	80.012	19.993	103.898	20.007	4.663	0.503
346.500	253.041	80.012	19.992	103.897	20.004	4.830	0.507
347.000	253.277	80.013	19.993	103.894	20.005	4.767	0.506
347.500	253.500	80.012	19.993	103.893	20.007	4.667	0.483
348.000	253.785	80.012	19.992	103.892	20.003	4.910	0.483
348.500	254.039	80.012	19.992	103.892	20.002	4.964	0.523
349.000	254.354	80.015	19.993	103.887	20.002	4.986	0.554
349.500	254.584	80.016	19.991	103.885	20.004	4.848	0.557
350.000	254.808	80.012	19.992	103.882	20.002	4.995	0.499
350.500	255.074	80.011	19.993	103.883	20.000	5.082	0.472
351.000	255.339	80.014	19.992	103.882	20.002	4.964	0.511
351.500	255.543	80.013	19.993	103.888	20.005	4.749	0.500
352.000	255.845	80.014	19.992	103.894	20.005	4.745	0.487
352.500	256.064	80.013	19.993	103.895	20.003	4.896	0.514
353.000	256.320	80.014	19.995	103.896	20.003	4.876	0.498
353.500	256.563	80.013	19.994	103.897	20.000	5.112	0.487
354.000	256.766	80.014	19.994	103.897	19.999	5.154	0.473
354.500	257.027	80.014	19.992	103.892	19.999	5.177	0.455
355.000	257.262	80.014	19.993	103.890	19.999	5.157	0.479
355.500	257.535	80.013	19.993	103.884	19.999	5.132	0.502
356.000	257.799	80.013	19.994	103.881	20.003	4.920	0.523
356.500	258.069	80.016	19.993	103.878	20.000	5.077	0.536
357.000	258.277	80.014	19.992	103.880	19.998	5.233	0.506
357.500	258.536	80.013	19.992	103.880	19.999	5.191	0.472
358.000	258.816	80.013	19.993	103.882	19.998	5.240	0.503
358.500	259.070	80.014	19.993	103.882	20.002	4.957	0.537
359.000	259.296	80.013	19.993	103.882	20.000	5.119	0.507
359.500	259.531	80.012	19.992	103.880	19.999	5.137	0.470
360.000	259.829	80.013	19.993	103.880	19.999	5.155	0.497
360.500	260.052	80.012	19.992	103.883	19.998	5.218	0.528
361.000	260.299	80.012	19.993	103.879	19.996	5.351	0.496
361.500	260.495	80.011	19.993	103.876	19.998	5.244	0.457
362.000	260.749	80.011	19.993	103.879	20.000	5.130	0.446
362.500	261.023	80.012	19.993	103.879	19.997	5.293	0.489
363.000	261.277	80.011	19.993	103.880	19.996	5.367	0.528
363.500	261.523	80.009	19.993	103.883	19.995	5.416	0.514
364.000	261.780	80.011	19.993	103.890	19.992	5.592	0.501
364.500	261.986	80.012	19.992	103.892	19.994	5.476	0.483
365.000	262.255	80.011	19.992	103.894	19.998	5.242	0.469
365.500	262.523	80.010	19.994	103.895	19.997	5.270	0.505
366.000	262.796	80.012	19.993	103.896	19.992	5.607	0.539
366.500	263.096	80.012	19.993	103.895	19.995	5.411	0.558
367.000	263.280	80.011	19.993	103.891	19.993	5.556	0.529
367.500	263.523	80.012	19.993	103.888	19.994	5.505	0.455
368.000	263.742	80.011	19.993	103.881	19.996	5.381	0.444
368.500	264.007	80.010	19.992	103.881	19.992	5.615	0.473
369.000	264.262	80.010	19.993	103.882	19.993	5.550	0.502
369.500	264.505	80.010	19.994	103.881	19.989	5.802	0.509
370.000	264.749	80.011	19.994	103.878	19.992	5.609	0.492
370.500	264.968	80.011	19.993	103.883	19.992	5.602	0.474
371.000	265.217	80.012	19.993	103.884	19.992	5.590	0.465
371.500	265.482	80.012	19.994	103.880	19.990	5.759	0.491
372.000	265.751	80.012	19.994	103.882	19.993	5.572	0.524
372.500	265.984	80.012	19.994	103.884	19.993	5.549	0.518
373.000	266.267	80.012	19.993	103.884	19.989	5.795	0.509
373.501	266.502	80.011	19.993	103.877	19.990	5.735	0.517
374.001	266.708	80.013	19.993	103.878	19.993	5.579	0.480
374.501	266.961	80.011	19.993	103.878	19.989	5.793	0.450
375.000	267.206	80.011	19.993	103.880	19.988	5.882	0.478
375.500	267.488	80.012	19.992	103.883	19.987	5.980	0.512
376.000	267.719	80.013	19.993	103.891	19.989	5.811	0.520
376.500	267.948	80.012	19.993	103.895	19.987	5.967	0.487
377.000	268.184	80.013	19.992	103.894	19.985	6.076	0.462
377.500	268.433	80.011	19.994	103.888	19.987	5.935	0.474
378.000	268.696	80.011	19.993	103.882	19.987	5.941	0.498
378.500	268.943	80.011	19.993	103.875	19.986	6.048	0.511
379.000	269.192	80.011	19.992	103.867	19.987	5.968	0.503
379.500	269.414	80.011	19.992	103.866	19.986	5.999	0.484
380.000	269.684	80.011	19.993	103.867	19.985	6.095	0.481
380.500	269.913	80.011	19.993	103.866	19.984	6.160	0.496
381.000	270.205	80.012	19.992	103.866	19.983	6.198	0.511
381.500	270.425	80.012	19.993	103.870	19.982	6.265	0.517
382.001	270.716	80.013	19.992	103.875	19.985	6.064	0.511
382.502	270.911	80.012	19.992	103.880	19.979	6.458	0.498
383.001	271.159	80.012	19.993	103.882	19.982	6.270	0.464
383.500	271.409	80.012	19.992	103.882	19.980	6.395	0.470
384.000	271.652	80.014	19.992	103.878	19.982	6.280	0.495
384.500	271.893	80.011	19.992	103.871	19.982	6.260	0.489
385.000	272.174	80.012	19.992	103.866	19.979	6.458	0.504
385.500	272.397	80.011	19.992	103.869	19.977	6.597	0.513
386.001	272.669	80.010	19.992	103.869	19.980	6.434	0.499
386.501	272.881	80.010	19.993	103.870	19.980	6.416	0.490
387.000	273.136	80.011	19.993	103.873	19.981	6.349	0.476
387.500	273.355	80.013	19.992	103.880	19.977	6.589	0.470
388.000	273.616	80.011	19.992	103.882	19.981	6.364	0.477
388.500	273.824	80.011	19.991	103.883	19.980	6.422	0.475
389.000	274.082	80.009	19.992	103.888	19.979	6.476	0.468
389.500	274.307	80.011	19.993	103.893	19.978	6.518	0.475
390.000	274.534	80.012	19.992	103.893	19.978	6.550	0.467
390.500	274.834	80.011	19.992	103.891	19.979	6.471	0.489
391.000	275.049	80.011	19.993	103.891	19.980	6.437	0.521
391.500	275.263	80.011	19.992	103.888	19.975	6.723	0.472
392.000	275.518	80.011	19.993	103.888	19.975	6.741	0.449
392.500	275.809	80.010	19.993	103.888	19.975	6.725	0.508
393.000	276.011	80.010	19.992	103.892	19.972	6.926	0.520
393.500	276.207	80.009	19.992	103.896	19.972	6.926	0.445
394.000	276.453	80.011	19.993	103.898	19.976	6.694	0.420
394.500	276.687	80.012	19.993	103.894	19.972	6.938	0.461
395.000	276.951	80.010	19.993	103.890	19.973	6.854	0.489
395.500	277.173	80.009	19.993	103.887	19.975	6.743	0.493
396.000	277.403	80.010	19.993	103.885	19.970	7.072	0.469
396.500	277.678	80.010	19.993	103.886	19.968	7.195	0.478
397.000	277.899	80.009	19.993	103.886	19.968	7.177	0.500
397.500	278.157	80.011	19.992	103.888	19.968	7.176	0.487
398.000	278.397	80.010	19.994	103.890	19.969	7.149	0.488
398.500	278.619	80.011	19.993	103.892	19.967	7.272	0.480
399.000	278.845	80.011	19.993	103.891	19.967	7.236	0.455
399.500	279.099	80.009	19.992	103.891	19.963	7.503	0.464
400.000	279.324	80.009	19.993	103.891	19.969	7.133	0.479
400.500	279.584	80.008	19.993	103.890	19.966	7.345	0.482
401.000	279.821	80.012	19.993	103.891	19.967	7.242	0.491
401.500	280.070	80.009	19.993	103.894	19.964	7.488	0.492
402.000	280.312	80.010	19.993	103.898	19.965	7.394	0.489
402.500	280.584	80.010	19.993	103.900	19.962	7.563	0.502
403.000	280.840	80.010	19.993	103.897	19.962	7.559	0.521
403.500	281.019	80.008	19.993	103.898	19.962	7.596	0.482
404.000	281.270	80.007	19.992	103.898	19.962	7.608	0.433
404.500	281.512	80.011	19.994	103.898	19.957	7.904	0.462
405.000	281.769	80.013	19.993	103.899	19.959	7.811	0.496
405.500	282.018	80.009	19.993	103.903	19.955	8.076	0.502
406.000	282.226	80.011	19.994	103.903	19.958	7.853	0.481
406.500	282.467	80.012	19.993	103.903	19.955	8.033	0.453
407.000	282.681	80.011	19.993	103.903	19.953	8.207	0.452
407.500	282.994	80.012	19.993	103.902	19.954	8.122	0.491
408.000	283.180	80.011	19.993	103.897	19.954	8.107	0.513
408.500	283.403	80.011	19.993	103.892	19.955	8.040	0.454
409.000	283.663	80.013	19.993	103.890	19.954	8.095	0.446
409.500	283.915	80.011	19.994	103.890	19.953	8.187	0.498
410.000	284.168	80.013	19.994	103.890	19.950	8.363	0.509
410.500	284.383	80.013	19.992	103.891	19.951	8.334	0.487
411.000	284.641	80.012	19.994	103.892	19.953	8.196	0.471
411.500	284.871	80.012	19.993	103.892	19.950	8.385	0.481
412.000	285.137	80.014	19.993	103.892	19.948	8.490	0.492
412.500	285.360	80.011	19.991	103.892	19.946	8.626	0.492
413.000	285.598	80.013	19.995	103.895	19.948	8.537	0.475
413.500	285.804	80.013	19.995	103.898	19.946	8.639	0.453
414.000	286.054	80.014	19.994	103.898	19.948	8.479	0.450
414.500	286.288	80.012	19.993	103.896	19.941	8.969	0.470
415.000	286.563	80.013	19.993	103.892	19.945	8.732	0.496
415.500	286.792	80.013	19.992	103.892	19.941	8.942	0.506
416.000	287.029	80.013	19.993	103.892	19.942	8.893	0.485
416.500	287.283	80.014	19.993	103.892	19.941	8.971	0.478
417.001	287.517	80.012	19.992	103.892	19.941	8.946	0.489
417.501	287.751	80.012	19.993	103.896	19.939	9.071	0.478
418.000	287.991	80.012	19.992	103.895	19.937	9.236	0.471
418.500	288.209	80.012	19.992	103.895	19.937	9.255	0.466
419.000	288.485	80.011	19.992	103.896	19.935	9.333	0.476
419.500	288.719	80.013	19.993	103.898	19.934	9.399	0.502
420.000	288.950	80.011	19.993	103.898	19.936	9.330	0.488
420.500	289.195	80.010	19.992	103.898	19.933	9.477	0.471
421.001	289.418	80.011	19.993	103.898	19.931	9.649	0.471
421.500	289.667	80.011	19.993	103.898	19.929	9.755	0.470
422.000	289.890	80.010	19.993	103.898	19.931	9.645	0.472
422.500	290.165	80.010	19.992	103.898	19.923	10.142	0.485
423.000	290.415	80.012	19.993	103.898	19.926	9.963	0.511
423.500	290.650	80.009	19.992	103.898	19.927	9.868	0.505
424.000	290.911	80.010	19.993	103.899	19.924	10.062	0.490
424.500	291.143	80.011	19.992	103.900	19.925	10.023	0.495
425.000	291.412	80.012	19.993	103.900	19.924	10.121	0.498
425.500	291.666	80.013	19.992	103.900	19.920	10.380	0.512
426.000	291.891	80.012	19.994	103.900	19.917	10.567	0.501
426.500	292.080	80.011	19.994	103.899	19.916	10.585	0.446
427.000	292.349	80.015	19.994	103.901	19.913	10.797	0.436
427.500	292.615	80.012	19.993	103.901	19.914	10.725	0.496
428.000	292.855	80.013	19.992	103.901	19.915	10.701	0.520
428.500	293.117	80.009	19.993	103.901	19.913	10.799	0.504
429.000	293.359	80.008	19.993	103.902	19.913	10.796	0.503
429.500	293.583	80.013	19.995	103.907	19.911	10.968	0.485
430.000	293.805	80.011	19.994	103.912	19.910	11.036	0.456
430.500	294.080	80.012	19.995	103.914	19.908	11.119	0.471
431.000	294.334	80.011	19.993	103.916	19.909	11.103	0.513
431.500	294.578	80.011	19.995	103.916	19.903	11.469	0.513
432.000	294.773	80.010	19.994	103.910	19.904	11.388	0.468
432.500	295.048	80.013	19.994	103.907	19.898	11.765	0.455
433.000	295.301	80.013	19.993	103.908	19.904	11.417	0.499
433.500	295.533	80.011	19.993	103.910	19.900	11.660	0.506
434.000	295.780	80.013	19.994	103.917	19.895	11.971	0.482
434.500	296.010	80.013	19.994	103.924	19.894	12.065	0.478
435.000	296.296	80.013	19.994	103.927	19.893	12.111	0.496
435.500	296.543	80.012	19.994	103.931	19.894	12.036	0.525
436.000	296.784	80.015	19.993	103.934	19.895	11.963	0.511
436.500	297.009	80.014	19.993	103.934	19.894	12.078	0.477
437.000	297.262	80.013	19.994	103.932	19.890	12.314	0.472
437.500	297.528	80.014	19.994	103.931	19.888	12.435	0.498
438.001	297.763	80.013	19.995	103.931	19.883	12.753	0.510
438.500	297.967	80.013	19.993	103.930	19.885	12.653	0.471
439.000	298.247	80.013	19.993	103.929	19.883	12.807	0.461
439.500	298.502	80.014	19.993	103.930	19.885	12.666	0.509
440.000	298.743	80.013	19.993	103.933	19.881	12.909	0.516
440.500	298.986	80.013	19.993	103.933	19.877	13.156	0.490
441.000	299.217	80.015	19.992	103.934	19.879	13.032	0.479
441.500	299.475	80.013	19.994	103.935	19.874	13.366	0.481
442.000	299.759	80.012	19.994	103.935	19.874	13.370	0.515
442.500	299.994	80.012	19.993	103.934	19.872	13.524	0.530
443.000	300.245	80.012	19.992	103.934	19.871	13.595	0.503
443.500	300.481	80.010	19.993	103.934	19.867	13.832	0.486
444.000	300.723	80.013	19.993	103.937	19.869	13.727	0.482
444.500	301.008	80.012	19.994	103.937	19.866	13.934	0.503
445.000	301.250	80.013	19.991	103.940	19.865	13.952	0.527
445.501	301.490	80.012	19.992	103.940	19.863	14.130	0.504
446.001	301.750	80.013	19.993	103.940	19.862	14.163	0.492
446.500	301.950	80.011	19.992	103.939	19.858	14.426	0.481
447.000	302.215	80.011	19.991	103.938	19.856	14.573	0.462
447.500	302.429	80.010	19.992	103.938	19.853	14.765	0.471
448.000	302.697	80.012	19.992	103.938	19.854	14.704	0.481
448.500	302.969	80.012	19.993	103.939	19.852	14.809	0.511
449.000	303.217	80.010	19.993	103.939	19.845	15.265	0.530
449.500	303.502	80.013	19.992	103.941	19.845	15.294	0.526
450.001	303.735	80.012	19.993	103.938	19.840	15.588	0.526
450.501	303.983	80.011	19.992	103.937	19.839	15.699	0.500
451.000	304.240	80.013	19.992	103.937	19.837	15.831	0.494
451.500	304.429	80.012	19.993	103.938	19.836	15.848	0.475
452.000	304.686	80.012	19.992	103.939	19.834	15.995	0.446
452.500	304.923	80.011	19.991	103.949	19.828	16.416	0.470
453.000	305.189	80.010	19.991	103.957	19.829	16.340	0.499
453.500	305.445	80.012	19.993	103.962	19.825	16.596	0.512
454.000	305.741	80.012	19.993	103.968	19.822	16.785	0.536
454.500	305.977	80.009	19.992	103.974	19.822	16.778	0.542
455.000	306.213	80.014	19.993	103.973	19.821	16.876	0.502
455.500	306.509	80.014	19.992	103.973	19.814	17.329	0.503
456.000	306.737	80.012	19.993	103.976	19.815	17.274	0.528
456.500	306.977	80.010	19.992	103.977	19.810	17.557	0.496
457.000	307.234	80.013	19.991	103.976	19.807	17.788	0.482
457.500	307.483	80.011	19.992	103.976	19.808	17.714	0.502
458.000	307.773	80.012	19.992	103.976	19.802	18.112	0.523
458.500	307.994	80.011	19.993	103.976	19.801	18.149	0.525
459.000	308.259	80.010	19.992	103.975	19.796	18.516	0.499
459.500	308.507	80.011	19.993	103.976	19.798	18.369	0.500
460.000	308.780	80.011	19.993	103.975	19.791	18.810	0.517
460.500	309.011	80.010	19.993	103.977	19.790	18.868	0.513
461.000	309.275	80.010	19.992	103.975	19.788	19.050	0.499
461.500	309.509	80.011	19.993	103.977	19.781	19.515	0.496
462.000	309.788	80.009	19.993	103.976	19.781	19.471	0.506
462.500	310.019	80.011	19.993	103.977	19.775	19.861	0.512
463.000	310.280	80.009	19.992	103.977	19.773	20.031	0.501
463.500	310.522	80.011	19.993	103.980	19.770	20.196	0.497
464.000	310.792	80.011	19.992	103.979	19.770	20.204	0.508
464.500	311.044	80.010	19.992	103.980	19.766	20.489	0.517
465.000	311.307	80.011	19.992	103.982	19.759	20.948	0.518
465.500	311.557	80.012	19.992	103.982	19.759	20.950	0.514
466.000	311.802	80.011	19.993	103.983	19.756	21.119	0.504
466.500	312.058	80.009	19.992	103.985	19.749	21.589	0.498
467.000	312.313	80.012	19.992	103.986	19.748	21.651	0.506
467.500	312.563	80.008	19.993	103.984	19.741	22.121	0.508
468.000	312.842	80.010	19.992	103.988	19.740	22.158	0.517
468.500	313.104	80.011	19.993	103.989	19.737	22.385	0.535
469.000	313.299	80.011	19.993	103.990	19.733	22.635	0.499
469.500	313.580	80.010	19.993	103.992	19.732	22.697	0.466
470.000	313.839	80.011	19.993	103.995	19.729	22.909	0.508
470.500	314.109	80.011	19.993	103.994	19.727	23.062	0.534
471.000	314.346	80.011	19.993	103.994	19.724	23.234	0.518
471.500	314.570	80.012	19.993	103.993	19.715	23.825	0.484
472.000	314.855	80.011	19.993	103.995	19.714	23.925	0.485
472.500	315.100	80.010	19.993	103.998	19.711	24.084	0.519
473.000	315.371	80.011	19.995	104.004	19.708	24.313	0.523
473.501	315.583	80.012	19.996	104.010	19.704	24.574	0.499
474.001	315.884	80.011	19.993	104.016	19.698	24.960	0.498
474.500	316.135	80.013	19.993	104.018	19.691	25.428	0.533
475.000	316.402	80.011	19.994	104.018	19.689	25.543	0.536
475.500	316.596	80.010	19.993	104.017	19.680	26.114	0.489
476.000	316.898	80.009	19.994	104.017	19.680	26.112	0.478
476.500	317.071	80.013	19.994	104.016	19.672	26.650	0.485
477.000	317.359	80.010	19.994	104.016	19.671	26.708	0.468
477.500	317.591	80.011	19.993	104.016	19.664	27.187	0.491
478.000	317.891	80.011	19.993	104.016	19.664	27.183	0.526
478.500	318.105	80.011	19.993	104.016	19.658	27.610	0.523
479.000	318.333	80.011	19.993	104.017	19.653	27.900	0.478
479.500	318.635	80.011	19.993	104.020	19.647	28.322	0.486
480.000	318.867	80.011	19.994	104.022	19.645	28.434	0.532
480.500	319.105	80.009	19.992	104.022	19.641	28.695	0.502
481.000	319.310	80.010	19.994	104.022	19.637	28.957	0.457
481.500	319.594	80.010	19.992	104.023	19.633	29.243	0.466
482.000	319.840	80.011	19.993	104.021	19.625	29.760	0.510
482.500	320.064	80.010	19.993	104.023	19.617	30.309	0.500
483.000	320.349	80.009	19.993	104.026	19.612	30.617	0.489
483.500	320.596	80.010	19.992	104.031	19.608	30.899	0.520
484.000	320.834	80.011	19.993	104.036	19.605	31.065	0.509
484.500	321.080	80.011	19.992	104.041	19.597	31.631	0.485
485.000	321.370	80.010	19.993	104.045	19.593	31.860	0.510
485.500	321.620	80.011	19.993	104.050	19.588	32.220	0.538
486.000	321.878	80.010	19.993	104.053	19.578	32.844	0.524
486.500	322.130	80.012	19.993	104.054	19.576	33.008	0.509
487.000	322.395	80.012	19.993	104.056	19.568	33.503	0.514
487.500	322.591	80.012	19.993	104.057	19.566	33.675	0.489
488.000	322.834	80.011	19.992	104.061	19.556	34.309	0.450
488.500	323.143	80.012	19.993	104.065	19.553	34.486	0.495
489.000	323.343	80.011	19.993	104.072	19.546	34.954	0.530
489.500	323.580	80.011	19.992	104.078	19.539	35.433	0.473
490.000	323.863	80.011	19.993	104.083	19.531	35.935	0.479
490.500	324.094	80.013	19.991	104.085	19.524	36.441	0.517
491.000	324.311	80.011	19.993	104.088	19.525	36.363	0.481
491.500	324.602	80.012	19.992	104.086	19.516	36.919	0.478
492.000	324.835	80.011	19.992	104.086	19.511	37.254	0.515
492.500	325.100	80.012	19.993	104.088	19.501	37.923	0.511
493.000	325.367	80.013	19.992	104.091	19.493	38.481	0.515
493.500	325.607	80.011	19.993	104.093	19.489	38.738	0.520
494.000	325.880	80.013	19.993	104.095	19.479	39.405	0.510
494.500	326.127	80.012	19.993	104.096	19.468	40.113	0.516
495.000	326.375	80.014	19.993	104.097	19.467	40.191	0.507
495.500	326.641	80.012	19.994	104.101	19.456	40.933	0.505
496.000	326.868	80.014	19.993	104.105	19.450	41.282	0.504
496.500	327.132	80.014	19.992	104.113	19.445	41.651	0.492
497.000	327.354	80.013	19.993	104.120	19.435	42.296	0.488
497.500	327.618	80.014	19.993	104.125	19.426	42.913	0.486
498.000	327.883	80.013	19.993	104.128	19.417	43.488	0.508
498.500	328.130	80.013	19.993	104.130	19.411	43.887	0.520
499.000	328.385	80.012	19.993	104.130	19.400	44.588	0.507
499.500	328.643	80.014	19.994	104.131	19.396	44.870	0.508
500.000	328.871	80.013	19.992	104.133	19.387	45.433	0.499
500.500	329.158	80.013	19.993	104.135	19.377	46.149	0.501
501.000	329.358	80.013	19.993	104.138	19.374	46.301	0.502
501.500	329.636	80.013	19.993	104.144	19.363	47.076	0.482
502.000	329.913	80.013	19.993	104.150	19.352	47.750	0.516
502.500	330.126	80.014	19.993	104.152	19.351	47.869	0.523
503.000	330.381	80.013	19.993	104.154	19.337	48.733	0.479
503.500	330.649	80.013	19.993	104.154	19.329	49.295	0.495
504.000	330.900	80.012	19.993	104.152	19.316	50.177	0.521
504.500	331.138	80.011	19.992	104.154	19.307	50.718	0.504
505.000	331.404	80.012	19.993	104.159	19.306	50.811	0.497
505.500	331.662	80.012	19.993	104.164	19.290	51.851	0.514
506.000	331.979	80.011	19.994	104.169	19.279	52.583	0.549
506.500	332.173	80.012	19.993	104.173	19.268	53.294	0.542
507.000	332.436	80.012	19.993	104.176	19.262	53.700	0.484
507.500	332.645	80.012	19.993	104.180	19.250	54.497	0.465
508.000	332.920	80.012	19.992	104.186	19.243	55.004	0.478
508.500	333.180	80.011	19.993	104.194	19.229	55.876	0.509
509.000	333.411	80.014	19.993	104.200	19.221	56.437	0.513
509.500	333.660	80.011	19.993	104.207	19.212	57.044	0.486
510.000	333.918	80.012	19.992	104.212	19.207	57.348	0.494
510.500	334.201	80.013	19.993	104.217	19.195	58.165	0.524
511.000	334.403	80.011	19.993	104.219	19.186	58.765	0.513
511.501	334.664	80.012	19.993	104.221	19.175	59.485	0.474
512.000	334.894	80.010	19.993	104.222	19.160	60.473	0.477
512.501	335.138	80.012	19.993	104.227	19.153	60.950	0.482
513.001	335.411	80.010	19.993	104.231	19.149	61.217	0.495
513.500	335.640	80.012	19.993	104.237	19.132	62.284	0.510
514.000	335.920	80.011	19.992	104.243	19.125	62.788	0.506
514.500	336.149	80.012	19.992	104.250	19.114	63.487	0.508
515.000	336.417	80.013	19.994	104.253	19.105	64.099	0.503
515.500	336.672	80.012	19.993	104.253	19.094	64.797	0.510
516.000	336.898	80.012	19.993	104.253	19.080	65.735	0.502
516.500	337.180	80.013	19.993	104.253	19.068	66.538	0.495
517.000	337.408	80.012	19.992	104.258	19.060	67.063	0.509
517.500	337.625	80.013	19.994	104.261	19.045	68.083	0.477
518.000	337.899	80.013	19.993	104.263	19.036	68.647	0.468
518.500	338.129	80.010	19.993	104.270	19.024	69.471	0.497
519.000	338.395	80.013	19.993	104.278	19.013	70.164	0.500
519.500	338.603	80.013	19.993	104.281	19.003	70.819	0.485
520.000	338.867	80.014	19.993	104.289	18.993	71.511	0.472
520.500	339.141	80.013	19.993	104.294	18.979	72.456	0.505
521.000	339.378	80.013	19.992	104.297	18.972	72.876	0.525
521.500	339.606	80.012	19.992	104.301	18.956	73.933	0.489
522.000	339.838	80.012	19.993	104.307	18.946	74.614	0.463
522.501	340.114	80.012	19.992	104.311	18.939	75.116	0.483
523.001	340.333	80.013	19.992	104.318	18.915	76.692	0.501
523.500	340.595	80.013	19.993	104.324	18.908	77.142	0.488
524.000	340.837	80.013	19.992	104.327	18.895	78.028	0.492
524.500	341.055	80.011	19.992	104.329	18.882	78.897	0.482
525.000	341.328	80.012	19.994	104.330	18.867	79.875	0.476
525.500	341.601	80.013	19.993	104.330	18.856	80.601	0.519
526.000	341.867	80.012	19.993	104.330	18.844	81.362	0.543
526.500	342.085	80.012	19.993	104.336	18.831	82.213	0.511
527.000	342.343	80.012	19.993	104.342	18.821	82.912	0.480
527.500	342.573	80.013	19.992	104.347	18.808	83.776	0.482
528.000	342.839	80.012	19.993	104.355	18.798	84.435	0.492
528.500	343.070	80.012	19.993	104.362	18.785	85.269	0.497
529.000	343.305	80.013	19.994	104.367	18.770	86.273	0.482
529.500	343.521	80.011	19.993	104.371	18.759	86.988	0.458
530.000	343.756	80.011	19.994	104.377	18.746	87.846	0.451
530.500	344.033	80.012	19.994	104.380	18.732	88.782	0.481
531.000	344.245	80.011	19.994	104.382	18.720	89.592	0.500
531.500	344.528	80.009	19.994	104.386	18.712	90.076	0.492
532.000	344.747	80.010	19.993	104.390	18.696	91.156	0.499
532.501	344.967	80.006	19.994	104.394	18.683	92.044	0.470
533.000	345.262	80.009	19.994	104.399	18.665	93.199	0.477
533.500	345.487	80.010	19.995	104.407	18.655	93.871	0.518
534.000	345.736	80.009	19.996	104.413	18.643	94.699	0.497
534.500	345.995	80.009	19.995	104.423	18.630	95.551	0.491
535.000	346.271	80.010	19.997	104.431	18.616	96.452	0.522
535.500	346.477	80.010	19.995	104.439	18.604	97.244	0.509
536.000	346.715	80.009	19.995	104.445	18.593	98.029	0.463
536.500	346.967	80.010	19.995	104.449	18.580	98.846	0.467
537.000	347.197	80.011	19.994	104.449	18.569	99.598	0.486
537.500	347.407	80.011	19.994	104.449	18.555	100.522	0.461
538.000	347.668	80.010	19.994	104.449	18.544	101.270	0.456
538.500	347.914	80.013	19.994	104.449	18.535	101.816	0.489
539.000	348.176	80.009	19.993	104.449	18.522	102.671	0.508
539.500	348.395	80.011	19.994	104.449	18.508	103.607	0.495
540.000	348.669	80.009	19.994	104.449	18.496	104.410	0.487
540.500	348.915	80.011	19.993	104.452	18.481	105.387	0.506
541.000	349.168	80.011	19.994	104.453	18.470	106.126	0.509
541.500	349.403	80.011	19.993	104.455	18.460	106.819	0.493
542.000	349.654	80.011	19.994	104.460	18.450	107.452	0.487
542.500	349.941	80.011	19.993	104.467	18.436	108.367	0.512
543.000	350.182	80.010	19.993	104.471	18.428	108.936	0.533
543.500	350.398	80.011	19.993	104.477	18.409	110.154	0.493
544.000	350.670	80.011	19.994	104.483	18.401	110.693	0.472
544.500	350.918	80.010	19.993	104.486	18.391	111.324	0.504
545.000	351.159	80.010	19.992	104.492	18.377	112.309	0.505
545.500	351.435	80.011	19.993	104.496	18.369	112.781	0.503
546.000	351.629	80.012	19.992	104.504	18.349	114.159	0.493
546.500	351.883	80.012	19.993	104.509	18.345	114.370	0.460
547.000	352.149	80.010	19.992	104.516	18.333	115.214	0.484
547.500	352.403	80.011	19.993	104.517	18.323	115.882	0.520
548.000	352.649	80.011	19.993	104.521	18.309	116.755	0.510
548.500	352.891	80.011	19.993	104.521	18.298	117.506	0.494
549.000	353.151	80.012	19.992	104.523	18.290	118.006	0.496
549.500	353.394	80.012	19.992	104.523	18.282	118.522	0.503
550.000	353.645	80.010	19.992	104.524	18.269	119.392	0.498
550.500	353.916	80.011	19.992	104.524	18.265	119.679	0.507
551.000	354.162	80.012	19.992	104.524	18.251	120.588	0.520
551.500	354.405	80.011	19.992	104.524	18.241	121.266	0.503
552.000	354.646	80.011	19.993	104.524	18.229	122.020	0.487
552.500	354.910	80.012	19.992	104.524	18.224	122.383	0.494
553.000	355.138	80.010	19.993	104.525	18.211	123.205	0.498
553.500	355.366	80.012	19.993	104.528	18.204	123.678	0.474
554.000	355.622	80.010	19.993	104.529	18.194	124.364	0.470
554.500	355.879	80.011	19.993	104.532	18.185	124.925	0.498
555.001	356.140	80.011	19.992	104.532	18.176	125.533	0.515
555.501	356.358	80.013	19.993	104.532	18.171	125.836	0.498
556.000	356.640	80.012	19.994	104.531	18.164	126.323	0.489
556.500	356.867	80.012	19.993	104.534	18.159	126.637	0.505
557.000	357.131	80.010	19.992	104.537	18.153	126.992	0.500
557.500	357.399	80.009	19.993	104.541	18.141	127.816	0.511
558.000	357.664	80.011	19.992	104.547	18.134	128.293	0.532
558.500	357.879	80.012	19.995	104.548	18.132	128.380	0.507
559.000	358.143	80.010	19.992	104.544	18.128	128.633	0.480
559.500	358.400	80.012	19.993	104.540	18.119	129.223	0.500
560.000	358.650	80.010	19.992	104.536	18.118	129.285	0.514
560.500	358.889	80.012	19.993	104.530	18.112	129.666	0.498
561.000	359.138	80.011	19.992	104.528	18.106	130.060	0.488
561.500	359.367	80.011	19.994	104.527	18.106	130.087	0.483
562.000	359.622	80.012	19.993	104.526	18.105	130.104	0.481
562.500	359.898	80.010	19.994	104.530	18.100	130.457	0.508
563.000	360.201	80.011	19.993	104.532	18.099	130.489	0.555
563.500	360.445	80.011	19.992	104.531	18.095	130.748	0.563
564.000	360.693	80.011	19.993	104.530	18.087	131.326	0.519
564.500	360.923	80.011	19.993	104.529	18.091	131.052	0.485
565.000	361.196	80.010	19.992	104.520	18.092	130.964	0.491
565.500	361.456	80.010	19.993	104.509	18.087	131.305	0.518
566.000	361.689	80.010	19.993	104.502	18.090	131.076	0.513
566.500	361.908	80.011	19.993	104.495	18.087	131.250	0.472
567.000	362.159	80.012	19.994	104.490	18.088	131.193	0.460
567.500	362.417	80.011	19.994	104.495	18.091	130.988	0.490
568.000	362.688	80.012	19.993	104.494	18.087	131.209	0.519
568.500	362.917	80.010	19.993	104.494	18.089	131.082	0.515
569.000	363.197	80.010	19.993	104.494	18.094	130.746	0.505
569.500	363.472	80.011	19.993	104.492	18.091	130.926	0.532
570.000	363.734	80.011	19.993	104.479	18.102	130.168	0.546
570.500	363.916	80.009	19.994	104.472	18.099	130.351	0.490
571.000	364.179	80.012	19.994	104.465	18.108	129.779	0.444
571.500	364.425	80.010	19.993	104.457	18.112	129.481	0.477
572.000	364.689	80.011	19.993	104.450	18.116	129.208	0.510
572.500	364.969	80.011	19.994	104.448	18.119	128.995	0.527
573.000	365.197	80.011	19.994	104.447	18.125	128.578	0.526
573.500	365.472	80.010	19.993	104.444	18.135	127.948	0.505
574.000	365.690	80.012	19.993	104.441	18.141	127.546	0.498
574.500	365.977	80.012	19.994	104.437	18.151	126.866	0.499
575.001	366.218	80.012	19.993	104.434	18.155	126.567	0.517
575.501	366.512	80.012	19.993	104.426	18.168	125.729	0.531
576.000	366.797	80.011	19.992	104.421	18.175	125.311	0.557
576.500	367.038	80.012	19.992	104.413	18.181	124.881	0.553
577.000	367.248	80.011	19.993	104.402	18.192	124.124	0.489
577.500	367.464	80.012	19.994	104.392	18.206	123.190	0.438
578.000	367.732	80.012	19.992	104.385	18.216	122.532	0.455
578.500	367.971	80.012	19.993	104.377	18.229	121.699	0.495
579.000	368.223	80.014	19.994	104.366	18.240	120.908	0.499
579.500	368.494	80.012	19.992	104.360	18.252	120.161	0.507
580.000	368.718	80.014	19.992	104.351	18.267	119.123	0.509
580.500	368.962	80.013	19.993	104.344	18.277	118.473	0.482
581.000	369.238	80.013	19.993	104.336	18.291	117.537	0.494
581.500	369.488	80.015	19.993	104.331	18.307	116.510	0.523
582.000	369.720	80.013	19.992	104.320	18.319	115.665	0.504
582.500	369.960	80.012	19.992	104.312	18.336	114.557	0.477
583.000	370.223	80.013	19.992	104.303	18.348	113.762	0.487
583.500	370.472	80.014	19.991	104.294	18.364	112.726	0.507
584.000	370.725	80.014	19.992	104.283	18.382	111.483	0.507
584.500	370.961	80.012	19.991	104.276	18.400	110.345	0.495
585.000	371.201	80.012	19.993	104.267	18.416	109.277	0.483
585.500	371.457	80.014	19.991	104.260	18.430	108.311	0.486
586.000	371.710	80.014	19.991	104.254	18.447	107.186	0.503
586.500	371.947	80.012	19.992	104.253	18.469	105.751	0.500
587.000	372.175	80.012	19.992	104.251	18.484	104.770	0.477
587.500	372.472	80.012	19.992	104.245	18.503	103.487	0.495
588.000	372.712	80.012	19.991	104.237	18.520	102.390	0.531
588.500	372.953	80.013	19.992	104.229	18.540	101.065	0.509
589.000	373.218	80.012	19.992	104.219	18.560	99.757	0.493
589.500	373.501	80.012	19.992	104.207	18.580	98.404	0.527
590.000	373.718	80.012	19.992	104.199	18.602	96.990	0.524
590.500	373.988	80.012	19.991	104.191	18.623	95.577	0.493
591.000	374.224	80.011	19.992	104.183	18.641	94.409	0.496
591.500	374.497	80.012	19.993	104.173	18.667	92.683	0.508
592.000	374.760	80.013	19.992	104.164	18.686	91.395	0.523
592.500	374.976	80.013	19.991	104.155	18.706	90.081	0.508
593.000	375.228	80.014	19.994	104.148	18.727	88.732	0.474
593.500	375.454	80.013	19.993	104.140	18.749	87.291	0.473
594.000	375.740	80.012	19.994	104.135	18.767	86.059	0.495
594.500	375.987	80.012	19.994	104.131	18.794	84.272	0.523
595.000	376.219	80.011	19.992	104.124	18.815	82.897	0.506
595.500	376.485	80.012	19.993	104.116	18.842	81.140	0.488
596.000	376.723	80.012	19.993	104.108	18.861	79.909	0.501
596.500	376.977	80.011	19.993	104.097	18.881	78.574	0.498
597.000	377.208	80.010	19.993	104.086	18.905	76.968	0.489
597.501	377.493	80.012	19.993	104.078	18.924	75.721	0.501
598.001	377.770	80.013	19.993	104.071	18.951	73.990	0.539
598.500	378.012	80.012	19.994	104.063	18.968	72.839	0.540
599.000	378.253	80.011	19.992	104.057	18.989	71.492	0.501
599.500	378.490	80.012	19.993	104.054	19.011	69.985	0.480
600.000	378.761	80.011	19.992	104.048	19.033	68.594	0.493
600.500	379.013	80.012	19.992	104.039	19.057	66.976	0.516
601.000	379.237	80.012	19.993	104.031	19.077	65.640	0.500
601.500	379.488	80.012	19.993	104.027	19.098	64.304	0.475
602.000	379.734	80.011	19.993	104.021	19.117	63.009	0.486
602.500	379.985	80.011	19.994	104.019	19.140	61.507	0.497
603.000	380.272	80.011	19.993	104.017	19.160	60.217	0.518
603.500	380.518	80.013	19.993	104.014	19.181	58.839	0.536
604.000	380.808	80.011	19.993	104.007	19.201	57.556	0.534
604.500	381.022	80.014	19.993	104.000	19.220	56.311	0.520
605.000	381.313	80.012	19.992	103.992	19.242	54.824	0.505
605.500	381.591	80.014	19.993	103.981	19.258	53.786	0.537
606.000	381.802	80.012	19.993	103.971	19.283	52.143	0.529
606.500	382.066	80.013	19.993	103.969	19.301	50.962	0.482
607.000	382.376	80.014	19.993	103.966	19.325	49.370	0.525
607.500	382.604	80.014	19.992	103.963	19.340	48.372	0.556
608.000	382.845	80.014	19.994	103.960	19.360	47.083	0.504
608.500	383.141	80.014	19.993	103.957	19.378	45.877	0.503
609.000	383.356	80.014	19.993	103.949	19.394	44.853	0.523
609.500	383.616	80.015	19.994	103.942	19.414	43.539	0.493
610.000	383.917	80.014	19.993	103.936	19.433	42.313	0.518
610.500	384.164	80.014	19.992	103.929	19.444	41.575	0.554
611.000	384.428	80.015	19.992	103.920	19.463	40.310	0.529
611.500	384.661	80.014	19.993	103.912	19.483	39.034	0.504
612.000	384.946	80.013	19.993	103.905	19.497	38.067	0.508
612.500	385.227	80.013	19.994	103.898	19.512	37.131	0.542
613.000	385.452	80.015	19.994	103.896	19.527	36.124	0.536
613.500	385.716	80.012	19.992	103.896	19.544	35.001	0.497
614.000	385.977	80.014	19.993	103.896	19.558	34.053	0.508
614.500	386.207	80.014	19.994	103.897	19.579	32.684	0.508
615.000	386.472	80.013	19.994	103.896	19.588	32.092	0.493
615.500	386.738	80.011	19.993	103.895	19.604	31.089	0.513
616.000	386.970	80.012	19.993	103.889	19.619	30.058	0.514
616.500	387.233	80.013	19.994	103.882	19.635	29.055	0.496
617.000	387.518	80.012	19.994	103.875	19.648	28.189	0.522
617.500	387.808	80.011	19.994	103.867	19.664	27.158	0.562
618.000	388.053	80.011	19.993	103.860	19.676	26.355	0.555
618.500	388.338	80.012	19.994	103.859	19.686	25.711	0.533
619.000	388.590	80.012	19.994	103.860	19.694	25.186	0.533
619.500	388.833	80.012	19.993	103.860	19.708	24.270	0.516
620.000	389.075	80.012	19.995	103.860	19.719	23.512	0.490
620.500	389.360	80.011	19.993	103.859	19.731	22.715	0.506
621.000	389.636	80.012	19.995	103.859	19.741	22.051	0.544
621.500	389.846	80.011	19.994	103.855	19.749	21.542	0.523
622.000	390.147	80.012	19.993	103.852	19.762	20.706	0.498
622.500	390.418	80.010	19.994	103.852	19.766	20.433	0.541
623.000	390.658	80.010	19.993	103.850	19.781	19.459	0.542
623.500	390.935	80.011	19.993	103.847	19.786	19.108	0.514
624.000	391.176	80.010	19.993	103.845	19.801	18.161	0.518
624.500	391.400	80.011	19.995	103.843	19.809	17.617	0.491
625.000	391.645	80.012	19.994	103.836	19.815	17.220	0.467
625.500	391.938	80.012	19.994	103.836	19.828	16.348	0.503
626.000	392.193	80.010	19.994	103.838	19.833	16.049	0.543
626.500	392.466	80.012	19.995	103.838	19.843	15.399	0.539
627.000	392.696	80.011	19.994	103.835	19.848	15.057	0.515
627.500	392.963	80.011	19.993	103.834	19.856	14.558	0.499
628.001	393.208	80.011	19.994	103.833	19.861	14.199	0.505
628.501	393.505	80.012	19.994	103.829	19.868	13.730	0.528
629.000	393.748	80.011	19.994	103.829	19.873	13.417	0.541
629.500	394.023	80.010	19.993	103.831	19.877	13.157	0.528
630.000	394.290	80.010	19.994	103.833	19.888	12.467	0.530
630.500	394.549	80.011	19.994	103.829	19.891	12.224	0.534
631.000	394.798	80.011	19.994	103.829	19.898	11.801	0.517
631.500	395.082	80.012	19.994	103.826	19.904	11.413	0.520
632.000	395.342	80.011	19.995	103.824	19.909	11.036	0.538
632.500	395.616	80.010	19.995	103.825	19.914	10.724	0.539
633.000	395.850	80.011	19.994	103.824	19.916	10.599	0.522
633.500	396.121	80.010	19.994	103.825	19.922	10.206	0.507
634.000	396.349	80.011	19.995	103.825	19.927	9.894	0.502
634.500	396.593	80.011	19.994	103.825	19.934	9.390	0.485
635.000	396.821	80.012	19.995	103.821	19.936	9.298	0.472
635.500	397.119	80.012	19.993	103.822	19.942	8.870	0.499
636.000	397.341	80.011	19.995	103.822	19.944	8.788	0.523
636.500	397.599	80.011	19.995	103.821	19.945	8.694	0.500
637.000	397.854	80.011	19.994	103.821	19.949	8.408	0.497
637.500	398.126	80.012	19.993	103.826	19.955	8.047	0.521
638.000	398.366	80.011	19.995	103.831	19.962	7.614	0.520
638.500	398.660	80.011	19.994	103.830	19.958	7.846	0.523
639.001	398.888	80.011	19.993	103.831	19.958	7.831	0.528
639.501	399.178	80.012	19.994	103.831	19.968	7.219	0.520
640.000	399.397	80.011	19.995	103.828	19.969	7.144	0.513
640.500	399.625	80.011	19.994	103.823	19.970	7.086	0.478
641.000	399.869	80.012	19.993	103.823	19.970	7.032	0.460
641.500	400.141	80.012	19.993	103.823	19.972	6.954	0.494
642.000	400.421	80.011	19.993	103.822	19.971	7.003	0.534
642.500	400.661	80.010	19.994	103.821	19.973	6.853	0.536
643.000	400.877	80.012	19.994	103.821	19.977	6.630	0.488
643.500	401.140	80.011	19.993	103.821	19.981	6.309	0.467
644.000	401.389	80.012	19.995	103.820	19.980	6.427	0.495
644.500	401.648	80.012	19.994	103.819	19.981	6.318	0.510
645.000	401.888	80.012	19.993	103.818	19.984	6.156	0.504
645.500	402.187	80.012	19.993	103.818	19.989	5.796	0.519
646.000	402.431	80.012	19.994	103.819	19.993	5.582	0.541
646.500	402.623	80.010	19.993	103.820	19.992	5.620	0.489
647.000	402.902	80.012	19.994	103.822	19.992	5.631	0.453
647.500	403.125	80.012	19.993	103.824	19.990	5.734	0.487
648.000	403.364	80.012	19.993	103.824	19.996	5.359	0.482
648.500	403.660	80.011	19.994	103.823	19.995	5.413	0.498
649.000	403.894	80.012	19.994	103.823	19.993	5.533	0.532
649.500	404.120	80.012	19.993	103.824	19.994	5.458	0.495
650.000	404.359	80.012	19.993	103.823	19.996	5.375	0.463
650.500	404.633	80.011	19.993	103.822	20.000	5.063	0.489
651.000	404.859	80.012	19.993	103.821	20.000	5.092	0.507
651.500	405.070	80.010	19.992	103.821	20.001	5.047	0.468
652.000	405.290	80.012	19.994	103.821	19.999	5.159	0.434
652.500	405.579	80.012	19.994	103.823	19.997	5.313	0.470
653.000	405.779	80.014	19.995	103.826	20.002	4.958	0.499
653.500	406.052	80.011	19.996	103.831	20.002	4.978	0.481
654.000	406.294	80.010	19.994	103.830	20.003	4.931	0.494
654.500	406.501	80.011	19.995	103.830	20.002	4.965	0.482
655.000	406.748	80.010	19.994	103.830	20.009	4.525	0.451
655.500	406.968	80.012	19.994	103.827	20.004	4.806	0.460
656.000	407.207	80.011	19.994	103.825	20.005	4.750	0.463
656.500	407.464	80.012	19.994	103.826	20.008	4.567	0.478
657.000	407.668	80.011	19.994	103.825	20.008	4.559	0.479
657.500	407.922	80.011	19.994	103.824	20.007	4.612	0.460
658.000	408.150	80.012	19.993	103.824	20.008	4.547	0.470
658.500	408.383	80.010	19.993	103.823	20.009	4.514	0.471
659.000	408.624	80.011	19.994	103.823	20.009	4.503	0.467
659.500	408.818	80.011	19.993	103.823	20.009	4.474	0.454
660.000	409.085	80.011	19.993	103.823	20.010	4.465	0.448
660.500	409.329	80.012	19.994	103.819	20.009	4.503	0.486
661.000	409.545	80.010	19.993	103.817	20.013	4.246	0.486
661.500	409.804	80.011	19.993	103.816	20.008	4.585	0.468
662.000	410.025	80.013	19.994	103.818	20.010	4.429	0.477
662.500	410.271	80.013	19.993	103.818	20.011	4.405	0.473
663.000	410.481	80.011	19.993	103.822	20.008	4.572	0.461
663.500	410.714	80.012	19.993	103.825	20.009	4.474	0.450
664.000	410.965	80.012	19.993	103.826	20.011	4.398	0.464
664.500	411.218	80.012	19.993	103.826	20.011	4.375	0.494
665.000	411.409	80.013	19.992	103.825	20.006	4.674	0.474
665.500	411.663	80.012	19.992	103.825	20.007	4.623	0.445
666.000	411.900	80.013	19.993	103.825	20.007	4.605	0.468
666.500	412.096	80.013	19.993	103.825	20.011	4.394	0.462
667.000	412.329	80.012	19.993	103.825	20.008	4.545	0.431
667.500	412.589	80.013	19.993	103.825	20.008	4.552	0.461
668.000	412.785	80.012	19.992	103.827	20.008	4.539	0.474
668.500	413.058	80.012	19.992	103.827	20.009	4.532	0.463
669.000	413.298	80.012	19.993	103.826	20.010	4.467	0.491
669.500	413.522	80.012	19.993	103.826	20.009	4.534	0.489
670.000	413.770	80.012	19.992	103.827	20.003	4.878	0.468
670.500	414.000	80.013	19.993	103.826	20.005	4.789	0.475
671.000	414.205	80.013	19.993	103.826	20.004	4.829	0.456
671.500	414.459	80.012	19.994	103.826	20.007	4.639	0.447
672.000	414.678	80.012	19.993	103.826	20.007	4.657	0.466
672.500	414.930	80.013	19.992	103.825	20.009	4.510	0.472
673.000	415.137	80.012	19.992	103.824	20.008	4.550	0.465
673.500	415.390	80.014	19.993	103.825	20.008	4.563	0.459
674.000	415.679	80.013	19.992	103.826	20.009	4.534	0.501
674.500	415.893	80.012	19.992	103.828	20.010	4.414	0.523
675.000	416.138	80.013	19.993	103.828	20.007	4.662	0.481
675.500	416.311	80.013	19.993	103.827	20.008	4.548	0.438
676.000	416.567	80.012	19.992	103.826	20.006	4.715	0.423
676.500	416.796	80.012	19.993	103.824	20.010	4.418	0.457
677.000	417.054	80.013	19.993	103.822	20.008	4.579	0.486
677.500	417.307	80.012	19.993	103.822	20.006	4.729	0.499
678.000	417.537	80.011	19.993	103.823	20.009	4.490	0.497
678.500	417.765	80.012	19.992	103.822	20.010	4.439	0.471
679.000	417.985	80.012	19.991	103.822	20.010	4.467	0.453
679.500	418.239	80.012	19.993	103.821	20.008	4.574	0.461
680.000	418.487	80.012	19.992	103.822	20.010	4.416	0.489
680.500	418.731	80.013	19.994	103.822	20.008	4.572	0.498
681.000	418.973	80.013	19.993	103.821	20.009	4.497	0.489
681.500	419.215	80.012	19.994	103.821	20.010	4.430	0.485
682.000	419.460	80.013	19.993	103.822	20.008	4.543	0.485
682.500	419.692	80.012	19.993	103.822	20.005	4.757	0.482
683.000	419.941	80.013	19.994	103.821	20.009	4.537	0.479
683.500	420.182	80.012	19.992	103.821	20.005	4.777	0.486
684.000	420.398	80.013	19.993	103.821	20.011	4.362	0.474
684.500	420.662	80.013	19.993	103.820	20.010	4.449	0.468
685.000	420.907	80.013	19.992	103.820	20.010	4.409	0.494
685.500	421.164	80.014	19.992	103.820	20.009	4.514	0.506
686.000	421.350	80.013	19.992	103.818	20.006	4.681	0.473
686.500	421.612	80.014	19.994	103.817	20.009	4.526	0.445
687.000	421.864	80.014	19.993	103.817	20.006	4.722	0.481
687.500	422.109	80.014	19.992	103.815	20.005	4.753	0.506
688.000	422.335	80.015	19.994	103.816	20.005	4.766	0.484
688.500	422.593	80.014	19.993	103.818	20.005	4.737	0.477
689.000	422.837	80.014	19.992	103.820	20.004	4.853	0.493
689.500	423.086	80.014	19.992	103.820	20.007	4.655	0.498
690.000	423.326	80.014	19.992	103.821	20.005	4.757	0.491
690.500	423.551	80.014	19.992	103.821	20.008	4.566	0.477
691.000	423.814	80.015	19.991	103.821	20.006	4.721	0.476
691.500	424.044	80.013	19.993	103.820	20.008	4.595	0.490
692.000	424.271	80.015	19.992	103.818	20.007	4.621	0.475
692.500	424.497	80.014	19.993	103.818	20.011	4.341	0.455
693.000	424.774	80.014	19.992	103.819	20.010	4.465	0.478
693.500	425.032	80.014	19.992	103.819	20.010	4.432	0.519
694.000	425.272	80.015	19.993	103.818	20.005	4.738	0.517
694.500	425.465	80.014	19.992	103.820	20.007	4.637	0.465
695.000	425.712	80.014	19.993	103.820	20.011	4.365	0.436
695.500	425.933	80.015	19.993	103.820	20.003	4.896	0.454
696.000	426.212	80.014	19.993	103.819	20.005	4.775	0.484
696.500	426.435	80.013	19.992	103.820	20.007	4.606	0.501
697.000	426.667	80.014	19.993	103.819	20.004	4.840	0.478
697.500	426.936	80.014	19.992	103.819	20.004	4.809	0.478
698.000	427.156	80.013	19.992	103.819	20.008	4.546	0.495
698.500	427.379	80.013	19.993	103.819	20.008	4.595	0.466
699.000	427.641	80.014	19.994	103.819	20.009	4.521	0.464
699.500	427.895	80.012	19.993	103.819	20.010	4.456	0.501
700.000	428.096	80.013	19.992	103.820	20.010	4.445	0.486
700.500	428.318	80.013	19.994	103.820	20.010	4.452	0.439
701.000	428.576	80.011	19.993	103.822	20.010	4.423	0.452
701.500	428.831	80.011	19.994	103.821	20.010	4.456	0.497
702.000	429.036	80.010	19.992	103.821	20.013	4.256	0.486
702.500	429.284	80.011	19.993	103.820	20.007	4.633	0.457
703.000	429.517	80.011	19.993	103.818	20.010	4.407	0.468
703.500	429.760	80.011	19.993	103.816	20.011	4.398	0.479
704.000	429.998	80.012	19.994	103.816	20.009	4.476	0.478
704.500	430.241	80.010	19.993	103.815	20.009	4.492	0.481
705.000	430.488	80.012	19.994	103.812	20.011	4.398	0.485
705.500	430.728	80.011	19.994	103.815	20.010	4.414	0.489
706.000	431.023	80.011	19.992	103.816	20.011	4.389	0.511
706.500	431.202	80.011	19.994	103.816	20.009	4.508	0.504
707.000	431.482	80.010	19.994	103.818	20.013	4.238	0.466
707.500	431.660	80.010	19.995	103.821	20.006	4.675	0.459
708.000	431.903	80.011	19.993	103.821	20.006	4.708	0.440
708.500	432.188	80.010	19.993	103.821	20.008	4.565	0.475
709.000	432.416	80.011	19.994	103.821	20.007	4.628	0.521
709.500	432.643	80.011	19.993	103.820	20.010	4.470	0.484
710.000	432.889	80.011	19.992	103.820	20.009	4.498	0.464
710.500	433.185	80.011	19.992	103.819	20.008	4.581	0.507
711.000	433.398	80.011	19.995	103.818	20.008	4.545	0.526
711.500	433.616	80.010	19.993	103.818	20.011	4.378	0.470
712.000	433.871	80.011	19.995	103.818	20.013	4.228	0.452
712.500	434.104	80.010	19.994	103.819	20.013	4.248	0.480
713.000	434.386	80.014	19.996	103.820	20.012	4.340	0.501
713.500	434.616	80.012	19.994	103.821	20.012	4.331	0.513
714.000	434.852	80.012	19.995	103.822	20.011	4.379	0.489
714.500	435.105	80.010	19.996	103.823	20.009	4.505	0.478
715.000	435.314	80.012	19.994	103.823	20.007	4.621	0.475
715.500	435.581	80.011	19.993	103.822	20.005	4.748	0.469
716.000	435.814	80.012	19.994	103.822	20.011	4.385	0.488
716.500	436.048	80.011	19.994	103.823	20.010	4.447	0.484
717.000	436.250	80.012	19.993	103.822	20.013	4.257	0.452
717.500	436.514	80.011	19.993	103.822	20.012	4.315	0.451
718.000	436.760	80.012	19.993	103.823	20.011	4.393	0.488
718.500	437.008	80.011	19.993	103.823	20.010	4.409	0.502
719.000	437.211	80.012	19.994	103.823	20.015	4.133	0.473
719.500	437.464	80.013	19.994	103.824	20.012	4.336	0.454
720.000	437.731	80.011	19.993	103.824	20.014	4.186	0.488
720.500	437.963	80.012	19.993	103.824	20.010	4.447	0.509
721.000	438.193	80.011	19.993	103.824	20.010	4.461	0.480
721.500	438.427	80.011	19.994	103.826	20.005	4.753	0.463
722.000	438.635	80.010	19.992	103.828	20.009	4.532	0.453
722.500	438.875	80.012	19.994	103.828	20.013	4.242	0.445
723.000	439.122	80.010	19.992	103.828	20.011	4.342	0.467
723.500	439.392	80.011	19.994	103.829	20.013	4.222	0.502
724.000	439.637	80.012	19.993	103.831	20.015	4.135	0.516
724.500	439.915	80.010	19.993	103.834	20.010	4.454	0.519
725.000	440.141	80.012	19.993	103.836	20.013	4.233	0.514
725.500	440.357	80.011	19.992	103.836	20.012	4.282	0.473
726.000	440.623	80.011	19.995	103.835	20.011	4.351	0.462
726.500	440.850	80.013	19.994	103.831	20.012	4.282	0.488
727.000	441.123	80.011	19.993	103.827	20.011	4.347	0.496
727.500	441.311	80.010	19.993	103.825	20.011	4.378	0.480
728.000	441.577	80.011	19.993	103.826	20.011	4.365	0.457
728.500	441.837	80.010	19.996	103.826	20.012	4.322	0.490
729.000	442.026	80.011	19.993	103.825	20.012	4.311	0.487
729.500	442.290	80.011	19.996	103.825	20.012	4.329	0.451
730.000	442.545	80.012	19.995	103.825	20.013	4.242	0.486
730.500	442.768	80.010	19.995	103.823	20.007	4.650	0.498
731.000	443.024	80.010	19.994	103.823	20.013	4.262	0.478
731.500	443.299	80.010	19.994	103.824	20.011	4.367	0.505
732.000	443.565	80.010	19.993	103.824	20.008	4.546	0.536
732.500	443.840	80.010	19.994	103.822	20.009	4.501	0.542
733.000	444.062	80.009	19.993	103.823	20.005	4.797	0.519
733.500	444.282	80.010	19.994	103.823	20.011	4.376	0.469
734.000	444.548	80.010	19.994	103.823	20.010	4.414	0.464
734.500	444.804	80.009	19.993	103.822	20.012	4.289	0.504
735.000	445.038	80.009	19.993	103.823	20.017	3.979	0.506
735.500	445.276	80.010	19.994	103.822	20.013	4.246	0.481
736.001	445.497	80.009	19.994	103.822	20.010	4.460	0.466
736.501	445.791	80.010	19.994	103.822	20.012	4.296	0.487
737.000	446.045	80.009	19.994	103.823	20.011	4.372	0.532
737.500	446.269	80.009	19.994	103.824	20.011	4.344	0.513
738.000	446.519	80.009	19.995	103.824	20.011	4.373	0.476
738.500	446.747	80.009	19.994	103.824	20.012	4.296	0.475
739.000	447.016	80.010	19.993	103.824	20.012	4.276	0.487
739.500	447.257	80.010	19.993	103.824	20.010	4.454	0.503
740.000	447.539	80.010	19.993	103.824	20.010	4.418	0.516
740.500	447.766	80.009	19.994	103.824	20.016	4.019	0.516
741.000	448.028	80.010	19.993	103.824	20.017	3.968	0.499
741.500	448.259	80.010	19.994	103.823	20.015	4.119	0.492
742.000	448.489	80.011	19.994	103.822	20.010	4.416	0.477
742.500	448.777	80.011	19.993	103.822	20.010	4.456	0.489
743.000	449.023	80.010	19.993	103.822	20.016	4.042	0.526
743.500	449.286	80.012	19.993	103.822	20.018	3.946	0.521
744.000	449.522	80.012	19.994	103.822	20.014	4.207	0.504
744.500	449.754	80.012	19.993	103.824	20.015	4.119	0.483
745.000	450.024	80.012	19.994	103.823	20.014	4.202	0.484
745.500	450.270	80.011	19.994	103.824	20.017	4.010	0.509
746.000	450.543	80.011	19.993	103.825	20.010	4.443	0.518
746.500	450.776	80.014	19.995	103.824	20.016	4.063	0.513
747.000	451.013	80.011	19.993	103.823	20.014	4.209	0.488
747.500	451.265	80.012	19.993	103.823	20.011	4.354	0.480
748.000	451.578	80.012	19.991	103.822	20.017	3.966	0.527
748.501	451.830	80.013	19.995	103.823	20.015	4.135	0.564
749.001	452.097	80.012	19.993	103.824	20.010	4.432	0.542
749.500	452.345	80.014	19.992	103.823	20.015	4.088	0.517
750.000	452.599	80.013	19.992	103.823	20.012	4.276	0.508
750.500	452.819	80.013	19.993	103.823	20.012	4.318	0.488
751.001	453.070	80.013	19.993	103.821	20.015	4.126	0.473
751.500	453.384	80.014	19.992	103.821	20.013	4.226	0.518
752.000	453.623	80.013	19.992	103.821	20.015	4.106	0.559
752.500	453.909	80.013	19.992	103.821	20.018	3.925	0.539
753.000	454.142	80.012	19.994	103.821	20.017	3.986	0.522
753.500	454.400	80.013	19.994	103.820	20.016	4.046	0.504
754.000	454.659	80.012	19.993	103.820	20.013	4.249	0.504
754.500	454.932	80.013	19.994	103.820	20.014	4.180	0.525
755.000	455.183	80.013	19.993	103.821	20.015	4.079	0.528
755.500	455.457	80.012	19.992	103.821	20.012	4.322	0.524
756.000	455.713	80.011	19.993	103.822	20.017	3.965	0.527
756.500	455.962	80.012	19.992	103.823	20.010	4.454	0.518
757.000	456.264	80.012	19.993	103.824	20.015	4.106	0.528
757.500	456.521	80.013	19.993	103.823	20.018	3.888	0.555
758.000	456.800	80.013	19.993	103.823	20.011	4.349	0.547
758.500	457.018	80.012	19.992	103.821	20.016	4.066	0.517
759.000	457.271	80.012	19.992	103.821	20.013	4.273	0.484
759.500	457.535	80.012	19.992	103.819	20.016	4.061	0.494
760.000	457.782	80.012	19.992	103.816	20.014	4.164	0.514
760.500	458.030	80.011	19.992	103.814	20.011	4.372	0.504
761.000	458.304	80.013	19.994	103.815	20.012	4.289	0.508
761.500	458.558	80.012	19.992	103.815	20.013	4.253	0.524
762.000	458.856	80.012	19.992	103.816	20.009	4.532	0.540
762.500	459.097	80.012	19.993	103.819	20.016	4.024	0.545
763.000	459.363	80.011	19.992	103.821	20.012	4.298	0.523
763.500	459.612	80.010	19.993	103.821	20.013	4.264	0.511
764.000	459.878	80.011	19.994	103.822	20.010	4.416	0.515
764.500	460.122	80.013	19.993	103.823	20.013	4.215	0.513
765.000	460.372	80.012	19.993	103.823	20.016	4.066	0.502
765.500	460.615	80.011	19.994	103.823	20.017	3.988	0.493
766.000	460.902	80.012	19.993	103.823	20.021	3.721	0.511
766.500	461.165	80.012	19.994	103.821	20.015	4.109	0.540
767.000	461.433	80.012	19.993	103.820	20.015	4.131	0.541
767.501	461.698	80.011	19.993	103.821	20.017	3.959	0.532
768.001	461.966	80.011	19.992	103.821	20.021	3.685	0.533
768.500	462.215	80.012	19.993	103.821	20.018	3.921	0.525
769.000	462.437	80.012	19.993	103.821	20.019	3.824	0.494
769.500	462.736	80.012	19.994	103.822	20.016	4.031	0.496
770.000	462.995	80.014	19.994	103.822	20.019	3.865	0.539
770.500	463.228	80.013	19.994	103.822	20.016	4.051	0.525
771.000	463.480	80.013	19.993	103.822	20.011	4.372	0.489
771.500	463.766	80.011	19.993	103.821	20.019	3.879	0.512
772.000	464.006	80.013	19.993	103.820	20.016	4.052	0.532
772.500	464.272	80.011	19.993	103.820	20.016	4.048	0.516
773.000	464.549	80.018	19.995	103.820	20.015	4.142	0.524
773.500	464.762	80.014	19.994	103.820	20.014	4.153	0.517
774.001	465.006	80.014	19.995	103.820	20.014	4.160	0.473
774.500	465.283	80.013	19.994	103.820	20.028	3.243	0.489
775.000	465.518	80.015	19.994	103.819	20.018	3.932	0.517
775.500	465.779	80.013	19.994	103.818	20.018	3.894	0.505
776.000	466.001	80.014	19.993	103.818	20.017	4.012	0.489
776.500	466.288	80.015	19.994	103.815	20.027	3.292	0.496
777.000	466.548	80.013	19.992	103.811	20.022	3.682	0.528
777.500	466.833	80.014	19.994	103.813	20.015	4.090	0.546
778.000	467.088	80.014	19.993	103.812	20.011	4.391	0.542
778.500	467.322	80.016	19.992	103.808	20.020	3.758	0.515
779.000	467.616	80.012	19.993	103.806	20.022	3.684	0.508
779.500	467.873	80.013	19.993	103.807	20.018	3.925	0.539
780.000	468.116	80.014	19.993	103.808	20.022	3.676	0.526
780.500	468.357	80.015	19.993	103.809	20.020	3.752	0.492
781.000	468.616	80.014	19.992	103.814	20.012	4.303	0.492
781.500	468.868	80.014	19.993	103.819	20.010	4.467	0.505
782.000	469.158	80.014	19.993	103.821	20.018	3.897	0.526
782.500	469.387	80.013	19.992	103.821	20.012	4.307	0.531
783.000	469.660	80.014	19.994	103.819	20.020	3.810	0.511
783.500	469.902	80.012	19.992	103.820	20.009	4.477	0.508
784.000	470.139	80.013	19.993	103.820	20.017	3.951	0.497
784.500	470.398	80.012	19.993	103.820	20.022	3.649	0.487
785.000	470.646	80.012	19.992	103.821	20.020	3.797	0.502
785.500	470.910	80.011	19.994	103.824	20.025	3.435	0.510
786.000	471.182	80.011	19.993	103.824	20.017	3.952	0.524
786.500	471.403	80.011	19.991	103.824	20.018	3.923	0.514
787.000	471.678	80.011	19.991	103.823	20.022	3.682	0.494
787.500	471.937	80.011	19.992	103.823	20.020	3.816	0.515
788.000	472.183	80.009	19.990	103.822	20.017	3.990	0.520
788.500	472.454	80.011	19.993	103.821	20.014	4.179	0.511
789.000	472.728	80.010	19.992	103.821	20.012	4.325	0.531
789.500	472.970	80.010	19.992	103.821	20.011	4.356	0.530
790.000	473.238	80.011	19.992	103.820	20.017	3.981	0.513
790.500	473.501	80.011	19.994	103.821	20.021	3.685	0.520
791.000	473.761	80.011	19.993	103.822	20.018	3.894	0.527
791.500	474.028	80.011	19.993	103.819	20.017	4.001	0.525
792.000	474.304	80.008	19.991	103.819	20.019	3.828	0.535
792.500	474.526	80.009	19.993	103.820	20.013	4.222	0.521
793.000	474.777	80.010	19.994	103.818	20.013	4.229	0.485
793.500	475.057	80.011	19.993	103.817	20.013	4.231	0.502
794.000	475.261	80.010	19.994	103.814	20.015	4.111	0.508
794.500	475.539	80.012	19.994	103.808	20.016	4.051	0.483
795.000	475.815	80.010	19.992	103.805	20.016	4.021	0.518
795.501	476.056	80.010	19.992	103.807	20.023	3.582	0.535
796.000	476.308	80.011	19.993	103.808	20.019	3.879	0.505
796.500	476.563	80.010	19.992	103.813	20.015	4.100	0.500
797.000	476.849	80.011	19.994	103.819	20.021	3.691	0.524
797.500	477.099	80.012	19.993	103.821	20.017	4.006	0.539
798.000	477.362	80.010	19.992	103.821	20.015	4.120	0.524
798.500	477.623	80.011	19.994	103.821	20.015	4.144	0.519
799.000	477.836	80.011	19.993	103.822	20.012	4.294	0.499
799.500	478.101	80.010	19.993	103.823	20.017	3.995	0.476
800.000	478.350	80.009	19.993	103.824	20.017	3.986	0.496
800.500	478.629	80.010	19.993	103.825	20.015	4.131	0.521
801.000	478.882	80.011	19.994	103.824	20.021	3.749	0.530
801.500	479.124	80.010	19.993	103.823	20.021	3.694	0.514
802.000	479.376	80.010	19.993	103.819	20.018	3.912	0.495
802.500	479.602	80.010	19.993	103.816	20.017	3.957	0.486
803.000	479.871	80.012	19.994	103.815	20.014	4.158	0.487
803.500	480.126	80.010	19.994	103.814	20.016	4.071	0.510
804.000	480.405	80.010	19.994	103.812	20.017	3.979	0.529
804.500	480.637	80.012	19.994	103.815	20.018	3.890	0.522
805.000	480.893	80.011	19.994	103.817	20.015	4.095	0.499
805.500	481.140	80.013	19.994	103.817	20.016	4.077	0.496
806.000	481.442	80.012	19.993	103.818	20.013	4.251	0.526
806.500	481.647	80.011	19.993	103.818	20.019	3.847	0.527
807.000	481.895	80.010	19.993	103.818	20.014	4.207	0.480
807.500	482.167	80.011	19.995	103.816	20.017	3.963	0.486
808.000	482.408	80.012	19.993	103.818	20.017	3.979	0.517
808.500	482.682	80.012	19.993	103.817	20.017	4.006	0.514
809.000	482.929	80.012	19.993	103.819	20.017	3.999	0.518
809.500	483.216	80.012	19.993	103.819	20.011	4.367	0.528
810.000	483.481	80.012	19.994	103.821	20.016	4.071	0.543
810.500	483.690	80.012	19.993	103.821	20.016	4.041	0.513
811.000	483.942	80.012	19.992	103.820	20.015	4.126	0.467
811.500	484.217	80.012	19.995	103.819	20.016	4.046	0.493
812.000	484.473	80.012	19.994	103.819	20.017	3.995	0.529
812.500	484.668	80.010	19.992	103.819	20.018	3.919	0.492
813.000	484.939	80.011	19.992	103.818	20.022	3.629	0.459
813.500	485.185	80.011	19.993	103.819	20.019	3.857	0.491
814.000	485.450	80.011	19.994	103.819	20.016	4.030	0.513
814.500	485.770	80.011	19.992	103.819	20.017	3.979	0.548
815.000	485.980	80.011	19.994	103.819	20.015	4.139	0.558
815.500	486.216	80.012	19.993	103.820	20.011	4.398	0.489
816.000	486.474	80.010	19.993	103.821	20.012	4.311	0.470
816.500	486.718	80.012	19.994	103.820	20.014	4.188	0.497
817.000	486.977	80.011	19.992	103.820	20.016	4.019	0.502
817.500	487.256	80.011	19.993	103.818	20.014	4.149	0.521
818.000	487.517	80.011	19.993	103.816	20.017	3.965	0.539
818.500	487.749	80.012	19.994	103.814	20.020	3.762	0.517
819.000	487.998	80.010	19.993	103.815	20.017	3.966	0.487
819.500	488.258	80.010	19.993	103.812	20.016	4.024	0.495
820.000	488.536	80.010	19.992	103.813	20.019	3.839	0.524
820.500	488.747	80.011	19.993	103.814	20.020	3.776	0.514
821.000	489.016	80.011	19.992	103.816	20.013	4.249	0.484
821.500	489.266	80.011	19.994	103.816	20.021	3.718	0.500
822.000	489.560	80.010	19.994	103.818	20.015	4.139	0.531
822.500	489.811	80.010	19.993	103.818	20.019	3.872	0.544
823.000	490.088	80.010	19.995	103.818	20.014	4.187	0.537
823.500	490.302	80.009	19.994	103.816	20.014	4.198	0.510
824.000	490.582	80.010	19.994	103.815	20.016	4.052	0.492
824.500	490.822	80.010	19.992	103.816	20.011	4.378	0.507
825.000	491.107	80.011	19.993	103.817	20.015	4.088	0.523
825.500	491.369	80.009	19.993	103.817	20.017	3.970	0.536
826.000	491.615	80.012	19.994	103.819	20.015	4.115	0.528
826.500	491.921	80.011	19.995	103.820	20.019	3.817	0.530
827.000	492.121	80.011	19.994	103.820	20.021	3.738	0.529
827.500	492.416	80.011	19.995	103.821	20.019	3.852	0.500
828.000	492.640	80.010	19.994	103.821	20.020	3.783	0.507
828.500	492.908	80.013	19.994	103.821	20.021	3.734	0.505
829.000	493.181	80.012	19.994	103.820	20.016	4.062	0.516
829.500	493.423	80.011	19.993	103.820	20.018	3.930	0.528
830.000	493.700	80.011	19.993	103.819	20.018	3.943	0.517
830.500	493.952	80.011	19.993	103.819	20.016	4.043	0.524
831.000	494.225	80.011	19.993	103.819	20.016	4.030	0.527
831.500	494.488	80.011	19.993	103.819	20.015	4.101	0.531
832.000	494.767	80.012	19.994	103.819	20.021	3.727	0.539
832.500	495.045	80.012	19.992	103.819	20.019	3.867	0.549
833.000	495.327	80.021	19.996	103.819	20.020	3.798	0.558
833.500	495.548	80.016	19.995	103.819	20.024	3.529	0.532
834.000	495.808	80.011	19.996	103.819	20.021	3.734	0.493
834.500	496.081	80.012	19.995	103.819	20.016	4.028	0.507
835.000	496.294	80.013	19.994	103.820	20.021	3.687	0.509
835.500	496.586	80.012	19.996	103.820	20.023	3.617	0.495
836.000	496.813	80.012	19.994	103.820	20.022	3.680	0.512
836.500	497.100	80.012	19.996	103.817	20.025	3.452	0.517
837.000	497.346	80.012	19.994	103.814	20.023	3.562	0.524
837.500	497.626	80.012	19.994	103.813	20.023	3.580	0.529
838.000	497.908	80.010	19.994	103.813	20.019	3.863	0.544
838.500	498.168	80.012	19.993	103.812	20.020	3.752	0.552
839.000	498.436	80.012	19.993	103.814	20.016	4.059	0.535
839.500	498.718	80.013	19.995	103.816	20.020	3.798	0.539
840.000	499.008	80.011	19.994	103.820	20.018	3.905	0.561
840.500	499.282	80.012	19.993	103.820	20.018	3.939	0.568
841.000	499.502	80.013	19.994	103.821	20.018	3.928	0.530
841.500	499.801	80.013	19.994	103.822	20.019	3.863	0.507
842.000	500.066	80.011	19.993	103.824	20.019	3.840	0.541
842.500	500.348	80.012	19.994	103.821	20.014	4.164	0.555
843.000	500.629	80.011	19.993	103.822	20.018	3.898	0.554
843.500	500.884	80.011	19.992	103.821	20.021	3.747	0.550
844.000	501.147	80.011	19.992	103.821	20.019	3.854	0.528
844.500	501.405	80.011	19.993	103.820	20.015	4.082	0.520
845.000	501.709	80.012	19.993	103.820	20.021	3.747	0.541
845.500	501.963	80.010	19.993	103.820	20.018	3.907	0.559
846.000	502.234	80.011	19.991	103.820	20.026	3.366	0.542
846.500	502.455	80.013	19.994	103.821	20.019	3.832	0.509
847.000	502.792	80.012	19.993	103.822	20.018	3.910	0.525
847.500	503.074	80.011	19.993	103.822	20.025	3.466	0.589
848.000	503.325	80.011	19.993	103.822	20.021	3.707	0.576
848.500	503.601	80.011	19.991	103.822	20.021	3.745	0.530
849.000	503.884	80.013	19.994	103.822	20.023	3.564	0.543
849.500	504.150	80.013	19.993	103.821	20.020	3.794	0.554
850.000	504.462	80.012	19.992	103.821	20.014	4.149	0.563
850.500	504.714	80.013	19.993	103.821	20.021	3.694	0.571
851.000	505.004	80.012	19.992	103.822	20.019	3.879	0.554
851.500	505.283	80.011	19.993	103.823	20.023	3.594	0.556
852.000	505.578	80.012	19.993	103.824	20.017	3.957	0.572
852.500	505.854	80.012	19.993	103.824	20.019	3.819	0.572
853.000	506.146	80.011	19.991	103.824	20.019	3.820	0.569
853.500	506.419	80.011	19.992	103.824	20.018	3.885	0.567
854.000	506.695	80.012	19.993	103.823	20.019	3.845	0.557
854.500	506.976	80.014	19.994	103.823	20.020	3.801	0.553
855.000	507.283	80.012	19.993	103.823	20.018	3.892	0.573
855.500	507.532	80.013	19.993	103.822	20.015	4.086	0.572
856.000	507.805	80.012	19.993	103.822	20.015	4.079	0.539
856.500	508.045	80.012	19.992	103.821	20.015	4.113	0.517
857.000	508.359	80.012	19.993	103.821	20.016	4.033	0.533
857.500	508.629	80.012	19.993	103.821	20.017	3.983	0.569
858.000	508.942	80.012	19.992	103.822	20.017	4.012	0.583
858.501	509.213	80.013	19.992	103.823	20.017	3.990	0.583
859.001	509.455	80.013	19.993	103.827	20.015	4.124	0.548
859.500	509.744	80.013	19.993	103.827	20.020	3.780	0.522
860.000	510.059	80.012	19.993	103.825	20.019	3.821	0.568
860.500	510.274	80.012	19.992	103.820	20.020	3.769	0.567
861.000	510.601	80.014	19.992	103.813	20.020	3.763	0.536
861.500	510.887	80.011	19.992	103.808	20.022	3.678	0.578
862.000	511.172	80.014	19.992	103.807	20.018	3.892	0.592
862.500	511.426	80.014	19.994	103.809	20.018	3.943	0.555
863.000	511.717	80.014	19.992	103.814	20.013	4.220	0.542
863.500	511.996	80.013	19.991	103.819	20.019	3.848	0.558
864.000	512.258	80.013	19.993	103.820	20.015	4.140	0.555
864.500	512.561	80.015	19.992	103.820	20.018	3.946	0.553
865.000	512.857	80.013	19.993	103.815	20.013	4.234	0.583
865.500	513.097	80.012	19.993	103.815	20.021	3.703	0.568
866.000	513.370	80.013	19.992	103.816	20.016	4.038	0.524
866.500	513.629	80.014	19.993	103.816	20.017	3.969	0.522
867.000	513.930	80.013	19.993	103.816	20.014	4.198	0.546
867.500	514.218	80.013	19.992	103.820	20.016	4.013	0.575
868.001	514.500	80.012	19.992	103.821	20.020	3.783	0.580
868.501	514.792	80.013	19.994	103.821	20.021	3.719	0.572
869.000	515.075	80.011	19.993	103.821	20.019	3.835	0.574
869.500	515.322	80.011	19.993	103.822	20.023	3.559	0.552
870.000	515.635	80.011	19.992	103.821	20.021	3.706	0.545
870.500	515.907	80.011	19.991	103.820	20.021	3.743	0.573
871.000	516.185	80.011	19.992	103.820	20.019	3.871	0.568
871.500	516.472	80.010	19.993	103.821	20.018	3.913	0.558
872.000	516.754	80.012	19.992	103.821	20.020	3.788	0.567
872.500	517.014	80.011	19.992	103.817	20.020	3.759	0.555
873.000	517.260	80.010	19.993	103.816	20.020	3.772	0.524
873.500	517.552	80.010	19.992	103.815	20.019	3.841	0.522
874.001	517.839	80.011	19.994	103.815	20.018	3.940	0.558
874.501	518.109	80.010	19.993	103.815	20.020	3.815	0.568
875.001	518.391	80.012	19.995	103.819	20.020	3.759	0.555
875.500	518.687	80.011	19.994	103.820	20.017	3.991	0.565
876.000	518.915	80.013	19.993	103.815	20.023	3.616	0.551
876.500	519.178	80.011	19.993	103.811	20.021	3.737	0.507
877.000	519.396	80.012	19.992	103.806	20.021	3.736	0.486
877.500	519.713	80.013	19.994	103.807	20.023	3.554	0.508
878.000	519.966	80.012	19.993	103.805	20.018	3.902	0.552
878.500	520.245	80.012	19.992	103.807	20.019	3.831	0.551
879.000	520.530	80.011	19.993	103.805	20.025	3.480	0.548
879.500	520.770	80.012	19.993	103.803	20.021	3.697	0.544
880.000	521.055	80.012	19.991	103.795	20.021	3.694	0.525
880.500	521.321	80.011	19.992	103.791	20.021	3.696	0.538
881.000	521.595	80.012	19.994	103.793	20.024	3.504	0.545
881.500	521.889	80.013	19.993	103.798	20.019	3.861	0.554
882.000	522.145	80.012	19.993	103.803	20.020	3.772	0.559
882.500	522.464	80.012	19.993	103.805	20.024	3.520	0.563
883.000	522.715	80.012	19.993	103.813	20.022	3.663	0.572
883.500	522.984	80.012	19.994	103.813	20.017	3.988	0.545
884.000	523.226	80.013	19.993	103.813	20.021	3.742	0.515
884.500	523.484	80.011	19.991	103.808	20.019	3.839	0.505
885.000	523.760	80.012	19.992	103.806	20.017	3.950	0.517
885.500	524.008	80.012	19.993	103.800	20.018	3.896	0.529
886.000	524.299	80.012	19.992	103.796	20.019	3.865	0.532
886.500	524.550	80.013	19.992	103.793	20.019	3.874	0.541
887.000	524.796	80.012	19.993	103.798	20.020	3.774	0.520
887.500	525.064	80.012	19.992	103.801	20.015	4.124	0.506
888.000	525.350	80.012	19.992	103.805	20.017	3.953	0.534
888.500	525.598	80.012	19.993	103.809	20.016	4.047	0.544
889.000	525.837	80.013	19.994	103.806	20.021	3.706	0.510
889.500	526.189	80.012	19.993	103.801	20.019	3.846	0.539
890.000	526.429	80.012	19.994	103.800	20.017	4.002	0.592
890.500	526.675	80.012	19.993	103.802	20.014	4.187	0.539
891.000	526.932	80.012	19.992	103.803	20.020	3.806	0.494
891.500	527.207	80.012	19.993	103.806	20.023	3.578	0.517
892.000	527.477	80.011	19.992	103.810	20.020	3.801	0.539
892.500	527.708	80.011	19.991	103.813	20.021	3.692	0.523
893.000	528.030	80.016	19.995	103.813	20.022	3.672	0.527
893.501	528.290	80.013	19.995	103.814	20.019	3.877	0.567
894.001	528.527	80.011	19.994	103.817	20.024	3.491	0.539
894.500	528.807	80.013	19.994	103.819	20.019	3.826	0.507
895.000	529.117	80.011	19.994	103.821	20.019	3.879	0.553
895.500	529.338	80.012	19.993	103.821	20.018	3.902	0.561
896.000	529.555	80.012	19.993	103.821	20.020	3.812	0.485
896.500	529.865	80.011	19.993	103.820	20.018	3.913	0.483
897.000	530.122	80.013	19.995	103.820	20.018	3.932	0.547
897.500	530.372	80.011	19.994	103.820	20.015	4.089	0.537
898.000	530.627	80.013	19.994	103.816	20.020	3.794	0.506
898.500	530.878	80.012	19.994	103.810	20.019	3.876	0.505
899.000	531.151	80.010	19.994	103.802	20.017	3.952	0.515
899.500	531.401	80.012	19.994	103.798	20.024	3.542	0.524
900.000	531.682	80.011	19.994	103.796	20.019	3.823	0.527
900.500	531.932	80.010	19.994	103.794	20.023	3.556	0.531
901.000	532.183	80.011	19.993	103.796	20.021	3.737	0.516
901.500	532.442	80.010	19.994	103.801	20.019	3.860	0.506
902.000	532.685	80.011	19.994	103.804	20.025	3.467	0.506
902.500	532.904	80.011	19.994	103.800	20.025	3.484	0.482
903.000	533.201	80.012	19.994	103.804	20.023	3.614	0.489
903.500	533.447	80.010	19.994	103.807	20.023	3.575	0.530
904.000	533.702	80.010	19.993	103.809	20.021	3.704	0.522
904.500	533.941	80.010	19.994	103.805	20.025	3.479	0.497
905.000	534.227	80.011	19.995	103.804	20.024	3.531	0.509
905.500	534.471	80.011	19.994	103.800	20.020	3.807	0.527
906.000	534.710	80.010	19.995	103.798	20.027	3.339	0.506
906.500	534.988	80.010	19.995	103.796	20.021	3.685	0.500
907.000	535.244	80.009	19.993	103.802	20.024	3.528	0.526
907.500	535.503	80.011	19.994	103.808	20.023	3.557	0.525
908.000	535.751	80.009	19.994	103.813	20.029	3.225	0.512
908.500	536.033	80.010	19.994	103.816	20.026	3.392	0.518
909.000	536.306	80.011	19.993	103.819	20.023	3.568	0.542
909.500	536.566	80.010	19.993	103.816	20.020	3.796	0.544
910.000	536.851	80.011	19.994	103.812	20.023	3.571	0.540
910.500	537.084	80.013	19.994	103.810	20.023	3.560	0.532
911.000	537.305	80.011	19.994	103.806	20.024	3.540	0.486
911.500	537.614	80.011	19.993	103.800	20.021	3.747	0.492
912.000	537.837	80.010	19.993	103.799	20.024	3.511	0.531
912.500	538.134	80.010	19.992	103.800	20.018	3.903	0.526
913.000	538.390	80.012	19.994	103.804	20.027	3.317	0.536
913.500	538.654	80.011	19.994	103.808	20.027	3.294	0.536
914.000	538.883	80.012	19.992	103.815	20.025	3.442	0.507
914.500	539.190	80.010	19.993	103.819	20.028	3.264	0.515
915.000	539.430	80.012	19.993	103.822	20.026	3.357	0.542
915.500	539.694	80.012	19.992	103.822	20.027	3.306	0.525
916.000	539.969	80.012	19.993	103.819	20.024	3.514	0.521
916.500	540.250	80.013	19.993	103.818	20.023	3.601	0.547
917.000	540.481	80.012	19.993	103.818	20.022	3.678	0.534
917.500	540.741	80.012	19.994	103.817	20.022	3.663	0.502
918.000	541.041	80.011	19.994	103.817	20.025	3.444	0.526
918.500	541.311	80.012	19.994	103.821	20.021	3.732	0.565
919.000	541.551	80.012	19.994	103.821	20.023	3.618	0.540
919.500	541.830	80.013	19.993	103.821	20.022	3.645	0.514
920.000	542.079	80.012	19.993	103.822	20.024	3.516	0.524
920.500	542.351	80.013	19.993	103.822	20.023	3.596	0.525
921.000	542.612	80.013	19.993	103.819	20.028	3.237	0.527
921.500	542.873	80.012	19.993	103.816	20.021	3.715	0.527
922.000	543.141	80.012	19.992	103.816	20.021	3.719	0.526
922.500	543.416	80.014	19.993	103.815	20.024	3.541	0.536
923.000	543.648	80.013	19.994	103.816	20.021	3.707	0.525
923.500	543.927	80.013	19.993	103.818	20.015	4.091	0.509
924.000	544.175	80.012	19.992	103.816	20.023	3.578	0.519
924.500	544.435	80.014	19.993	103.813	20.022	3.634	0.517
925.000	544.689	80.011	19.993	103.810	20.015	4.107	0.511
925.500	544.966	80.011	19.993	103.807	20.020	3.779	0.523
926.000	545.221	80.011	19.994	103.802	20.019	3.853	0.531
926.500	545.478	80.011	19.993	103.802	20.016	4.017	0.522
927.000	545.739	80.012	19.994	103.800	20.016	4.060	0.515
927.500	546.013	80.012	19.994	103.802	20.018	3.937	0.527
928.000	546.293	80.012	19.993	103.803	20.017	4.012	0.545
928.500	546.574	80.011	19.993	103.809	20.020	3.785	0.557
929.000	546.820	80.011	19.994	103.813	20.017	3.957	0.544
929.500	547.062	80.011	19.993	103.816	20.020	3.783	0.507
930.000	547.342	80.012	19.994	103.812	20.015	4.120	0.505
930.500	547.565	80.012	19.994	103.809	20.020	3.794	0.512
931.000	547.818	80.010	19.994	103.803	20.016	4.046	0.490
931.500	548.079	80.011	19.993	103.797	20.017	3.979	0.495
932.000	548.331	80.010	19.994	103.791	20.017	3.954	0.514
932.500	548.639	80.011	19.993	103.792	20.017	3.984	0.536
933.000	548.866	80.011	19.993	103.795	20.019	3.826	0.547
933.501	549.133	80.011	19.994	103.801	20.018	3.942	0.515
934.000	549.391	80.011	19.993	103.805	20.017	3.986	0.510
934.500	549.663	80.010	19.994	103.809	20.015	4.131	0.528
935.000	549.913	80.011	19.993	103.807	20.017	4.001	0.526
935.500	550.166	80.010	19.993	103.801	20.017	3.992	0.513
936.000	550.420	80.011	19.994	103.797	20.019	3.881	0.505
936.500	550.671	80.011	19.993	103.799	20.017	3.959	0.506
937.000	550.949	80.011	19.994	103.803	20.015	4.115	0.517
937.500	551.178	80.012	19.993	103.808	20.016	4.013	0.518
938.000	551.457	80.012	19.994	103.814	20.020	3.815	0.507
938.500	551.712	80.011	19.993	103.818	20.016	4.047	0.521
939.000	551.908	80.012	19.993	103.817	20.020	3.799	0.493
939.500	552.182	80.010	19.993	103.815	20.020	3.797	0.460
940.000	552.450	80.011	19.993	103.815	20.020	3.803	0.506
940.500	552.686	80.012	19.993	103.817	20.019	3.873	0.523
941.000	552.975	80.012	19.993	103.819	20.019	3.850	0.514
941.500	553.207	80.012	19.993	103.822	20.019	3.880	0.523
942.000	553.477	80.012	19.992	103.821	20.017	3.971	0.512
942.500	553.735	80.013	19.993	103.821	20.018	3.897	0.515
943.000	553.987	80.014	19.993	103.816	20.018	3.902	0.519
943.500	554.212	80.013	19.992	103.809	20.020	3.808	0.493
944.000	554.485	80.014	19.992	103.804	20.020	3.755	0.487
944.500	554.760	80.012	19.992	103.806	20.013	4.243	0.523
945.000	555.001	80.013	19.992	103.805	20.021	3.712	0.532
945.500	555.257	80.013	19.992	103.808	20.020	3.803	0.506
946.000	555.483	80.013	19.992	103.815	20.015	4.109	0.489
946.500	555.772	80.014	19.992	103.815	20.019	3.831	0.498
947.000	555.995	80.013	19.992	103.813	20.019	3.855	0.513
947.500	556.257	80.014	19.992	103.814	20.020	3.759	0.498
948.000	556.475	80.013	19.991	103.809	20.020	3.790	0.483
948.500	556.762	80.014	19.992	103.804	20.024	3.496	0.493
949.000	557.037	80.012	19.991	103.804	20.017	3.974	0.534
949.500	557.266	80.014	19.992	103.804	20.019	3.864	0.533
950.000	557.538	80.014	19.992	103.804	20.020	3.788	0.502
950.500	557.791	80.013	19.991	103.809	20.021	3.735	0.513
951.000	558.035	80.013	19.993	103.808	20.024	3.538	0.511
951.500	558.300	80.013	19.991	103.809	20.022	3.659	0.503
952.000	558.542	80.012	19.991	103.804	20.025	3.456	0.508
952.500	558.782	80.011	19.991	103.802	20.023	3.594	0.494
953.000	559.058	80.013	19.994	103.797	20.017	3.962	0.499
953.500	559.282	80.013	19.995	103.799	20.022	3.648	0.508
954.000	559.518	80.013	19.994	103.800	20.023	3.592	0.480
954.500	559.788	80.011	19.993	103.806	20.024	3.545	0.483
955.000	560.029	80.012	19.993	103.803	20.027	3.338	0.509
955.500	560.308	80.011	19.993	103.805	20.024	3.521	0.516
956.000	560.541	80.011	19.994	103.803	20.024	3.535	0.516
956.500	560.789	80.012	19.994	103.802	20.017	4.008	0.496
957.000	561.034	80.012	19.993	103.800	20.021	3.749	0.487
957.500	561.294	80.010	19.993	103.801	20.022	3.679	0.499
958.000	561.574	80.012	19.993	103.799	20.022	3.623	0.522
958.500	561.808	80.011	19.992	103.796	20.022	3.668	0.527
959.000	562.090	80.012	19.992	103.797	20.025	3.440	0.515
959.500	562.311	80.013	19.993	103.793	20.023	3.608	0.510
960.000	562.577	80.011	19.992	103.791	20.022	3.632	0.495
960.500	562.831	80.012	19.992	103.791	20.023	3.581	0.503
961.000	563.085	80.012	19.992	103.791	20.022	3.628	0.513
961.500	563.315	80.014	19.993	103.794	20.026	3.407	0.496
962.000	563.557	80.011	19.993	103.799	20.022	3.648	0.479
962.500	563.812	80.011	19.994	103.799	20.023	3.587	0.484
963.000	564.062	80.010	19.992	103.800	20.025	3.474	0.501
963.500	564.274	80.011	19.992	103.803	20.022	3.632	0.483
964.000	564.560	80.011	19.994	103.800	20.027	3.328	0.480
964.500	564.798	80.012	19.993	103.795	20.027	3.311	0.512
965.000	565.039	80.013	19.992	103.792	20.019	3.857	0.502
965.500	565.294	80.011	19.993	103.791	20.022	3.661	0.487
966.000	565.532	80.010	19.993	103.787	20.026	3.412	0.494
966.500	565.729	80.011	19.993	103.783	20.022	3.630	0.464
967.001	565.972	80.013	19.993	103.782	20.026	3.407	0.438
967.501	566.255	80.013	19.992	103.782	20.023	3.561	0.483
968.000	566.508	80.013	19.993	103.783	20.025	3.458	0.531
968.500	566.746	80.011	19.992	103.785	20.024	3.504	0.513
969.000	566.981	80.011	19.993	103.787	20.020	3.799	0.482
969.500	567.240	80.011	19.993	103.788	20.018	3.942	0.483
970.000	567.454	80.012	19.992	103.788	20.019	3.855	0.483
970.500	567.684	80.012	19.992	103.789	20.022	3.661	0.459
971.001	567.930	80.013	19.992	103.789	20.023	3.578	0.460
971.500	568.200	80.012	19.993	103.787	20.019	3.817	0.496
972.000	568.415	80.011	19.991	103.787	20.018	3.891	0.501
972.500	568.666	80.011	19.992	103.788	20.022	3.683	0.475
973.001	568.966	80.012	19.994	103.793	20.020	3.752	0.508
973.500	569.181	80.013	19.993	103.794	20.020	3.813	0.534
974.000	569.413	80.013	19.993	103.801	20.017	3.953	0.481
974.501	569.672	80.011	19.993	103.803	20.018	3.919	0.469
975.000	569.934	80.012	19.993	103.802	20.022	3.674	0.506
975.500	570.160	80.011	19.993	103.796	20.017	4.011	0.504
976.000	570.424	80.011	19.991	103.798	20.023	3.601	0.489
976.500	570.641	80.011	19.992	103.791	20.022	3.623	0.485
977.000	570.925	80.013	19.992	103.788	20.023	3.587	0.491
977.500	571.162	80.011	19.993	103.793	20.019	3.826	0.511
978.000	571.373	80.012	19.994	103.799	20.023	3.558	0.485
978.500	571.648	80.011	19.993	103.801	20.025	3.469	0.467
979.000	571.859	80.012	19.993	103.804	20.024	3.530	0.486
979.500	572.091	80.013	19.994	103.807	20.017	4.005	0.465
980.000	572.349	80.011	19.992	103.803	20.021	3.699	0.467
980.500	572.627	80.012	19.992	103.797	20.018	3.931	0.512
981.000	572.859	80.011	19.993	103.798	20.024	3.529	0.523
981.500	573.088	80.011	19.992	103.800	20.025	3.465	0.486
982.000	573.387	80.011	19.992	103.801	20.020	3.777	0.495
982.500	573.601	80.013	19.993	103.801	20.022	3.650	0.521
983.000	573.839	80.011	19.993	103.802	20.022	3.660	0.483
983.500	574.086	80.011	19.993	103.798	20.020	3.768	0.468
984.000	574.366	80.011	19.993	103.797	20.023	3.587	0.506
984.500	574.629	80.011	19.992	103.798	20.018	3.908	0.535
985.000	574.895	80.013	19.992	103.805	20.020	3.754	0.536
985.500	575.152	80.010	19.993	103.805	20.019	3.852	0.526
986.000	575.427	80.012	19.991	103.807	20.020	3.781	0.528
986.501	575.670	80.012	19.991	103.805	20.021	3.694	0.525
987.001	575.912	80.012	19.992	103.806	20.023	3.582	0.501
987.500	576.115	80.011	19.991	103.806	20.027	3.355	0.465
988.000	576.367	80.009	19.992	103.806	20.028	3.255	0.450
988.500	576.630	80.010	19.993	103.803	20.023	3.614	0.485
989.000	576.901	80.010	19.993	103.801	20.028	3.272	0.525
989.500	577.127	80.010	19.991	103.798	20.024	3.545	0.515
990.000	577.429	80.010	19.992	103.791	20.024	3.495	0.512
990.500	577.707	80.011	19.992	103.790	20.023	3.556	0.554
991.000	577.915	80.010	19.994	103.795	20.022	3.652	0.533
991.500	578.158	80.011	19.992	103.801	20.023	3.554	0.469
992.000	578.465	80.011	19.993	103.803	20.022	3.643	0.500
992.500	578.696	80.011	19.993	103.804	20.021	3.698	0.544
993.000	578.971	80.011	19.993	103.807	20.024	3.520	0.522
993.500	579.197	80.010	19.993	103.807	20.024	3.529	0.504
994.000	579.477	80.012	19.993	103.807	20.026	3.393	0.503
994.500	579.690	80.011	19.994	103.811	20.020	3.799	0.499
995.000	579.920	80.008	19.993	103.815	20.023	3.574	0.468
995.500	580.207	80.010	19.992	103.817	20.025	3.455	0.480
996.000	580.450	80.011	19.993	103.817	20.024	3.527	0.524
996.500	580.734	80.011	19.993	103.815	20.027	3.315	0.529
997.000	581.012	80.011	19.994	103.815	20.022	3.663	0.545
997.500	581.251	80.012	19.994	103.812	20.026	3.360	0.540
998.000	581.521	80.011	19.994	103.812	20.022	3.654	0.513
998.500	581.784	80.011	19.994	103.807	20.023	3.601	0.521
999.000	581.980	80.010	19.993	103.804	20.022	3.625	0.496
999.500	582.278	80.010	19.994	103.803	20.023	3.563	0.477
1000.000	582.525	80.011	19.993	103.806	20.023	3.563	0.520
1000.500	582.817	80.012	19.992	103.806	20.026	3.389	0.542
1001.000	583.061	80.012	19.993	103.805	20.022	3.639	0.538
1001.500	583.357	80.012	19.994	103.805	20.027	3.305	0.538
1002.000	583.579	80.012	19.991	103.806	20.026	3.391	0.529
1002.500	583.833	80.010	19.993	103.806	20.025	3.481	0.497
1003.000	584.070	80.011	19.993	103.806	20.023	3.581	0.483
1003.500	584.309	80.011	19.992	103.809	20.023	3.578	0.483
1004.000	584.530	80.012	19.992	103.809	20.027	3.317	0.468
1004.500	584.798	80.011	19.993	103.807	20.029	3.192	0.475
1005.000	585.041	80.012	19.993	103.803	20.027	3.333	0.500
1005.500	585.334	80.012	19.993	103.805	20.028	3.269	0.523
1006.000	585.577	80.012	19.993	103.805	20.028	3.258	0.536
1006.500	585.815	80.011	19.992	103.802	20.027	3.333	0.509
1007.000	586.056	80.011	19.993	103.800	20.025	3.474	0.480
1007.500	586.333	80.012	19.992	103.802	20.029	3.188	0.499
1008.000	586.588	80.011	19.992	103.796	20.023	3.579	0.525
1008.500	586.832	80.011	19.992	103.795	20.021	3.697	0.515
1009.000	587.096	80.013	19.993	103.796	20.026	3.416	0.504
1009.500	587.317	80.011	19.992	103.794	20.026	3.359	0.497
1010.000	587.554	80.012	19.993	103.791	20.024	3.533	0.471
1010.500	587.833	80.011	19.992	103.791	20.025	3.482	0.487
1011.000	588.011	80.010	19.994	103.787	20.023	3.598	0.486
1011.500	588.350	80.012	19.993	103.787	20.026	3.362	0.487
1012.000	588.605	80.011	19.993	103.787	20.022	3.680	0.556
1012.500	588.853	80.009	19.992	103.785	20.023	3.573	0.549
1013.000	589.072	80.015	19.994	103.786	20.026	3.382	0.485
1013.500	589.276	80.011	19.994	103.793	20.026	3.372	0.445
1014.000	589.600	80.011	19.995	103.798	20.026	3.379	0.475
1014.500	589.857	80.010	19.994	103.799	20.029	3.181	0.554
1015.000	590.070	80.012	19.992	103.799	20.026	3.388	0.526
1015.500	590.342	80.012	19.994	103.797	20.026	3.395	0.477
1016.000	590.577	80.012	19.993	103.793	20.028	3.250	0.496
1016.500	590.846	80.012	19.993	103.788	20.029	3.172	0.506
1017.000	591.088	80.011	19.992	103.786	20.027	3.313	0.508
1017.500	591.351	80.010	19.993	103.786	20.026	3.362	0.508
1018.000	591.549	80.011	19.994	103.786	20.025	3.428	0.483
1018.500	591.840	80.011	19.993	103.785	20.023	3.607	0.475
1019.000	592.094	80.011	19.993	103.788	20.021	3.694	0.517
1019.500	592.335	80.010	19.993	103.794	20.024	3.517	0.519
1020.000	592.625	80.012	19.994	103.800	20.024	3.511	0.513
1020.500	592.852	80.012	19.993	103.806	20.024	3.524	0.524
1021.000	593.087	80.012	19.993	103.813	20.020	3.761	0.489
1021.500	593.362	80.012	19.992	103.814	20.027	3.344	0.486
1022.000	593.546	80.011	19.993	103.813	20.028	3.228	0.485
1022.500	593.816	80.013	19.994	103.810	20.022	3.677	0.456
1023.000	594.071	80.011	19.992	103.809	20.026	3.384	0.489
1023.500	594.362	80.012	19.992	103.808	20.020	3.808	0.535
1024.000	594.604	80.011	19.993	103.810	20.024	3.507	0.540
1024.500	594.842	80.013	19.993	103.814	20.024	3.547	0.507
1025.000	595.042	80.012	19.993	103.817	20.022	3.674	0.459
1025.500	595.377	80.013	19.994	103.817	20.021	3.692	0.486
1026.000	595.565	80.012	19.993	103.815	20.027	3.308	0.529
1026.500	595.783	80.012	19.994	103.811	20.022	3.632	0.465
1027.000	596.081	80.011	19.993	103.811	20.027	3.302	0.461
1027.500	596.341	80.013	19.995	103.806	20.022	3.677	0.537
1028.000	596.590	80.013	19.994	103.805	20.024	3.514	0.533
1028.501	596.848	80.012	19.993	103.808	20.025	3.464	0.508
1029.001	597.067	80.014	19.994	103.811	20.025	3.455	0.492
1029.500	597.279	80.012	19.995	103.811	20.024	3.503	0.454
1030.000	597.544	80.012	19.993	103.816	20.023	3.592	0.454
1030.500	597.801	80.012	19.994	103.816	20.022	3.639	0.499
1031.000	598.040	80.013	19.994	103.811	20.021	3.688	0.509
1031.500	598.294	80.012	19.993	103.809	20.022	3.663	0.495
1032.001	598.568	80.013	19.994	103.805	20.022	3.656	0.511
1032.501	598.767	80.012	19.994	103.800	20.024	3.540	0.500
1033.000	599.029	80.012	19.994	103.799	20.023	3.603	0.467
1033.501	599.241	80.013	19.994	103.800	20.026	3.420	0.467
1034.001	599.485	80.013	19.992	103.799	20.022	3.659	0.465
1034.500	599.763	80.012	19.994	103.803	20.020	3.793	0.490
1035.000	599.993	80.013	19.993	103.802	20.022	3.661	0.515
1035.500	600.263	80.014	19.994	103.797	20.024	3.501	0.504
1036.000	600.527	80.013	19.995	103.800	20.023	3.590	0.517
1036.500	600.752	80.013	19.993	103.799	20.022	3.679	0.512
1037.000	601.000	80.013	19.994	103.799	20.022	3.641	0.481
1037.500	601.254	80.012	19.992	103.800	20.022	3.665	0.487
1038.000	601.515	80.012	19.993	103.802	20.023	3.565	0.508
1038.500	601.760	80.012	19.993	103.796	20.024	3.489	0.510
1039.000	601.984	80.011	19.993	103.799	20.026	3.371	0.488
1039.500	602.241	80.011	19.993	103.799	20.026	3.415	0.475
1040.000	602.486	80.012	19.992	103.801	20.022	3.675	0.491
1040.500	602.752	80.011	19.993	103.801	20.023	3.616	0.506
1041.000	602.986	80.010	19.993	103.805	20.022	3.639	0.506
1041.500	603.258	80.012	19.993	103.803	20.022	3.646	0.503
1042.000	603.513	80.012	19.993	103.804	20.022	3.675	0.517
1042.500	603.752	80.011	19.993	103.805	20.019	3.820	0.511
1043.000	604.017	80.011	19.994	103.804	20.026	3.383	0.499
1043.500	604.266	80.010	19.994	103.803	20.024	3.517	0.509
1044.000	604.536	80.011	19.993	103.806	20.021	3.704	0.516
1044.500	604.765	80.010	19.993	103.804	20.024	3.501	0.509
1045.000	605.002	80.011	19.991	103.801	20.018	3.898	0.483
1045.500	605.268	80.012	19.993	103.803	20.024	3.541	0.484
1046.000	605.498	80.011	19.993	103.799	20.025	3.467	0.499
1046.500	605.750	80.010	19.992	103.795	20.023	3.554	0.489
1047.000	606.016	80.010	19.993	103.797	20.023	3.561	0.501
1047.500	606.308	80.011	19.993	103.803	20.026	3.407	0.538
1048.000	606.537	80.011	19.993	103.808	20.024	3.523	0.539
1048.500	606.772	80.010	19.993	103.813	20.026	3.420	0.492
1049.000	607.032	80.011	19.993	103.810	20.029	3.201	0.479
1049.500	607.304	80.010	19.992	103.805	20.024	3.489	0.514
1050.000	607.548	80.010	19.993	103.801	20.025	3.423	0.524
1050.500	607.824	80.011	19.993	103.798	20.026	3.389	0.518
1051.000	608.075	80.011	19.992	103.795	20.026	3.380	0.523
1051.500	608.360	80.012	19.992	103.797	20.028	3.251	0.531
1052.000	608.589	80.012	19.992	103.798	20.027	3.317	0.525
1052.500	608.860	80.010	19.992	103.794	20.024	3.494	0.507
1053.000	609.176	80.012	19.992	103.791	20.023	3.563	0.544
1053.501	609.387	80.012	19.992	103.789	20.026	3.394	0.557
1054.001	609.627	80.012	19.993	103.789	20.029	3.173	0.489
1054.501	609.910	80.011	19.993	103.786	20.026	3.382	0.487
1055.001	610.166	80.011	19.992	103.786	20.025	3.445	0.531
1055.501	610.422	80.011	19.993	103.787	20.029	3.192	0.525
1056.000	610.681	80.012	19.992	103.791	20.030	3.158	0.513
1056.500	610.912	80.012	19.992	103.791	20.032	3.000	0.503
1057.000	611.187	80.012	19.992	103.794	20.027	3.346	0.498
1057.500	611.469	80.012	19.993	103.793	20.031	3.038	0.531
1058.000	611.722	80.012	19.992	103.793	20.028	3.257	0.546
1058.500	611.983	80.011	19.993	103.794	20.029	3.197	0.525
1059.000	612.210	80.012	19.992	103.794	20.028	3.271	0.501
1059.500	612.484	80.011	19.992	103.793	20.027	3.318	0.494
1060.000	612.729	80.011	19.992	103.794	20.029	3.220	0.510
1060.500	612.998	80.011	19.993	103.793	20.028	3.277	0.517
1061.000	613.300	80.011	19.993	103.791	20.027	3.329	0.542
1061.500	613.532	80.011	19.993	103.792	20.026	3.371	0.552
1062.000	613.818	80.011	19.992	103.791	20.026	3.364	0.526
1062.500	614.104	80.012	19.992	103.792	20.030	3.130	0.545
1063.000	614.349	80.011	19.992	103.795	20.026	3.420	0.552
1063.500	614.592	80.012	19.992	103.794	20.026	3.371	0.510
1064.000	614.907	80.011	19.992	103.792	20.031	3.090	0.523
1064.500	615.141	80.010	19.994	103.794	20.028	3.264	0.554
1065.001	615.407	80.011	19.992	103.795	20.025	3.476	0.524
1065.501	615.675	80.010	19.993	103.798	20.028	3.250	0.517
1066.000	615.965	80.011	19.994	103.801	20.027	3.329	0.546
1066.500	616.229	80.011	19.992	103.806	20.028	3.244	0.556
1067.000	616.497	80.011	19.993	103.810	20.031	3.090	0.543
1067.500	616.774	80.012	19.993	103.807	20.027	3.295	0.538
1068.000	617.027	80.011	19.992	103.803	20.027	3.322	0.537
1068.500	617.278	80.010	19.993	103.800	20.026	3.383	0.517
1069.000	617.548	80.010	19.993	103.793	20.026	3.414	0.513
1069.500	617.817	80.010	19.993	103.790	20.028	3.268	0.530
1070.001	618.086	80.010	19.993	103.789	20.031	3.054	0.538
1070.501	618.355	80.010	19.992	103.788	20.026	3.391	0.538
1071.000	618.603	80.010	19.993	103.790	20.025	3.454	0.527
1071.500	618.871	80.010	19.992	103.793	20.027	3.338	0.517
1072.000	619.168	80.009	19.992	103.792	20.025	3.451	0.540
1072.500	619.416	80.010	19.990	103.792	20.025	3.430	0.555
1073.000	619.654	80.014	19.994	103.794	20.028	3.255	0.516
1073.500	619.939	80.011	19.994	103.799	20.024	3.489	0.505
1074.000	620.194	80.009	19.993	103.802	20.027	3.329	0.532
1074.500	620.441	80.009	19.994	103.804	20.024	3.547	0.521
1075.000	620.728	80.011	19.993	103.807	20.025	3.442	0.518
1075.500	621.002	80.010	19.993	103.805	20.025	3.431	0.547
1076.000	621.259	80.010	19.993	103.798	20.023	3.603	0.546
1076.500	621.529	80.011	19.993	103.799	20.024	3.530	0.529
1077.000	621.795	80.010	19.993	103.799	20.025	3.461	0.532
1077.500	622.033	80.010	19.993	103.796	20.022	3.639	0.520
1078.000	622.333	80.011	19.993	103.796	20.026	3.358	0.521
1078.500	622.570	80.011	19.992	103.797	20.026	3.407	0.537
1079.000	622.865	80.010	19.993	103.791	20.025	3.483	0.535
1079.500	623.126	80.010	19.992	103.789	20.029	3.204	0.544
1080.000	623.371	80.010	19.993	103.795	20.027	3.340	0.531
1080.500	623.640	80.011	19.993	103.796	20.027	3.296	0.510
1081.000	623.882	80.012	19.993	103.798	20.024	3.490	0.513
1081.500	624.140	80.012	19.994	103.801	20.024	3.518	0.506
1082.000	624.387	80.013	19.993	103.798	20.025	3.447	0.502
1082.500	624.672	80.011	19.993	103.792	20.026	3.374	0.518
1083.000	624.909	80.013	19.994	103.790	20.026	3.387	0.527
1083.500	625.191	80.011	19.993	103.787	20.029	3.216	0.521
1084.000	625.472	80.011	19.993	103.789	20.030	3.133	0.541
1084.500	625.736	80.013	19.993	103.792	20.021	3.706	0.554
1085.000	625.979	80.013	19.992	103.792	20.024	3.541	0.526
1085.500	626.224	80.013	19.993	103.796	20.026	3.380	0.498
1086.001	626.495	80.013	19.993	103.802	20.027	3.327	0.502
1086.501	626.750	80.012	19.993	103.796	20.027	3.302	0.521
1087.000	627.008	80.014	19.992	103.793	20.026	3.378	0.520
1087.500	627.270	80.015	19.993	103.792	20.027	3.303	0.517
1088.000	627.536	80.013	19.992	103.787	20.023	3.568	0.524
1088.500	627.777	80.013	19.994	103.781	20.026	3.358	0.517
1089.000	628.037	80.014	19.993	103.781	20.029	3.195	0.504
1089.500	628.282	80.013	19.993	103.782	20.034	2.872	0.503
1090.000	628.604	80.012	19.992	103.782	20.033	2.899	0.536
1090.500	628.858	80.011	19.993	103.783	20.030	3.151	0.572
1091.000	629.065	80.013	19.993	103.784	20.026	3.380	0.519
1091.500	629.335	80.013	19.993	103.785	20.028	3.275	0.469
1092.000	629.602	80.012	19.994	103.788	20.026	3.392	0.507
1092.500	629.854	80.013	19.994	103.789	20.032	2.983	0.528
1093.000	630.132	80.013	19.994	103.788	20.028	3.276	0.524
1093.500	630.414	80.012	19.992	103.787	20.030	3.102	0.545
1094.000	630.683	80.012	19.993	103.785	20.034	2.847	0.556
1094.500	630.910	80.012	19.993	103.781	20.030	3.151	0.524
1095.000	631.150	80.011	19.993	103.780	20.032	2.986	0.482
1095.500	631.414	80.013	19.993	103.781	20.036	2.702	0.485
1096.000	631.679	80.013	19.993	103.782	20.031	3.054	0.516
1096.500	631.959	80.012	19.994	103.782	20.032	2.996	0.537
1097.000	632.184	80.011	19.993	103.783	20.030	3.153	0.525
1097.501	632.421	80.012	19.993	103.783	20.031	3.079	0.484
1098.001	632.737	80.011	19.993	103.781	20.032	3.012	0.508
1098.500	632.927	80.012	19.994	103.779	20.035	2.809	0.530
1099.000	633.182	80.011	19.993	103.778	20.035	2.807	0.476
1099.500	633.488	80.012	19.994	103.777	20.033	2.907	0.503
1100.000	633.739	80.012	19.994	103.777	20.031	3.070	0.559
1100.500	633.977	80.011	19.993	103.781	20.031	3.090	0.523
1101.000	634.268	80.012	19.995	103.784	20.031	3.085	0.509
1101.500	634.569	80.013	19.995	103.785	20.031	3.057	0.561
1102.000	634.809	80.012	19.994	103.787	20.030	3.126	0.566
1102.500	635.074	80.012	19.994	103.788	20.033	2.938	0.523
1103.000	635.271	80.013	19.994	103.786	20.032	3.019	0.484
1103.500	635.641	80.012	19.993	103.783	20.032	2.977	0.515
1104.000	635.825	80.014	19.993	103.782	20.033	2.923	0.561
1104.500	636.119	80.012	19.993	103.780	20.038	2.615	0.516
1105.000	636.329	80.013	19.993	103.781	20.034	2.838	0.491
1105.500	636.597	80.012	19.993	103.782	20.033	2.907	0.491
1106.000	636.855	80.012	19.994	103.784	20.031	3.068	0.502
1106.500	637.065	80.012	19.992	103.786	20.034	2.874	0.497
1107.000	637.363	80.012	19.992	103.787	20.032	2.972	0.488
1107.500	637.563	80.013	19.994	103.787	20.036	2.734	0.503
1108.001	637.843	80.013	19.994	103.786	20.034	2.849	0.489
1108.501	638.126	80.013	19.993	103.785	20.032	2.975	0.521
1109.001	638.367	80.016	19.993	103.784	20.033	2.941	0.544
1109.501	638.631	80.012	19.993	103.785	20.032	3.003	0.514
1110.001	638.857	80.013	19.993	103.786	20.033	2.916	0.497
1110.502	639.114	80.012	19.993	103.788	20.030	3.146	0.486
1111.001	639.404	80.014	19.992	103.791	20.031	3.090	0.515
1111.500	639.597	80.013	19.993	103.793	20.029	3.206	0.515
1112.000	639.894	80.014	19.992	103.793	20.034	2.840	0.487
1112.500	640.153	80.014	19.993	103.791	20.031	3.041	0.523
1113.000	640.419	80.014	19.992	103.789	20.029	3.188	0.540
1113.500	640.632	80.015	19.993	103.787	20.027	3.340	0.501
1114.001	640.896	80.013	19.992	103.785	20.032	3.015	0.477
1114.501	641.124	80.014	19.993	103.783	20.031	3.032	0.485
1115.000	641.372	80.013	19.992	103.783	20.028	3.255	0.484
1115.500	641.589	80.015	19.993	103.784	20.033	2.948	0.471
1116.000	641.846	80.013	19.992	103.785	20.029	3.177	0.470
1116.500	642.081	80.014	19.993	103.787	20.032	3.025	0.483
1117.000	642.365	80.014	19.993	103.787	20.033	2.909	0.505
1117.500	642.602	80.014	19.993	103.785	20.030	3.141	0.520
1118.000	642.844	80.014	19.993	103.783	20.033	2.941	0.500
1118.500	643.112	80.013	19.991	103.781	20.029	3.161	0.495
1119.000	643.336	80.013	19.993	103.780	20.028	3.230	0.501
1119.500	643.622	80.013	19.993	103.782	20.034	2.847	0.501
1120.000	643.854	80.013	19.993	103.786	20.035	2.822	0.514
1120.500	644.109	80.012	19.994	103.789	20.036	2.749	0.503
1121.000	644.306	80.011	19.994	103.789	20.032	3.004	0.470
1121.500	644.575	80.012	19.993	103.789	20.033	2.907	0.459
1122.000	644.802	80.012	19.993	103.786	20.033	2.921	0.480
1122.500	645.035	80.012	19.993	103.787	20.031	3.033	0.478
1123.000	645.301	80.011	19.992	103.785	20.033	2.939	0.480
1123.500	645.549	80.011	19.993	103.785	20.031	3.043	0.506
1124.000	645.788	80.011	19.993	103.787	20.029	3.206	0.500
1124.500	646.028	80.010	19.994	103.787	20.029	3.213	0.483
1125.000	646.294	80.010	19.994	103.785	20.031	3.066	0.493
1125.500	646.512	80.011	19.994	103.785	20.031	3.086	0.496
1126.000	646.740	80.011	19.994	103.786	20.033	2.912	0.465
1126.500	647.008	80.010	19.995	103.786	20.029	3.164	0.471
1127.000	647.243	80.011	19.995	103.786	20.027	3.323	0.499
1127.500	647.477	80.009	19.993	103.786	20.027	3.325	0.486
1128.000	647.752	80.010	19.994	103.789	20.029	3.171	0.489
1128.500	647.981	80.010	19.994	103.791	20.029	3.175	0.507
1129.000	648.224	80.011	19.995	103.793	20.030	3.106	0.488
1129.500	648.489	80.009	19.994	103.793	20.027	3.302	0.491
1130.000	648.776	80.010	19.993	103.793	20.027	3.309	0.530
1130.500	648.989	80.009	19.993	103.791	20.029	3.224	0.526
1131.000	649.230	80.009	19.993	103.787	20.027	3.329	0.477
1131.500	649.493	80.011	19.994	103.783	20.029	3.170	0.478
1132.000	649.786	80.010	19.993	103.782	20.027	3.334	0.530
1132.500	650.032	80.010	19.993	103.781	20.027	3.347	0.548
1133.000	650.256	80.014	19.996	103.781	20.028	3.256	0.505
1133.500	650.531	80.011	19.995	103.782	20.027	3.318	0.484
1134.000	650.791	80.010	19.995	103.782	20.031	3.090	0.517
1134.500	651.043	80.009	19.995	103.782	20.028	3.242	0.523
1135.000	651.286	80.010	19.994	103.783	20.027	3.311	0.504
1135.500	651.583	80.010	19.994	103.783	20.026	3.396	0.518
1136.000	651.798	80.010	19.994	103.783	20.026	3.420	0.526
1136.500	652.066	80.009	19.994	103.784	20.024	3.532	0.498
1137.000	652.298	80.010	19.994	103.784	20.027	3.320	0.492
1137.500	652.497	80.011	19.994	103.784	20.024	3.534	0.466
1138.000	652.799	80.010	19.993	103.784	20.029	3.218	0.466
1138.501	653.046	80.011	19.994	103.785	20.025	3.468	0.525
1139.001	653.279	80.009	19.993	103.786	20.026	3.358	0.514
1139.501	653.527	80.011	19.993	103.788	20.026	3.419	0.480
1140.000	653.825	80.011	19.994	103.788	20.024	3.508	0.514
1140.500	654.050	80.011	19.993	103.788	20.023	3.568	0.535
1141.000	654.293	80.012	19.993	103.788	20.025	3.465	0.496
1141.500	654.562	80.012	19.992	103.786	20.021	3.697	0.490
1142.000	654.842	80.011	19.994	103.785	20.027	3.322	0.530
1142.500	655.093	80.012	19.993	103.786	20.024	3.521	0.540
1143.000	655.336	80.011	19.992	103.787	20.026	3.399	0.512
1143.500	655.619	80.012	19.993	103.786	20.024	3.506	0.510
1144.000	655.868	80.011	19.993	103.786	20.025	3.441	0.529
1144.500	656.116	80.011	19.993	103.785	20.026	3.383	0.515
1145.000	656.362	80.011	19.993	103.784	20.024	3.503	0.495
1145.500	656.650	80.013	19.993	103.785	20.029	3.219	0.514
1146.000	656.883	80.013	19.992	103.786	20.026	3.402	0.527
1146.500	657.117	80.012	19.992	103.785	20.024	3.541	0.494
1147.000	657.385	80.012	19.992	103.785	20.024	3.521	0.485
1147.500	657.644	80.012	19.992	103.784	20.026	3.360	0.514
1148.000	657.919	80.011	19.992	103.785	20.022	3.641	0.530
1148.500	658.167	80.011	19.992	103.784	20.025	3.463	0.529
1149.000	658.443	80.011	19.993	103.785	20.025	3.450	0.524
1149.500	658.692	80.013	19.993	103.785	20.026	3.394	0.525
1150.000	658.971	80.013	19.993	103.784	20.025	3.425	0.526
1150.501	659.220	80.012	19.992	103.782	20.024	3.499	0.528
1151.001	659.473	80.013	19.993	103.782	20.025	3.447	0.515
1151.500	659.714	80.011	19.994	103.782	20.023	3.574	0.498
1152.000	660.037	80.011	19.992	103.781	20.027	3.334	0.529
1152.500	660.271	80.011	19.992	103.781	20.025	3.459	0.561
1153.000	660.491	80.013	19.993	103.781	20.021	3.709	0.506
1153.500	660.794	80.012	19.993	103.782	20.025	3.463	0.489
1154.000	661.011	80.012	19.992	103.782	20.026	3.387	0.521
1154.500	661.290	80.010	19.993	103.783	20.025	3.479	0.508
1155.000	661.569	80.011	19.994	103.785	20.025	3.430	0.527
1155.500	661.801	80.011	19.993	103.788	20.023	3.573	0.534
1156.001	662.055	80.012	19.994	103.791	20.027	3.343	0.499
1156.501	662.337	80.011	19.993	103.792	20.028	3.285	0.511
1157.000	662.577	80.012	19.993	103.790	20.023	3.601	0.529
1157.500	662.872	80.011	19.992	103.788	20.028	3.280	0.529
1158.000	663.104	80.011	19.992	103.786	20.028	3.269	0.531
1158.500	663.388	80.011	19.994	103.783	20.027	3.345	0.521
1159.000	663.681	80.011	19.993	103.782	20.027	3.332	0.546
1159.500	663.927	80.011	19.993	103.783	20.027	3.349	0.558
1160.000	664.179	80.010	19.992	103.783	20.026	3.418	0.519
1160.500	664.422	80.011	19.994	103.784	20.030	3.155	0.496
1161.000	664.698	80.011	19.993	103.784	20.029	3.224	0.507
1161.500	664.944	80.012	19.993	103.786	20.025	3.427	0.520
1162.000	665.223	80.011	19.992	103.786	20.027	3.294	0.524
1162.500	665.445	80.011	19.993	103.786	20.028	3.247	0.513
1163.001	665.747	80.011	19.992	103.786	20.028	3.289	0.512
1163.501	665.984	80.012	19.993	103.785	20.027	3.330	0.532
1164.000	666.261	80.012	19.993	103.783	20.027	3.339	0.527
1164.501	666.501	80.012	19.993	103.782	20.028	3.267	0.516
1165.001	666.710	80.011	19.994	103.782	20.027	3.310	0.483
1165.500	666.965	80.012	19.992	103.783	20.025	3.448	0.457
1166.000	667.260	80.012	19.992	103.783	20.024	3.490	0.507
1166.500	667.533	80.013	19.993	103.783	20.026	3.358	0.559
1167.000	667.725	80.013	19.994	103.783	20.025	3.457	0.516
1167.500	667.996	80.013	19.993	103.782	20.029	3.206	0.464
1168.000	668.274	80.012	19.992	103.781	20.029	3.209	0.506
1168.500	668.544	80.013	19.992	103.781	20.030	3.158	0.549
1169.000	668.804	80.013	19.993	103.781	20.028	3.245	0.539
1169.500	669.079	80.015	19.993	103.781	20.030	3.148	0.532
1170.000	669.303	80.013	19.993	103.781	20.028	3.253	0.517
1170.500	669.566	80.013	19.993	103.780	20.028	3.269	0.493
1171.000	669.787	80.014	19.993	103.780	20.030	3.146	0.486
1171.500	670.019	80.013	19.992	103.781	20.030	3.106	0.468
1172.000	670.300	80.014	19.992	103.781	20.029	3.218	0.483
1172.500	670.551	80.013	19.992	103.781	20.028	3.264	0.523
1173.000	670.814	80.014	19.993	103.778	20.029	3.211	0.523
1173.500	671.034	80.014	19.992	103.773	20.030	3.099	0.498
1174.000	671.338	80.014	19.993	103.772	20.028	3.269	0.503
1174.500	671.572	80.013	19.993	103.770	20.029	3.171	0.531
1175.000	671.836	80.015	19.992	103.767	20.028	3.244	0.518
1175.500	672.067	80.014	19.993	103.771	20.030	3.157	0.497
1176.001	672.327	80.013	19.993	103.775	20.026	3.367	0.493
1176.501	672.587	80.012	19.992	103.775	20.028	3.262	0.506
1177.001	672.824	80.013	19.993	103.777	20.028	3.248	0.508
1177.501	673.079	80.014	19.992	103.780	20.029	3.192	0.495
1178.000	673.286	80.014	19.993	103.781	20.028	3.246	0.477
1178.501	673.616	80.013	19.992	103.781	20.027	3.300	0.499
1179.001	673.816	80.014	19.992	103.781	20.029	3.222	0.534
1179.500	674.089	80.013	19.993	103.780	20.026	3.384	0.502
1180.001	674.320	80.013	19.991	103.780	20.023	3.561	0.488
1180.501	674.616	80.014	19.992	103.780	20.025	3.454	0.515
1181.000	674.847	80.013	19.992	103.781	20.025	3.459	0.527
1181.500	675.106	80.013	19.992	103.781	20.028	3.253	0.509
1182.000	675.391	80.013	19.992	103.783	20.028	3.265	0.517
1182.500	675.658	80.013	19.993	103.783	20.027	3.302	0.548
1183.000	675.870	80.012	19.992	103.783	20.029	3.175	0.516
1183.500	676.174	80.013	19.992	103.784	20.027	3.316	0.497
1184.000	676.372	80.013	19.992	103.784	20.028	3.240	0.509
1184.500	676.665	80.013	19.993	103.784	20.027	3.333	0.497
1185.000	676.908	80.014	19.991	103.784	20.028	3.251	0.514
1185.500	677.213	80.012	19.993	103.788	20.030	3.131	0.542
1186.000	677.434	80.013	19.992	103.791	20.029	3.191	0.537
1186.500	677.713	80.013	19.992	103.791	20.025	3.458	0.513
1187.000	677.923	80.012	19.993	103.792	20.026	3.394	0.494
1187.500	678.213	80.014	19.993	103.794	20.025	3.441	0.494
1188.000	678.494	80.013	19.992	103.792	20.028	3.274	0.536
1188.500	678.737	80.013	19.994	103.796	20.029	3.175	0.548
1189.000	679.015	80.013	19.992	103.799	20.026	3.381	0.523
1189.500	679.249	80.014	19.993	103.799	20.023	3.557	0.516
1190.000	679.526	80.013	19.992	103.797	20.026	3.392	0.511
1190.500	679.778	80.014	19.992	103.796	20.027	3.305	0.521
1191.000	680.056	80.012	19.992	103.789	20.026	3.376	0.530
1191.500	680.315	80.014	19.993	103.785	20.030	3.153	0.533
1192.000	680.572	80.014	19.992	103.785	20.026	3.380	0.526
1192.500	680.819	80.012	19.992	103.784	20.024	3.518	0.510
1193.000	681.103	80.015	19.995	103.783	20.025	3.485	0.517
1193.500	681.353	80.013	19.993	103.784	20.024	3.503	0.533
1194.000	681.575	80.014	19.993	103.784	20.026	3.418	0.503
1194.500	681.860	80.015	19.993	103.784	20.027	3.326	0.489
1195.000	682.104	80.014	19.993	103.784	20.023	3.554	0.518
1195.500	682.408	80.014	19.993	103.785	20.028	3.264	0.539
1196.001	682.646	80.014	19.993	103.787	20.022	3.623	0.545
1196.501	682.956	80.013	19.993	103.787	20.023	3.565	0.545
1197.000	683.194	80.015	19.993	103.785	20.022	3.668	0.548
1197.500	683.450	80.015	19.993	103.784	20.025	3.478	0.521
1198.001	683.744	80.014	19.993	103.783	20.026	3.407	0.522
1198.501	683.974	80.014	19.993	103.781	20.021	3.700	0.537
1199.000	684.274	80.013	19.993	103.781	20.027	3.324	0.527
1199.500	684.525	80.014	19.994	103.782	20.025	3.467	0.541
1200.000	684.809	80.014	19.993	103.783	20.027	3.353	0.543
1200.500	685.036	80.014	19.993	103.783	20.025	3.463	0.523
1201.000	685.353	80.014	19.992	103.783	20.023	3.608	0.528
1201.500	685.589	80.014	19.993	103.787	20.027	3.342	0.549
1202.000	685.856	80.013	19.994	103.789	20.024	3.505	0.528
1202.500	686.128	80.013	19.993	103.789	20.027	3.326	0.521
1203.000	686.373	80.013	19.992	103.790	20.029	3.177	0.528
1203.500	686.634	80.014	19.993	103.791	20.026	3.364	0.511
1204.000	686.945	80.013	19.993	103.788	20.026	3.402	0.539
1204.500	687.173	80.012	19.993	103.790	20.029	3.204	0.555
1205.000	687.471	80.012	19.993	103.793	20.025	3.429	0.533
1205.500	687.720	80.012	19.993	103.796	20.028	3.231	0.537
1206.000	687.980	80.012	19.993	103.798	20.030	3.155	0.528
1206.500	688.254	80.011	19.993	103.798	20.028	3.278	0.521
1207.000	688.517	80.012	19.993	103.793	20.029	3.198	0.536
1207.500	688.781	80.010	19.994	103.791	20.030	3.139	0.532
1208.000	689.054	80.012	19.993	103.787	20.031	3.053	0.532
1208.501	689.309	80.010	19.993	103.785	20.031	3.088	0.533
1209.001	689.574	80.010	19.993	103.785	20.022	3.630	0.524
1209.500	689.877	80.011	19.993	103.785	20.029	3.162	0.544
1210.000	690.150	80.011	19.993	103.785	20.026	3.410	0.572
1210.500	690.395	80.011	19.993	103.786	20.027	3.305	0.548
1211.000	690.626	80.010	19.993	103.786	20.028	3.249	0.497
1211.500	690.902	80.011	19.993	103.786	20.028	3.280	0.491
1212.000	691.200	80.011	19.993	103.786	20.029	3.206	0.540
1212.501	691.471	80.012	19.993	103.786	20.027	3.293	0.571
1213.001	691.721	80.011	19.993	103.787	20.028	3.253	0.545
1213.500	691.978	80.011	19.993	103.791	20.026	3.362	0.514
1214.000	692.256	80.011	19.993	103.791	20.028	3.273	0.521
1214.500	692.565	80.012	19.993	103.791	20.028	3.264	0.561
1215.000	692.793	80.012	19.994	103.790	20.027	3.311	0.562
1215.500	693.061	80.011	19.994	103.787	20.029	3.191	0.517
1216.000	693.319	80.011	19.993	103.782	20.031	3.054	0.511
1216.500	693.636	80.011	19.993	103.782	20.029	3.193	0.550
1217.000	693.874	80.012	19.993	103.782	20.030	3.124	0.565
1217.501	694.161	80.011	19.993	103.782	20.029	3.173	0.540
1218.001	694.421	80.012	19.994	103.782	20.031	3.068	0.536
1218.501	694.706	80.013	19.993	103.782	20.032	3.012	0.546
1219.001	694.981	80.010	19.994	103.782	20.028	3.260	0.553
1219.500	695.249	80.011	19.993	103.782	20.034	2.858	0.552
1220.001	695.551	80.011	19.993	103.782	20.029	3.195	0.557
1220.501	695.805	80.011	19.993	103.782	20.029	3.209	0.563
1221.000	696.070	80.012	19.994	103.782	20.031	3.090	0.537
1221.500	696.328	80.013	19.994	103.783	20.027	3.332	0.521
1222.000	696.618	80.011	19.994	103.785	20.024	3.515	0.536
1222.500	696.920	80.012	19.995	103.788	20.030	3.099	0.570
1223.000	697.159	80.012	19.994	103.790	20.026	3.381	0.566
1223.500	697.389	80.012	19.994	103.790	20.027	3.307	0.504
1224.000	697.689	80.010	19.994	103.790	20.027	3.307	0.499
1224.500	697.939	80.012	19.994	103.788	20.027	3.340	0.540
1225.000	698.232	80.011	19.994	103.785	20.028	3.285	0.547
1225.500	698.485	80.010	19.995	103.784	20.030	3.122	0.545
1226.000	698.755	80.012	19.993	103.786	20.027	3.342	0.534
1226.500	699.052	80.010	19.994	103.787	20.027	3.323	0.545
1227.000	699.275	80.012	19.994	103.787	20.029	3.220	0.544
1227.500	699.546	80.011	19.994	103.789	20.030	3.128	0.507
1228.000	699.845	80.011	19.994	103.792	20.029	3.222	0.532
1228.500	700.094	80.009	19.994	103.789	20.029	3.213	0.559
1229.000	700.350	80.012	19.994	103.788	20.029	3.220	0.526
1229.500	700.624	80.012	19.994	103.788	20.026	3.356	0.518
1230.000	700.899	80.011	19.993	103.787	20.025	3.448	0.540
1230.500	701.154	80.011	19.994	103.783	20.027	3.327	0.539
1231.000	701.427	80.012	19.995	103.782	20.026	3.394	0.529
1231.500	701.677	80.011	19.994	103.782	20.031	3.090	0.526
1232.000	701.920	80.011	19.994	103.780	20.025	3.432	0.508
1232.500	702.194	80.011	19.994	103.780	20.027	3.291	0.505
1233.000	702.470	80.012	19.995	103.780	20.028	3.271	0.533
1233.500	702.749	80.010	19.995	103.781	20.029	3.186	0.552
1234.000	702.966	80.011	19.994	103.781	20.028	3.278	0.526
1234.501	703.255	80.011	19.994	103.781	20.030	3.095	0.501
1235.001	703.501	80.011	19.995	103.781	20.027	3.342	0.520
1235.500	703.765	80.011	19.995	103.782	20.029	3.218	0.522
1236.000	704.035	80.011	19.994	103.782	20.026	3.392	0.522
1236.501	704.307	80.012	19.995	103.782	20.027	3.353	0.538
1237.001	704.569	80.011	19.995	103.782	20.029	3.202	0.538
1237.502	704.808	80.012	19.994	103.782	20.027	3.342	0.518
1238.001	705.073	80.012	19.994	103.781	20.025	3.436	0.503
1238.500	705.316	80.011	19.994	103.781	20.027	3.340	0.506
1239.000	705.587	80.012	19.995	103.781	20.026	3.396	0.511
1239.500	705.879	80.013	19.994	103.782	20.027	3.305	0.539
1240.001	706.094	80.012	19.993	103.782	20.026	3.416	0.535
1240.501	706.351	80.012	19.993	103.783	20.028	3.237	0.489
1241.000	706.609	80.011	19.994	103.783	20.028	3.273	0.493
1241.500	706.846	80.012	19.994	103.783	20.029	3.206	0.505
1242.000	707.133	80.011	19.995	103.783	20.029	3.164	0.509
1242.500	707.396	80.012	19.993	103.784	20.030	3.117	0.537
1243.000	707.658	80.011	19.994	103.783	20.028	3.231	0.537
1243.500	707.874	80.013	19.994	103.783	20.028	3.284	0.501
1244.000	708.149	80.011	19.993	103.783	20.027	3.293	0.485
1244.500	708.408	80.013	19.994	103.784	20.028	3.229	0.513
1245.000	708.656	80.012	19.993	103.784	20.026	3.371	0.521
1245.500	708.938	80.011	19.994	103.784	20.028	3.269	0.519
1246.000	709.171	80.012	19.994	103.784	20.029	3.170	0.522
1246.500	709.452	80.012	19.993	103.785	20.025	3.427	0.515
1247.000	709.710	80.012	19.993	103.785	20.027	3.329	0.527
1247.500	709.969	80.012	19.993	103.786	20.027	3.335	0.528
1248.000	710.213	80.011	19.993	103.786	20.027	3.351	0.510
1248.500	710.502	80.012	19.994	103.786	20.026	3.387	0.518
1249.000	710.742	80.012	19.993	103.786	20.027	3.329	0.531
1249.500	710.948	80.011	19.992	103.786	20.028	3.264	0.488
1250.000	711.224	80.012	19.993	103.787	20.028	3.260	0.464
1250.500	711.531	80.011	19.994	103.787	20.027	3.303	0.532
1251.000	711.750	80.014	19.992	103.791	20.027	3.332	0.554
1251.501	712.005	80.012	19.992	103.791	20.029	3.166	0.500
1252.001	712.257	80.012	19.994	103.791	20.028	3.262	0.490
1252.500	712.502	80.011	19.993	103.791	20.028	3.280	0.502
1253.000	712.769	80.015	19.995	103.792	20.028	3.255	0.505
1253.500	713.035	80.013	19.994	103.791	20.028	3.284	0.522
1254.000	713.299	80.013	19.993	103.790	20.026	3.405	0.531
1254.500	713.602	80.014	19.994	103.790	20.027	3.322	0.549
1255.000	713.838	80.014	19.994	103.790	20.027	3.304	0.553
1255.500	714.088	80.014	19.993	103.790	20.029	3.211	0.512
1256.000	714.407	80.013	19.993	103.789	20.026	3.403	0.528
1256.500	714.641	80.014	19.992	103.789	20.025	3.454	0.561
1257.000	714.928	80.014	19.992	103.790	20.025	3.430	0.536
1257.500	715.169	80.013	19.992	103.789	20.026	3.387	0.524
1258.000	715.430	80.014	19.993	103.789	20.026	3.403	0.515
1258.500	715.697	80.012	19.993	103.789	20.029	3.175	0.515
1259.000	715.924	80.013	19.992	103.789	20.026	3.376	0.511
1259.500	716.171	80.014	19.993	103.788	20.027	3.305	0.484
1260.000	716.513	80.013	19.992	103.788	20.026	3.367	0.531
1260.500	716.651	80.013	19.993	103.787	20.026	3.367	0.535
1261.000	716.960	80.014	19.993	103.785	20.026	3.389	0.464
1261.500	717.240	80.013	19.993	103.780	20.026	3.376	0.518
1262.000	717.512	80.013	19.993	103.780	20.025	3.461	0.571
1262.500	717.753	80.013	19.993	103.780	20.026	3.387	0.533
1263.000	718.001	80.012	19.992	103.780	20.023	3.568	0.501
1263.500	718.278	80.013	19.992	103.780	20.026	3.371	0.507
1264.000	718.570	80.012	19.994	103.784	20.024	3.503	0.547
1264.501	718.767	80.011	19.993	103.784	20.027	3.354	0.529
1265.001	719.053	80.013	19.993	103.784	20.026	3.389	0.486
1265.500	719.280	80.013	19.993	103.784	20.023	3.601	0.498
1266.000	719.580	80.012	19.993	103.784	20.026	3.392	0.520
1266.500	719.819	80.013	19.993	103.785	20.026	3.358	0.533
1267.000	720.068	80.012	19.992	103.785	20.027	3.311	0.514
1267.500	720.346	80.013	19.993	103.786	20.027	3.307	0.508
1268.000	720.605	80.011	19.992	103.786	20.026	3.412	0.532
1268.500	720.833	80.013	19.992	103.786	20.027	3.354	0.512
1269.000	721.085	80.011	19.992	103.786	20.026	3.400	0.484
1269.500	721.343	80.012	19.993	103.786	20.026	3.369	0.495
1270.000	721.629	80.012	19.992	103.786	20.025	3.439	0.527
1270.500	721.867	80.012	19.992	103.785	20.028	3.285	0.534
1271.000	722.099	80.012	19.992	103.785	20.025	3.483	0.497
1271.500	722.347	80.012	19.993	103.785	20.027	3.334	0.475
1272.000	722.670	80.012	19.992	103.786	20.027	3.342	0.525
1272.500	722.898	80.012	19.991	103.786	20.027	3.307	0.561
1273.000	723.175	80.012	19.993	103.788	20.028	3.287	0.528
1273.500	723.452	80.012	19.993	103.788	20.026	3.407	0.530
1274.001	723.695	80.013	19.992	103.788	20.027	3.296	0.537
1274.501	723.945	80.012	19.993	103.788	20.031	3.061	0.507
1275.000	724.207	80.013	19.993	103.788	20.025	3.434	0.503
1275.500	724.458	80.014	19.992	103.787	20.026	3.401	0.512
1276.000	724.702	80.016	19.993	103.786	20.031	3.072	0.504
1276.500	724.955	80.013	19.993	103.787	20.031	3.050	0.496
1277.001	725.225	80.013	19.992	103.787	20.033	2.905	0.510
1277.501	725.487	80.014	19.992	103.787	20.029	3.169	0.528
1278.001	725.767	80.013	19.992	103.787	20.028	3.233	0.537
1278.501	725.980	80.014	19.993	103.787	20.028	3.247	0.517
1279.000	726.251	80.016	19.993	103.785	20.026	3.398	0.488
1279.500	726.532	80.014	19.993	103.785	20.026	3.358	0.518
1280.000	726.786	80.014	19.992	103.784	20.027	3.318	0.544
1280.500	727.063	80.015	19.992	103.783	20.027	3.300	0.533
1281.000	727.303	80.015	19.992	103.782	20.027	3.318	0.523
1281.500	727.574	80.015	19.992	103.782	20.031	3.075	0.514
1282.001	727.848	80.016	19.992	103.782	20.029	3.206	0.529
1282.501	728.097	80.016	19.992	103.782	20.028	3.255	0.534
1283.000	728.348	80.016	19.993	103.782	20.027	3.347	0.511
1283.500	728.580	80.015	19.992	103.781	20.029	3.224	0.491
1284.000	728.873	80.014	19.992	103.783	20.030	3.133	0.504
1284.500	729.134	80.015	19.992	103.784	20.027	3.320	0.539
1285.000	729.352	80.015	19.992	103.784	20.027	3.349	0.517
1285.501	729.628	80.015	19.993	103.783	20.028	3.245	0.487
1286.001	729.868	80.014	19.993	103.783	20.029	3.209	0.505
1286.500	730.131	80.013	19.993	103.782	20.027	3.323	0.509
1287.000	730.412	80.014	19.992	103.782	20.030	3.153	0.524
1287.500	730.659	80.014	19.991	103.781	20.029	3.180	0.536
1288.000	730.975	80.014	19.991	103.781	20.028	3.284	0.545
1288.500	731.198	80.014	19.993	103.782	20.025	3.454	0.551
1289.000	731.438	80.013	19.993	103.783	20.024	3.526	0.501
1289.500	731.705	80.014	19.992	103.782	20.024	3.552	0.485
1290.001	731.994	80.013	19.993	103.783	20.028	3.285	0.531
1290.501	732.214	80.013	19.992	103.784	20.026	3.380	0.533
1291.000	732.485	80.011	19.993	103.784	20.028	3.278	0.500
1291.500	732.785	80.012	19.992	103.784	20.026	3.416	0.531
1292.000	733.016	80.011	19.991	103.785	20.023	3.581	0.551
1292.500	733.253	80.011	19.993	103.785	20.025	3.445	0.499
1293.000	733.493	80.011	19.993	103.784	20.025	3.459	0.472
1293.500	733.762	80.012	19.993	103.783	20.029	3.204	0.493
1294.000	734.035	80.012	19.994	103.783	20.027	3.293	0.526
1294.501	734.269	80.013	19.994	103.783	20.029	3.184	0.525
1295.001	734.539	80.012	19.993	103.783	20.025	3.450	0.505
1295.500	734.810	80.011	19.993	103.782	20.025	3.459	0.522
1296.000	735.049	80.012	19.994	103.782	20.026	3.385	0.526
1296.501	735.255	80.013	19.994	103.781	20.028	3.267	0.478
1297.002	735.550	80.012	19.992	103.781	20.023	3.588	0.473
1297.502	735.796	80.013	19.993	103.781	20.026	3.385	0.521
1298.001	736.085	80.012	19.994	103.782	20.022	3.622	0.538
1298.500	736.323	80.011	19.993	103.782	20.024	3.515	0.531
1299.000	736.559	80.012	19.993	103.782	20.028	3.260	0.500
1299.501	736.811	80.012	19.993	103.784	20.026	3.367	0.481
1300.001	737.095	80.012	19.993	103.784	20.027	3.334	0.512
1300.500	737.359	80.011	19.994	103.784	20.024	3.508	0.542
1301.000	737.616	80.013	19.994	103.786	20.025	3.474	0.535
1301.500	737.850	80.012	19.994	103.787	20.030	3.139	0.506
1302.000	738.085	80.011	19.993	103.785	20.026	3.401	0.480
1302.500	738.325	80.012	19.993	103.785	20.026	3.392	0.472
1303.000	738.564	80.012	19.994	103.784	20.028	3.282	0.477
1303.500	738.798	80.011	19.993	103.781	20.027	3.334	0.476
1304.000	739.093	80.012	19.993	103.779	20.028	3.235	0.501
1304.500	739.351	80.012	19.994	103.780	20.025	3.441	0.541
1305.000	739.616	80.012	19.994	103.779	20.023	3.566	0.538
1305.500	739.886	80.012	19.993	103.780	20.025	3.461	0.529
1306.000	740.114	80.012	19.992	103.782	20.027	3.345	0.516
1306.501	740.375	80.011	19.993	103.783	20.027	3.345	0.493
1307.001	740.619	80.013	19.993	103.782	20.024	3.510	0.497
1307.500	740.893	80.014	19.993	103.783	20.025	3.427	0.512
1308.000	741.162	80.013	19.993	103.783	20.025	3.468	0.531
1308.500	741.396	80.012	19.993	103.783	20.026	3.385	0.523
1309.000	741.617	80.013	19.993	103.783	20.021	3.718	0.479
1309.500	741.893	80.012	19.993	103.782	20.021	3.726	0.476
1310.000	742.124	80.012	19.994	103.782	20.022	3.640	0.502
1310.500	742.398	80.012	19.993	103.782	20.022	3.673	0.506
1311.000	742.644	80.011	19.993	103.782	20.024	3.550	0.512
1311.500	742.891	80.012	19.993	103.782	20.022	3.647	0.506
1312.000	743.115	80.012	19.992	103.782	20.019	3.872	0.482
1312.500	743.386	80.010	19.992	103.783	20.025	3.479	0.484
1313.000	743.628	80.014	19.996	103.783	20.024	3.505	0.504
1313.500	743.835	80.012	19.995	103.783	20.025	3.452	0.481
