Sample ID:	C:\MCC\MCC Cal\Test\Bean_Bag_Chair_Outer_Cover_MCC_30K_min_220311_R3.txt
Sample Weight (mg):	4.12
Heating Rate (C/s):	1
Combustor Temp (C):	900
N2 Flow Rate (cc/min):	80
O2 Flow Rate (cc/min):	20
Calibration File:	C:\MCC\MCC Cal\Coeff1 JN10440_30_210304.txt.txt
T Correction Coefficients:	0	1.024463	0
Time Shift (s):	14
*
Time (s)	Temperature (C)	N2 flow rate (cc/min)	O2 flow rate (cc/min)	Flow Rate (cc/min)	Oxygen (%)	HRR (W/g)	Heating rate (C/s)
0.000	106.410	80.008	19.993	103.595	19.902	0.308	0.021
0.500	106.414	80.010	19.995	103.595	19.903	0.276	-0.021
1.000	106.405	80.010	19.994	103.596	19.904	0.161	-0.022
1.500	106.386	80.010	19.995	103.597	19.904	0.134	-0.017
2.000	106.394	80.008	19.995	103.597	19.904	0.192	-0.019
2.500	106.375	80.009	19.995	103.597	19.905	0.054	-0.011
3.000	106.398	80.010	19.993	103.596	19.905	0.097	-0.003
3.500	106.412	80.010	19.995	103.595	19.903	0.267	0.021
4.000	106.422	80.009	19.995	103.594	19.905	0.101	0.030
4.500	106.361	80.009	19.994	103.598	19.901	0.386	-0.014
5.000	106.410	80.010	19.994	103.603	19.902	0.341	-0.032
5.500	106.384	80.009	19.993	103.610	19.902	0.349	0.006
6.000	106.398	80.009	19.994	103.618	19.902	0.334	0.006
6.500	106.375	80.010	19.994	103.624	19.898	0.655	-0.011
7.001	106.425	80.010	19.994	103.629	19.902	0.334	0.009
7.500	106.408	80.010	19.994	103.640	19.897	0.739	0.030
8.000	106.401	80.010	19.993	103.650	19.895	0.910	0.004
8.500	106.416	80.009	19.993	103.662	19.892	1.089	-0.008
9.000	106.416	80.010	19.995	103.675	19.888	1.445	0.012
9.500	106.427	80.009	19.993	103.689	19.888	1.438	0.013
10.000	106.419	80.010	19.994	103.701	19.888	1.453	0.007
10.500	106.418	80.011	19.994	103.716	19.888	1.453	-0.003
11.000	106.484	80.010	19.994	103.728	19.882	1.924	0.028
11.500	106.495	80.010	19.995	103.746	19.882	1.887	0.071
12.000	106.507	80.009	19.995	103.762	19.880	2.055	0.050
12.500	106.523	80.009	19.994	103.777	19.873	2.609	0.025
13.000	106.578	80.009	19.994	103.792	19.877	2.318	0.050
13.500	106.576	80.008	19.995	103.809	19.875	2.420	0.062
14.000	106.632	80.009	19.994	103.822	19.874	2.560	0.054
14.501	106.644	80.009	19.992	103.836	19.869	2.905	0.061
15.001	106.666	80.008	19.994	103.845	19.872	2.688	0.051
15.500	106.724	80.008	19.994	103.853	19.869	2.902	0.057
16.000	106.758	80.008	19.994	103.859	19.866	3.171	0.086
16.500	106.847	80.008	19.993	103.861	19.864	3.351	0.107
17.000	106.863	80.007	19.995	103.862	19.863	3.404	0.114
17.500	106.912	80.008	19.995	103.870	19.859	3.709	0.085
18.000	106.980	80.008	19.994	103.878	19.860	3.618	0.091
18.500	107.009	80.007	19.995	103.886	19.856	3.946	0.107
19.000	107.081	80.007	19.995	103.894	19.859	3.713	0.098
19.500	107.175	80.008	19.995	103.902	19.858	3.826	0.134
20.000	107.215	80.007	19.994	103.906	19.856	3.969	0.151
20.500	107.298	80.008	19.994	103.906	19.854	4.070	0.129
21.000	107.399	80.007	19.994	103.907	19.852	4.232	0.153
21.500	107.475	80.007	19.995	103.907	19.852	4.251	0.180
22.000	107.566	80.006	19.994	103.912	19.850	4.383	0.172
22.500	107.631	80.008	19.993	103.914	19.850	4.435	0.162
23.000	107.728	80.007	19.993	103.915	19.848	4.558	0.159
23.500	107.804	80.007	19.995	103.917	19.853	4.223	0.167
24.000	107.940	80.007	19.995	103.924	19.849	4.461	0.192
24.500	108.033	80.006	19.994	103.925	19.848	4.584	0.221
25.000	108.127	80.007	19.993	103.931	19.851	4.327	0.208
25.500	108.241	80.008	19.994	103.938	19.850	4.404	0.197
26.000	108.329	80.007	19.994	103.947	19.847	4.661	0.205
26.500	108.434	80.007	19.994	103.954	19.846	4.722	0.197
27.000	108.560	80.006	19.993	103.961	19.844	4.886	0.212
27.500	108.734	80.008	19.993	103.962	19.844	4.882	0.266
28.000	108.805	80.007	19.995	103.962	19.845	4.831	0.272
28.500	108.972	80.006	19.994	103.963	19.845	4.848	0.241
29.000	109.108	80.009	19.993	103.964	19.842	5.088	0.270
29.500	109.191	80.007	19.994	103.968	19.845	4.835	0.261
30.000	109.355	80.008	19.993	103.976	19.844	4.921	0.234
30.500	109.495	80.007	19.993	103.987	19.841	5.102	0.275
31.000	109.639	80.007	19.993	103.991	19.843	4.955	0.293
31.500	109.816	80.006	19.994	103.992	19.839	5.292	0.302
32.000	109.931	80.008	19.994	103.992	19.839	5.267	0.306
32.500	110.100	80.008	19.994	103.991	19.840	5.183	0.288
33.000	110.244	80.007	19.994	103.989	19.839	5.321	0.299
33.500	110.432	80.006	19.993	103.993	19.838	5.337	0.322
34.000	110.597	80.008	19.993	103.992	19.840	5.244	0.343
34.501	110.737	80.007	19.993	103.992	19.840	5.214	0.329
35.001	110.911	80.007	19.994	103.992	19.842	5.058	0.309
35.500	111.083	80.007	19.993	103.991	19.840	5.179	0.330
36.000	111.228	80.007	19.993	103.988	19.839	5.307	0.332
36.500	111.432	80.007	19.994	103.989	19.839	5.288	0.333
37.000	111.600	80.007	19.994	103.989	19.838	5.364	0.360
37.501	111.807	80.007	19.993	103.991	19.836	5.552	0.374
38.001	111.998	80.007	19.994	103.994	19.839	5.280	0.386
38.500	112.172	80.006	19.994	104.001	19.840	5.215	0.382
39.000	112.363	80.007	19.994	104.008	19.835	5.586	0.366
39.500	112.557	80.007	19.993	104.012	19.835	5.567	0.375
40.000	112.770	80.008	19.994	104.012	19.835	5.612	0.395
40.500	112.971	80.007	19.995	104.009	19.834	5.648	0.410
41.000	113.131	80.006	19.994	104.002	19.834	5.717	0.388
41.500	113.376	80.006	19.994	103.998	19.832	5.871	0.383
42.000	113.596	80.006	19.994	104.002	19.833	5.778	0.435
42.500	113.775	80.007	19.993	104.006	19.832	5.847	0.432
43.000	113.985	80.006	19.994	104.014	19.832	5.873	0.394
43.500	114.212	80.006	19.993	104.022	19.831	5.912	0.413
44.000	114.424	80.006	19.994	104.026	19.833	5.741	0.438
44.500	114.657	80.005	19.994	104.027	19.828	6.130	0.442
45.000	114.871	80.005	19.994	104.027	19.834	5.693	0.446
45.501	115.115	80.004	19.995	104.028	19.830	5.996	0.452
46.001	115.322	80.005	19.995	104.029	19.829	6.044	0.455
46.500	115.574	80.005	19.995	104.036	19.831	5.899	0.455
47.000	115.824	80.005	19.994	104.044	19.832	5.807	0.480
47.500	116.037	80.006	19.995	104.052	19.828	6.135	0.483
48.000	116.295	80.005	19.994	104.059	19.832	5.821	0.468
48.500	116.498	80.006	19.994	104.063	19.828	6.171	0.466
49.000	116.799	80.005	19.994	104.060	19.830	6.024	0.482
49.500	117.042	80.005	19.994	104.060	19.831	5.945	0.524
50.001	117.275	80.004	19.995	104.054	19.832	5.854	0.510
50.501	117.553	80.006	19.995	104.048	19.831	5.917	0.493
51.000	117.803	80.006	19.995	104.045	19.832	5.869	0.520
51.500	118.068	80.005	19.995	104.042	19.831	5.947	0.522
52.000	118.340	80.007	19.994	104.038	19.829	6.081	0.526
52.500	118.660	80.008	19.993	104.043	19.830	5.995	0.564
53.000	118.873	80.006	19.994	104.047	19.826	6.275	0.563
53.500	119.169	80.007	19.995	104.051	19.832	5.823	0.522
54.000	119.424	80.008	19.994	104.054	19.829	6.112	0.530
54.500	119.692	80.006	19.996	104.052	19.830	6.028	0.537
55.000	119.963	80.008	19.994	104.046	19.829	6.082	0.530
55.500	120.217	80.007	19.994	104.041	19.830	5.985	0.532
56.000	120.537	80.008	19.994	104.040	19.827	6.240	0.549
56.500	120.830	80.008	19.994	104.042	19.830	6.014	0.594
57.000	121.108	80.007	19.994	104.046	19.830	6.014	0.592
57.500	121.394	80.008	19.995	104.050	19.828	6.165	0.567
58.000	121.695	80.008	19.995	104.055	19.830	6.011	0.575
58.500	121.960	80.007	19.994	104.051	19.826	6.335	0.576
59.000	122.336	80.009	19.994	104.048	19.831	5.888	0.604
59.500	122.586	80.009	19.994	104.047	19.831	5.912	0.634
60.000	122.909	80.009	19.995	104.048	19.831	5.919	0.599
60.500	123.215	80.008	19.994	104.050	19.828	6.182	0.601
61.000	123.507	80.009	19.993	104.054	19.828	6.157	0.614
61.500	123.832	80.008	19.994	104.058	19.830	5.988	0.608
62.000	124.134	80.008	19.994	104.059	19.830	6.031	0.622
62.501	124.440	80.008	19.994	104.059	19.831	5.900	0.617
63.001	124.745	80.007	19.995	104.058	19.832	5.874	0.610
63.500	125.106	80.007	19.994	104.059	19.830	5.966	0.639
64.001	125.408	80.009	19.993	104.053	19.830	5.995	0.665
64.501	125.710	80.008	19.994	104.046	19.832	5.871	0.633
65.001	126.018	80.008	19.994	104.040	19.830	6.025	0.606
65.501	126.387	80.008	19.994	104.039	19.830	6.008	0.643
66.000	126.677	80.007	19.994	104.039	19.831	5.927	0.668
66.500	126.982	80.007	19.995	104.044	19.831	5.923	0.627
67.000	127.346	80.008	19.995	104.051	19.831	5.953	0.632
67.500	127.668	80.008	19.994	104.051	19.830	5.976	0.677
68.000	128.004	80.007	19.995	104.053	19.829	6.101	0.672
68.500	128.399	80.006	19.995	104.054	19.833	5.793	0.695
69.000	128.694	80.008	19.994	104.051	19.829	6.074	0.710
69.500	129.010	80.006	19.993	104.050	19.829	6.048	0.650
70.000	129.369	80.007	19.997	104.052	19.829	6.044	0.643
70.500	129.732	80.008	19.998	104.053	19.831	5.932	0.698
71.000	130.085	80.008	19.996	104.053	19.832	5.822	0.719
71.500	130.401	80.006	19.997	104.056	19.829	6.049	0.693
72.000	130.734	80.007	19.995	104.057	19.831	5.930	0.659
72.500	131.097	80.006	19.996	104.060	19.832	5.852	0.673
73.001	131.463	80.008	19.995	104.058	19.833	5.733	0.713
73.501	131.801	80.007	19.995	104.057	19.833	5.727	0.716
74.000	132.141	80.007	19.995	104.056	19.830	6.018	0.691
74.500	132.504	80.007	19.995	104.055	19.830	6.016	0.691
75.000	132.904	80.008	19.994	104.056	19.832	5.861	0.733
75.500	133.256	80.007	19.995	104.057	19.831	5.949	0.757
76.000	133.597	80.009	19.995	104.059	19.830	5.980	0.722
76.501	133.967	80.007	19.995	104.057	19.831	5.943	0.702
77.001	134.328	80.007	19.995	104.052	19.831	5.902	0.721
77.500	134.674	80.008	19.995	104.045	19.831	5.898	0.720
78.000	135.053	80.007	19.997	104.040	19.828	6.120	0.716
78.500	135.437	80.007	19.995	104.036	19.832	5.826	0.744
79.000	135.782	80.008	19.994	104.036	19.828	6.127	0.746
79.500	136.180	80.008	19.994	104.042	19.828	6.142	0.736
80.000	136.562	80.008	19.994	104.048	19.828	6.150	0.761
80.500	136.920	80.008	19.994	104.055	19.832	5.863	0.760
81.000	137.334	80.008	19.993	104.058	19.830	5.973	0.756
81.500	137.710	80.009	19.995	104.059	19.829	6.066	0.781
82.000	138.064	80.009	19.995	104.059	19.832	5.805	0.760
82.500	138.457	80.008	19.994	104.057	19.829	6.060	0.738
83.000	138.876	80.009	19.993	104.055	19.833	5.801	0.779
83.500	139.202	80.009	19.994	104.055	19.829	6.066	0.779
84.001	139.585	80.009	19.993	104.056	19.830	6.034	0.727
84.501	139.985	80.010	19.993	104.056	19.828	6.144	0.746
85.000	140.407	80.010	19.994	104.059	19.829	6.088	0.802
85.501	140.817	80.009	19.994	104.061	19.831	5.891	0.827
86.001	141.208	80.009	19.994	104.061	19.828	6.133	0.817
86.500	141.591	80.008	19.993	104.062	19.829	6.071	0.788
87.000	142.009	80.010	19.994	104.062	19.830	5.997	0.787
87.500	142.399	80.008	19.993	104.062	19.830	6.006	0.804
88.000	142.799	80.008	19.993	104.062	19.834	5.680	0.799
88.500	143.174	80.009	19.993	104.063	19.832	5.824	0.783
89.000	143.642	80.008	19.993	104.062	19.829	6.079	0.809
89.501	144.005	80.008	19.994	104.062	19.830	5.976	0.837
90.001	144.460	80.007	19.995	104.063	19.834	5.697	0.825
90.500	144.844	80.007	19.993	104.063	19.834	5.723	0.828
91.000	145.261	80.006	19.993	104.063	19.830	5.967	0.820
91.500	145.696	80.007	19.994	104.064	19.831	5.885	0.827
92.000	146.081	80.006	19.994	104.064	19.828	6.159	0.836
92.500	146.514	80.006	19.994	104.065	19.830	5.980	0.819
93.000	146.918	80.006	19.993	104.065	19.830	5.975	0.827
93.500	147.309	80.006	19.993	104.065	19.829	6.066	0.816
94.000	147.748	80.006	19.995	104.065	19.833	5.745	0.813
94.500	148.172	80.006	19.994	104.066	19.830	5.991	0.847
95.000	148.581	80.005	19.994	104.066	19.832	5.874	0.848
95.500	148.990	80.006	19.993	104.066	19.832	5.837	0.825
96.000	149.441	80.006	19.994	104.067	19.832	5.878	0.839
96.500	149.865	80.005	19.994	104.067	19.834	5.667	0.868
97.000	150.278	80.007	19.994	104.067	19.831	5.919	0.856
97.500	150.711	80.006	19.994	104.066	19.834	5.652	0.841
98.001	151.135	80.006	19.994	104.067	19.836	5.539	0.851
98.501	151.544	80.007	19.994	104.067	19.837	5.479	0.845
99.000	151.969	80.006	19.994	104.066	19.834	5.688	0.834
99.500	152.420	80.006	19.994	104.066	19.836	5.541	0.855
100.000	152.842	80.004	19.993	104.066	19.837	5.412	0.874
100.500	153.295	80.005	19.994	104.065	19.836	5.550	0.874
101.000	153.758	80.005	19.994	104.064	19.835	5.628	0.896
101.500	154.137	80.005	19.993	104.063	19.835	5.571	0.879
102.000	154.594	80.006	19.994	104.062	19.835	5.595	0.839
102.500	155.013	80.006	19.994	104.062	19.835	5.590	0.856
103.000	155.437	80.006	19.994	104.062	19.834	5.683	0.859
103.500	155.913	80.006	19.993	104.062	19.836	5.493	0.872
104.000	156.380	80.004	19.995	104.063	19.834	5.666	0.922
104.500	156.791	80.005	19.994	104.065	19.835	5.642	0.910
105.000	157.191	80.005	19.995	104.065	19.836	5.519	0.844
105.500	157.634	80.006	19.995	104.065	19.833	5.800	0.827
106.000	158.064	80.006	19.994	104.064	19.836	5.529	0.858
106.500	158.512	80.005	19.995	104.062	19.835	5.607	0.876
107.000	158.991	80.004	19.994	104.062	19.833	5.751	0.902
107.500	159.435	80.004	19.993	104.062	19.839	5.324	0.925
108.000	159.857	80.006	19.994	104.062	19.836	5.553	0.895
108.500	160.345	80.006	19.994	104.064	19.835	5.594	0.888
109.000	160.812	80.007	19.993	104.064	19.839	5.296	0.933
109.500	161.248	80.007	19.995	104.064	19.835	5.573	0.929
110.000	161.690	80.007	19.993	104.066	19.834	5.679	0.890
110.500	162.226	80.007	19.994	104.064	19.836	5.486	0.928
111.001	162.641	80.007	19.994	104.063	19.837	5.471	0.964
111.501	163.116	80.005	19.993	104.065	19.839	5.307	0.921
112.000	163.567	80.007	19.994	104.061	19.839	5.327	0.908
112.500	164.062	80.007	19.993	104.054	19.836	5.536	0.936
113.000	164.474	80.005	19.993	104.051	19.835	5.591	0.927
113.500	164.984	80.006	19.993	104.047	19.837	5.467	0.915
114.000	165.470	80.008	19.993	104.047	19.836	5.530	0.959
114.500	165.935	80.006	19.994	104.049	19.837	5.419	0.973
115.000	166.374	80.008	19.993	104.052	19.841	5.123	0.927
115.500	166.839	80.007	19.993	104.053	19.837	5.460	0.904
116.000	167.276	80.008	19.993	104.053	19.838	5.380	0.903
116.500	167.746	80.005	19.994	104.048	19.839	5.302	0.904
117.000	168.214	80.005	19.994	104.041	19.839	5.261	0.923
117.500	168.705	80.006	19.994	104.035	19.838	5.402	0.948
118.000	169.179	80.006	19.994	104.030	19.842	5.082	0.962
118.500	169.639	80.006	19.993	104.030	19.839	5.268	0.949
119.000	170.114	80.008	19.993	104.033	19.840	5.186	0.934
119.500	170.551	80.007	19.994	104.036	19.839	5.301	0.924
120.000	171.042	80.006	19.994	104.039	19.840	5.186	0.920
120.500	171.497	80.007	19.994	104.045	19.840	5.180	0.937
121.000	171.978	80.006	19.995	104.043	19.837	5.432	0.941
121.500	172.450	80.006	19.994	104.040	19.838	5.400	0.944
122.000	172.959	80.007	19.994	104.044	19.841	5.158	0.967
122.500	173.436	80.007	19.994	104.043	19.842	5.015	0.984
123.000	173.893	80.006	19.994	104.042	19.841	5.116	0.960
123.500	174.374	80.007	19.993	104.049	19.840	5.209	0.936
124.000	174.850	80.005	19.995	104.054	19.841	5.131	0.948
124.500	175.333	80.005	19.993	104.049	19.840	5.213	0.958
125.000	175.804	80.007	19.994	104.047	19.842	5.067	0.957
125.500	176.282	80.007	19.994	104.041	19.841	5.142	0.951
126.000	176.780	80.007	19.993	104.034	19.843	4.991	0.962
126.500	177.242	80.006	19.993	104.026	19.841	5.146	0.968
127.000	177.719	80.007	19.994	104.025	19.840	5.213	0.949
127.500	178.201	80.006	19.995	104.025	19.842	5.090	0.949
128.000	178.669	80.007	19.993	104.027	19.842	5.053	0.955
128.500	179.185	80.007	19.993	104.034	19.843	4.952	0.967
129.000	179.672	80.007	19.993	104.038	19.844	4.902	0.993
129.500	180.148	80.006	19.992	104.040	19.844	4.924	0.984
130.000	180.628	80.009	19.995	104.042	19.847	4.691	0.960
130.500	181.136	80.008	19.996	104.047	19.845	4.812	0.972
131.000	181.646	80.007	19.995	104.046	19.843	4.943	1.003
131.500	182.147	80.006	19.996	104.044	19.846	4.704	1.014
132.000	182.610	80.007	19.996	104.043	19.846	4.699	0.987
132.500	183.068	80.007	19.995	104.040	19.846	4.744	0.943
133.000	183.584	80.007	19.996	104.033	19.847	4.697	0.948
133.500	184.065	80.007	19.995	104.028	19.845	4.789	0.986
134.000	184.556	80.007	19.995	104.026	19.848	4.589	0.984
134.500	185.062	80.007	19.996	104.025	19.842	5.025	0.984
135.000	185.567	80.007	19.994	104.024	19.846	4.714	1.004
135.500	186.075	80.007	19.996	104.024	19.843	4.945	1.012
136.000	186.610	80.008	19.995	104.023	19.844	4.883	1.028
136.500	187.100	80.008	19.995	104.023	19.843	4.995	1.034
137.000	187.589	80.007	19.995	104.022	19.845	4.831	1.002
137.500	188.080	80.008	19.995	104.023	19.845	4.842	0.979
138.000	188.609	80.008	19.995	104.022	19.841	5.110	1.000
138.500	189.075	80.008	19.995	104.022	19.841	5.138	1.008
139.000	189.596	80.008	19.994	104.021	19.848	4.600	0.991
139.500	190.114	80.007	19.994	104.021	19.843	4.952	1.013
140.000	190.600	80.007	19.994	104.020	19.845	4.812	1.022
140.500	191.101	80.008	19.995	104.020	19.844	4.863	0.996
141.000	191.592	80.006	19.995	104.021	19.848	4.595	0.989
141.500	192.101	80.007	19.993	104.021	19.845	4.820	0.996
142.000	192.627	80.008	19.994	104.022	19.846	4.770	1.018
142.500	193.097	80.007	19.995	104.023	19.845	4.843	1.016
143.000	193.618	80.008	19.995	104.019	19.845	4.838	0.993
143.500	194.107	80.009	19.995	104.015	19.845	4.802	1.001
144.000	194.600	80.009	19.994	104.012	19.849	4.506	0.996
144.500	195.110	80.009	19.994	104.008	19.847	4.631	0.993
145.000	195.629	80.007	19.995	104.002	19.845	4.791	1.016
145.500	196.088	80.007	19.995	104.005	19.845	4.795	1.004
146.000	196.660	80.007	19.994	104.010	19.845	4.840	1.005
146.500	197.147	80.007	19.992	104.012	19.847	4.629	1.045
147.000	197.693	80.005	19.994	104.016	19.844	4.916	1.046
147.500	198.176	80.007	19.993	104.020	19.846	4.739	1.031
148.000	198.668	80.007	19.994	104.020	19.851	4.381	1.002
148.500	199.200	80.007	19.994	104.020	19.847	4.664	0.999
149.000	199.665	80.008	19.993	104.021	19.847	4.633	1.010
149.500	200.186	80.007	19.995	104.022	19.851	4.379	0.991
150.000	200.706	80.006	19.995	104.022	19.849	4.521	1.014
150.500	201.209	80.008	19.993	104.023	19.849	4.506	1.032
151.000	201.707	80.007	19.993	104.022	19.849	4.527	1.012
151.500	202.177	80.007	19.994	104.015	19.851	4.368	0.985
152.000	202.704	80.007	19.995	104.007	19.850	4.450	0.982
152.500	203.228	80.007	19.994	104.004	19.848	4.601	1.023
153.000	203.738	80.008	19.993	103.997	19.847	4.633	1.043
153.500	204.244	80.008	19.994	103.991	19.851	4.357	1.025
154.000	204.781	80.007	19.994	103.993	19.848	4.568	1.029
154.500	205.283	80.007	19.994	103.994	19.849	4.527	1.041
155.000	205.783	80.008	19.994	103.993	19.849	4.529	1.021
155.500	206.361	80.007	19.994	103.994	19.848	4.546	1.039
156.000	206.805	80.009	19.994	103.995	19.848	4.583	1.050
156.500	207.334	80.009	19.994	103.992	19.847	4.646	0.998
157.000	207.877	80.008	19.996	103.991	19.848	4.592	1.022
157.500	208.336	80.008	19.994	103.990	19.850	4.389	1.037
158.000	208.902	80.007	19.996	103.991	19.849	4.473	1.014
158.500	209.413	80.008	19.994	103.991	19.851	4.355	1.051
159.000	209.918	80.007	19.994	103.990	19.850	4.458	1.046
159.500	210.441	80.008	19.996	103.991	19.851	4.320	1.021
160.000	210.954	80.009	19.994	103.989	19.847	4.693	1.032
160.500	211.464	80.009	19.995	103.987	19.848	4.544	1.030
161.000	212.001	80.007	19.996	103.986	19.850	4.389	1.035
161.500	212.477	80.007	19.995	103.985	19.853	4.178	1.030
162.000	212.996	80.007	19.993	103.985	19.849	4.525	1.004
162.500	213.527	80.009	19.994	103.984	19.851	4.305	1.023
163.000	214.017	80.008	19.994	103.984	19.849	4.469	1.035
163.500	214.552	80.008	19.994	103.982	19.850	4.402	1.023
164.000	215.055	80.009	19.993	103.981	19.849	4.499	1.032
164.500	215.633	80.006	19.995	103.981	19.849	4.469	1.060
165.000	216.093	80.008	19.995	103.981	19.850	4.450	1.059
165.500	216.598	80.007	19.995	103.981	19.849	4.527	1.001
166.000	217.163	80.006	19.993	103.980	19.850	4.447	1.018
166.500	217.659	80.005	19.995	103.979	19.851	4.320	1.065
167.000	218.181	80.007	19.995	103.979	19.848	4.568	1.039
167.500	218.657	80.006	19.994	103.977	19.849	4.496	1.008
168.000	219.190	80.006	19.994	103.975	19.847	4.652	1.004
168.500	219.721	80.006	19.995	103.979	19.851	4.371	1.036
169.000	220.188	80.005	19.996	103.981	19.848	4.612	1.031
169.500	220.733	80.008	19.995	103.981	19.847	4.675	1.005
170.000	221.240	80.005	19.994	103.983	19.851	4.345	1.032
170.500	221.767	80.006	19.995	103.984	19.848	4.591	1.043
171.000	222.292	80.005	19.995	103.981	19.849	4.528	1.043
171.500	222.843	80.006	19.994	103.981	19.849	4.513	1.064
172.000	223.348	80.006	19.994	103.982	19.848	4.554	1.066
172.500	223.841	80.007	19.993	103.982	19.847	4.658	1.027
173.000	224.370	80.005	19.995	103.980	19.848	4.608	1.010
173.500	224.868	80.005	19.994	103.979	19.848	4.588	1.025
174.000	225.407	80.005	19.994	103.980	19.849	4.487	1.032
174.500	225.917	80.005	19.995	103.979	19.849	4.513	1.043
175.000	226.406	80.007	19.994	103.979	19.849	4.493	1.024
175.500	227.006	80.006	19.995	103.982	19.849	4.502	1.044
176.000	227.464	80.006	19.993	103.985	19.851	4.325	1.074
176.500	227.999	80.007	19.994	103.977	19.850	4.398	1.026
177.000	228.528	80.007	19.994	103.975	19.850	4.390	1.028
177.500	229.029	80.006	19.994	103.974	19.853	4.174	1.046
178.000	229.601	80.007	19.995	103.973	19.847	4.653	1.051
178.500	230.091	80.005	19.996	103.968	19.852	4.297	1.067
179.000	230.579	80.006	19.994	103.967	19.850	4.413	1.020
179.500	231.082	80.006	19.993	103.962	19.851	4.325	0.985
180.000	231.652	80.006	19.994	103.955	19.848	4.541	1.032
180.500	232.124	80.006	19.994	103.948	19.852	4.261	1.057
181.000	232.642	80.005	19.995	103.949	19.850	4.405	1.016
181.500	233.194	80.005	19.994	103.952	19.850	4.435	1.030
182.000	233.672	80.005	19.993	103.954	19.853	4.196	1.050
182.500	234.195	80.006	19.994	103.955	19.850	4.444	1.015
183.000	234.719	80.005	19.993	103.956	19.853	4.159	1.024
183.500	235.175	80.006	19.994	103.954	19.851	4.308	1.013
184.000	235.712	80.007	19.993	103.951	19.850	4.402	0.987
184.500	236.238	80.006	19.995	103.948	19.850	4.409	1.028
185.000	236.751	80.005	19.994	103.947	19.852	4.295	1.051
185.500	237.243	80.006	19.994	103.947	19.850	4.387	1.022
186.000	237.755	80.006	19.994	103.947	19.849	4.513	1.004
186.500	238.260	80.008	19.994	103.948	19.850	4.390	1.011
187.000	238.765	80.006	19.994	103.948	19.850	4.381	1.014
187.500	239.282	80.006	19.994	103.948	19.850	4.457	1.016
188.000	239.775	80.006	19.993	103.948	19.849	4.472	1.016
188.500	240.270	80.006	19.994	103.946	19.851	4.344	0.999
189.000	240.795	80.006	19.994	103.946	19.851	4.357	1.004
189.500	241.274	80.005	19.992	103.946	19.852	4.226	1.012
190.000	241.796	80.013	19.995	103.946	19.852	4.243	1.003
190.500	242.325	80.020	19.997	103.947	19.852	4.252	1.027
191.000	242.817	80.014	19.996	103.949	19.852	4.223	1.036
191.500	243.371	80.010	19.993	103.951	19.848	4.540	1.033
192.000	243.860	80.005	19.996	103.952	19.846	4.711	1.045
192.500	244.365	80.006	19.994	103.952	19.849	4.491	1.018
193.000	244.859	80.006	19.994	103.951	19.849	4.490	0.996
193.500	245.364	80.006	19.995	103.947	19.847	4.669	0.999
194.000	245.851	80.005	19.994	103.945	19.847	4.685	0.996
194.500	246.373	80.006	19.994	103.940	19.850	4.456	1.000
195.000	246.879	80.006	19.995	103.939	19.849	4.488	1.018
195.500	247.420	80.005	19.996	103.937	19.847	4.636	1.038
196.000	247.889	80.006	19.993	103.940	19.847	4.623	1.029
196.500	248.378	80.006	19.994	103.940	19.845	4.839	0.984
197.000	248.920	80.006	19.993	103.944	19.846	4.732	0.994
197.500	249.450	80.006	19.995	103.945	19.848	4.610	1.051
198.000	249.946	80.005	19.995	103.946	19.847	4.674	1.049
198.500	250.475	80.006	19.993	103.946	19.846	4.717	1.025
199.000	250.975	80.005	19.996	103.946	19.846	4.704	1.027
199.500	251.495	80.006	19.995	103.943	19.846	4.763	1.024
200.000	251.981	80.006	19.995	103.942	19.846	4.760	1.013
200.500	252.450	80.006	19.993	103.943	19.845	4.823	0.981
201.000	252.980	80.005	19.995	103.943	19.843	4.931	0.977
201.500	253.444	80.006	19.994	103.945	19.841	5.088	0.997
202.000	253.968	80.004	19.995	103.942	19.840	5.186	0.991
202.500	254.441	80.006	19.995	103.923	19.839	5.300	0.993
203.000	254.965	80.006	19.994	103.901	19.842	5.080	0.997
203.500	255.494	80.006	19.995	103.886	19.842	5.080	1.025
204.000	256.009	80.004	19.994	103.871	19.842	5.039	1.048
204.500	256.465	80.007	19.995	103.869	19.845	4.795	1.007
205.000	256.963	80.005	19.994	103.894	19.842	5.048	0.962
205.500	257.476	80.009	19.995	103.943	19.842	5.078	0.982
206.000	257.972	80.007	19.993	103.974	19.838	5.336	1.010
206.500	258.448	80.007	19.993	103.994	19.841	5.099	0.991
207.000	259.004	80.007	19.994	104.004	19.835	5.593	1.002
207.500	259.468	80.007	19.994	104.000	19.838	5.347	1.026
208.000	259.962	80.007	19.993	103.971	19.840	5.174	0.989
208.500	260.463	80.008	19.993	103.955	19.839	5.248	0.977
209.000	260.959	80.008	19.993	103.946	19.836	5.518	0.997
209.500	261.454	80.008	19.993	103.943	19.835	5.572	0.994
210.000	261.948	80.008	19.994	103.941	19.837	5.423	0.990
210.500	262.449	80.007	19.995	103.940	19.837	5.468	0.992
211.000	262.930	80.006	19.994	103.940	19.835	5.600	0.989
211.500	263.411	80.008	19.993	103.941	19.835	5.598	0.971
212.000	263.930	80.007	19.993	103.941	19.835	5.613	0.980
212.500	264.423	80.007	19.994	103.942	19.835	5.604	1.006
213.000	264.923	80.008	19.994	103.944	19.837	5.460	1.003
213.500	265.396	80.007	19.993	103.946	19.838	5.376	0.983
214.000	265.913	80.007	19.995	103.947	19.834	5.652	0.982
214.500	266.414	80.007	19.994	103.947	19.832	5.865	1.004
215.000	266.902	80.009	19.993	103.946	19.835	5.602	1.003
215.500	267.408	80.007	19.995	103.946	19.832	5.835	0.991
216.000	267.907	80.007	19.993	103.946	19.832	5.859	0.999
216.500	268.364	80.008	19.994	103.942	19.830	6.027	0.981
217.000	268.867	80.007	19.994	103.936	19.831	5.900	0.958
217.500	269.342	80.007	19.994	103.931	19.829	6.051	0.969
218.000	269.858	80.009	19.993	103.931	19.829	6.042	0.984
218.500	270.370	80.008	19.993	103.931	19.829	6.094	1.010
219.000	270.868	80.007	19.994	103.934	19.826	6.286	1.019
219.500	271.376	80.007	19.994	103.938	19.827	6.262	1.008
220.000	271.862	80.007	19.994	103.945	19.824	6.478	1.000
220.500	272.351	80.008	19.994	103.946	19.823	6.543	0.984
221.000	272.845	80.006	19.995	103.946	19.823	6.579	0.979
221.500	273.322	80.007	19.993	103.947	19.822	6.644	0.977
222.000	273.797	80.006	19.994	103.946	19.820	6.761	0.961
222.500	274.312	80.007	19.995	103.946	19.820	6.748	0.971
223.000	274.815	80.006	19.994	103.946	19.817	7.045	1.004
223.500	275.288	80.006	19.995	103.945	19.822	6.661	0.997
224.000	275.777	80.007	19.994	103.946	19.818	6.948	0.969
224.500	276.289	80.007	19.993	103.947	19.816	7.104	0.982
225.000	276.812	80.006	19.994	103.946	19.819	6.830	1.018
225.500	277.262	80.007	19.994	103.946	19.818	6.899	1.004
226.000	277.754	80.006	19.994	103.947	19.818	6.944	0.958
226.500	278.268	80.006	19.994	103.946	19.813	7.334	0.974
227.000	278.762	80.007	19.995	103.947	19.812	7.412	1.007
227.500	279.282	80.006	19.993	103.949	19.812	7.423	1.011
228.000	279.749	80.005	19.994	103.947	19.811	7.466	1.001
228.500	280.235	80.005	19.994	103.947	19.811	7.466	0.971
229.000	280.704	80.005	19.994	103.947	19.812	7.427	0.954
229.500	281.210	80.007	19.994	103.948	19.807	7.796	0.965
230.000	281.705	80.006	19.994	103.948	19.808	7.702	0.988
230.500	282.180	80.006	19.993	103.949	19.805	7.957	0.986
231.000	282.676	80.007	19.994	103.949	19.804	8.061	0.970
231.500	283.160	80.005	19.996	103.949	19.803	8.096	0.975
232.000	283.687	80.008	19.993	103.950	19.801	8.267	0.995
232.500	284.140	80.008	19.994	103.950	19.800	8.372	0.996
233.000	284.630	80.007	19.993	103.951	19.797	8.564	0.962
233.500	285.128	80.007	19.993	103.950	19.796	8.676	0.965
234.000	285.642	80.009	19.994	103.950	19.794	8.824	1.000
234.500	286.114	80.008	19.993	103.951	19.792	8.962	0.998
235.000	286.615	80.009	19.993	103.951	19.792	9.016	0.980
235.500	287.136	80.009	19.993	103.951	19.790	9.165	0.998
236.000	287.638	80.009	19.994	103.952	19.788	9.286	1.023
236.500	288.079	80.008	19.994	103.952	19.786	9.459	0.983
237.000	288.554	80.008	19.994	103.950	19.784	9.600	0.929
237.500	289.101	80.008	19.994	103.949	19.782	9.758	0.968
238.000	289.581	80.007	19.993	103.948	19.785	9.542	1.024
238.500	290.077	80.008	19.994	103.948	19.780	9.894	1.002
239.000	290.581	80.009	19.994	103.947	19.777	10.157	0.988
239.500	291.110	80.008	19.994	103.947	19.778	10.123	1.017
240.000	291.609	80.008	19.994	103.948	19.774	10.369	1.031
240.500	292.086	80.008	19.995	103.954	19.771	10.613	1.002
241.000	292.570	80.007	19.993	103.960	19.768	10.841	0.968
241.500	293.064	80.007	19.993	103.968	19.765	11.085	0.970
242.000	293.572	80.009	19.993	103.974	19.765	11.105	0.990
242.500	294.051	80.006	19.995	103.980	19.762	11.377	0.995
243.000	294.546	80.006	19.993	103.981	19.762	11.336	0.981
243.500	295.044	80.007	19.995	103.981	19.758	11.678	0.983
244.000	295.558	80.006	19.994	103.977	19.755	11.926	1.002
244.500	296.052	80.006	19.993	103.973	19.754	11.946	1.010
245.000	296.575	80.006	19.996	103.966	19.754	12.002	1.012
245.500	297.025	80.006	19.994	103.960	19.749	12.410	0.995
246.000	297.530	80.005	19.996	103.957	19.748	12.417	0.964
246.500	298.011	80.006	19.995	103.961	19.743	12.815	0.971
247.000	298.530	80.005	19.995	103.966	19.743	12.878	0.993
247.500	298.996	80.005	19.995	103.973	19.743	12.829	0.993
248.000	299.501	80.005	19.995	103.977	19.736	13.429	0.978
248.500	299.982	80.005	19.994	103.979	19.733	13.649	0.979
249.000	300.507	80.004	19.996	103.979	19.729	13.954	0.996
249.500	300.982	80.004	19.995	103.979	19.727	14.098	1.003
250.000	301.479	80.006	19.996	103.979	19.724	14.386	0.986
250.500	301.984	80.006	19.996	103.982	19.719	14.707	0.987
251.000	302.452	80.004	19.995	103.984	19.718	14.816	0.987
251.500	302.954	80.004	19.996	103.984	19.713	15.186	0.972
252.000	303.423	80.005	19.996	103.984	19.711	15.400	0.971
252.500	303.955	80.005	19.995	103.984	19.708	15.621	0.986
253.000	304.434	80.004	19.996	103.984	19.701	16.180	1.005
253.500	304.923	80.006	19.996	103.986	19.701	16.195	0.990
254.000	305.435	80.005	19.995	103.990	19.698	16.396	0.985
254.500	305.888	80.006	19.996	103.995	19.694	16.712	0.983
255.000	306.390	80.005	19.995	103.997	19.688	17.215	0.960
255.500	306.915	80.004	19.996	103.998	19.688	17.153	0.991
256.000	307.416	80.004	19.995	104.001	19.683	17.603	1.026
256.500	307.877	80.005	19.995	104.003	19.678	17.996	0.994
257.000	308.405	80.005	19.995	104.003	19.674	18.263	0.975
257.500	308.851	80.006	19.996	104.009	19.670	18.633	0.981
258.000	309.362	80.006	19.994	104.015	19.665	19.035	0.965
258.500	309.877	80.006	19.995	104.018	19.662	19.257	0.992
259.000	310.391	80.006	19.994	104.020	19.658	19.543	1.028
259.500	310.899	80.007	19.996	104.022	19.652	20.032	1.025
260.000	311.385	80.005	19.995	104.022	19.644	20.653	1.008
260.500	311.919	80.006	19.995	104.022	19.638	21.133	1.007
261.000	312.422	80.006	19.994	104.023	19.636	21.326	1.028
261.500	312.900	80.004	19.995	104.023	19.627	21.973	1.009
262.000	313.397	80.006	19.994	104.028	19.621	22.495	0.978
262.500	313.931	80.007	19.994	104.034	19.619	22.659	1.003
263.000	314.438	80.004	19.996	104.039	19.609	23.420	1.035
263.500	314.909	80.005	19.994	104.044	19.606	23.665	1.009
264.000	315.412	80.005	19.994	104.050	19.597	24.384	0.976
264.500	315.898	80.005	19.995	104.052	19.594	24.651	0.981
265.000	316.376	80.006	19.994	104.054	19.584	25.390	0.977
265.500	316.883	80.006	19.995	104.057	19.579	25.785	0.975
266.000	317.394	80.006	19.995	104.060	19.573	26.267	1.002
266.500	317.866	80.006	19.993	104.064	19.567	26.781	1.001
267.000	318.421	80.005	19.994	104.066	19.560	27.314	1.005
267.500	318.899	80.007	19.994	104.068	19.553	27.893	1.030
268.000	319.423	80.007	19.994	104.071	19.547	28.329	1.017
268.500	319.904	80.007	19.994	104.075	19.537	29.087	1.003
269.000	320.398	80.007	19.993	104.080	19.533	29.479	0.990
269.500	320.903	80.005	19.994	104.086	19.525	30.053	0.987
270.000	321.477	80.006	19.994	104.093	19.516	30.759	1.039
270.500	321.922	80.006	19.994	104.098	19.506	31.600	1.049
271.000	322.430	80.006	19.995	104.102	19.498	32.202	0.986
271.500	322.940	80.005	19.994	104.103	19.493	32.647	0.986
272.000	323.402	80.005	19.993	104.109	19.482	33.514	0.995
272.500	323.927	80.007	19.993	104.113	19.469	34.482	0.980
273.000	324.439	80.006	19.994	104.120	19.461	35.140	1.012
273.500	324.950	80.006	19.994	104.129	19.451	35.938	1.030
274.000	325.402	80.005	19.994	104.137	19.443	36.566	0.993
274.500	325.944	80.006	19.995	104.141	19.430	37.587	0.979
275.000	326.417	80.005	19.993	104.150	19.418	38.568	1.005
275.500	326.960	80.004	19.994	104.152	19.409	39.266	1.015
276.000	327.446	80.006	19.994	104.153	19.398	40.128	1.023
276.500	327.954	80.007	19.993	104.159	19.385	41.138	1.012
277.000	328.453	80.004	19.995	104.160	19.373	42.088	1.001
277.500	328.965	80.004	19.994	104.164	19.364	42.869	1.009
278.000	329.464	80.005	19.994	104.171	19.351	43.883	1.011
278.500	330.007	80.005	19.994	104.178	19.339	44.789	1.027
279.000	330.460	80.006	19.994	104.184	19.325	45.898	1.019
279.500	330.980	80.003	19.996	104.195	19.309	47.175	0.984
280.000	331.459	80.006	19.994	104.205	19.296	48.209	0.986
280.500	331.982	80.004	19.993	104.214	19.281	49.405	1.000
281.000	332.482	80.006	19.994	104.225	19.271	50.174	1.012
281.500	333.002	80.006	19.993	104.232	19.252	51.730	1.022
282.000	333.505	80.005	19.993	104.235	19.241	52.566	1.022
282.500	334.044	80.005	19.993	104.239	19.226	53.771	1.033
283.000	334.584	80.004	19.994	104.245	19.208	55.236	1.060
283.500	335.085	80.005	19.994	104.249	19.198	55.977	1.060
284.000	335.573	80.006	19.994	104.253	19.178	57.607	1.015
284.500	336.065	80.007	19.995	104.259	19.165	58.615	0.985
285.000	336.577	80.006	19.994	104.262	19.149	59.931	0.992
285.500	337.077	80.008	19.993	104.268	19.130	61.373	1.008
286.000	337.586	80.007	19.993	104.275	19.114	62.685	1.010
286.500	338.117	80.006	19.993	104.284	19.097	64.060	1.024
287.000	338.616	80.007	19.994	104.296	19.078	65.533	1.035
287.500	339.151	80.008	19.993	104.307	19.061	66.914	1.032
288.000	339.666	80.007	19.993	104.317	19.037	68.788	1.043
288.500	340.133	80.007	19.995	104.325	19.018	70.270	1.016
289.000	340.649	80.007	19.994	104.331	19.002	71.567	0.982
289.500	341.150	80.007	19.994	104.335	18.981	73.221	0.999
290.000	341.649	80.006	19.993	104.340	18.961	74.849	1.008
290.500	342.185	80.007	19.994	104.348	18.942	76.308	1.018
291.000	342.683	80.008	19.993	104.356	18.919	78.154	1.035
291.500	343.191	80.007	19.993	104.370	18.901	79.641	1.020
292.000	343.711	80.006	19.993	104.385	18.881	81.210	1.016
292.500	344.173	80.007	19.993	104.399	18.857	83.074	1.005
293.000	344.671	80.008	19.993	104.407	18.834	84.912	0.971
293.500	345.172	80.006	19.993	104.417	18.812	86.722	0.980
294.000	345.705	80.007	19.993	104.425	18.793	88.167	1.016
294.500	346.194	80.006	19.992	104.433	18.766	90.340	1.028
295.000	346.701	80.007	19.993	104.441	18.742	92.231	1.009
295.500	347.201	80.007	19.993	104.450	18.719	94.092	1.002
296.000	347.726	80.007	19.994	104.461	18.696	95.920	1.016
296.500	348.228	80.008	19.993	104.472	18.671	97.944	1.026
297.000	348.753	80.006	19.994	104.480	18.645	99.966	1.027
297.500	349.270	80.006	19.993	104.491	18.617	102.181	1.034
298.000	349.758	80.006	19.992	104.507	18.592	104.243	1.023
298.500	350.277	80.007	19.994	104.515	18.566	106.300	1.007
299.000	350.799	80.007	19.994	104.523	18.538	108.494	1.025
299.500	351.303	80.007	19.993	104.532	18.515	110.378	1.033
300.000	351.791	80.007	19.993	104.539	18.487	112.551	1.008
300.500	352.311	80.007	19.994	104.546	18.462	114.531	1.000
301.000	352.824	80.007	19.993	104.553	18.433	116.835	1.020
301.500	353.353	80.007	19.994	104.564	18.409	118.771	1.038
302.000	353.856	80.005	19.993	104.574	18.379	121.153	1.037
302.500	354.334	80.005	19.994	104.587	18.355	123.071	1.006
303.000	354.844	80.007	19.993	104.595	18.326	125.433	0.985
303.500	355.365	80.006	19.993	104.602	18.296	127.784	1.010
304.000	355.839	80.006	19.994	104.612	18.267	130.121	1.013
304.500	356.335	80.006	19.994	104.622	18.241	132.144	0.982
305.000	356.835	80.008	19.994	104.631	18.211	134.552	0.983
305.500	357.362	80.006	19.994	104.638	18.183	136.804	1.012
306.000	357.842	80.006	19.994	104.649	18.152	139.267	1.017
306.500	358.396	80.007	19.994	104.657	18.122	141.623	1.021
307.000	358.860	80.007	19.995	104.666	18.093	143.917	1.026
307.500	359.361	80.006	19.994	104.679	18.061	146.453	0.991
308.000	359.862	80.008	19.994	104.695	18.036	148.490	0.983
308.500	360.370	80.007	19.993	104.707	18.006	150.862	1.005
309.000	360.814	80.007	19.996	104.717	17.975	153.299	0.981
309.500	361.365	80.006	19.993	104.727	17.946	155.613	0.974
310.000	361.877	80.007	19.995	104.731	17.914	158.176	1.029
310.500	362.377	80.007	19.996	104.739	17.885	160.480	1.037
311.000	362.845	80.007	19.995	104.746	17.853	162.987	0.990
311.500	363.385	80.007	19.994	104.754	17.826	165.083	0.988
312.000	363.856	80.008	19.996	104.761	17.796	167.494	1.009
312.500	364.369	80.008	19.995	104.772	17.766	169.858	0.997
313.000	364.872	80.008	19.995	104.778	17.740	171.939	1.000
313.500	365.360	80.008	19.993	104.786	17.707	174.516	1.004
314.000	365.909	80.008	19.994	104.794	17.679	176.764	1.014
314.500	366.380	80.008	19.995	104.801	17.650	178.995	1.029
315.000	366.877	80.007	19.995	104.811	17.623	181.137	0.994
315.500	367.385	80.009	19.994	104.816	17.591	183.709	0.986
316.000	367.872	80.009	19.994	104.823	17.566	185.667	1.000
316.500	368.435	80.009	19.994	104.827	17.538	187.868	1.022
317.000	368.917	80.007	19.994	104.830	17.509	190.137	1.047
317.500	369.415	80.008	19.993	104.830	17.483	192.184	1.013
318.000	369.915	80.008	19.994	104.832	17.455	194.398	0.989
318.500	370.398	80.008	19.995	104.832	17.433	196.140	0.991
319.000	370.926	80.007	19.994	104.836	17.404	198.382	0.997
319.500	371.422	80.007	19.994	104.839	17.382	200.169	1.017
320.000	371.910	80.006	19.995	104.840	17.353	202.421	1.004
320.500	372.399	80.007	19.995	104.840	17.332	204.098	0.980
321.000	372.924	80.007	19.995	104.840	17.311	205.682	0.995
321.500	373.406	80.006	19.993	104.835	17.289	207.416	1.010
322.000	373.954	80.007	19.994	104.828	17.265	209.256	1.019
322.500	374.417	80.006	19.993	104.820	17.245	210.819	1.021
323.000	374.949	80.004	19.995	104.813	17.227	212.274	1.003
323.500	375.460	80.006	19.995	104.806	17.211	213.501	1.019
324.000	375.966	80.006	19.994	104.799	17.193	214.863	1.030
324.500	376.421	80.007	19.994	104.793	17.178	216.024	0.989
325.000	376.958	80.005	19.994	104.786	17.163	217.140	0.977
325.500	377.477	80.006	19.994	104.778	17.152	218.053	1.024
326.000	377.963	80.006	19.994	104.770	17.139	219.050	1.030
326.500	378.448	80.005	19.995	104.765	17.130	219.700	0.988
327.000	378.941	80.006	19.994	104.757	17.122	220.309	0.974
327.500	379.436	80.006	19.994	104.749	17.113	221.027	0.983
328.000	379.977	80.005	19.994	104.741	17.108	221.397	1.012
328.500	380.471	80.006	19.994	104.734	17.103	221.760	1.036
329.000	380.974	80.006	19.994	104.726	17.105	221.522	1.016
329.500	381.459	80.005	19.995	104.719	17.103	221.649	0.992
330.000	381.944	80.006	19.994	104.711	17.101	221.765	0.979
330.500	382.461	80.006	19.995	104.704	17.108	221.155	0.986
331.000	382.921	80.005	19.994	104.695	17.113	220.738	0.989
331.500	383.485	80.006	19.995	104.682	17.120	220.146	1.000
332.000	383.941	80.006	19.995	104.672	17.125	219.721	1.022
332.500	384.458	80.005	19.995	104.661	17.139	218.610	0.997
333.000	384.979	80.005	19.994	104.644	17.150	217.689	1.005
333.500	385.421	80.006	19.995	104.629	17.162	216.720	1.000
334.000	385.959	80.005	19.995	104.614	17.179	215.339	0.972
334.500	386.443	80.006	19.995	104.597	17.196	213.988	1.001
335.000	386.942	80.006	19.994	104.578	17.217	212.312	1.003
335.500	387.452	80.005	19.995	104.563	17.239	210.493	0.996
336.000	387.945	80.005	19.996	104.547	17.259	208.898	1.006
336.500	388.433	80.004	19.994	104.532	17.286	206.737	0.992
337.000	388.939	80.005	19.993	104.519	17.315	204.445	0.987
337.500	389.456	80.005	19.995	104.508	17.343	202.153	1.008
338.000	389.950	80.004	19.996	104.496	17.373	199.772	1.017
338.500	390.442	80.006	19.994	104.481	17.405	197.246	0.999
339.000	390.955	80.004	19.995	104.468	17.439	194.486	0.996
339.500	391.446	80.005	19.996	104.452	17.475	191.599	1.004
340.000	391.989	80.006	19.995	104.436	17.510	188.859	1.019
340.500	392.488	80.006	19.995	104.418	17.546	185.975	1.038
341.000	392.952	80.005	19.995	104.399	17.587	182.691	1.002
341.500	393.484	80.005	19.995	104.380	17.627	179.532	0.980
342.000	393.995	80.005	19.995	104.365	17.671	176.055	1.020
342.500	394.537	80.005	19.995	104.348	17.713	172.650	1.048
343.000	395.036	80.006	19.994	104.334	17.756	169.250	1.047
343.500	395.533	80.006	19.996	104.321	17.799	165.837	1.019
344.000	396.036	80.007	19.994	104.310	17.843	162.360	0.998
344.500	396.549	80.004	19.994	104.295	17.893	158.455	1.008
345.000	397.059	80.005	19.994	104.280	17.939	154.813	1.020
345.500	397.578	80.005	19.994	104.265	17.986	151.032	1.026
346.000	398.045	80.005	19.995	104.248	18.034	147.265	1.007
346.500	398.567	80.006	19.994	104.226	18.087	143.122	0.987
347.000	399.105	80.006	19.995	104.210	18.134	139.357	1.025
347.500	399.633	80.005	19.995	104.190	18.189	135.082	1.063
348.000	400.101	80.005	19.995	104.174	18.237	131.240	1.030
348.500	400.608	80.005	19.995	104.153	18.293	126.896	0.986
349.000	401.131	80.006	19.994	104.137	18.344	122.882	1.003
349.500	401.616	80.005	19.994	104.120	18.394	118.933	1.019
350.000	402.175	80.006	19.995	104.103	18.446	114.816	1.026
350.500	402.657	80.005	19.995	104.084	18.502	110.455	1.043
351.000	403.175	80.005	19.994	104.067	18.555	106.257	1.020
351.500	403.706	80.005	19.994	104.046	18.607	102.164	1.024
352.000	404.187	80.007	19.994	104.025	18.664	97.721	1.031
352.500	404.690	80.005	19.995	104.008	18.716	93.583	0.998
353.000	405.211	80.005	19.994	103.991	18.768	89.516	1.004
353.500	405.697	80.005	19.994	103.976	18.821	85.356	1.015
354.000	406.218	80.005	19.993	103.962	18.874	81.191	1.006
354.500	406.710	80.005	19.994	103.946	18.925	77.192	1.010
355.000	407.236	80.005	19.993	103.930	18.972	73.516	1.016
355.500	407.759	80.005	19.994	103.917	19.023	69.461	1.033
356.000	408.283	80.006	19.994	103.903	19.070	65.750	1.048
356.500	408.808	80.003	19.993	103.892	19.115	62.235	1.048
357.000	409.306	80.004	19.993	103.884	19.158	58.819	1.036
357.500	409.817	80.004	19.993	103.877	19.203	55.305	1.016
358.000	410.313	80.004	19.992	103.866	19.246	51.909	1.008
358.500	410.852	80.005	19.995	103.857	19.286	48.799	1.021
359.000	411.345	80.005	19.995	103.853	19.322	45.955	1.033
359.500	411.857	80.005	19.994	103.848	19.363	42.732	1.019
360.000	412.386	80.004	19.995	103.849	19.398	39.992	1.023
360.500	412.898	80.005	19.994	103.854	19.428	37.570	1.041
361.000	413.385	80.005	19.994	103.861	19.459	35.159	1.020
361.500	413.877	80.005	19.993	103.864	19.489	32.836	0.989
362.000	414.334	80.006	19.993	103.869	19.518	30.533	0.964
362.500	414.859	80.006	19.994	103.870	19.545	28.378	0.965
363.000	415.396	80.005	19.994	103.870	19.567	26.660	1.022
363.500	415.842	80.006	19.994	103.870	19.587	25.091	1.023
364.000	416.343	80.006	19.994	103.871	19.614	23.003	0.965
364.500	416.861	80.006	19.994	103.872	19.635	21.290	0.983
365.000	417.360	80.006	19.994	103.874	19.651	20.043	1.018
365.500	417.905	80.006	19.994	103.879	19.669	18.666	1.031
366.000	418.396	80.007	19.994	103.879	19.689	17.074	1.040
366.500	418.880	80.007	19.995	103.880	19.704	15.897	1.005
367.000	419.375	80.009	19.994	103.880	19.716	14.932	0.977
367.500	419.911	80.007	19.994	103.877	19.731	13.781	1.005
368.000	420.410	80.007	19.993	103.871	19.740	13.077	1.033
368.500	420.894	80.007	19.993	103.870	19.752	12.092	1.009
369.000	421.414	80.007	19.993	103.868	19.762	11.321	0.994
369.500	421.932	80.008	19.993	103.865	19.774	10.403	1.021
370.000	422.443	80.007	19.995	103.863	19.783	9.687	1.033
370.500	422.929	80.007	19.995	103.861	19.785	9.547	1.013
371.000	423.409	80.008	19.995	103.859	19.794	8.834	0.981
371.500	423.899	80.007	19.994	103.855	19.801	8.267	0.968
372.000	424.397	80.006	19.994	103.851	19.811	7.517	0.978
372.500	424.961	80.008	19.995	103.845	19.813	7.290	1.025
373.000	425.447	80.007	19.994	103.839	19.820	6.784	1.056
373.500	425.945	80.005	19.995	103.833	19.821	6.702	1.017
374.000	426.458	80.008	19.995	103.830	19.825	6.412	0.998
374.500	426.917	80.006	19.996	103.828	19.831	5.880	0.992
375.000	427.431	80.006	19.994	103.828	19.834	5.660	0.973
375.500	427.898	80.005	19.994	103.828	19.837	5.399	0.977
376.000	428.450	80.007	19.994	103.828	19.839	5.261	1.000
376.500	428.920	80.006	19.994	103.829	19.845	4.776	1.020
377.000	429.493	80.006	19.993	103.829	19.847	4.634	1.032
377.500	429.951	80.005	19.995	103.829	19.849	4.511	1.037
378.000	430.477	80.007	19.994	103.828	19.850	4.424	1.008
378.500	430.984	80.006	19.995	103.828	19.852	4.216	1.008
379.000	431.440	80.007	19.995	103.828	19.853	4.211	0.998
379.500	431.981	80.005	19.994	103.828	19.854	4.127	0.980
380.000	432.515	80.007	19.994	103.828	19.855	3.996	1.036
380.500	433.004	80.006	19.995	103.829	19.859	3.740	1.049
381.000	433.522	80.005	19.994	103.828	19.857	3.858	1.015
381.500	434.035	80.006	19.995	103.827	19.858	3.747	1.019
382.000	434.563	80.007	19.994	103.824	19.857	3.828	1.036
382.500	435.063	80.007	19.993	103.820	19.862	3.464	1.034
383.000	435.541	80.006	19.994	103.815	19.865	3.268	1.003
383.500	436.092	80.006	19.995	103.813	19.863	3.353	1.004
384.000	436.597	80.006	19.994	103.815	19.865	3.221	1.043
384.500	437.075	80.006	19.994	103.817	19.868	3.031	1.019
385.000	437.580	80.007	19.994	103.821	19.868	3.018	0.983
385.500	438.102	80.005	19.994	103.826	19.869	2.934	1.005
386.000	438.590	80.007	19.994	103.828	19.868	3.035	1.018
386.500	439.119	80.007	19.995	103.824	19.869	2.891	1.014
387.000	439.608	80.007	19.994	103.822	19.867	3.096	1.018
387.500	440.123	80.007	19.994	103.814	19.867	3.080	1.011
388.000	440.641	80.008	19.993	103.809	19.870	2.863	1.018
388.500	441.113	80.007	19.994	103.798	19.871	2.792	1.011
389.000	441.606	80.007	19.994	103.780	19.869	2.945	0.978
389.500	442.105	80.008	19.993	103.759	19.868	3.018	0.978
390.000	442.638	80.008	19.995	103.749	19.871	2.745	1.012
390.500	443.151	80.008	19.994	103.744	19.871	2.772	1.039
391.000	443.642	80.007	19.995	103.746	19.872	2.678	1.025
391.500	444.138	80.008	19.993	103.761	19.873	2.641	0.996
392.000	444.633	80.008	19.994	103.798	19.876	2.348	0.989
392.500	445.140	80.007	19.993	103.842	19.874	2.531	0.997
393.000	445.642	80.008	19.994	103.862	19.872	2.667	1.006
393.500	446.115	80.007	19.994	103.870	19.875	2.421	0.992
394.000	446.675	80.008	19.993	103.871	19.876	2.359	1.004
394.500	447.140	80.009	19.993	103.853	19.877	2.311	1.029
395.000	447.651	80.007	19.994	103.823	19.873	2.595	1.000
395.500	448.156	80.008	19.994	103.807	19.876	2.341	0.996
396.000	448.655	80.007	19.994	103.801	19.876	2.378	1.010
396.500	449.183	80.007	19.995	103.804	19.876	2.397	1.016
397.000	449.691	80.007	19.994	103.804	19.873	2.641	1.032
397.500	450.169	80.007	19.993	103.802	19.879	2.169	1.011
398.000	450.690	80.006	19.994	103.803	19.877	2.290	0.993
398.500	451.232	80.007	19.994	103.805	19.876	2.374	1.031
399.000	451.721	80.007	19.994	103.804	19.877	2.318	1.047
399.500	452.227	80.006	19.994	103.805	19.876	2.369	1.013
400.000	452.750	80.004	19.994	103.810	19.877	2.281	1.012
400.500	453.242	80.006	19.995	103.814	19.878	2.247	1.022
401.000	453.719	80.005	19.993	103.811	19.877	2.281	0.993
401.500	454.258	80.005	19.994	103.806	19.875	2.449	0.993
402.000	454.732	80.004	19.995	103.804	19.875	2.423	1.014
402.500	455.227	80.004	19.995	103.799	19.878	2.247	0.991
403.000	455.745	80.004	19.994	103.795	19.878	2.229	0.991
403.500	456.253	80.005	19.995	103.795	19.876	2.333	1.019
404.000	456.768	80.006	19.994	103.796	19.877	2.303	1.025
404.500	457.242	80.004	19.994	103.795	19.880	2.027	1.006
405.000	457.744	80.005	19.995	103.793	19.877	2.296	0.983
405.500	458.289	80.005	19.994	103.793	19.879	2.171	1.011
406.000	458.794	80.004	19.994	103.793	19.876	2.339	1.048
406.500	459.330	80.006	19.995	103.793	19.876	2.378	1.046
407.000	459.828	80.004	19.996	103.793	19.877	2.287	1.038
407.500	460.369	80.004	19.994	103.794	19.879	2.109	1.037
408.000	460.799	80.005	19.993	103.794	19.878	2.219	1.005
408.500	461.305	80.005	19.994	103.794	19.878	2.180	0.953
409.000	461.839	80.004	19.994	103.795	19.877	2.292	0.988
409.500	462.348	80.007	19.993	103.794	19.879	2.094	1.042
410.000	462.849	80.005	19.994	103.794	19.879	2.122	1.027
410.500	463.354	80.006	19.993	103.794	19.881	1.975	1.008
411.000	463.864	80.006	19.993	103.793	19.879	2.124	1.010
411.500	464.326	80.005	19.995	103.793	19.880	2.068	0.993
412.000	464.838	80.004	19.994	103.793	19.882	1.902	0.973
412.500	465.348	80.005	19.994	103.793	19.884	1.751	0.998
413.000	465.856	80.005	19.993	103.793	19.883	1.796	1.020
413.500	466.374	80.004	19.994	103.793	19.885	1.650	1.022
414.000	466.858	80.005	19.994	103.793	19.881	1.997	1.014
414.500	467.360	80.005	19.993	103.796	19.882	1.917	0.994
415.000	467.858	80.005	19.995	103.801	19.884	1.719	0.993
415.500	468.401	80.004	19.994	103.800	19.883	1.805	1.020
416.000	468.860	80.005	19.994	103.800	19.882	1.913	1.021
416.500	469.383	80.004	19.994	103.800	19.882	1.915	0.992
417.000	469.859	80.006	19.993	103.797	19.883	1.805	0.991
417.500	470.405	80.004	19.993	103.793	19.886	1.562	1.010
418.000	470.911	80.004	19.994	103.793	19.885	1.650	1.037
418.500	471.405	80.004	19.994	103.794	19.884	1.715	1.026
419.000	471.917	80.004	19.994	103.795	19.884	1.775	1.003
419.500	472.392	80.004	19.993	103.795	19.887	1.525	0.997
420.000	472.933	80.003	19.994	103.795	19.888	1.389	1.002
420.500	473.434	80.004	19.994	103.794	19.889	1.374	1.029
421.000	473.956	80.005	19.994	103.790	19.886	1.579	1.032
421.500	474.491	80.004	19.994	103.787	19.887	1.474	1.040
422.000	474.980	80.004	19.993	103.787	19.887	1.478	1.040
422.500	475.491	80.004	19.994	103.787	19.887	1.516	1.012
423.000	476.001	80.005	19.993	103.787	19.892	1.135	1.011
423.500	476.516	80.005	19.994	103.791	19.889	1.379	1.023
424.000	477.032	80.004	19.994	103.793	19.889	1.331	1.028
424.500	477.547	80.005	19.994	103.793	19.889	1.344	1.031
425.000	478.048	80.004	19.994	103.793	19.889	1.348	1.023
425.500	478.535	80.005	19.994	103.792	19.891	1.226	1.002
426.000	479.066	80.005	19.994	103.792	19.890	1.303	1.003
426.500	479.577	80.005	19.994	103.792	19.890	1.267	1.030
427.000	480.093	80.005	19.995	103.791	19.889	1.342	1.035
427.500	480.625	80.004	19.995	103.791	19.888	1.396	1.038
428.000	481.130	80.006	19.995	103.792	19.892	1.107	1.042
428.500	481.606	80.004	19.995	103.794	19.891	1.155	1.009
429.000	482.114	80.004	19.995	103.793	19.891	1.189	0.983
429.500	482.637	80.004	19.993	103.794	19.892	1.109	1.007
430.000	483.135	80.003	19.996	103.793	19.890	1.258	1.025
430.500	483.639	80.005	19.996	103.798	19.892	1.090	1.011
431.000	484.140	80.003	19.996	103.803	19.890	1.288	1.004
431.500	484.671	80.004	19.996	103.806	19.891	1.198	1.019
432.000	485.155	80.005	19.996	103.813	19.892	1.075	1.024
432.500	485.670	80.004	19.994	103.813	19.890	1.299	1.007
433.000	486.185	80.004	19.994	103.807	19.893	1.004	1.014
433.500	486.696	80.005	19.995	103.800	19.889	1.316	1.028
434.000	487.209	80.005	19.995	103.798	19.889	1.335	1.025
434.500	487.732	80.004	19.995	103.794	19.889	1.361	1.030
435.000	488.236	80.005	19.995	103.794	19.891	1.157	1.031
435.500	488.739	80.004	19.995	103.795	19.894	0.944	1.017
436.000	489.238	80.005	19.995	103.795	19.893	1.038	1.005
436.500	489.750	80.004	19.995	103.795	19.893	1.032	1.006
437.000	490.262	80.004	19.994	103.796	19.889	1.321	1.018
437.500	490.757	80.004	19.996	103.796	19.890	1.290	1.016
438.000	491.250	80.005	19.995	103.797	19.892	1.079	0.998
438.500	491.759	80.004	19.994	103.797	19.891	1.176	0.995
439.000	492.277	80.006	19.994	103.796	19.893	1.066	1.014
439.500	492.820	80.007	19.996	103.797	19.894	0.950	1.044
440.000	493.303	80.006	19.995	103.797	19.890	1.295	1.044
440.500	493.821	80.006	19.994	103.801	19.892	1.086	1.014
441.000	494.339	80.007	19.993	103.806	19.894	0.974	1.018
441.500	494.866	80.006	19.993	103.812	19.894	0.991	1.040
442.000	495.374	80.007	19.995	103.814	19.892	1.114	1.040
442.500	495.886	80.007	19.993	103.820	19.896	0.797	1.028
443.000	496.415	80.006	19.994	103.817	19.896	0.788	1.031
443.500	496.888	80.006	19.993	103.813	19.893	1.049	1.021
444.000	497.407	80.007	19.994	103.807	19.895	0.864	0.997
444.500	497.915	80.007	19.994	103.803	19.897	0.748	1.009
445.000	498.488	80.007	19.993	103.797	19.896	0.812	1.054
445.500	498.914	80.007	19.993	103.795	19.895	0.879	1.040
446.000	499.428	80.008	19.993	103.798	19.896	0.758	0.970
446.500	499.946	80.008	19.993	103.803	19.896	0.799	0.986
447.000	500.494	80.007	19.995	103.804	19.897	0.700	1.049
447.500	500.960	80.006	19.994	103.804	19.898	0.653	1.040
448.000	501.454	80.007	19.995	103.806	19.897	0.726	0.987
448.500	501.982	80.007	19.994	103.800	19.899	0.521	0.991
449.000	502.497	80.005	19.993	103.796	19.897	0.719	1.032
449.500	502.996	80.008	19.993	103.794	19.899	0.545	1.028
450.000	503.483	80.006	19.993	103.793	19.899	0.599	1.001
450.500	504.003	80.006	19.994	103.793	19.898	0.601	0.997
451.000	504.486	80.006	19.994	103.793	19.897	0.683	1.004
451.500	505.013	80.006	19.993	103.792	19.900	0.515	1.006
452.000	505.538	80.007	19.993	103.791	19.900	0.489	1.031
452.500	506.022	80.006	19.993	103.791	19.902	0.286	1.031
453.000	506.515	80.007	19.993	103.790	19.900	0.470	0.993
453.500	507.011	80.006	19.994	103.797	19.900	0.510	0.983
454.000	507.538	80.006	19.994	103.803	19.902	0.299	1.006
454.500	508.076	80.006	19.994	103.807	19.901	0.442	1.044
455.000	508.562	80.005	19.994	103.810	19.899	0.534	1.044
455.500	509.080	80.006	19.996	103.810	19.902	0.327	1.014
456.000	509.562	80.006	19.995	103.809	19.900	0.455	1.003
456.500	510.071	80.005	19.995	103.803	19.902	0.310	0.996
457.000	510.536	80.007	19.994	103.800	19.903	0.280	0.982
457.500	511.096	80.007	19.995	103.797	19.904	0.159	1.000
458.000	511.568	80.006	19.994	103.796	19.902	0.319	1.029
458.500	512.126	80.006	19.996	103.791	19.905	0.056	1.031
459.000	512.608	80.005	19.994	103.792	19.906	0.028	1.035
459.500	513.074	80.006	19.994	103.793	19.907	-0.075	0.994
460.000	513.658	80.006	19.996	103.793	19.904	0.153	0.999
460.500	514.149	80.006	19.994	103.794	19.905	0.112	1.062
461.000	514.666	80.007	19.995	103.799	19.907	-0.088	1.041
461.500	515.197	80.005	19.994	103.801	19.907	-0.069	1.028
462.000	515.702	80.007	19.995	103.802	19.908	-0.164	1.042
462.500	516.196	80.006	19.994	103.805	19.907	-0.043	1.018
463.000	516.721	80.006	19.995	103.805	19.910	-0.310	1.009
463.500	517.235	80.008	19.994	103.801	19.911	-0.345	1.029
464.000	517.778	80.007	19.994	103.798	19.908	-0.151	1.048
464.500	518.243	80.007	19.994	103.796	19.908	-0.181	1.033
465.000	518.788	80.007	19.993	103.792	19.910	-0.314	1.009
465.500	519.281	80.006	19.994	103.792	19.911	-0.358	1.024
466.000	519.772	80.008	19.994	103.797	19.911	-0.362	1.010
466.500	520.300	80.007	19.994	103.799	19.909	-0.209	1.001
467.000	520.822	80.007	19.993	103.801	19.912	-0.485	1.035
467.500	521.328	80.008	19.993	103.802	19.911	-0.364	1.039
468.000	521.853	80.008	19.993	103.802	19.908	-0.181	1.030
468.500	522.325	80.008	19.992	103.798	19.907	-0.090	1.014
469.000	522.812	80.009	19.992	103.795	19.909	-0.248	0.978
469.500	523.376	80.008	19.993	103.794	19.910	-0.327	1.005
470.000	523.907	80.008	19.994	103.793	19.910	-0.306	1.073
470.500	524.397	80.008	19.993	103.793	19.908	-0.140	1.058
471.000	524.948	80.007	19.994	103.793	19.907	-0.080	1.031
471.500	525.433	80.008	19.992	103.794	19.909	-0.202	1.038
472.000	525.938	80.008	19.995	103.794	19.908	-0.185	1.013
472.500	526.480	80.007	19.994	103.795	19.910	-0.286	1.019
473.000	526.978	80.008	19.994	103.795	19.909	-0.228	1.043
473.500	527.498	80.008	19.994	103.797	19.909	-0.258	1.029
474.000	528.021	80.007	19.992	103.799	19.910	-0.278	1.030
474.500	528.510	80.007	19.993	103.799	19.910	-0.342	1.028
475.000	529.075	80.006	19.993	103.798	19.909	-0.241	1.034
475.500	529.572	80.007	19.994	103.797	19.909	-0.218	1.058
476.000	530.076	80.005	19.994	103.796	19.907	-0.095	1.031
476.500	530.611	80.007	19.994	103.793	19.910	-0.323	1.020
477.000	531.105	80.006	19.993	103.792	19.912	-0.433	1.034
477.500	531.629	80.005	19.993	103.793	19.910	-0.314	1.023
478.000	532.173	80.006	19.994	103.794	19.912	-0.457	1.043
478.500	532.682	80.005	19.994	103.795	19.910	-0.291	1.060
479.000	533.179	80.005	19.994	103.795	19.912	-0.463	1.029
479.500	533.680	80.007	19.993	103.795	19.913	-0.536	1.002
480.000	534.207	80.006	19.993	103.795	19.911	-0.396	1.014
480.500	534.749	80.006	19.994	103.794	19.912	-0.424	1.049
481.000	535.263	80.006	19.994	103.794	19.911	-0.373	1.062
481.500	535.777	80.005	19.994	103.794	19.913	-0.558	1.042
482.000	536.272	80.005	19.995	103.794	19.913	-0.556	1.019
482.500	536.779	80.005	19.994	103.794	19.914	-0.610	1.006
483.000	537.291	80.005	19.994	103.794	19.915	-0.715	1.011
483.500	537.813	80.005	19.993	103.794	19.915	-0.683	1.027
484.000	538.375	80.006	19.993	103.794	19.914	-0.579	1.058
484.500	538.867	80.005	19.994	103.794	19.911	-0.373	1.069
485.000	539.415	80.004	19.993	103.796	19.914	-0.590	1.047
485.500	539.888	80.004	19.993	103.797	19.913	-0.575	1.031
486.000	540.389	80.004	19.993	103.798	19.912	-0.480	0.998
486.500	540.937	80.005	19.994	103.797	19.913	-0.536	1.011
487.000	541.416	80.006	19.994	103.797	19.913	-0.508	1.037
487.500	541.961	80.005	19.994	103.795	19.916	-0.771	1.026
488.000	542.444	80.006	19.994	103.793	19.915	-0.691	1.027
488.500	542.971	80.006	19.994	103.793	19.914	-0.635	1.019
489.000	543.510	80.004	19.994	103.795	19.914	-0.595	1.038
489.500	543.982	80.005	19.992	103.796	19.914	-0.646	1.038
490.000	544.529	80.006	19.995	103.795	19.913	-0.560	1.014
490.500	545.017	80.007	19.996	103.795	19.913	-0.506	1.027
491.000	545.518	80.006	19.995	103.795	19.914	-0.584	1.012
491.500	546.024	80.005	19.995	103.793	19.913	-0.549	0.998
492.000	546.493	80.005	19.995	103.793	19.915	-0.732	0.991
492.500	547.061	80.005	19.995	103.793	19.914	-0.622	1.006
493.000	547.597	80.005	19.995	103.792	19.912	-0.480	1.070
493.500	548.080	80.006	19.995	103.793	19.914	-0.594	1.062
494.000	548.603	80.006	19.994	103.792	19.914	-0.640	1.013
494.500	549.099	80.004	19.994	103.791	19.913	-0.554	1.012
495.000	549.631	80.006	19.994	103.791	19.915	-0.666	1.024
495.500	550.147	80.005	19.995	103.792	19.916	-0.793	1.038
496.000	550.661	80.006	19.996	103.790	19.915	-0.709	1.039
496.500	551.132	80.006	19.994	103.790	19.915	-0.694	1.007
497.000	551.664	80.006	19.994	103.790	19.917	-0.879	0.994
497.500	552.215	80.005	19.995	103.790	19.916	-0.810	1.043
498.000	552.696	80.006	19.994	103.789	19.914	-0.648	1.058
498.500	553.170	80.006	19.994	103.796	19.914	-0.603	0.994
499.000	553.711	80.006	19.994	103.799	19.915	-0.694	0.985
499.500	554.238	80.006	19.995	103.800	19.916	-0.771	1.041
500.000	554.731	80.007	19.994	103.800	19.917	-0.816	1.044
500.500	555.276	80.006	19.994	103.800	19.918	-0.930	1.029
501.000	555.763	80.005	19.995	103.793	19.916	-0.737	1.035
501.500	556.284	80.006	19.994	103.789	19.915	-0.726	1.020
502.000	556.783	80.004	19.994	103.789	19.916	-0.743	1.014
502.500	557.297	80.005	19.995	103.788	19.917	-0.877	1.016
503.000	557.788	80.004	19.995	103.790	19.915	-0.719	1.009
503.500	558.285	80.005	19.993	103.790	19.917	-0.877	0.997
504.000	558.819	80.006	19.994	103.791	19.917	-0.844	1.009
504.500	559.317	80.006	19.993	103.791	19.919	-1.010	1.032
505.000	559.810	80.006	19.994	103.791	19.919	-0.984	1.012
505.500	560.324	80.005	19.994	103.788	19.918	-0.907	0.999
506.000	560.839	80.005	19.994	103.785	19.920	-1.120	1.018
506.500	561.369	80.005	19.994	103.785	19.917	-0.821	1.037
507.000	561.892	80.005	19.994	103.785	19.921	-1.154	1.050
507.500	562.391	80.005	19.995	103.786	19.922	-1.236	1.037
508.000	562.849	80.004	19.996	103.787	19.921	-1.191	0.989
508.500	563.352	80.005	19.996	103.789	19.921	-1.146	0.959
509.000	563.871	80.004	19.994	103.789	19.918	-0.913	0.992
509.500	564.375	80.005	19.994	103.789	19.919	-0.978	1.022
510.000	564.880	80.005	19.994	103.789	19.920	-1.092	1.016
510.500	565.372	80.007	19.995	103.788	19.919	-1.012	1.003
511.000	565.877	80.004	19.995	103.789	19.919	-1.045	0.997
511.500	566.391	80.006	19.994	103.789	19.920	-1.114	1.009
512.000	566.878	80.005	19.994	103.789	19.922	-1.264	1.010
512.500	567.406	80.005	19.995	103.789	19.921	-1.163	1.008
513.000	567.886	80.005	19.994	103.790	19.921	-1.131	1.012
513.500	568.435	80.005	19.995	103.790	19.919	-1.023	1.018
514.000	568.909	80.006	19.995	103.790	19.921	-1.139	1.026
514.500	569.425	80.006	19.994	103.790	19.921	-1.174	1.007
515.000	569.895	80.006	19.995	103.789	19.917	-0.823	0.989
515.500	570.433	80.005	19.995	103.789	19.920	-1.064	0.997
516.000	570.940	80.005	19.995	103.789	19.916	-0.812	1.026
516.500	571.422	80.006	19.994	103.789	19.920	-1.062	1.016
517.000	571.977	80.007	19.996	103.789	19.921	-1.161	1.013
517.500	572.430	80.003	19.995	103.789	19.919	-0.989	1.023
518.000	572.972	80.006	19.994	103.789	19.918	-0.971	1.002
518.500	573.455	80.006	19.994	103.789	19.918	-0.948	1.010
519.000	574.017	80.005	19.994	103.789	19.919	-0.982	1.035
519.500	574.505	80.004	19.995	103.789	19.917	-0.866	1.047
520.000	575.001	80.007	19.995	103.789	19.917	-0.821	1.017
520.500	575.496	80.006	19.996	103.789	19.918	-0.939	0.988
521.000	576.044	80.006	19.995	103.789	19.919	-1.025	1.017
521.500	576.516	80.006	19.995	103.789	19.920	-1.064	1.031
522.000	577.075	80.006	19.995	103.788	19.921	-1.142	1.026
522.500	577.524	80.006	19.995	103.789	19.921	-1.144	1.020
523.000	578.038	80.005	19.996	103.788	19.919	-0.995	0.986
523.500	578.547	80.006	19.995	103.788	19.919	-1.040	0.993
524.000	579.051	80.004	19.994	103.788	19.918	-0.894	1.018
524.500	579.578	80.007	19.995	103.788	19.919	-1.019	1.022
525.000	580.039	80.005	19.995	103.788	19.918	-0.969	1.009
525.500	580.562	80.006	19.995	103.789	19.918	-0.961	0.986
526.000	581.078	80.005	19.995	103.788	19.919	-0.982	1.011
526.500	581.570	80.005	19.995	103.788	19.919	-1.017	1.023
527.000	582.077	80.005	19.996	103.789	19.919	-1.017	1.004
527.501	582.599	80.005	19.994	103.789	19.920	-1.062	1.014
528.001	583.071	80.006	19.994	103.789	19.920	-1.101	1.011
528.500	583.576	80.006	19.994	103.791	19.920	-1.071	0.986
529.000	584.056	80.006	19.995	103.791	19.921	-1.204	0.981
529.500	584.506	80.006	19.994	103.791	19.921	-1.195	0.957
530.000	585.058	80.007	19.993	103.792	19.920	-1.051	0.966
530.500	585.564	80.006	19.994	103.793	19.919	-1.008	1.030
531.000	586.056	80.005	19.994	103.793	19.920	-1.055	1.028
531.500	586.538	80.006	19.994	103.793	19.917	-0.879	0.986
532.000	587.043	80.006	19.994	103.792	19.922	-1.282	0.981
532.500	587.550	80.006	19.994	103.792	19.917	-0.890	1.000
533.000	588.062	80.006	19.993	103.792	19.921	-1.189	1.015
533.500	588.537	80.007	19.993	103.793	19.922	-1.236	1.003
534.000	589.079	80.007	19.994	103.793	19.923	-1.305	1.002
534.500	589.538	80.006	19.993	103.794	19.922	-1.260	1.009
535.000	590.091	80.006	19.994	103.794	19.920	-1.103	1.006
535.500	590.607	80.006	19.992	103.794	19.920	-1.111	1.040
536.000	591.117	80.006	19.994	103.793	19.919	-1.010	1.047
536.500	591.599	80.007	19.993	103.792	19.920	-1.114	1.009
537.000	592.132	80.006	19.994	103.790	19.919	-0.987	1.004
537.500	592.590	80.007	19.994	103.790	19.919	-1.006	1.003
538.000	593.104	80.007	19.994	103.791	19.920	-1.129	0.981
538.500	593.696	80.006	19.994	103.791	19.917	-0.887	1.039
539.000	594.156	80.006	19.994	103.793	19.919	-1.015	1.079
539.500	594.640	80.007	19.994	103.795	19.920	-1.068	0.998
540.000	595.206	80.007	19.994	103.796	19.918	-0.900	0.997
540.500	595.745	80.006	19.993	103.795	19.920	-1.058	1.078
541.000	596.251	80.007	19.994	103.797	19.918	-0.969	1.075
541.500	596.696	80.006	19.994	103.800	19.919	-0.978	0.998
542.000	597.257	80.007	19.994	103.799	19.918	-0.935	0.978
542.500	597.740	80.007	19.994	103.799	19.920	-1.083	1.025
543.000	598.283	80.007	19.993	103.798	19.920	-1.083	1.035
543.500	598.798	80.007	19.994	103.796	19.920	-1.062	1.042
544.000	599.344	80.007	19.994	103.794	19.919	-1.008	1.059
544.500	599.825	80.008	19.991	103.794	19.917	-0.881	1.044
545.000	600.318	80.007	19.993	103.794	19.918	-0.933	1.001
545.500	600.841	80.009	19.993	103.794	19.917	-0.846	0.995
546.000	601.355	80.008	19.992	103.794	19.921	-1.131	1.027
546.500	601.875	80.008	19.993	103.793	19.919	-1.040	1.036
547.000	602.381	80.008	19.992	103.793	19.917	-0.868	1.030
547.500	602.890	80.008	19.993	103.794	19.917	-0.844	1.021
548.000	603.422	80.008	19.992	103.795	19.918	-0.909	1.028
548.500	603.946	80.009	19.993	103.798	19.921	-1.198	1.048
549.000	604.426	80.009	19.992	103.799	19.921	-1.148	1.030
549.500	604.977	80.008	19.991	103.799	19.922	-1.217	1.017
550.000	605.479	80.007	19.994	103.798	19.919	-0.997	1.042
550.500	605.972	80.008	19.994	103.798	19.918	-0.930	1.024
551.000	606.503	80.008	19.993	103.797	19.918	-0.896	1.010
551.500	607.028	80.007	19.994	103.797	19.917	-0.879	1.040
552.000	607.535	80.007	19.992	103.796	19.917	-0.874	1.045
552.500	608.044	80.007	19.994	103.796	19.917	-0.849	1.024
553.000	608.563	80.007	19.993	103.795	19.920	-1.070	1.022
553.500	609.111	80.008	19.995	103.795	19.919	-0.978	1.047
554.000	609.587	80.007	19.992	103.794	19.919	-1.019	1.045
554.500	610.124	80.007	19.993	103.794	19.915	-0.676	1.019
555.000	610.642	80.007	19.992	103.794	19.916	-0.765	1.034
555.500	611.158	80.007	19.994	103.793	19.916	-0.782	1.044
556.000	611.656	80.006	19.993	103.790	19.920	-1.062	1.024
556.500	612.222	80.006	19.995	103.790	19.920	-1.064	1.039
557.000	612.716	80.005	19.994	103.790	19.918	-0.909	1.062
557.500	613.237	80.006	19.994	103.791	19.917	-0.862	1.038
558.000	613.708	80.006	19.994	103.792	19.917	-0.864	1.004
558.500	614.241	80.005	19.995	103.792	19.917	-0.881	0.998
559.000	614.786	80.005	19.993	103.792	19.917	-0.851	1.041
559.500	615.290	80.006	19.994	103.791	19.918	-0.930	1.064
560.000	615.851	80.006	19.994	103.789	19.915	-0.678	1.057
560.500	616.361	80.006	19.994	103.789	19.917	-0.859	1.068
561.000	616.897	80.005	19.994	103.789	19.920	-1.073	1.058
561.500	617.464	80.005	19.993	103.791	19.917	-0.855	1.075
562.000	617.884	80.005	19.995	103.792	19.916	-0.803	1.045
562.500	618.496	80.006	19.993	103.792	19.917	-0.851	1.009
563.000	618.981	80.007	19.994	103.792	19.917	-0.836	1.064
563.500	619.480	80.006	19.994	103.793	19.920	-1.068	1.041
564.000	619.992	80.005	19.992	103.791	19.919	-0.997	0.998
564.500	620.505	80.006	19.994	103.790	19.919	-1.006	1.019
565.000	621.024	80.007	19.992	103.790	19.921	-1.159	1.029
565.500	621.531	80.007	19.994	103.790	19.920	-1.086	1.029
566.000	622.047	80.005	19.993	103.790	19.922	-1.226	1.024
566.500	622.557	80.006	19.993	103.790	19.918	-0.971	1.025
567.000	623.097	80.005	19.994	103.790	19.920	-1.118	1.038
567.500	623.643	80.006	19.993	103.790	19.920	-1.122	1.068
568.000	624.131	80.006	19.994	103.790	19.922	-1.281	1.059
568.500	624.610	80.006	19.993	103.790	19.923	-1.359	1.000
569.000	625.129	80.007	19.994	103.789	19.916	-0.765	0.983
569.500	625.662	80.007	19.993	103.789	19.918	-0.967	1.025
570.000	626.212	80.006	19.993	103.790	19.918	-0.928	1.068
570.500	626.705	80.006	19.993	103.789	19.920	-1.066	1.063
571.000	627.218	80.006	19.993	103.790	19.917	-0.868	1.024
571.500	627.751	80.006	19.993	103.791	19.919	-1.025	1.026
572.000	628.249	80.006	19.994	103.792	19.920	-1.053	1.039
572.500	628.721	80.006	19.992	103.792	19.919	-0.984	1.000
573.000	629.331	80.006	19.995	103.792	19.920	-1.070	1.025
573.500	629.821	80.006	19.994	103.792	19.919	-1.006	1.091
574.000	630.327	80.007	19.993	103.791	19.918	-0.926	1.048
574.500	630.849	80.008	19.995	103.790	19.915	-0.694	1.012
575.000	631.339	80.006	19.994	103.789	19.918	-0.967	1.020
575.500	631.861	80.007	19.994	103.789	19.921	-1.182	1.012
576.000	632.374	80.007	19.994	103.788	19.919	-1.038	1.024
576.500	632.911	80.006	19.994	103.788	19.920	-1.068	1.043
577.000	633.398	80.005	19.995	103.788	19.920	-1.081	1.037
577.500	633.938	80.006	19.993	103.783	19.919	-0.986	1.025
578.000	634.455	80.005	19.993	103.779	19.920	-1.096	1.042
578.500	635.001	80.005	19.992	103.773	19.921	-1.131	1.061
579.000	635.489	80.005	19.994	103.772	19.921	-1.202	1.049
579.500	636.020	80.004	19.994	103.773	19.922	-1.260	1.026
580.000	636.558	80.005	19.995	103.777	19.920	-1.073	1.044
580.500	637.044	80.005	19.995	103.782	19.921	-1.176	1.047
581.000	637.544	80.004	19.994	103.788	19.921	-1.154	1.005
581.500	638.051	80.005	19.994	103.788	19.923	-1.312	0.996
582.000	638.630	80.004	19.994	103.786	19.923	-1.340	1.047
582.500	639.222	80.004	19.994	103.784	19.920	-1.066	1.129
583.000	639.499	80.005	19.994	103.785	19.921	-1.191	1.020
583.500	640.103	80.005	19.994	103.785	19.921	-1.193	0.875
584.000	640.641	80.004	19.994	103.785	19.920	-1.083	1.012
584.500	641.101	80.004	19.995	103.787	19.921	-1.206	1.070
585.000	641.603	80.004	19.993	103.789	19.919	-0.999	0.980
585.500	642.109	80.003	19.994	103.789	19.922	-1.279	0.985
586.000	642.659	80.005	19.995	103.788	19.917	-0.864	1.032
586.500	643.130	80.005	19.994	103.787	19.921	-1.150	1.039
587.000	643.639	80.006	19.995	103.788	19.918	-0.907	1.001
587.500	644.150	80.005	19.996	103.788	19.921	-1.133	1.000
588.000	644.618	80.005	19.995	103.788	19.923	-1.322	0.999
588.500	645.112	80.004	19.996	103.789	19.922	-1.228	0.970
589.000	645.636	80.005	19.994	103.790	19.922	-1.279	0.990
589.500	646.143	80.005	19.995	103.791	19.922	-1.243	1.025
590.000	646.654	80.005	19.994	103.790	19.924	-1.381	1.025
590.500	647.184	80.005	19.994	103.785	19.925	-1.484	1.029
591.000	647.678	80.004	19.994	103.783	19.923	-1.348	1.032
591.500	648.174	80.004	19.995	103.780	19.922	-1.228	1.007
592.000	648.674	80.005	19.995	103.780	19.923	-1.322	0.993
592.500	649.193	80.005	19.994	103.780	19.925	-1.473	1.008
593.001	649.702	80.005	19.993	103.785	19.922	-1.232	1.023
593.500	650.212	80.004	19.995	103.788	19.924	-1.396	1.023
594.000	650.702	80.006	19.993	103.791	19.921	-1.148	1.010
594.500	651.222	80.005	19.994	103.790	19.922	-1.232	1.005
595.000	651.716	80.006	19.995	103.790	19.926	-1.540	1.012
595.500	652.225	80.007	19.994	103.790	19.926	-1.525	1.009
596.000	652.698	80.005	19.993	103.790	19.927	-1.613	0.993
596.500	653.224	80.007	19.994	103.789	19.923	-1.363	0.991
597.000	653.712	80.007	19.993	103.789	19.924	-1.383	1.006
597.500	654.233	80.006	19.993	103.788	19.923	-1.344	1.011
598.000	654.744	80.008	19.994	103.788	19.925	-1.445	1.020
598.500	655.244	80.006	19.994	103.787	19.925	-1.484	1.021
599.000	655.743	80.007	19.994	103.788	19.923	-1.335	1.005
599.500	656.214	80.006	19.993	103.790	19.922	-1.230	0.984
600.000	656.718	80.005	19.994	103.790	19.924	-1.417	0.973
600.500	657.217	80.007	19.994	103.790	19.922	-1.277	0.989
601.000	657.750	80.008	19.993	103.788	19.925	-1.454	1.017
601.500	658.252	80.008	19.994	103.785	19.922	-1.271	1.033
602.000	658.738	80.007	19.994	103.780	19.922	-1.219	1.012
602.500	659.245	80.006	19.994	103.775	19.921	-1.193	0.990
603.000	659.744	80.007	19.994	103.775	19.924	-1.381	1.000
603.500	660.208	80.006	19.993	103.777	19.924	-1.396	0.985
604.000	660.726	80.008	19.994	103.781	19.925	-1.495	0.972
604.500	661.247	80.009	19.995	103.784	19.924	-1.385	1.010
605.000	661.705	80.006	19.994	103.787	19.926	-1.536	1.009
605.500	662.238	80.007	19.995	103.786	19.924	-1.391	0.985
606.000	662.709	80.006	19.994	103.786	19.922	-1.271	0.997
606.500	663.215	80.006	19.994	103.785	19.922	-1.243	0.990
607.000	663.656	80.007	19.995	103.787	19.923	-1.340	0.962
607.500	664.208	80.006	19.994	103.790	19.922	-1.275	0.970
608.000	664.706	80.007	19.993	103.791	19.924	-1.383	1.022
608.500	665.223	80.006	19.994	103.790	19.923	-1.292	1.032
609.000	665.721	80.005	19.994	103.790	19.921	-1.133	1.015
609.500	666.177	80.005	19.994	103.790	19.924	-1.426	0.985
610.000	666.677	80.005	19.995	103.790	19.921	-1.131	0.955
610.500	667.185	80.007	19.996	103.790	19.922	-1.264	0.982
611.000	667.717	80.005	19.996	103.792	19.923	-1.363	1.024
611.500	668.190	80.005	19.994	103.792	19.923	-1.350	1.022
612.000	668.688	80.005	19.997	103.791	19.924	-1.396	0.988
612.500	669.175	80.006	19.996	103.790	19.924	-1.404	0.978
613.000	669.646	80.007	19.995	103.789	19.926	-1.523	0.972
613.500	670.130	80.006	19.994	103.787	19.923	-1.348	0.956
614.000	670.668	80.005	19.995	103.784	19.923	-1.307	0.988
614.500	671.173	80.005	19.995	103.782	19.921	-1.202	1.033
615.000	671.658	80.005	19.995	103.782	19.922	-1.210	1.017
615.500	672.168	80.006	19.994	103.782	19.925	-1.488	0.992
616.000	672.657	80.005	19.995	103.784	19.923	-1.340	0.997
616.500	673.136	80.005	19.995	103.785	19.922	-1.230	0.984
617.000	673.686	80.006	19.995	103.787	19.926	-1.531	0.999
617.500	674.152	80.006	19.995	103.787	19.922	-1.266	1.022
618.000	674.696	80.006	19.994	103.787	19.920	-1.107	1.013
618.500	675.219	80.007	19.995	103.786	19.923	-1.361	1.039
619.000	675.713	80.006	19.995	103.787	19.927	-1.635	1.042
619.500	676.184	80.007	19.996	103.787	19.927	-1.645	0.991
620.000	676.745	80.007	19.994	103.787	19.924	-1.417	0.999
620.500	677.187	80.006	19.995	103.787	19.924	-1.424	1.018
621.000	677.692	80.007	19.994	103.787	19.926	-1.546	0.975
621.500	678.169	80.007	19.995	103.789	19.933	-2.123	0.964
622.000	678.696	80.006	19.995	103.790	19.923	-1.350	0.992
622.500	679.173	80.007	19.995	103.790	19.921	-1.174	1.004
623.000	679.679	80.007	19.993	103.790	19.925	-1.518	0.994
623.500	680.177	80.008	19.996	103.789	19.921	-1.204	0.994
624.000	680.668	80.009	19.992	103.787	19.925	-1.469	0.997
624.500	681.202	80.008	19.993	103.786	19.924	-1.398	1.007
625.000	681.679	80.008	19.994	103.785	19.928	-1.689	1.018
625.500	682.193	80.008	19.993	103.784	19.927	-1.618	1.001
626.000	682.713	80.008	19.993	103.785	19.923	-1.359	1.013
626.500	683.195	80.009	19.993	103.785	19.925	-1.445	1.018
627.000	683.688	80.009	19.993	103.785	19.922	-1.275	0.988
627.500	684.196	80.009	19.992	103.785	19.924	-1.419	0.988
628.000	684.683	80.008	19.994	103.786	19.926	-1.546	0.998
628.500	685.167	80.008	19.992	103.786	19.923	-1.350	0.983
629.000	685.686	80.008	19.994	103.786	19.927	-1.654	0.987
629.500	686.168	80.009	19.992	103.786	19.925	-1.449	1.002
630.000	686.686	80.007	19.993	103.786	19.925	-1.512	1.001
630.500	687.192	80.009	19.994	103.785	19.923	-1.361	1.012
631.000	687.685	80.007	19.994	103.781	19.923	-1.320	1.011
631.500	688.185	80.007	19.993	103.780	19.922	-1.217	0.996
632.000	688.711	80.008	19.994	103.778	19.924	-1.400	1.009
632.500	689.194	80.008	19.992	103.775	19.924	-1.368	1.018
633.000	689.729	80.008	19.992	103.776	19.921	-1.200	1.014
633.500	690.227	80.007	19.993	103.778	19.923	-1.299	1.025
634.000	690.715	80.006	19.993	103.778	19.921	-1.152	1.009
634.500	691.234	80.007	19.993	103.779	19.923	-1.335	0.996
635.000	691.692	80.005	19.994	103.783	19.922	-1.234	0.992
635.500	692.194	80.005	19.993	103.784	19.924	-1.430	0.968
636.000	692.725	80.006	19.993	103.786	19.922	-1.219	0.997
636.500	693.280	80.004	19.994	103.788	19.921	-1.206	1.060
637.000	693.800	80.006	19.993	103.789	19.921	-1.172	1.080
637.500	694.284	80.004	19.993	103.789	19.920	-1.114	1.039
638.000	694.828	80.006	19.994	103.789	19.923	-1.322	1.016
638.500	695.325	80.006	19.994	103.787	19.921	-1.200	1.035
639.000	695.863	80.006	19.994	103.786	19.925	-1.488	1.038
639.500	696.346	80.006	19.994	103.786	19.926	-1.562	1.028
640.000	696.836	80.008	19.994	103.785	19.923	-1.361	0.997
640.500	697.354	80.005	19.993	103.783	19.925	-1.473	0.991
641.000	697.882	80.005	19.993	103.782	19.927	-1.602	1.027
641.500	698.377	80.006	19.994	103.784	19.926	-1.579	1.034
642.000	698.883	80.006	19.995	103.784	19.925	-1.514	1.012
642.500	699.407	80.006	19.994	103.783	19.927	-1.609	1.016
643.000	699.895	80.004	19.994	103.784	19.926	-1.585	1.021
643.500	700.372	80.006	19.994	103.787	19.924	-1.439	0.988
644.000	700.934	80.007	19.994	103.787	19.926	-1.523	1.002
644.500	701.436	80.007	19.994	103.786	19.927	-1.622	1.052
645.000	701.949	80.007	19.994	103.787	19.925	-1.484	1.039
645.500	702.416	80.005	19.993	103.787	19.925	-1.480	0.997
646.000	702.972	80.005	19.994	103.787	19.922	-1.245	1.001
646.500	703.483	80.006	19.994	103.787	19.925	-1.514	1.045
647.000	703.976	80.007	19.993	103.788	19.925	-1.471	1.035
647.500	704.500	80.006	19.994	103.788	19.923	-1.344	1.010
648.000	704.990	80.006	19.993	103.788	19.926	-1.555	1.016
648.500	705.489	80.006	19.993	103.788	19.927	-1.635	1.002
649.000	706.005	80.007	19.993	103.788	19.926	-1.546	1.002
649.500	706.535	80.007	19.994	103.788	19.924	-1.404	1.031
650.000	706.988	80.005	19.994	103.789	19.926	-1.570	1.015
650.500	707.514	80.005	19.994	103.788	19.924	-1.437	0.980
651.000	708.008	80.006	19.994	103.788	19.925	-1.497	0.999
651.500	708.517	80.006	19.994	103.789	19.927	-1.674	1.012
652.000	709.060	80.005	19.993	103.788	19.924	-1.366	1.028
652.500	709.579	80.006	19.993	103.789	19.923	-1.348	1.057
653.000	710.093	80.007	19.994	103.789	19.924	-1.441	1.048
653.500	710.587	80.006	19.993	103.790	19.925	-1.452	1.020
654.000	711.156	80.005	19.994	103.791	19.926	-1.529	1.035
654.500	711.617	80.006	19.994	103.791	19.924	-1.370	1.047
655.000	712.135	80.006	19.993	103.791	19.923	-1.357	1.005
655.500	712.627	80.006	19.994	103.793	19.926	-1.596	0.994
656.000	713.176	80.005	19.994	103.793	19.926	-1.534	1.026
656.500	713.696	80.007	19.993	103.793	19.925	-1.454	1.055
657.000	714.181	80.006	19.993	103.793	19.923	-1.359	1.037
657.500	714.686	80.005	19.994	103.793	19.927	-1.620	0.998
658.000	715.210	80.007	19.995	103.792	19.922	-1.239	1.010
658.500	715.781	80.005	19.993	103.792	19.922	-1.243	1.062
659.000	716.239	80.006	19.992	103.792	19.926	-1.531	1.062
659.500	716.766	80.007	19.993	103.789	19.922	-1.264	1.007
660.000	717.274	80.006	19.993	103.789	19.922	-1.236	1.010
660.500	717.801	80.006	19.993	103.789	19.922	-1.267	1.035
661.000	718.291	80.007	19.993	103.788	19.926	-1.540	1.026
661.500	718.823	80.007	19.994	103.787	19.925	-1.491	1.020
662.000	719.328	80.005	19.994	103.786	19.924	-1.381	1.030
662.500	719.821	80.006	19.992	103.786	19.926	-1.534	1.017
663.000	720.337	80.005	19.993	103.786	19.925	-1.480	1.003
663.500	720.889	80.006	19.994	103.787	19.924	-1.426	1.039
664.000	721.349	80.006	19.992	103.788	19.926	-1.592	1.040
664.500	721.844	80.005	19.993	103.791	19.926	-1.553	0.983
665.000	722.380	80.006	19.993	103.790	19.924	-1.417	0.993
665.500	722.916	80.005	19.992	103.789	19.926	-1.577	1.052
666.000	723.376	80.005	19.993	103.789	19.924	-1.370	1.034
666.500	723.899	80.005	19.993	103.789	19.924	-1.381	0.989
667.000	724.428	80.004	19.993	103.789	19.925	-1.449	1.018
667.500	724.879	80.006	19.994	103.790	19.925	-1.454	1.016
668.000	725.438	80.007	19.993	103.792	19.923	-1.340	0.995
668.500	725.954	80.005	19.994	103.792	19.925	-1.501	1.042
669.000	726.451	80.005	19.994	103.792	19.922	-1.208	1.044
669.500	726.944	80.005	19.993	103.792	19.922	-1.279	1.001
670.000	727.481	80.005	19.995	103.794	19.925	-1.445	1.010
670.500	728.003	80.005	19.996	103.794	19.922	-1.264	1.044
671.000	728.533	80.005	19.995	103.793	19.925	-1.477	1.056
671.500	729.048	80.005	19.994	103.793	19.923	-1.290	1.049
672.000	729.522	80.003	19.993	103.793	19.921	-1.148	1.017
672.500	730.058	80.005	19.994	103.792	19.924	-1.378	0.999
673.000	730.564	80.006	19.994	103.793	19.924	-1.368	1.026
673.500	731.101	80.005	19.994	103.792	19.922	-1.264	1.043
674.000	731.588	80.006	19.994	103.792	19.922	-1.236	1.034
674.500	732.132	80.004	19.995	103.789	19.922	-1.251	1.027
675.000	732.647	80.005	19.995	103.789	19.923	-1.331	1.045
675.500	733.121	80.005	19.994	103.787	19.926	-1.523	1.024
676.000	733.652	80.006	19.993	103.783	19.919	-1.034	0.997
676.500	734.184	80.005	19.995	103.782	19.921	-1.187	1.034
677.000	734.702	80.005	19.993	103.784	19.924	-1.421	1.056
677.500	735.204	80.006	19.995	103.784	19.921	-1.174	1.035
678.000	735.709	80.008	19.995	103.783	19.924	-1.391	1.013
678.500	736.225	80.008	19.994	103.787	19.921	-1.191	1.014
679.000	736.713	80.007	19.994	103.788	19.920	-1.105	1.012
