Sample ID:	C:\MCC\MCC Cal\Test\Bean_Bag_Chair_Outer_Cover_MCC_30K_min_220311_R2.txt
Sample Weight (mg):	4.15
Heating Rate (C/s):	1
Combustor Temp (C):	900
N2 Flow Rate (cc/min):	80
O2 Flow Rate (cc/min):	20
Calibration File:	C:\MCC\MCC Cal\Coeff1 JN10440_30_210304.txt.txt
T Correction Coefficients:	0	1.024463	0
Time Shift (s):	14
*
Time (s)	Temperature (C)	N2 flow rate (cc/min)	O2 flow rate (cc/min)	Flow Rate (cc/min)	Oxygen (%)	HRR (W/g)	Heating rate (C/s)
0.000	109.128	80.005	19.993	103.610	19.904	0.282	-0.011
0.500	109.176	80.003	19.994	103.613	19.908	-0.043	-0.021
1.000	109.186	80.005	19.993	103.619	19.905	0.222	0.025
1.501	109.130	80.005	19.994	103.623	19.906	0.113	0.006
2.000	109.157	80.004	19.993	103.625	19.906	0.098	-0.038
2.500	109.122	80.004	19.994	103.627	19.910	-0.207	-0.018
3.000	109.146	80.004	19.994	103.628	19.906	0.135	-0.009
3.500	109.131	80.005	19.993	103.630	19.905	0.218	-0.001
4.000	109.147	80.005	19.993	103.632	19.907	0.026	0.005
4.500	109.112	80.003	19.993	103.633	19.907	0.019	-0.009
5.000	109.172	80.004	19.994	103.633	19.912	-0.347	0.003
5.500	109.088	80.004	19.995	103.633	19.907	0.066	0.000
6.000	109.114	80.005	19.994	103.633	19.903	0.328	-0.041
6.500	109.126	80.006	19.995	103.633	19.902	0.409	-0.010
7.000	109.109	80.006	19.995	103.634	19.901	0.533	0.016
7.500	109.137	80.004	19.994	103.637	19.903	0.351	0.003
8.000	109.108	80.004	19.994	103.645	19.903	0.349	0.005
8.500	109.143	80.005	19.994	103.653	19.902	0.400	0.002
9.000	109.155	80.005	19.995	103.667	19.902	0.443	0.026
9.500	109.140	80.004	19.994	103.683	19.899	0.657	0.022
10.000	109.147	80.004	19.994	103.695	19.893	1.111	-0.005
10.500	109.156	80.006	19.995	103.703	19.894	1.064	0.004
11.000	109.179	80.006	19.994	103.710	19.895	0.963	0.024
11.500	109.164	80.004	19.994	103.715	19.894	1.066	0.020
12.000	109.177	80.005	19.994	103.723	19.889	1.458	0.003
12.500	109.193	80.004	19.994	103.738	19.889	1.447	0.013
13.000	109.181	80.004	19.994	103.753	19.885	1.734	0.017
13.500	109.200	80.005	19.993	103.775	19.882	1.994	0.006
14.000	109.250	80.005	19.994	103.794	19.880	2.184	0.038
14.500	109.260	80.006	19.994	103.814	19.877	2.351	0.064
15.000	109.273	80.006	19.994	103.830	19.877	2.392	0.041
15.500	109.314	80.005	19.993	103.851	19.874	2.608	0.038
16.000	109.378	80.008	19.993	103.868	19.877	2.390	0.080
16.500	109.424	80.007	19.994	103.886	19.872	2.757	0.108
17.000	109.457	80.007	19.993	103.904	19.867	3.131	0.094
17.500	109.488	80.008	19.993	103.915	19.869	3.050	0.071
18.000	109.562	80.007	19.994	103.918	19.868	3.102	0.084
18.500	109.588	80.006	19.993	103.918	19.860	3.712	0.103
19.000	109.687	80.007	19.994	103.917	19.863	3.468	0.113
19.500	109.733	80.006	19.993	103.908	19.863	3.445	0.135
20.000	109.769	80.006	19.993	103.903	19.858	3.850	0.113
20.500	109.813	80.005	19.992	103.902	19.861	3.610	0.081
21.000	109.862	80.006	19.992	103.903	19.856	4.002	0.086
21.500	109.997	80.006	19.993	103.903	19.859	3.818	0.139
22.000	110.046	80.006	19.992	103.905	19.859	3.782	0.184
22.500	110.159	80.006	19.993	103.908	19.857	3.957	0.173
23.000	110.220	80.004	19.992	103.910	19.858	3.846	0.168
23.500	110.324	80.006	19.993	103.917	19.859	3.831	0.170
24.000	110.399	80.005	19.992	103.925	19.857	3.930	0.172
24.500	110.508	80.005	19.993	103.933	19.851	4.399	0.181
25.000	110.595	80.005	19.992	103.941	19.852	4.329	0.190
25.500	110.720	80.004	19.993	103.948	19.852	4.364	0.204
26.000	110.791	80.004	19.992	103.950	19.849	4.580	0.204
26.500	110.907	80.004	19.993	103.950	19.850	4.470	0.191
27.000	110.976	80.005	19.992	103.955	19.849	4.584	0.186
27.500	111.074	80.004	19.993	103.961	19.850	4.501	0.176
28.000	111.161	80.005	19.991	103.964	19.850	4.464	0.176
28.500	111.296	80.004	19.993	103.967	19.845	4.889	0.204
29.000	111.459	80.004	19.994	103.969	19.844	4.992	0.260
29.500	111.557	80.004	19.993	103.970	19.845	4.901	0.280
30.000	111.661	80.005	19.994	103.970	19.847	4.769	0.231
30.500	111.817	80.004	19.994	103.976	19.844	4.985	0.231
31.000	111.934	80.004	19.992	103.986	19.843	5.056	0.267
31.500	112.102	80.004	19.993	103.995	19.841	5.212	0.279
32.000	112.175	80.004	19.992	103.998	19.838	5.457	0.263
32.500	112.385	80.003	19.992	104.000	19.839	5.322	0.262
33.000	112.536	80.004	19.994	104.000	19.842	5.114	0.322
33.501	112.635	80.004	19.993	103.997	19.840	5.274	0.306
34.001	112.786	80.005	19.994	103.996	19.840	5.244	0.250
34.500	112.956	80.004	19.993	103.999	19.838	5.410	0.285
35.000	113.104	80.004	19.993	104.011	19.842	5.122	0.319
35.500	113.261	80.004	19.993	103.993	19.837	5.525	0.311
36.000	113.452	80.004	19.993	103.962	19.840	5.307	0.327
36.500	113.657	80.003	19.993	103.942	19.837	5.549	0.372
37.000	113.827	80.004	19.992	103.932	19.843	5.054	0.386
37.500	113.974	80.004	19.992	103.921	19.841	5.176	0.346
38.000	114.156	80.003	19.993	103.966	19.839	5.354	0.322
38.500	114.316	80.004	19.993	104.029	19.837	5.551	0.336
39.000	114.532	80.004	19.992	104.066	19.836	5.570	0.359
39.500	114.703	80.004	19.993	104.080	19.838	5.448	0.381
40.000	114.923	80.003	19.993	104.085	19.836	5.613	0.389
40.500	115.092	80.004	19.994	104.065	19.838	5.446	0.390
41.000	115.276	80.004	19.992	104.039	19.835	5.671	0.371
41.500	115.485	80.004	19.994	104.027	19.838	5.419	0.373
42.000	115.650	80.004	19.994	104.027	19.836	5.590	0.384
42.500	115.874	80.004	19.992	104.028	19.837	5.549	0.382
43.000	116.039	80.004	19.993	104.029	19.835	5.637	0.389
43.500	116.273	80.003	19.994	104.028	19.838	5.412	0.393
44.000	116.484	80.004	19.994	104.029	19.837	5.547	0.422
44.500	116.701	80.004	19.993	104.029	19.835	5.667	0.437
45.000	116.897	80.004	19.993	104.029	19.832	5.873	0.421
45.500	117.083	80.004	19.992	104.029	19.836	5.629	0.397
46.000	117.317	80.004	19.993	104.030	19.835	5.689	0.401
46.500	117.580	80.003	19.993	104.030	19.835	5.678	0.459
47.000	117.826	80.004	19.994	104.029	19.837	5.489	0.503
47.500	118.022	80.005	19.993	104.030	19.836	5.598	0.475
48.000	118.280	80.003	19.992	104.031	19.837	5.534	0.448
48.500	118.471	80.004	19.993	104.031	19.834	5.714	0.451
49.000	118.745	80.004	19.993	104.031	19.834	5.725	0.457
49.500	118.959	80.003	19.992	104.031	19.836	5.614	0.476
50.000	119.220	80.004	19.993	104.030	19.831	5.961	0.481
50.500	119.464	80.004	19.993	104.029	19.835	5.676	0.490
51.000	119.711	80.004	19.994	104.030	19.834	5.778	0.498
51.500	119.959	80.005	19.992	104.033	19.832	5.946	0.493
52.000	120.242	80.005	19.993	104.037	19.830	6.098	0.513
52.500	120.458	80.004	19.993	104.037	19.832	5.944	0.515
53.000	120.711	80.004	19.993	104.037	19.833	5.868	0.484
53.500	120.960	80.004	19.993	104.037	19.833	5.853	0.485
54.000	121.222	80.004	19.992	104.037	19.832	5.920	0.506
54.500	121.517	80.004	19.994	104.034	19.832	5.881	0.534
55.001	121.785	80.003	19.992	104.037	19.834	5.754	0.560
55.501	122.065	80.002	19.995	104.039	19.832	5.889	0.555
56.000	122.325	80.005	19.994	104.042	19.830	6.087	0.544
56.500	122.613	80.005	19.993	104.040	19.832	5.941	0.544
57.000	122.853	80.004	19.992	104.041	19.834	5.748	0.538
57.500	123.185	80.005	19.992	104.040	19.834	5.731	0.549
58.000	123.461	80.005	19.992	104.039	19.832	5.890	0.590
58.500	123.755	80.005	19.993	104.035	19.833	5.795	0.589
59.000	123.987	80.005	19.993	104.036	19.831	5.969	0.548
59.500	124.306	80.004	19.992	104.036	19.833	5.838	0.538
60.000	124.599	80.004	19.993	104.036	19.831	5.986	0.582
60.500	124.916	80.004	19.993	104.036	19.828	6.185	0.611
61.001	125.217	80.003	19.992	104.036	19.832	5.939	0.614
61.501	125.501	80.005	19.994	104.034	19.834	5.757	0.601
62.000	125.799	80.005	19.994	104.033	19.834	5.752	0.584
62.500	126.069	80.002	19.994	104.036	19.836	5.622	0.575
63.000	126.410	80.004	19.993	104.042	19.834	5.759	0.590
63.500	126.677	80.004	19.994	104.050	19.830	6.070	0.609
64.000	126.997	80.004	19.993	104.056	19.831	5.974	0.598
64.500	127.292	80.004	19.994	104.063	19.828	6.235	0.601
65.000	127.592	80.004	19.993	104.065	19.830	6.058	0.605
65.500	127.915	80.005	19.993	104.066	19.830	6.058	0.609
66.000	128.227	80.003	19.994	104.066	19.826	6.341	0.629
66.500	128.518	80.005	19.993	104.065	19.825	6.452	0.619
67.001	128.841	80.004	19.993	104.065	19.824	6.540	0.609
67.501	129.176	80.004	19.994	104.065	19.826	6.398	0.636
68.000	129.452	80.005	19.993	104.065	19.825	6.445	0.634
68.500	129.814	80.004	19.994	104.064	19.822	6.655	0.624
69.000	130.144	80.004	19.994	104.065	19.829	6.158	0.665
69.500	130.447	80.005	19.993	104.065	19.825	6.482	0.663
70.001	130.799	80.005	19.993	104.065	19.828	6.214	0.644
70.501	131.128	80.006	19.994	104.065	19.823	6.646	0.668
71.000	131.468	80.005	19.993	104.066	19.826	6.354	0.675
71.500	131.795	80.005	19.995	104.066	19.821	6.802	0.668
72.000	132.153	80.006	19.994	104.066	19.823	6.624	0.676
72.500	132.485	80.006	19.993	104.066	19.825	6.476	0.687
73.000	132.817	80.006	19.993	104.066	19.825	6.448	0.677
73.501	133.177	80.007	19.993	104.066	19.822	6.654	0.678
74.001	133.532	80.005	19.992	104.068	19.822	6.665	0.704
74.500	133.865	80.004	19.994	104.069	19.826	6.365	0.702
75.000	134.232	80.006	19.995	104.074	19.825	6.425	0.694
75.501	134.588	80.005	19.994	104.078	19.824	6.524	0.711
76.001	134.939	80.005	19.994	104.084	19.823	6.625	0.715
76.500	135.281	80.006	19.993	104.082	19.824	6.530	0.701
77.000	135.632	80.006	19.995	104.082	19.822	6.719	0.693
77.500	135.999	80.005	19.994	104.078	19.821	6.757	0.706
78.000	136.327	80.006	19.994	104.074	19.823	6.637	0.706
78.501	136.729	80.005	19.995	104.066	19.823	6.652	0.712
79.001	137.048	80.004	19.994	104.068	19.820	6.828	0.725
79.500	137.432	80.005	19.994	104.071	19.820	6.837	0.712
80.000	137.813	80.006	19.994	104.073	19.820	6.839	0.734
80.500	138.196	80.005	19.994	104.078	19.818	6.969	0.764
81.000	138.547	80.005	19.994	104.086	19.817	7.049	0.749
81.500	138.909	80.006	19.994	104.086	19.821	6.802	0.724
82.000	139.290	80.005	19.994	104.085	19.823	6.646	0.728
82.500	139.663	80.006	19.993	104.087	19.820	6.887	0.749
83.000	140.077	80.005	19.994	104.086	19.821	6.788	0.771
83.500	140.449	80.004	19.994	104.082	19.822	6.726	0.786
84.000	140.842	80.005	19.995	104.083	19.820	6.835	0.775
84.500	141.222	80.005	19.995	104.088	19.819	6.955	0.769
85.000	141.617	80.004	19.993	104.091	19.820	6.842	0.774
85.500	142.008	80.005	19.993	104.092	19.823	6.601	0.781
86.000	142.431	80.004	19.994	104.093	19.822	6.717	0.800
86.500	142.766	80.005	19.993	104.095	19.820	6.861	0.786
87.000	143.205	80.004	19.994	104.093	19.819	6.963	0.766
87.500	143.591	80.004	19.994	104.090	19.823	6.612	0.800
88.000	143.981	80.004	19.993	104.089	19.816	7.185	0.800
88.501	144.410	80.005	19.994	104.089	19.820	6.882	0.797
89.001	144.806	80.004	19.994	104.086	19.822	6.657	0.822
89.500	145.204	80.005	19.993	104.089	19.819	6.948	0.810
90.000	145.603	80.007	19.993	104.094	19.821	6.733	0.795
90.500	146.043	80.005	19.993	104.091	19.818	7.025	0.818
91.000	146.405	80.006	19.993	104.090	19.822	6.728	0.821
91.500	146.788	80.004	19.994	104.088	19.818	6.978	0.774
92.000	147.249	80.005	19.994	104.088	19.819	6.959	0.795
92.500	147.655	80.005	19.993	104.088	19.819	6.912	0.856
93.001	148.074	80.007	19.993	104.095	19.819	6.943	0.846
93.501	148.496	80.005	19.995	104.102	19.819	6.944	0.833
94.000	148.899	80.005	19.995	104.106	19.822	6.671	0.832
94.500	149.334	80.006	19.994	104.103	19.817	7.091	0.831
95.000	149.758	80.005	19.996	104.100	19.817	7.059	0.849
95.500	150.211	80.006	19.994	104.100	19.818	6.996	0.868
96.000	150.629	80.006	19.995	104.100	19.818	7.026	0.874
96.500	151.039	80.007	19.993	104.100	19.817	7.069	0.850
97.000	151.441	80.006	19.994	104.101	19.817	7.091	0.820
97.500	151.877	80.007	19.994	104.100	19.817	7.061	0.825
98.000	152.326	80.007	19.995	104.095	19.817	7.094	0.861
98.500	152.733	80.008	19.994	104.069	19.818	7.029	0.871
99.000	153.182	80.006	19.993	104.045	19.814	7.301	0.857
99.500	153.632	80.006	19.994	104.029	19.813	7.415	0.878
100.000	154.004	80.006	19.995	104.024	19.816	7.146	0.860
100.500	154.478	80.006	19.994	104.024	19.818	7.020	0.834
101.001	154.918	80.006	19.995	104.072	19.822	6.720	0.880
101.501	155.354	80.007	19.993	104.117	19.820	6.846	0.895
102.000	155.796	80.007	19.994	104.140	19.816	7.183	0.877
102.500	156.249	80.004	19.995	104.149	19.820	6.874	0.887
103.000	156.664	80.005	19.994	104.153	19.823	6.591	0.881
103.500	157.104	80.004	19.994	104.130	19.817	7.114	0.861
104.000	157.538	80.005	19.994	104.106	19.819	6.932	0.865
104.500	158.038	80.005	19.994	104.096	19.817	7.105	0.904
105.001	158.476	80.004	19.994	104.089	19.819	6.889	0.936
105.501	158.931	80.004	19.993	104.082	19.819	6.940	0.915
106.000	159.330	80.006	19.994	104.076	19.823	6.606	0.874
106.500	159.807	80.004	19.994	104.072	19.819	6.897	0.865
107.000	160.259	80.004	19.993	104.071	19.818	6.988	0.903
107.500	160.735	80.003	19.993	104.072	19.819	6.904	0.929
108.000	161.162	80.003	19.994	104.076	19.816	7.200	0.915
108.500	161.599	80.004	19.994	104.082	19.817	7.069	0.883
109.000	162.091	80.004	19.995	104.084	19.817	7.069	0.897
109.500	162.541	80.004	19.994	104.083	19.818	7.039	0.936
110.001	162.947	80.004	19.994	104.081	19.820	6.887	0.899
110.501	163.409	80.004	19.993	104.078	19.817	7.077	0.861
111.000	163.923	80.003	19.994	104.071	19.817	7.108	0.922
111.500	164.392	80.003	19.995	104.071	19.820	6.870	0.980
112.001	164.848	80.003	19.994	104.073	19.815	7.241	0.954
112.501	165.323	80.004	19.994	104.077	19.821	6.807	0.928
113.000	165.809	80.004	19.994	104.078	19.816	7.133	0.946
113.500	166.247	80.004	19.993	104.078	19.820	6.846	0.943
114.000	166.757	80.003	19.994	104.075	19.819	6.964	0.936
114.500	167.249	80.003	19.994	104.074	19.817	7.049	0.975
115.000	167.729	80.003	19.995	104.071	19.818	7.017	0.986
115.500	168.203	80.004	19.993	104.069	19.817	7.100	0.963
116.000	168.670	80.004	19.994	104.070	19.813	7.402	0.948
116.500	169.102	80.004	19.993	104.071	19.817	7.070	0.920
117.000	169.587	80.003	19.993	104.071	19.818	6.997	0.908
117.500	170.059	80.005	19.992	104.070	19.818	6.991	0.937
118.000	170.558	80.004	19.993	104.070	19.816	7.171	0.964
118.500	171.037	80.005	19.994	104.068	19.823	6.635	0.975
119.000	171.509	80.004	19.993	104.068	19.819	6.911	0.965
119.500	171.971	80.004	19.993	104.069	19.820	6.836	0.942
120.000	172.466	80.004	19.994	104.068	19.821	6.769	0.945
120.500	172.934	80.004	19.993	104.068	19.824	6.501	0.960
121.000	173.417	80.005	19.993	104.068	19.823	6.587	0.957
121.500	173.897	80.004	19.993	104.066	19.822	6.668	0.957
122.000	174.384	80.003	19.993	104.070	19.823	6.593	0.965
122.500	174.853	80.004	19.993	104.071	19.820	6.859	0.962
123.000	175.343	80.004	19.993	104.071	19.822	6.711	0.958
123.500	175.851	80.005	19.993	104.070	19.824	6.529	0.979
124.000	176.315	80.005	19.993	104.071	19.824	6.535	0.985
124.500	176.816	80.005	19.994	104.067	19.822	6.658	0.968
125.000	177.311	80.003	19.994	104.065	19.822	6.726	0.980
125.500	177.819	80.005	19.994	104.059	19.821	6.769	1.000
126.000	178.299	80.005	19.994	104.055	19.823	6.616	0.995
126.500	178.781	80.005	19.993	104.055	19.820	6.844	0.975
127.000	179.267	80.004	19.994	104.053	19.822	6.683	0.965
127.500	179.791	80.004	19.993	104.049	19.819	6.889	0.989
128.000	180.247	80.004	19.993	104.054	19.822	6.658	0.995
128.500	180.763	80.004	19.993	104.058	19.820	6.876	0.976
129.000	181.276	80.004	19.993	104.056	19.827	6.313	1.001
129.500	181.752	80.004	19.992	104.051	19.821	6.756	1.009
130.000	182.257	80.004	19.993	104.051	19.821	6.756	0.985
130.500	182.728	80.006	19.994	104.045	19.824	6.509	0.978
131.000	183.237	80.004	19.993	104.040	19.823	6.599	0.978
131.500	183.762	80.004	19.992	104.039	19.824	6.520	1.007
132.000	184.242	80.003	19.992	104.038	19.824	6.528	1.019
132.500	184.743	80.005	19.995	104.036	19.825	6.481	0.993
133.000	185.234	80.004	19.994	104.037	19.824	6.560	0.987
133.500	185.779	80.005	19.993	104.039	19.820	6.832	1.014
134.000	186.303	80.005	19.993	104.039	19.824	6.564	1.052
134.500	186.796	80.004	19.993	104.041	19.825	6.485	1.043
135.000	187.351	80.005	19.993	104.041	19.822	6.652	1.033
135.500	187.828	80.004	19.993	104.039	19.824	6.564	1.040
136.000	188.344	80.004	19.994	104.036	19.823	6.616	1.012
136.500	188.817	80.005	19.994	104.033	19.823	6.592	0.990
137.000	189.312	80.004	19.993	104.032	19.825	6.483	0.978
137.500	189.812	80.005	19.993	104.033	19.823	6.619	0.982
138.000	190.385	80.005	19.993	104.032	19.825	6.418	1.034
138.500	190.895	80.005	19.993	104.035	19.826	6.383	1.078
139.000	191.394	80.004	19.995	104.041	19.827	6.332	1.045
139.500	191.893	80.004	19.993	104.042	19.825	6.455	1.004
140.000	192.411	80.004	19.993	104.042	19.826	6.339	1.008
140.500	192.892	80.005	19.993	104.041	19.822	6.686	1.008
141.000	193.362	80.004	19.992	104.038	19.823	6.590	0.975
141.500	193.900	80.005	19.993	104.031	19.825	6.439	0.979
142.000	194.429	80.004	19.993	104.027	19.826	6.392	1.037
142.500	194.951	80.005	19.993	104.026	19.828	6.231	1.059
143.000	195.464	80.005	19.993	104.026	19.825	6.420	1.043
143.500	195.955	80.004	19.993	104.025	19.823	6.595	1.019
144.000	196.467	80.004	19.994	104.024	19.826	6.388	1.004
144.500	196.973	80.004	19.993	104.022	19.827	6.293	1.011
145.000	197.496	80.005	19.994	104.020	19.827	6.259	1.023
145.500	198.020	80.004	19.993	104.021	19.827	6.334	1.037
146.000	198.538	80.004	19.992	104.021	19.825	6.477	1.044
146.500	199.062	80.004	19.994	104.023	19.826	6.336	1.042
147.000	199.554	80.005	19.995	104.025	19.825	6.428	1.030
147.500	200.063	80.005	19.994	104.024	19.824	6.511	1.009
148.000	200.625	80.005	19.993	104.017	19.829	6.115	1.036
148.500	201.111	80.006	19.993	104.012	19.825	6.438	1.059
149.000	201.635	80.005	19.993	104.009	19.828	6.220	1.029
149.500	202.127	80.005	19.993	104.008	19.826	6.372	1.014
150.000	202.654	80.006	19.993	104.010	19.824	6.501	1.018
150.500	203.183	80.005	19.993	104.017	19.828	6.239	1.037
151.000	203.680	80.006	19.993	104.021	19.826	6.340	1.041
151.500	204.223	80.005	19.994	104.021	19.826	6.410	1.032
152.000	204.730	80.004	19.993	104.017	19.825	6.479	1.045
152.500	205.291	80.005	19.992	104.010	19.826	6.348	1.059
153.000	205.804	80.006	19.995	104.008	19.827	6.297	1.071
153.500	206.310	80.007	19.994	104.004	19.826	6.348	1.047
154.000	206.808	80.006	19.995	104.003	19.826	6.371	1.011
154.500	207.346	80.005	19.994	104.006	19.830	6.095	1.020
155.000	207.891	80.005	19.993	104.010	19.829	6.159	1.059
155.500	208.410	80.006	19.993	104.009	19.826	6.410	1.074
156.000	208.929	80.006	19.992	104.010	19.827	6.299	1.051
156.500	209.442	80.005	19.992	104.008	19.831	6.012	1.035
157.000	209.946	80.005	19.993	104.005	19.828	6.181	1.025
157.500	210.496	80.005	19.992	104.000	19.829	6.174	1.035
158.000	210.991	80.006	19.993	103.998	19.829	6.106	1.049
158.500	211.533	80.005	19.992	103.994	19.828	6.239	1.041
159.000	212.043	80.006	19.992	103.993	19.829	6.140	1.044
159.500	212.569	80.006	19.993	103.994	19.830	6.076	1.044
160.000	213.061	80.006	19.993	103.995	19.827	6.286	1.027
160.500	213.588	80.007	19.992	103.996	19.828	6.251	1.018
161.000	214.134	80.006	19.993	103.996	19.832	5.876	1.046
161.500	214.655	80.006	19.993	103.995	19.830	6.043	1.070
162.000	215.195	80.006	19.993	103.993	19.831	5.962	1.064
162.500	215.690	80.007	19.992	103.991	19.828	6.199	1.049
163.000	216.191	80.005	19.993	103.990	19.825	6.441	1.016
163.500	216.708	80.006	19.992	103.989	19.833	5.843	1.007
164.000	217.282	80.005	19.992	103.989	19.826	6.389	1.054
164.500	217.802	80.005	19.994	103.989	19.829	6.149	1.093
165.000	218.269	80.005	19.994	103.989	19.829	6.108	1.041
165.500	218.810	80.006	19.993	103.987	19.830	6.031	0.998
166.000	219.322	80.004	19.993	103.987	19.824	6.513	1.031
166.500	219.866	80.007	19.993	103.987	19.828	6.242	1.054
167.000	220.342	80.004	19.993	103.987	19.826	6.411	1.038
167.500	220.876	80.005	19.994	103.987	19.828	6.208	1.015
168.000	221.418	80.005	19.993	103.988	19.830	6.045	1.043
168.500	221.949	80.003	19.993	103.988	19.830	6.045	1.074
169.000	222.458	80.004	19.993	103.988	19.830	6.030	1.056
169.500	222.972	80.004	19.993	103.988	19.826	6.349	1.031
170.000	223.500	80.004	19.994	103.988	19.827	6.267	1.033
170.500	224.056	80.005	19.994	103.987	19.830	6.083	1.063
171.000	224.550	80.005	19.994	103.987	19.830	6.040	1.067
171.500	225.060	80.004	19.994	103.986	19.829	6.162	1.027
172.000	225.589	80.004	19.993	103.986	19.827	6.280	1.022
172.500	226.091	80.005	19.993	103.982	19.828	6.197	1.035
173.000	226.601	80.005	19.994	103.977	19.824	6.513	1.022
173.500	227.104	80.005	19.994	103.974	19.828	6.250	1.013
174.000	227.636	80.004	19.993	103.967	19.830	6.095	1.024
174.500	228.172	80.006	19.995	103.960	19.827	6.298	1.052
175.000	228.686	80.005	19.994	103.956	19.830	6.056	1.059
175.500	229.206	80.005	19.993	103.956	19.825	6.422	1.041
176.000	229.729	80.006	19.994	103.953	19.829	6.121	1.038
176.500	230.228	80.006	19.995	103.957	19.829	6.108	1.033
177.000	230.780	80.005	19.993	103.964	19.825	6.457	1.037
177.500	231.294	80.005	19.993	103.967	19.827	6.316	1.058
178.000	231.767	80.005	19.994	103.970	19.823	6.568	1.026
178.500	232.277	80.007	19.993	103.974	19.823	6.613	0.985
179.001	232.794	80.005	19.993	103.972	19.826	6.373	1.005
179.501	233.340	80.007	19.995	103.967	19.827	6.311	1.045
180.000	233.857	80.007	19.993	103.968	19.830	6.035	1.063
180.500	234.343	80.005	19.993	103.966	19.827	6.326	1.033
181.000	234.876	80.006	19.992	103.963	19.825	6.455	1.011
181.500	235.393	80.006	19.994	103.966	19.829	6.150	1.035
182.000	235.903	80.005	19.994	103.969	19.825	6.437	1.039
182.500	236.437	80.007	19.996	103.968	19.825	6.440	1.036
183.000	236.919	80.006	19.995	103.970	19.828	6.247	1.030
183.500	237.430	80.007	19.995	103.967	19.828	6.195	1.004
184.000	237.952	80.007	19.995	103.962	19.829	6.161	1.013
184.500	238.471	80.006	19.995	103.956	19.830	6.063	1.037
185.000	238.960	80.004	19.993	103.951	19.826	6.343	1.024
185.500	239.477	80.006	19.994	103.946	19.827	6.285	1.007
186.000	239.946	80.006	19.994	103.947	19.829	6.161	0.996
186.500	240.441	80.005	19.994	103.946	19.827	6.260	0.975
187.000	240.995	80.006	19.994	103.948	19.827	6.315	1.007
187.500	241.489	80.005	19.994	103.949	19.824	6.559	1.049
188.000	242.007	80.005	19.993	103.949	19.826	6.390	1.030
188.500	242.510	80.007	19.993	103.949	19.824	6.534	1.017
189.000	243.069	80.004	19.992	103.948	19.825	6.456	1.041
189.500	243.531	80.003	19.993	103.946	19.829	6.140	1.041
190.000	244.011	80.005	19.993	103.945	19.826	6.341	0.982
190.500	244.525	80.003	19.994	103.945	19.828	6.206	0.968
191.000	245.033	80.005	19.993	103.945	19.823	6.583	1.008
191.500	245.535	80.004	19.993	103.945	19.826	6.395	1.016
192.000	246.049	80.005	19.993	103.945	19.824	6.504	1.013
192.500	246.585	80.004	19.993	103.946	19.825	6.463	1.033
193.000	247.062	80.004	19.993	103.946	19.822	6.652	1.031
193.500	247.594	80.003	19.993	103.946	19.823	6.600	1.011
194.000	248.113	80.004	19.994	103.946	19.825	6.414	1.030
194.500	248.611	80.004	19.994	103.946	19.826	6.405	1.034
195.000	249.136	80.004	19.993	103.945	19.824	6.501	1.020
195.500	249.619	80.004	19.994	103.945	19.822	6.645	1.015
196.000	250.148	80.005	19.994	103.945	19.823	6.623	1.010
196.500	250.683	80.004	19.994	103.945	19.817	7.054	1.038
197.000	251.211	80.005	19.994	103.945	19.823	6.621	1.064
197.500	251.671	80.002	19.995	103.945	19.820	6.867	1.026
198.000	252.237	80.003	19.994	103.946	19.817	7.077	1.007
198.500	252.708	80.004	19.994	103.945	19.820	6.878	1.031
199.000	253.156	80.003	19.994	103.945	19.818	7.024	0.978
199.500	253.730	80.002	19.994	103.943	19.818	7.000	0.971
200.000	254.164	80.004	19.994	103.943	19.815	7.257	1.015
200.500	254.693	80.003	19.995	103.942	19.818	6.977	0.985
201.000	255.179	80.004	19.994	103.943	19.818	7.007	0.989
201.500	255.709	80.003	19.995	103.943	19.819	6.934	1.015
202.000	256.202	80.005	19.995	103.945	19.821	6.765	1.019
202.500	256.701	80.003	19.995	103.946	19.817	7.095	1.007
203.000	257.187	80.005	19.995	103.947	19.820	6.806	0.989
203.500	257.732	80.004	19.994	103.947	19.816	7.172	1.009
204.000	258.204	80.004	19.994	103.947	19.817	7.043	1.024
204.500	258.716	80.004	19.993	103.945	19.819	6.902	1.000
205.000	259.234	80.004	19.994	103.941	19.817	7.043	1.007
205.500	259.696	80.004	19.993	103.937	19.814	7.324	1.005
206.000	260.229	80.002	19.995	103.937	19.813	7.358	0.987
206.500	260.699	80.003	19.995	103.937	19.814	7.285	0.999
207.000	261.189	80.003	19.994	103.938	19.818	6.979	0.982
207.500	261.692	80.004	19.994	103.941	19.817	7.104	0.976
208.000	262.209	80.003	19.994	103.942	19.815	7.269	1.006
208.500	262.673	80.006	19.994	103.939	19.815	7.206	1.001
209.000	263.144	80.006	19.993	103.936	19.814	7.301	0.958
209.500	263.707	80.005	19.993	103.937	19.814	7.328	0.984
210.000	264.148	80.005	19.994	103.938	19.810	7.635	1.019
210.500	264.649	80.004	19.994	103.939	19.811	7.566	0.973
211.000	265.132	80.006	19.993	103.942	19.814	7.300	0.963
211.500	265.620	80.005	19.994	103.943	19.817	7.063	0.978
212.000	266.107	80.006	19.994	103.943	19.810	7.626	0.973
212.500	266.628	80.003	19.992	103.942	19.810	7.588	0.992
213.000	267.118	80.004	19.994	103.943	19.807	7.894	1.010
213.500	267.632	80.006	19.994	103.943	19.811	7.577	1.007
214.000	268.093	80.006	19.994	103.944	19.808	7.791	0.989
214.500	268.622	80.005	19.996	103.945	19.810	7.611	0.982
215.000	269.111	80.006	19.996	103.945	19.807	7.827	1.004
215.500	269.582	80.004	19.994	103.946	19.811	7.581	0.990
216.000	270.117	80.005	19.995	103.944	19.808	7.744	0.983
216.500	270.608	80.005	19.993	103.945	19.809	7.707	1.015
217.000	271.112	80.006	19.993	103.945	19.814	7.313	1.010
217.500	271.610	80.007	19.992	103.946	19.808	7.769	0.999
218.000	272.131	80.005	19.995	103.946	19.811	7.517	1.010
218.500	272.609	80.004	19.994	103.949	19.807	7.827	1.009
219.000	273.084	80.004	19.993	103.949	19.809	7.678	0.976
219.500	273.645	80.004	19.993	103.949	19.808	7.806	0.995
220.000	274.106	80.003	19.993	103.949	19.804	8.080	1.029
220.500	274.625	80.003	19.992	103.948	19.806	7.966	1.001
221.000	275.109	80.003	19.993	103.946	19.804	8.103	0.992
221.500	275.631	80.004	19.993	103.945	19.800	8.420	1.004
222.000	276.107	80.004	19.993	103.944	19.804	8.073	1.002
222.500	276.588	80.004	19.994	103.945	19.801	8.326	0.978
223.000	277.060	80.004	19.994	103.946	19.800	8.418	0.955
223.500	277.584	80.002	19.993	103.948	19.804	8.061	0.974
224.000	278.058	80.004	19.993	103.949	19.798	8.581	0.997
224.500	278.552	80.004	19.994	103.947	19.796	8.721	0.983
225.000	279.087	80.003	19.994	103.947	19.800	8.371	0.999
225.500	279.545	80.002	19.994	103.948	19.796	8.693	1.011
226.000	280.088	80.004	19.993	103.949	19.797	8.654	0.996
226.500	280.563	80.005	19.995	103.949	19.793	8.980	1.009
227.000	281.056	80.004	19.993	103.950	19.794	8.849	0.993
227.500	281.574	80.005	19.993	103.947	19.791	9.102	0.990
228.000	282.062	80.006	19.994	103.946	19.791	9.100	1.009
228.500	282.537	80.004	19.992	103.946	19.790	9.192	0.984
229.000	283.051	80.005	19.993	103.945	19.790	9.196	0.976
229.500	283.570	80.004	19.993	103.945	19.789	9.256	1.011
230.000	284.045	80.004	19.993	103.948	19.787	9.393	1.013
230.500	284.519	80.005	19.993	103.948	19.787	9.421	0.972
231.000	285.021	80.003	19.992	103.942	19.786	9.502	0.962
231.500	285.528	80.005	19.992	103.942	19.788	9.378	0.992
232.000	286.018	80.004	19.992	103.942	19.787	9.455	1.003
232.500	286.519	80.006	19.993	103.940	19.785	9.562	0.994
233.000	287.018	80.006	19.993	103.940	19.780	9.991	0.995
233.500	287.530	80.004	19.993	103.945	19.782	9.824	1.005
234.000	288.011	80.006	19.993	103.945	19.779	10.071	1.002
234.500	288.485	80.004	19.992	103.948	19.777	10.238	0.974
235.000	288.942	80.005	19.992	103.950	19.772	10.573	0.944
235.500	289.472	80.003	19.993	103.950	19.774	10.431	0.959
236.000	289.988	80.005	19.993	103.949	19.773	10.489	1.016
236.500	290.495	80.007	19.993	103.949	19.777	10.198	1.035
237.000	290.975	80.006	19.992	103.949	19.770	10.748	1.006
237.500	291.510	80.005	19.993	103.948	19.774	10.444	1.001
238.000	291.986	80.005	19.993	103.948	19.765	11.138	1.013
238.500	292.474	80.007	19.994	103.949	19.767	10.958	0.987
239.000	292.977	80.006	19.993	103.949	19.768	10.902	0.977
239.500	293.502	80.007	19.993	103.948	19.764	11.247	1.010
240.000	293.991	80.005	19.993	103.948	19.768	10.903	1.021
240.500	294.471	80.006	19.992	103.949	19.762	11.344	0.992
241.000	294.958	80.005	19.993	103.949	19.758	11.709	0.968
241.500	295.477	80.005	19.993	103.949	19.757	11.780	0.987
242.000	295.957	80.006	19.994	103.950	19.756	11.817	1.003
242.500	296.495	80.007	19.994	103.950	19.753	12.113	1.009
243.000	296.936	80.006	19.993	103.950	19.750	12.299	0.999
243.500	297.476	80.005	19.992	103.951	19.749	12.361	0.980
244.000	297.928	80.005	19.994	103.954	19.748	12.462	0.986
244.500	298.450	80.005	19.994	103.958	19.746	12.621	0.982
245.000	298.954	80.006	19.993	103.962	19.748	12.434	1.000
245.500	299.459	80.005	19.993	103.966	19.741	13.013	1.018
246.000	299.932	80.007	19.994	103.966	19.740	13.084	0.994
246.500	300.407	80.006	19.993	103.965	19.736	13.447	0.963
247.000	300.919	80.005	19.992	103.962	19.734	13.570	0.967
247.500	301.473	80.006	19.992	103.964	19.730	13.871	1.026
248.000	301.931	80.006	19.994	103.964	19.732	13.759	1.039
248.500	302.421	80.007	19.993	103.963	19.727	14.128	0.980
249.000	302.884	80.006	19.993	103.965	19.724	14.312	0.950
249.500	303.419	80.007	19.993	103.962	19.724	14.331	0.975
250.000	303.935	80.007	19.993	103.958	19.721	14.586	1.025
250.500	304.432	80.006	19.993	103.960	19.720	14.670	1.032
251.000	304.930	80.006	19.993	103.967	19.716	14.990	1.004
251.500	305.434	80.005	19.992	103.971	19.713	15.213	0.999
252.000	305.928	80.006	19.993	103.978	19.711	15.382	1.000
252.500	306.410	80.007	19.992	103.983	19.703	15.985	0.987
253.000	306.912	80.005	19.995	103.985	19.699	16.283	0.980
253.500	307.418	80.006	19.994	103.985	19.700	16.204	0.996
254.000	307.899	80.007	19.993	103.985	19.699	16.296	0.997
254.500	308.400	80.005	19.992	103.987	19.691	16.918	0.984
255.000	308.914	80.007	19.992	103.986	19.691	16.905	0.998
255.500	309.397	80.007	19.993	103.986	19.693	16.815	1.006
256.000	309.909	80.007	19.992	103.986	19.688	17.134	0.996
256.500	310.375	80.007	19.993	103.990	19.686	17.336	0.986
257.000	310.888	80.006	19.993	103.991	19.682	17.614	0.978
257.500	311.393	80.007	19.993	103.998	19.676	18.073	0.999
258.000	311.908	80.006	19.993	104.004	19.674	18.254	1.019
258.500	312.439	80.006	19.993	104.009	19.667	18.774	1.033
259.000	312.960	80.008	19.993	104.006	19.668	18.769	1.049
259.500	313.409	80.006	19.993	104.009	19.655	19.753	1.011
260.000	313.954	80.007	19.993	104.007	19.653	19.885	0.982
260.500	314.397	80.007	19.993	104.007	19.652	19.988	0.991
261.000	314.915	80.007	19.993	104.008	19.647	20.364	0.975
261.500	315.425	80.006	19.993	104.011	19.640	20.919	0.995
262.000	315.908	80.007	19.993	104.013	19.638	21.098	1.010
262.500	316.419	80.008	19.993	104.016	19.634	21.429	0.993
263.000	316.933	80.008	19.995	104.017	19.630	21.748	1.009
263.500	317.457	80.006	19.993	104.019	19.623	22.235	1.032
264.000	317.917	80.007	19.994	104.024	19.615	22.910	1.011
264.500	318.461	80.008	19.994	104.024	19.611	23.238	0.994
265.000	318.932	80.009	19.993	104.023	19.607	23.537	1.010
265.500	319.432	80.007	19.993	104.023	19.605	23.708	0.993
266.000	319.919	80.007	19.993	104.024	19.596	24.415	0.979
266.500	320.381	80.007	19.993	104.023	19.592	24.724	0.968
267.000	320.935	80.006	19.994	104.023	19.586	25.182	0.982
267.500	321.438	80.008	19.994	104.023	19.578	25.819	1.036
268.000	321.901	80.006	19.994	104.023	19.572	26.250	1.012
268.500	322.449	80.006	19.992	104.024	19.565	26.807	0.989
269.000	322.901	80.007	19.994	104.031	19.562	27.068	1.006
269.500	323.415	80.007	19.994	104.039	19.555	27.640	0.983
270.000	323.935	80.007	19.993	104.047	19.548	28.181	1.000
270.500	324.446	80.006	19.993	104.055	19.537	28.999	1.032
271.000	324.928	80.007	19.995	104.061	19.531	29.505	1.012
271.500	325.406	80.006	19.993	104.063	19.525	29.943	0.977
272.000	325.952	80.005	19.994	104.070	19.512	30.971	0.992
272.500	326.399	80.005	19.993	104.077	19.514	30.831	1.008
273.000	326.935	80.005	19.995	104.082	19.502	31.765	0.988
273.500	327.438	80.004	19.994	104.086	19.497	32.163	1.012
274.000	327.921	80.006	19.995	104.092	19.487	32.937	1.012
274.500	328.433	80.007	19.994	104.093	19.479	33.610	0.990
275.000	328.927	80.005	19.996	104.094	19.470	34.283	1.000
275.500	329.440	80.006	19.997	104.101	19.458	35.200	1.007
276.000	329.942	80.004	19.994	104.114	19.455	35.469	1.011
276.500	330.459	80.006	19.994	104.121	19.443	36.448	1.017
277.000	330.932	80.004	19.994	104.127	19.436	36.974	1.004
277.500	331.412	80.005	19.994	104.134	19.425	37.827	0.972
278.000	331.904	80.005	19.994	104.138	19.414	38.657	0.963
278.500	332.445	80.006	19.993	104.139	19.406	39.362	1.002
279.000	332.935	80.005	19.995	104.147	19.393	40.340	1.032
279.500	333.433	80.005	19.993	104.151	19.377	41.594	1.010
280.000	333.956	80.004	19.994	104.155	19.368	42.349	1.005
280.500	334.450	80.005	19.994	104.162	19.353	43.518	1.019
281.000	335.009	80.003	19.994	104.169	19.349	43.810	1.035
281.500	335.488	80.005	19.994	104.172	19.322	45.948	1.046
282.000	335.980	80.004	19.994	104.177	19.316	46.423	1.005
282.500	336.497	80.003	19.993	104.184	19.299	47.762	0.990
283.000	337.010	80.003	19.994	104.190	19.291	48.401	1.020
283.500	337.481	80.005	19.994	104.198	19.272	49.920	1.007
284.000	337.992	80.005	19.993	104.205	19.258	51.023	0.983
284.500	338.500	80.004	19.993	104.214	19.247	51.877	1.001
285.000	339.014	80.005	19.994	104.220	19.227	53.420	1.021
285.500	339.542	80.006	19.993	104.228	19.213	54.537	1.032
286.000	339.989	80.005	19.993	104.236	19.196	55.897	1.008
286.500	340.516	80.006	19.993	104.244	19.180	57.106	0.975
287.000	341.036	80.004	19.993	104.253	19.164	58.422	1.011
287.500	341.531	80.005	19.994	104.262	19.152	59.344	1.031
288.000	342.023	80.003	19.993	104.267	19.130	61.125	1.001
288.500	342.520	80.003	19.994	104.274	19.113	62.462	0.988
289.000	343.033	80.004	19.993	104.282	19.091	64.154	1.000
289.500	343.545	80.005	19.994	104.293	19.073	65.577	1.017
290.000	344.043	80.005	19.995	104.307	19.054	67.102	1.017
290.500	344.570	80.005	19.995	104.320	19.031	68.898	1.018
291.000	345.022	80.004	19.993	104.328	19.007	70.769	1.003
291.500	345.519	80.004	19.994	104.336	18.989	72.250	0.964
292.000	346.012	80.006	19.994	104.341	18.966	74.067	0.969
292.500	346.493	80.003	19.993	104.349	18.944	75.809	0.982
293.000	347.031	80.005	19.994	104.357	18.923	77.436	0.996
293.500	347.506	80.004	19.994	104.370	18.894	79.722	1.016
294.000	348.031	80.004	19.994	104.385	18.875	81.241	1.007
294.500	348.486	80.004	19.994	104.400	18.850	83.191	0.991
295.000	349.007	80.005	19.994	104.409	18.824	85.276	0.978
295.500	349.536	80.005	19.994	104.421	18.799	87.265	1.013
296.000	350.018	80.005	19.994	104.431	18.772	89.430	1.030
296.500	350.527	80.004	19.994	104.439	18.746	91.477	1.001
297.000	351.006	80.005	19.994	104.453	18.717	93.722	0.989
297.500	351.498	80.004	19.994	104.467	18.687	96.158	0.980
298.000	351.994	80.003	19.995	104.480	18.658	98.416	0.979
298.500	352.574	80.003	19.994	104.493	18.634	100.356	1.032
299.000	353.046	80.003	19.995	104.510	18.597	103.248	1.065
299.500	353.543	80.003	19.994	104.524	18.569	105.479	1.010
300.000	354.015	80.003	19.995	104.536	18.538	107.924	0.969
300.500	354.522	80.003	19.992	104.549	18.507	110.375	0.974
301.000	355.072	80.002	19.994	104.563	18.474	113.013	1.018
301.500	355.551	80.004	19.995	104.572	18.442	115.508	1.043
302.000	356.091	80.003	19.994	104.583	18.407	118.283	1.024
302.500	356.556	80.003	19.994	104.596	18.377	120.698	1.012
303.000	357.048	80.003	19.994	104.612	18.346	123.183	0.981
303.500	357.564	80.004	19.994	104.625	18.305	126.402	0.983
304.000	358.055	80.003	19.993	104.639	18.273	128.901	1.008
304.500	358.534	80.003	19.993	104.651	18.236	131.846	0.989
305.000	359.022	80.004	19.993	104.666	18.205	134.276	0.969
305.501	359.549	80.003	19.994	104.678	18.171	137.026	0.991
306.000	360.023	80.004	19.994	104.694	18.129	140.297	1.008
306.500	360.556	80.004	19.993	104.710	18.099	142.689	1.004
307.000	361.014	80.005	19.994	104.723	18.058	145.899	0.999
307.500	361.506	80.003	19.993	104.738	18.024	148.581	0.970
308.000	361.999	80.006	19.993	104.753	17.984	151.761	0.968
308.500	362.525	80.004	19.994	104.769	17.941	155.150	1.002
309.000	362.996	80.005	19.994	104.783	17.906	157.914	1.008
309.500	363.515	80.004	19.994	104.797	17.870	160.773	0.994
310.000	363.964	80.003	19.993	104.810	17.831	163.864	0.979
310.500	364.475	80.005	19.992	104.822	17.793	166.814	0.964
311.000	364.957	80.003	19.994	104.830	17.754	169.854	0.976
311.500	365.465	80.006	19.994	104.840	17.717	172.748	0.992
312.000	365.965	80.006	19.993	104.853	17.675	176.033	0.999
312.500	366.450	80.005	19.994	104.864	17.637	179.062	0.997
313.000	366.955	80.004	19.995	104.875	17.601	181.855	0.987
313.500	367.454	80.006	19.994	104.887	17.564	184.781	0.997
314.000	367.937	80.006	19.994	104.900	17.523	187.989	0.993
314.500	368.418	80.006	19.994	104.910	17.484	191.087	0.973
315.000	368.900	80.006	19.993	104.919	17.449	193.781	0.964
315.500	369.391	80.005	19.994	104.925	17.408	197.063	0.968
316.000	369.890	80.005	19.994	104.932	17.370	200.035	0.981
316.500	370.377	80.006	19.993	104.937	17.337	202.631	0.988
317.000	370.898	80.005	19.994	104.942	17.302	205.368	0.997
317.500	371.364	80.006	19.993	104.943	17.265	208.302	0.998
318.000	371.881	80.005	19.994	104.942	17.230	211.002	0.985
318.500	372.382	80.007	19.994	104.943	17.195	213.747	1.000
319.000	372.874	80.006	19.993	104.945	17.162	216.331	1.005
319.500	373.366	80.006	19.992	104.946	17.134	218.476	0.989
320.000	373.849	80.007	19.993	104.945	17.100	221.118	0.980
320.500	374.402	80.006	19.993	104.946	17.071	223.345	1.005
321.000	374.842	80.006	19.993	104.941	17.041	225.672	1.014
321.500	375.340	80.006	19.993	104.933	17.010	228.139	0.966
322.000	375.855	80.005	19.994	104.924	16.982	230.269	0.976
322.500	376.325	80.006	19.994	104.915	16.961	231.915	0.999
323.000	376.835	80.005	19.993	104.903	16.933	234.059	0.983
323.500	377.330	80.006	19.992	104.892	16.907	236.106	0.992
324.000	377.833	80.006	19.992	104.880	16.887	237.652	1.001
324.500	378.296	80.006	19.992	104.872	16.868	239.124	0.982
325.000	378.796	80.006	19.993	104.865	16.846	240.790	0.964
325.500	379.297	80.006	19.993	104.859	16.829	242.075	0.982
326.000	379.800	80.006	19.995	104.855	16.811	243.430	1.002
326.500	380.303	80.007	19.993	104.852	16.801	244.191	1.005
327.000	380.781	80.005	19.992	104.847	16.788	245.137	0.994
327.500	381.270	80.005	19.992	104.841	16.779	245.751	0.974
328.000	381.756	80.005	19.993	104.839	16.778	245.785	0.970
328.500	382.263	80.007	19.993	104.833	16.765	246.807	0.984
329.000	382.742	80.006	19.994	104.823	16.762	246.972	0.990
329.500	383.211	80.006	19.994	104.811	16.762	246.909	0.967
330.000	383.717	80.005	19.992	104.800	16.760	246.984	0.961
330.500	384.226	80.006	19.994	104.779	16.765	246.525	0.995
331.000	384.715	80.005	19.993	104.761	16.771	246.027	1.007
331.500	385.223	80.006	19.992	104.748	16.773	245.808	0.997
332.000	385.738	80.006	19.993	104.734	16.785	244.801	1.010
332.500	386.225	80.005	19.992	104.720	16.797	243.778	1.013
333.000	386.743	80.004	19.994	104.707	16.811	242.701	1.003
333.500	387.235	80.006	19.996	104.693	16.828	241.254	1.008
334.000	387.740	80.006	19.995	104.677	16.848	239.686	1.003
334.500	388.215	80.006	19.997	104.659	16.871	237.839	0.988
335.000	388.746	80.006	19.995	104.641	16.892	236.143	0.993
335.501	389.231	80.005	19.995	104.627	16.921	233.836	1.011
336.001	389.738	80.006	19.995	104.609	16.948	231.611	1.004
336.500	390.242	80.005	19.994	104.589	16.983	228.864	1.001
337.000	390.746	80.006	19.993	104.568	17.014	226.375	1.009
337.500	391.253	80.006	19.995	104.546	17.051	223.514	1.010
338.000	391.757	80.005	19.993	104.523	17.089	220.493	1.011
338.501	392.265	80.007	19.995	104.501	17.131	217.130	1.012
339.000	392.762	80.005	19.993	104.480	17.169	214.123	1.008
339.500	393.277	80.007	19.992	104.459	17.217	210.363	1.009
340.000	393.821	80.007	19.993	104.436	17.268	206.365	1.035
340.500	394.297	80.008	19.992	104.413	17.312	202.890	1.039
341.000	394.844	80.006	19.993	104.388	17.365	198.764	1.021
341.500	395.318	80.007	19.993	104.359	17.417	194.654	1.022
342.000	395.862	80.008	19.993	104.332	17.469	190.582	1.020
342.500	396.377	80.008	19.992	104.308	17.524	186.298	1.039
343.000	396.867	80.007	19.993	104.286	17.585	181.525	1.032
343.500	397.359	80.008	19.993	104.262	17.647	176.648	0.994
344.000	397.895	80.007	19.993	104.238	17.703	172.291	1.005
344.500	398.387	80.007	19.992	104.217	17.767	167.252	1.028
345.000	398.909	80.009	19.993	104.195	17.827	162.575	1.021
345.500	399.429	80.006	19.992	104.169	17.889	157.728	1.028
346.000	399.902	80.008	19.993	104.146	17.955	152.561	1.017
346.500	400.453	80.008	19.993	104.130	18.021	147.397	1.008
347.000	400.983	80.008	19.993	104.110	18.086	142.353	1.052
347.500	401.475	80.008	19.992	104.092	18.154	137.027	1.052
348.000	401.945	80.007	19.993	104.075	18.214	132.300	0.992
348.500	402.508	80.007	19.992	104.061	18.283	126.939	0.997
349.000	403.013	80.006	19.993	104.046	18.350	121.675	1.050
349.500	403.540	80.007	19.992	104.033	18.413	116.724	1.050
350.000	404.020	80.007	19.992	104.017	18.477	111.754	1.019
350.500	404.540	80.007	19.992	104.007	18.539	106.873	1.004
351.000	405.067	80.007	19.992	103.997	18.605	101.766	1.024
351.500	405.596	80.008	19.993	103.986	18.666	97.010	1.051
352.000	406.103	80.005	19.994	103.975	18.729	92.072	1.046
352.500	406.607	80.006	19.994	103.969	18.788	87.464	1.024
353.000	407.116	80.008	19.992	103.961	18.844	83.056	1.012
353.500	407.684	80.005	19.993	103.954	18.897	78.926	1.045
354.000	408.188	80.005	19.993	103.949	18.949	74.893	1.075
354.500	408.675	80.004	19.993	103.946	19.002	70.730	1.031
355.000	409.188	80.005	19.993	103.939	19.053	66.713	0.995
355.500	409.763	80.005	19.993	103.936	19.103	62.806	1.044
356.000	410.256	80.005	19.993	103.934	19.150	59.152	1.078
356.500	410.774	80.005	19.992	103.933	19.190	56.037	1.040
357.000	411.301	80.006	19.994	103.931	19.234	52.627	1.028
357.500	411.805	80.003	19.992	103.931	19.271	49.709	1.038
358.000	412.348	80.004	19.992	103.927	19.310	46.656	1.039
358.500	412.862	80.004	19.994	103.918	19.346	43.872	1.052
359.000	413.349	80.003	19.993	103.911	19.384	40.920	1.029
359.500	413.871	80.003	19.994	103.906	19.418	38.244	1.005
360.000	414.386	80.003	19.993	103.904	19.444	36.215	1.023
360.500	414.920	80.004	19.994	103.903	19.475	33.739	1.043
361.000	415.406	80.006	19.993	103.903	19.500	31.779	1.034
361.500	415.954	80.007	19.993	103.900	19.523	30.008	1.027
362.000	416.445	80.004	19.993	103.901	19.548	28.049	1.037
362.500	416.976	80.006	19.993	103.897	19.567	26.548	1.031
363.000	417.502	80.003	19.993	103.890	19.589	24.866	1.039
363.500	418.026	80.005	19.994	103.888	19.608	23.373	1.054
364.000	418.554	80.004	19.994	103.886	19.626	21.993	1.051
364.500	419.092	80.005	19.994	103.887	19.638	21.005	1.059
365.000	419.617	80.004	19.994	103.889	19.654	19.783	1.064
365.500	420.160	80.003	19.993	103.896	19.666	18.835	1.065
366.000	420.631	80.006	19.994	103.896	19.682	17.642	1.041
366.500	421.200	80.005	19.993	103.895	19.693	16.730	1.027
367.000	421.680	80.003	19.993	103.888	19.703	15.957	1.045
367.500	422.211	80.007	19.994	103.882	19.708	15.581	1.030
368.000	422.746	80.009	19.994	103.876	19.720	14.633	1.039
368.500	423.242	80.003	19.994	103.874	19.731	13.741	1.049
369.000	423.777	80.006	19.993	103.871	19.735	13.485	1.031
369.500	424.315	80.004	19.993	103.871	19.745	12.719	1.052
370.000	424.810	80.006	19.994	103.870	19.747	12.502	1.053
370.500	425.351	80.006	19.993	103.868	19.756	11.800	1.034
371.000	425.855	80.004	19.993	103.859	19.760	11.514	1.041
371.500	426.386	80.004	19.993	103.852	19.767	10.930	1.040
372.000	426.919	80.005	19.994	103.844	19.767	10.945	1.049
372.500	427.401	80.005	19.994	103.839	19.772	10.616	1.039
373.000	427.958	80.004	19.993	103.834	19.775	10.312	1.027
373.500	428.459	80.006	19.993	103.835	19.780	9.989	1.048
374.000	428.975	80.003	19.994	103.835	19.782	9.803	1.037
374.500	429.504	80.006	19.994	103.835	19.782	9.811	1.031
375.000	430.002	80.004	19.993	103.835	19.788	9.311	1.036
375.500	430.533	80.007	19.993	103.833	19.791	9.120	1.028
376.000	431.029	80.005	19.994	103.832	19.792	9.005	1.028
376.500	431.551	80.006	19.993	103.831	19.797	8.654	1.022
377.000	432.108	80.005	19.993	103.831	19.794	8.861	1.049
377.500	432.595	80.006	19.994	103.829	19.797	8.604	1.062
378.000	433.141	80.005	19.994	103.827	19.797	8.631	1.039
378.500	433.630	80.006	19.994	103.826	19.804	8.101	1.034
379.000	434.185	80.004	19.993	103.827	19.800	8.411	1.040
379.500	434.686	80.007	19.994	103.827	19.802	8.225	1.050
380.000	435.228	80.006	19.993	103.828	19.802	8.223	1.049
380.500	435.768	80.006	19.994	103.828	19.805	8.001	1.063
381.000	436.254	80.005	19.994	103.821	19.808	7.778	1.054
381.500	436.750	80.004	19.994	103.819	19.810	7.620	1.004
382.000	437.318	80.006	19.994	103.818	19.807	7.827	1.023
382.500	437.819	80.004	19.996	103.817	19.807	7.813	1.067
383.000	438.340	80.004	19.995	103.819	19.809	7.659	1.046
383.500	438.830	80.004	19.995	103.825	19.812	7.465	1.017
384.000	439.372	80.006	19.994	103.827	19.810	7.581	1.021
384.500	439.885	80.003	19.994	103.827	19.816	7.136	1.043
385.000	440.391	80.005	19.994	103.825	19.815	7.204	1.037
385.500	440.945	80.003	19.994	103.822	19.815	7.257	1.040
386.000	441.409	80.004	19.994	103.822	19.812	7.493	1.038
386.500	441.915	80.005	19.994	103.820	19.818	6.983	0.994
387.000	442.425	80.005	19.995	103.818	19.819	6.891	0.993
387.500	442.952	80.004	19.994	103.818	19.817	7.031	1.027
388.000	443.478	80.004	19.995	103.813	19.819	6.873	1.045
388.500	444.006	80.004	19.994	103.809	19.822	6.691	1.053
389.000	444.515	80.004	19.997	103.805	19.821	6.724	1.045
389.500	445.024	80.005	19.997	103.805	19.819	6.889	1.028
390.000	445.532	80.002	19.996	103.803	19.820	6.863	1.018
390.500	446.053	80.006	19.996	103.806	19.818	6.951	1.023
391.000	446.514	80.003	19.995	103.808	19.818	6.949	1.006
391.500	447.058	80.004	19.997	103.809	19.819	6.891	0.993
392.000	447.565	80.004	19.996	103.803	19.821	6.728	1.028
392.500	448.105	80.004	19.995	103.802	19.820	6.822	1.049
393.000	448.624	80.006	19.998	103.804	19.821	6.751	1.053
393.500	449.102	80.003	19.997	103.809	19.821	6.760	1.028
394.000	449.593	80.004	19.997	103.813	19.819	6.927	0.983
394.500	450.123	80.006	19.997	103.818	19.823	6.587	0.996
395.000	450.622	80.006	19.996	103.823	19.819	6.906	1.025
395.500	451.123	80.006	19.995	103.824	19.819	6.936	1.014
396.000	451.639	80.008	19.995	103.822	19.820	6.801	1.008
396.500	452.157	80.009	19.995	103.821	19.821	6.720	1.025
397.000	452.686	80.005	19.994	103.819	19.820	6.851	1.040
397.501	453.176	80.004	19.995	103.813	19.820	6.853	1.033
398.000	453.688	80.007	19.995	103.805	19.818	7.013	1.011
398.500	454.214	80.006	19.995	103.801	19.822	6.685	1.020
399.000	454.726	80.009	19.995	103.798	19.822	6.640	1.038
399.500	455.258	80.007	19.994	103.796	19.823	6.597	1.041
400.000	455.743	80.007	19.994	103.801	19.823	6.590	1.030
400.500	456.247	80.005	19.994	103.808	19.821	6.719	1.003
401.000	456.761	80.011	19.993	103.814	19.826	6.370	1.003
401.500	457.241	80.005	19.994	103.820	19.822	6.687	1.006
402.000	457.793	80.006	19.994	103.819	19.824	6.492	1.013
402.500	458.328	80.009	19.994	103.813	19.822	6.710	1.059
403.000	458.779	80.006	19.994	103.808	19.825	6.477	1.037
403.500	459.287	80.008	19.994	103.802	19.825	6.445	0.973
404.000	459.846	80.006	19.993	103.796	19.824	6.554	1.013
404.500	460.319	80.006	19.993	103.798	19.825	6.475	1.049
405.000	460.860	80.007	19.993	103.805	19.823	6.588	1.023
405.500	461.343	80.006	19.993	103.810	19.825	6.411	1.019
406.000	461.850	80.009	19.993	103.809	19.823	6.574	1.007
406.500	462.368	80.005	19.993	103.813	19.823	6.595	1.007
407.000	462.871	80.007	19.992	103.815	19.826	6.343	1.023
407.500	463.355	80.006	19.993	103.815	19.826	6.385	1.004
408.000	463.893	80.005	19.993	103.815	19.825	6.413	1.004
408.500	464.363	80.007	19.994	103.816	19.827	6.316	1.015
409.000	464.850	80.003	19.993	103.811	19.826	6.351	0.983
409.500	465.392	80.007	19.994	103.805	19.824	6.489	0.993
410.000	465.884	80.007	19.992	103.798	19.825	6.411	1.031
410.500	466.379	80.005	19.994	103.793	19.823	6.590	1.010
411.000	466.872	80.005	19.993	103.793	19.828	6.210	0.987
411.500	467.392	80.004	19.994	103.793	19.826	6.364	1.001
412.000	467.909	80.005	19.994	103.793	19.827	6.289	1.025
412.500	468.411	80.004	19.994	103.791	19.826	6.381	1.028
413.000	468.900	80.006	19.993	103.790	19.826	6.332	1.004
413.500	469.418	80.004	19.994	103.788	19.827	6.306	0.999
414.000	469.913	80.006	19.993	103.787	19.824	6.518	1.010
414.500	470.453	80.007	19.994	103.787	19.828	6.218	1.024
415.000	470.957	80.005	19.993	103.791	19.828	6.167	1.039
415.500	471.456	80.007	19.993	103.791	19.824	6.505	1.024
416.000	471.974	80.005	19.993	103.793	19.825	6.456	1.010
416.500	472.473	80.005	19.993	103.795	19.827	6.317	1.017
417.000	472.973	80.008	19.993	103.797	19.825	6.432	1.008
417.500	473.485	80.005	19.994	103.796	19.829	6.122	1.006
418.000	474.015	80.006	19.993	103.797	19.825	6.443	1.027
418.500	474.516	80.006	19.993	103.793	19.827	6.281	1.037
419.000	475.058	80.006	19.994	103.788	19.825	6.417	1.037
419.500	475.533	80.005	19.994	103.786	19.829	6.159	1.030
420.000	476.062	80.005	19.993	103.786	19.827	6.302	1.010
420.500	476.568	80.006	19.993	103.785	19.826	6.364	1.019
421.000	477.065	80.006	19.993	103.789	19.829	6.124	1.019
421.500	477.569	80.005	19.994	103.791	19.827	6.321	1.002
422.000	478.072	80.008	19.993	103.792	19.829	6.141	1.004
422.500	478.604	80.006	19.992	103.791	19.828	6.233	1.021
423.000	479.112	80.007	19.993	103.792	19.829	6.139	1.037
423.500	479.606	80.006	19.994	103.791	19.825	6.473	1.021
424.000	480.104	80.008	19.994	103.791	19.824	6.544	0.997
424.500	480.599	80.007	19.994	103.792	19.827	6.296	0.993
425.000	481.085	80.006	19.993	103.791	19.823	6.582	0.987
425.500	481.612	80.007	19.994	103.791	19.828	6.221	0.997
426.000	482.142	80.006	19.995	103.791	19.830	6.048	1.035
426.500	482.669	80.008	19.993	103.791	19.823	6.589	1.057
427.000	483.117	80.008	19.993	103.790	19.828	6.223	1.016
427.500	483.653	80.009	19.993	103.791	19.828	6.236	0.980
428.000	484.172	80.007	19.994	103.791	19.828	6.175	1.019
428.500	484.678	80.009	19.993	103.792	19.826	6.331	1.040
429.000	485.137	80.008	19.993	103.796	19.829	6.102	0.995
429.500	485.643	80.007	19.993	103.797	19.826	6.376	0.965
430.000	486.143	80.006	19.992	103.796	19.826	6.384	0.985
430.500	486.654	80.006	19.994	103.797	19.827	6.255	1.008
431.000	487.175	80.008	19.992	103.796	19.830	6.065	1.021
431.500	487.704	80.006	19.993	103.793	19.831	5.986	1.041
432.000	488.181	80.006	19.993	103.793	19.831	5.984	1.028
432.500	488.690	80.005	19.993	103.793	19.830	6.024	0.996
433.000	489.208	80.006	19.994	103.792	19.825	6.463	1.007
433.500	489.699	80.008	19.992	103.792	19.831	5.973	1.018
434.000	490.222	80.005	19.993	103.793	19.829	6.097	1.012
434.500	490.759	80.006	19.994	103.793	19.834	5.731	1.037
435.000	491.244	80.006	19.993	103.796	19.832	5.875	1.041
435.500	491.726	80.005	19.993	103.798	19.833	5.838	0.995
436.000	492.240	80.006	19.992	103.799	19.832	5.869	0.982
436.500	492.762	80.003	19.994	103.798	19.832	5.924	1.016
437.000	493.234	80.004	19.992	103.799	19.833	5.828	1.015
437.500	493.787	80.005	19.993	103.802	19.829	6.100	1.009
438.000	494.298	80.005	19.992	103.806	19.835	5.646	1.044
438.500	494.794	80.005	19.993	103.807	19.833	5.843	1.036
439.000	495.321	80.004	19.992	103.813	19.834	5.710	1.015
439.500	495.813	80.006	19.992	103.816	19.832	5.902	1.021
440.000	496.341	80.005	19.993	103.815	19.833	5.844	1.020
440.500	496.840	80.005	19.992	103.812	19.835	5.669	1.024
441.000	497.342	80.003	19.993	103.811	19.835	5.650	1.013
441.500	497.848	80.005	19.993	103.805	19.832	5.923	1.005
442.000	498.369	80.006	19.993	103.805	19.836	5.557	1.018
442.500	498.877	80.004	19.993	103.801	19.835	5.681	1.028
443.000	499.430	80.006	19.993	103.800	19.836	5.568	1.045
443.500	499.902	80.006	19.994	103.799	19.834	5.725	1.043
444.000	500.383	80.007	19.992	103.800	19.836	5.582	0.989
444.500	500.908	80.005	19.993	103.803	19.834	5.745	0.980
445.000	501.455	80.007	19.994	103.805	19.837	5.505	1.039
445.500	501.956	80.006	19.993	103.803	19.836	5.560	1.060
446.000	502.452	80.004	19.993	103.804	19.832	5.885	1.023
446.500	502.966	80.005	19.993	103.805	19.832	5.868	1.003
447.000	503.465	80.005	19.994	103.807	19.837	5.509	1.011
447.500	504.016	80.006	19.994	103.810	19.834	5.751	1.031
448.000	504.491	80.008	19.992	103.815	19.834	5.747	1.038
448.500	504.994	80.003	19.994	103.814	19.838	5.409	1.002
449.000	505.517	80.003	19.994	103.812	19.838	5.451	1.002
449.500	506.040	80.005	19.994	103.806	19.838	5.436	1.036
450.000	506.541	80.006	19.994	103.801	19.836	5.569	1.035
450.500	507.041	80.005	19.994	103.798	19.839	5.329	1.013
451.000	507.580	80.004	19.993	103.797	19.837	5.538	1.020
451.500	508.084	80.005	19.993	103.795	19.837	5.540	1.041
452.000	508.589	80.003	19.995	103.794	19.839	5.342	1.026
452.500	509.085	80.006	19.993	103.791	19.838	5.436	1.005
453.000	509.584	80.013	19.993	103.789	19.833	5.791	0.998
453.500	510.101	80.003	19.994	103.790	19.835	5.643	1.005
454.000	510.617	80.007	19.995	103.795	19.840	5.241	1.025
454.500	511.116	80.007	19.994	103.798	19.836	5.579	1.025
455.000	511.603	80.005	19.994	103.803	19.839	5.333	1.001
455.500	512.120	80.007	19.994	103.809	19.837	5.496	0.995
456.000	512.666	80.007	19.995	103.809	19.838	5.412	1.034
456.500	513.161	80.005	19.995	103.805	19.837	5.495	1.052
457.000	513.686	80.005	19.993	103.805	19.837	5.489	1.030
457.500	514.195	79.999	19.993	103.806	19.837	5.491	1.027
458.000	514.656	80.005	19.994	103.802	19.843	5.021	1.002
458.500	515.213	80.007	19.994	103.805	19.844	4.946	0.994
459.000	515.730	80.007	19.993	103.809	19.843	5.015	1.046
459.500	516.270	80.003	19.992	103.809	19.841	5.181	1.065
460.000	516.725	80.006	19.995	103.803	19.842	5.107	1.026
460.500	517.252	80.005	19.994	103.800	19.839	5.337	0.988
461.000	517.795	80.004	19.994	103.797	19.839	5.328	1.026
461.500	518.287	80.005	19.996	103.793	19.840	5.256	1.052
462.000	518.804	80.002	19.994	103.792	19.839	5.381	1.022
462.500	519.305	80.007	19.994	103.792	19.838	5.388	1.014
463.000	519.827	80.005	19.994	103.792	19.840	5.236	1.021
463.500	520.337	80.005	19.994	103.792	19.837	5.477	1.028
464.000	520.846	80.005	19.993	103.791	19.837	5.467	1.025
464.500	521.354	80.005	19.994	103.790	19.839	5.319	1.018
465.000	521.838	80.003	19.996	103.791	19.841	5.225	1.005
465.500	522.410	80.005	19.994	103.791	19.842	5.135	1.024
466.000	522.862	80.006	19.994	103.791	19.837	5.524	1.040
466.500	523.362	80.004	19.993	103.792	19.842	5.144	0.988
467.000	523.888	80.003	19.994	103.790	19.840	5.258	0.989
467.500	524.399	80.002	19.994	103.789	19.842	5.151	1.032
468.000	524.903	80.002	19.994	103.788	19.839	5.331	1.026
468.500	525.425	80.006	19.993	103.788	19.841	5.209	1.020
469.000	525.921	80.002	19.994	103.788	19.840	5.301	1.022
469.500	526.449	80.005	19.994	103.791	19.841	5.190	1.021
470.000	526.987	80.007	19.993	103.795	19.840	5.271	1.046
470.500	527.474	80.003	19.994	103.797	19.843	5.008	1.046
471.000	527.955	79.996	19.994	103.797	19.838	5.463	0.996
471.500	528.507	80.004	19.994	103.795	19.841	5.155	1.000
472.000	529.045	80.002	19.994	103.771	19.843	5.010	1.062
472.500	529.531	80.003	19.994	103.743	19.839	5.359	1.057
473.000	530.020	80.001	19.995	103.732	19.843	5.057	0.999
473.500	530.556	80.000	19.994	103.730	19.843	5.047	1.000
474.000	531.064	80.019	19.992	103.732	19.841	5.156	1.034
474.500	531.540	80.004	19.993	103.759	19.841	5.186	1.014
475.000	532.051	80.005	19.994	103.817	19.841	5.158	0.986
475.500	532.594	80.004	19.993	103.845	19.845	4.869	1.020
476.000	533.084	80.001	19.994	103.854	19.846	4.805	1.044
476.500	533.591	80.001	19.996	103.854	19.849	4.531	1.015
477.000	534.113	80.002	19.994	103.845	19.847	4.689	1.013
477.500	534.614	80.004	19.994	103.813	19.847	4.685	1.026
478.000	535.136	80.004	19.993	103.797	19.847	4.751	1.023
478.500	535.686	80.008	19.994	103.791	19.847	4.726	1.047
479.000	536.176	80.002	19.994	103.792	19.846	4.796	1.056
479.500	536.688	80.004	19.993	103.795	19.848	4.647	1.021
480.000	537.168	80.005	19.994	103.793	19.843	5.070	0.997
480.500	537.736	80.005	19.995	103.792	19.846	4.820	1.020
481.000	538.197	80.004	19.995	103.791	19.848	4.660	1.038
481.500	538.733	80.009	19.994	103.790	19.845	4.903	1.013
482.000	539.216	79.995	19.996	103.791	19.849	4.604	1.008
482.500	539.743	80.003	19.994	103.789	19.847	4.698	1.014
483.000	540.210	80.001	19.993	103.789	19.847	4.696	1.002
483.500	540.746	80.012	19.994	103.791	19.846	4.814	0.999
484.000	541.291	80.011	19.993	103.791	19.846	4.784	1.042
484.500	541.758	80.005	19.993	103.793	19.845	4.903	1.046
485.000	542.267	80.008	19.994	103.796	19.845	4.865	0.994
485.500	542.777	80.002	19.996	103.795	19.845	4.848	0.997
486.000	543.277	80.007	19.993	103.794	19.844	4.931	1.014
486.500	543.757	80.003	19.994	103.794	19.847	4.753	0.995
487.000	544.317	80.009	19.994	103.791	19.845	4.903	1.010
487.500	544.807	80.002	19.994	103.791	19.843	5.031	1.045
488.000	545.276	80.007	19.993	103.790	19.846	4.771	1.005
488.500	545.797	80.005	19.995	103.791	19.848	4.647	0.974
489.000	546.300	80.002	19.996	103.790	19.847	4.702	1.007
489.500	546.812	80.008	19.994	103.789	19.847	4.747	1.020
490.000	547.347	80.014	19.992	103.791	19.851	4.384	1.031
490.500	547.904	80.006	19.994	103.794	19.848	4.645	1.069
491.000	548.350	80.002	19.993	103.795	19.849	4.598	1.047
491.500	548.906	80.008	19.993	103.796	19.851	4.448	1.003
492.000	549.355	80.008	19.993	103.797	19.845	4.867	1.004
492.500	549.883	80.009	19.993	103.795	19.851	4.382	0.991
493.000	550.426	80.006	19.994	103.795	19.847	4.726	1.024
493.500	550.908	80.008	19.994	103.795	19.848	4.649	1.048
494.000	551.383	80.005	19.994	103.795	19.847	4.724	0.991
494.500	551.910	80.009	19.994	103.797	19.853	4.228	0.979
495.000	552.433	80.005	19.994	103.798	19.850	4.512	1.026
495.500	552.874	80.004	19.994	103.795	19.852	4.341	1.007
496.000	553.451	80.010	19.994	103.792	19.850	4.506	0.991
496.500	553.971	80.005	19.995	103.791	19.851	4.399	1.058
497.000	554.429	80.005	19.993	103.789	19.850	4.505	1.038
497.500	554.953	80.003	19.994	103.788	19.854	4.180	0.980
498.000	555.445	80.005	19.993	103.789	19.848	4.618	0.999
498.500	555.967	80.004	19.993	103.791	19.851	4.407	1.015
499.000	556.503	80.009	19.992	103.793	19.852	4.347	1.036
499.500	556.954	80.003	19.994	103.794	19.849	4.576	1.023
500.000	557.501	80.005	19.994	103.794	19.852	4.351	0.992
500.500	558.006	80.006	19.993	103.794	19.863	3.505	1.024
501.000	558.456	80.005	19.993	103.794	19.856	3.992	1.003
501.500	559.047	80.006	19.993	103.793	19.846	4.811	0.998
502.000	559.474	80.006	19.994	103.793	19.851	4.407	1.030
502.500	560.026	80.007	19.993	103.795	19.855	4.091	0.998
503.000	560.534	80.001	19.995	103.795	19.852	4.369	1.019
503.500	560.989	80.008	19.993	103.794	19.856	3.984	1.011
504.000	561.560	80.007	19.993	103.794	19.854	4.148	0.995
504.500	562.040	80.008	19.993	103.793	19.852	4.354	1.039
505.000	562.594	80.006	19.992	103.792	19.853	4.253	1.042
505.500	563.053	80.009	19.993	103.794	19.851	4.394	1.024
506.000	563.538	80.008	19.993	103.796	19.852	4.360	0.979
506.500	564.086	80.005	19.993	103.797	19.851	4.390	0.988
507.000	564.535	79.991	19.994	103.796	19.852	4.356	1.015
507.500	565.078	80.007	19.993	103.793	19.854	4.215	0.994
508.000	565.528	80.001	19.993	103.791	19.852	4.354	0.992
508.500	566.079	80.007	19.992	103.788	19.853	4.247	0.997
509.000	566.603	80.008	19.994	103.782	19.851	4.405	1.039
509.500	567.078	80.008	19.992	103.782	19.851	4.403	1.037
510.000	567.571	80.010	19.993	103.783	19.854	4.187	0.983
510.500	568.144	80.007	19.993	103.785	19.852	4.371	1.017
511.000	568.518	80.007	19.993	103.789	19.852	4.349	1.007
511.500	569.211	80.009	19.993	103.792	19.852	4.298	1.007
512.000	569.630	80.008	19.993	103.792	19.852	4.349	1.089
512.500	570.034	80.007	19.993	103.792	19.852	4.300	0.968
513.000	570.522	80.009	19.993	103.791	19.851	4.439	0.858
513.500	570.985	80.010	19.995	103.791	19.856	4.029	0.922
514.000	572.064	80.007	19.994	103.792	19.852	4.336	1.247
514.500	572.916	80.009	19.994	103.793	19.853	4.272	1.736
515.000	573.441	80.007	19.995	103.794	19.853	4.289	1.654
515.500	573.245	80.007	19.995	103.793	19.854	4.163	0.853
516.000	573.564	80.007	19.993	103.792	19.854	4.191	0.226
516.500	574.481	80.007	19.995	103.791	19.857	3.960	0.679
517.000	574.609	80.007	19.993	103.791	19.851	4.399	1.141
517.500	575.322	80.009	19.993	103.795	19.853	4.290	0.943
518.000	575.777	80.009	19.993	103.796	19.852	4.324	1.004
518.500	576.243	80.006	19.992	103.797	19.852	4.320	1.044
519.000	576.750	80.004	19.993	103.798	19.856	4.027	0.947
519.500	577.226	80.006	19.994	103.801	19.852	4.320	0.978
520.000	577.828	80.007	19.993	103.797	19.857	3.905	1.031
520.500	578.242	80.007	19.993	103.796	19.851	4.396	1.047
521.000	578.812	80.006	19.993	103.797	19.851	4.394	1.000
521.500	579.308	80.009	19.992	103.795	19.856	4.039	1.025
522.000	579.709	80.006	19.993	103.794	19.852	4.355	0.981
522.500	580.346	80.007	19.993	103.793	19.854	4.199	0.967
523.000	580.780	80.009	19.992	103.793	19.854	4.199	1.055
523.500	581.287	80.008	19.993	103.794	19.853	4.272	1.006
524.000	581.839	80.008	19.994	103.793	19.856	4.020	1.000
524.500	582.333	80.009	19.993	103.790	19.856	4.020	1.053
525.000	582.785	80.017	19.996	103.790	19.855	4.118	0.996
525.500	583.302	80.002	19.994	103.787	19.851	4.416	0.958
526.000	583.835	80.001	19.993	103.786	19.851	4.388	1.010
526.500	584.385	80.005	19.992	103.788	19.851	4.390	1.066
527.000	584.829	80.008	19.993	103.789	19.853	4.294	1.038
527.500	585.417	80.014	19.993	103.790	19.851	4.426	1.013
528.000	585.894	80.011	19.992	103.792	19.853	4.240	1.049
528.500	586.370	80.015	19.992	103.792	19.849	4.559	1.009
529.000	586.990	79.997	19.993	103.794	19.853	4.283	1.024
529.500	587.416	80.000	19.994	103.797	19.849	4.553	1.071
530.000	587.882	80.004	19.993	103.797	19.849	4.555	0.969
530.500	588.476	80.002	19.994	103.796	19.852	4.368	0.976
531.000	588.920	79.999	19.994	103.795	19.854	4.170	1.049
531.500	589.413	80.005	19.992	103.790	19.853	4.223	0.987
532.000	590.030	80.006	19.992	103.785	19.854	4.155	1.024
532.500	590.401	80.005	19.992	103.783	19.853	4.232	1.049
533.000	591.088	80.006	19.993	103.783	19.857	3.977	1.023
533.500	591.499	80.005	19.993	103.785	19.855	4.106	1.078
534.000	592.036	80.007	19.994	103.786	19.850	4.454	1.023
534.500	592.278	80.008	19.993	103.788	19.854	4.187	0.864
535.000	593.043	80.017	19.991	103.790	19.854	4.163	0.893
535.500	593.473	80.007	19.993	103.793	19.854	4.157	1.100
536.000	594.094	80.006	19.995	103.790	19.853	4.253	1.123
536.500	594.606	80.010	19.993	103.790	19.857	3.939	1.092
537.000	595.156	80.006	19.995	103.792	19.854	4.189	1.098
537.500	595.632	80.009	19.994	103.793	19.855	4.097	1.044
538.000	596.170	80.008	19.994	103.791	19.855	4.134	1.020
538.500	596.645	80.009	19.993	103.794	19.853	4.247	1.013
539.000	597.186	80.006	19.993	103.795	19.856	4.001	1.015
539.501	597.660	80.006	19.994	103.793	19.853	4.258	1.016
540.000	598.163	80.006	19.994	103.792	19.856	3.988	0.996
540.500	598.725	80.008	19.994	103.792	19.855	4.112	1.021
541.000	599.206	80.006	19.993	103.788	19.854	4.206	1.054
541.500	599.712	80.006	19.993	103.786	19.853	4.238	1.015
542.000	600.192	80.005	19.993	103.786	19.855	4.060	0.987
542.500	600.754	80.008	19.991	103.786	19.856	4.054	1.014
543.000	601.272	80.011	19.993	103.787	19.857	3.930	1.061
543.500	601.776	80.005	19.993	103.790	19.853	4.289	1.051
544.000	602.268	80.006	19.994	103.792	19.856	4.033	1.009
544.500	602.807	80.007	19.993	103.793	19.856	4.050	1.013
545.000	603.306	80.006	19.993	103.794	19.857	3.941	1.034
545.500	603.853	80.007	19.993	103.794	19.856	4.017	1.042
546.000	604.343	80.008	19.993	103.794	19.859	3.763	1.041
546.500	604.855	80.009	19.993	103.795	19.855	4.103	1.020
547.000	605.353	80.011	19.994	103.797	19.856	3.986	1.006
547.500	605.899	80.011	19.992	103.795	19.857	3.926	1.027
548.000	606.419	80.005	19.992	103.796	19.854	4.157	1.055
548.500	606.895	80.011	19.992	103.796	19.855	4.082	1.031
549.000	607.425	80.004	19.992	103.796	19.855	4.116	1.001
549.500	607.921	80.005	19.993	103.795	19.853	4.223	1.016
550.000	608.479	80.005	19.994	103.796	19.856	3.992	1.040
550.500	608.947	80.007	19.993	103.795	19.853	4.225	1.040
551.000	609.460	80.006	19.994	103.790	19.855	4.097	1.003
551.500	610.042	80.013	19.993	103.788	19.858	3.851	1.038
552.000	610.524	80.006	19.993	103.786	19.857	3.934	1.080
552.500	611.035	80.003	19.993	103.782	19.857	3.924	1.029
553.000	611.577	80.005	19.994	103.782	19.859	3.755	1.023
553.500	612.082	80.009	19.994	103.786	19.858	3.845	1.050
554.000	612.576	80.006	19.993	103.788	19.860	3.691	1.023
554.500	613.108	80.009	19.993	103.790	19.859	3.765	1.013
555.000	613.624	80.001	19.994	103.794	19.856	4.002	1.037
555.500	614.172	80.006	19.994	103.787	19.857	3.981	1.056
556.000	614.655	80.003	19.994	103.782	19.859	3.780	1.047
556.500	615.196	80.006	19.994	103.780	19.859	3.795	1.027
557.000	615.681	80.004	19.994	103.779	19.858	3.831	1.026
557.500	616.194	80.007	19.995	103.778	19.855	4.075	1.012
558.000	616.716	80.004	19.994	103.786	19.853	4.259	1.016
558.500	617.311	80.002	19.993	103.785	19.858	3.863	1.076
559.000	617.816	80.005	19.994	103.786	19.859	3.767	1.108
559.500	618.308	80.002	19.994	103.786	19.854	4.165	1.049
560.000	618.853	80.007	19.994	103.786	19.859	3.812	1.017
560.500	619.330	80.003	19.994	103.784	19.858	3.900	1.030
561.000	619.846	80.006	19.993	103.787	19.860	3.684	1.007
561.500	620.376	80.007	19.994	103.786	19.857	3.917	1.019
562.000	620.911	80.007	19.994	103.786	19.855	4.096	1.056
562.500	621.418	80.005	19.994	103.785	19.859	3.771	1.054
563.000	621.962	80.001	19.995	103.787	19.858	3.891	1.046
563.500	622.447	80.008	19.995	103.788	19.858	3.832	1.040
564.000	622.978	80.006	19.994	103.789	19.858	3.832	1.022
564.500	623.475	80.006	19.993	103.789	19.861	3.646	1.022
565.000	624.042	80.006	19.992	103.785	19.861	3.656	1.046
565.500	624.535	80.005	19.996	103.782	19.857	3.936	1.062
566.000	625.070	80.013	19.993	103.779	19.859	3.750	1.044
566.500	625.573	80.007	19.993	103.775	19.861	3.622	1.033
567.000	626.099	80.007	19.993	103.774	19.862	3.528	1.034
567.500	626.600	80.008	19.994	103.777	19.861	3.658	1.028
568.000	627.135	80.005	19.993	103.774	19.860	3.722	1.032
568.500	627.645	80.006	19.994	103.773	19.860	3.741	1.040
569.000	628.151	80.006	19.993	103.776	19.860	3.679	1.031
569.500	628.668	80.007	19.994	103.776	19.861	3.668	1.019
570.000	629.182	80.011	19.993	103.778	19.861	3.657	1.027
570.500	629.745	79.993	19.995	103.784	19.857	3.944	1.054
571.000	630.245	80.002	19.995	103.786	19.859	3.814	1.070
571.500	630.878	80.012	19.993	103.782	19.858	3.844	1.098
572.000	631.094	80.005	19.994	103.778	19.858	3.867	0.991
572.500	631.789	80.002	19.992	103.775	19.856	4.002	0.880
573.000	632.306	80.002	19.995	103.771	19.858	3.835	1.061
573.500	632.863	80.002	19.997	103.775	19.858	3.850	1.143
574.000	633.359	80.010	19.994	103.778	19.854	4.173	1.064
574.500	633.887	80.011	19.994	103.782	19.857	3.959	1.038
575.001	634.404	80.009	19.993	103.782	19.855	4.086	1.034
575.500	634.913	80.009	19.996	103.786	19.857	3.960	1.036
576.000	635.424	80.008	19.994	103.781	19.857	3.921	1.023
576.500	635.974	80.000	19.996	103.777	19.857	3.917	1.040
577.000	636.466	80.007	19.994	103.777	19.857	3.940	1.052
577.500	637.012	80.006	19.994	103.777	19.853	4.276	1.041
578.000	637.515	80.001	19.995	103.770	19.857	3.945	1.043
578.500	638.045	80.005	19.994	103.770	19.857	3.966	1.041
579.000	638.555	80.007	19.994	103.766	19.859	3.748	1.037
579.500	639.088	80.005	19.994	103.762	19.857	3.919	1.042
580.000	639.619	80.006	19.994	103.758	19.857	3.942	1.053
580.500	640.138	80.006	19.995	103.759	19.858	3.880	1.057
581.000	640.616	80.005	19.995	103.754	19.856	4.006	1.024
581.500	641.135	80.007	19.994	103.756	19.857	3.979	0.997
582.000	641.664	80.006	19.995	103.760	19.856	3.991	1.022
582.500	642.195	79.998	19.996	103.766	19.855	4.094	1.054
583.000	642.730	80.009	19.994	103.770	19.856	4.050	1.063
583.500	643.243	80.003	19.995	103.774	19.860	3.740	1.057
584.000	643.729	80.009	19.995	103.773	19.858	3.853	1.023
584.500	644.265	80.005	19.995	103.771	19.857	3.938	1.010
585.000	644.735	80.008	19.995	103.769	19.858	3.897	1.014
585.500	645.251	80.005	19.996	103.770	19.859	3.773	0.996
586.000	645.771	80.008	19.995	103.774	19.861	3.606	1.011
586.500	646.275	80.003	19.994	103.778	19.860	3.728	1.030
587.000	646.822	80.007	19.995	103.779	19.854	4.192	1.038
587.500	647.303	80.001	19.994	103.776	19.854	4.204	1.040
588.000	647.783	80.004	19.995	103.776	19.854	4.198	0.994
588.500	648.363	79.998	19.996	103.777	19.856	4.021	1.010
589.000	648.849	80.006	19.994	103.777	19.858	3.882	1.063
589.500	649.345	80.008	19.995	103.777	19.861	3.664	1.025
590.000	649.855	80.018	19.992	103.774	19.861	3.635	0.994
590.500	650.379	80.009	19.995	103.772	19.858	3.831	1.020
591.000	650.862	80.018	19.993	103.766	19.859	3.814	1.020
591.500	651.356	79.981	19.998	103.764	19.859	3.805	0.992
592.000	651.954	79.996	19.995	103.759	19.856	3.985	1.035
592.500	652.433	79.992	19.996	103.767	19.857	3.931	1.084
593.000	652.965	80.034	19.991	103.767	19.858	3.897	1.044
593.500	653.478	80.005	19.993	103.777	19.858	3.893	1.028
594.000	653.984	80.009	19.993	103.781	19.856	4.051	1.032
594.500	654.499	80.002	19.992	103.781	19.854	4.145	1.020
595.000	655.013	79.996	19.994	103.778	19.860	3.714	1.025
595.500	655.544	80.007	19.993	103.775	19.859	3.818	1.036
596.000	656.037	80.009	19.993	103.771	19.860	3.690	1.035
596.500	656.564	80.011	19.994	103.763	19.858	3.893	1.023
597.000	657.085	80.011	19.993	103.763	19.859	3.804	1.034
597.500	657.588	80.013	19.992	103.760	19.862	3.555	1.036
598.000	658.113	80.008	19.994	103.758	19.861	3.596	1.026
598.500	658.611	80.019	19.990	103.752	19.862	3.572	1.026
599.000	659.118	79.993	19.992	103.759	19.863	3.506	1.014
599.500	659.618	80.003	19.994	103.763	19.863	3.506	1.006
600.000	660.161	80.012	19.992	103.768	19.865	3.337	1.025
600.500	660.650	80.001	19.994	103.772	19.860	3.694	1.038
601.000	661.122	80.004	19.994	103.779	19.861	3.613	0.997
601.500	661.627	80.007	19.993	103.778	19.862	3.581	0.969
602.000	662.106	80.003	19.994	103.775	19.861	3.642	0.980
602.500	662.634	80.007	19.994	103.771	19.864	3.418	0.995
603.000	663.169	80.010	19.992	103.765	19.859	3.794	1.035
603.500	663.651	80.011	19.992	103.764	19.864	3.375	1.040
604.000	664.153	80.005	19.994	103.762	19.862	3.550	1.001
604.500	664.675	80.007	19.993	103.761	19.860	3.715	1.004
605.000	665.154	80.018	19.992	103.763	19.860	3.730	1.012
605.500	665.654	80.017	19.992	103.768	19.858	3.839	0.990
606.000	666.162	80.022	19.993	103.772	19.860	3.681	0.994
606.500	666.669	80.011	19.992	103.770	19.861	3.626	1.011
607.000	667.169	80.031	19.989	103.772	19.860	3.741	1.011
607.500	667.691	79.999	19.993	103.779	19.858	3.852	1.014
608.000	668.142	80.001	19.994	103.776	19.861	3.626	0.997
608.500	668.659	80.010	19.994	103.769	19.862	3.562	0.970
609.000	669.205	80.009	19.994	103.766	19.859	3.788	1.016
609.500	669.681	80.002	19.995	103.767	19.860	3.701	1.043
610.000	670.207	80.002	19.995	103.764	19.860	3.711	1.012
610.500	670.682	79.998	19.993	103.762	19.861	3.641	1.001
611.000	671.183	80.004	19.993	103.765	19.861	3.641	0.988
611.500	671.694	80.009	19.992	103.763	19.862	3.549	0.994
612.000	672.219	80.002	19.995	103.763	19.860	3.743	1.025
612.500	672.723	80.001	19.995	103.759	19.862	3.581	1.033
613.000	673.193	80.001	19.996	103.756	19.863	3.478	1.001
613.500	673.715	80.001	19.996	103.751	19.861	3.658	0.983
614.000	674.217	80.002	19.994	103.751	19.859	3.790	1.008
614.500	674.681	79.984	19.996	103.748	19.863	3.480	0.995
615.000	675.158	80.001	19.995	103.746	19.865	3.316	0.953
615.500	675.726	80.013	19.994	103.749	19.862	3.551	0.993
616.001	676.207	79.997	19.995	103.756	19.861	3.617	1.047
616.500	676.713	80.005	19.994	103.761	19.861	3.655	1.018
617.000	677.177	79.997	19.996	103.762	19.859	3.773	0.978
617.500	677.667	80.009	19.993	103.769	19.859	3.820	0.962
618.000	678.181	80.000	19.994	103.774	19.861	3.647	0.979
618.500	678.695	80.005	19.994	103.770	19.860	3.682	1.016
619.000	679.184	80.007	19.995	103.768	19.863	3.457	1.015
619.500	679.660	79.999	19.994	103.769	19.859	3.789	0.984
620.000	680.183	80.012	19.993	103.765	19.865	3.307	0.982
620.500	680.662	80.000	19.996	103.765	19.861	3.600	1.001
621.000	681.179	80.010	19.992	103.766	19.866	3.241	0.999
621.500	681.647	80.002	19.994	103.765	19.866	3.252	0.990
622.000	682.174	80.001	19.994	103.764	19.864	3.367	0.990
622.500	682.644	80.006	19.995	103.762	19.866	3.216	0.996
623.000	683.143	80.011	19.995	103.758	19.863	3.483	0.983
623.500	683.606	80.027	19.993	103.757	19.866	3.274	0.965
624.000	684.134	80.005	19.993	103.758	19.861	3.595	0.976
624.500	684.640	80.014	19.991	103.759	19.866	3.250	1.012
625.000	685.146	80.005	19.994	103.764	19.862	3.549	1.023
625.500	685.616	80.019	19.992	103.764	19.860	3.722	0.994
626.000	686.121	79.989	19.995	103.767	19.864	3.417	0.976
626.500	686.612	80.001	19.995	103.763	19.864	3.423	0.985
627.000	687.083	79.999	19.994	103.761	19.860	3.697	0.979
627.500	687.597	80.010	19.993	103.760	19.863	3.446	0.973
628.000	688.103	80.002	19.994	103.763	19.864	3.376	1.003
628.500	688.578	80.010	19.994	103.765	19.863	3.498	1.001
629.000	689.083	80.017	19.994	103.772	19.860	3.677	0.981
629.500	689.594	80.000	19.992	103.776	19.862	3.525	0.998
630.000	690.118	80.009	19.992	103.778	19.865	3.288	1.026
630.500	690.565	80.003	19.992	103.779	19.864	3.399	1.003
631.000	691.090	80.002	19.992	103.773	19.865	3.343	0.972
631.500	691.578	80.006	19.994	103.773	19.861	3.623	0.992
632.000	692.063	80.006	19.993	103.772	19.862	3.531	0.993
632.500	692.576	80.001	19.992	103.768	19.862	3.570	0.986
633.000	693.086	80.009	19.994	103.771	19.862	3.538	1.011
633.500	693.574	80.003	19.994	103.779	19.861	3.615	1.010
634.000	694.121	80.003	19.993	103.784	19.861	3.649	1.016
634.501	694.608	80.018	19.994	103.788	19.863	3.441	1.035
635.001	695.095	80.019	19.993	103.791	19.861	3.642	1.004
635.500	695.612	80.013	19.994	103.787	19.866	3.217	0.989
636.000	696.112	80.022	19.992	103.784	19.866	3.217	1.010
636.500	696.606	80.010	19.994	103.781	19.865	3.298	1.005
637.000	697.135	80.010	19.993	103.776	19.862	3.572	1.008
637.500	697.626	79.999	19.993	103.774	19.864	3.382	1.022
638.000	698.108	80.000	19.995	103.775	19.863	3.465	0.997
638.500	698.636	80.011	19.993	103.773	19.866	3.211	0.992
639.000	699.104	80.002	19.995	103.770	19.866	3.258	1.003
639.500	699.605	80.005	19.993	103.767	19.866	3.209	0.983
640.000	700.152	80.007	19.993	103.768	19.864	3.362	1.009
640.500	700.626	80.005	19.993	103.764	19.863	3.465	1.034
641.000	701.143	80.010	19.994	103.762	19.865	3.324	1.006
641.500	701.635	80.007	19.993	103.761	19.867	3.151	1.000
642.000	702.153	80.011	19.994	103.761	19.864	3.358	1.010
642.500	702.653	80.014	19.993	103.757	19.862	3.518	1.014
643.000	703.148	80.002	19.993	103.758	19.865	3.334	1.006
643.500	703.626	80.007	19.994	103.755	19.867	3.191	0.984
644.000	704.135	80.006	19.994	103.756	19.866	3.255	0.980
644.500	704.666	80.000	19.995	103.754	19.866	3.255	1.013
645.000	705.169	80.000	19.995	103.754	19.863	3.471	1.037
645.500	705.668	80.004	19.996	103.753	19.865	3.285	1.018
646.000	706.164	79.995	19.993	103.750	19.863	3.458	0.999
646.500	706.667	80.009	19.994	103.748	19.865	3.281	0.997
647.000	707.153	79.994	19.994	103.752	19.864	3.382	0.994
647.500	707.660	80.005	19.995	103.753	19.862	3.527	0.991
648.000	708.171	79.991	19.996	103.754	19.865	3.315	1.006
648.500	708.666	79.995	19.995	103.757	19.863	3.508	1.012
649.000	709.145	80.000	19.997	103.758	19.864	3.424	0.990
649.500	709.703	80.010	19.993	103.754	19.861	3.606	1.005
650.000	710.208	80.021	19.991	103.754	19.863	3.450	1.050
650.500	710.700	80.004	19.994	103.757	19.863	3.450	1.030
651.000	711.233	80.001	19.995	103.756	19.864	3.367	1.011
651.500	711.750	80.003	19.994	103.756	19.861	3.600	1.038
652.000	712.196	80.012	19.995	103.754	19.859	3.762	1.006
652.500	712.728	80.020	19.991	103.749	19.861	3.604	0.970
653.000	713.194	80.009	19.993	103.747	19.863	3.439	0.988
653.500	713.736	80.011	19.995	103.748	19.861	3.644	1.003
654.000	714.219	80.006	19.995	103.747	19.863	3.441	1.016
654.500	714.712	79.994	19.996	103.747	19.863	3.499	1.001
655.000	715.257	80.013	19.993	103.748	19.865	3.311	1.007
655.500	715.810	80.024	19.992	103.747	19.863	3.493	1.068
656.000	716.285	80.018	19.993	103.750	19.862	3.549	1.063
656.500	716.764	80.014	19.996	103.752	19.863	3.463	0.991
657.000	717.336	80.015	19.994	103.750	19.864	3.420	1.002
657.500	717.830	80.011	19.993	103.751	19.863	3.504	1.058
658.000	718.336	80.006	19.995	103.751	19.859	3.766	1.033
658.500	718.832	80.013	19.992	103.746	19.866	3.223	1.001
659.000	719.332	80.004	19.994	103.751	19.861	3.657	0.999
659.500	719.866	79.995	19.994	103.753	19.861	3.625	1.015
660.000	720.371	80.010	19.994	103.757	19.862	3.521	1.037
660.500	720.881	80.008	19.994	103.755	19.865	3.339	1.027
661.000	721.351	80.006	19.994	103.758	19.869	3.016	0.998
661.500	721.846	80.007	19.994	103.752	19.865	3.316	0.973
662.000	722.374	79.991	19.994	103.751	19.867	3.134	0.994
662.500	722.832	79.992	19.995	103.750	19.865	3.333	1.004
663.000	723.351	80.001	19.995	103.748	19.871	2.880	0.981
663.500	723.909	80.009	19.993	103.742	19.866	3.230	1.027
664.000	724.396	80.009	19.995	103.744	19.869	3.006	1.061
664.500	724.926	80.009	19.992	103.744	19.864	3.407	1.031
665.000	725.383	80.010	19.993	103.743	19.865	3.303	1.002
665.500	725.881	80.016	19.994	103.747	19.866	3.271	0.971
666.000	726.359	80.003	19.994	103.752	19.867	3.181	0.965
666.500	726.890	80.015	19.992	103.753	19.866	3.236	0.993
667.000	727.396	80.007	19.994	103.758	19.867	3.153	1.023
667.500	727.928	80.007	19.994	103.758	19.865	3.296	1.037
668.000	728.402	80.006	19.993	103.756	19.865	3.305	1.022
668.500	728.831	79.999	19.994	103.757	19.865	3.298	0.955
669.000	729.428	80.008	19.993	103.756	19.864	3.390	0.965
669.500	729.868	80.013	19.993	103.754	19.864	3.401	1.031
670.000	730.342	80.015	19.992	103.755	19.867	3.198	0.975
670.500	730.839	80.012	19.994	103.756	19.863	3.499	0.943
671.000	731.333	80.005	19.992	103.756	19.866	3.239	0.981
671.500	731.868	80.003	19.995	103.757	19.868	3.083	1.010
672.000	732.301	80.007	19.993	103.758	19.866	3.228	0.998
672.500	732.829	80.029	19.991	103.760	19.869	2.993	0.964
673.000	733.300	80.010	19.992	103.763	19.864	3.359	0.980
673.500	733.769	80.001	19.995	103.764	19.866	3.224	0.969
674.000	734.292	80.004	19.993	103.762	19.866	3.237	0.966
674.500	734.801	80.022	19.991	103.761	19.866	3.230	1.012
675.000	735.255	79.994	19.994	103.761	19.867	3.166	0.998
675.500	735.776	80.002	19.994	103.758	19.865	3.303	0.969
676.000	736.242	80.007	19.994	103.757	19.865	3.305	0.980
676.500	736.774	79.992	19.997	103.759	19.868	3.082	0.993
677.000	737.236	80.011	19.994	103.755	19.866	3.275	0.996
677.500	737.724	79.994	19.995	103.753	19.865	3.333	0.972
