Sample ID:	C:\MCC\MCC Cal\Test\Bean_Bag_Chair_Outer_Cover_MCC_30K_min_220310_R1.txt
Sample Weight (mg):	4.44
Heating Rate (C/s):	0.5
Combustor Temp (C):	900
N2 Flow Rate (cc/min):	80
O2 Flow Rate (cc/min):	20
Calibration File:	C:\MCC\MCC Cal\Coeff1 JN10440_30_210304.txt.txt
T Correction Coefficients:	0	1.024463	0
Time Shift (s):	14
*
Time (s)	Temperature (C)	N2 flow rate (cc/min)	O2 flow rate (cc/min)	Flow Rate (cc/min)	Oxygen (%)	HRR (W/g)	Heating rate (C/s)
-0.001	107.503	80.005	19.993	103.642	20.091	0.172	0.014
0.499	107.466	80.006	19.994	103.640	20.091	0.188	-0.010
1.000	107.481	80.006	19.994	103.640	20.092	0.056	-0.024
1.500	107.438	80.007	19.994	103.643	20.091	0.180	-0.025
2.000	107.455	80.006	19.994	103.646	20.092	0.060	-0.027
2.500	107.454	80.004	19.993	103.649	20.093	0.034	-0.005
3.000	107.498	80.006	19.996	103.651	20.096	-0.178	0.030
3.500	107.452	80.005	19.997	103.651	20.094	-0.038	0.021
4.000	107.478	80.005	19.995	103.650	20.091	0.176	-0.011
4.500	107.484	80.006	19.995	103.652	20.093	-0.008	0.006
5.000	107.499	80.006	19.996	103.653	20.091	0.138	0.027
5.500	107.485	80.006	19.994	103.652	20.091	0.180	0.011
6.000	107.486	80.005	19.994	103.653	20.093	0.022	-0.006
6.500	107.460	80.005	19.995	103.654	20.091	0.150	-0.019
7.000	107.483	80.005	19.995	103.655	20.094	-0.040	-0.014
7.500	107.492	80.005	19.994	103.658	20.091	0.174	0.015
8.000	107.509	80.005	19.994	103.663	20.096	-0.224	0.029
8.500	107.490	80.005	19.994	103.666	20.094	-0.060	0.012
9.000	107.465	80.006	19.995	103.668	20.092	0.090	-0.023
9.500	107.476	80.006	19.994	103.669	20.089	0.278	-0.029
10.000	107.471	80.004	19.994	103.669	20.089	0.288	-0.004
10.500	107.487	80.004	19.994	103.669	20.090	0.224	0.008
11.000	107.482	80.004	19.994	103.669	20.090	0.244	0.011
11.500	107.488	80.007	19.994	103.670	20.091	0.118	0.007
12.000	107.487	80.006	19.993	103.671	20.093	-0.028	0.003
12.500	107.506	80.005	19.994	103.673	20.090	0.192	0.011
13.000	107.466	80.005	19.995	103.675	20.092	0.048	-0.001
13.500	107.488	80.004	19.995	103.675	20.092	0.048	-0.019
14.000	107.521	80.005	19.995	103.679	20.091	0.172	0.019
14.500	107.508	80.005	19.994	103.683	20.092	0.060	0.038
15.000	107.535	80.005	19.995	103.687	20.088	0.342	0.017
15.500	107.510	80.004	19.993	103.693	20.093	0.036	0.008
16.000	107.530	80.006	19.993	103.699	20.087	0.458	-0.001
16.500	107.530	80.005	19.993	103.702	20.091	0.184	0.007
17.000	107.525	80.006	19.993	103.705	20.088	0.390	0.007
17.500	107.505	80.006	19.993	103.709	20.083	0.712	-0.015
18.000	107.567	80.007	19.993	103.718	20.084	0.690	0.008
18.500	107.577	80.005	19.994	103.727	20.084	0.686	0.057
19.000	107.589	80.006	19.994	103.738	20.085	0.626	0.047
19.500	107.589	80.006	19.993	103.746	20.080	0.970	0.017
20.000	107.610	80.006	19.993	103.753	20.079	1.046	0.017
20.500	107.606	80.003	19.994	103.755	20.078	1.128	0.019
21.000	107.676	80.005	19.994	103.762	20.077	1.152	0.041
21.500	107.721	80.004	19.995	103.768	20.072	1.532	0.090
22.000	107.717	80.005	19.995	103.781	20.074	1.404	0.078
22.500	107.694	80.005	19.994	103.796	20.073	1.502	0.007
23.000	107.715	80.008	19.994	103.810	20.070	1.722	-0.015
23.500	107.781	80.006	19.994	103.818	20.070	1.722	0.042
24.000	107.816	80.005	19.994	103.824	20.068	1.818	0.094
24.500	107.818	80.006	19.994	103.825	20.067	1.918	0.069
25.000	107.860	80.007	19.994	103.826	20.069	1.764	0.041
25.500	107.911	80.005	19.994	103.828	20.064	2.090	0.069
26.000	107.935	80.007	19.994	103.831	20.069	1.784	0.085
26.500	108.025	80.004	19.995	103.832	20.066	1.992	0.095
27.000	108.034	80.007	19.994	103.833	20.063	2.170	0.106
27.500	108.104	80.007	19.994	103.838	20.067	1.926	0.089
28.000	108.163	80.008	19.995	103.842	20.068	1.842	0.104
28.500	108.188	80.008	19.995	103.844	20.062	2.264	0.107
29.000	108.259	80.009	19.994	103.850	20.061	2.376	0.090
29.500	108.316	80.007	19.994	103.855	20.060	2.398	0.112
30.000	108.355	80.007	19.995	103.856	20.063	2.200	0.112
30.500	108.398	80.009	19.994	103.854	20.063	2.218	0.089
31.000	108.491	80.003	19.995	103.855	20.062	2.295	0.109
31.500	108.554	80.008	19.995	103.854	20.060	2.419	0.146
32.000	108.585	80.006	19.994	103.852	20.061	2.349	0.125
32.499	108.646	80.006	19.995	103.853	20.062	2.259	0.093
32.999	108.717	80.007	19.994	103.854	20.060	2.421	0.112
33.499	108.793	80.007	19.995	103.856	20.062	2.235	0.140
33.999	108.880	80.008	19.995	103.856	20.061	2.335	0.155
34.499	108.948	80.006	19.994	103.860	20.063	2.213	0.159
34.999	108.958	80.006	19.994	103.861	20.061	2.337	0.116
35.499	109.050	80.008	19.994	103.863	20.057	2.645	0.090
35.999	109.130	80.007	19.993	103.862	20.057	2.631	0.137
36.499	109.192	80.005	19.994	103.860	20.058	2.537	0.157
37.000	109.328	80.005	19.993	103.858	20.055	2.751	0.170
37.500	109.392	80.004	19.994	103.857	20.058	2.536	0.199
38.000	109.485	80.007	19.995	103.856	20.060	2.442	0.178
38.501	109.540	80.007	19.994	103.855	20.058	2.592	0.152
39.000	109.663	80.007	19.994	103.854	20.062	2.272	0.163
39.500	109.728	80.007	19.995	103.853	20.060	2.404	0.183
40.000	109.827	80.008	19.994	103.850	20.062	2.236	0.176
40.500	109.931	80.007	19.994	103.844	20.063	2.222	0.184
41.000	110.036	80.005	19.994	103.841	20.058	2.572	0.206
41.499	110.110	80.008	19.994	103.839	20.060	2.410	0.194
41.999	110.198	80.007	19.994	103.836	20.058	2.538	0.170
42.499	110.275	80.006	19.993	103.834	20.060	2.446	0.164
42.999	110.382	80.005	19.994	103.833	20.060	2.396	0.175
43.499	110.468	80.007	19.994	103.831	20.060	2.416	0.188
43.999	110.556	80.008	19.993	103.829	20.060	2.394	0.183
44.499	110.651	80.006	19.993	103.830	20.063	2.222	0.178
44.999	110.771	80.006	19.994	103.830	20.063	2.206	0.199
45.499	110.863	80.007	19.994	103.830	20.064	2.122	0.214
45.999	110.994	80.008	19.993	103.830	20.063	2.228	0.218
46.499	111.054	80.006	19.993	103.830	20.062	2.250	0.207
46.999	111.161	80.005	19.992	103.830	20.061	2.346	0.179
47.499	111.271	80.007	19.993	103.831	20.064	2.122	0.192
47.999	111.397	80.007	19.994	103.835	20.059	2.502	0.227
48.499	111.504	80.006	19.992	103.842	20.060	2.406	0.234
48.999	111.555	80.008	19.993	103.850	20.062	2.270	0.195
49.499	111.702	80.007	19.992	103.856	20.064	2.142	0.178
49.999	111.769	80.008	19.995	103.862	20.061	2.333	0.206
50.499	111.875	80.008	19.996	103.865	20.062	2.301	0.193
50.999	111.973	80.006	19.994	103.866	20.057	2.611	0.189
51.499	112.109	80.007	19.994	103.866	20.061	2.345	0.219
51.999	112.227	80.008	19.994	103.866	20.065	2.073	0.244
52.499	112.340	80.009	19.993	103.864	20.064	2.153	0.243
52.999	112.473	80.007	19.993	103.863	20.062	2.293	0.239
53.499	112.589	80.009	19.993	103.857	20.063	2.201	0.247
53.999	112.710	80.007	19.993	103.850	20.058	2.559	0.243
54.499	112.853	80.009	19.992	103.847	20.060	2.425	0.250
54.999	112.906	80.007	19.993	103.849	20.059	2.517	0.230
55.499	113.060	80.009	19.992	103.850	20.060	2.383	0.202
55.999	113.165	80.007	19.993	103.855	20.058	2.577	0.233
56.499	113.325	80.006	19.993	103.863	20.059	2.469	0.262
56.999	113.423	80.009	19.994	103.867	20.057	2.603	0.262
57.499	113.546	80.009	19.993	103.867	20.057	2.607	0.239
57.999	113.669	80.009	19.993	103.867	20.059	2.475	0.233
58.499	113.815	80.009	19.992	103.868	20.057	2.663	0.258
58.999	113.920	80.009	19.993	103.868	20.058	2.595	0.261
59.499	114.089	80.008	19.993	103.869	20.056	2.691	0.263
59.999	114.226	80.009	19.992	103.873	20.057	2.609	0.290
60.499	114.308	80.009	19.994	103.881	20.057	2.669	0.263
60.999	114.510	80.008	19.992	103.887	20.059	2.493	0.252
61.499	114.606	80.008	19.993	103.893	20.059	2.513	0.291
61.999	114.717	80.006	19.994	103.898	20.055	2.779	0.252
62.499	114.856	80.006	19.994	103.900	20.056	2.743	0.228
62.999	115.014	80.007	19.994	103.897	20.056	2.737	0.273
63.499	115.126	80.006	19.993	103.894	20.053	2.935	0.283
64.000	115.240	80.006	19.992	103.891	20.054	2.875	0.248
64.500	115.408	80.006	19.993	103.887	20.053	2.939	0.254
64.999	115.521	80.007	19.994	103.885	20.053	2.925	0.282
65.499	115.689	80.005	19.993	103.885	20.055	2.791	0.281
65.999	115.838	80.006	19.993	103.887	20.051	3.083	0.299
66.499	115.993	80.008	19.993	103.890	20.054	2.831	0.310
66.999	116.121	80.009	19.993	103.893	20.052	3.029	0.293
67.499	116.306	80.005	19.993	103.896	20.055	2.769	0.298
67.999	116.413	80.005	19.993	103.898	20.054	2.855	0.303
68.499	116.532	80.006	19.994	103.899	20.052	3.029	0.259
68.999	116.709	80.006	19.993	103.901	20.052	3.007	0.261
69.499	116.843	80.005	19.993	103.902	20.048	3.303	0.304
69.999	117.012	80.006	19.994	103.901	20.052	2.983	0.307
70.499	117.151	80.005	19.995	103.902	20.051	3.055	0.305
70.999	117.311	80.006	19.993	103.902	20.050	3.125	0.303
71.499	117.501	80.005	19.993	103.902	20.050	3.159	0.324
71.999	117.634	80.007	19.993	103.899	20.051	3.107	0.336
72.499	117.798	80.006	19.993	103.899	20.052	2.965	0.310
72.999	117.963	80.006	19.993	103.899	20.051	3.089	0.314
73.499	118.105	80.005	19.994	103.899	20.051	3.051	0.318
73.999	118.306	80.005	19.994	103.900	20.050	3.169	0.325
74.499	118.428	80.006	19.994	103.902	20.052	3.009	0.333
74.999	118.629	80.005	19.994	103.903	20.050	3.125	0.323
75.499	118.783	80.004	19.994	103.902	20.048	3.281	0.339
75.999	118.920	80.006	19.994	103.902	20.049	3.191	0.323
76.499	119.072	80.006	19.994	103.902	20.053	2.943	0.290
76.999	119.257	80.007	19.993	103.902	20.048	3.301	0.312
77.499	119.420	80.007	19.994	103.902	20.047	3.369	0.342
77.999	119.568	80.007	19.993	103.904	20.051	3.085	0.330
78.499	119.730	80.006	19.994	103.904	20.049	3.187	0.311
78.999	119.891	80.008	19.993	103.904	20.050	3.115	0.317
79.499	120.098	80.006	19.993	103.904	20.050	3.143	0.346
79.999	120.259	80.008	19.994	103.905	20.051	3.107	0.368
80.499	120.432	80.009	19.993	103.905	20.049	3.235	0.351
80.999	120.617	80.007	19.994	103.906	20.045	3.502	0.346
81.499	120.770	80.006	19.992	103.906	20.045	3.548	0.348
81.999	120.960	80.006	19.993	103.906	20.050	3.130	0.341
82.499	121.123	80.008	19.993	103.906	20.049	3.212	0.348
83.000	121.321	80.006	19.993	103.907	20.049	3.200	0.357
83.500	121.482	80.007	19.994	103.907	20.050	3.142	0.360
83.999	121.670	80.007	19.994	103.906	20.047	3.340	0.354
84.499	121.837	80.007	19.993	103.906	20.045	3.484	0.352
84.999	122.024	80.007	19.993	103.906	20.048	3.326	0.354
85.499	122.203	80.006	19.995	103.905	20.047	3.396	0.360
85.999	122.407	80.006	19.994	103.906	20.046	3.442	0.375
86.500	122.586	80.005	19.993	103.906	20.047	3.352	0.383
87.000	122.758	80.006	19.994	103.905	20.048	3.262	0.367
87.499	122.983	80.008	19.993	103.904	20.048	3.330	0.374
87.999	123.143	80.006	19.993	103.905	20.048	3.320	0.391
88.499	123.355	80.005	19.993	103.904	20.047	3.354	0.378
88.999	123.547	80.007	19.994	103.904	20.043	3.674	0.388
89.499	123.745	80.007	19.993	103.906	20.047	3.352	0.397
89.999	123.921	80.005	19.994	103.906	20.044	3.602	0.382
90.499	124.081	80.007	19.994	103.905	20.042	3.712	0.355
90.999	124.296	80.005	19.994	103.906	20.047	3.334	0.356
91.499	124.469	80.005	19.994	103.906	20.046	3.430	0.382
91.999	124.673	80.006	19.994	103.906	20.050	3.160	0.383
92.499	124.857	80.006	19.992	103.907	20.046	3.416	0.382
92.999	125.058	80.005	19.994	103.911	20.052	3.016	0.386
93.499	125.245	80.006	19.993	103.914	20.046	3.432	0.386
93.999	125.440	80.006	19.994	103.914	20.047	3.372	0.385
94.499	125.640	80.006	19.995	103.913	20.048	3.268	0.389
94.999	125.867	80.005	19.995	103.913	20.046	3.412	0.411
95.499	126.043	80.007	19.994	103.911	20.049	3.226	0.415
95.999	126.252	80.005	19.995	103.908	20.048	3.292	0.394
96.500	126.407	80.007	19.994	103.913	20.047	3.398	0.375
97.000	126.615	80.006	19.994	103.917	20.048	3.266	0.363
97.499	126.836	80.005	19.995	103.918	20.048	3.310	0.396
97.999	127.026	80.005	19.994	103.919	20.048	3.320	0.420
98.499	127.228	80.006	19.994	103.920	20.048	3.288	0.401
98.999	127.428	80.005	19.994	103.914	20.048	3.288	0.397
99.499	127.626	80.004	19.994	103.912	20.048	3.308	0.400
99.999	127.861	80.006	19.994	103.909	20.044	3.594	0.416
100.499	128.005	80.004	19.994	103.909	20.047	3.392	0.406
100.999	128.236	80.006	19.994	103.910	20.044	3.572	0.377
101.499	128.464	80.005	19.995	103.912	20.048	3.330	0.417
101.999	128.629	80.004	19.995	103.912	20.048	3.288	0.426
102.499	128.861	80.005	19.994	103.916	20.046	3.450	0.395
102.999	129.061	80.005	19.993	103.915	20.046	3.476	0.414
103.499	129.276	80.006	19.993	103.915	20.047	3.362	0.424
103.999	129.455	80.005	19.993	103.916	20.047	3.382	0.405
104.499	129.690	80.005	19.993	103.916	20.045	3.546	0.404
104.999	129.909	80.006	19.994	103.916	20.048	3.274	0.434
105.499	130.145	80.005	19.994	103.918	20.048	3.268	0.454
105.999	130.330	80.006	19.994	103.919	20.046	3.414	0.438
106.499	130.577	80.007	19.994	103.920	20.047	3.398	0.426
106.999	130.771	80.007	19.994	103.923	20.043	3.674	0.436
107.499	130.949	80.007	19.992	103.922	20.047	3.342	0.406
107.999	131.178	80.007	19.993	103.923	20.047	3.398	0.389
108.499	131.415	80.007	19.994	103.925	20.047	3.376	0.437
108.999	131.626	80.006	19.994	103.925	20.048	3.268	0.457
109.499	131.829	80.006	19.991	103.924	20.046	3.460	0.431
109.999	132.066	80.006	19.995	103.923	20.048	3.320	0.427
110.500	132.274	80.006	19.994	103.924	20.045	3.500	0.443
111.000	132.509	80.006	19.994	103.927	20.045	3.498	0.444
111.499	132.718	80.008	19.994	103.925	20.046	3.448	0.443
111.999	132.927	80.006	19.994	103.927	20.048	3.282	0.431
112.499	133.112	80.008	19.993	103.928	20.046	3.446	0.406
112.999	133.376	80.007	19.993	103.926	20.048	3.274	0.421
113.499	133.620	80.008	19.993	103.922	20.050	3.128	0.478
113.999	133.814	80.008	19.993	103.920	20.047	3.384	0.473
114.499	134.039	80.007	19.994	103.918	20.045	3.546	0.429
114.999	134.247	80.007	19.994	103.920	20.048	3.302	0.427
115.499	134.474	80.006	19.994	103.919	20.048	3.306	0.434
115.999	134.738	80.006	19.994	103.918	20.046	3.474	0.463
116.499	134.952	80.008	19.994	103.919	20.043	3.624	0.484
117.000	135.156	80.009	19.994	103.916	20.044	3.556	0.448
117.500	135.378	80.008	19.994	103.914	20.041	3.810	0.422
117.999	135.600	80.007	19.993	103.915	20.043	3.682	0.435
118.500	135.788	80.006	19.993	103.914	20.044	3.610	0.427
119.000	136.047	80.006	19.994	103.916	20.043	3.636	0.429
119.500	136.275	80.008	19.994	103.918	20.043	3.692	0.467
120.000	136.512	80.005	19.994	103.921	20.046	3.412	0.476
120.499	136.730	80.006	19.994	103.922	20.043	3.652	0.460
120.999	136.966	80.005	19.993	103.928	20.044	3.552	0.455
121.499	137.178	80.007	19.994	103.931	20.045	3.534	0.451
121.999	137.439	80.005	19.994	103.933	20.044	3.564	0.460
122.499	137.676	80.006	19.995	103.931	20.045	3.510	0.485
122.999	137.906	80.007	19.994	103.929	20.042	3.753	0.482
123.499	138.123	80.005	19.994	103.926	20.047	3.398	0.457
123.999	138.375	80.006	19.995	103.923	20.044	3.574	0.458
124.499	138.583	80.006	19.994	103.922	20.042	3.744	0.464
124.999	138.839	80.004	19.995	103.925	20.042	3.754	0.462
125.499	139.068	80.005	19.996	103.927	20.046	3.432	0.475
125.999	139.291	80.005	19.994	103.927	20.046	3.464	0.468
126.499	139.487	80.006	19.994	103.924	20.045	3.494	0.435
127.000	139.810	80.006	19.995	103.924	20.044	3.604	0.469
127.500	139.977	80.006	19.994	103.922	20.046	3.416	0.505
127.999	140.249	80.007	19.994	103.918	20.044	3.622	0.465
128.500	140.461	80.006	19.994	103.920	20.045	3.527	0.461
129.000	140.692	80.008	19.994	103.926	20.049	3.255	0.464
129.500	140.969	80.006	19.994	103.927	20.048	3.305	0.475
130.000	141.162	80.008	19.994	103.928	20.047	3.370	0.488
130.500	141.388	80.005	19.994	103.928	20.047	3.369	0.444
131.000	141.638	80.008	19.994	103.922	20.047	3.340	0.448
131.500	141.863	80.006	19.994	103.918	20.050	3.176	0.476
132.000	142.124	80.006	19.994	103.918	20.048	3.269	0.481
132.500	142.350	80.006	19.994	103.920	20.047	3.378	0.486
133.000	142.574	80.008	19.996	103.924	20.050	3.181	0.468
133.500	142.841	80.008	19.994	103.930	20.048	3.330	0.470
134.000	143.084	80.007	19.993	103.932	20.047	3.356	0.501
134.500	143.324	80.008	19.993	103.929	20.044	3.568	0.497
135.000	143.544	80.007	19.993	103.923	20.048	3.284	0.471
135.500	143.812	80.008	19.994	103.920	20.046	3.414	0.474
136.000	144.071	80.009	19.993	103.918	20.047	3.370	0.508
136.500	144.303	80.008	19.994	103.914	20.046	3.472	0.509
137.000	144.563	80.007	19.993	103.913	20.047	3.352	0.491
137.500	144.799	80.008	19.993	103.913	20.045	3.500	0.494
138.000	145.034	80.009	19.992	103.911	20.047	3.386	0.483
138.500	145.296	80.007	19.993	103.906	20.044	3.580	0.484
139.000	145.504	80.008	19.993	103.904	20.047	3.332	0.484
139.500	145.744	80.008	19.993	103.902	20.047	3.384	0.460
140.000	145.990	80.007	19.993	103.903	20.047	3.354	0.467
140.500	146.238	80.009	19.993	103.905	20.047	3.354	0.490
141.000	146.503	80.009	19.992	103.907	20.048	3.307	0.503
141.500	146.718	80.008	19.993	103.906	20.047	3.351	0.497
142.000	146.974	80.009	19.992	103.908	20.048	3.309	0.476
142.500	147.229	80.008	19.993	103.910	20.050	3.111	0.491
143.000	147.456	80.008	19.993	103.908	20.049	3.255	0.497
143.500	147.759	80.008	19.992	103.907	20.046	3.473	0.506
144.000	147.994	80.007	19.993	103.909	20.050	3.171	0.534
144.500	148.177	80.008	19.993	103.912	20.047	3.399	0.478
145.000	148.466	80.007	19.993	103.911	20.045	3.491	0.445
145.500	148.725	80.008	19.993	103.912	20.047	3.387	0.509
146.000	148.966	80.007	19.992	103.914	20.047	3.393	0.524
146.500	149.187	80.008	19.994	103.913	20.050	3.151	0.481
147.000	149.457	80.007	19.993	103.909	20.046	3.473	0.476
147.500	149.702	80.005	19.993	103.908	20.049	3.221	0.503
148.000	149.952	80.008	19.993	103.908	20.050	3.177	0.505
148.500	150.199	80.006	19.994	103.907	20.048	3.321	0.497
149.000	150.446	80.008	19.994	103.908	20.048	3.257	0.496
149.500	150.656	80.005	19.993	103.907	20.049	3.253	0.475
150.000	150.890	80.006	19.994	103.909	20.047	3.367	0.450
150.500	151.160	80.007	19.993	103.909	20.051	3.077	0.474
151.000	151.407	80.007	19.993	103.907	20.050	3.145	0.510
151.500	151.663	80.005	19.994	103.907	20.046	3.451	0.510
152.000	151.930	80.005	19.994	103.906	20.047	3.347	0.513
152.500	152.142	80.006	19.994	103.905	20.049	3.223	0.501
153.000	152.384	80.006	19.994	103.902	20.047	3.367	0.467
153.500	152.640	80.006	19.994	103.903	20.050	3.149	0.476
154.000	152.904	80.006	19.994	103.903	20.048	3.292	0.509
154.500	153.149	80.007	19.994	103.904	20.051	3.057	0.515
155.000	153.405	80.005	19.994	103.904	20.047	3.373	0.505
155.500	153.667	80.006	19.993	103.904	20.045	3.487	0.509
156.000	153.864	80.006	19.994	103.904	20.049	3.197	0.489
156.500	154.117	80.008	19.993	103.904	20.045	3.541	0.455
157.000	154.385	80.006	19.994	103.904	20.049	3.185	0.485
157.500	154.641	80.006	19.993	103.904	20.046	3.466	0.522
158.000	154.874	80.007	19.993	103.904	20.043	3.636	0.507
158.500	155.082	80.005	19.993	103.904	20.046	3.456	0.465
159.000	155.338	80.006	19.994	103.904	20.046	3.422	0.452
159.500	155.600	80.005	19.993	103.904	20.047	3.382	0.491
160.000	155.844	80.006	19.994	103.903	20.048	3.310	0.512
160.500	156.090	80.005	19.993	103.903	20.045	3.506	0.498
161.000	156.347	80.007	19.994	103.904	20.044	3.550	0.496
161.500	156.603	80.006	19.993	103.903	20.044	3.566	0.508
162.000	156.857	80.005	19.994	103.903	20.046	3.468	0.512
162.500	157.071	80.006	19.993	103.903	20.049	3.209	0.489
163.000	157.339	80.005	19.993	103.903	20.049	3.225	0.475
163.500	157.596	80.006	19.993	103.903	20.047	3.353	0.503
164.000	157.833	80.005	19.994	103.903	20.047	3.357	0.509
164.500	158.120	80.006	19.994	103.904	20.047	3.363	0.509
165.000	158.330	80.005	19.993	103.910	20.050	3.177	0.511
165.500	158.595	80.007	19.993	103.907	20.048	3.265	0.487
166.000	158.861	80.004	19.993	103.902	20.045	3.510	0.503
166.500	159.066	80.005	19.993	103.897	20.049	3.239	0.501
167.000	159.317	80.006	19.994	103.895	20.047	3.351	0.464
167.500	159.556	80.004	19.992	103.890	20.043	3.675	0.473
168.000	159.824	80.006	19.993	103.893	20.045	3.477	0.499
168.500	160.063	80.006	19.993	103.905	20.046	3.409	0.507
169.000	160.322	80.006	19.994	103.911	20.046	3.411	0.502
169.500	160.550	80.003	19.992	103.914	20.048	3.311	0.492
170.000	160.795	80.005	19.995	103.913	20.052	3.031	0.480
170.500	161.036	80.005	19.995	103.913	20.049	3.235	0.479
171.000	161.307	80.005	19.993	103.908	20.045	3.489	0.499
171.500	161.577	80.006	19.994	103.907	20.050	3.137	0.527
172.000	161.820	80.005	19.994	103.907	20.048	3.291	0.527
172.500	162.055	80.007	19.993	103.907	20.047	3.377	0.495
173.000	162.334	80.006	19.994	103.907	20.049	3.225	0.496
173.500	162.521	80.006	19.993	103.905	20.047	3.335	0.490
174.000	162.801	80.006	19.993	103.906	20.048	3.269	0.466
174.500	163.027	80.006	19.993	103.905	20.046	3.449	0.487
175.000	163.276	80.007	19.993	103.906	20.047	3.335	0.490
175.500	163.560	80.006	19.993	103.906	20.051	3.107	0.504
176.000	163.800	80.005	19.994	103.907	20.047	3.349	0.528
176.500	164.050	80.006	19.993	103.906	20.048	3.295	0.507
177.000	164.332	80.006	19.993	103.906	20.052	3.033	0.511
177.500	164.571	80.005	19.993	103.903	20.051	3.087	0.526
178.000	164.843	80.005	19.992	103.900	20.051	3.085	0.516
178.500	165.094	80.004	19.993	103.896	20.049	3.225	0.517
179.000	165.287	80.005	19.994	103.893	20.050	3.161	0.484
179.500	165.534	80.005	19.993	103.891	20.051	3.109	0.442
180.000	165.794	80.006	19.994	103.892	20.048	3.259	0.473
180.500	166.097	80.004	19.994	103.894	20.051	3.057	0.535
181.000	166.313	80.006	19.993	103.898	20.052	2.981	0.541
181.500	166.581	80.006	19.994	103.900	20.052	3.017	0.502
182.000	166.813	80.004	19.993	103.900	20.052	2.985	0.492
182.500	167.111	80.006	19.992	103.901	20.053	2.949	0.515
183.000	167.296	80.004	19.994	103.902	20.051	3.059	0.507
183.500	167.574	80.005	19.993	103.901	20.052	2.985	0.473
184.000	167.823	80.006	19.994	103.902	20.054	2.851	0.495
184.500	168.092	80.006	19.993	103.905	20.052	3.027	0.522
185.000	168.315	80.005	19.994	103.904	20.052	2.991	0.505
185.500	168.579	80.006	19.993	103.905	20.058	2.553	0.489
186.000	168.814	80.005	19.993	103.906	20.056	2.713	0.493
186.500	169.082	80.004	19.994	103.906	20.056	2.723	0.501
187.000	169.323	80.005	19.994	103.905	20.056	2.733	0.506
187.500	169.567	80.005	19.993	103.902	20.056	2.745	0.497
188.000	169.827	80.007	19.993	103.896	20.054	2.861	0.494
188.500	170.096	80.006	19.993	103.891	20.054	2.877	0.517
189.000	170.340	80.006	19.993	103.887	20.054	2.867	0.521
189.500	170.580	80.006	19.994	103.884	20.054	2.869	0.498
190.000	170.820	80.005	19.994	103.887	20.052	3.005	0.482
190.500	171.086	80.006	19.994	103.891	20.053	2.902	0.493
191.000	171.336	80.007	19.993	103.893	20.052	2.976	0.511
191.500	171.567	80.007	19.993	103.892	20.052	2.986	0.498
192.000	171.835	80.007	19.994	103.894	20.052	3.016	0.490
192.500	172.085	80.009	19.994	103.893	20.051	3.039	0.509
193.000	172.348	80.007	19.994	103.891	20.054	2.831	0.516
193.500	172.610	80.008	19.994	103.888	20.053	2.915	0.519
194.000	172.842	80.007	19.994	103.887	20.054	2.851	0.509
194.500	173.091	80.006	19.995	103.884	20.053	2.909	0.487
195.000	173.356	80.006	19.993	103.883	20.054	2.857	0.497
195.500	173.601	80.006	19.994	103.881	20.060	2.444	0.512
196.000	173.848	80.007	19.995	103.886	20.055	2.802	0.501
196.500	174.084	80.007	19.994	103.886	20.054	2.870	0.487
197.000	174.341	80.007	19.995	103.888	20.051	3.068	0.488
197.500	174.621	80.007	19.994	103.888	20.053	2.930	0.515
198.000	174.845	80.007	19.994	103.887	20.053	2.902	0.521
198.501	175.082	80.006	19.994	103.884	20.053	2.917	0.482
199.001	175.350	80.008	19.994	103.886	20.054	2.865	0.482
199.500	175.600	80.005	19.994	103.884	20.055	2.799	0.511
199.999	175.866	80.006	19.994	103.884	20.054	2.818	0.517
200.499	176.114	80.007	19.994	103.882	20.055	2.760	0.515
200.999	176.346	80.006	19.994	103.879	20.055	2.756	0.497
201.499	176.566	80.006	19.993	103.875	20.052	2.993	0.466
201.999	176.861	80.006	19.994	103.874	20.054	2.850	0.484
202.499	177.076	80.005	19.994	103.874	20.050	3.160	0.512
202.999	177.337	80.006	19.994	103.877	20.056	2.712	0.493
203.499	177.557	80.008	19.993	103.880	20.052	3.012	0.479
203.999	177.773	80.006	19.994	103.883	20.050	3.144	0.458
204.499	178.097	80.007	19.993	103.883	20.053	2.936	0.487
204.999	178.319	80.007	19.994	103.887	20.054	2.824	0.543
205.499	178.561	80.006	19.995	103.885	20.059	2.514	0.506
205.999	178.778	80.005	19.993	103.880	20.055	2.782	0.462
206.499	179.028	80.006	19.994	103.876	20.054	2.852	0.463
206.999	179.292	80.007	19.995	103.872	20.053	2.898	0.491
207.499	179.587	80.006	19.994	103.864	20.053	2.956	0.537
207.999	179.807	80.006	19.994	103.866	20.054	2.854	0.537
208.499	180.031	80.006	19.995	103.874	20.054	2.884	0.480
208.999	180.303	80.006	19.994	103.878	20.056	2.726	0.470
209.499	180.509	80.006	19.993	103.879	20.056	2.712	0.487
209.999	180.783	80.006	19.993	103.880	20.054	2.864	0.479
210.499	181.007	80.007	19.994	103.881	20.054	2.890	0.489
210.999	181.293	80.006	19.995	103.877	20.055	2.792	0.505
211.499	181.500	80.006	19.994	103.878	20.054	2.890	0.502
211.999	181.782	80.005	19.994	103.878	20.056	2.710	0.491
212.499	182.021	80.005	19.994	103.878	20.055	2.794	0.505
212.999	182.279	80.006	19.994	103.878	20.055	2.758	0.509
213.499	182.507	80.005	19.994	103.876	20.057	2.652	0.492
213.999	182.739	80.006	19.994	103.873	20.056	2.722	0.472
214.499	182.997	80.005	19.994	103.873	20.054	2.854	0.475
214.999	183.221	80.005	19.995	103.872	20.055	2.786	0.486
215.499	183.448	80.007	19.995	103.868	20.055	2.758	0.467
215.999	183.717	80.006	19.995	103.866	20.056	2.716	0.474
216.499	183.954	80.006	19.995	103.865	20.054	2.888	0.501
216.999	184.192	80.007	19.994	103.863	20.057	2.628	0.490
217.499	184.462	80.006	19.996	103.862	20.058	2.580	0.491
217.999	184.712	80.007	19.994	103.862	20.058	2.580	0.514
218.499	184.951	80.006	19.994	103.862	20.053	2.912	0.504
218.999	185.223	80.006	19.995	103.864	20.056	2.720	0.500
219.499	185.464	80.008	19.994	103.868	20.052	2.978	0.512
219.999	185.697	80.007	19.995	103.870	20.054	2.870	0.494
220.499	185.955	80.006	19.994	103.871	20.057	2.636	0.483
220.999	186.239	80.007	19.995	103.873	20.056	2.738	0.516
221.499	186.479	80.007	19.994	103.872	20.053	2.910	0.533
221.999	186.737	80.007	19.994	103.871	20.052	2.984	0.511
222.499	186.977	80.008	19.994	103.869	20.051	3.076	0.498
223.000	187.196	80.006	19.994	103.868	20.053	2.920	0.478
223.500	187.492	80.006	19.994	103.868	20.054	2.882	0.487
223.999	187.735	80.005	19.995	103.867	20.054	2.840	0.527
224.499	187.956	80.006	19.996	103.865	20.056	2.738	0.502
224.999	188.206	80.006	19.993	103.865	20.055	2.756	0.468
225.499	188.458	80.006	19.995	103.865	20.053	2.892	0.486
225.999	188.702	80.007	19.993	103.863	20.052	3.016	0.499
226.499	188.913	80.006	19.993	103.863	20.054	2.862	0.475
226.999	189.174	80.007	19.994	103.863	20.056	2.700	0.464
227.499	189.425	80.007	19.994	103.863	20.053	2.918	0.492
227.999	189.676	80.006	19.994	103.864	20.054	2.856	0.507
228.500	189.952	80.006	19.994	103.866	20.053	2.906	0.515
229.000	190.175	80.005	19.995	103.866	20.050	3.110	0.513
229.499	190.464	80.004	19.993	103.866	20.051	3.084	0.505
229.999	190.700	80.005	19.995	103.866	20.051	3.044	0.518
230.499	190.888	80.006	19.995	103.868	20.054	2.862	0.474
230.999	191.172	80.006	19.994	103.866	20.057	2.640	0.448
231.499	191.379	80.005	19.995	103.866	20.052	3.026	0.481
231.999	191.667	80.007	19.993	103.867	20.052	3.010	0.493
232.499	191.896	80.004	19.994	103.867	20.051	3.048	0.506
232.999	192.138	80.005	19.994	103.865	20.051	3.046	0.494
233.499	192.352	80.006	19.993	103.865	20.054	2.820	0.463
233.999	192.601	80.005	19.993	103.865	20.054	2.878	0.459
234.499	192.874	80.004	19.994	103.865	20.053	2.918	0.493
234.999	193.119	80.004	19.993	103.865	20.051	3.100	0.521
235.499	193.344	80.005	19.994	103.866	20.049	3.196	0.494
235.999	193.574	80.005	19.993	103.866	20.052	2.998	0.462
236.499	193.855	80.005	19.994	103.866	20.051	3.056	0.483
236.999	194.080	80.006	19.993	103.866	20.053	2.922	0.509
237.499	194.337	80.006	19.993	103.867	20.052	3.026	0.494
237.999	194.590	80.006	19.994	103.866	20.055	2.782	0.496
238.499	194.815	80.004	19.993	103.866	20.053	2.936	0.494
238.999	195.070	80.005	19.995	103.865	20.052	2.968	0.479
239.499	195.258	80.005	19.994	103.866	20.055	2.810	0.462
239.999	195.533	80.004	19.994	103.866	20.052	3.000	0.453
240.499	195.795	80.005	19.993	103.866	20.053	2.958	0.500
240.999	196.030	80.004	19.993	103.867	20.050	3.182	0.517
241.499	196.268	80.005	19.993	103.867	20.053	2.922	0.485
241.999	196.496	80.006	19.993	103.867	20.051	3.046	0.469
242.499	196.751	80.005	19.993	103.867	20.057	2.640	0.474
242.999	196.999	80.007	19.994	103.867	20.053	2.906	0.493
243.499	197.217	80.006	19.992	103.867	20.056	2.736	0.485
244.000	197.455	80.005	19.992	103.866	20.057	2.616	0.461
244.500	197.678	80.005	19.993	103.867	20.054	2.820	0.458
244.999	197.964	80.005	19.993	103.867	20.056	2.728	0.485
245.499	198.211	80.006	19.994	103.867	20.057	2.608	0.521
245.999	198.435	80.005	19.994	103.867	20.054	2.842	0.502
246.499	198.668	80.006	19.994	103.867	20.057	2.648	0.464
246.999	198.955	80.007	19.994	103.866	20.056	2.740	0.489
247.499	199.209	80.006	19.993	103.866	20.055	2.790	0.531
247.999	199.435	80.005	19.994	103.865	20.057	2.666	0.511
248.499	199.676	80.004	19.993	103.865	20.056	2.674	0.473
248.999	199.870	80.005	19.993	103.865	20.054	2.850	0.451
249.499	200.141	80.003	19.993	103.866	20.055	2.772	0.450
249.999	200.396	80.005	19.992	103.866	20.053	2.896	0.496
250.499	200.620	80.005	19.992	103.867	20.055	2.812	0.503
250.999	200.866	80.006	19.994	103.867	20.057	2.660	0.474
251.499	201.111	80.005	19.993	103.867	20.056	2.690	0.480
251.999	201.344	80.005	19.992	103.867	20.057	2.654	0.484
252.500	201.651	80.005	19.994	103.868	20.058	2.568	0.509
253.000	201.844	80.005	19.993	103.867	20.051	3.042	0.521
253.499	202.110	80.007	19.993	103.867	20.056	2.692	0.480
253.999	202.347	80.005	19.993	103.867	20.055	2.814	0.481
254.499	202.565	80.006	19.993	103.867	20.050	3.112	0.479
254.999	202.811	80.005	19.994	103.867	20.054	2.836	0.459
255.499	203.066	80.006	19.992	103.867	20.057	2.616	0.483
255.999	203.319	80.005	19.992	103.868	20.054	2.886	0.505
256.500	203.604	80.004	19.993	103.867	20.056	2.734	0.523
257.000	203.823	80.006	19.994	103.867	20.055	2.754	0.521
257.500	204.065	80.004	19.993	103.866	20.054	2.850	0.482
258.000	204.322	80.006	19.994	103.866	20.056	2.680	0.480
258.500	204.576	80.006	19.993	103.867	20.054	2.884	0.505
259.000	204.801	80.005	19.993	103.867	20.055	2.794	0.495
259.500	205.051	80.005	19.994	103.867	20.055	2.812	0.477
260.000	205.334	80.005	19.994	103.866	20.055	2.816	0.504
260.500	205.542	80.004	19.994	103.866	20.057	2.628	0.512
261.000	205.789	80.004	19.994	103.864	20.056	2.680	0.473
261.500	206.059	80.005	19.994	103.864	20.053	2.910	0.486
262.000	206.270	80.005	19.994	103.863	20.055	2.770	0.499
262.500	206.531	80.006	19.993	103.863	20.054	2.868	0.477
263.000	206.766	80.004	19.994	103.864	20.057	2.664	0.484
263.500	207.055	80.005	19.994	103.864	20.054	2.878	0.510
264.000	207.277	80.005	19.994	103.864	20.054	2.878	0.517
264.500	207.519	80.004	19.993	103.865	20.052	3.024	0.488
265.000	207.758	80.006	19.993	103.865	20.053	2.892	0.473
265.500	208.031	80.005	19.994	103.864	20.059	2.520	0.497
266.000	208.303	80.007	19.992	103.864	20.056	2.720	0.528
266.500	208.491	80.005	19.993	103.864	20.055	2.794	0.502
267.000	208.755	80.005	19.993	103.864	20.055	2.764	0.456
267.500	208.973	80.005	19.994	103.864	20.057	2.654	0.467
268.000	209.230	80.005	19.994	103.864	20.059	2.498	0.479
268.500	209.480	80.005	19.993	103.865	20.059	2.472	0.491
269.000	209.715	80.006	19.994	103.865	20.056	2.732	0.496
269.500	210.009	80.006	19.994	103.865	20.058	2.572	0.507
270.000	210.226	80.006	19.994	103.865	20.055	2.784	0.520
270.500	210.480	80.007	19.993	103.865	20.056	2.686	0.491
271.000	210.699	80.006	19.993	103.865	20.056	2.700	0.472
271.500	210.979	80.005	19.993	103.864	20.057	2.640	0.486
272.000	211.232	80.006	19.993	103.865	20.056	2.682	0.516
272.501	211.472	80.006	19.994	103.864	20.055	2.792	0.513
273.000	211.697	80.006	19.994	103.864	20.053	2.926	0.479
273.500	211.929	80.007	19.994	103.864	20.055	2.784	0.461
274.000	212.206	80.007	19.994	103.863	20.054	2.890	0.483
274.500	212.445	80.006	19.993	103.862	20.052	2.982	0.512
275.000	212.705	80.008	19.993	103.863	20.054	2.882	0.507
275.500	212.938	80.007	19.993	103.862	20.053	2.954	0.496
276.000	213.170	80.007	19.994	103.863	20.055	2.766	0.479
276.500	213.400	80.008	19.993	103.864	20.052	2.978	0.463
277.000	213.670	80.008	19.993	103.864	20.055	2.812	0.481
277.500	213.897	80.007	19.993	103.864	20.054	2.888	0.499
278.000	214.131	80.008	19.993	103.864	20.053	2.958	0.479
278.501	214.379	80.008	19.993	103.863	20.056	2.728	0.471
279.000	214.632	80.008	19.994	103.863	20.052	3.012	0.491
279.500	214.901	80.008	19.994	103.862	20.056	2.706	0.511
280.000	215.140	80.007	19.993	103.862	20.056	2.740	0.515
280.500	215.391	80.008	19.994	103.862	20.057	2.634	0.500
281.000	215.626	80.006	19.994	103.861	20.055	2.816	0.488
281.500	215.853	80.007	19.994	103.861	20.056	2.684	0.474
282.000	216.145	80.007	19.994	103.862	20.053	2.952	0.491
282.500	216.330	80.008	19.993	103.861	20.056	2.738	0.498
283.000	216.607	80.005	19.994	103.861	20.056	2.688	0.469
283.500	216.895	80.007	19.994	103.861	20.056	2.702	0.514
284.000	217.142	80.007	19.994	103.862	20.056	2.726	0.550
284.500	217.384	80.006	19.994	103.861	20.055	2.770	0.512
285.000	217.593	80.007	19.994	103.862	20.054	2.874	0.470
285.500	217.858	80.006	19.994	103.861	20.056	2.722	0.463
286.000	218.111	80.006	19.995	103.861	20.052	2.970	0.496
286.500	218.334	80.006	19.994	103.861	20.054	2.856	0.497
287.000	218.587	80.006	19.994	103.861	20.056	2.682	0.476
287.500	218.857	80.007	19.995	103.862	20.055	2.768	0.499
288.000	219.080	80.007	19.995	103.862	20.051	3.090	0.508
288.500	219.347	80.006	19.995	103.862	20.049	3.196	0.492
289.000	219.568	80.007	19.994	103.862	20.053	2.924	0.489
289.500	219.854	80.006	19.992	103.862	20.050	3.118	0.497
290.000	220.091	80.005	19.995	103.863	20.054	2.878	0.515
290.500	220.318	80.004	19.995	103.863	20.051	3.062	0.494
291.000	220.586	80.007	19.995	103.863	20.050	3.132	0.479
291.500	220.854	80.008	19.996	103.863	20.054	2.842	0.515
292.000	221.102	80.008	19.995	103.863	20.054	2.822	0.526
292.500	221.332	80.006	19.994	103.863	20.051	3.066	0.497
293.000	221.572	80.006	19.994	103.864	20.055	2.814	0.474
293.500	221.824	80.007	19.994	103.864	20.050	3.128	0.481
294.000	222.077	80.006	19.995	103.864	20.054	2.848	0.499
294.500	222.347	80.006	19.994	103.864	20.053	2.924	0.513
295.000	222.574	80.006	19.993	103.864	20.051	3.048	0.510
295.500	222.832	80.007	19.993	103.864	20.050	3.112	0.491
296.000	223.054	80.006	19.993	103.864	20.052	2.972	0.482
296.500	223.325	80.006	19.993	103.865	20.051	3.090	0.486
297.000	223.590	80.007	19.994	103.865	20.048	3.326	0.514
297.500	223.810	80.007	19.994	103.865	20.052	3.002	0.511
298.000	224.064	80.007	19.994	103.865	20.050	3.156	0.480
298.500	224.322	80.006	19.993	103.865	20.045	3.484	0.493
299.000	224.540	80.006	19.994	103.864	20.047	3.380	0.494
299.500	224.809	80.006	19.994	103.864	20.048	3.292	0.482
300.000	225.067	80.006	19.993	103.864	20.049	3.208	0.507
300.500	225.296	80.008	19.993	103.864	20.051	3.078	0.507
301.000	225.577	80.007	19.993	103.863	20.052	3.028	0.498
301.500	225.806	80.008	19.994	103.864	20.051	3.094	0.510
302.000	226.045	80.008	19.994	103.864	20.052	2.982	0.489
302.500	226.268	80.008	19.993	103.864	20.051	3.094	0.465
303.000	226.538	80.008	19.993	103.864	20.050	3.152	0.477
303.500	226.795	80.007	19.993	103.864	20.050	3.156	0.510
304.000	227.080	80.009	19.993	103.864	20.048	3.256	0.535
304.500	227.319	80.009	19.993	103.863	20.049	3.224	0.533
305.000	227.569	80.008	19.993	103.863	20.050	3.112	0.506
305.500	227.791	80.009	19.993	103.863	20.051	3.076	0.480
306.000	228.044	80.008	19.993	103.863	20.051	3.066	0.473
306.500	228.305	80.007	19.994	103.861	20.052	3.024	0.495
307.000	228.580	80.008	19.994	103.862	20.050	3.114	0.525
307.500	228.818	80.006	19.993	103.861	20.051	3.100	0.525
308.000	229.112	80.006	19.994	103.861	20.053	2.918	0.523
308.500	229.328	80.007	19.994	103.860	20.053	2.962	0.521
309.000	229.588	80.006	19.993	103.860	20.050	3.168	0.493
309.500	229.838	80.007	19.994	103.860	20.052	3.000	0.493
310.000	230.061	80.006	19.993	103.861	20.050	3.126	0.492
310.500	230.313	80.006	19.994	103.861	20.052	3.000	0.474
311.000	230.591	80.004	19.994	103.862	20.048	3.278	0.503
311.500	230.855	80.004	19.994	103.863	20.049	3.198	0.536
312.000	231.049	80.005	19.994	103.864	20.052	2.984	0.500
312.500	231.321	80.005	19.993	103.864	20.051	3.042	0.462
313.000	231.558	80.005	19.994	103.864	20.051	3.042	0.488
313.500	231.839	80.005	19.995	103.864	20.049	3.224	0.514
314.000	232.129	80.004	19.995	103.864	20.051	3.044	0.544
314.500	232.352	80.006	19.995	103.864	20.052	2.974	0.542
315.000	232.623	80.005	19.995	103.864	20.049	3.228	0.503
315.500	232.837	80.004	19.995	103.865	20.047	3.386	0.490
316.000	233.089	80.004	19.994	103.864	20.046	3.414	0.476
316.500	233.325	80.004	19.994	103.865	20.050	3.178	0.477
317.000	233.574	80.005	19.996	103.865	20.049	3.218	0.486
317.500	233.869	80.005	19.995	103.864	20.048	3.328	0.514
318.000	234.088	80.005	19.994	103.863	20.052	2.968	0.529
318.500	234.350	80.003	19.994	103.863	20.047	3.352	0.498
319.000	234.595	80.004	19.994	103.862	20.051	3.072	0.494
319.500	234.834	80.005	19.995	103.862	20.049	3.202	0.496
320.000	235.159	80.004	19.994	103.861	20.049	3.186	0.524
320.500	235.365	80.005	19.994	103.859	20.050	3.138	0.547
321.000	235.618	80.003	19.994	103.859	20.047	3.368	0.495
321.500	235.858	80.004	19.994	103.860	20.049	3.242	0.476
322.000	236.103	80.004	19.994	103.860	20.051	3.084	0.489
322.500	236.357	80.004	19.994	103.860	20.050	3.144	0.492
323.000	236.631	80.005	19.994	103.863	20.048	3.284	0.514
323.500	236.885	80.005	19.995	103.863	20.045	3.480	0.529
324.000	237.128	80.005	19.994	103.863	20.050	3.162	0.512
324.500	237.389	80.005	19.994	103.863	20.049	3.192	0.500
325.000	237.642	80.004	19.994	103.862	20.046	3.462	0.509
325.500	237.885	80.006	19.994	103.862	20.051	3.056	0.505
326.000	238.100	80.006	19.993	103.860	20.049	3.198	0.477
326.500	238.372	80.006	19.993	103.855	20.044	3.584	0.472
327.000	238.643	80.006	19.994	103.849	20.046	3.432	0.515
327.500	238.869	80.006	19.993	103.848	20.047	3.390	0.520
328.000	239.141	80.005	19.994	103.848	20.049	3.186	0.497
328.500	239.354	80.006	19.994	103.849	20.048	3.264	0.491
329.000	239.634	80.005	19.993	103.853	20.047	3.382	0.489
329.500	239.853	80.006	19.993	103.859	20.045	3.480	0.496
330.000	240.100	80.005	19.995	103.861	20.048	3.300	0.483
330.500	240.357	80.007	19.992	103.860	20.047	3.390	0.485
331.000	240.620	80.005	19.993	103.861	20.047	3.372	0.512
331.500	240.884	80.005	19.994	103.862	20.046	3.422	0.523
332.000	241.095	80.006	19.993	103.861	20.048	3.322	0.501
332.500	241.407	80.006	19.993	103.861	20.046	3.456	0.499
333.000	241.613	80.006	19.993	103.860	20.046	3.430	0.520
333.500	241.877	80.005	19.994	103.857	20.045	3.502	0.494
334.000	242.126	80.005	19.994	103.857	20.044	3.558	0.492
334.500	242.342	80.005	19.994	103.857	20.046	3.428	0.489
335.000	242.626	80.006	19.993	103.857	20.048	3.296	0.482
335.500	242.899	80.006	19.993	103.856	20.048	3.316	0.528
336.000	243.132	80.006	19.992	103.859	20.044	3.580	0.532
336.500	243.375	80.004	19.994	103.858	20.042	3.722	0.491
337.000	243.615	80.006	19.994	103.858	20.043	3.624	0.480
337.500	243.863	80.004	19.993	103.858	20.047	3.332	0.486
338.000	244.084	80.006	19.992	103.860	20.048	3.280	0.479
338.500	244.359	80.006	19.994	103.858	20.043	3.630	0.483
339.000	244.610	80.005	19.993	103.856	20.043	3.656	0.511
339.500	244.852	80.006	19.994	103.853	20.048	3.306	0.509
340.000	245.097	80.006	19.994	103.852	20.045	3.478	0.490
340.500	245.364	80.007	19.994	103.852	20.046	3.414	0.500
341.000	245.587	80.007	19.992	103.854	20.045	3.530	0.502
341.500	245.849	80.005	19.994	103.857	20.044	3.606	0.487
342.000	246.127	80.006	19.993	103.859	20.047	3.394	0.512
342.500	246.367	80.005	19.993	103.861	20.047	3.392	0.529
343.000	246.597	80.005	19.993	103.860	20.044	3.592	0.494
343.500	246.850	80.005	19.994	103.860	20.044	3.580	0.477
344.000	247.120	80.004	19.993	103.858	20.045	3.530	0.503
344.500	247.373	80.005	19.994	103.856	20.044	3.600	0.523
345.000	247.634	80.006	19.994	103.855	20.041	3.768	0.518
345.500	247.846	80.005	19.994	103.851	20.045	3.520	0.494
346.000	248.124	80.004	19.995	103.850	20.043	3.660	0.482
346.500	248.353	80.005	19.995	103.849	20.045	3.532	0.499
347.000	248.610	80.004	19.994	103.850	20.044	3.574	0.497
347.500	248.872	80.006	19.995	103.850	20.046	3.442	0.503
348.000	249.113	80.006	19.994	103.854	20.043	3.634	0.511
348.500	249.400	80.005	19.994	103.857	20.041	3.776	0.515
349.000	249.641	80.005	19.994	103.857	20.042	3.736	0.528
349.500	249.899	80.005	19.992	103.856	20.043	3.651	0.513
350.000	250.128	80.005	19.995	103.854	20.044	3.577	0.493
350.500	250.373	80.006	19.995	103.852	20.042	3.722	0.481
351.000	250.633	80.005	19.995	103.848	20.040	3.911	0.490
351.500	250.906	80.006	19.994	103.849	20.043	3.641	0.519
352.000	251.157	80.006	19.993	103.848	20.044	3.612	0.529
352.500	251.421	80.007	19.993	103.850	20.045	3.484	0.520
353.000	251.650	80.007	19.993	103.849	20.041	3.830	0.504
353.500	251.949	80.007	19.994	103.849	20.041	3.814	0.511
354.000	252.234	80.006	19.994	103.847	20.041	3.810	0.556
354.500	252.417	80.007	19.993	103.851	20.041	3.800	0.526
355.000	252.672	80.008	19.993	103.852	20.040	3.864	0.453
355.500	252.932	80.008	19.993	103.849	20.041	3.828	0.477
356.000	253.197	80.007	19.993	103.852	20.041	3.830	0.520
356.500	253.433	80.008	19.993	103.853	20.038	4.003	0.512
357.000	253.671	80.008	19.993	103.852	20.038	3.997	0.487
357.500	253.904	80.009	19.994	103.852	20.038	3.995	0.473
358.000	254.166	80.007	19.993	103.855	20.044	3.599	0.483
358.500	254.432	80.008	19.994	103.852	20.041	3.802	0.511
359.000	254.653	80.008	19.994	103.848	20.041	3.828	0.508
359.500	254.901	80.009	19.992	103.851	20.041	3.826	0.478
360.000	255.165	80.007	19.992	103.848	20.040	3.866	0.490
360.500	255.407	80.008	19.993	103.844	20.042	3.754	0.509
361.000	255.623	80.008	19.993	103.844	20.043	3.668	0.482
361.500	255.893	80.008	19.993	103.849	20.037	4.116	0.472
362.000	256.156	80.008	19.993	103.843	20.039	3.952	0.509
362.500	256.348	80.007	19.993	103.844	20.036	4.188	0.494
363.000	256.659	80.007	19.993	103.851	20.039	3.968	0.479
363.500	256.887	80.008	19.993	103.854	20.037	4.112	0.521
364.000	257.132	80.008	19.993	103.854	20.039	3.946	0.506
364.500	257.423	80.007	19.993	103.857	20.038	4.030	0.505
365.000	257.639	80.007	19.993	103.858	20.037	4.072	0.522
365.500	257.881	80.008	19.993	103.855	20.038	4.056	0.482
366.000	258.151	80.007	19.992	103.855	20.041	3.816	0.485
366.500	258.425	80.008	19.993	103.854	20.038	4.012	0.528
367.000	258.619	80.008	19.992	103.850	20.038	4.020	0.506
367.500	258.899	80.007	19.993	103.846	20.038	4.038	0.471
368.000	259.154	80.006	19.993	103.844	20.038	4.038	0.505
368.500	259.394	80.007	19.993	103.843	20.037	4.098	0.515
369.000	259.645	80.007	19.993	103.845	20.039	3.968	0.493
369.500	259.869	80.006	19.993	103.851	20.040	3.876	0.483
370.000	260.116	80.006	19.993	103.855	20.042	3.750	0.473
370.500	260.391	80.006	19.993	103.859	20.039	3.944	0.496
371.000	260.628	80.007	19.994	103.858	20.039	3.962	0.517
371.500	260.838	80.006	19.992	103.858	20.039	3.914	0.480
372.000	261.131	80.008	19.993	103.856	20.041	3.816	0.475
372.500	261.358	80.006	19.994	103.855	20.038	4.054	0.511
373.000	261.611	80.005	19.993	103.855	20.038	4.008	0.500
373.500	261.878	80.006	19.994	103.857	20.037	4.126	0.500
374.000	262.105	80.007	19.993	103.857	20.034	4.312	0.507
374.500	262.373	80.007	19.993	103.857	20.036	4.170	0.494
375.000	262.642	80.007	19.994	103.859	20.035	4.210	0.516
375.500	262.863	80.006	19.994	103.861	20.035	4.276	0.514
376.000	263.145	80.006	19.994	103.861	20.038	4.030	0.497
376.500	263.331	80.007	19.994	103.862	20.034	4.298	0.485
377.000	263.605	80.007	19.994	103.862	20.037	4.110	0.464
377.500	263.897	80.007	19.993	103.862	20.038	4.024	0.513
378.000	264.111	80.008	19.994	103.861	20.035	4.244	0.536
378.500	264.399	80.007	19.994	103.862	20.034	4.310	0.504
379.000	264.617	80.006	19.995	103.862	20.036	4.178	0.504
379.500	264.899	80.007	19.994	103.864	20.035	4.218	0.503
380.000	265.107	80.007	19.995	103.864	20.036	4.172	0.495
380.500	265.370	80.006	19.994	103.863	20.032	4.440	0.481
381.000	265.621	80.008	19.993	103.863	20.038	4.010	0.492
381.500	265.880	80.007	19.993	103.859	20.033	4.380	0.511
382.000	266.126	80.008	19.995	103.856	20.035	4.266	0.507
382.500	266.357	80.007	19.993	103.853	20.033	4.356	0.491
383.000	266.632	80.007	19.995	103.854	20.034	4.336	0.492
383.500	266.883	80.008	19.994	103.854	20.033	4.364	0.516
384.000	267.157	80.007	19.994	103.858	20.034	4.304	0.526
384.500	267.399	80.007	19.993	103.861	20.033	4.422	0.521
385.000	267.637	80.007	19.994	103.865	20.032	4.452	0.498
385.500	267.885	80.008	19.993	103.865	20.031	4.510	0.482
386.000	268.171	80.007	19.993	103.864	20.032	4.426	0.510
386.500	268.402	80.008	19.993	103.864	20.030	4.580	0.526
387.000	268.643	80.007	19.993	103.864	20.032	4.428	0.495
387.500	268.915	80.007	19.994	103.864	20.029	4.684	0.492
388.000	269.152	80.008	19.994	103.863	20.030	4.634	0.511
388.500	269.379	80.006	19.994	103.863	20.030	4.622	0.486
389.000	269.640	80.008	19.994	103.862	20.032	4.430	0.476
389.500	269.870	80.008	19.994	103.861	20.030	4.594	0.489
390.000	270.139	80.007	19.994	103.860	20.031	4.554	0.495
390.500	270.418	80.007	19.993	103.860	20.030	4.608	0.524
391.000	270.679	80.006	19.994	103.859	20.029	4.664	0.545
391.500	270.930	80.007	19.994	103.858	20.030	4.636	0.526
392.000	271.179	80.007	19.994	103.858	20.031	4.528	0.505
392.500	271.426	80.007	19.994	103.858	20.026	4.922	0.498
393.000	271.670	80.006	19.995	103.857	20.028	4.726	0.494
393.500	271.955	80.006	19.994	103.857	20.030	4.590	0.510
394.000	272.216	80.006	19.993	103.854	20.024	5.042	0.537
394.500	272.435	80.005	19.995	103.853	20.027	4.848	0.513
395.000	272.691	80.006	19.994	103.854	20.030	4.638	0.478
395.500	272.916	80.005	19.994	103.855	20.025	4.956	0.478
396.000	273.197	80.006	19.994	103.858	20.026	4.918	0.493
396.500	273.438	80.004	19.994	103.861	20.024	5.024	0.513
397.000	273.686	80.006	19.994	103.862	20.025	4.950	0.505
397.500	273.910	80.005	19.994	103.862	20.026	4.876	0.481
398.000	274.202	80.006	19.995	103.862	20.026	4.908	0.494
398.500	274.444	80.005	19.994	103.862	20.023	5.110	0.525
399.000	274.687	80.005	19.993	103.862	20.025	4.998	0.510
399.500	274.957	80.006	19.994	103.863	20.022	5.188	0.499
400.000	275.206	80.005	19.994	103.863	20.024	5.080	0.516
400.500	275.441	80.006	19.994	103.863	20.023	5.104	0.501
401.000	275.698	80.005	19.994	103.863	20.022	5.220	0.488
401.500	275.953	80.006	19.994	103.862	20.021	5.264	0.502
402.000	276.220	80.006	19.996	103.862	20.021	5.240	0.517
402.500	276.440	80.006	19.995	103.862	20.021	5.260	0.504
403.000	276.727	80.004	19.995	103.862	20.021	5.286	0.497
403.500	276.991	80.004	19.995	103.862	20.021	5.248	0.529
404.000	277.227	80.005	19.994	103.863	20.019	5.394	0.526
404.500	277.475	80.006	19.994	103.863	20.017	5.548	0.492
405.000	277.705	80.004	19.994	103.863	20.020	5.354	0.481
405.500	278.002	80.004	19.994	103.863	20.019	5.408	0.502
406.000	278.255	80.006	19.994	103.863	20.021	5.246	0.538
406.500	278.456	80.005	19.995	103.863	20.014	5.740	0.502
407.000	278.738	80.006	19.994	103.863	20.015	5.736	0.469
407.500	278.977	80.006	19.995	103.863	20.014	5.784	0.502
408.000	279.243	80.007	19.994	103.863	20.012	5.912	0.513
408.500	279.487	80.006	19.995	103.863	20.013	5.832	0.508
409.000	279.720	80.005	19.995	103.863	20.015	5.712	0.494
409.500	279.976	80.004	19.993	103.863	20.014	5.790	0.483
410.000	280.258	80.004	19.994	103.862	20.013	5.844	0.513
410.500	280.527	80.006	19.995	103.863	20.013	5.852	0.544
411.000	280.761	80.005	19.996	103.863	20.009	6.124	0.527
411.500	281.012	80.005	19.995	103.863	20.009	6.168	0.494
412.000	281.253	80.006	19.995	103.863	20.012	5.926	0.489
412.500	281.486	80.006	19.995	103.862	20.007	6.260	0.484
413.000	281.756	80.005	19.995	103.861	20.010	6.042	0.489
413.500	282.029	80.005	19.994	103.860	20.011	5.960	0.523
414.000	282.255	80.006	19.994	103.860	20.009	6.109	0.521
414.500	282.510	80.005	19.995	103.860	20.010	6.054	0.490
415.000	282.766	80.006	19.994	103.860	20.006	6.330	0.496
415.500	283.002	80.006	19.994	103.861	20.005	6.432	0.502
416.000	283.269	80.006	19.994	103.862	20.003	6.567	0.498
416.500	283.519	80.006	19.994	103.863	20.007	6.248	0.510
417.000	283.754	80.006	19.994	103.863	20.005	6.412	0.501
417.500	284.046	80.005	19.995	103.863	20.006	6.356	0.506
418.000	284.290	80.004	19.995	103.864	20.004	6.510	0.532
418.500	284.515	80.006	19.995	103.864	20.004	6.522	0.503
419.000	284.765	80.006	19.994	103.864	20.002	6.617	0.472
419.500	285.048	80.006	19.994	103.864	20.002	6.661	0.504
420.000	285.308	80.005	19.994	103.867	20.003	6.573	0.538
420.500	285.542	80.006	19.993	103.867	20.000	6.809	0.518
421.000	285.812	80.006	19.994	103.867	19.999	6.843	0.499
421.500	286.055	80.005	19.994	103.866	20.001	6.733	0.508
422.000	286.273	80.007	19.993	103.867	19.999	6.857	0.487
422.500	286.556	80.006	19.994	103.865	19.998	6.959	0.481
423.000	286.806	80.007	19.994	103.867	19.998	6.945	0.517
423.500	287.071	80.005	19.993	103.868	19.995	7.189	0.524
424.000	287.316	80.006	19.993	103.868	19.996	7.097	0.513
424.500	287.590	80.005	19.993	103.868	19.995	7.191	0.515
425.000	287.819	80.005	19.994	103.869	19.993	7.310	0.511
425.500	288.062	80.007	19.993	103.868	19.993	7.310	0.487
426.000	288.317	80.006	19.994	103.867	19.993	7.295	0.485
426.500	288.574	80.006	19.994	103.868	19.993	7.285	0.505
427.000	288.808	80.005	19.994	103.869	19.992	7.357	0.501
427.500	289.135	80.006	19.993	103.868	19.992	7.399	0.526
428.000	289.368	80.006	19.992	103.868	19.993	7.281	0.561
428.500	289.611	80.006	19.994	103.868	19.992	7.403	0.518
429.000	289.869	80.005	19.994	103.868	19.989	7.615	0.488
429.500	290.108	80.006	19.993	103.868	19.987	7.745	0.499
430.000	290.363	80.005	19.993	103.871	19.990	7.515	0.495
430.500	290.655	80.006	19.993	103.871	19.987	7.767	0.520
431.000	290.903	80.007	19.993	103.873	19.985	7.881	0.544
431.500	291.153	80.006	19.993	103.874	19.987	7.726	0.519
432.000	291.401	80.005	19.994	103.875	19.983	8.016	0.498
432.500	291.676	80.006	19.993	103.876	19.986	7.848	0.511
433.000	291.941	80.004	19.993	103.881	19.985	7.914	0.531
433.500	292.174	80.005	19.993	103.883	19.982	8.104	0.519
434.000	292.488	80.006	19.993	103.881	19.983	8.040	0.522
434.500	292.730	80.005	19.993	103.878	19.982	8.134	0.551
435.000	292.955	80.007	19.993	103.874	19.978	8.405	0.512
435.500	293.205	80.007	19.994	103.870	19.977	8.507	0.471
436.000	293.509	80.008	19.993	103.867	19.977	8.509	0.514
436.500	293.707	80.006	19.992	103.867	19.978	8.401	0.528
437.000	294.027	80.007	19.993	103.870	19.973	8.745	0.510
437.500	294.227	80.006	19.993	103.871	19.972	8.871	0.519
438.000	294.471	80.006	19.992	103.875	19.970	8.971	0.482
438.500	294.756	80.007	19.994	103.877	19.971	8.889	0.486
439.000	295.037	80.007	19.993	103.878	19.971	8.909	0.548
439.500	295.250	80.006	19.994	103.879	19.971	8.945	0.530
440.000	295.518	80.007	19.993	103.880	19.967	9.223	0.488
440.500	295.768	80.007	19.993	103.877	19.965	9.335	0.500
441.000	296.034	80.007	19.993	103.876	19.969	9.059	0.517
441.500	296.305	80.007	19.994	103.877	19.967	9.242	0.527
442.000	296.525	80.007	19.993	103.880	19.964	9.458	0.514
442.500	296.787	80.007	19.993	103.882	19.964	9.400	0.486
443.000	297.067	80.007	19.994	103.885	19.961	9.640	0.512
443.500	297.317	80.006	19.994	103.886	19.962	9.566	0.536
444.000	297.575	80.008	19.993	103.889	19.959	9.784	0.520
444.500	297.820	80.007	19.993	103.886	19.957	9.970	0.506
445.000	298.114	80.007	19.993	103.885	19.959	9.802	0.521
445.500	298.334	80.008	19.993	103.887	19.956	9.998	0.526
446.000	298.616	80.007	19.993	103.892	19.955	10.078	0.508
446.500	298.834	80.006	19.994	103.894	19.952	10.316	0.501
447.000	299.080	80.007	19.994	103.898	19.955	10.066	0.482
447.500	299.349	80.006	19.993	103.898	19.952	10.318	0.490
448.000	299.622	80.006	19.993	103.899	19.950	10.468	0.528
448.500	299.863	80.008	19.994	103.898	19.950	10.454	0.527
449.000	300.093	80.006	19.992	103.895	19.946	10.722	0.492
449.500	300.347	80.006	19.993	103.894	19.948	10.608	0.478
450.000	300.604	80.007	19.993	103.893	19.946	10.742	0.497
450.500	300.846	80.007	19.993	103.893	19.945	10.778	0.505
451.000	301.108	80.007	19.993	103.895	19.943	10.938	0.501
451.500	301.370	80.007	19.993	103.897	19.944	10.902	0.514
452.000	301.657	80.007	19.994	103.899	19.943	10.990	0.537
452.500	301.907	80.007	19.994	103.901	19.938	11.331	0.543
453.000	302.138	80.007	19.993	103.900	19.936	11.439	0.509
453.500	302.406	80.008	19.994	103.900	19.938	11.343	0.490
454.000	302.624	80.007	19.993	103.900	19.936	11.459	0.492
454.500	302.935	80.007	19.994	103.899	19.933	11.659	0.508
455.000	303.161	80.008	19.994	103.902	19.931	11.821	0.533
455.500	303.408	80.009	19.994	103.902	19.931	11.841	0.505
456.000	303.642	80.007	19.994	103.902	19.927	12.109	0.477
456.500	303.888	80.008	19.993	103.901	19.927	12.147	0.481
457.000	304.174	80.007	19.993	103.901	19.926	12.171	0.506
457.500	304.424	80.005	19.994	103.901	19.929	11.962	0.534
458.000	304.651	80.008	19.994	103.901	19.925	12.306	0.507
458.500	304.912	80.008	19.992	103.900	19.923	12.432	0.482
459.000	305.166	80.008	19.994	103.901	19.919	12.732	0.501
459.500	305.419	80.008	19.994	103.902	19.922	12.485	0.511
460.000	305.698	80.007	19.993	103.901	19.918	12.809	0.520
460.500	305.930	80.008	19.992	103.901	19.916	12.936	0.521
461.000	306.186	80.006	19.993	103.901	19.912	13.204	0.499
461.500	306.430	80.009	19.993	103.901	19.915	12.995	0.494
462.000	306.675	80.008	19.994	103.902	19.912	13.245	0.494
462.500	306.939	80.009	19.993	103.902	19.908	13.523	0.499
463.000	307.207	80.009	19.993	103.903	19.905	13.704	0.521
463.500	307.447	80.009	19.993	103.902	19.906	13.641	0.520
464.000	307.706	80.009	19.992	103.902	19.903	13.901	0.503
464.500	307.966	80.009	19.993	103.902	19.902	13.989	0.509
465.000	308.210	80.009	19.992	103.902	19.898	14.260	0.511
465.500	308.479	80.009	19.993	103.902	19.895	14.451	0.509
466.000	308.748	80.009	19.993	103.903	19.896	14.405	0.526
466.500	308.960	80.009	19.993	103.902	19.893	14.641	0.509
467.000	309.227	80.010	19.992	103.902	19.890	14.803	0.480
467.500	309.468	80.008	19.994	103.903	19.888	15.007	0.493
468.000	309.761	80.009	19.993	103.906	19.888	14.969	0.521
468.500	309.988	80.009	19.993	103.910	19.886	15.105	0.527
469.000	310.234	80.009	19.993	103.910	19.885	15.221	0.497
469.500	310.490	80.008	19.991	103.910	19.884	15.257	0.488
470.000	310.726	80.009	19.993	103.913	19.875	15.934	0.497
470.500	310.965	80.009	19.995	103.915	19.876	15.838	0.483
471.000	311.233	80.009	19.995	103.918	19.875	15.898	0.491
471.500	311.510	80.009	19.993	103.922	19.874	16.018	0.526
472.000	311.765	80.008	19.994	103.926	19.871	16.197	0.539
472.500	312.053	80.008	19.995	103.930	19.865	16.641	0.537
473.000	312.280	80.008	19.994	103.932	19.865	16.639	0.529
473.500	312.590	80.008	19.993	103.927	19.862	16.896	0.526
474.000	312.819	80.007	19.994	103.925	19.857	17.262	0.538
474.500	313.054	80.008	19.994	103.926	19.854	17.438	0.501
475.000	313.299	80.008	19.993	103.926	19.855	17.412	0.472
475.500	313.585	80.007	19.994	103.926	19.853	17.505	0.506
476.000	313.829	80.007	19.995	103.931	19.848	17.910	0.531
476.500	314.037	80.008	19.993	103.937	19.846	18.061	0.491
477.000	314.301	80.007	19.995	103.939	19.843	18.253	0.462
477.500	314.577	80.007	19.995	103.939	19.840	18.454	0.506
478.000	314.803	80.005	19.994	103.940	19.839	18.537	0.521
478.500	315.080	80.007	19.995	103.939	19.837	18.732	0.502
479.000	315.317	80.005	19.994	103.939	19.835	18.891	0.508
479.500	315.587	80.006	19.994	103.939	19.825	19.619	0.510
480.000	315.837	80.006	19.994	103.938	19.826	19.542	0.514
480.500	316.110	80.007	19.996	103.938	19.824	19.646	0.522
481.000	316.350	80.006	19.994	103.938	19.823	19.750	0.519
481.500	316.586	80.007	19.994	103.938	19.820	19.983	0.495
482.000	316.819	80.006	19.994	103.939	19.816	20.229	0.472
482.500	317.095	80.006	19.994	103.940	19.811	20.612	0.489
483.000	317.348	80.007	19.994	103.942	19.809	20.736	0.519
483.500	317.593	80.008	19.994	103.942	19.808	20.804	0.514
484.000	317.842	80.007	19.994	103.943	19.802	21.265	0.496
484.500	318.110	80.006	19.994	103.946	19.802	21.297	0.505
485.000	318.361	80.007	19.994	103.946	19.801	21.373	0.517
485.500	318.568	80.007	19.994	103.945	19.794	21.860	0.489
486.000	318.845	80.008	19.993	103.945	19.793	21.952	0.471
486.500	319.105	80.005	19.993	103.947	19.792	22.014	0.511
487.000	319.332	80.006	19.994	103.944	19.789	22.232	0.512
487.500	319.619	80.007	19.994	103.945	19.783	22.645	0.501
488.000	319.826	80.005	19.994	103.947	19.782	22.730	0.504
488.500	320.072	80.005	19.993	103.948	19.777	23.113	0.473
489.000	320.309	80.006	19.993	103.953	19.774	23.314	0.468
489.500	320.583	80.006	19.995	103.960	19.770	23.630	0.497
490.000	320.805	80.006	19.994	103.966	19.766	23.941	0.504
490.500	321.095	80.007	19.993	103.972	19.762	24.187	0.504
491.000	321.308	80.005	19.994	103.978	19.759	24.404	0.507
491.500	321.579	80.006	19.994	103.979	19.755	24.711	0.494
492.000	321.812	80.006	19.993	103.977	19.754	24.790	0.494
492.500	322.065	80.006	19.994	103.978	19.749	25.178	0.495
493.000	322.287	80.007	19.995	103.978	19.745	25.413	0.481
493.500	322.547	80.005	19.995	103.979	19.741	25.766	0.478
494.000	322.791	80.006	19.995	103.979	19.736	26.084	0.493
494.500	323.052	80.004	19.995	103.982	19.731	26.475	0.504
495.000	323.297	80.006	19.995	103.982	19.727	26.740	0.505
495.500	323.568	80.005	19.994	103.984	19.721	27.177	0.511
496.000	323.814	80.005	19.995	103.984	19.719	27.327	0.517
496.500	324.036	80.006	19.995	103.984	19.716	27.602	0.493
497.000	324.309	80.007	19.995	103.984	19.710	27.972	0.482
497.500	324.550	80.007	19.994	103.984	19.707	28.193	0.505
498.000	324.827	80.007	19.994	103.984	19.701	28.678	0.516
498.500	325.058	80.006	19.994	103.985	19.698	28.906	0.513
499.000	325.310	80.006	19.994	103.987	19.695	29.117	0.495
499.500	325.532	80.007	19.994	103.990	19.688	29.583	0.478
500.000	325.813	80.006	19.993	103.994	19.682	30.086	0.488
500.500	326.063	80.005	19.994	103.999	19.679	30.264	0.517
501.000	326.365	80.005	19.995	104.005	19.673	30.717	0.542
501.500	326.584	80.006	19.995	104.010	19.670	30.968	0.536
502.000	326.840	80.005	19.993	104.013	19.668	31.060	0.498
502.500	327.054	80.005	19.994	104.016	19.657	31.870	0.472
503.000	327.356	80.004	19.994	104.018	19.656	31.967	0.493
503.500	327.584	80.005	19.994	104.018	19.650	32.413	0.523
504.000	327.832	80.005	19.995	104.019	19.645	32.784	0.503
504.500	328.076	80.005	19.995	104.021	19.639	33.244	0.484
505.000	328.324	80.005	19.995	104.021	19.635	33.527	0.492
505.500	328.568	80.005	19.994	104.022	19.626	34.136	0.492
506.000	328.837	80.004	19.994	104.022	19.623	34.406	0.503
506.500	329.083	80.004	19.995	104.023	19.618	34.785	0.514
507.000	329.349	80.005	19.994	104.024	19.611	35.262	0.514
507.500	329.599	80.005	19.995	104.025	19.604	35.770	0.514
508.000	329.867	80.004	19.995	104.026	19.598	36.185	0.517
508.500	330.072	80.002	19.994	104.027	19.593	36.581	0.496
509.000	330.352	80.003	19.993	104.028	19.586	37.085	0.479
509.500	330.589	80.004	19.995	104.034	19.578	37.661	0.501
510.000	330.821	80.005	19.994	104.041	19.575	37.894	0.493
510.500	331.062	80.005	19.994	104.048	19.568	38.454	0.471
511.000	331.283	80.004	19.995	104.054	19.560	39.016	0.467
511.500	331.553	80.003	19.994	104.060	19.555	39.404	0.477
512.000	331.832	80.005	19.995	104.061	19.547	39.932	0.520
512.500	332.073	80.005	19.993	104.062	19.540	40.462	0.534
513.000	332.322	80.005	19.993	104.063	19.536	40.761	0.505
513.500	332.567	80.004	19.993	104.064	19.528	41.341	0.492
514.000	332.820	80.003	19.993	104.064	19.525	41.607	0.497
514.500	333.063	80.005	19.993	104.069	19.515	42.306	0.497
515.000	333.352	80.005	19.994	104.075	19.509	42.732	0.514
515.500	333.598	80.004	19.994	104.081	19.503	43.199	0.533
516.000	333.840	80.006	19.994	104.087	19.492	44.026	0.512
516.500	334.111	80.005	19.994	104.093	19.491	44.079	0.501
517.000	334.369	80.006	19.993	104.095	19.479	44.956	0.521
517.500	334.601	80.007	19.994	104.097	19.473	45.360	0.509
518.000	334.843	80.005	19.993	104.098	19.466	45.941	0.482
518.500	335.129	80.007	19.994	104.100	19.457	46.556	0.501
519.000	335.364	80.007	19.993	104.100	19.451	47.030	0.524
519.500	335.613	80.007	19.993	104.102	19.443	47.585	0.503
520.000	335.868	80.007	19.994	104.105	19.436	48.091	0.494
520.500	336.099	80.008	19.994	104.105	19.428	48.696	0.495
521.000	336.381	80.008	19.993	104.109	19.417	49.535	0.499
521.500	336.614	80.009	19.992	104.116	19.411	49.949	0.514
522.000	336.887	80.008	19.993	104.121	19.399	50.804	0.510
522.500	337.151	80.008	19.994	104.125	19.391	51.386	0.522
523.000	337.365	80.008	19.993	104.131	19.383	52.023	0.508
523.500	337.595	80.008	19.993	104.134	19.375	52.563	0.461
524.000	337.887	80.008	19.993	104.134	19.363	53.467	0.483
524.500	338.123	80.008	19.993	104.134	19.356	54.010	0.525
525.000	338.366	80.008	19.993	104.138	19.347	54.649	0.503
525.500	338.667	80.007	19.994	104.141	19.337	55.375	0.511
526.000	338.901	80.009	19.994	104.148	19.327	56.114	0.539
526.500	339.132	80.007	19.994	104.152	19.317	56.822	0.500
527.000	339.400	80.008	19.992	104.157	19.307	57.563	0.483
527.500	339.650	80.008	19.993	104.162	19.299	58.204	0.509
528.000	339.923	80.008	19.993	104.166	19.286	59.129	0.520
528.500	340.173	80.007	19.993	104.167	19.278	59.711	0.523
529.000	340.407	80.007	19.994	104.171	19.268	60.466	0.504
529.500	340.665	80.006	19.993	104.173	19.256	61.307	0.489
530.000	340.914	80.007	19.995	104.176	19.253	61.552	0.500
530.500	341.185	80.008	19.995	104.183	19.238	62.629	0.513
531.000	341.450	80.007	19.995	104.191	19.229	63.319	0.528
531.500	341.705	80.008	19.994	104.199	19.218	64.155	0.528
532.000	341.966	80.007	19.993	104.206	19.207	64.913	0.518
532.500	342.195	80.007	19.993	104.212	19.200	65.441	0.503
533.000	342.508	80.007	19.993	104.213	19.188	66.357	0.516
533.500	342.716	80.007	19.994	104.214	19.176	67.234	0.532
534.000	342.949	80.006	19.993	104.214	19.165	68.033	0.481
534.500	343.230	80.007	19.994	104.214	19.156	68.724	0.477
535.000	343.478	80.008	19.994	104.216	19.142	69.726	0.522
535.500	343.718	80.008	19.993	104.223	19.132	70.440	0.509
536.000	343.964	80.007	19.994	104.229	19.119	71.415	0.487
536.500	344.202	80.007	19.994	104.235	19.107	72.320	0.485
537.000	344.454	80.007	19.994	104.242	19.099	72.855	0.487
537.500	344.724	80.007	19.993	104.248	19.086	73.843	0.506
538.000	344.944	80.006	19.995	104.249	19.073	74.804	0.506
538.500	345.233	80.005	19.995	104.251	19.060	75.748	0.499
539.000	345.478	80.007	19.993	104.253	19.048	76.608	0.521
539.500	345.725	80.007	19.994	104.254	19.035	77.622	0.513
540.000	345.992	80.006	19.994	104.254	19.025	78.358	0.503
540.500	346.245	80.006	19.994	104.257	19.014	79.163	0.517
541.000	346.467	80.006	19.994	104.264	19.002	80.011	0.498
541.500	346.743	80.008	19.994	104.271	18.991	80.833	0.487
542.000	346.991	80.007	19.994	104.277	18.976	81.902	0.511
542.500	347.254	80.007	19.994	104.285	18.964	82.833	0.518
543.000	347.480	80.009	19.994	104.290	18.953	83.622	0.500
543.500	347.768	80.008	19.994	104.293	18.940	84.554	0.502
544.000	348.015	80.009	19.994	104.296	18.927	85.554	0.525
544.500	348.297	80.009	19.994	104.300	18.914	86.469	0.532
545.000	348.541	80.008	19.994	104.307	18.902	87.356	0.528
545.500	348.794	80.009	19.994	104.315	18.890	88.262	0.511
546.000	349.026	80.009	19.992	104.321	18.875	89.374	0.490
546.500	349.280	80.008	19.992	104.326	18.862	90.312	0.486
547.000	349.537	80.008	19.993	104.329	18.851	91.123	0.499
547.500	349.800	80.009	19.993	104.330	18.840	91.929	0.516
548.000	350.072	80.008	19.993	104.332	18.827	92.900	0.527
548.500	350.309	80.010	19.994	104.336	18.812	93.987	0.522
549.000	350.577	80.008	19.993	104.343	18.798	95.063	0.506
549.500	350.792	80.009	19.993	104.351	18.788	95.787	0.494
550.000	351.051	80.008	19.993	104.359	18.774	96.803	0.479
550.500	351.306	80.007	19.993	104.365	18.761	97.759	0.494
551.000	351.557	80.008	19.992	104.369	18.750	98.544	0.510
551.500	351.840	80.009	19.993	104.370	18.734	99.769	0.520
552.000	352.102	80.009	19.992	104.370	18.721	100.673	0.540
552.500	352.322	80.008	19.993	104.370	18.708	101.683	0.513
553.000	352.603	80.008	19.993	104.373	18.694	102.687	0.491
553.500	352.806	80.008	19.992	104.376	18.682	103.541	0.492
554.000	353.111	80.008	19.993	104.382	18.667	104.662	0.496
554.500	353.372	80.008	19.993	104.389	18.654	105.600	0.537
555.000	353.598	80.009	19.993	104.397	18.643	106.425	0.527
555.500	353.903	80.008	19.993	104.403	18.628	107.563	0.509
556.000	354.159	80.006	19.993	104.408	18.616	108.405	0.546
556.500	354.382	80.007	19.993	104.410	18.602	109.472	0.520
557.000	354.643	80.005	19.993	104.412	18.587	110.544	0.482
557.500	354.912	80.006	19.992	104.415	18.571	111.762	0.507
558.000	355.112	80.005	19.993	104.418	18.560	112.516	0.499
558.500	355.384	80.006	19.994	104.418	18.547	113.496	0.470
559.000	355.631	80.006	19.993	104.420	18.535	114.388	0.496
559.500	355.901	80.007	19.994	104.423	18.522	115.348	0.519
560.000	356.163	80.006	19.992	104.426	18.511	116.151	0.524
560.500	356.388	80.007	19.994	104.431	18.499	117.049	0.509
561.000	356.654	80.006	19.993	104.438	18.488	117.844	0.489
561.500	356.912	80.006	19.994	104.442	18.473	118.933	0.508
562.000	357.154	80.006	19.994	104.448	18.466	119.474	0.512
562.500	357.422	80.006	19.994	104.450	18.449	120.671	0.505
563.000	357.640	80.006	19.993	104.451	18.441	121.309	0.498
563.500	357.913	80.006	19.993	104.451	18.429	122.136	0.489
564.000	358.187	80.006	19.993	104.452	18.419	122.917	0.519
564.500	358.468	80.006	19.994	104.452	18.405	123.912	0.550
565.000	358.712	80.006	19.993	104.453	18.399	124.385	0.540
565.500	358.956	80.007	19.994	104.455	18.385	125.411	0.507
566.000	359.186	80.006	19.995	104.458	18.373	126.251	0.481
566.500	359.463	80.005	19.994	104.464	18.364	126.918	0.490
567.000	359.698	80.005	19.994	104.470	18.356	127.506	0.509
567.500	360.002	80.005	19.994	104.473	18.345	128.323	0.526
568.000	360.187	80.006	19.994	104.474	18.336	129.004	0.514
568.500	360.427	80.005	19.995	104.477	18.325	129.810	0.457
569.000	360.696	80.005	19.995	104.475	18.317	130.336	0.467
569.500	360.956	80.005	19.995	104.473	18.306	131.198	0.520
570.000	361.215	80.006	19.994	104.477	18.299	131.695	0.524
570.500	361.453	80.005	19.994	104.480	18.289	132.388	0.508
571.000	361.733	80.006	19.994	104.482	18.279	133.151	0.508
571.500	361.936	80.006	19.994	104.482	18.275	133.431	0.501
572.000	362.168	80.006	19.993	104.483	18.263	134.328	0.459
572.500	362.459	80.005	19.995	104.482	18.259	134.586	0.479
573.000	362.712	80.005	19.994	104.481	18.251	135.152	0.533
573.500	362.982	80.005	19.994	104.479	18.245	135.632	0.534
574.000	363.230	80.006	19.995	104.479	18.240	135.964	0.521
574.500	363.494	80.005	19.995	104.474	18.234	136.433	0.515
575.000	363.737	80.007	19.994	104.470	18.226	136.957	0.510
575.500	364.008	80.006	19.994	104.469	18.220	137.400	0.510
576.000	364.214	80.006	19.994	104.467	18.215	137.798	0.495
576.500	364.481	80.005	19.994	104.464	18.211	138.111	0.475
577.000	364.733	80.005	19.994	104.464	18.210	138.163	0.496
577.500	365.023	80.006	19.994	104.462	18.200	138.834	0.530
578.000	365.238	80.007	19.993	104.458	18.202	138.681	0.524
578.500	365.499	80.004	19.994	104.455	18.198	139.016	0.491
579.000	365.745	80.005	19.993	104.456	18.196	139.162	0.491
579.500	365.996	80.005	19.994	104.456	18.190	139.553	0.502
580.000	366.252	80.006	19.994	104.455	18.190	139.574	0.502
580.500	366.488	80.006	19.994	104.454	18.188	139.699	0.500
581.000	366.743	80.006	19.995	104.453	18.186	139.824	0.491
581.500	367.005	80.007	19.995	104.451	18.187	139.741	0.503
582.000	367.272	80.006	19.993	104.450	18.184	139.993	0.523
582.500	367.524	80.006	19.993	104.447	18.184	139.923	0.524
583.000	367.755	80.006	19.993	104.440	18.187	139.741	0.501
583.500	368.023	80.007	19.994	104.433	18.189	139.556	0.491
584.000	368.236	80.007	19.994	104.426	18.189	139.540	0.490
584.500	368.510	80.007	19.996	104.419	18.192	139.318	0.484
585.000	368.765	80.006	19.995	104.413	18.193	139.205	0.508
585.500	369.015	80.006	19.994	104.412	18.197	138.927	0.516
586.000	369.266	80.006	19.994	104.411	18.198	138.835	0.503
586.500	369.492	80.005	19.993	104.409	18.205	138.342	0.490
587.000	369.760	80.006	19.994	104.406	18.209	138.003	0.486
587.500	370.016	80.006	19.994	104.402	18.217	137.407	0.509
588.000	370.273	80.006	19.994	104.394	18.220	137.230	0.519
588.500	370.497	80.005	19.994	104.387	18.228	136.626	0.497
589.000	370.767	80.006	19.993	104.380	18.233	136.247	0.487
589.500	371.025	80.005	19.994	104.374	18.244	135.384	0.511
590.000	371.286	80.005	19.996	104.370	18.250	134.969	0.524
590.500	371.509	80.006	19.994	104.368	18.256	134.468	0.502
591.000	371.800	80.006	19.995	104.364	18.266	133.773	0.499
591.500	372.041	80.006	19.996	104.357	18.277	132.946	0.523
592.000	372.288	80.006	19.995	104.350	18.285	132.364	0.510
592.500	372.559	80.005	19.996	104.342	18.293	131.710	0.503
593.000	372.796	80.005	19.995	104.335	18.308	130.629	0.513
593.500	373.057	80.004	19.996	104.328	18.322	129.606	0.503
594.000	373.316	80.005	19.994	104.320	18.332	128.883	0.509
594.500	373.544	80.004	19.996	104.312	18.344	127.967	0.504
595.000	373.809	80.005	19.994	104.303	18.359	126.868	0.490
595.500	374.071	80.004	19.994	104.293	18.376	125.582	0.510
596.000	374.323	80.006	19.994	104.283	18.389	124.661	0.520
596.500	374.559	80.006	19.996	104.275	18.406	123.370	0.501
597.000	374.811	80.007	19.994	104.267	18.417	122.522	0.488
597.500	375.063	80.006	19.994	104.260	18.435	121.193	0.496
598.000	375.325	80.005	19.996	104.251	18.451	120.017	0.509
598.500	375.569	80.007	19.994	104.242	18.467	118.895	0.510
599.000	375.837	80.005	19.995	104.234	18.486	117.468	0.510
599.500	376.063	80.006	19.995	104.226	18.504	116.147	0.503
600.000	376.328	80.006	19.994	104.216	18.521	114.893	0.492
600.500	376.603	80.007	19.995	104.204	18.538	113.639	0.515
601.000	376.815	80.007	19.996	104.195	18.559	112.121	0.514
601.500	377.082	80.007	19.995	104.184	18.581	110.452	0.483
602.000	377.350	80.008	19.995	104.173	18.603	108.909	0.507
602.500	377.617	80.007	19.995	104.162	18.619	107.666	0.535
603.000	377.833	80.007	19.995	104.154	18.640	106.138	0.509
603.501	378.094	80.007	19.994	104.146	18.664	104.393	0.480
604.000	378.358	80.008	19.994	104.139	18.685	102.844	0.501
604.500	378.607	80.007	19.996	104.127	18.708	101.187	0.519
605.000	378.830	80.009	19.994	104.118	18.727	99.780	0.492
605.500	379.091	80.007	19.995	104.110	18.751	97.986	0.478
606.000	379.328	80.008	19.996	104.100	18.773	96.428	0.491
606.500	379.606	80.007	19.994	104.087	18.797	94.632	0.507
607.000	379.856	80.008	19.995	104.078	18.823	92.705	0.521
607.500	380.103	80.007	19.994	104.068	18.845	91.134	0.512
608.000	380.361	80.009	19.995	104.054	18.868	89.414	0.501
608.500	380.620	80.009	19.995	104.041	18.893	87.643	0.511
609.000	380.864	80.008	19.994	104.033	18.912	86.226	0.510
609.500	381.141	80.008	19.995	104.024	18.938	84.312	0.512
610.000	381.384	80.009	19.994	104.018	18.963	82.520	0.520
610.500	381.638	80.009	19.994	104.010	18.987	80.703	0.509
611.000	381.908	80.009	19.994	104.002	19.012	78.912	0.511
611.500	382.176	80.008	19.994	103.995	19.035	77.224	0.531
612.000	382.434	80.008	19.994	103.987	19.058	75.558	0.532
612.500	382.681	80.008	19.994	103.981	19.083	73.707	0.515
613.000	382.951	80.007	19.993	103.977	19.110	71.770	0.511
613.500	383.193	80.008	19.993	103.972	19.133	70.057	0.514
614.000	383.449	80.008	19.994	103.965	19.154	68.516	0.505
614.500	383.695	80.007	19.994	103.957	19.180	66.639	0.500
615.000	383.946	80.007	19.993	103.948	19.207	64.646	0.499
615.500	384.219	80.007	19.993	103.940	19.229	63.075	0.511
616.000	384.496	80.007	19.992	103.933	19.254	61.217	0.537
616.500	384.773	80.008	19.994	103.926	19.277	59.553	0.552
617.000	384.996	80.007	19.994	103.919	19.301	57.819	0.527
617.500	385.252	80.008	19.993	103.913	19.323	56.205	0.490
618.000	385.503	80.007	19.994	103.908	19.345	54.588	0.493
618.500	385.763	80.007	19.994	103.904	19.371	52.666	0.509
619.000	386.014	80.007	19.994	103.902	19.396	50.867	0.511
619.500	386.282	80.006	19.994	103.897	19.415	49.487	0.514
620.000	386.529	80.007	19.993	103.890	19.440	47.655	0.517
620.500	386.774	80.008	19.994	103.882	19.459	46.290	0.504
621.000	387.042	80.008	19.993	103.876	19.483	44.528	0.503
621.500	387.283	80.008	19.993	103.869	19.501	43.203	0.511
622.000	387.535	80.008	19.993	103.866	19.521	41.714	0.501
622.500	387.803	80.007	19.994	103.866	19.541	40.272	0.506
623.000	388.040	80.007	19.993	103.865	19.562	38.727	0.513
623.500	388.304	80.009	19.993	103.858	19.580	37.457	0.503
624.000	388.563	80.008	19.994	103.851	19.598	36.091	0.512
624.500	388.821	80.008	19.993	103.847	19.618	34.691	0.520
625.000	389.069	80.007	19.993	103.839	19.640	33.073	0.511
625.500	389.307	80.008	19.994	103.831	19.653	32.106	0.496
626.000	389.547	80.009	19.993	103.831	19.671	30.771	0.482
626.500	389.824	80.009	19.995	103.830	19.686	29.670	0.497
627.000	390.081	80.009	19.994	103.827	19.704	28.386	0.525
627.500	390.308	80.009	19.993	103.827	19.717	27.407	0.509
628.000	390.561	80.009	19.993	103.827	19.734	26.216	0.482
628.500	390.822	80.009	19.994	103.826	19.747	25.222	0.497
629.000	391.066	80.008	19.993	103.826	19.765	23.933	0.510
629.500	391.332	80.009	19.993	103.824	19.778	22.958	0.507
630.000	391.609	80.008	19.992	103.822	19.792	21.977	0.526
630.500	391.828	80.009	19.994	103.817	19.806	20.973	0.520
631.000	392.142	80.009	19.993	103.810	19.818	20.053	0.514
631.500	392.343	80.008	19.993	103.806	19.829	19.267	0.524
632.000	392.622	80.010	19.993	103.801	19.844	18.196	0.498
632.500	392.850	80.009	19.994	103.796	19.852	17.588	0.494
633.000	393.144	80.009	19.993	103.795	19.863	16.809	0.514
633.500	393.372	80.009	19.994	103.799	19.874	15.989	0.522
634.000	393.675	80.009	19.993	103.799	19.883	15.312	0.527
634.500	393.912	80.009	19.995	103.803	19.892	14.660	0.536
635.000	394.143	80.008	19.993	103.804	19.904	13.813	0.504
635.500	394.382	80.008	19.993	103.804	19.912	13.237	0.469
636.000	394.674	80.008	19.992	103.799	19.919	12.733	0.501
636.500	394.935	80.007	19.992	103.796	19.927	12.096	0.542
637.000	395.178	80.007	19.995	103.791	19.932	11.714	0.529
637.500	395.407	80.006	19.993	103.789	19.940	11.168	0.489
638.000	395.654	80.006	19.995	103.788	19.947	10.681	0.474
638.500	395.959	80.007	19.993	103.788	19.953	10.237	0.514
639.000	396.189	80.007	19.993	103.791	19.957	9.895	0.544
639.500	396.435	80.005	19.994	103.793	19.962	9.555	0.505
640.000	396.704	80.007	19.993	103.796	19.966	9.254	0.495
640.500	396.938	80.005	19.994	103.796	19.967	9.174	0.509
641.000	397.168	80.006	19.993	103.798	19.975	8.634	0.484
641.500	397.448	80.006	19.993	103.796	19.978	8.360	0.487
642.000	397.698	80.005	19.994	103.794	19.982	8.106	0.520
642.500	397.956	80.006	19.993	103.792	19.987	7.727	0.519
643.000	398.246	80.006	19.992	103.792	19.988	7.647	0.528
643.500	398.481	80.007	19.994	103.790	19.990	7.519	0.537
644.000	398.745	80.005	19.993	103.791	19.998	6.969	0.512
644.500	399.023	80.007	19.993	103.790	20.000	6.825	0.521
645.000	399.259	80.007	19.993	103.790	20.005	6.461	0.528
645.500	399.527	80.007	19.994	103.790	20.005	6.400	0.509
646.000	399.766	80.006	19.993	103.790	20.010	6.072	0.506
646.500	400.053	80.007	19.993	103.790	20.013	5.854	0.516
647.000	400.300	80.008	19.993	103.791	20.015	5.714	0.529
647.500	400.511	80.006	19.993	103.791	20.014	5.780	0.496
648.000	400.772	80.007	19.993	103.790	20.018	5.504	0.465
648.500	401.076	80.008	19.993	103.790	20.018	5.464	0.519
649.000	401.318	80.005	19.994	103.788	20.016	5.624	0.556
649.500	401.524	80.005	19.992	103.787	20.021	5.236	0.497
650.000	401.809	80.006	19.995	103.786	20.027	4.853	0.469
650.500	402.037	80.006	19.994	103.786	20.025	4.993	0.502
651.000	402.292	80.006	19.994	103.788	20.027	4.829	0.498
651.500	402.561	80.008	19.994	103.789	20.027	4.855	0.504
652.000	402.826	80.007	19.995	103.789	20.028	4.757	0.529
652.500	403.070	80.008	19.995	103.789	20.028	4.715	0.521
653.000	403.292	80.008	19.996	103.788	20.028	4.757	0.488
653.500	403.519	80.008	19.994	103.788	20.028	4.719	0.458
654.000	403.788	80.007	19.993	103.787	20.029	4.697	0.473
654.500	404.035	80.008	19.994	103.787	20.029	4.705	0.506
655.000	404.286	80.007	19.993	103.787	20.030	4.619	0.507
655.500	404.517	80.007	19.993	103.788	20.031	4.547	0.490
656.000	404.757	80.008	19.993	103.788	20.032	4.431	0.477
656.500	405.046	80.006	19.994	103.788	20.036	4.201	0.501
657.000	405.295	80.009	19.993	103.789	20.033	4.371	0.534
657.500	405.552	80.006	19.993	103.792	20.035	4.234	0.521
658.000	405.771	80.008	19.993	103.793	20.036	4.130	0.491
658.500	406.023	80.008	19.994	103.793	20.035	4.260	0.474
659.000	406.276	80.007	19.993	103.794	20.036	4.182	0.488
659.500	406.549	80.007	19.993	103.793	20.035	4.212	0.515
660.000	406.786	80.006	19.993	103.790	20.040	3.875	0.518
660.500	407.044	80.007	19.994	103.789	20.042	3.757	0.502
661.000	407.312	80.006	19.993	103.788	20.040	3.857	0.510
661.500	407.563	80.007	19.994	103.788	20.041	3.801	0.523
662.000	407.798	80.006	19.994	103.788	20.040	3.849	0.503
662.500	408.077	80.006	19.994	103.788	20.039	3.947	0.500
663.000	408.290	80.006	19.994	103.788	20.039	3.915	0.503
663.500	408.560	80.006	19.994	103.787	20.042	3.725	0.487
664.000	408.779	80.006	19.993	103.788	20.042	3.722	0.486
664.500	409.062	80.006	19.994	103.788	20.041	3.822	0.496
665.000	409.305	80.006	19.994	103.787	20.040	3.887	0.515
665.500	409.523	80.006	19.994	103.788	20.041	3.836	0.494
666.000	409.775	80.006	19.994	103.788	20.040	3.890	0.465
666.500	410.045	80.005	19.994	103.787	20.040	3.874	0.496
667.000	410.290	80.005	19.994	103.788	20.038	4.052	0.519
667.500	410.535	80.006	19.995	103.793	20.042	3.746	0.503
668.000	410.762	80.005	19.994	103.798	20.040	3.856	0.481
668.500	411.004	80.006	19.994	103.805	20.041	3.800	0.470
669.000	411.269	80.006	19.994	103.807	20.040	3.840	0.488
669.500	411.520	80.006	19.994	103.807	20.040	3.910	0.511
670.000	411.781	80.006	19.996	103.802	20.041	3.804	0.514
670.500	411.996	80.006	19.993	103.800	20.041	3.788	0.494
671.000	412.283	80.005	19.994	103.792	20.042	3.716	0.489
671.500	412.512	80.005	19.993	103.789	20.043	3.660	0.509
672.001	412.764	80.006	19.995	103.788	20.040	3.864	0.498
672.500	413.029	80.005	19.995	103.788	20.041	3.772	0.499
673.000	413.246	80.004	19.995	103.785	20.040	3.846	0.500
673.500	413.500	80.006	19.995	103.787	20.041	3.798	0.476
674.000	413.748	80.006	19.994	103.788	20.043	3.640	0.486
674.500	414.009	80.006	19.993	103.789	20.041	3.788	0.506
675.000	414.227	80.005	19.995	103.792	20.041	3.830	0.494
675.500	414.503	80.006	19.993	103.794	20.039	3.942	0.487
676.000	414.717	80.005	19.993	103.793	20.043	3.664	0.492
676.500	414.935	80.005	19.994	103.793	20.045	3.534	0.461
677.000	415.218	80.006	19.994	103.796	20.043	3.628	0.466
677.500	415.423	80.005	19.995	103.795	20.044	3.582	0.494
678.000	415.717	80.006	19.994	103.798	20.043	3.662	0.494
678.500	415.971	80.006	19.994	103.802	20.043	3.664	0.523
679.000	416.205	80.005	19.994	103.804	20.045	3.490	0.518
679.500	416.446	80.006	19.993	103.805	20.045	3.498	0.481
680.000	416.696	80.006	19.994	103.807	20.046	3.458	0.483
680.500	416.927	80.005	19.994	103.809	20.046	3.416	0.486
681.000	417.238	80.006	19.993	103.806	20.044	3.550	0.512
681.500	417.457	80.005	19.994	103.805	20.045	3.496	0.536
682.000	417.701	80.006	19.994	103.801	20.046	3.408	0.497
682.500	417.946	80.007	19.994	103.801	20.047	3.390	0.476
683.000	418.206	80.007	19.995	103.801	20.044	3.556	0.497
683.500	418.454	80.005	19.994	103.802	20.044	3.618	0.507
684.000	418.673	80.006	19.994	103.803	20.046	3.436	0.488
684.500	418.909	80.006	19.994	103.804	20.046	3.456	0.461
685.000	419.200	80.006	19.995	103.802	20.047	3.394	0.491
685.500	419.428	80.007	19.994	103.799	20.045	3.482	0.523
686.000	419.692	80.007	19.993	103.797	20.044	3.580	0.506
686.500	419.965	80.007	19.994	103.797	20.041	3.792	0.514
687.000	420.178	80.007	19.995	103.800	20.043	3.636	0.512
687.500	420.425	80.006	19.993	103.802	20.044	3.596	0.473
688.000	420.695	80.006	19.994	103.805	20.045	3.494	0.489
688.500	420.945	80.006	19.995	103.807	20.044	3.590	0.519
689.000	421.180	80.007	19.994	103.805	20.046	3.416	0.503
689.500	421.466	80.007	19.993	103.803	20.042	3.706	0.503
690.000	421.701	80.006	19.994	103.801	20.043	3.684	0.521
690.500	421.956	80.005	19.993	103.796	20.045	3.512	0.506
691.000	422.224	80.005	19.994	103.794	20.045	3.516	0.507
691.500	422.467	80.006	19.995	103.794	20.048	3.306	0.517
692.000	422.697	80.006	19.995	103.791	20.048	3.272	0.492
692.500	422.939	80.006	19.994	103.793	20.046	3.402	0.472
693.000	423.230	80.005	19.995	103.795	20.043	3.630	0.503
693.500	423.488	80.005	19.994	103.794	20.044	3.580	0.541
694.000	423.718	80.005	19.996	103.794	20.044	3.590	0.518
694.500	423.978	80.006	19.995	103.797	20.044	3.568	0.489
695.000	424.250	80.006	19.996	103.799	20.046	3.470	0.511
695.500	424.492	80.007	19.995	103.798	20.044	3.546	0.523
696.000	424.744	80.005	19.994	103.798	20.043	3.628	0.504
696.500	424.986	80.005	19.994	103.799	20.043	3.648	0.494
697.000	425.262	80.005	19.995	103.799	20.043	3.690	0.506
697.500	425.497	80.005	19.995	103.795	20.047	3.370	0.514
698.000	425.755	80.006	19.994	103.794	20.047	3.350	0.502
698.500	425.992	80.006	19.995	103.801	20.046	3.442	0.494
699.000	426.253	80.005	19.995	103.806	20.045	3.474	0.497
699.500	426.465	80.006	19.994	103.804	20.045	3.490	0.485
700.000	426.752	80.007	19.995	103.806	20.044	3.570	0.486
700.500	426.979	80.006	19.995	103.806	20.045	3.516	0.507
701.000	427.258	80.006	19.994	103.803	20.042	3.694	0.510
701.500	427.496	80.005	19.994	103.803	20.041	3.806	0.512
702.000	427.783	80.006	19.994	103.804	20.043	3.676	0.521
702.500	428.041	80.006	19.995	103.803	20.042	3.756	0.535
703.000	428.281	80.006	19.993	103.803	20.046	3.406	0.521
703.500	428.560	80.007	19.993	103.800	20.044	3.578	0.508
704.000	428.810	80.007	19.993	103.795	20.042	3.700	0.524
704.500	429.068	80.007	19.994	103.795	20.043	3.638	0.519
705.000	429.361	80.006	19.994	103.800	20.045	3.528	0.529
705.500	429.567	80.007	19.993	103.802	20.042	3.722	0.525
706.000	429.866	80.007	19.993	103.805	20.044	3.616	0.502
706.500	430.108	80.007	19.993	103.807	20.043	3.640	0.524
707.000	430.334	80.007	19.994	103.805	20.044	3.578	0.504
707.500	430.597	80.007	19.994	103.804	20.046	3.472	0.478
708.000	430.887	80.008	19.994	103.801	20.046	3.414	0.521
708.500	431.136	80.008	19.993	103.801	20.045	3.532	0.546
709.000	431.362	80.008	19.993	103.798	20.043	3.630	0.507
709.500	431.622	80.008	19.992	103.801	20.045	3.498	0.480
710.000	431.933	80.008	19.995	103.801	20.048	3.308	0.529
710.500	432.138	80.008	19.995	103.804	20.044	3.592	0.544
711.000	432.400	80.007	19.993	103.808	20.043	3.641	0.491
711.500	432.645	80.008	19.995	103.810	20.042	3.747	0.487
712.000	432.934	80.008	19.994	103.809	20.042	3.729	0.521
712.500	433.174	80.008	19.995	103.806	20.042	3.699	0.532
713.000	433.447	80.009	19.994	103.805	20.043	3.639	0.521
713.500	433.689	80.009	19.994	103.802	20.040	3.889	0.513
714.000	433.960	80.009	19.993	103.799	20.044	3.615	0.514
714.500	434.221	80.007	19.993	103.797	20.043	3.672	0.523
715.000	434.504	80.008	19.994	103.795	20.043	3.642	0.538
715.500	434.759	80.008	19.993	103.794	20.042	3.694	0.541
716.000	434.999	80.007	19.993	103.794	20.040	3.872	0.517
716.500	435.295	80.008	19.993	103.797	20.042	3.736	0.516
717.000	435.550	80.008	19.993	103.795	20.042	3.692	0.544
717.500	435.811	80.007	19.994	103.795	20.040	3.861	0.534
718.000	436.071	80.007	19.994	103.796	20.042	3.762	0.518
718.500	436.318	80.007	19.994	103.794	20.039	3.953	0.513
719.000	436.587	80.007	19.994	103.794	20.042	3.696	0.511
719.500	436.855	80.007	19.994	103.795	20.044	3.580	0.527
720.000	437.112	80.007	19.994	103.795	20.041	3.774	0.531
720.500	437.374	80.007	19.994	103.792	20.043	3.648	0.522
721.000	437.627	80.007	19.994	103.792	20.046	3.472	0.517
721.500	437.924	80.007	19.995	103.789	20.043	3.638	0.533
722.000	438.138	80.006	19.994	103.789	20.042	3.758	0.531
722.500	438.460	80.006	19.995	103.788	20.042	3.762	0.524
723.000	438.661	80.007	19.993	103.788	20.045	3.488	0.529
723.500	438.927	80.006	19.995	103.787	20.041	3.821	0.495
724.000	439.193	80.007	19.994	103.787	20.045	3.536	0.499
724.500	439.440	80.005	19.993	103.786	20.043	3.683	0.523
725.000	439.690	80.006	19.993	103.787	20.041	3.799	0.505
725.500	439.961	80.006	19.994	103.790	20.041	3.779	0.509
726.000	440.220	80.007	19.994	103.793	20.043	3.662	0.525
726.500	440.463	80.006	19.995	103.793	20.042	3.764	0.516
727.000	440.736	80.007	19.993	103.794	20.040	3.874	0.509
727.500	440.994	80.006	19.994	103.797	20.040	3.874	0.524
728.000	441.255	80.005	19.994	103.795	20.041	3.818	0.525
728.500	441.530	80.006	19.993	103.793	20.042	3.696	0.527
729.000	441.798	80.006	19.993	103.795	20.044	3.578	0.540
729.500	442.046	80.006	19.993	103.794	20.044	3.578	0.530
730.000	442.307	80.006	19.994	103.792	20.045	3.506	0.512
730.500	442.562	80.007	19.993	103.793	20.045	3.541	0.512
731.000	442.794	80.006	19.993	103.793	20.043	3.641	0.501
731.500	443.107	80.006	19.994	103.795	20.045	3.538	0.515
732.000	443.323	80.007	19.993	103.798	20.044	3.554	0.537
732.500	443.613	80.005	19.994	103.798	20.044	3.568	0.517
733.000	443.883	80.005	19.993	103.799	20.042	3.750	0.533
733.500	444.136	80.006	19.994	103.798	20.042	3.704	0.542
734.000	444.395	80.006	19.993	103.794	20.045	3.536	0.517
734.500	444.642	80.006	19.993	103.791	20.044	3.598	0.509
735.000	444.950	80.006	19.993	103.791	20.043	3.684	0.531
735.500	445.196	80.006	19.994	103.790	20.044	3.604	0.555
736.000	445.445	80.006	19.994	103.790	20.042	3.730	0.525
736.500	445.722	80.006	19.994	103.792	20.044	3.576	0.510
737.000	445.936	80.006	19.993	103.794	20.042	3.724	0.509
737.500	446.226	80.007	19.993	103.794	20.043	3.656	0.497
738.000	446.474	80.007	19.993	103.795	20.045	3.478	0.521
738.500	446.762	80.007	19.994	103.796	20.041	3.784	0.537
739.000	446.989	80.007	19.994	103.795	20.040	3.862	0.526
739.500	447.258	80.007	19.993	103.793	20.042	3.716	0.506
740.000	447.544	80.009	19.993	103.792	20.044	3.566	0.525
740.500	447.791	80.007	19.995	103.790	20.040	3.840	0.544
741.000	448.055	80.008	19.993	103.787	20.040	3.894	0.522
741.500	448.307	80.008	19.993	103.787	20.043	3.664	0.514
742.000	448.540	80.007	19.995	103.786	20.041	3.782	0.501
742.500	448.817	80.007	19.994	103.788	20.044	3.578	0.497
743.000	449.103	80.008	19.994	103.788	20.043	3.684	0.536
743.500	449.371	80.007	19.994	103.790	20.040	3.848	0.558
744.000	449.659	80.009	19.993	103.794	20.042	3.704	0.555
744.500	449.895	80.006	19.993	103.795	20.042	3.742	0.540
745.000	450.156	80.006	19.994	103.796	20.042	3.728	0.510
745.500	450.416	80.008	19.993	103.799	20.043	3.674	0.509
746.000	450.647	80.008	19.994	103.801	20.044	3.618	0.506
746.500	450.953	80.007	19.993	103.798	20.044	3.552	0.514
747.000	451.162	80.007	19.993	103.797	20.043	3.684	0.526
747.500	451.460	80.006	19.993	103.795	20.045	3.526	0.511
748.000	451.720	80.006	19.993	103.793	20.046	3.468	0.532
748.500	451.949	80.007	19.994	103.790	20.041	3.770	0.523
749.000	452.223	80.007	19.994	103.794	20.041	3.825	0.496
749.500	452.494	80.007	19.994	103.797	20.041	3.789	0.524
750.000	452.722	80.007	19.992	103.804	20.044	3.609	0.522
750.500	453.016	80.005	19.994	103.804	20.043	3.669	0.511
751.000	453.226	80.007	19.993	103.807	20.042	3.691	0.513
751.500	453.522	80.005	19.994	103.806	20.043	3.664	0.505
752.000	453.742	80.005	19.993	103.802	20.043	3.644	0.511
752.500	453.993	80.005	19.993	103.796	20.046	3.470	0.493
753.000	454.296	80.005	19.993	103.795	20.043	3.664	0.512
753.500	454.552	80.005	19.994	103.794	20.044	3.562	0.557
754.000	454.809	80.005	19.994	103.795	20.044	3.602	0.537
754.500	455.040	80.005	19.994	103.798	20.044	3.580	0.500
755.000	455.305	80.005	19.993	103.799	20.049	3.212	0.492
755.500	455.551	80.006	19.994	103.800	20.044	3.574	0.504
756.000	455.812	80.005	19.994	103.798	20.042	3.729	0.509
756.500	456.106	80.006	19.994	103.794	20.044	3.594	0.531
757.000	456.362	80.005	19.994	103.793	20.043	3.639	0.553
757.500	456.610	80.006	19.995	103.796	20.044	3.578	0.527
758.000	456.878	80.005	19.995	103.797	20.045	3.488	0.510
758.500	457.135	80.006	19.993	103.798	20.047	3.344	0.521
759.000	457.412	80.007	19.993	103.798	20.046	3.462	0.530
759.500	457.680	80.005	19.994	103.795	20.047	3.354	0.539
760.000	457.901	80.006	19.995	103.791	20.044	3.572	0.517
760.500	458.150	80.006	19.994	103.789	20.045	3.490	0.479
761.000	458.411	80.006	19.995	103.788	20.045	3.480	0.490
761.500	458.657	80.006	19.995	103.788	20.046	3.438	0.509
762.000	458.949	80.005	19.994	103.789	20.046	3.440	0.523
762.500	459.217	80.005	19.993	103.793	20.048	3.258	0.549
763.000	459.480	80.005	19.995	103.794	20.049	3.220	0.545
763.500	459.724	80.006	19.994	103.799	20.048	3.286	0.520
764.000	459.976	80.006	19.994	103.805	20.051	3.044	0.502
764.500	460.220	80.006	19.994	103.809	20.051	3.060	0.496
765.000	460.496	80.007	19.995	103.805	20.048	3.302	0.508
765.500	460.742	80.007	19.994	103.805	20.044	3.615	0.521
766.000	460.997	80.008	19.994	103.800	20.047	3.358	0.511
766.500	461.263	80.007	19.995	103.793	20.049	3.248	0.511
767.000	461.493	80.007	19.994	103.789	20.052	3.030	0.509
767.500	461.759	80.007	19.994	103.789	20.051	3.076	0.496
768.000	462.037	80.007	19.993	103.788	20.050	3.120	0.520
768.500	462.247	80.007	19.994	103.789	20.049	3.230	0.516
769.000	462.516	80.008	19.993	103.789	20.051	3.086	0.483
769.500	462.740	80.005	19.991	103.789	20.049	3.244	0.486
770.000	463.049	80.006	19.994	103.789	20.049	3.246	0.513
770.500	463.238	80.007	19.995	103.789	20.051	3.076	0.516
771.000	463.520	80.006	19.995	103.790	20.047	3.368	0.485
771.500	463.764	80.007	19.994	103.791	20.046	3.424	0.498
772.000	464.002	80.007	19.994	103.792	20.049	3.236	0.504
772.500	464.272	80.009	19.993	103.793	20.048	3.314	0.495
773.000	464.511	80.007	19.994	103.792	20.050	3.180	0.508
773.500	464.780	80.008	19.995	103.791	20.047	3.348	0.508
774.000	465.028	80.007	19.995	103.789	20.048	3.312	0.513
774.500	465.265	80.008	19.994	103.788	20.048	3.322	0.501
775.000	465.522	80.008	19.994	103.788	20.049	3.228	0.489
775.500	465.790	80.007	19.994	103.787	20.051	3.104	0.509
776.000	466.011	80.008	19.995	103.786	20.048	3.294	0.507
776.500	466.278	80.008	19.995	103.787	20.050	3.132	0.489
777.000	466.534	80.008	19.993	103.785	20.047	3.344	0.506
777.500	466.766	80.007	19.994	103.785	20.046	3.409	0.505
778.000	467.031	80.007	19.993	103.784	20.048	3.304	0.493
778.500	467.288	80.007	19.994	103.784	20.047	3.353	0.510
779.000	467.547	80.007	19.995	103.784	20.047	3.359	0.519
779.500	467.771	80.007	19.994	103.784	20.048	3.290	0.499
780.000	468.023	80.006	19.994	103.784	20.044	3.561	0.479
780.500	468.263	80.008	19.995	103.784	20.049	3.194	0.484
781.000	468.554	80.007	19.994	103.785	20.046	3.465	0.512
781.500	468.798	80.006	19.993	103.785	20.046	3.455	0.533
782.000	469.012	80.008	19.994	103.785	20.047	3.386	0.497
782.500	469.279	80.007	19.994	103.785	20.048	3.274	0.469
783.000	469.525	80.007	19.994	103.785	20.048	3.306	0.497
783.500	469.769	80.006	19.994	103.784	20.050	3.150	0.501
784.000	470.010	80.005	19.994	103.784	20.048	3.318	0.488
784.500	470.259	80.006	19.995	103.784	20.048	3.306	0.488
785.000	470.486	80.007	19.994	103.784	20.050	3.128	0.483
785.500	470.794	80.007	19.994	103.785	20.048	3.290	0.505
786.000	471.019	80.008	19.994	103.785	20.045	3.505	0.534
786.500	471.255	80.008	19.994	103.784	20.049	3.184	0.497
787.000	471.497	80.007	19.995	103.784	20.046	3.421	0.470
787.500	471.737	80.006	19.995	103.784	20.049	3.246	0.480
788.000	471.984	80.007	19.995	103.784	20.046	3.435	0.484
788.500	472.250	80.006	19.996	103.783	20.049	3.208	0.501
789.000	472.507	80.007	19.994	103.783	20.048	3.288	0.518
789.500	472.734	80.008	19.996	103.782	20.051	3.080	0.503
790.000	472.994	80.009	19.995	103.783	20.049	3.188	0.485
790.500	473.268	80.008	19.995	103.782	20.047	3.370	0.510
791.000	473.551	80.009	19.995	103.783	20.047	3.394	0.545
791.500	473.790	80.007	19.996	103.782	20.050	3.144	0.540
792.000	474.039	80.008	19.994	103.783	20.049	3.234	0.505
792.500	474.280	80.009	19.994	103.783	20.048	3.324	0.489
793.000	474.547	80.010	19.996	103.784	20.047	3.342	0.499
793.500	474.823	80.010	19.994	103.784	20.049	3.206	0.526
794.000	475.067	80.010	19.994	103.784	20.047	3.336	0.531
794.500	475.334	80.010	19.995	103.785	20.047	3.368	0.515
795.000	475.563	80.009	19.994	103.785	20.050	3.174	0.504
795.500	475.820	80.009	19.995	103.785	20.051	3.082	0.491
796.000	476.088	80.009	19.995	103.786	20.051	3.082	0.506
796.500	476.327	80.008	19.995	103.786	20.047	3.398	0.516
797.000	476.568	80.009	19.995	103.785	20.047	3.394	0.493
797.500	476.820	80.009	19.994	103.785	20.047	3.354	0.487
798.000	477.099	80.009	19.994	103.783	20.047	3.364	0.512
798.500	477.338	80.009	19.994	103.782	20.048	3.304	0.525
799.000	477.593	80.008	19.994	103.782	20.049	3.234	0.506
799.500	477.849	80.009	19.994	103.782	20.046	3.464	0.502
800.000	478.110	80.009	19.994	103.785	20.049	3.194	0.514
800.500	478.330	80.009	19.992	103.786	20.046	3.414	0.499
801.000	478.633	80.008	19.994	103.788	20.049	3.240	0.502
801.500	478.891	80.008	19.994	103.790	20.047	3.336	0.542
802.000	479.124	80.009	19.994	103.790	20.047	3.392	0.526
802.500	479.386	80.009	19.993	103.787	20.050	3.172	0.493
803.000	479.629	80.008	19.993	103.787	20.045	3.494	0.500
803.500	479.917	80.008	19.992	103.785	20.045	3.492	0.518
804.000	480.169	80.007	19.994	103.785	20.044	3.579	0.536
804.500	480.381	80.007	19.994	103.786	20.048	3.276	0.502
805.000	480.691	80.007	19.994	103.787	20.048	3.304	0.493
805.500	480.914	80.007	19.994	103.787	20.045	3.474	0.528
806.000	481.153	80.008	19.994	103.788	20.045	3.480	0.498
806.500	481.444	80.007	19.993	103.787	20.045	3.494	0.496
807.000	481.660	80.007	19.994	103.787	20.045	3.540	0.519
807.500	481.947	80.008	19.994	103.786	20.046	3.404	0.505
808.000	482.204	80.006	19.994	103.789	20.046	3.422	0.523
808.500	482.465	80.007	19.994	103.790	20.049	3.194	0.531
809.000	482.730	80.007	19.993	103.790	20.048	3.304	0.522
809.500	482.987	80.007	19.995	103.790	20.046	3.442	0.524
810.000	483.224	80.006	19.993	103.790	20.048	3.326	0.508
810.500	483.474	80.007	19.993	103.789	20.048	3.312	0.490
811.000	483.736	80.006	19.994	103.787	20.046	3.400	0.499
811.500	483.997	80.007	19.994	103.788	20.046	3.438	0.518
812.000	484.256	80.007	19.994	103.788	20.048	3.282	0.522
812.500	484.525	80.006	19.993	103.788	20.044	3.565	0.524
813.000	484.805	80.006	19.993	103.788	20.048	3.260	0.538
813.500	485.050	80.006	19.994	103.787	20.049	3.220	0.537
814.000	485.318	80.006	19.994	103.788	20.047	3.350	0.519
814.500	485.556	80.007	19.993	103.788	20.051	3.074	0.510
815.000	485.834	80.006	19.993	103.787	20.050	3.140	0.511
815.500	486.098	80.007	19.993	103.787	20.047	3.382	0.529
816.000	486.353	80.007	19.994	103.788	20.045	3.534	0.530
816.500	486.617	80.006	19.993	103.788	20.047	3.370	0.519
817.000	486.849	80.007	19.993	103.788	20.046	3.404	0.508
817.500	487.111	80.006	19.993	103.788	20.048	3.306	0.495
818.000	487.370	80.006	19.993	103.789	20.047	3.356	0.507
818.500	487.595	80.007	19.994	103.788	20.052	2.986	0.502
819.000	487.903	80.006	19.993	103.788	20.055	2.798	0.508
819.500	488.120	80.007	19.993	103.789	20.050	3.150	0.529
820.000	488.412	80.007	19.993	103.789	20.052	2.996	0.518
820.500	488.658	80.007	19.993	103.788	20.048	3.280	0.523
821.000	488.935	80.007	19.993	103.788	20.053	2.956	0.530
821.500	489.199	80.006	19.993	103.788	20.053	2.934	0.532
822.000	489.501	80.006	19.994	103.788	20.053	2.918	0.554
822.500	489.720	80.007	19.993	103.788	20.048	3.300	0.543
823.000	489.954	80.008	19.993	103.788	20.043	3.622	0.487
823.500	490.215	80.007	19.993	103.787	20.053	2.948	0.474
824.000	490.486	80.008	19.994	103.787	20.043	3.688	0.514
824.500	490.834	80.008	19.992	103.787	20.047	3.394	0.575
825.000	491.077	80.007	19.994	103.787	20.049	3.202	0.605
825.500	491.277	80.007	19.993	103.787	20.047	3.338	0.517
826.000	491.562	80.008	19.994	103.788	20.045	3.534	0.464
826.500	491.802	80.007	19.994	103.788	20.049	3.204	0.505
827.000	492.062	80.008	19.993	103.787	20.047	3.372	0.513
827.500	492.340	80.007	19.995	103.787	20.048	3.294	0.520
828.000	492.591	80.007	19.993	103.787	20.048	3.270	0.534
828.500	492.856	80.007	19.993	103.788	20.048	3.298	0.523
829.000	493.043	80.007	19.993	103.788	20.048	3.284	0.484
829.500	493.355	80.006	19.992	103.789	20.045	3.480	0.475
830.000	493.588	80.006	19.995	103.789	20.049	3.196	0.522
830.500	493.887	80.006	19.994	103.789	20.049	3.232	0.539
831.000	494.135	80.005	19.995	103.790	20.047	3.370	0.540
831.500	494.383	80.007	19.994	103.790	20.050	3.146	0.521
832.000	494.607	80.006	19.994	103.790	20.050	3.146	0.484
832.500	494.957	80.007	19.994	103.790	20.048	3.260	0.523
833.000	495.202	80.007	19.994	103.790	20.047	3.380	0.584
833.500	495.476	80.006	19.995	103.790	20.047	3.334	0.557
834.000	495.673	80.006	19.994	103.791	20.049	3.228	0.495
834.500	495.958	80.007	19.993	103.790	20.048	3.286	0.476
835.000	496.177	80.006	19.994	103.790	20.049	3.230	0.493
835.500	496.457	80.007	19.992	103.790	20.047	3.348	0.502
836.000	496.746	80.007	19.992	103.790	20.049	3.222	0.534
836.500	496.951	80.007	19.994	103.790	20.046	3.460	0.531
837.000	497.169	80.006	19.992	103.790	20.047	3.374	0.458
837.500	497.475	80.007	19.992	103.790	20.049	3.200	0.473
838.000	497.688	80.006	19.993	103.789	20.046	3.472	0.521
838.500	497.981	80.007	19.994	103.789	20.048	3.256	0.512
839.000	498.251	80.006	19.994	103.789	20.047	3.334	0.534
839.500	498.507	80.006	19.993	103.790	20.049	3.234	0.545
840.000	498.771	80.005	19.994	103.790	20.050	3.156	0.523
840.500	499.000	80.007	19.993	103.790	20.049	3.200	0.507
841.000	499.220	80.006	19.993	103.789	20.052	2.982	0.471
841.500	499.489	80.007	19.993	103.789	20.053	2.948	0.469
842.000	499.751	80.008	19.993	103.788	20.051	3.064	0.510
842.500	500.011	80.006	19.993	103.788	20.054	2.820	0.526
843.000	500.290	80.007	19.992	103.787	20.050	3.166	0.531
843.500	500.491	80.007	19.994	103.787	20.049	3.210	0.510
844.000	500.768	80.007	19.993	103.787	20.049	3.228	0.479
844.500	501.019	80.007	19.993	103.787	20.050	3.138	0.503
845.000	501.332	80.008	19.994	103.787	20.049	3.242	0.546
845.500	501.531	80.008	19.993	103.787	20.054	2.860	0.538
846.000	501.785	80.008	19.993	103.787	20.048	3.272	0.482
846.500	502.051	80.007	19.994	103.787	20.048	3.263	0.486
847.000	502.265	80.010	19.994	103.787	20.047	3.371	0.500
847.500	502.556	80.008	19.993	103.787	20.048	3.256	0.493
848.000	502.783	80.008	19.995	103.787	20.052	3.016	0.511
848.500	503.061	80.008	19.992	103.787	20.048	3.302	0.511
849.000	503.280	80.008	19.993	103.786	20.050	3.138	0.501
849.500	503.548	80.008	19.994	103.786	20.051	3.102	0.492
850.000	503.816	80.009	19.993	103.786	20.048	3.256	0.512
850.500	504.026	80.008	19.994	103.785	20.046	3.437	0.507
851.000	504.293	80.008	19.994	103.785	20.047	3.336	0.477
851.500	504.558	80.008	19.994	103.785	20.051	3.086	0.504
852.000	504.801	80.009	19.993	103.785	20.050	3.174	0.520
852.500	505.079	80.008	19.994	103.785	20.051	3.084	0.515
853.000	505.315	80.010	19.994	103.785	20.047	3.332	0.517
853.500	505.585	80.009	19.994	103.785	20.050	3.164	0.510
854.000	505.820	80.008	19.994	103.785	20.051	3.070	0.506
854.500	506.085	80.008	19.995	103.785	20.049	3.184	0.503
855.000	506.383	80.009	19.994	103.784	20.049	3.210	0.532
855.500	506.605	80.007	19.994	103.783	20.052	3.032	0.541
856.000	506.881	80.008	19.993	103.781	20.051	3.102	0.509
856.500	507.140	80.006	19.994	103.781	20.054	2.872	0.517
857.000	507.438	80.007	19.995	103.782	20.052	2.976	0.546
857.500	507.603	80.008	19.994	103.780	20.053	2.930	0.510
858.000	507.877	80.007	19.995	103.782	20.053	2.906	0.451
858.500	508.127	80.007	19.995	103.783	20.055	2.778	0.481
859.000	508.378	80.008	19.995	103.783	20.054	2.852	0.513
859.500	508.627	80.008	19.995	103.783	20.052	3.004	0.501
860.000	508.898	80.007	19.994	103.784	20.056	2.730	0.510
860.500	509.107	80.007	19.995	103.785	20.053	2.894	0.500
861.000	509.412	80.007	19.995	103.785	20.055	2.778	0.497
861.500	509.655	80.008	19.995	103.785	20.055	2.792	0.531
862.000	509.893	80.007	19.993	103.785	20.052	3.012	0.515
862.500	510.154	80.008	19.993	103.785	20.055	2.756	0.490
863.000	510.391	80.009	19.995	103.785	20.052	3.010	0.498
863.500	510.640	80.008	19.994	103.785	20.052	2.984	0.492
864.000	510.909	80.008	19.995	103.784	20.053	2.900	0.502
864.500	511.163	80.009	19.995	103.784	20.057	2.656	0.520
865.000	511.448	80.006	19.995	103.784	20.052	3.030	0.532
865.500	511.677	80.008	19.994	103.784	20.055	2.808	0.527
866.000	511.919	80.007	19.994	103.784	20.053	2.898	0.492
866.500	512.174	80.006	19.994	103.785	20.053	2.956	0.483
867.000	512.409	80.007	19.994	103.786	20.055	2.772	0.493
867.500	512.669	80.008	19.995	103.786	20.053	2.940	0.493
868.000	512.931	80.007	19.993	103.785	20.054	2.838	0.509
868.500	513.200	80.009	19.994	103.786	20.055	2.754	0.527
869.000	513.460	80.009	19.994	103.786	20.057	2.648	0.530
869.500	513.714	80.008	19.994	103.786	20.053	2.898	0.521
870.000	513.965	80.009	19.993	103.786	20.056	2.722	0.509
870.500	514.260	80.010	19.993	103.786	20.054	2.842	0.525
871.000	514.505	80.009	19.995	103.785	20.056	2.696	0.543
871.500	514.742	80.010	19.994	103.786	20.055	2.810	0.511
872.000	514.999	80.009	19.995	103.785	20.057	2.634	0.488
872.500	515.264	80.009	19.993	103.785	20.060	2.444	0.507
873.000	515.526	80.009	19.994	103.786	20.057	2.646	0.525
873.500	515.799	80.011	19.993	103.786	20.054	2.824	0.531
874.000	516.072	80.008	19.994	103.784	20.057	2.636	0.540
874.500	516.305	80.008	19.993	103.784	20.052	3.010	0.526
875.000	516.562	80.009	19.994	103.784	20.054	2.872	0.498
875.500	516.811	80.009	19.994	103.784	20.054	2.852	0.498
876.000	517.108	80.008	19.994	103.785	20.054	2.854	0.526
876.500	517.324	80.009	19.994	103.786	20.054	2.884	0.529
877.000	517.600	80.011	19.993	103.786	20.056	2.684	0.502
877.500	517.853	80.008	19.994	103.786	20.054	2.878	0.510
878.000	518.119	80.009	19.995	103.786	20.055	2.764	0.525
878.500	518.359	80.009	19.994	103.786	20.055	2.808	0.513
879.000	518.596	80.009	19.994	103.786	20.053	2.920	0.491
879.500	518.893	80.008	19.993	103.786	20.053	2.896	0.505
880.000	519.137	80.008	19.993	103.787	20.055	2.782	0.538
880.500	519.352	80.009	19.995	103.787	20.055	2.748	0.500
881.000	519.617	80.008	19.994	103.788	20.052	2.990	0.469
881.500	519.847	80.008	19.994	103.786	20.053	2.952	0.487
882.000	520.119	80.007	19.994	103.786	20.054	2.840	0.498
882.500	520.396	80.009	19.993	103.786	20.058	2.580	0.526
883.000	520.696	80.008	19.995	103.785	20.055	2.768	0.564
883.500	520.886	80.007	19.995	103.784	20.053	2.930	0.534
884.000	521.195	80.006	19.995	103.785	20.056	2.732	0.495
884.500	521.412	80.007	19.995	103.785	20.054	2.846	0.512
885.000	521.693	80.007	19.993	103.785	20.052	2.994	0.512
885.500	521.929	80.008	19.994	103.785	20.051	3.042	0.508
886.000	522.165	80.006	19.995	103.786	20.054	2.880	0.495
886.500	522.432	80.007	19.994	103.785	20.058	2.546	0.487
887.000	522.672	80.006	19.994	103.785	20.053	2.920	0.504
887.500	522.959	80.006	19.995	103.785	20.055	2.772	0.517
888.000	523.176	80.006	19.994	103.782	20.054	2.874	0.516
888.500	523.473	80.004	19.995	103.781	20.054	2.866	0.509
889.000	523.729	80.007	19.995	103.782	20.054	2.878	0.533
889.500	523.947	80.006	19.993	103.782	20.055	2.808	0.513
890.000	524.236	80.005	19.997	103.782	20.054	2.846	0.491
890.500	524.466	80.005	19.995	103.786	20.055	2.748	0.513
891.000	524.725	80.007	19.995	103.786	20.051	3.094	0.504
891.500	524.977	80.006	19.995	103.786	20.050	3.124	0.500
892.000	525.212	80.006	19.994	103.786	20.053	2.950	0.499
892.500	525.500	80.007	19.994	103.786	20.052	3.018	0.505
893.000	525.710	80.006	19.995	103.786	20.054	2.822	0.511
893.500	525.986	80.006	19.995	103.787	20.055	2.750	0.492
894.000	526.253	80.007	19.994	103.786	20.056	2.712	0.514
894.500	526.517	80.006	19.994	103.784	20.053	2.958	0.537
895.000	526.731	80.006	19.995	103.780	20.056	2.742	0.505
895.500	526.992	80.006	19.994	103.780	20.054	2.836	0.476
896.000	527.232	80.006	19.995	103.779	20.053	2.930	0.488
896.500	527.497	80.006	19.994	103.780	20.052	2.978	0.503
897.000	527.741	80.007	19.993	103.782	20.051	3.058	0.507
897.500	528.000	80.007	19.993	103.786	20.056	2.722	0.506
898.000	528.282	80.006	19.992	103.787	20.051	3.104	0.522
898.500	528.496	80.007	19.992	103.788	20.053	2.900	0.519
899.000	528.762	80.006	19.993	103.789	20.051	3.082	0.488
899.500	528.977	80.006	19.993	103.789	20.051	3.074	0.480
900.000	529.271	80.007	19.994	103.790	20.055	2.780	0.495
900.500	529.533	80.007	19.993	103.789	20.051	3.058	0.533
901.000	529.783	80.006	19.993	103.790	20.052	3.032	0.534
901.500	530.017	80.006	19.994	103.790	20.054	2.868	0.498
902.000	530.275	80.007	19.994	103.789	20.053	2.890	0.488
902.500	530.579	80.007	19.994	103.788	20.054	2.862	0.526
903.000	530.787	80.006	19.993	103.787	20.053	2.908	0.537
903.500	531.034	80.007	19.994	103.787	20.054	2.842	0.484
904.000	531.259	80.006	19.994	103.786	20.053	2.930	0.463
904.500	531.533	80.008	19.994	103.786	20.054	2.878	0.485
905.000	531.799	80.006	19.994	103.786	20.052	3.028	0.520
905.500	532.052	80.007	19.993	103.787	20.054	2.830	0.530
906.000	532.311	80.007	19.993	103.787	20.054	2.862	0.515
906.500	532.555	80.007	19.994	103.786	20.055	2.772	0.508
907.000	532.844	80.008	19.993	103.786	20.053	2.912	0.518
907.500	533.100	80.009	19.993	103.785	20.054	2.844	0.539
908.000	533.314	80.006	19.995	103.785	20.056	2.706	0.507
908.500	533.588	80.008	19.993	103.785	20.053	2.930	0.480
909.000	533.861	80.008	19.992	103.785	20.053	2.892	0.518
909.500	534.136	80.007	19.993	103.784	20.057	2.628	0.547
910.000	534.346	80.008	19.993	103.784	20.052	3.018	0.517
910.500	534.646	80.007	19.993	103.783	20.052	3.024	0.498
911.000	534.832	80.008	19.993	103.782	20.056	2.730	0.498
911.500	535.132	80.006	19.994	103.782	20.054	2.832	0.486
912.000	535.387	80.007	19.994	103.782	20.054	2.886	0.520
912.500	535.639	80.007	19.993	103.783	20.051	3.048	0.531
913.000	535.868	80.007	19.993	103.783	20.053	2.910	0.495
913.500	536.107	80.006	19.995	103.784	20.054	2.822	0.475
914.000	536.381	80.008	19.994	103.784	20.054	2.828	0.490
914.500	536.671	80.005	19.994	103.785	20.055	2.814	0.538
915.000	536.894	80.005	19.995	103.784	20.055	2.808	0.538
915.500	537.168	80.006	19.994	103.783	20.054	2.826	0.505
916.000	537.375	80.007	19.993	103.783	20.054	2.824	0.489
916.500	537.682	80.006	19.994	103.783	20.053	2.932	0.498
917.000	537.941	80.006	19.993	103.783	20.053	2.918	0.540
917.500	538.187	80.008	19.993	103.783	20.056	2.736	0.535
918.000	538.419	80.007	19.994	103.784	20.053	2.920	0.492
918.500	538.676	80.006	19.994	103.783	20.054	2.852	0.483
919.000	538.898	80.007	19.994	103.783	20.055	2.808	0.484
919.500	539.199	80.006	19.994	103.783	20.054	2.864	0.501
920.000	539.438	80.006	19.995	103.784	20.054	2.820	0.532
920.500	539.697	80.007	19.995	103.784	20.053	2.934	0.519
921.000	539.905	80.006	19.994	103.785	20.052	3.026	0.482
921.500	540.195	80.007	19.994	103.786	20.054	2.870	0.482
922.000	540.438	80.007	19.995	103.786	20.055	2.762	0.516
922.500	540.707	80.006	19.994	103.786	20.056	2.718	0.522
923.000	540.929	80.007	19.994	103.786	20.055	2.776	0.501
923.500	541.204	80.006	19.993	103.786	20.054	2.856	0.494
924.000	541.464	80.007	19.995	103.785	20.053	2.890	0.516
924.500	541.733	80.006	19.993	103.786	20.054	2.880	0.532
925.001	541.954	80.006	19.993	103.785	20.052	2.962	0.510
925.500	542.262	80.006	19.993	103.784	20.055	2.806	0.510
926.000	542.436	80.007	19.994	103.783	20.053	2.930	0.506
926.500	542.723	80.008	19.993	103.782	20.055	2.782	0.472
927.000	542.999	80.008	19.993	103.782	20.053	2.910	0.512
927.500	543.211	80.007	19.994	103.781	20.055	2.770	0.525
928.000	543.507	80.007	19.994	103.781	20.057	2.606	0.498
928.500	543.757	80.009	19.993	103.781	20.053	2.910	0.527
929.000	543.997	80.008	19.994	103.783	20.052	2.968	0.518
929.500	544.283	80.008	19.994	103.783	20.052	2.990	0.508
930.000	544.443	80.009	19.994	103.783	20.054	2.830	0.486
930.500	544.744	80.009	19.994	103.785	20.052	2.968	0.453
931.000	545.006	80.008	19.995	103.785	20.055	2.756	0.512
931.500	545.269	80.008	19.993	103.785	20.055	2.800	0.544
932.000	545.490	80.008	19.993	103.785	20.053	2.900	0.505
932.500	545.802	80.009	19.994	103.785	20.052	2.970	0.509
933.000	546.027	80.008	19.994	103.785	20.052	3.034	0.535
933.500	546.279	80.009	19.993	103.785	20.053	2.910	0.507
934.000	546.505	80.009	19.993	103.786	20.054	2.870	0.478
934.500	546.767	80.008	19.993	103.786	20.055	2.780	0.483
935.000	547.077	80.009	19.993	103.786	20.053	2.936	0.530
935.500	547.278	80.009	19.993	103.786	20.051	3.097	0.541
936.000	547.558	80.011	19.993	103.786	20.050	3.109	0.496
936.500	547.814	80.010	19.994	103.785	20.052	2.994	0.509
937.000	548.070	80.008	19.993	103.785	20.047	3.388	0.524
937.500	548.331	80.008	19.994	103.785	20.051	3.100	0.514
938.000	548.600	80.009	19.994	103.785	20.049	3.194	0.524
938.500	548.795	80.010	19.994	103.785	20.051	3.050	0.497
939.000	549.076	80.008	19.993	103.786	20.050	3.108	0.470
939.500	549.364	80.009	19.993	103.786	20.048	3.294	0.522
940.000	549.559	80.009	19.994	103.785	20.052	3.000	0.526
940.500	549.842	80.007	19.994	103.785	20.050	3.150	0.481
941.000	550.138	80.008	19.994	103.783	20.047	3.330	0.528
941.500	550.390	80.008	19.993	103.780	20.049	3.222	0.563
942.000	550.655	80.007	19.993	103.779	20.050	3.130	0.532
942.500	550.907	80.008	19.994	103.777	20.049	3.194	0.517
943.000	551.163	80.006	19.994	103.777	20.051	3.054	0.513
943.500	551.426	80.008	19.994	103.779	20.049	3.196	0.513
944.000	551.641	80.008	19.993	103.782	20.046	3.458	0.498
944.500	551.905	80.008	19.993	103.780	20.051	3.046	0.478
945.000	552.140	80.007	19.994	103.779	20.043	3.677	0.489
945.500	552.421	80.008	19.994	103.776	20.050	3.146	0.508
946.000	552.662	80.007	19.994	103.774	20.050	3.132	0.519
946.500	552.943	80.007	19.995	103.774	20.054	2.858	0.522
947.000	553.136	80.008	19.994	103.776	20.053	2.912	0.498
947.500	553.463	80.008	19.994	103.781	20.058	2.538	0.497
948.000	553.657	80.008	19.994	103.786	20.056	2.716	0.520
948.500	554.009	80.007	19.994	103.786	20.047	3.334	0.533
949.000	554.157	80.008	19.994	103.786	20.053	2.920	0.523
949.500	554.496	80.006	19.993	103.787	20.051	3.048	0.494
950.000	554.639	80.007	19.994	103.786	20.049	3.186	0.485
950.500	555.028	80.008	19.996	103.786	20.050	3.122	0.507
951.000	555.169	80.008	19.995	103.787	20.053	2.900	0.531
951.500	555.518	80.007	19.996	103.787	20.048	3.286	0.510
952.000	555.766	80.008	19.994	103.788	20.048	3.326	0.543
952.500	555.991	80.008	19.994	103.788	20.050	3.154	0.535
953.000	556.180	80.008	19.995	103.789	20.046	3.428	0.443
953.500	556.470	80.009	19.994	103.788	20.049	3.188	0.446
954.000	556.770	80.010	19.994	103.789	20.049	3.241	0.534
954.500	556.910	80.009	19.994	103.788	20.047	3.351	0.515
955.000	557.175	80.009	19.994	103.788	20.053	2.954	0.423
955.500	557.467	80.007	19.994	103.788	20.053	2.946	0.481
956.000	557.827	80.010	19.994	103.788	20.049	3.204	0.605
956.500	557.991	80.008	19.994	103.785	20.050	3.154	0.589
957.000	558.303	80.010	19.993	103.784	20.052	2.998	0.500
957.500	558.570	80.009	19.993	103.785	20.050	3.136	0.528
958.000	558.701	80.009	19.994	103.784	20.050	3.124	0.488
958.500	559.005	80.009	19.994	103.784	20.050	3.112	0.416
959.000	559.217	80.008	19.993	103.786	20.050	3.164	0.476
959.500	559.506	80.008	19.994	103.786	20.047	3.372	0.509
960.000	559.599	80.009	19.994	103.787	20.051	3.102	0.441
960.500	560.401	80.009	19.994	103.787	20.048	3.280	0.638
961.000	560.206	80.007	19.994	103.787	20.047	3.348	0.751
961.500	560.461	80.008	19.995	103.787	20.050	3.140	0.334
962.000	561.284	80.008	19.994	103.787	20.049	3.238	0.569
962.500	560.765	80.009	19.994	103.786	20.049	3.202	0.691
963.000	561.426	80.008	19.994	103.786	20.046	3.429	0.223
963.500	561.603	80.007	19.994	103.786	20.048	3.285	0.490
964.000	561.823	80.008	19.993	103.785	20.048	3.254	0.617
964.500	561.983	80.008	19.993	103.782	20.049	3.220	0.388
965.000	562.383	80.007	19.994	103.779	20.050	3.152	0.470
965.500	562.606	80.009	19.993	103.778	20.049	3.246	0.592
966.000	562.699	80.007	19.993	103.776	20.049	3.224	0.470
966.500	563.253	80.006	19.994	103.778	20.050	3.132	0.481
967.000	563.237	80.006	19.993	103.780	20.050	3.158	0.593
967.500	563.599	80.006	19.994	103.782	20.048	3.264	0.442
968.000	563.710	80.006	19.993	103.782	20.050	3.144	0.410
968.500	564.178	80.007	19.994	103.783	20.050	3.174	0.526
969.000	564.382	80.006	19.994	103.782	20.050	3.158	0.625
969.500	564.582	80.006	19.994	103.781	20.049	3.202	0.538
970.000	564.743	80.006	19.993	103.784	20.049	3.240	0.383
970.500	565.090	80.007	19.994	103.784	20.048	3.266	0.435
971.000	565.352	80.006	19.994	103.783	20.051	3.038	0.559
971.500	565.594	80.006	19.994	103.782	20.047	3.333	0.557
972.000	565.774	80.007	19.993	103.784	20.049	3.243	0.463
972.500	566.095	80.006	19.994	103.783	20.047	3.393	0.461
973.000	566.342	80.008	19.995	103.782	20.049	3.219	0.534
973.500	566.510	80.007	19.994	103.781	20.047	3.327	0.492
974.000	566.864	80.007	19.994	103.782	20.052	3.034	0.469
974.500	567.074	80.006	19.994	103.781	20.049	3.223	0.543
975.000	567.329	80.007	19.995	103.781	20.045	3.489	0.514
975.500	567.593	80.007	19.995	103.782	20.049	3.211	0.492
976.000	567.790	80.006	19.995	103.783	20.047	3.351	0.490
976.500	568.031	80.007	19.994	103.784	20.049	3.207	0.450
977.000	568.347	80.007	19.994	103.784	20.051	3.046	0.497
977.500	568.579	80.005	19.995	103.784	20.049	3.199	0.552
978.000	568.867	80.006	19.994	103.783	20.047	3.397	0.534
978.500	569.160	80.006	19.994	103.783	20.045	3.509	0.550
979.000	569.341	80.007	19.994	103.783	20.048	3.297	0.527
979.500	569.616	80.006	19.995	103.783	20.047	3.343	0.465
980.000	569.830	80.007	19.995	103.784	20.047	3.349	0.473
980.500	570.086	80.006	19.996	103.784	20.048	3.271	0.479
981.000	570.459	80.007	19.994	103.783	20.050	3.163	0.549
981.500	570.573	80.007	19.994	103.783	20.048	3.325	0.558
982.000	570.889	80.007	19.994	103.782	20.045	3.537	0.459
982.500	571.116	80.006	19.995	103.780	20.048	3.262	0.486
983.000	571.349	80.006	19.995	103.776	20.050	3.128	0.501
983.500	571.653	80.004	19.994	103.777	20.050	3.132	0.498
984.000	571.874	80.005	19.995	103.776	20.049	3.197	0.531
984.500	572.117	80.006	19.995	103.777	20.046	3.399	0.495
985.000	572.404	80.006	19.995	103.778	20.047	3.361	0.497
985.500	572.669	80.006	19.995	103.780	20.047	3.333	0.540
986.000	572.886	80.006	19.994	103.778	20.048	3.323	0.517
986.500	573.137	80.007	19.995	103.777	20.047	3.397	0.475
987.000	573.413	80.006	19.994	103.776	20.048	3.253	0.498
987.500	573.675	80.006	19.995	103.775	20.048	3.275	0.533
988.000	573.897	80.007	19.995	103.776	20.047	3.335	0.511
988.500	574.190	80.007	19.994	103.776	20.049	3.203	0.499
989.000	574.418	80.007	19.994	103.774	20.052	3.021	0.518
989.500	574.724	80.008	19.993	103.774	20.048	3.313	0.528
990.000	574.997	80.007	19.994	103.774	20.049	3.209	0.556
990.500	575.227	80.009	19.994	103.771	20.047	3.355	0.541
991.000	575.520	80.006	19.995	103.771	20.046	3.405	0.513
991.500	575.715	80.008	19.993	103.773	20.046	3.427	0.505
992.000	575.994	80.007	19.994	103.775	20.047	3.395	0.480
992.500	576.261	80.006	19.994	103.776	20.046	3.409	0.510
993.000	576.519	80.007	19.992	103.780	20.043	3.627	0.536
993.500	576.758	80.008	19.992	103.782	20.047	3.363	0.511
994.000	576.994	80.006	19.993	103.782	20.050	3.137	0.486
994.500	577.292	80.006	19.995	103.780	20.045	3.485	0.505
995.000	577.561	80.005	19.993	103.779	20.047	3.337	0.550
995.500	577.779	80.007	19.993	103.775	20.044	3.551	0.527
996.000	578.015	80.007	19.994	103.774	20.046	3.413	0.471
996.500	578.294	80.006	19.994	103.772	20.044	3.563	0.484
997.000	578.607	80.006	19.994	103.771	20.049	3.221	0.553
997.500	578.802	80.007	19.993	103.771	20.046	3.399	0.550
998.000	579.068	80.007	19.994	103.775	20.047	3.349	0.485
998.500	579.312	80.005	19.993	103.775	20.049	3.249	0.486
999.000	579.562	80.006	19.994	103.776	20.048	3.321	0.502
999.500	579.807	80.007	19.994	103.773	20.045	3.483	0.494
1000.000	580.106	80.006	19.993	103.774	20.050	3.139	0.520
1000.500	580.317	80.006	19.994	103.772	20.051	3.085	0.527
1001.000	580.598	80.007	19.994	103.773	20.053	2.936	0.501
1001.500	580.801	80.006	19.994	103.775	20.049	3.240	0.488
1002.000	581.134	80.005	19.994	103.781	20.049	3.250	0.510
1002.500	581.342	80.006	19.995	103.783	20.049	3.238	0.538
1003.000	581.641	80.007	19.994	103.783	20.052	2.968	0.524
1003.500	581.863	80.006	19.994	103.782	20.049	3.192	0.514
1004.000	582.120	80.006	19.993	103.779	20.049	3.182	0.500
1004.500	582.343	80.007	19.994	103.777	20.052	3.028	0.479
1005.000	582.634	80.006	19.993	103.775	20.051	3.076	0.497
1005.500	582.903	80.005	19.995	103.772	20.051	3.106	0.537
1006.000	583.099	80.005	19.993	103.771	20.054	2.874	0.513
1006.500	583.402	80.006	19.992	103.774	20.051	3.068	0.482
1007.000	583.619	80.007	19.994	103.776	20.054	2.878	0.509
1007.500	583.890	80.006	19.994	103.777	20.053	2.938	0.504
1008.000	584.170	80.006	19.992	103.779	20.052	2.982	0.519
1008.500	584.404	80.007	19.994	103.782	20.048	3.298	0.532
1009.000	584.641	80.007	19.992	103.780	20.052	3.004	0.492
1009.500	584.871	80.006	19.992	103.773	20.048	3.254	0.469
1010.000	585.191	80.006	19.992	103.769	20.051	3.044	0.509
1010.500	585.394	80.006	19.994	103.770	20.050	3.125	0.537
1011.000	585.652	80.008	19.994	103.770	20.051	3.090	0.491
1011.500	585.933	80.008	19.996	103.773	20.051	3.073	0.499
1012.000	586.171	80.008	19.994	103.777	20.051	3.083	0.529
1012.500	586.411	80.007	19.993	103.783	20.046	3.443	0.499
1013.000	586.662	80.009	19.993	103.783	20.049	3.241	0.484
1013.500	586.902	80.008	19.993	103.782	20.048	3.275	0.491
1014.000	587.157	80.008	19.994	103.782	20.051	3.099	0.493
1014.500	587.394	80.008	19.994	103.785	20.051	3.084	0.494
1015.000	587.678	80.009	19.992	103.781	20.052	3.024	0.507
1015.500	587.910	80.007	19.994	103.781	20.049	3.206	0.518
1016.000	588.172	80.007	19.994	103.782	20.052	3.018	0.505
1016.500	588.392	80.009	19.994	103.782	20.052	3.024	0.488
1017.000	588.719	80.010	19.992	103.781	20.049	3.230	0.515
1017.500	588.935	80.007	19.994	103.784	20.051	3.078	0.545
1018.000	589.231	80.008	19.994	103.785	20.048	3.270	0.527
1018.500	589.482	80.009	19.992	103.786	20.050	3.124	0.529
1019.000	589.720	80.008	19.993	103.787	20.051	3.082	0.517
1019.500	589.963	80.008	19.994	103.786	20.049	3.224	0.485
1020.000	590.219	80.008	19.993	103.784	20.048	3.326	0.490
1020.500	590.490	80.008	19.994	103.784	20.048	3.306	0.513
1021.000	590.756	80.009	19.995	103.780	20.048	3.318	0.532
1021.500	591.001	80.009	19.993	103.777	20.049	3.190	0.524
1022.000	591.283	80.007	19.993	103.776	20.050	3.156	0.519
1022.500	591.478	80.007	19.993	103.776	20.049	3.246	0.502
1023.000	591.761	80.007	19.994	103.773	20.049	3.214	0.478
1023.500	591.977	80.007	19.994	103.775	20.050	3.136	0.488
1024.000	592.296	80.008	19.994	103.774	20.048	3.295	0.517
1024.499	592.511	80.008	19.993	103.774	20.050	3.126	0.534
1024.999	592.785	80.007	19.994	103.776	20.047	3.365	0.511
1025.499	593.027	80.005	19.993	103.778	20.052	2.990	0.502
1026.000	593.281	80.007	19.994	103.778	20.048	3.303	0.506
1026.500	593.556	80.007	19.994	103.781	20.047	3.331	0.513
1026.999	593.784	80.007	19.992	103.780	20.044	3.567	0.516
1027.499	594.047	80.008	19.993	103.780	20.049	3.229	0.497
1027.999	594.319	80.006	19.993	103.783	20.048	3.309	0.513
1028.499	594.589	80.008	19.993	103.783	20.047	3.343	0.538
1029.000	594.872	80.008	19.994	103.785	20.047	3.355	0.547
1029.500	595.135	80.007	19.993	103.788	20.049	3.243	0.549
1029.999	595.391	80.007	19.994	103.790	20.049	3.245	0.533
1030.500	595.610	80.008	19.993	103.789	20.047	3.355	0.498
1031.001	595.871	80.007	19.993	103.790	20.049	3.189	0.478
1031.501	596.117	80.008	19.993	103.790	20.046	3.443	0.493
1032.001	596.389	80.008	19.993	103.790	20.051	3.057	0.512
1032.500	596.648	80.008	19.993	103.789	20.047	3.343	0.524
1033.000	596.913	80.009	19.993	103.788	20.049	3.213	0.528
1033.500	597.152	80.008	19.993	103.781	20.051	3.096	0.514
1034.000	597.441	80.009	19.993	103.780	20.051	3.100	0.516
1034.500	597.684	80.010	19.993	103.779	20.050	3.135	0.530
1035.000	597.935	80.008	19.994	103.779	20.046	3.411	0.514
1035.500	598.209	80.008	19.993	103.778	20.050	3.153	0.510
1036.000	598.458	80.009	19.994	103.779	20.050	3.125	0.524
1036.500	598.693	80.007	19.993	103.776	20.051	3.103	0.504
1037.000	598.980	80.008	19.994	103.774	20.053	2.923	0.503
1037.500	599.225	80.010	19.994	103.770	20.049	3.239	0.526
1038.000	599.475	80.008	19.994	103.771	20.047	3.365	0.513
1038.500	599.730	80.010	19.993	103.773	20.048	3.293	0.500
1039.000	599.977	80.011	19.993	103.775	20.048	3.261	0.503
1039.500	600.253	80.010	19.994	103.776	20.046	3.435	0.513
1040.000	600.509	80.008	19.994	103.780	20.051	3.091	0.527
1040.500	600.753	80.011	19.993	103.779	20.046	3.435	0.516
1041.000	601.001	80.009	19.994	103.774	20.046	3.437	0.496
1041.500	601.279	80.010	19.995	103.767	20.049	3.219	0.509
1042.000	601.530	80.010	19.994	103.761	20.047	3.377	0.527
1042.500	601.776	80.009	19.994	103.760	20.046	3.417	0.513
1043.000	602.047	80.009	19.994	103.759	20.047	3.395	0.507
1043.500	602.277	80.009	19.993	103.766	20.049	3.217	0.509
1044.000	602.535	80.008	19.994	103.772	20.048	3.255	0.494
1044.500	602.819	80.008	19.993	103.778	20.047	3.371	0.515
1045.000	603.108	80.007	19.995	103.779	20.047	3.385	0.557
1045.500	603.352	80.009	19.994	103.777	20.050	3.161	0.553
1046.000	603.600	80.008	19.993	103.771	20.047	3.355	0.513
1046.500	603.839	80.009	19.994	103.769	20.050	3.149	0.489
1047.000	604.102	80.008	19.995	103.769	20.046	3.409	0.495
1047.500	604.365	80.009	19.994	103.766	20.049	3.233	0.514
1048.000	604.594	80.008	19.995	103.768	20.047	3.337	0.509
1048.500	604.892	80.007	19.993	103.772	20.048	3.301	0.509
1049.000	605.168	80.008	19.995	103.769	20.046	3.421	0.550
1049.500	605.368	80.006	19.996	103.765	20.051	3.043	0.525
1050.000	605.608	80.009	19.993	103.765	20.051	3.047	0.458
1050.500	605.873	80.007	19.993	103.763	20.046	3.407	0.473
1051.000	606.134	80.007	19.993	103.763	20.047	3.353	0.515
1051.500	606.344	80.007	19.993	103.765	20.047	3.355	0.499
1052.000	606.630	80.007	19.993	103.770	20.050	3.175	0.484
1052.500	606.855	80.007	19.993	103.771	20.046	3.439	0.503
1053.000	607.153	80.007	19.995	103.773	20.048	3.261	0.517
1053.500	607.432	80.006	19.995	103.775	20.048	3.287	0.550
1054.000	607.662	80.006	19.993	103.774	20.047	3.385	0.543
1054.500	607.922	80.004	19.995	103.771	20.045	3.519	0.499
1055.000	608.152	80.005	19.993	103.773	20.048	3.320	0.490
1055.500	608.462	80.007	19.993	103.774	20.046	3.449	0.515
1056.000	608.689	80.007	19.993	103.773	20.047	3.331	0.539
1056.500	608.921	80.007	19.995	103.776	20.046	3.449	0.498
1057.000	609.208	80.006	19.993	103.777	20.049	3.218	0.488
1057.500	609.444	80.008	19.994	103.776	20.047	3.391	0.521
1058.000	609.718	80.006	19.994	103.777	20.049	3.214	0.517
1058.500	609.964	80.006	19.994	103.778	20.046	3.403	0.515
1059.000	610.206	80.007	19.994	103.776	20.050	3.157	0.504
1059.500	610.473	80.007	19.994	103.774	20.047	3.351	0.498
1060.000	610.718	80.006	19.995	103.772	20.047	3.343	0.510
1060.500	610.969	80.007	19.994	103.770	20.049	3.231	0.504
1061.000	611.233	80.007	19.994	103.769	20.047	3.327	0.506
1061.500	611.488	80.009	19.993	103.768	20.048	3.323	0.518
1062.000	611.767	80.008	19.995	103.767	20.049	3.247	0.527
1062.500	612.001	80.007	19.993	103.771	20.045	3.489	0.523
1063.000	612.281	80.007	19.994	103.769	20.048	3.311	0.513
1063.500	612.513	80.007	19.996	103.770	20.049	3.185	0.513
1064.000	612.753	80.007	19.994	103.774	20.047	3.337	0.492
1064.500	613.015	80.007	19.994	103.779	20.044	3.547	0.487
1065.000	613.228	80.007	19.995	103.780	20.048	3.283	0.488
1065.500	613.537	80.007	19.994	103.783	20.047	3.341	0.498
1066.000	613.774	80.008	19.993	103.784	20.046	3.419	0.534
1066.500	614.038	80.007	19.994	103.783	20.047	3.357	0.524
1067.000	614.310	80.006	19.996	103.782	20.046	3.405	0.519
1067.500	614.568	80.007	19.994	103.782	20.046	3.439	0.533
1068.000	614.799	80.007	19.993	103.782	20.047	3.361	0.509
1068.500	615.076	80.007	19.995	103.781	20.049	3.191	0.499
1069.000	615.321	80.007	19.995	103.780	20.048	3.265	0.515
1069.500	615.573	80.006	19.993	103.777	20.045	3.513	0.509
1070.000	615.849	80.007	19.995	103.774	20.047	3.377	0.513
1070.500	616.101	80.006	19.996	103.774	20.046	3.403	0.528
1071.000	616.390	80.007	19.995	103.776	20.044	3.569	0.535
1071.500	616.646	80.007	19.996	103.776	20.048	3.263	0.543
1072.000	616.898	80.006	19.995	103.779	20.045	3.495	0.526
1072.500	617.158	80.006	19.996	103.778	20.049	3.239	0.510
1073.000	617.417	80.006	19.996	103.778	20.048	3.273	0.516
1073.500	617.671	80.007	19.997	103.775	20.048	3.265	0.516
1074.001	617.894	80.006	19.995	103.777	20.048	3.293	0.495
1074.500	618.139	80.007	19.995	103.776	20.047	3.335	0.473
1075.000	618.376	80.006	19.995	103.778	20.050	3.119	0.475
1075.500	618.646	80.007	19.994	103.779	20.050	3.111	0.494
1076.000	618.916	80.006	19.995	103.781	20.048	3.309	0.523
1076.500	619.177	80.005	19.995	103.780	20.048	3.264	0.535
1077.000	619.421	80.005	19.994	103.781	20.049	3.231	0.518
1077.500	619.694	80.007	19.994	103.779	20.047	3.369	0.511
1078.000	619.939	80.006	19.994	103.777	20.044	3.565	0.517
1078.500	620.177	80.004	19.995	103.775	20.046	3.427	0.501
1079.000	620.442	80.005	19.995	103.775	20.048	3.291	0.493
1079.500	620.716	80.006	19.994	103.774	20.045	3.479	0.521
1080.000	620.939	80.006	19.994	103.776	20.049	3.247	0.517
1080.500	621.249	80.005	19.995	103.779	20.045	3.509	0.515
1081.000	621.490	80.006	19.995	103.781	20.048	3.269	0.542
1081.500	621.744	80.007	19.994	103.778	20.046	3.451	0.523
1082.000	622.016	80.006	19.994	103.779	20.044	3.609	0.511
1082.500	622.261	80.006	19.994	103.780	20.047	3.349	0.522
1083.000	622.512	80.005	19.994	103.778	20.046	3.427	0.506
1083.500	622.796	80.006	19.994	103.777	20.045	3.515	0.515
1084.000	623.021	80.006	19.995	103.776	20.046	3.423	0.522
1084.500	623.297	80.007	19.994	103.773	20.048	3.285	0.505
1085.000	623.558	80.006	19.994	103.768	20.046	3.465	0.519
1085.500	623.810	80.006	19.993	103.770	20.047	3.353	0.525
1086.000	624.086	80.008	19.993	103.770	20.045	3.525	0.521
1086.500	624.295	80.005	19.993	103.775	20.050	3.134	0.507
1087.000	624.599	80.007	19.994	103.779	20.046	3.459	0.499
1087.500	624.866	80.006	19.993	103.784	20.048	3.280	0.542
1088.000	625.095	80.007	19.993	103.779	20.044	3.549	0.533
1088.500	625.354	80.007	19.993	103.778	20.050	3.134	0.492
1089.000	625.609	80.007	19.993	103.777	20.049	3.182	0.501
1089.500	625.858	80.007	19.993	103.777	20.051	3.040	0.509
1090.000	626.121	80.008	19.993	103.774	20.050	3.150	0.509
1090.500	626.352	80.008	19.993	103.775	20.048	3.318	0.503
1091.000	626.633	80.006	19.993	103.777	20.048	3.272	0.502
1091.500	626.878	80.008	19.993	103.778	20.051	3.056	0.519
1092.000	627.155	80.008	19.993	103.778	20.049	3.188	0.524
1092.500	627.398	80.008	19.993	103.779	20.050	3.109	0.521
1093.000	627.667	80.007	19.994	103.779	20.053	2.960	0.516
1093.500	627.942	80.008	19.993	103.777	20.050	3.145	0.528
1094.000	628.187	80.008	19.994	103.774	20.051	3.041	0.532
1094.501	628.430	80.009	19.993	103.774	20.051	3.059	0.504
1095.000	628.673	80.008	19.994	103.776	20.049	3.223	0.487
1095.500	628.920	80.007	19.994	103.781	20.055	2.810	0.488
1096.000	629.191	80.007	19.994	103.778	20.052	3.000	0.504
1096.500	629.439	80.009	19.993	103.780	20.052	3.030	0.518
1097.000	629.681	80.009	19.993	103.782	20.052	2.980	0.505
1097.500	629.953	80.007	19.994	103.782	20.049	3.189	0.503
1098.000	630.204	80.010	19.993	103.782	20.050	3.175	0.518
1098.500	630.479	80.010	19.994	103.786	20.049	3.211	0.524
1099.000	630.722	80.007	19.993	103.786	20.050	3.149	0.522
1099.500	630.965	80.008	19.995	103.785	20.051	3.094	0.502
1100.000	631.279	80.008	19.994	103.784	20.052	3.010	0.522
1100.500	631.512	80.009	19.994	103.784	20.049	3.226	0.552
1101.000	631.765	80.009	19.993	103.784	20.047	3.365	0.516
1101.500	632.019	80.008	19.994	103.783	20.050	3.180	0.497
1102.000	632.280	80.009	19.993	103.782	20.050	3.116	0.511
1102.500	632.565	80.007	19.993	103.782	20.049	3.194	0.531
1103.000	632.817	80.009	19.993	103.780	20.047	3.377	0.542
1103.500	633.060	80.009	19.994	103.777	20.046	3.431	0.516
1104.000	633.353	80.008	19.994	103.774	20.048	3.292	0.515
1104.500	633.609	80.006	19.994	103.771	20.048	3.282	0.542
1105.000	633.835	80.008	19.994	103.771	20.049	3.218	0.516
1105.500	634.123	80.009	19.993	103.773	20.048	3.307	0.499
1106.000	634.436	80.009	19.993	103.777	20.048	3.301	0.558
1106.500	634.672	80.009	19.994	103.781	20.047	3.363	0.575
1107.000	634.984	80.008	19.994	103.782	20.049	3.249	0.548
1107.500	635.202	80.008	19.994	103.778	20.047	3.333	0.539
1108.000	635.483	80.008	19.993	103.774	20.048	3.311	0.515
1108.500	635.767	80.008	19.992	103.772	20.046	3.417	0.532
1109.000	636.039	80.008	19.993	103.771	20.051	3.079	0.560
1109.500	636.309	80.008	19.995	103.772	20.045	3.532	0.549
1110.000	636.568	80.008	19.995	103.777	20.046	3.425	0.536
1110.500	636.837	80.009	19.993	103.781	20.043	3.642	0.528
1111.000	637.059	80.008	19.994	103.783	20.049	3.245	0.510
1111.500	637.350	80.009	19.995	103.785	20.046	3.427	0.502
1112.000	637.592	80.009	19.993	103.783	20.045	3.495	0.523
1112.500	637.893	80.008	19.994	103.782	20.045	3.487	0.538
1113.000	638.160	80.008	19.995	103.781	20.046	3.401	0.555
1113.500	638.413	80.007	19.993	103.780	20.046	3.429	0.544
1114.000	638.649	80.009	19.994	103.780	20.047	3.327	0.505
1114.500	638.924	80.009	19.994	103.781	20.046	3.413	0.500
1115.000	639.188	80.008	19.994	103.782	20.044	3.565	0.525
1115.500	639.456	80.008	19.993	103.782	20.046	3.439	0.536
1116.000	639.723	80.009	19.994	103.782	20.047	3.397	0.534
1116.500	639.952	80.009	19.994	103.778	20.046	3.447	0.515
1117.000	640.270	80.009	19.993	103.776	20.046	3.431	0.521
1117.500	640.504	80.009	19.993	103.773	20.045	3.523	0.550
1118.000	640.786	80.009	19.994	103.770	20.045	3.505	0.534
1118.500	641.043	80.009	19.993	103.765	20.044	3.549	0.527
1119.000	641.319	80.011	19.993	103.762	20.043	3.677	0.536
1119.500	641.577	80.010	19.993	103.758	20.040	3.845	0.534
1120.000	641.873	80.009	19.993	103.757	20.043	3.673	0.544
1120.500	642.145	80.009	19.993	103.755	20.041	3.821	0.561
1121.000	642.383	80.011	19.993	103.757	20.042	3.701	0.539
1121.500	642.633	80.010	19.993	103.759	20.044	3.595	0.499
1122.000	642.943	80.011	19.994	103.761	20.045	3.533	0.524
1122.500	643.194	80.011	19.994	103.762	20.044	3.589	0.561
1123.000	643.468	80.010	19.993	103.766	20.045	3.523	0.543
1123.500	643.722	80.011	19.993	103.766	20.042	3.699	0.527
1124.000	643.996	80.011	19.994	103.771	20.040	3.850	0.528
1124.500	644.236	80.011	19.993	103.776	20.042	3.738	0.521
1125.000	644.507	80.011	19.994	103.778	20.043	3.677	0.513
1125.500	644.774	80.012	19.994	103.779	20.045	3.527	0.524
1126.000	645.020	80.011	19.994	103.780	20.042	3.721	0.525
1126.500	645.318	80.009	19.993	103.780	20.042	3.735	0.529
1127.000	645.543	80.011	19.994	103.781	20.043	3.657	0.533
1127.500	645.816	80.009	19.993	103.781	20.043	3.641	0.510
1128.000	646.098	80.011	19.993	103.782	20.045	3.475	0.527
1128.501	646.378	80.008	19.994	103.782	20.043	3.623	0.559
1129.000	646.649	80.010	19.993	103.782	20.045	3.509	0.557
1129.500	646.899	80.008	19.992	103.780	20.043	3.669	0.536
1130.000	647.184	80.008	19.995	103.781	20.046	3.431	0.528
1130.501	647.467	80.009	19.994	103.780	20.044	3.601	0.552
1131.000	647.706	80.007	19.994	103.780	20.044	3.611	0.545
1131.500	647.979	80.008	19.995	103.780	20.042	3.739	0.517
1132.000	648.256	80.007	19.995	103.782	20.045	3.499	0.531
1132.500	648.517	80.007	19.994	103.780	20.045	3.529	0.544
1133.000	648.714	80.007	19.993	103.779	20.046	3.427	0.498
1133.500	649.038	80.007	19.994	103.772	20.044	3.575	0.489
1134.000	649.294	80.006	19.994	103.768	20.047	3.385	0.550
1134.500	649.572	80.007	19.995	103.763	20.044	3.582	0.557
1135.000	649.849	80.007	19.993	103.760	20.042	3.692	0.544
1135.500	650.114	80.008	19.993	103.761	20.047	3.377	0.549
1136.000	650.421	80.007	19.994	103.767	20.044	3.592	0.557
1136.500	650.708	80.007	19.993	103.767	20.047	3.371	0.583
1137.000	650.893	80.007	19.994	103.765	20.046	3.469	0.533
1137.500	651.206	80.007	19.993	103.768	20.046	3.415	0.486
1138.000	651.466	80.007	19.993	103.767	20.046	3.455	0.536
1138.500	651.741	80.006	19.994	103.767	20.044	3.592	0.554
1139.000	651.989	80.007	19.994	103.769	20.044	3.556	0.529
1139.500	652.286	80.007	19.994	103.774	20.046	3.437	0.533
1140.000	652.519	80.007	19.994	103.773	20.047	3.341	0.537
1140.500	652.788	80.008	19.993	103.774	20.050	3.179	0.516
1141.000	653.091	80.006	19.994	103.773	20.046	3.435	0.537
1141.500	653.339	80.008	19.994	103.770	20.046	3.415	0.562
1142.000	653.586	80.008	19.993	103.767	20.046	3.443	0.523
1142.500	653.874	80.006	19.995	103.767	20.047	3.369	0.514
1143.000	654.157	80.007	19.995	103.762	20.044	3.549	0.553
1143.500	654.406	80.007	19.993	103.761	20.046	3.455	0.552
1144.000	654.682	80.007	19.994	103.761	20.046	3.429	0.528
1144.500	654.918	80.006	19.993	103.760	20.044	3.575	0.519
1145.000	655.212	80.007	19.993	103.757	20.044	3.551	0.521
1145.500	655.478	80.007	19.994	103.755	20.042	3.718	0.545
1146.000	655.708	80.008	19.993	103.755	20.043	3.684	0.528
1146.500	656.008	80.007	19.994	103.753	20.045	3.533	0.513
1147.000	656.306	80.008	19.994	103.753	20.048	3.289	0.564
1147.500	656.525	80.008	19.993	103.754	20.042	3.763	0.558
1148.000	656.833	80.006	19.995	103.756	20.047	3.373	0.522
1148.500	657.080	80.006	19.994	103.756	20.055	2.789	0.541
1149.000	657.379	80.006	19.995	103.759	20.045	3.509	0.550
1149.500	657.623	80.007	19.994	103.759	20.047	3.367	0.544
1150.000	657.877	80.006	19.995	103.757	20.045	3.543	0.521
1150.500	658.153	80.006	19.993	103.760	20.045	3.537	0.514
1151.000	658.422	80.006	19.994	103.765	20.047	3.363	0.537
1151.500	658.681	80.007	19.994	103.765	20.043	3.661	0.536
1152.000	658.964	80.007	19.993	103.766	20.047	3.377	0.535
1152.500	659.208	80.007	19.994	103.767	20.050	3.165	0.535
1153.000	659.489	80.007	19.993	103.763	20.041	3.809	0.526
1153.500	659.750	80.006	19.993	103.761	20.046	3.471	0.534
1154.000	660.043	80.006	19.993	103.761	20.045	3.539	0.548
1154.500	660.306	80.006	19.994	103.764	20.044	3.605	0.555
1155.000	660.529	80.007	19.993	103.763	20.045	3.515	0.521
1155.500	660.796	80.007	19.993	103.763	20.042	3.743	0.488
1156.000	661.039	80.005	19.994	103.761	20.046	3.463	0.500
1156.500	661.336	80.007	19.994	103.760	20.043	3.657	0.525
1157.001	661.558	80.005	19.995	103.760	20.045	3.479	0.529
1157.500	661.858	80.007	19.994	103.763	20.044	3.573	0.521
1158.000	662.150	80.007	19.994	103.766	20.048	3.269	0.557
1158.500	662.348	80.006	19.993	103.767	20.047	3.375	0.541
1159.000	662.574	80.005	19.994	103.767	20.047	3.393	0.457
1159.500	662.901	80.007	19.995	103.763	20.045	3.517	0.488
1160.000	663.003	80.006	19.994	103.760	20.043	3.659	0.491
1160.500	663.417	80.005	19.994	103.757	20.047	3.393	0.473
1161.000	663.721	80.005	19.994	103.760	20.046	3.409	0.617
1161.500	663.796	80.006	19.993	103.763	20.048	3.321	0.548
1162.000	664.032	80.005	19.994	103.769	20.045	3.503	0.345
1162.500	665.072	80.008	19.996	103.774	20.048	3.313	0.794
1163.000	664.566	80.006	19.995	103.776	20.047	3.379	0.905
1163.500	665.050	80.006	19.995	103.775	20.045	3.501	0.256
1164.000	665.092	80.006	19.994	103.774	20.044	3.563	0.252
1164.500	665.448	80.006	19.995	103.775	20.045	3.515	0.462
1165.000	665.741	80.007	19.994	103.772	20.042	3.719	0.523
1165.500	665.883	80.006	19.996	103.772	20.047	3.369	0.542
1166.000	666.231	80.006	19.994	103.770	20.045	3.503	0.463
1166.500	666.412	80.007	19.995	103.765	20.044	3.565	0.510
1167.000	666.720	80.006	19.995	103.762	20.045	3.487	0.509
1167.500	666.997	80.006	19.995	103.763	20.046	3.471	0.536
1168.000	667.203	80.006	19.995	103.761	20.044	3.585	0.534
1168.500	667.456	80.006	19.995	103.762	20.044	3.577	0.472
1169.000	667.752	80.006	19.995	103.763	20.044	3.577	0.504
1169.500	667.974	80.006	19.994	103.761	20.044	3.615	0.533
1170.000	668.262	80.007	19.995	103.760	20.042	3.723	0.514
1170.500	668.501	80.006	19.995	103.762	20.043	3.683	0.518
1171.000	668.755	80.006	19.995	103.762	20.042	3.697	0.510
1171.500	669.008	80.006	19.995	103.760	20.046	3.449	0.501
1172.000	669.281	80.006	19.994	103.763	20.043	3.687	0.516
1172.500	669.502	80.007	19.995	103.765	20.045	3.515	0.510
1173.000	669.814	80.006	19.995	103.766	20.044	3.591	0.514
1173.500	670.068	80.008	19.995	103.766	20.030	4.584	0.550
1174.000	670.297	80.008	19.995	103.767	20.038	3.982	0.524
1174.500	670.552	80.007	19.996	103.763	20.044	3.612	0.484
1175.000	670.795	80.008	19.995	103.761	20.043	3.682	0.491
1175.500	671.098	80.007	19.994	103.761	20.043	3.680	0.522
1176.001	671.314	80.009	19.995	103.763	20.044	3.556	0.532
1176.501	671.615	80.009	19.994	103.767	20.047	3.364	0.518
1177.000	671.848	80.008	19.994	103.772	20.043	3.638	0.526
1177.500	672.023	80.008	19.995	103.775	20.045	3.512	0.471
1178.000	672.324	80.009	19.995	103.776	20.046	3.428	0.442
1178.500	672.581	80.009	19.994	103.772	20.046	3.460	0.517
1179.000	672.834	80.009	19.993	103.767	20.044	3.568	0.534
1179.500	673.074	80.009	19.994	103.762	20.046	3.401	0.502
1180.001	673.323	80.009	19.994	103.760	20.044	3.613	0.491
1180.501	673.573	80.007	19.993	103.761	20.045	3.507	0.494
1181.000	673.807	80.008	19.993	103.765	20.045	3.479	0.491
1181.500	674.112	80.009	19.994	103.770	20.040	3.840	0.512
1182.000	674.366	80.008	19.993	103.773	20.043	3.642	0.549
1182.500	674.593	80.009	19.994	103.771	20.044	3.568	0.520
1183.000	674.837	80.009	19.993	103.771	20.045	3.538	0.476
1183.500	675.193	80.008	19.994	103.770	20.044	3.576	0.536
1184.000	675.335	80.009	19.993	103.766	20.044	3.572	0.549
1184.500	675.644	80.008	19.993	103.762	20.043	3.654	0.474
1185.000	675.780	80.008	19.993	103.761	20.043	3.630	0.448
1185.500	676.274	80.009	19.993	103.756	20.043	3.634	0.538
1186.000	676.375	80.008	19.993	103.751	20.039	3.922	0.612
1186.500	676.476	80.008	19.993	103.749	20.042	3.700	0.399
1187.000	676.772	80.008	19.994	103.749	20.041	3.820	0.300
1187.500	676.911	80.010	19.993	103.747	20.041	3.830	0.416
1188.000	677.156	80.008	19.993	103.747	20.043	3.654	0.409
1188.500	677.656	80.008	19.993	103.749	20.041	3.770	0.565
1189.000	677.955	80.007	19.994	103.751	20.044	3.616	0.772
1189.500	678.154	80.007	19.992	103.753	20.045	3.541	0.648
1190.000	678.295	80.008	19.994	103.756	20.044	3.589	0.419
1190.500	678.685	80.008	19.994	103.763	20.046	3.439	0.435
1191.000	678.889	80.008	19.995	103.768	20.044	3.578	0.562
1191.501	679.214	80.009	19.994	103.769	20.042	3.702	0.562
1192.000	679.393	80.007	19.993	103.768	20.045	3.510	0.517
1192.500	679.683	80.008	19.994	103.766	20.046	3.470	0.486
1193.000	679.937	80.008	19.993	103.758	20.041	3.774	0.507
1193.500	680.174	80.008	19.994	103.751	20.044	3.586	0.518
1194.000	680.419	80.008	19.994	103.750	20.047	3.374	0.486
1194.500	680.656	80.009	19.994	103.749	20.046	3.399	0.482
1195.000	680.915	80.008	19.995	103.750	20.047	3.369	0.489
1195.500	681.138	80.008	19.994	103.752	20.043	3.639	0.489
1196.000	681.416	80.008	19.995	103.753	20.045	3.509	0.492
1196.500	681.715	80.007	19.994	103.755	20.047	3.367	0.539
1197.000	681.924	80.009	19.994	103.756	20.047	3.353	0.542
1197.500	682.174	80.009	19.993	103.754	20.046	3.447	0.484
1198.000	682.415	80.009	19.994	103.755	20.047	3.327	0.475
1198.500	682.679	80.008	19.993	103.754	20.046	3.400	0.498
1199.000	682.916	80.007	19.993	103.752	20.045	3.508	0.503
1199.500	683.180	80.008	19.994	103.756	20.044	3.568	0.501
1200.000	683.392	80.008	19.994	103.760	20.045	3.536	0.488
1200.500	683.638	80.009	19.994	103.760	20.046	3.439	0.467
1201.000	683.885	80.008	19.994	103.760	20.046	3.431	0.476
1201.500	684.165	80.009	19.994	103.758	20.043	3.652	0.510
1202.000	684.414	80.009	19.994	103.755	20.045	3.487	0.528
1202.500	684.667	80.010	19.994	103.751	20.044	3.552	0.515
1203.000	684.904	80.010	19.993	103.750	20.045	3.516	0.496
1203.500	685.198	80.009	19.993	103.750	20.041	3.816	0.511
1204.000	685.417	80.010	19.993	103.750	20.046	3.424	0.522
1204.500	685.716	80.010	19.993	103.752	20.044	3.574	0.515
1205.000	685.951	80.010	19.993	103.752	20.047	3.365	0.526
1205.500	686.182	80.011	19.994	103.755	20.045	3.542	0.500
1206.000	686.411	80.009	19.993	103.759	20.050	3.157	0.463
1206.500	686.726	80.011	19.993	103.762	20.049	3.249	0.502
1207.000	686.913	80.009	19.993	103.764	20.044	3.544	0.523
1207.500	687.220	80.010	19.994	103.765	20.047	3.376	0.498
1208.000	687.423	80.010	19.993	103.762	20.047	3.343	0.503
1208.500	687.738	80.010	19.993	103.758	20.045	3.530	0.514
1209.000	687.941	80.010	19.993	103.753	20.045	3.493	0.518
1209.500	688.182	80.009	19.993	103.750	20.048	3.315	0.480
1210.000	688.410	80.010	19.993	103.749	20.046	3.453	0.456
1210.500	688.697	80.009	19.992	103.748	20.045	3.475	0.492
1211.000	688.965	80.008	19.994	103.751	20.041	3.769	0.535
1211.500	689.184	80.009	19.994	103.755	20.040	3.853	0.521
1212.000	689.437	80.007	19.993	103.757	20.042	3.743	0.480
1212.500	689.643	80.006	19.993	103.757	20.042	3.707	0.466
1213.000	689.936	80.006	19.993	103.758	20.041	3.793	0.479
1213.501	690.114	80.008	19.992	103.756	20.042	3.757	0.485
1214.001	690.419	80.006	19.993	103.752	20.040	3.875	0.477
1214.500	690.672	80.007	19.994	103.752	20.041	3.791	0.520
1215.000	690.914	80.007	19.993	103.753	20.042	3.705	0.527
1215.500	691.134	80.008	19.993	103.753	20.043	3.638	0.479
1216.000	691.390	80.006	19.993	103.755	20.043	3.668	0.469
1216.500	691.647	80.007	19.994	103.756	20.043	3.670	0.494
1217.000	691.898	80.006	19.992	103.755	20.042	3.692	0.511
1217.500	692.145	80.007	19.993	103.754	20.044	3.610	0.503
1218.000	692.408	80.007	19.993	103.753	20.046	3.417	0.504
1218.500	692.672	80.007	19.994	103.753	20.045	3.501	0.518
1219.000	692.914	80.008	19.994	103.753	20.039	3.912	0.516
1219.500	693.168	80.007	19.992	103.756	20.041	3.815	0.500
1220.000	693.397	80.008	19.993	103.761	20.044	3.617	0.490
1220.500	693.650	80.006	19.993	103.767	20.044	3.615	0.483
1221.000	693.893	80.006	19.992	103.770	20.040	3.868	0.489
1221.500	694.155	80.006	19.993	103.774	20.044	3.587	0.501
1222.000	694.420	80.007	19.993	103.777	20.041	3.823	0.516
1222.500	694.667	80.007	19.993	103.778	20.042	3.713	0.519
1223.000	694.906	80.006	19.994	103.778	20.042	3.700	0.499
1223.500	695.167	80.007	19.992	103.779	20.042	3.750	0.493
1224.000	695.415	80.007	19.992	103.778	20.042	3.738	0.505
1224.500	695.674	80.007	19.993	103.775	20.040	3.840	0.508
1225.000	695.899	80.007	19.994	103.770	20.041	3.766	0.496
1225.500	696.183	80.008	19.994	103.766	20.042	3.752	0.496
1226.000	696.400	80.006	19.993	103.763	20.042	3.740	0.505
1226.500	696.666	80.007	19.994	103.760	20.043	3.630	0.492
1227.000	696.946	80.009	19.994	103.758	20.045	3.481	0.515
1227.500	697.183	80.007	19.994	103.757	20.042	3.703	0.532
1228.000	697.444	80.007	19.994	103.757	20.044	3.617	0.508
1228.500	697.664	80.006	19.994	103.757	20.042	3.759	0.489
1229.000	697.944	80.007	19.995	103.762	20.040	3.855	0.490
1229.500	698.204	80.007	19.993	103.765	20.040	3.840	0.520
1230.000	698.445	80.007	19.993	103.765	20.042	3.691	0.520
1230.500	698.710	80.007	19.993	103.767	20.039	3.918	0.504
1231.000	699.013	80.008	19.993	103.768	20.040	3.902	0.537
1231.500	699.244	80.007	19.994	103.763	20.038	3.992	0.551
1232.000	699.516	80.007	19.993	103.762	20.039	3.934	0.519
1232.500	699.767	80.010	19.994	103.768	20.039	3.970	0.513
1233.000	700.008	80.009	19.994	103.768	20.043	3.632	0.507
1233.500	700.234	80.008	19.995	103.764	20.040	3.866	0.479
1234.000	700.524	80.009	19.994	103.761	20.041	3.764	0.491
1234.500	700.795	80.008	19.994	103.757	20.041	3.782	0.539
1235.000	701.013	80.007	19.995	103.750	20.041	3.768	0.525
1235.500	701.290	80.007	19.995	103.746	20.042	3.762	0.492
1236.000	701.538	80.008	19.995	103.746	20.040	3.840	0.510
1236.500	701.809	80.006	19.994	103.750	20.042	3.698	0.521
1237.000	702.073	80.008	19.995	103.756	20.043	3.618	0.527
1237.500	702.289	80.008	19.994	103.760	20.042	3.732	0.508
1238.000	702.594	80.007	19.995	103.763	20.040	3.894	0.500
1238.500	702.804	80.008	19.994	103.768	20.041	3.806	0.518
1239.001	703.093	80.008	19.994	103.769	20.039	3.964	0.508
1239.500	703.336	80.009	19.993	103.768	20.041	3.794	0.516
1240.000	703.615	80.007	19.994	103.768	20.040	3.872	0.527
1240.501	703.917	80.008	19.995	103.765	20.041	3.773	0.551
1241.000	704.155	80.008	19.994	103.762	20.044	3.585	0.560
1241.500	704.386	80.007	19.994	103.758	20.043	3.677	0.505
1242.000	704.640	80.007	19.993	103.758	20.041	3.832	0.477
1242.500	704.878	80.006	19.994	103.758	20.041	3.806	0.489
1243.000	705.115	80.007	19.994	103.759	20.042	3.698	0.483
1243.500	705.391	80.005	19.995	103.758	20.039	3.962	0.494
1244.001	705.656	80.007	19.994	103.757	20.040	3.854	0.527
1244.501	705.915	80.006	19.994	103.753	20.040	3.876	0.532
1245.000	706.163	80.006	19.994	103.749	20.043	3.648	0.515
1245.500	706.415	80.006	19.994	103.749	20.045	3.513	0.503
1246.000	706.674	80.007	19.995	103.749	20.041	3.782	0.505
1246.500	706.966	80.007	19.995	103.749	20.041	3.810	0.531
1247.000	707.210	80.007	19.994	103.750	20.041	3.816	0.544
1247.500	707.471	80.007	19.994	103.753	20.042	3.720	0.521
1248.000	707.714	80.007	19.993	103.754	20.041	3.792	0.504
1248.500	707.976	80.006	19.994	103.754	20.041	3.818	0.505
1249.000	708.234	80.008	19.993	103.754	20.044	3.594	0.512
1249.500	708.496	80.006	19.993	103.752	20.044	3.568	0.520
1250.000	708.767	80.008	19.995	103.751	20.040	3.842	0.526
1250.500	709.009	80.007	19.995	103.756	20.044	3.610	0.523
1251.000	709.286	80.006	19.996	103.763	20.043	3.682	0.516
1251.500	709.533	80.008	19.995	103.768	20.041	3.828	0.522
1252.000	709.762	80.008	19.995	103.770	20.039	3.916	0.500
1252.501	710.068	80.006	19.995	103.767	20.043	3.648	0.506
1253.000	710.285	80.007	19.995	103.761	20.043	3.626	0.529
1253.500	710.538	80.008	19.995	103.755	20.044	3.602	0.497
1254.000	710.807	80.007	19.996	103.750	20.041	3.784	0.496
1254.500	711.052	80.008	19.995	103.752	20.040	3.892	0.518
1255.000	711.318	80.008	19.994	103.753	20.041	3.814	0.512
1255.500	711.575	80.008	19.994	103.756	20.042	3.722	0.517
1256.000	711.852	80.008	19.994	103.756	20.043	3.620	0.529
1256.500	712.091	80.008	19.996	103.758	20.040	3.840	0.525
1257.001	712.332	80.008	19.994	103.758	20.038	4.012	0.498
1257.500	712.615	80.008	19.994	103.758	20.039	3.938	0.502
1258.000	712.866	80.008	19.995	103.755	20.038	4.050	0.529
1258.500	713.092	80.009	19.995	103.754	20.038	4.008	0.505
1259.000	713.378	80.008	19.994	103.751	20.038	4.024	0.494
1259.500	713.644	80.008	19.994	103.748	20.037	4.076	0.532
1260.000	713.890	80.008	19.995	103.747	20.039	3.970	0.532
1260.500	714.144	80.009	19.996	103.749	20.036	4.152	0.506
1261.000	714.402	80.008	19.994	103.753	20.035	4.210	0.506
1261.500	714.664	80.008	19.996	103.756	20.034	4.307	0.516
1262.000	714.903	80.008	19.995	103.755	20.035	4.218	0.510
1262.500	715.166	80.008	19.995	103.755	20.039	3.952	0.502
1263.000	715.400	80.008	19.995	103.753	20.038	4.046	0.499
1263.500	715.675	80.008	19.995	103.748	20.037	4.072	0.503
1264.000	715.914	80.008	19.994	103.747	20.040	3.858	0.512
1264.500	716.147	80.007	19.995	103.752	20.038	3.998	0.493
1265.000	716.416	80.008	19.995	103.753	20.038	3.992	0.487
1265.500	716.678	80.008	19.994	103.753	20.039	3.972	0.516
1266.000	716.920	80.008	19.995	103.753	20.039	3.938	0.517
1266.500	717.147	80.009	19.995	103.752	20.039	3.954	0.486
1267.000	717.403	80.008	19.994	103.748	20.035	4.272	0.476
1267.500	717.693	80.006	19.996	103.747	20.040	3.886	0.515
1268.000	717.916	80.007	19.994	103.748	20.036	4.194	0.530
1268.500	718.176	80.006	19.995	103.749	20.039	3.958	0.498
1269.000	718.447	80.008	19.995	103.751	20.041	3.806	0.506
1269.500	718.650	80.006	19.995	103.754	20.040	3.902	0.502
1270.000	718.908	80.007	19.995	103.755	20.039	3.948	0.468
1270.500	719.161	80.007	19.995	103.755	20.037	4.088	0.486
1271.000	719.356	80.006	19.995	103.755	20.038	3.994	0.480
1271.500	719.647	80.006	19.993	103.753	20.038	4.038	0.467
1272.000	719.904	80.007	19.994	103.751	20.039	3.966	0.517
1272.500	720.108	80.007	19.994	103.752	20.039	3.910	0.505
1273.000	720.351	80.007	19.994	103.752	20.041	3.774	0.454
1273.500	720.621	80.007	19.994	103.754	20.040	3.848	0.480
1274.000	720.905	80.008	19.994	103.756	20.040	3.866	0.534
1274.500	721.161	80.008	19.994	103.755	20.040	3.862	0.547
1275.000	721.361	80.009	19.994	103.755	20.041	3.804	0.498
1275.500	721.620	80.008	19.994	103.757	20.038	3.988	0.457
1276.000	721.891	80.007	19.994	103.757	20.040	3.878	0.495
1276.500	722.110	80.008	19.993	103.754	20.038	3.986	0.511
1277.000	722.397	80.008	19.993	103.755	20.038	3.994	0.498
1277.500	722.612	80.008	19.992	103.754	20.036	4.140	0.504
1278.000	722.886	80.009	19.993	103.752	20.039	3.944	0.495
1278.500	723.133	80.007	19.994	103.753	20.037	4.096	0.505
1279.000	723.387	80.008	19.993	103.755	20.035	4.210	0.511
1279.500	723.635	80.007	19.993	103.755	20.039	3.938	0.501
1280.000	723.911	80.007	19.994	103.756	20.040	3.858	0.513
1280.500	724.128	80.007	19.993	103.758	20.040	3.850	0.509
1281.000	724.350	80.007	19.993	103.756	20.037	4.056	0.466
1281.500	724.604	80.008	19.993	103.752	20.038	4.038	0.457
1282.000	724.860	80.008	19.993	103.752	20.036	4.138	0.493
1282.500	725.121	80.008	19.993	103.754	20.038	3.998	0.513
1283.000	725.397	80.009	19.994	103.754	20.040	3.870	0.527
1283.500	725.602	80.010	19.992	103.756	20.039	3.930	0.509
1284.000	725.865	80.008	19.992	103.756	20.039	3.968	0.475
1284.500	726.127	80.009	19.993	103.756	20.037	4.122	0.497
1285.000	726.356	80.010	19.992	103.756	20.040	3.898	0.508
1285.500	726.594	80.009	19.993	103.754	20.038	4.000	0.479
1286.000	726.866	80.010	19.993	103.754	20.034	4.324	0.489
1286.500	727.080	80.009	19.993	103.755	20.037	4.112	0.498
1287.000	727.379	80.008	19.994	103.756	20.037	4.104	0.500
1287.500	727.600	80.008	19.992	103.756	20.036	4.138	0.516
1288.000	727.864	80.009	19.992	103.755	20.036	4.128	0.502
1288.500	728.114	80.009	19.993	103.754	20.037	4.116	0.500
1289.000	728.338	80.009	19.992	103.752	20.036	4.188	0.494
1289.500	728.609	80.008	19.992	103.754	20.039	3.954	0.484
1290.000	728.815	80.007	19.993	103.756	20.036	4.142	0.486
1290.500	729.055	80.009	19.993	103.759	20.037	4.092	0.462
1291.000	729.314	80.008	19.994	103.759	20.038	4.000	0.472
1291.500	729.573	80.008	19.993	103.759	20.035	4.233	0.509
1292.000	729.827	80.008	19.992	103.758	20.037	4.080	0.516
1292.500	730.100	80.007	19.993	103.755	20.038	3.996	0.520
1293.000	730.304	80.009	19.993	103.751	20.037	4.076	0.501
1293.500	730.552	80.008	19.993	103.751	20.039	3.956	0.464
1294.000	730.803	80.008	19.993	103.751	20.037	4.078	0.476
1294.500	731.078	80.007	19.993	103.754	20.037	4.124	0.513
1295.000	731.319	80.007	19.993	103.755	20.037	4.090	0.521
1295.500	731.569	80.007	19.995	103.757	20.034	4.300	0.503
1296.000	731.786	80.007	19.993	103.757	20.040	3.892	0.479
1296.501	732.077	80.007	19.994	103.757	20.034	4.274	0.487
1297.000	732.275	80.007	19.993	103.757	20.038	4.026	0.499
1297.500	732.547	80.007	19.994	103.757	20.036	4.136	0.479
1298.000	732.812	80.006	19.994	103.757	20.038	3.982	0.504
1298.500	733.052	80.007	19.993	103.756	20.037	4.092	0.521
1299.000	733.285	80.005	19.994	103.756	20.038	4.004	0.489
1299.500	733.562	80.006	19.994	103.752	20.037	4.082	0.491
1300.000	733.816	80.006	19.994	103.750	20.037	4.076	0.520
1300.500	734.020	80.006	19.994	103.749	20.037	4.104	0.495
1301.000	734.250	80.006	19.994	103.748	20.039	3.924	0.446
1301.500	734.522	80.006	19.993	103.747	20.035	4.213	0.467
1302.000	734.730	80.007	19.993	103.747	20.035	4.223	0.491
1302.500	735.036	80.005	19.994	103.749	20.036	4.199	0.497
1303.000	735.256	80.006	19.994	103.752	20.037	4.062	0.520
1303.500	735.479	80.006	19.994	103.752	20.036	4.173	0.484
1304.000	735.738	80.006	19.993	103.753	20.035	4.211	0.462
1304.500	735.992	80.006	19.993	103.753	20.035	4.261	0.497
1305.000	736.227	80.008	19.994	103.753	20.035	4.221	0.502
1305.500	736.464	80.006	19.994	103.751	20.038	3.998	0.481
1306.000	736.724	80.007	19.994	103.752	20.037	4.107	0.484
1306.500	736.948	80.006	19.994	103.753	20.039	3.964	0.490
1307.000	737.228	80.006	19.993	103.755	20.038	4.014	0.494
1307.500	737.468	80.007	19.993	103.754	20.038	4.038	0.512
1308.000	737.715	80.007	19.995	103.755	20.041	3.816	0.504
1308.500	737.935	80.006	19.993	103.754	20.039	3.928	0.477
1309.000	738.210	80.007	19.993	103.752	20.037	4.102	0.481
1309.500	738.442	80.005	19.993	103.751	20.037	4.086	0.501
1310.001	738.697	80.006	19.995	103.749	20.039	3.950	0.497
1310.500	738.945	80.006	19.996	103.747	20.038	3.982	0.495
1311.000	739.140	80.008	19.995	103.748	20.037	4.066	0.473
1311.500	739.401	80.007	19.994	103.748	20.037	4.124	0.450
1312.000	739.638	80.007	19.994	103.748	20.039	3.970	0.477
1312.500	739.914	80.007	19.994	103.748	20.037	4.078	0.505
1313.000	740.164	80.006	19.995	103.748	20.037	4.120	0.520
1313.500	740.391	80.007	19.993	103.748	20.034	4.340	0.501
1314.000	740.656	80.007	19.994	103.748	20.037	4.126	0.484
1314.500	740.863	80.006	19.993	103.748	20.038	4.054	0.482
1315.000	741.116	80.006	19.994	103.748	20.036	4.162	0.466
1315.500	741.401	80.007	19.994	103.748	20.035	4.244	0.499
1316.000	741.617	80.006	19.993	103.748	20.036	4.176	0.519
1316.500	741.859	80.007	19.994	103.747	20.036	4.160	0.479
1317.000	742.108	80.007	19.993	103.747	20.037	4.120	0.474
1317.500	742.326	80.008	19.994	103.747	20.037	4.072	0.479
1318.000	742.607	80.007	19.993	103.746	20.036	4.186	0.483
1318.500	742.841	80.007	19.993	103.746	20.037	4.102	0.507
1319.000	743.096	80.007	19.993	103.746	20.036	4.170	0.502
1319.500	743.344	80.006	19.993	103.747	20.038	3.990	0.496
1320.000	743.587	80.007	19.993	103.748	20.039	3.946	0.497
