Sample ID:	C:\MCC\MCC Cal\Test\Bean_Bag_Chair_Outer_Cover\Bean_Bag_Chair_Outer_Cover_MCC_30K_min_220318_R5.txt
Sample Weight (mg):	4.13
Heating Rate (C/s):	0.5
Combustor Temp (C):	900
N2 Flow Rate (cc/min):	80
O2 Flow Rate (cc/min):	20
Calibration File:	C:\MCC\MCC Cal\Coeff1 JN10440_30_210304.txt.txt
T Correction Coefficients:	0	1.024463	0
Time Shift (s):	14
*
Time (s)	Temperature (C)	N2 flow rate (cc/min)	O2 flow rate (cc/min)	Flow Rate (cc/min)	Oxygen (%)	HRR (W/g)	Heating rate (C/s)
0.000	110.772	80.005	19.993	103.738	20.095	0.152	-0.006
0.500	110.745	80.005	19.994	103.736	20.095	0.124	-0.023
1.000	110.747	80.004	19.993	103.738	20.094	0.202	-0.026
1.500	110.769	80.005	19.993	103.738	20.093	0.243	-0.000
2.000	110.756	80.004	19.995	103.740	20.092	0.377	0.016
2.500	110.759	80.004	19.994	103.742	20.092	0.327	-0.001
3.000	110.754	80.005	19.994	103.746	20.094	0.223	-0.006
3.500	110.753	80.004	19.994	103.748	20.096	0.052	-0.004
4.000	110.761	80.005	19.993	103.748	20.096	0.030	0.000
4.500	110.755	80.005	19.993	103.747	20.096	0.067	0.005
5.000	110.730	80.005	19.995	103.747	20.095	0.100	-0.014
5.500	110.757	80.004	19.993	103.743	20.095	0.121	-0.015
6.000	110.745	80.006	19.995	103.741	20.095	0.145	0.008
6.500	110.736	80.005	19.994	103.741	20.093	0.267	-0.003
7.000	110.756	80.006	19.994	103.741	20.091	0.403	-0.005
7.500	110.729	80.005	19.994	103.747	20.089	0.573	0.002
8.000	110.760	80.006	19.993	103.753	20.093	0.275	-0.002
8.501	110.743	80.006	19.994	103.759	20.090	0.531	0.009
9.001	110.747	80.005	19.994	103.766	20.091	0.423	0.000
9.500	110.779	80.004	19.994	103.775	20.090	0.538	0.011
10.001	110.745	80.006	19.994	103.779	20.089	0.562	0.017
10.501	110.751	80.007	19.993	103.786	20.092	0.390	-0.015
11.001	110.747	80.006	19.993	103.794	20.087	0.748	-0.013
11.501	110.760	80.008	19.994	103.802	20.087	0.748	0.005
12.001	110.734	80.006	19.994	103.808	20.086	0.848	-0.002
12.500	110.786	80.007	19.993	103.816	20.085	0.937	0.006
13.000	110.735	80.006	19.992	103.825	20.084	0.965	0.013
13.500	110.799	80.006	19.993	103.833	20.083	1.041	0.007
14.000	110.763	80.005	19.992	103.841	20.080	1.287	0.021
14.500	110.799	80.006	19.993	103.849	20.078	1.423	0.014
15.000	110.802	80.006	19.995	103.854	20.077	1.558	0.019
15.500	110.805	80.007	19.995	103.856	20.080	1.280	0.022
16.000	110.843	80.007	19.993	103.856	20.076	1.617	0.023
16.500	110.864	80.006	19.993	103.860	20.071	2.023	0.050
17.000	110.871	80.006	19.993	103.862	20.072	1.914	0.044
17.500	110.882	80.005	19.994	103.864	20.074	1.780	0.023
18.000	110.936	80.006	19.993	103.870	20.074	1.756	0.042
18.500	110.963	80.004	19.995	103.875	20.071	2.012	0.073
19.000	110.975	80.004	19.994	103.876	20.074	1.782	0.060
19.500	110.991	80.005	19.992	103.882	20.068	2.244	0.033
20.000	111.008	80.004	19.993	103.887	20.070	2.073	0.030
20.500	111.066	80.003	19.993	103.888	20.069	2.151	0.054
21.000	111.090	80.005	19.992	103.891	20.068	2.212	0.078
21.500	111.106	80.002	19.993	103.894	20.065	2.455	0.061
22.000	111.154	80.003	19.994	103.893	20.068	2.266	0.052
22.500	111.189	80.003	19.992	103.893	20.067	2.316	0.074
23.000	111.242	80.003	19.994	103.895	20.064	2.591	0.086
23.500	111.267	80.003	19.993	103.896	20.066	2.390	0.083
24.000	111.335	80.002	19.994	103.902	20.063	2.624	0.085
24.500	111.334	80.004	19.993	103.908	20.062	2.713	0.080
25.000	111.380	80.002	19.994	103.914	20.063	2.613	0.056
25.500	111.462	80.003	19.994	103.918	20.062	2.687	0.087
26.000	111.487	80.002	19.994	103.926	20.061	2.774	0.117
26.500	111.545	80.003	19.993	103.925	20.063	2.637	0.095
27.000	111.608	80.001	19.994	103.927	20.059	2.947	0.103
27.500	111.651	80.003	19.994	103.933	20.059	2.960	0.114
28.000	111.684	80.003	19.994	103.936	20.056	3.173	0.091
28.500	111.755	80.003	19.994	103.936	20.059	2.910	0.090
29.000	111.791	80.004	19.994	103.939	20.058	3.034	0.106
29.500	111.891	80.002	19.994	103.941	20.059	2.949	0.121
30.000	111.956	80.002	19.994	103.938	20.054	3.355	0.150
30.500	111.968	80.003	19.995	103.944	20.052	3.518	0.121
31.000	112.069	80.004	19.994	103.950	20.052	3.466	0.095
31.500	112.134	80.003	19.993	103.951	20.054	3.301	0.140
32.000	112.202	80.003	19.994	103.948	20.054	3.321	0.150
32.500	112.268	80.002	19.995	103.947	20.053	3.383	0.133
33.000	112.359	80.003	19.994	103.941	20.053	3.403	0.145
33.500	112.447	80.003	19.994	103.939	20.054	3.375	0.168
34.000	112.518	80.003	19.994	103.940	20.054	3.330	0.169
34.500	112.568	80.003	19.994	103.941	20.055	3.239	0.140
35.000	112.689	80.002	19.994	103.946	20.054	3.350	0.146
35.500	112.731	80.002	19.996	103.952	20.054	3.376	0.167
36.000	112.861	80.002	19.993	103.952	20.051	3.537	0.167
36.500	112.919	80.004	19.993	103.952	20.052	3.515	0.180
37.000	113.023	80.004	19.993	103.951	20.054	3.361	0.175
37.500	113.118	80.003	19.994	103.946	20.051	3.595	0.181
38.000	113.218	80.003	19.994	103.941	20.052	3.467	0.197
38.501	113.279	80.005	19.994	103.937	20.056	3.150	0.178
39.001	113.398	80.004	19.994	103.934	20.054	3.352	0.171
39.500	113.512	80.004	19.993	103.934	20.052	3.532	0.207
40.000	113.589	80.003	19.994	103.934	20.053	3.385	0.212
40.500	113.657	80.003	19.994	103.934	20.054	3.365	0.168
41.000	113.775	80.003	19.994	103.935	20.054	3.348	0.165
41.500	113.873	80.003	19.993	103.934	20.054	3.337	0.201
42.000	113.958	80.004	19.994	103.934	20.052	3.463	0.200
42.500	114.070	80.004	19.994	103.935	20.052	3.517	0.190
43.000	114.161	80.004	19.994	103.935	20.054	3.324	0.200
43.501	114.257	80.004	19.994	103.934	20.051	3.558	0.195
44.001	114.376	80.005	19.994	103.936	20.054	3.328	0.201
44.501	114.461	80.004	19.994	103.940	20.052	3.493	0.209
45.001	114.552	80.004	19.994	103.946	20.050	3.669	0.190
45.501	114.667	80.003	19.994	103.951	20.053	3.409	0.191
46.001	114.778	80.004	19.994	103.959	20.055	3.252	0.216
46.501	114.909	80.003	19.995	103.965	20.051	3.608	0.234
47.000	115.026	80.004	19.994	103.969	20.052	3.487	0.245
47.500	115.160	80.004	19.995	103.970	20.054	3.302	0.250
48.000	115.271	80.004	19.994	103.971	20.054	3.376	0.248
48.500	115.366	80.001	19.992	103.970	20.054	3.306	0.225
49.000	115.507	80.003	19.994	103.970	20.052	3.500	0.221
49.500	115.617	80.004	19.995	103.972	20.054	3.333	0.244
50.000	115.715	80.004	19.994	103.972	20.051	3.606	0.230
50.501	115.863	80.004	19.994	103.972	20.054	3.306	0.227
51.001	115.949	80.002	19.995	103.973	20.052	3.508	0.240
51.500	116.089	80.003	19.995	103.973	20.052	3.497	0.230
52.001	116.242	80.002	19.995	103.971	20.051	3.563	0.259
52.501	116.343	80.004	19.995	103.971	20.048	3.810	0.273
53.000	116.501	80.002	19.994	103.973	20.049	3.730	0.257
53.500	116.649	80.002	19.995	103.974	20.050	3.654	0.283
54.000	116.791	80.003	19.996	103.974	20.049	3.706	0.298
54.500	116.902	80.004	19.995	103.973	20.050	3.628	0.272
55.001	117.025	80.003	19.996	103.972	20.051	3.578	0.243
55.501	117.184	80.003	19.995	103.971	20.049	3.710	0.258
56.000	117.316	80.002	19.995	103.971	20.046	3.992	0.286
56.500	117.407	80.004	19.995	103.971	20.048	3.845	0.257
57.000	117.586	80.002	19.995	103.970	20.046	4.005	0.246
57.501	117.719	80.003	19.997	103.971	20.045	4.031	0.291
58.001	117.881	80.003	19.995	103.970	20.044	4.118	0.304
58.500	118.040	80.003	19.995	103.970	20.047	3.882	0.308
59.000	118.179	80.003	19.994	103.970	20.043	4.190	0.310
59.500	118.322	80.003	19.995	103.970	20.046	3.971	0.290
60.000	118.487	80.004	19.995	103.970	20.047	3.882	0.295
60.500	118.620	80.001	19.996	103.970	20.049	3.756	0.303
61.001	118.787	80.003	19.995	103.970	20.048	3.834	0.299
61.501	118.943	80.003	19.995	103.969	20.046	3.934	0.311
62.000	119.070	80.003	19.995	103.968	20.049	3.730	0.303
62.500	119.227	80.003	19.996	103.968	20.049	3.749	0.283
63.000	119.399	80.004	19.995	103.967	20.046	3.953	0.307
63.500	119.563	80.003	19.995	103.967	20.047	3.927	0.333
64.001	119.700	80.004	19.996	103.968	20.047	3.893	0.318
64.501	119.830	80.005	19.995	103.968	20.044	4.116	0.284
65.000	119.977	80.004	19.994	103.967	20.046	4.001	0.272
65.500	120.180	80.005	19.996	103.968	20.046	3.971	0.314
66.000	120.310	80.004	19.994	103.968	20.043	4.193	0.341
66.500	120.454	80.004	19.994	103.967	20.044	4.097	0.304
67.000	120.592	80.005	19.994	103.966	20.046	3.952	0.279
67.500	120.766	80.004	19.995	103.964	20.050	3.661	0.297
68.000	120.924	80.005	19.995	103.964	20.048	3.812	0.322
68.500	121.115	80.005	19.994	103.964	20.047	3.897	0.340
69.000	121.289	80.005	19.995	103.965	20.047	3.871	0.357
69.500	121.454	80.006	19.995	103.965	20.049	3.697	0.352
70.000	121.595	80.006	19.995	103.968	20.047	3.880	0.322
70.500	121.747	80.005	19.995	103.970	20.049	3.732	0.299
71.000	121.898	80.006	19.995	103.969	20.048	3.774	0.299
71.501	122.071	80.005	19.993	103.970	20.050	3.676	0.314
72.001	122.255	80.006	19.995	103.970	20.047	3.882	0.340
72.500	122.394	80.006	19.995	103.970	20.045	4.015	0.339
73.000	122.599	80.005	19.995	103.969	20.048	3.804	0.334
73.500	122.743	80.005	19.993	103.969	20.046	3.964	0.347
74.000	122.944	80.006	19.994	103.968	20.047	3.875	0.347
74.500	123.107	80.006	19.993	103.969	20.050	3.676	0.355
75.000	123.245	80.005	19.993	103.970	20.049	3.769	0.332
75.501	123.473	80.004	19.994	103.971	20.052	3.465	0.333
76.002	123.642	80.004	19.994	103.978	20.051	3.598	0.381
76.501	123.798	80.005	19.993	103.986	20.051	3.613	0.361
77.000	124.003	80.005	19.992	103.987	20.048	3.806	0.343
77.501	124.174	80.004	19.994	103.987	20.046	3.961	0.368
78.001	124.315	80.004	19.993	103.987	20.048	3.826	0.344
78.500	124.494	80.005	19.992	103.981	20.048	3.824	0.316
79.000	124.671	80.004	19.993	103.974	20.048	3.815	0.338
79.501	124.826	80.005	19.993	103.972	20.047	3.915	0.344
80.001	125.020	80.005	19.992	103.973	20.049	3.756	0.341
80.500	125.242	80.005	19.994	103.973	20.046	3.945	0.383
81.000	125.427	80.004	19.994	103.979	20.048	3.832	0.411
81.501	125.613	80.004	19.993	103.984	20.043	4.173	0.389
82.001	125.786	80.004	19.993	103.986	20.044	4.127	0.365
82.500	125.982	80.004	19.994	103.986	20.047	3.923	0.364
83.000	126.135	80.005	19.992	103.986	20.049	3.767	0.359
83.500	126.345	80.005	19.994	103.980	20.043	4.186	0.356
84.001	126.550	80.005	19.993	103.975	20.043	4.243	0.389
84.501	126.741	80.005	19.994	103.973	20.045	4.047	0.405
85.000	126.938	80.005	19.993	103.974	20.045	4.073	0.393
85.500	127.096	80.003	19.993	103.974	20.047	3.863	0.372
86.000	127.275	80.005	19.994	103.974	20.043	4.195	0.346
86.500	127.446	80.004	19.994	103.976	20.044	4.095	0.343
87.000	127.621	80.005	19.993	103.979	20.046	3.932	0.348
87.500	127.850	80.003	19.994	103.979	20.045	4.037	0.375
88.000	127.983	80.005	19.994	103.983	20.044	4.152	0.383
88.500	128.219	80.005	19.993	103.988	20.041	4.393	0.365
89.000	128.418	80.005	19.993	103.990	20.039	4.495	0.401
89.500	128.609	80.004	19.994	103.988	20.043	4.237	0.412
90.000	128.814	80.004	19.994	103.991	20.048	3.842	0.393
90.500	129.019	80.006	19.993	103.989	20.041	4.350	0.403
91.000	129.184	80.006	19.993	103.983	20.044	4.115	0.390
91.500	129.404	80.006	19.993	103.981	20.037	4.636	0.377
92.000	129.566	80.006	19.993	103.983	20.041	4.379	0.384
92.500	129.783	80.005	19.993	103.979	20.043	4.219	0.381
93.000	129.985	80.005	19.994	103.976	20.042	4.273	0.399
93.500	130.150	80.005	19.994	103.977	20.040	4.434	0.393
94.000	130.354	80.007	19.993	103.976	20.039	4.480	0.368
94.500	130.521	80.005	19.992	103.976	20.041	4.389	0.371
95.001	130.732	80.005	19.994	103.978	20.041	4.374	0.375
95.501	130.949	80.006	19.994	103.978	20.039	4.500	0.403
96.000	131.131	80.006	19.993	103.978	20.039	4.506	0.413
96.501	131.335	80.005	19.993	103.977	20.042	4.322	0.393
97.001	131.509	80.006	19.993	103.980	20.042	4.315	0.382
97.500	131.738	80.006	19.993	103.982	20.038	4.584	0.390
98.000	131.958	80.004	19.993	103.987	20.040	4.404	0.426
98.500	132.172	80.004	19.995	103.993	20.042	4.289	0.442
99.000	132.401	80.006	19.994	103.998	20.042	4.302	0.438
99.500	132.576	80.005	19.994	104.000	20.040	4.406	0.423
100.000	132.786	80.004	19.993	104.004	20.042	4.283	0.395
100.500	132.965	80.004	19.994	104.007	20.042	4.322	0.388
101.000	133.176	80.004	19.994	104.005	20.042	4.276	0.390
101.500	133.397	80.004	19.994	104.000	20.039	4.484	0.411
102.000	133.559	80.005	19.994	103.992	20.041	4.330	0.408
102.500	133.823	80.004	19.993	103.986	20.043	4.228	0.404
103.000	134.008	80.004	19.993	103.983	20.041	4.325	0.437
103.500	134.214	80.004	19.992	103.981	20.041	4.338	0.420
104.000	134.427	80.004	19.992	103.987	20.040	4.403	0.405
104.500	134.697	80.004	19.992	103.993	20.040	4.408	0.450
105.001	134.867	80.004	19.993	104.000	20.044	4.143	0.462
105.501	135.040	80.003	19.994	104.002	20.043	4.221	0.392
106.001	135.259	80.003	19.995	104.007	20.042	4.277	0.367
106.501	135.477	80.004	19.993	104.008	20.039	4.510	0.414
107.000	135.706	80.003	19.992	104.007	20.042	4.314	0.442
107.500	135.940	80.003	19.993	104.005	20.041	4.360	0.455
108.000	136.135	80.003	19.994	104.001	20.042	4.274	0.446
108.500	136.361	80.002	19.993	103.995	20.040	4.475	0.425
109.001	136.574	80.004	19.993	103.990	20.042	4.315	0.430
109.501	136.824	80.003	19.994	103.992	20.043	4.206	0.451
110.001	137.033	80.005	19.993	103.994	20.042	4.303	0.461
110.500	137.273	80.004	19.993	103.996	20.041	4.386	0.454
111.001	137.452	80.003	19.994	104.001	20.041	4.340	0.434
111.501	137.672	80.003	19.995	104.004	20.041	4.347	0.409
112.000	137.886	80.004	19.994	104.003	20.041	4.393	0.416
112.501	138.129	80.004	19.995	103.997	20.044	4.106	0.445
113.001	138.347	80.003	19.993	103.993	20.043	4.200	0.459
113.500	138.601	80.004	19.993	103.988	20.042	4.291	0.466
114.000	138.848	80.004	19.994	103.987	20.038	4.564	0.487
114.500	139.041	80.005	19.994	103.983	20.041	4.399	0.471
115.001	139.275	80.003	19.994	103.982	20.041	4.327	0.433
115.501	139.530	80.004	19.994	103.983	20.046	4.006	0.458
116.000	139.705	80.004	19.994	103.981	20.043	4.180	0.460
116.500	139.938	80.004	19.994	103.978	20.045	4.019	0.419
117.000	140.162	80.004	19.994	103.978	20.046	3.963	0.432
117.500	140.400	80.005	19.993	103.980	20.041	4.392	0.460
118.000	140.634	80.004	19.994	103.985	20.042	4.281	0.467
118.500	140.852	80.004	19.995	103.991	20.045	4.055	0.462
119.000	141.115	80.004	19.994	103.992	20.043	4.183	0.466
119.500	141.311	80.005	19.994	103.991	20.043	4.188	0.470
120.000	141.509	80.004	19.993	103.988	20.046	3.945	0.426
120.501	141.738	80.004	19.995	103.982	20.047	3.906	0.410
121.001	141.991	80.004	19.993	103.979	20.044	4.118	0.454
121.501	142.199	80.004	19.994	103.976	20.043	4.173	0.472
122.000	142.442	80.003	19.994	103.980	20.042	4.260	0.456
122.500	142.701	80.004	19.994	103.986	20.044	4.099	0.477
123.000	142.908	80.005	19.994	103.992	20.040	4.472	0.484
123.501	143.158	80.003	19.995	103.992	20.043	4.234	0.461
124.001	143.399	80.004	19.994	103.992	20.042	4.245	0.474
124.500	143.610	80.004	19.993	103.987	20.045	4.060	0.471
125.000	143.870	80.003	19.994	103.981	20.042	4.318	0.462
125.501	144.094	80.005	19.994	103.979	20.043	4.214	0.478
126.001	144.318	80.004	19.994	103.983	20.042	4.295	0.466
126.500	144.586	80.003	19.994	103.989	20.039	4.486	0.470
127.001	144.789	80.003	19.995	103.992	20.044	4.145	0.482
127.501	145.039	80.004	19.995	103.989	20.043	4.180	0.462
128.000	145.276	80.002	19.995	103.982	20.041	4.364	0.470
128.500	145.508	80.004	19.995	103.975	20.044	4.095	0.478
129.000	145.764	80.003	19.994	103.967	20.042	4.257	0.478
129.500	146.000	80.004	19.994	103.964	20.042	4.281	0.490
130.000	146.241	80.003	19.995	103.966	20.041	4.370	0.484
130.500	146.521	80.002	19.995	103.968	20.043	4.229	0.499
131.000	146.708	80.004	19.994	103.969	20.042	4.310	0.494
131.501	146.940	80.003	19.994	103.969	20.041	4.349	0.443
132.000	147.160	80.003	19.994	103.969	20.043	4.231	0.436
132.500	147.384	80.003	19.994	103.969	20.044	4.090	0.448
133.000	147.643	80.003	19.994	103.969	20.043	4.218	0.463
133.500	147.898	80.003	19.995	103.970	20.044	4.134	0.498
134.000	148.137	80.004	19.993	103.971	20.044	4.134	0.504
134.500	148.393	80.004	19.994	103.973	20.044	4.136	0.494
135.000	148.615	80.004	19.994	103.974	20.041	4.333	0.486
135.500	148.811	80.002	19.995	103.974	20.041	4.396	0.448
136.000	149.079	80.004	19.994	103.973	20.044	4.147	0.441
136.500	149.335	80.003	19.993	103.976	20.043	4.216	0.495
137.000	149.573	80.004	19.995	103.975	20.040	4.425	0.509
137.500	149.777	80.003	19.994	103.976	20.041	4.366	0.468
138.000	150.017	80.003	19.994	103.977	20.044	4.153	0.443
138.500	150.272	80.004	19.994	103.977	20.042	4.271	0.470
139.000	150.520	80.003	19.994	103.974	20.040	4.427	0.499
139.500	150.716	80.003	19.995	103.973	20.040	4.436	0.473
140.000	150.981	80.003	19.994	103.972	20.045	4.058	0.453
140.500	151.236	80.004	19.994	103.971	20.044	4.138	0.491
141.000	151.455	80.004	19.993	103.970	20.040	4.425	0.497
141.500	151.740	80.004	19.995	103.971	20.043	4.190	0.489
142.000	151.926	80.003	19.994	103.971	20.043	4.242	0.487
142.500	152.164	80.004	19.994	103.971	20.041	4.323	0.448
143.000	152.409	80.004	19.994	103.972	20.042	4.314	0.454
143.500	152.633	80.004	19.994	103.972	20.042	4.299	0.476
144.000	152.880	80.003	19.994	103.972	20.038	4.559	0.469
144.500	153.131	80.004	19.994	103.973	20.043	4.208	0.484
145.000	153.346	80.003	19.994	103.974	20.042	4.264	0.482
145.500	153.568	80.003	19.994	103.973	20.045	4.053	0.452
146.000	153.828	80.004	19.995	103.973	20.040	4.420	0.460
146.500	154.032	80.005	19.995	103.973	20.041	4.346	0.473
147.000	154.272	80.005	19.994	103.972	20.042	4.299	0.454
147.500	154.548	80.005	19.994	103.971	20.041	4.329	0.480
148.001	154.759	80.004	19.994	103.972	20.044	4.101	0.502
148.500	155.022	80.005	19.994	103.973	20.044	4.090	0.481
149.000	155.265	80.005	19.994	103.973	20.039	4.529	0.490
149.500	155.482	80.003	19.994	103.973	20.044	4.153	0.483
150.000	155.763	80.005	19.995	103.972	20.041	4.346	0.478
150.500	155.959	80.004	19.994	103.972	20.042	4.257	0.488
151.000	156.236	80.005	19.995	103.971	20.038	4.566	0.475
151.500	156.449	80.005	19.994	103.971	20.042	4.286	0.481
152.000	156.700	80.005	19.995	103.971	20.043	4.231	0.477
152.500	156.929	80.005	19.994	103.971	20.043	4.229	0.472
153.000	157.207	80.005	19.993	103.972	20.039	4.511	0.494
153.500	157.428	80.005	19.995	103.973	20.041	4.364	0.504
154.000	157.722	80.004	19.994	103.972	20.045	4.012	0.507
154.500	157.903	80.005	19.994	103.973	20.046	4.001	0.495
155.000	158.171	80.004	19.995	103.973	20.041	4.349	0.462
155.500	158.406	80.005	19.993	103.972	20.042	4.290	0.475
156.000	158.674	80.003	19.994	103.971	20.043	4.236	0.503
156.500	158.942	80.004	19.994	103.971	20.037	4.683	0.520
157.000	159.182	80.002	19.995	103.970	20.039	4.542	0.522
157.500	159.405	80.003	19.995	103.971	20.039	4.531	0.486
158.000	159.640	80.004	19.995	103.972	20.041	4.396	0.461
158.500	159.902	80.005	19.995	103.972	20.044	4.151	0.478
159.000	160.109	80.004	19.994	103.972	20.042	4.253	0.483
159.500	160.422	80.003	19.995	103.973	20.042	4.251	0.495
160.000	160.627	80.002	19.995	103.972	20.043	4.210	0.519
160.500	160.882	80.004	19.995	103.971	20.042	4.273	0.489
161.000	161.138	80.003	19.995	103.969	20.042	4.277	0.486
161.500	161.379	80.002	19.995	103.969	20.042	4.296	0.504
162.000	161.634	80.003	19.995	103.968	20.045	4.062	0.496
162.500	161.886	80.002	19.994	103.969	20.043	4.218	0.502
163.000	162.117	80.005	19.994	103.968	20.040	4.477	0.495
163.500	162.373	80.003	19.995	103.970	20.045	4.064	0.486
164.000	162.587	80.003	19.994	103.971	20.042	4.255	0.479
164.500	162.869	80.003	19.994	103.972	20.041	4.344	0.483
165.000	163.089	80.004	19.994	103.973	20.045	4.079	0.498
165.500	163.340	80.003	19.995	103.974	20.041	4.331	0.486
166.000	163.613	80.006	19.994	103.974	20.044	4.096	0.497
166.500	163.825	80.005	19.994	103.973	20.042	4.270	0.504
167.000	164.104	80.006	19.993	103.972	20.044	4.094	0.488
167.500	164.338	80.004	19.995	103.971	20.043	4.170	0.502
168.000	164.652	80.005	19.995	103.971	20.043	4.168	0.531
168.500	164.875	80.004	19.992	103.971	20.042	4.317	0.543
169.000	165.140	80.005	19.993	103.972	20.041	4.372	0.513
169.500	165.367	80.004	19.993	103.972	20.044	4.094	0.490
170.000	165.576	80.005	19.993	103.972	20.043	4.220	0.464
170.500	165.829	80.006	19.996	103.972	20.044	4.155	0.449
171.000	166.094	80.005	19.994	103.972	20.038	4.600	0.490
171.500	166.328	80.004	19.993	103.972	20.045	4.075	0.509
172.000	166.613	80.006	19.993	103.972	20.047	3.923	0.509
172.500	166.843	80.006	19.993	103.971	20.047	3.916	0.517
173.000	167.118	80.006	19.993	103.970	20.041	4.328	0.510
173.500	167.346	80.006	19.993	103.969	20.042	4.270	0.504
174.000	167.585	80.006	19.993	103.968	20.044	4.139	0.485
174.500	167.826	80.006	19.993	103.967	20.042	4.244	0.474
175.000	168.097	80.008	19.993	103.965	20.041	4.381	0.496
175.500	168.332	80.006	19.994	103.964	20.046	3.970	0.509
176.000	168.569	80.008	19.994	103.963	20.043	4.178	0.489
176.500	168.809	80.006	19.994	103.962	20.043	4.167	0.475
177.000	169.091	80.007	19.994	103.961	20.043	4.239	0.499
177.500	169.335	80.005	19.994	103.958	20.045	4.082	0.523
178.000	169.585	80.006	19.993	103.954	20.046	4.004	0.510
178.500	169.827	80.005	19.994	103.953	20.046	3.983	0.494
179.000	170.083	80.007	19.993	103.949	20.044	4.156	0.495
179.500	170.320	80.006	19.993	103.946	20.046	4.002	0.495
180.000	170.602	80.006	19.993	103.949	20.046	3.994	0.506
180.500	170.813	80.006	19.993	103.952	20.043	4.187	0.506
181.000	171.065	80.005	19.993	103.953	20.047	3.894	0.478
181.500	171.299	80.005	19.994	103.957	20.047	3.870	0.475
182.000	171.564	80.006	19.994	103.959	20.045	4.009	0.492
182.500	171.825	80.005	19.994	103.959	20.044	4.135	0.513
183.000	172.078	80.003	19.993	103.956	20.047	3.918	0.520
183.500	172.319	80.006	19.994	103.953	20.044	4.135	0.504
184.000	172.588	80.005	19.993	103.952	20.047	3.916	0.502
184.500	172.774	80.006	19.993	103.953	20.044	4.094	0.483
185.000	173.076	80.004	19.994	103.953	20.046	3.996	0.471
185.500	173.349	80.005	19.994	103.957	20.044	4.094	0.531
186.000	173.598	80.004	19.994	103.960	20.045	4.046	0.549
186.500	173.844	80.005	19.994	103.955	20.046	3.940	0.509
187.000	174.091	80.005	19.994	103.949	20.043	4.185	0.494
187.500	174.324	80.005	19.994	103.944	20.049	3.705	0.486
188.000	174.566	80.005	19.993	103.940	20.045	4.007	0.477
188.500	174.843	80.004	19.994	103.939	20.044	4.137	0.497
189.000	175.065	80.004	19.994	103.938	20.044	4.120	0.509
189.500	175.291	80.003	19.994	103.939	20.047	3.922	0.474
190.000	175.555	80.004	19.994	103.942	20.046	3.935	0.469
190.500	175.818	80.004	19.995	103.943	20.047	3.900	0.508
191.000	176.079	80.004	19.994	103.940	20.047	3.881	0.525
191.500	176.334	80.003	19.995	103.940	20.047	3.905	0.521
192.000	176.594	80.004	19.994	103.938	20.046	3.998	0.516
192.500	176.791	80.005	19.993	103.940	20.045	4.013	0.486
193.000	177.086	80.004	19.994	103.943	20.047	3.909	0.475
193.500	177.327	80.004	19.994	103.950	20.047	3.880	0.514
194.000	177.596	80.004	19.994	103.956	20.049	3.737	0.522
194.500	177.810	80.004	19.994	103.960	20.045	4.076	0.496
195.001	178.118	80.004	19.994	103.958	20.046	3.985	0.503
195.500	178.333	80.004	19.994	103.951	20.048	3.783	0.522
196.000	178.564	80.004	19.994	103.946	20.045	4.076	0.485
196.500	178.844	80.005	19.995	103.946	20.046	3.974	0.479
197.000	179.090	80.004	19.994	103.949	20.045	4.063	0.519
197.500	179.298	80.004	19.993	103.952	20.047	3.874	0.490
198.000	179.530	80.003	19.994	103.955	20.044	4.156	0.447
198.500	179.797	80.003	19.995	103.955	20.045	4.048	0.470
199.000	180.065	80.004	19.994	103.950	20.047	3.907	0.517
199.500	180.312	80.004	19.994	103.946	20.042	4.267	0.525
200.000	180.521	80.005	19.994	103.942	20.045	4.024	0.485
200.500	180.820	80.004	19.993	103.939	20.047	3.887	0.482
201.000	181.053	80.007	19.995	103.938	20.047	3.850	0.520
201.500	181.306	80.003	19.996	103.938	20.046	3.972	0.510
202.000	181.546	80.006	19.995	103.939	20.044	4.108	0.489
202.500	181.846	80.006	19.995	103.939	20.048	3.841	0.516
203.000	182.092	80.005	19.994	103.939	20.048	3.846	0.543
203.500	182.360	80.004	19.993	103.939	20.048	3.824	0.530
204.000	182.604	80.005	19.993	103.938	20.047	3.924	0.513
204.500	182.811	80.003	19.994	103.934	20.048	3.833	0.482
205.000	183.087	80.004	19.993	103.931	20.047	3.857	0.467
205.500	183.322	80.005	19.993	103.932	20.048	3.798	0.497
206.000	183.582	80.004	19.994	103.935	20.049	3.716	0.502
206.500	183.820	80.006	19.993	103.937	20.050	3.638	0.496
207.000	184.118	80.005	19.992	103.941	20.048	3.809	0.517
207.500	184.356	80.004	19.993	103.946	20.046	3.965	0.536
208.000	184.576	80.004	19.993	103.947	20.047	3.889	0.497
208.500	184.824	80.005	19.993	103.944	20.046	3.943	0.463
209.000	185.071	80.004	19.993	103.943	20.048	3.846	0.481
209.500	185.344	80.004	19.994	103.940	20.047	3.885	0.508
210.000	185.593	80.005	19.993	103.936	20.049	3.709	0.521
210.500	185.823	80.004	19.993	103.934	20.049	3.750	0.501
211.000	186.077	80.003	19.994	103.935	20.047	3.874	0.482
211.500	186.325	80.003	19.994	103.934	20.047	3.861	0.493
212.000	186.584	80.003	19.994	103.934	20.047	3.907	0.504
212.500	186.819	80.004	19.993	103.935	20.045	4.059	0.501
213.000	187.095	80.004	19.993	103.936	20.048	3.802	0.503
213.500	187.385	80.004	19.993	103.936	20.046	3.969	0.539
214.000	187.574	80.004	19.993	103.936	20.047	3.915	0.522
214.500	187.849	80.005	19.993	103.936	20.047	3.924	0.472
215.000	188.090	80.003	19.993	103.938	20.047	3.850	0.490
215.500	188.317	80.003	19.995	103.939	20.046	3.965	0.492
216.000	188.603	80.003	19.993	103.939	20.046	3.959	0.490
216.500	188.860	80.003	19.994	103.939	20.045	4.028	0.528
217.000	189.103	80.004	19.994	103.939	20.045	4.026	0.521
217.500	189.329	80.003	19.994	103.938	20.043	4.186	0.485
218.000	189.639	80.003	19.994	103.936	20.043	4.189	0.503
218.500	189.879	80.003	19.994	103.936	20.046	3.995	0.543
219.000	190.135	80.004	19.994	103.936	20.046	4.004	0.523
219.500	190.395	80.003	19.994	103.936	20.046	4.000	0.506
220.000	190.631	80.004	19.994	103.933	20.047	3.909	0.506
220.500	190.889	80.003	19.995	103.933	20.042	4.282	0.495
221.000	191.113	80.004	19.995	103.933	20.048	3.833	0.488
221.500	191.338	80.003	19.995	103.933	20.046	3.989	0.465
222.000	191.615	80.003	19.994	103.934	20.044	4.137	0.475
222.500	191.866	80.003	19.994	103.936	20.044	4.160	0.515
223.000	192.092	80.003	19.995	103.937	20.045	4.082	0.503
223.500	192.349	80.003	19.995	103.937	20.042	4.299	0.480
224.000	192.596	80.002	19.995	103.936	20.048	3.779	0.494
224.500	192.876	80.003	19.996	103.935	20.049	3.763	0.515
225.000	193.099	80.003	19.994	103.934	20.046	3.928	0.515
225.500	193.362	80.002	19.994	103.932	20.045	4.067	0.494
226.000	193.592	80.003	19.995	103.932	20.044	4.152	0.490
226.500	193.827	80.004	19.994	103.932	20.048	3.807	0.479
227.000	194.085	80.004	19.994	103.933	20.046	4.000	0.479
227.500	194.336	80.004	19.994	103.932	20.049	3.724	0.501
228.000	194.580	80.005	19.993	103.932	20.047	3.867	0.503
228.500	194.821	80.003	19.993	103.932	20.048	3.826	0.490
229.000	195.071	80.003	19.994	103.932	20.048	3.819	0.487
229.500	195.308	80.004	19.994	103.932	20.047	3.919	0.489
230.000	195.551	80.005	19.994	103.933	20.045	4.010	0.484
230.500	195.794	80.003	19.994	103.933	20.047	3.908	0.483
231.000	196.026	80.005	19.995	103.933	20.048	3.839	0.481
231.500	196.291	80.004	19.994	103.932	20.049	3.700	0.486
232.000	196.533	80.005	19.995	103.932	20.053	3.433	0.502
232.500	196.765	80.004	19.994	103.931	20.051	3.570	0.490
233.000	197.041	80.006	19.994	103.934	20.051	3.548	0.491
233.500	197.302	80.005	19.994	103.936	20.050	3.648	0.522
234.000	197.523	80.006	19.994	103.937	20.047	3.891	0.509
234.500	197.774	80.004	19.993	103.937	20.047	3.863	0.478
235.000	198.032	80.006	19.995	103.936	20.050	3.670	0.491
235.500	198.261	80.005	19.994	103.935	20.047	3.856	0.497
236.000	198.517	80.006	19.994	103.936	20.050	3.678	0.485
236.500	198.730	80.004	19.994	103.938	20.048	3.770	0.477
237.000	199.011	80.005	19.993	103.939	20.050	3.644	0.482
237.500	199.267	80.005	19.994	103.938	20.052	3.498	0.516
238.000	199.522	80.005	19.993	103.936	20.052	3.529	0.524
238.500	199.754	80.005	19.994	103.932	20.052	3.459	0.499
239.000	200.054	80.005	19.994	103.929	20.052	3.474	0.510
239.500	200.260	80.006	19.996	103.927	20.052	3.522	0.520
240.000	200.496	80.004	19.995	103.928	20.051	3.602	0.474
240.500	200.770	80.005	19.993	103.928	20.050	3.619	0.476
241.000	201.015	80.005	19.995	103.928	20.050	3.665	0.514
241.500	201.239	80.004	19.994	103.929	20.051	3.561	0.494
242.000	201.530	80.004	19.995	103.929	20.052	3.485	0.492
242.500	201.761	80.005	19.994	103.926	20.052	3.520	0.519
243.000	201.986	80.004	19.994	103.923	20.050	3.676	0.489
243.500	202.277	80.005	19.995	103.922	20.050	3.652	0.486
244.000	202.494	80.004	19.994	103.922	20.048	3.832	0.512
244.500	202.752	80.004	19.994	103.922	20.052	3.509	0.492
245.000	203.013	80.003	19.994	103.924	20.052	3.520	0.497
245.500	203.263	80.003	19.994	103.928	20.052	3.498	0.515
246.000	203.533	80.004	19.994	103.928	20.055	3.223	0.516
246.500	203.790	80.003	19.994	103.928	20.052	3.500	0.523
247.000	204.031	80.004	19.995	103.928	20.051	3.563	0.512
247.500	204.232	80.005	19.995	103.928	20.051	3.559	0.470
248.000	204.486	80.005	19.994	103.928	20.049	3.694	0.449
248.500	204.751	80.004	19.995	103.927	20.052	3.492	0.487
249.000	205.018	80.004	19.994	103.926	20.054	3.370	0.526
249.500	205.284	80.004	19.995	103.926	20.055	3.279	0.532
250.000	205.542	80.006	19.994	103.924	20.054	3.314	0.528
250.500	205.744	80.004	19.994	103.920	20.052	3.516	0.492
251.000	206.018	80.005	19.995	103.918	20.050	3.657	0.468
251.501	206.251	80.005	19.995	103.917	20.049	3.754	0.491
252.001	206.489	80.004	19.995	103.917	20.051	3.555	0.489
252.501	206.752	80.006	19.995	103.918	20.051	3.609	0.487
253.000	207.024	80.005	19.995	103.920	20.049	3.720	0.518
253.500	207.234	80.005	19.994	103.923	20.051	3.559	0.508
254.000	207.495	80.005	19.995	103.924	20.049	3.704	0.477
254.501	207.761	80.005	19.996	103.923	20.049	3.767	0.499
255.000	208.010	80.005	19.995	103.925	20.053	3.452	0.521
255.500	208.237	80.005	19.995	103.926	20.052	3.494	0.495
256.001	208.502	80.006	19.994	103.926	20.053	3.424	0.484
256.500	208.755	80.007	19.994	103.924	20.047	3.899	0.505
257.000	208.984	80.005	19.995	103.924	20.048	3.782	0.501
257.500	209.200	80.005	19.996	103.924	20.052	3.530	0.464
258.000	209.477	80.005	19.995	103.924	20.049	3.743	0.469
258.500	209.725	80.006	19.994	103.923	20.048	3.808	0.509
259.000	209.983	80.007	19.994	103.926	20.051	3.589	0.515
259.500	210.211	80.006	19.995	103.926	20.051	3.604	0.496
260.000	210.451	80.005	19.995	103.926	20.053	3.448	0.477
260.500	210.718	80.006	19.994	103.926	20.051	3.548	0.488
261.000	210.951	80.005	19.994	103.926	20.052	3.511	0.504
261.500	211.240	80.006	19.995	103.926	20.053	3.448	0.511
262.000	211.475	80.005	19.994	103.924	20.050	3.646	0.523
262.500	211.689	80.006	19.993	103.924	20.050	3.639	0.487
263.000	211.955	80.006	19.994	103.924	20.051	3.555	0.465
263.500	212.193	80.006	19.994	103.924	20.048	3.785	0.492
264.000	212.481	80.006	19.994	103.924	20.050	3.635	0.515
264.500	212.719	80.005	19.995	103.925	20.050	3.615	0.526
265.000	212.918	80.005	19.994	103.924	20.051	3.539	0.481
265.500	213.169	80.004	19.994	103.918	20.053	3.387	0.443
266.000	213.410	80.005	19.994	103.917	20.053	3.383	0.471
266.500	213.635	80.004	19.993	103.917	20.051	3.550	0.479
267.000	213.901	80.004	19.994	103.912	20.050	3.685	0.479
267.500	214.119	80.004	19.994	103.911	20.052	3.474	0.487
268.001	214.389	80.005	19.993	103.918	20.050	3.624	0.486
268.500	214.651	80.004	19.994	103.916	20.050	3.667	0.510
269.000	214.900	80.004	19.994	103.916	20.050	3.613	0.521
269.500	215.129	80.003	19.994	103.920	20.052	3.522	0.495
270.000	215.352	80.004	19.994	103.922	20.053	3.381	0.465
270.500	215.621	80.004	19.992	103.920	20.050	3.637	0.472
271.000	215.800	80.003	19.993	103.922	20.049	3.726	0.470
271.500	216.105	80.003	19.993	103.920	20.052	3.529	0.466
272.000	216.337	80.003	19.992	103.922	20.052	3.494	0.510
272.500	216.545	80.004	19.994	103.923	20.049	3.704	0.488
273.000	216.824	80.003	19.995	103.925	20.051	3.595	0.464
273.500	217.061	80.004	19.993	103.927	20.054	3.298	0.502
274.000	217.298	80.004	19.993	103.931	20.051	3.565	0.495
274.500	217.578	80.005	19.993	103.929	20.051	3.548	0.495
275.000	217.805	80.003	19.993	103.927	20.053	3.420	0.512
275.500	218.059	80.005	19.993	103.926	20.053	3.448	0.495
276.000	218.285	80.004	19.994	103.924	20.049	3.735	0.480
276.500	218.525	80.004	19.993	103.923	20.053	3.411	0.473
277.000	218.790	80.004	19.993	103.922	20.049	3.700	0.486
277.500	219.048	80.005	19.993	103.922	20.053	3.394	0.514
278.000	219.258	80.005	19.994	103.922	20.052	3.507	0.495
278.500	219.537	80.003	19.994	103.920	20.049	3.728	0.478
279.001	219.758	80.005	19.994	103.915	20.050	3.661	0.495
279.500	220.039	80.004	19.994	103.911	20.048	3.820	0.501
280.000	220.242	80.004	19.994	103.911	20.054	3.370	0.493
280.500	220.462	80.004	19.994	103.912	20.053	3.422	0.453
281.000	220.729	80.004	19.993	103.916	20.050	3.663	0.455
281.500	220.973	80.003	19.994	103.922	20.052	3.492	0.499
282.000	221.223	80.004	19.993	103.929	20.051	3.578	0.502
282.500	221.442	80.004	19.994	103.928	20.051	3.563	0.482
283.000	221.715	80.004	19.994	103.923	20.050	3.683	0.480
283.500	221.975	80.003	19.994	103.917	20.047	3.882	0.512
284.000	222.185	80.004	19.993	103.913	20.053	3.390	0.502
284.500	222.427	80.005	19.993	103.912	20.049	3.761	0.461
285.000	222.686	80.003	19.994	103.913	20.049	3.741	0.476
285.500	222.931	80.003	19.993	103.913	20.046	3.954	0.502
286.000	223.141	80.004	19.994	103.918	20.047	3.878	0.480
286.500	223.447	80.003	19.994	103.922	20.048	3.815	0.486
287.000	223.657	80.003	19.994	103.922	20.050	3.681	0.516
287.500	223.913	80.004	19.993	103.926	20.050	3.683	0.491
288.000	224.155	80.003	19.993	103.930	20.048	3.802	0.482
288.500	224.405	80.003	19.992	103.931	20.048	3.841	0.495
289.000	224.656	80.003	19.994	103.932	20.048	3.837	0.497
289.500	224.898	80.004	19.995	103.932	20.047	3.876	0.497
290.000	225.156	80.003	19.994	103.932	20.046	3.954	0.496
290.500	225.379	80.004	19.994	103.932	20.045	4.060	0.490
291.000	225.644	80.004	19.995	103.930	20.046	4.002	0.484
291.500	225.879	80.004	19.995	103.928	20.045	4.052	0.494
292.000	226.138	80.003	19.994	103.926	20.046	3.976	0.498
292.500	226.368	80.004	19.994	103.922	20.047	3.889	0.492
293.000	226.594	80.003	19.994	103.921	20.047	3.867	0.472
293.500	226.839	80.004	19.994	103.922	20.045	4.073	0.463
294.000	227.097	80.003	19.994	103.924	20.044	4.136	0.487
294.500	227.387	80.004	19.993	103.927	20.047	3.874	0.525
295.000	227.581	80.004	19.993	103.930	20.048	3.793	0.516
295.500	227.838	80.002	19.994	103.932	20.046	3.941	0.468
296.000	228.103	80.003	19.993	103.932	20.048	3.832	0.486
296.500	228.357	80.002	19.993	103.931	20.044	4.084	0.521
297.000	228.611	80.003	19.994	103.930	20.047	3.913	0.514
297.500	228.883	80.004	19.992	103.931	20.048	3.793	0.517
298.000	229.128	80.004	19.993	103.931	20.047	3.900	0.521
298.500	229.384	80.004	19.993	103.932	20.048	3.826	0.509
299.000	229.596	80.003	19.992	103.933	20.045	4.062	0.484
299.500	229.841	80.002	19.993	103.935	20.049	3.713	0.463
300.000	230.088	80.004	19.993	103.934	20.046	3.939	0.475
300.500	230.362	80.004	19.994	103.933	20.046	3.945	0.507
301.000	230.587	80.004	19.993	103.933	20.047	3.869	0.510
301.500	230.853	80.004	19.994	103.929	20.049	3.739	0.495
302.000	231.104	80.004	19.994	103.926	20.049	3.751	0.504
302.500	231.336	80.003	19.994	103.925	20.049	3.745	0.500
303.000	231.578	80.004	19.993	103.925	20.044	4.155	0.479
303.500	231.848	80.003	19.994	103.925	20.049	3.700	0.493
304.000	232.083	80.004	19.994	103.928	20.049	3.763	0.508
304.500	232.273	80.005	19.993	103.929	20.046	3.928	0.465
305.000	232.552	80.004	19.995	103.928	20.047	3.873	0.447
305.500	232.778	80.003	19.994	103.923	20.050	3.654	0.487
306.000	233.073	80.004	19.994	103.923	20.048	3.769	0.512
306.500	233.246	80.003	19.994	103.920	20.047	3.864	0.495
307.000	233.512	80.003	19.995	103.917	20.050	3.680	0.454
307.500	233.780	80.004	19.993	103.918	20.044	4.114	0.487
308.000	234.031	80.004	19.994	103.922	20.048	3.771	0.526
308.500	234.280	80.004	19.994	103.921	20.045	4.041	0.509
309.000	234.566	80.004	19.993	103.923	20.049	3.732	0.517
309.500	234.794	80.004	19.993	103.926	20.047	3.869	0.524
310.001	235.041	80.004	19.994	103.928	20.048	3.771	0.495
310.501	235.271	80.004	19.994	103.929	20.048	3.769	0.477
311.000	235.513	80.004	19.993	103.928	20.043	4.207	0.475
311.500	235.784	80.005	19.993	103.924	20.044	4.124	0.492
312.000	236.024	80.005	19.994	103.917	20.045	4.042	0.511
312.500	236.249	80.004	19.994	103.915	20.045	4.042	0.488
313.000	236.522	80.005	19.993	103.909	20.044	4.145	0.482
313.500	236.756	80.005	19.993	103.910	20.046	4.004	0.503
314.000	237.024	80.006	19.993	103.914	20.044	4.112	0.504
314.500	237.263	80.005	19.993	103.920	20.042	4.288	0.505
315.000	237.483	80.005	19.994	103.920	20.042	4.308	0.483
315.500	237.759	80.005	19.993	103.924	20.043	4.197	0.477
316.000	238.021	80.005	19.993	103.919	20.044	4.086	0.517
316.501	238.261	80.005	19.993	103.916	20.044	4.125	0.520
317.000	238.488	80.005	19.994	103.915	20.044	4.121	0.485
317.500	238.744	80.005	19.993	103.913	20.046	3.973	0.474
318.000	238.980	80.005	19.995	103.914	20.043	4.164	0.487
318.500	239.250	80.005	19.994	103.918	20.044	4.103	0.499
319.000	239.470	80.005	19.995	103.922	20.042	4.248	0.498
319.500	239.700	80.005	19.994	103.922	20.044	4.088	0.470
320.000	239.978	80.005	19.995	103.919	20.046	3.992	0.479
320.500	240.217	80.004	19.994	103.914	20.045	4.035	0.512
321.000	240.470	80.004	19.995	103.909	20.043	4.166	0.505
321.500	240.715	80.005	19.994	103.902	20.042	4.255	0.495
322.000	240.982	80.006	19.994	103.899	20.041	4.329	0.505
322.500	241.216	80.005	19.994	103.904	20.040	4.418	0.507
323.000	241.486	80.005	19.994	103.910	20.042	4.297	0.503
323.500	241.674	80.005	19.994	103.913	20.043	4.188	0.481
324.000	241.946	80.005	19.995	103.919	20.042	4.249	0.459
324.500	242.192	80.004	19.995	103.923	20.042	4.255	0.489
325.000	242.432	80.005	19.994	103.924	20.045	4.073	0.502
325.500	242.743	80.004	19.995	103.924	20.041	4.327	0.518
326.000	242.928	80.006	19.994	103.925	20.040	4.435	0.523
326.500	243.229	80.004	19.994	103.924	20.041	4.392	0.491
327.000	243.430	80.005	19.994	103.920	20.041	4.357	0.494
327.500	243.690	80.005	19.994	103.921	20.042	4.266	0.481
328.000	243.943	80.004	19.994	103.922	20.042	4.272	0.486
328.500	244.185	80.005	19.995	103.921	20.039	4.522	0.504
329.000	244.467	80.004	19.994	103.919	20.044	4.099	0.510
329.500	244.661	80.005	19.994	103.916	20.040	4.398	0.500
330.000	244.900	80.005	19.994	103.908	20.043	4.220	0.454
330.500	245.183	80.004	19.995	103.901	20.040	4.439	0.478
331.000	245.439	80.005	19.994	103.900	20.039	4.502	0.531
331.500	245.658	80.004	19.994	103.903	20.039	4.528	0.507
332.000	245.905	80.004	19.994	103.907	20.043	4.173	0.470
332.500	246.170	80.005	19.993	103.911	20.037	4.674	0.489
333.000	246.395	80.005	19.994	103.917	20.039	4.507	0.501
333.500	246.686	80.005	19.994	103.919	20.035	4.830	0.503
334.000	246.922	80.004	19.993	103.919	20.041	4.368	0.521
334.500	247.158	80.005	19.994	103.917	20.040	4.444	0.500
335.000	247.444	80.006	19.994	103.918	20.041	4.396	0.498
335.500	247.637	80.006	19.995	103.918	20.043	4.223	0.500
336.000	247.880	80.005	19.994	103.916	20.043	4.240	0.457
336.500	248.144	80.007	19.993	103.915	20.037	4.644	0.472
337.000	248.406	80.005	19.994	103.916	20.040	4.457	0.517
337.500	248.655	80.005	19.994	103.912	20.042	4.298	0.518
338.000	248.903	80.005	19.994	103.909	20.039	4.489	0.504
338.500	249.166	80.005	19.992	103.908	20.039	4.506	0.504
339.000	249.435	80.007	19.993	103.909	20.038	4.595	0.521
339.500	249.658	80.007	19.993	103.912	20.041	4.329	0.512
340.000	249.917	80.005	19.993	103.915	20.038	4.631	0.487
340.500	250.172	80.006	19.994	103.917	20.039	4.531	0.498
341.000	250.430	80.006	19.992	103.915	20.037	4.643	0.513
341.500	250.682	80.005	19.994	103.909	20.038	4.630	0.511
342.000	250.951	80.006	19.993	103.906	20.039	4.530	0.515
342.500	251.165	80.006	19.995	103.910	20.038	4.595	0.502
343.000	251.450	80.006	19.994	103.911	20.037	4.658	0.492
343.500	251.681	80.005	19.994	103.913	20.037	4.689	0.508
344.000	251.971	80.006	19.994	103.913	20.037	4.704	0.518
344.500	252.171	80.005	19.995	103.915	20.036	4.749	0.506
345.000	252.431	80.004	19.994	103.916	20.038	4.600	0.475
345.500	252.672	80.003	19.994	103.917	20.037	4.643	0.480
346.000	252.902	80.005	19.994	103.919	20.034	4.900	0.486
346.500	253.201	80.004	19.994	103.924	20.035	4.865	0.500
347.000	253.424	80.004	19.994	103.924	20.036	4.756	0.526
347.500	253.664	80.003	19.993	103.918	20.036	4.748	0.493
348.000	253.948	80.003	19.995	103.912	20.036	4.767	0.494
348.500	254.163	80.001	19.994	103.907	20.033	5.019	0.511
349.000	254.421	80.003	19.997	103.906	20.033	4.971	0.485
349.500	254.666	80.004	19.996	103.905	20.036	4.743	0.488
350.000	254.901	80.003	19.996	103.906	20.033	5.004	0.492
350.500	255.138	80.002	19.996	103.910	20.035	4.832	0.476
351.000	255.390	80.002	19.995	103.915	20.033	4.977	0.480
351.500	255.675	80.003	19.995	103.912	20.034	4.892	0.513
352.000	255.890	80.002	19.997	103.908	20.034	4.886	0.519
352.500	256.139	80.003	19.994	103.906	20.034	4.873	0.482
353.000	256.404	80.001	19.995	103.908	20.031	5.179	0.489
353.500	256.644	80.002	19.994	103.905	20.033	4.970	0.510
354.000	256.882	80.002	19.995	103.905	20.032	5.053	0.491
354.500	257.115	80.002	19.995	103.906	20.036	4.786	0.475
355.000	257.363	80.002	19.994	103.906	20.031	5.157	0.476
355.500	257.609	80.002	19.994	103.906	20.035	4.864	0.487
356.000	257.878	80.002	19.994	103.907	20.033	4.999	0.505
356.500	258.111	80.003	19.995	103.913	20.032	5.066	0.509
357.000	258.332	80.003	19.995	103.917	20.031	5.149	0.478
357.500	258.562	80.003	19.995	103.920	20.034	4.891	0.452
358.000	258.836	80.003	19.994	103.916	20.035	4.858	0.477
358.500	259.096	80.002	19.995	103.915	20.037	4.665	0.519
359.000	259.303	80.003	19.994	103.914	20.032	5.055	0.501
359.500	259.565	80.004	19.994	103.914	20.032	5.042	0.468
360.000	259.807	80.003	19.994	103.914	20.036	4.721	0.486
360.500	260.067	80.002	19.993	103.913	20.036	4.789	0.503
361.000	260.269	80.003	19.993	103.911	20.035	4.811	0.482
361.501	260.545	80.002	19.994	103.908	20.034	4.876	0.470
362.000	260.764	80.003	19.994	103.902	20.037	4.679	0.487
362.500	260.992	80.002	19.993	103.900	20.036	4.720	0.471
363.000	261.264	80.003	19.994	103.901	20.031	5.119	0.473
363.500	261.499	80.003	19.993	103.899	20.033	4.993	0.503
364.000	261.754	80.004	19.994	103.898	20.032	5.050	0.498
364.500	261.979	80.002	19.994	103.897	20.032	5.034	0.486
365.000	262.226	80.003	19.994	103.897	20.031	5.130	0.476
365.500	262.462	80.004	19.993	103.896	20.031	5.167	0.477
366.000	262.742	80.004	19.994	103.895	20.031	5.160	0.499
366.500	262.962	80.004	19.994	103.897	20.031	5.125	0.508
367.000	263.205	80.004	19.994	103.898	20.031	5.108	0.482
367.500	263.446	80.005	19.993	103.901	20.034	4.926	0.474
368.000	263.697	80.003	19.993	103.906	20.030	5.186	0.488
368.500	263.983	80.005	19.994	103.907	20.034	4.945	0.514
369.000	264.183	80.003	19.995	103.910	20.030	5.255	0.511
369.500	264.463	80.004	19.994	103.909	20.030	5.192	0.483
370.000	264.699	80.005	19.995	103.905	20.030	5.212	0.498
370.500	264.929	80.004	19.994	103.902	20.033	4.971	0.491
371.000	265.201	80.003	19.993	103.907	20.026	5.511	0.484
371.500	265.412	80.003	19.994	103.908	20.028	5.396	0.492
372.000	265.704	80.005	19.994	103.915	20.026	5.511	0.493
372.500	265.964	80.003	19.995	103.922	20.023	5.754	0.528
373.000	266.172	80.004	19.994	103.926	20.027	5.489	0.510
373.500	266.424	80.005	19.994	103.927	20.025	5.606	0.464
374.000	266.688	80.003	19.995	103.927	20.025	5.645	0.488
374.500	266.934	80.003	19.994	103.927	20.029	5.298	0.513
375.000	267.220	80.003	19.994	103.925	20.027	5.442	0.521
375.500	267.437	80.004	19.993	103.923	20.026	5.574	0.517
376.000	267.666	80.003	19.993	103.919	20.026	5.559	0.475
376.500	267.930	80.003	19.994	103.916	20.026	5.516	0.469
377.000	268.168	80.004	19.994	103.912	20.024	5.659	0.498
377.500	268.405	80.003	19.994	103.914	20.025	5.602	0.489
378.000	268.663	80.003	19.994	103.916	20.024	5.704	0.485
378.500	268.897	80.004	19.994	103.917	20.023	5.752	0.493
379.000	269.158	80.004	19.993	103.914	20.023	5.806	0.493
379.500	269.403	80.003	19.995	103.913	20.025	5.650	0.501
380.000	269.664	80.004	19.994	103.911	20.021	5.960	0.506
380.500	269.899	80.004	19.994	103.906	20.025	5.624	0.501
381.000	270.141	80.004	19.994	103.909	20.025	5.585	0.486
381.500	270.388	80.005	19.993	103.913	20.024	5.678	0.483
382.001	270.673	80.003	19.993	103.913	20.022	5.855	0.511
382.500	270.913	80.003	19.994	103.911	20.022	5.848	0.529
383.000	271.179	80.003	19.993	103.911	20.022	5.868	0.515
383.500	271.413	80.003	19.994	103.909	20.023	5.766	0.503
384.000	271.665	80.004	19.994	103.906	20.023	5.736	0.493
384.500	271.926	80.004	19.994	103.906	20.024	5.710	0.500
385.000	272.181	80.003	19.994	103.904	20.022	5.825	0.515
385.500	272.400	80.005	19.994	103.905	20.021	5.926	0.494
386.000	272.637	80.004	19.994	103.907	20.023	5.798	0.465
386.500	272.914	80.004	19.994	103.909	20.020	5.971	0.485
387.000	273.130	80.005	19.995	103.907	20.020	6.045	0.504
387.500	273.364	80.004	19.995	103.909	20.021	5.936	0.471
388.000	273.615	80.004	19.994	103.911	20.021	5.947	0.467
388.500	273.852	80.005	19.995	103.912	20.018	6.154	0.487
389.000	274.121	80.005	19.994	103.912	20.019	6.084	0.497
389.500	274.348	80.004	19.994	103.914	20.015	6.404	0.501
390.000	274.600	80.005	19.995	103.912	20.017	6.247	0.488
390.500	274.851	80.005	19.995	103.909	20.021	5.941	0.491
391.000	275.118	80.005	19.993	103.904	20.017	6.243	0.511
391.500	275.337	80.004	19.994	103.903	20.015	6.387	0.502
392.000	275.589	80.006	19.994	103.907	20.013	6.562	0.478
392.500	275.877	80.006	19.994	103.913	20.014	6.486	0.505
393.000	276.124	80.006	19.995	103.920	20.017	6.230	0.538
393.500	276.354	80.005	19.994	103.925	20.012	6.637	0.506
394.000	276.619	80.006	19.994	103.926	20.018	6.168	0.486
394.500	276.852	80.005	19.994	103.926	20.015	6.433	0.496
395.000	277.079	80.005	19.994	103.926	20.016	6.332	0.479
395.500	277.364	80.006	19.994	103.925	20.016	6.345	0.487
396.000	277.602	80.006	19.993	103.925	20.014	6.462	0.518
396.501	277.858	80.006	19.994	103.923	20.012	6.608	0.508
397.000	278.097	80.006	19.994	103.918	20.016	6.291	0.494
397.500	278.307	80.007	19.993	103.915	20.017	6.204	0.472
398.000	278.626	80.006	19.993	103.908	20.015	6.417	0.489
398.500	278.874	80.008	19.994	103.907	20.017	6.235	0.548
399.000	279.105	80.007	19.995	103.911	20.015	6.428	0.523
399.500	279.358	80.006	19.993	103.917	20.016	6.291	0.481
400.000	279.579	80.007	19.996	103.916	20.017	6.271	0.479
400.500	279.848	80.006	19.994	103.919	20.014	6.494	0.483
401.000	280.088	80.007	19.994	103.921	20.014	6.461	0.500
401.500	280.318	80.007	19.993	103.920	20.011	6.726	0.489
402.000	280.577	80.006	19.995	103.920	20.008	6.954	0.479
402.500	280.816	80.007	19.993	103.925	20.010	6.815	0.493
403.000	281.079	80.007	19.993	103.927	20.010	6.796	0.500
403.500	281.327	80.006	19.993	103.921	20.012	6.608	0.507
404.000	281.559	80.006	19.993	103.916	20.012	6.651	0.495
404.500	281.785	80.006	19.994	103.910	20.009	6.905	0.469
405.000	282.073	80.005	19.994	103.904	20.008	6.970	0.486
405.500	282.286	80.005	19.993	103.906	20.008	6.953	0.508
406.000	282.523	80.005	19.994	103.912	20.006	7.080	0.476
406.500	282.769	80.005	19.995	103.917	20.008	6.943	0.467
407.000	283.032	80.005	19.995	103.924	20.008	6.910	0.495
407.500	283.261	80.005	19.994	103.930	20.007	7.060	0.500
408.000	283.553	80.006	19.994	103.926	20.007	7.035	0.507
408.500	283.786	80.003	19.994	103.923	20.007	7.046	0.523
409.000	284.047	80.005	19.996	103.924	20.004	7.233	0.510
409.500	284.289	80.005	19.996	103.923	20.004	7.235	0.499
410.000	284.525	80.004	19.996	103.920	20.000	7.570	0.491
410.500	284.774	80.004	19.995	103.918	20.003	7.326	0.481
411.000	285.017	80.007	19.994	103.913	20.003	7.322	0.488
411.500	285.263	80.004	19.994	103.905	20.001	7.480	0.490
412.000	285.494	80.005	19.994	103.899	19.999	7.671	0.484
412.500	285.767	80.004	19.995	103.900	20.000	7.550	0.491
413.000	286.016	80.005	19.994	103.906	20.000	7.598	0.513
413.500	286.249	80.005	19.994	103.912	19.997	7.791	0.502
414.000	286.507	80.003	19.994	103.917	19.997	7.839	0.486
414.500	286.704	80.004	19.994	103.923	19.996	7.913	0.473
415.000	286.983	80.004	19.995	103.923	19.997	7.852	0.466
415.500	287.193	80.007	19.994	103.923	20.000	7.596	0.483
416.000	287.423	80.006	19.995	103.923	19.996	7.902	0.464
416.500	287.664	80.006	19.994	103.919	19.995	7.980	0.455
417.000	287.944	80.005	19.995	103.912	19.994	8.051	0.496
417.500	288.187	80.005	19.994	103.907	19.994	8.014	0.522
418.000	288.397	80.005	19.994	103.904	19.993	8.101	0.488
418.500	288.659	80.006	19.995	103.904	19.994	8.071	0.463
419.000	288.921	80.006	19.994	103.912	19.993	8.162	0.498
419.500	289.145	80.006	19.994	103.919	19.993	8.138	0.505
420.000	289.376	80.006	19.994	103.925	19.990	8.356	0.471
420.500	289.624	80.007	19.994	103.928	19.992	8.171	0.467
421.000	289.912	80.006	19.993	103.929	19.988	8.503	0.507
421.500	290.176	80.006	19.995	103.928	19.987	8.566	0.544
422.000	290.397	80.005	19.994	103.928	19.989	8.477	0.519
422.500	290.622	80.006	19.993	103.927	19.985	8.750	0.465
423.000	290.880	80.006	19.993	103.928	19.988	8.518	0.464
423.500	291.132	80.007	19.994	103.928	19.985	8.727	0.497
424.000	291.365	80.005	19.994	103.928	19.986	8.679	0.498
424.500	291.620	80.006	19.995	103.927	19.985	8.785	0.487
425.000	291.847	80.006	19.993	103.930	19.983	8.917	0.485
425.500	292.095	80.004	19.994	103.930	19.982	9.011	0.478
426.000	292.374	80.005	19.992	103.930	19.982	8.993	0.501
426.500	292.613	80.005	19.994	103.929	19.981	9.074	0.523
427.000	292.891	80.006	19.994	103.929	19.981	9.041	0.517
427.500	293.081	80.006	19.993	103.928	19.980	9.130	0.492
428.000	293.336	80.005	19.993	103.924	19.980	9.128	0.457
428.500	293.609	80.004	19.993	103.923	19.980	9.182	0.487
429.000	293.837	80.006	19.993	103.924	19.978	9.315	0.514
429.500	294.135	80.004	19.995	103.925	19.976	9.439	0.514
430.000	294.383	80.005	19.994	103.926	19.977	9.356	0.536
430.500	294.571	80.005	19.994	103.933	19.974	9.597	0.491
431.000	294.865	80.005	19.994	103.934	19.971	9.871	0.459
431.500	295.105	80.004	19.994	103.934	19.971	9.816	0.508
432.000	295.352	80.005	19.995	103.933	19.972	9.764	0.510
432.500	295.619	80.004	19.993	103.935	19.972	9.764	0.501
433.000	295.862	80.004	19.995	103.933	19.972	9.774	0.512
433.500	296.134	80.004	19.995	103.933	19.969	10.050	0.513
434.000	296.393	80.004	19.995	103.933	19.970	9.911	0.523
434.500	296.606	80.004	19.995	103.933	19.967	10.163	0.501
435.000	296.854	80.004	19.994	103.932	19.969	10.041	0.467
435.500	297.059	80.005	19.995	103.932	19.964	10.406	0.457
436.000	297.324	80.004	19.994	103.931	19.962	10.573	0.462
436.500	297.565	80.004	19.994	103.932	19.962	10.552	0.488
437.000	297.836	80.004	19.995	103.932	19.960	10.708	0.509
437.500	298.097	80.004	19.994	103.931	19.962	10.528	0.522
438.000	298.317	80.004	19.994	103.931	19.960	10.692	0.506
438.500	298.587	80.004	19.995	103.931	19.961	10.662	0.485
439.000	298.843	80.004	19.995	103.930	19.956	11.031	0.508
439.500	299.075	80.004	19.996	103.930	19.959	10.764	0.507
440.000	299.311	80.005	19.995	103.934	19.959	10.838	0.478
440.500	299.570	80.003	19.996	103.937	19.955	11.141	0.482
441.000	299.844	80.003	19.996	103.938	19.953	11.236	0.514
441.500	300.114	80.002	19.995	103.938	19.950	11.503	0.538
442.000	300.306	80.003	19.995	103.937	19.951	11.393	0.503
442.500	300.595	80.006	19.996	103.933	19.952	11.354	0.472
443.000	300.822	80.002	19.996	103.930	19.947	11.749	0.499
443.500	301.074	80.005	19.995	103.929	19.946	11.849	0.498
444.000	301.312	80.002	19.997	103.929	19.947	11.760	0.484
444.500	301.565	80.004	19.995	103.930	19.945	11.916	0.490
445.000	301.824	80.004	19.995	103.930	19.944	12.011	0.501
445.500	302.022	80.003	19.995	103.930	19.943	12.017	0.485
446.000	302.310	80.002	19.996	103.930	19.943	12.063	0.472
446.500	302.564	80.004	19.995	103.930	19.942	12.141	0.514
447.000	302.797	80.004	19.995	103.930	19.937	12.506	0.514
447.500	303.060	80.004	19.995	103.932	19.937	12.558	0.491
448.000	303.314	80.005	19.995	103.933	19.936	12.629	0.507
448.500	303.558	80.005	19.996	103.936	19.934	12.746	0.508
449.000	303.771	80.004	19.995	103.942	19.933	12.807	0.477
449.500	304.039	80.003	19.996	103.948	19.932	12.941	0.469
450.000	304.257	80.004	19.995	103.951	19.932	12.928	0.484
450.500	304.524	80.004	19.996	103.953	19.929	13.152	0.486
451.000	304.752	80.005	19.996	103.952	19.927	13.300	0.490
451.500	305.032	80.005	19.996	103.946	19.928	13.231	0.501
452.000	305.266	80.005	19.996	103.939	19.926	13.366	0.511
452.500	305.549	80.005	19.996	103.938	19.923	13.590	0.516
453.000	305.763	80.004	19.996	103.942	19.923	13.590	0.507
453.500	306.011	80.004	19.995	103.945	19.918	14.020	0.480
454.000	306.264	80.005	19.995	103.944	19.920	13.840	0.482
454.500	306.501	80.005	19.995	103.946	19.920	13.892	0.496
455.000	306.751	80.005	19.995	103.945	19.918	13.986	0.488
455.500	306.992	80.005	19.995	103.944	19.916	14.216	0.488
456.000	307.239	80.004	19.994	103.944	19.918	14.027	0.489
456.500	307.488	80.006	19.995	103.951	19.913	14.448	0.492
457.000	307.726	80.005	19.995	103.955	19.911	14.605	0.492
457.500	307.981	80.005	19.994	103.960	19.912	14.466	0.490
458.000	308.236	80.005	19.996	103.960	19.906	14.945	0.501
458.500	308.462	80.006	19.994	103.958	19.905	15.052	0.495
459.000	308.727	80.005	19.994	103.952	19.903	15.215	0.486
459.500	308.973	80.006	19.994	103.952	19.904	15.124	0.501
460.000	309.271	80.005	19.994	103.950	19.902	15.270	0.528
460.500	309.493	80.006	19.993	103.951	19.901	15.390	0.532
461.000	309.748	80.005	19.994	103.952	19.898	15.570	0.499
461.500	309.971	80.005	19.995	103.956	19.897	15.705	0.477
462.000	310.253	80.004	19.994	103.956	19.894	15.929	0.491
462.500	310.450	80.005	19.995	103.959	19.894	15.948	0.492
463.000	310.721	80.005	19.995	103.958	19.890	16.203	0.473
463.500	310.952	80.005	19.995	103.962	19.888	16.347	0.485
464.000	311.236	80.005	19.994	103.966	19.888	16.390	0.508
464.500	311.456	80.005	19.995	103.968	19.887	16.479	0.509
465.000	311.718	80.005	19.994	103.968	19.883	16.813	0.493
465.500	311.987	80.005	19.994	103.969	19.882	16.832	0.507
466.000	312.258	80.005	19.994	103.970	19.880	17.023	0.535
466.500	312.484	80.004	19.995	103.970	19.874	17.464	0.518
467.000	312.717	80.004	19.993	103.970	19.874	17.502	0.478
467.500	312.996	80.005	19.993	103.971	19.869	17.843	0.486
468.000	313.221	80.004	19.994	103.971	19.866	18.085	0.508
468.500	313.458	80.004	19.992	103.971	19.866	18.143	0.483
469.000	313.740	80.004	19.995	103.971	19.865	18.204	0.490
469.500	313.945	80.004	19.995	103.971	19.865	18.167	0.503
470.000	314.253	80.004	19.994	103.975	19.860	18.621	0.500
470.500	314.469	80.003	19.995	103.978	19.859	18.651	0.519
471.000	314.733	80.006	19.994	103.978	19.856	18.860	0.502
471.500	314.994	80.005	19.995	103.980	19.855	18.997	0.502
472.000	315.249	80.004	19.994	103.983	19.852	19.249	0.521
472.500	315.438	80.004	19.993	103.984	19.854	19.067	0.480
473.000	315.700	80.005	19.995	103.987	19.851	19.280	0.448
473.500	315.950	80.005	19.994	103.994	19.845	19.764	0.481
474.000	316.206	80.004	19.995	104.000	19.844	19.838	0.509
474.500	316.438	80.004	19.994	104.003	19.843	19.957	0.497
475.000	316.702	80.005	19.994	104.003	19.840	20.183	0.491
475.500	316.937	80.005	19.994	104.003	19.836	20.460	0.497
476.000	317.173	80.005	19.994	103.998	19.833	20.711	0.485
476.501	317.411	80.005	19.994	103.996	19.829	20.996	0.473
477.000	317.695	80.005	19.994	103.996	19.825	21.327	0.498
477.500	317.924	80.006	19.993	103.998	19.824	21.377	0.518
478.000	318.205	80.006	19.994	104.001	19.822	21.580	0.511
478.500	318.448	80.006	19.993	104.006	19.817	21.950	0.517
479.000	318.712	80.007	19.993	104.007	19.816	22.056	0.516
479.500	318.960	80.007	19.994	104.009	19.812	22.337	0.509
480.000	319.212	80.006	19.994	104.007	19.808	22.713	0.506
480.500	319.438	80.005	19.994	104.006	19.806	22.839	0.489
481.000	319.672	80.006	19.993	104.006	19.800	23.319	0.469
481.500	319.924	80.006	19.993	104.006	19.801	23.200	0.473
482.000	320.190	80.005	19.993	104.006	19.796	23.643	0.502
482.500	320.449	80.005	19.994	104.007	19.793	23.862	0.522
483.000	320.687	80.006	19.994	104.007	19.788	24.223	0.511
483.500	320.977	80.006	19.994	104.010	19.783	24.621	0.513
484.000	321.232	80.004	19.994	104.011	19.781	24.824	0.537
484.500	321.478	80.005	19.993	104.010	19.780	24.886	0.523
485.000	321.705	80.006	19.995	104.011	19.775	25.304	0.487
485.500	322.003	80.007	19.994	104.011	19.773	25.460	0.499
486.000	322.251	80.006	19.993	104.012	19.771	25.594	0.536
486.500	322.557	80.006	19.994	104.017	19.765	26.058	0.550
487.000	322.752	80.005	19.994	104.021	19.764	26.162	0.528
487.500	323.018	80.006	19.993	104.022	19.758	26.648	0.481
488.000	323.282	80.004	19.994	104.027	19.753	26.993	0.495
488.501	323.529	80.003	19.993	104.030	19.752	27.056	0.520
489.000	323.774	80.006	19.994	104.033	19.750	27.269	0.501
489.500	324.096	80.005	19.994	104.037	19.744	27.678	0.529
490.000	324.319	80.004	19.993	104.043	19.739	28.088	0.556
490.500	324.576	80.005	19.993	104.047	19.734	28.509	0.513
491.000	324.809	80.006	19.992	104.049	19.733	28.581	0.485
491.500	325.077	80.004	19.994	104.049	19.727	29.046	0.495
492.000	325.322	80.004	19.993	104.048	19.725	29.231	0.507
492.500	325.582	80.005	19.993	104.048	19.723	29.379	0.509
493.000	325.860	80.006	19.994	104.048	19.718	29.724	0.521
493.500	326.091	80.005	19.994	104.048	19.713	30.184	0.523
494.000	326.371	80.004	19.993	104.049	19.706	30.676	0.510
494.500	326.656	80.005	19.993	104.051	19.705	30.817	0.538
495.000	326.889	80.004	19.994	104.053	19.701	31.113	0.542
495.500	327.121	80.007	19.993	104.058	19.695	31.582	0.492
496.000	327.379	80.005	19.993	104.064	19.688	32.152	0.478
496.500	327.636	80.005	19.995	104.067	19.686	32.242	0.502
497.000	327.897	80.006	19.994	104.073	19.680	32.753	0.516
497.500	328.158	80.006	19.994	104.078	19.676	33.100	0.520
498.000	328.395	80.006	19.993	104.079	19.668	33.664	0.510
498.500	328.669	80.006	19.994	104.073	19.667	33.765	0.505
499.000	328.878	80.007	19.994	104.072	19.660	34.300	0.497
499.500	329.214	80.007	19.994	104.072	19.657	34.534	0.514
500.000	329.473	80.007	19.995	104.072	19.653	34.874	0.570
500.500	329.712	80.007	19.994	104.073	19.648	35.290	0.546
501.000	329.994	80.007	19.994	104.080	19.640	35.927	0.510
501.500	330.193	80.006	19.994	104.085	19.633	36.455	0.501
502.000	330.452	80.007	19.994	104.086	19.628	36.865	0.469
502.500	330.705	80.007	19.995	104.086	19.623	37.243	0.485
503.000	330.955	80.008	19.994	104.086	19.615	37.915	0.508
503.500	331.219	80.008	19.994	104.086	19.609	38.324	0.509
504.000	331.475	80.008	19.994	104.086	19.601	38.954	0.517
504.500	331.716	80.007	19.993	104.085	19.595	39.482	0.509
505.000	331.980	80.008	19.994	104.085	19.589	39.924	0.501
505.500	332.222	80.006	19.994	104.085	19.584	40.333	0.505
506.001	332.463	80.007	19.994	104.085	19.574	41.120	0.494
506.501	332.724	80.007	19.994	104.085	19.568	41.590	0.492
507.000	332.983	80.007	19.994	104.088	19.566	41.762	0.511
507.500	333.274	80.007	19.993	104.088	19.558	42.378	0.535
508.000	333.526	80.006	19.994	104.092	19.551	42.964	0.546
508.500	333.809	80.006	19.993	104.096	19.544	43.463	0.539
509.000	334.028	80.006	19.994	104.103	19.535	44.199	0.519
509.500	334.259	80.006	19.994	104.107	19.529	44.668	0.476
510.000	334.525	80.005	19.995	104.115	19.521	45.336	0.474
510.500	334.732	80.007	19.994	104.119	19.517	45.648	0.485
511.000	335.028	80.005	19.995	104.122	19.511	46.122	0.488
511.500	335.262	80.005	19.995	104.122	19.501	46.843	0.517
512.000	335.478	80.004	19.994	104.123	19.494	47.436	0.490
512.500	335.784	80.005	19.994	104.123	19.487	47.977	0.486
513.000	336.025	80.004	19.994	104.125	19.478	48.687	0.534
513.500	336.302	80.004	19.994	104.130	19.467	49.524	0.533
514.000	336.526	80.005	19.994	104.138	19.463	49.885	0.510
514.500	336.770	80.004	19.995	104.145	19.455	50.526	0.484
515.000	336.965	80.006	19.995	104.153	19.448	51.029	0.454
515.500	337.217	80.003	19.995	104.158	19.439	51.777	0.443
516.000	337.503	80.005	19.995	104.160	19.431	52.409	0.493
516.501	337.729	80.006	19.994	104.159	19.424	52.943	0.525
517.000	338.000	80.005	19.994	104.160	19.418	53.464	0.504
517.500	338.227	80.004	19.995	104.160	19.408	54.245	0.498
518.000	338.450	80.004	19.995	104.161	19.399	54.893	0.474
518.500	338.684	80.005	19.995	104.165	19.387	55.871	0.454
519.000	338.971	80.006	19.995	104.168	19.383	56.224	0.489
519.500	339.198	80.003	19.995	104.171	19.375	56.866	0.517
520.000	339.457	80.005	19.995	104.178	19.362	57.880	0.500
520.500	339.672	80.004	19.994	104.185	19.352	58.615	0.480
521.000	339.926	80.004	19.994	104.190	19.345	59.220	0.471
521.500	340.221	80.003	19.995	104.197	19.336	59.882	0.509
522.000	340.436	80.004	19.995	104.201	19.325	60.784	0.530
522.500	340.656	80.004	19.995	104.203	19.315	61.590	0.473
523.000	340.897	80.005	19.995	104.203	19.306	62.291	0.448
523.500	341.190	80.005	19.994	104.205	19.295	63.182	0.498
524.000	341.418	80.005	19.994	104.210	19.287	63.775	0.527
524.500	341.696	80.005	19.996	104.217	19.276	64.620	0.513
525.000	341.914	80.004	19.994	104.222	19.269	65.204	0.501
525.500	342.160	80.005	19.995	104.229	19.256	66.276	0.480
526.000	342.437	80.004	19.995	104.235	19.247	66.977	0.493
526.500	342.650	80.005	19.994	104.237	19.235	67.920	0.507
527.000	342.866	80.005	19.995	104.238	19.220	69.071	0.460
527.500	343.138	80.005	19.994	104.241	19.217	69.289	0.458
528.000	343.378	80.003	19.994	104.242	19.203	70.422	0.500
528.500	343.596	80.001	19.993	104.242	19.199	70.704	0.485
529.000	343.875	80.005	19.994	104.244	19.189	71.506	0.478
529.500	344.068	80.005	19.995	104.250	19.172	72.914	0.484
530.000	344.330	80.005	19.995	104.257	19.159	73.895	0.463
530.500	344.602	80.004	19.994	104.264	19.154	74.332	0.495
531.000	344.883	80.004	19.995	104.273	19.136	75.762	0.544
531.500	345.076	80.003	19.995	104.278	19.129	76.239	0.514
532.000	345.344	80.004	19.995	104.281	19.118	77.138	0.468
532.500	345.569	80.004	19.995	104.285	19.106	78.120	0.477
533.000	345.809	80.003	19.994	104.285	19.096	78.852	0.479
533.500	346.075	80.004	19.993	104.286	19.083	79.911	0.485
534.000	346.346	80.005	19.995	104.291	19.073	80.730	0.521
534.500	346.541	80.004	19.996	104.294	19.062	81.580	0.502
535.000	346.732	80.006	19.995	104.299	19.049	82.625	0.426
535.500	347.041	80.005	19.995	104.306	19.037	83.542	0.443
536.000	347.279	80.003	19.995	104.312	19.027	84.343	0.524
536.500	347.482	80.002	19.994	104.316	19.014	85.407	0.494
537.000	347.750	80.003	19.994	104.320	19.004	86.195	0.456
537.500	347.990	80.003	19.994	104.320	18.992	87.142	0.489
538.000	348.248	80.004	19.995	104.321	18.978	88.181	0.503
538.500	348.508	80.003	19.996	104.321	18.965	89.258	0.508
539.000	348.812	80.004	19.996	104.325	18.957	89.909	0.541
539.500	348.981	80.003	19.996	104.330	18.939	91.292	0.518
540.000	349.162	80.003	19.995	104.336	18.933	91.793	0.411
540.500	349.630	80.003	19.995	104.343	18.917	93.088	0.499
541.000	349.524	80.002	19.995	104.351	18.905	94.017	0.506
541.500	350.107	80.003	19.995	104.355	18.893	94.960	0.419
542.000	350.151	80.003	19.995	104.358	18.880	95.991	0.552
542.500	350.757	80.003	19.995	104.361	18.867	97.038	0.639
543.000	350.644	80.002	19.995	104.363	18.855	97.999	0.571
543.500	350.790	80.002	19.995	104.365	18.841	99.103	0.263
544.000	351.419	80.004	19.996	104.368	18.830	99.920	0.404
544.500	351.618	80.003	19.995	104.375	18.817	100.981	0.801
545.000	351.479	80.002	19.995	104.383	18.804	101.991	0.444
545.500	351.957	80.002	19.995	104.389	18.794	102.825	0.200
546.000	352.293	80.003	19.996	104.395	18.781	103.814	0.577
546.501	352.462	80.004	19.995	104.400	18.768	104.817	0.659
547.000	352.632	80.003	19.995	104.401	18.753	106.028	0.422
547.500	352.922	80.002	19.995	104.402	18.740	107.091	0.399
548.000	353.245	80.002	19.995	104.403	18.726	108.143	0.536
548.500	353.522	80.001	19.995	104.404	18.714	109.139	0.607
549.000	353.622	80.003	19.994	104.404	18.700	110.231	0.489
549.500	353.924	80.002	19.994	104.405	18.691	110.982	0.390
550.000	354.203	80.001	19.997	104.412	18.676	112.155	0.492
550.500	354.379	80.002	19.994	104.418	18.669	112.687	0.518
551.000	354.697	80.002	19.994	104.425	18.653	113.904	0.474
551.500	354.889	80.003	19.994	104.432	18.642	114.825	0.502
552.000	355.198	80.002	19.995	104.438	18.633	115.549	0.506
552.500	355.376	80.003	19.995	104.439	18.622	116.410	0.494
553.000	355.697	80.003	19.992	104.442	18.609	117.376	0.493
553.500	355.845	80.004	19.994	104.444	18.596	118.454	0.484
554.000	356.165	80.002	19.993	104.448	18.585	119.281	0.469
554.500	356.342	80.003	19.993	104.453	18.574	120.172	0.483
555.000	356.651	80.003	19.993	104.461	18.563	121.061	0.492
555.500	356.872	80.005	19.994	104.467	18.554	121.771	0.508
556.000	357.110	80.003	19.992	104.471	18.543	122.644	0.494
556.500	357.404	80.003	19.994	104.474	18.533	123.434	0.496
557.000	357.651	80.005	19.993	104.477	18.524	124.079	0.537
557.500	357.811	80.004	19.993	104.477	18.510	125.196	0.474
558.000	358.137	80.004	19.993	104.477	18.500	126.014	0.447
558.500	358.317	80.004	19.993	104.479	18.492	126.672	0.496
559.000	358.644	80.004	19.993	104.480	18.480	127.546	0.506
559.500	358.889	80.004	19.991	104.485	18.472	128.177	0.540
560.000	359.082	80.003	19.996	104.488	18.460	129.125	0.505
560.500	359.369	80.004	19.993	104.488	18.451	129.865	0.459
561.001	359.554	80.004	19.992	104.488	18.447	130.197	0.476
561.500	359.834	80.004	19.993	104.488	18.435	131.094	0.468
562.000	360.079	80.006	19.993	104.483	18.426	131.849	0.496
562.500	360.306	80.005	19.993	104.482	18.420	132.293	0.499
563.000	360.523	80.005	19.994	104.481	18.409	133.165	0.458
563.500	360.804	80.004	19.994	104.482	18.402	133.724	0.471
564.000	361.065	80.004	19.993	104.482	18.394	134.370	0.520
564.500	361.342	80.005	19.993	104.482	18.392	134.534	0.540
565.000	361.553	80.006	19.992	104.480	18.381	135.362	0.513
565.500	361.786	80.005	19.993	104.479	18.375	135.825	0.466
566.000	362.045	80.005	19.994	104.478	18.371	136.121	0.468
566.500	362.282	80.007	19.993	104.477	18.362	136.815	0.494
567.000	362.541	80.004	19.994	104.478	18.357	137.200	0.496
567.500	362.772	80.003	19.994	104.477	18.350	137.822	0.493
568.000	363.033	80.004	19.996	104.477	18.346	138.099	0.491
568.500	363.257	80.005	19.993	104.476	18.341	138.517	0.488
569.000	363.518	80.006	19.995	104.477	18.341	138.504	0.485
569.500	363.753	80.006	19.996	104.476	18.332	139.128	0.491
570.000	364.011	80.004	19.992	104.476	18.330	139.304	0.495
570.500	364.255	80.005	19.992	104.476	18.327	139.528	0.497
571.000	364.537	80.005	19.993	104.475	18.322	139.921	0.514
571.500	364.730	80.005	19.997	104.474	18.322	139.959	0.501
572.000	364.993	80.003	19.994	104.474	18.320	140.103	0.466
572.500	365.214	80.005	19.993	104.473	18.317	140.316	0.470
573.000	365.479	80.004	19.993	104.473	18.314	140.536	0.485
573.500	365.738	80.004	19.992	104.472	18.314	140.493	0.505
574.000	366.007	80.006	19.996	104.468	18.315	140.455	0.526
574.500	366.255	80.006	19.995	104.462	18.313	140.573	0.522
575.000	366.505	80.004	19.994	104.456	18.315	140.447	0.507
575.500	366.742	80.004	19.995	104.449	18.314	140.482	0.492
576.000	366.977	80.005	19.994	104.443	18.315	140.419	0.480
576.500	367.234	80.005	19.994	104.440	18.323	139.786	0.482
577.000	367.501	80.005	19.994	104.438	18.322	139.822	0.508
577.500	367.732	80.006	19.992	104.437	18.323	139.716	0.511
578.000	367.959	80.005	19.995	104.434	18.327	139.419	0.478
578.500	368.209	80.004	19.995	104.433	18.329	139.280	0.468
579.000	368.466	80.005	19.994	104.425	18.333	138.893	0.492
579.500	368.711	80.004	19.993	104.418	18.340	138.365	0.505
580.000	368.994	80.007	19.995	104.410	18.343	138.140	0.515
580.500	369.228	80.006	19.994	104.402	18.351	137.445	0.522
581.000	369.490	80.004	19.994	104.390	18.358	136.907	0.506
581.500	369.725	80.006	19.993	104.386	18.360	136.741	0.496
582.000	369.992	80.007	19.994	104.382	18.366	136.282	0.499
582.500	370.222	80.006	19.993	104.376	18.375	135.557	0.499
583.000	370.488	80.007	19.994	104.371	18.380	135.122	0.497
583.500	370.740	80.005	19.991	104.369	18.390	134.331	0.507
584.000	370.963	80.007	19.994	104.366	18.396	133.864	0.497
584.500	371.222	80.005	19.992	104.362	18.407	133.011	0.478
585.000	371.465	80.006	19.994	104.359	18.417	132.194	0.492
585.500	371.735	80.008	19.993	104.353	18.432	130.974	0.507
586.000	372.002	80.007	19.993	104.345	18.440	130.318	0.525
586.500	372.224	80.006	19.993	104.335	18.448	129.649	0.513
587.000	372.438	80.007	19.994	104.322	18.461	128.652	0.463
587.500	372.772	80.005	19.993	104.314	18.470	127.937	0.492
588.000	372.991	80.005	19.993	104.308	18.484	126.800	0.550
588.500	373.261	80.006	19.992	104.300	18.500	125.581	0.521
589.000	373.524	80.008	19.994	104.293	18.512	124.619	0.511
589.500	373.714	80.007	19.994	104.289	18.524	123.636	0.493
590.000	373.999	80.007	19.993	104.278	18.542	122.208	0.464
590.500	374.297	80.006	19.993	104.271	18.555	121.190	0.529
591.000	374.559	80.006	19.995	104.263	18.573	119.746	0.571
591.500	374.782	80.006	19.993	104.256	18.589	118.511	0.522
592.000	375.057	80.006	19.993	104.250	18.606	117.142	0.492
592.500	375.247	80.005	19.996	104.245	18.621	115.998	0.482
593.000	375.541	80.006	19.993	104.234	18.634	114.927	0.474
593.500	375.772	80.006	19.993	104.225	18.656	113.176	0.505
594.000	376.038	80.006	19.995	104.218	18.673	111.836	0.511
594.500	376.304	80.006	19.992	104.208	18.690	110.525	0.515
595.000	376.540	80.005	19.993	104.195	18.711	108.857	0.517
595.500	376.795	80.005	19.992	104.186	18.729	107.447	0.496
596.000	377.079	80.007	19.993	104.172	18.749	105.855	0.514
596.500	377.312	80.005	19.992	104.157	18.766	104.479	0.528
597.000	377.575	80.005	19.993	104.143	18.788	102.805	0.507
597.500	377.842	80.003	19.994	104.134	18.809	101.139	0.513
598.000	378.079	80.005	19.992	104.126	18.832	99.320	0.517
598.500	378.336	80.004	19.993	104.121	18.854	97.564	0.499
599.000	378.571	80.004	19.993	104.114	18.876	95.869	0.493
599.500	378.861	80.004	19.995	104.107	18.895	94.362	0.509
600.000	379.129	80.002	19.994	104.097	18.919	92.456	0.542
600.500	379.384	80.001	19.994	104.082	18.941	90.704	0.541
601.000	379.633	80.001	19.995	104.072	18.961	89.169	0.514
601.500	379.898	80.003	19.994	104.068	18.983	87.415	0.509
602.000	380.149	80.004	19.994	104.060	19.008	85.427	0.515
602.500	380.414	80.003	19.994	104.053	19.031	83.629	0.516
603.000	380.662	80.004	19.995	104.049	19.052	82.008	0.514
603.500	380.894	80.004	19.995	104.042	19.076	80.107	0.496
604.000	381.145	80.003	19.996	104.032	19.095	78.602	0.482
604.500	381.402	80.006	19.994	104.024	19.119	76.728	0.496
605.000	381.642	80.003	19.995	104.016	19.144	74.745	0.503
605.500	381.974	80.003	19.994	104.005	19.166	73.068	0.535
606.000	382.187	80.002	19.995	103.994	19.191	71.076	0.558
606.500	382.451	80.006	19.992	103.985	19.212	69.431	0.511
607.000	382.704	80.002	19.996	103.979	19.237	67.430	0.497
607.500	382.956	80.004	19.994	103.972	19.260	65.623	0.511
608.000	383.204	80.005	19.995	103.972	19.286	63.588	0.502
608.500	383.466	80.004	19.995	103.972	19.307	61.975	0.505
609.000	383.731	80.004	19.995	103.970	19.326	60.498	0.519
609.500	383.988	80.004	19.993	103.966	19.350	58.614	0.525
610.000	384.239	80.004	19.995	103.964	19.372	56.853	0.515
610.500	384.505	80.004	19.995	103.956	19.395	55.034	0.512
611.000	384.735	80.005	19.995	103.949	19.414	53.536	0.506
611.500	384.989	80.003	19.996	103.941	19.436	51.800	0.490
612.000	385.261	80.004	19.996	103.936	19.458	50.077	0.505
612.500	385.540	80.003	19.995	103.930	19.482	48.219	0.539
613.000	385.809	80.003	19.994	103.930	19.501	46.694	0.550
613.500	386.051	80.004	19.995	103.928	19.519	45.290	0.529
614.000	386.293	80.005	19.995	103.925	19.536	44.003	0.498
614.500	386.575	80.004	19.994	103.922	19.560	42.107	0.504
615.000	386.815	80.004	19.995	103.921	19.580	40.521	0.523
615.500	387.083	80.005	19.994	103.914	19.596	39.302	0.515
616.000	387.341	80.004	19.996	103.908	19.614	37.862	0.517
616.500	387.601	80.004	19.994	103.905	19.628	36.730	0.522
617.000	387.838	80.003	19.995	103.898	19.647	35.273	0.508
617.500	388.116	80.005	19.995	103.891	19.665	33.837	0.506
618.000	388.402	80.004	19.994	103.890	19.680	32.675	0.540
618.500	388.663	80.004	19.997	103.890	19.696	31.430	0.555
619.000	388.941	80.003	19.994	103.889	19.713	30.094	0.542
619.500	389.202	80.002	19.994	103.887	19.726	29.062	0.539
620.000	389.477	80.002	19.995	103.882	19.738	28.138	0.538
620.500	389.725	80.004	19.995	103.875	19.753	26.943	0.529
621.000	390.018	80.002	19.995	103.867	19.765	25.986	0.532
621.500	390.258	80.004	19.994	103.861	19.778	24.986	0.537
622.000	390.526	80.003	19.994	103.858	19.789	24.090	0.520
622.500	390.805	80.004	19.995	103.861	19.801	23.147	0.527
623.000	391.095	80.003	19.994	103.862	19.815	22.117	0.558
623.500	391.393	80.003	19.995	103.863	19.824	21.354	0.579
624.000	391.641	80.003	19.994	103.862	19.834	20.571	0.567
624.500	391.904	80.003	19.995	103.862	19.847	19.556	0.528
625.000	392.163	80.003	19.994	103.859	19.857	18.762	0.517
625.500	392.494	80.003	19.994	103.857	19.865	18.133	0.556
626.000	392.706	80.002	19.994	103.857	19.873	17.508	0.566
626.500	393.032	80.003	19.995	103.856	19.881	16.923	0.541
627.000	393.265	80.004	19.995	103.855	19.891	16.144	0.549
627.501	393.535	80.003	19.994	103.855	19.900	15.423	0.531
628.001	393.814	80.000	19.996	103.855	19.907	14.895	0.526
628.500	394.096	80.002	19.995	103.855	19.911	14.518	0.555
629.000	394.377	80.004	19.994	103.855	19.922	13.720	0.562
629.500	394.617	80.004	19.993	103.855	19.927	13.273	0.542
630.000	394.886	80.003	19.994	103.855	19.937	12.523	0.515
630.500	395.172	80.004	19.994	103.855	19.940	12.298	0.532
631.000	395.472	80.005	19.995	103.855	19.948	11.634	0.571
631.500	395.702	80.002	19.995	103.854	19.952	11.350	0.558
632.000	395.989	80.004	19.994	103.853	19.957	10.908	0.523
632.500	396.272	80.003	19.997	103.853	19.959	10.812	0.543
633.000	396.539	80.003	19.996	103.851	19.965	10.309	0.560
633.500	396.783	80.004	19.995	103.851	19.967	10.140	0.530
634.000	397.041	80.003	19.996	103.851	19.974	9.628	0.506
634.500	397.303	80.003	19.995	103.851	19.975	9.548	0.511
635.000	397.558	80.003	19.996	103.852	19.979	9.210	0.519
635.500	397.878	80.004	19.996	103.850	19.982	9.021	0.545
636.000	398.128	80.003	19.994	103.848	19.985	8.774	0.572
636.500	398.391	80.005	19.995	103.848	19.990	8.373	0.542
637.000	398.643	80.003	19.996	103.848	19.991	8.249	0.514
637.500	398.939	80.004	19.994	103.847	19.994	8.032	0.531
638.000	399.201	80.003	19.996	103.849	19.999	7.622	0.553
638.500	399.480	80.004	19.996	103.850	20.001	7.514	0.549
639.000	399.685	80.004	19.997	103.849	20.002	7.390	0.512
639.500	400.005	80.006	19.996	103.848	20.005	7.184	0.505
640.000	400.240	80.006	19.996	103.849	20.009	6.885	0.540
640.500	400.517	80.006	19.994	103.848	20.006	7.104	0.533
641.000	400.766	80.006	19.996	103.848	20.011	6.683	0.519
641.500	401.049	80.003	19.994	103.849	20.014	6.499	0.529
642.000	401.289	80.004	19.995	103.849	20.015	6.425	0.528
642.500	401.602	80.004	19.995	103.849	20.014	6.456	0.538
643.000	401.820	80.005	19.995	103.850	20.014	6.436	0.542
643.501	402.101	80.004	19.995	103.850	20.017	6.234	0.515
644.000	402.368	80.007	19.995	103.849	20.017	6.276	0.524
644.500	402.667	80.004	19.996	103.849	20.019	6.074	0.557
645.000	402.898	80.005	19.993	103.848	20.018	6.163	0.548
645.500	403.164	80.005	19.996	103.848	20.021	5.955	0.514
646.000	403.420	80.006	19.994	103.848	20.024	5.725	0.510
646.500	403.685	80.007	19.995	103.849	20.024	5.662	0.522
647.000	403.919	80.006	19.995	103.849	20.023	5.790	0.510
647.500	404.179	80.005	19.995	103.851	20.023	5.755	0.496
648.000	404.460	80.006	19.993	103.851	20.023	5.762	0.517
648.500	404.727	80.003	19.995	103.851	20.025	5.636	0.545
649.000	404.991	80.003	19.998	103.852	20.025	5.642	0.540
649.500	405.226	80.007	19.994	103.852	20.026	5.514	0.515
650.000	405.480	80.007	19.995	103.851	20.030	5.198	0.494
650.500	405.743	80.006	19.994	103.850	20.026	5.560	0.503
651.000	406.030	80.003	19.994	103.850	20.026	5.569	0.533
651.500	406.274	80.004	19.992	103.850	20.030	5.233	0.540
652.000	406.490	80.003	19.996	103.849	20.032	5.064	0.495
652.500	406.843	80.004	19.993	103.847	20.027	5.482	0.514
653.000	407.051	80.005	19.996	103.847	20.027	5.443	0.565
653.500	407.339	80.004	19.995	103.847	20.029	5.272	0.529
654.000	407.600	80.005	19.996	103.848	20.025	5.584	0.523
654.500	407.845	80.004	19.994	103.848	20.029	5.321	0.528
655.000	408.080	80.004	19.997	103.851	20.028	5.337	0.493
655.500	408.337	80.006	19.996	103.850	20.032	5.083	0.486
656.000	408.611	80.005	19.994	103.850	20.029	5.302	0.511
656.500	408.885	80.005	19.994	103.851	20.028	5.406	0.539
657.000	409.091	80.005	19.992	103.851	20.030	5.202	0.514
657.500	409.370	80.007	19.995	103.851	20.030	5.252	0.483
658.000	409.572	80.004	19.995	103.852	20.030	5.191	0.483
658.500	409.854	80.004	19.992	103.852	20.032	5.050	0.483
659.000	410.095	80.005	19.994	103.849	20.031	5.163	0.504
659.500	410.333	80.004	19.993	103.848	20.033	4.983	0.501
660.000	410.655	80.007	19.993	103.848	20.031	5.170	0.519
660.500	410.843	80.005	19.996	103.849	20.031	5.124	0.535
661.000	411.144	80.005	19.993	103.849	20.031	5.137	0.499
661.500	411.369	80.005	19.993	103.851	20.029	5.302	0.507
662.000	411.615	80.006	19.992	103.851	20.032	5.044	0.499
662.501	411.858	80.005	19.992	103.851	20.034	4.882	0.480
663.000	412.110	80.005	19.995	103.850	20.029	5.296	0.492
663.500	412.380	80.005	19.993	103.851	20.033	5.001	0.508
664.000	412.644	80.006	19.993	103.851	20.036	4.758	0.528
664.500	412.842	80.007	19.994	103.850	20.033	5.014	0.498
665.000	413.109	80.007	19.994	103.849	20.033	4.955	0.463
665.500	413.382	80.005	19.994	103.849	20.034	4.916	0.502
666.000	413.623	80.006	19.994	103.848	20.032	5.025	0.527
666.500	413.808	80.006	19.994	103.845	20.032	5.059	0.470
667.000	414.091	80.005	19.993	103.843	20.031	5.163	0.447
667.500	414.311	80.006	19.995	103.842	20.034	4.942	0.486
668.000	414.573	80.007	19.993	103.841	20.033	4.977	0.493
668.500	414.791	80.005	19.994	103.841	20.035	4.799	0.481
669.000	415.072	80.006	19.994	103.845	20.033	5.007	0.490
669.500	415.297	80.007	19.993	103.848	20.033	4.990	0.502
670.000	415.616	80.006	19.994	103.851	20.034	4.908	0.525
670.500	415.810	80.006	19.994	103.852	20.034	4.910	0.529
671.000	416.120	80.006	19.995	103.852	20.033	4.988	0.508
671.500	416.321	80.006	19.995	103.852	20.032	5.088	0.507
672.000	416.559	80.005	19.994	103.852	20.036	4.730	0.475
672.500	416.800	80.006	19.993	103.852	20.036	4.754	0.459
673.000	417.057	80.005	19.993	103.853	20.032	5.070	0.489
673.500	417.298	80.004	19.994	103.853	20.037	4.697	0.498
674.000	417.536	80.006	19.992	103.854	20.034	4.925	0.488
674.500	417.818	80.006	19.994	103.854	20.034	4.875	0.500
675.000	418.097	80.005	19.993	103.854	20.033	4.981	0.541
675.500	418.291	80.005	19.994	103.854	20.036	4.747	0.517
676.000	418.538	80.006	19.994	103.854	20.035	4.834	0.457
676.500	418.780	80.005	19.994	103.854	20.034	4.899	0.465
677.000	419.055	80.005	19.994	103.854	20.037	4.682	0.503
677.500	419.270	80.005	19.994	103.854	20.037	4.641	0.504
678.000	419.529	80.004	19.994	103.854	20.035	4.791	0.481
678.500	419.778	80.004	19.992	103.854	20.036	4.736	0.491
679.000	420.045	80.004	19.995	103.854	20.034	4.908	0.512
679.500	420.291	80.005	19.992	103.854	20.035	4.845	0.514
680.000	420.512	80.004	19.994	103.855	20.036	4.732	0.490
680.500	420.767	80.004	19.995	103.855	20.036	4.719	0.472
681.000	421.045	80.004	19.995	103.855	20.039	4.500	0.504
681.500	421.276	80.004	19.993	103.855	20.039	4.504	0.521
682.000	421.545	80.002	19.994	103.855	20.038	4.556	0.505
682.500	421.780	80.004	19.994	103.855	20.040	4.439	0.502
683.000	422.050	80.004	19.994	103.855	20.038	4.600	0.504
683.500	422.268	80.004	19.993	103.855	20.036	4.732	0.497
684.000	422.511	80.004	19.992	103.855	20.038	4.608	0.475
684.500	422.769	80.004	19.993	103.855	20.034	4.884	0.481
685.001	423.023	80.004	19.995	103.855	20.040	4.437	0.506
685.500	423.251	80.004	19.996	103.855	20.039	4.498	0.497
686.000	423.494	80.005	19.993	103.855	20.036	4.745	0.477
686.500	423.762	80.003	19.994	103.855	20.037	4.660	0.491
687.000	423.978	80.005	19.993	103.854	20.039	4.521	0.497
687.500	424.241	80.005	19.996	103.854	20.036	4.749	0.481
688.000	424.489	80.005	19.994	103.854	20.037	4.691	0.495
688.500	424.713	80.004	19.994	103.855	20.038	4.563	0.491
689.000	425.019	80.005	19.992	103.855	20.038	4.613	0.501
689.500	425.250	80.004	19.994	103.856	20.039	4.482	0.534
690.000	425.480	80.004	19.994	103.857	20.036	4.736	0.499
690.500	425.763	80.003	19.993	103.856	20.038	4.556	0.487
691.000	425.990	80.002	19.993	103.855	20.037	4.634	0.512
691.500	426.254	80.003	19.995	103.855	20.041	4.385	0.501
692.000	426.480	80.003	19.994	103.855	20.036	4.775	0.491
692.500	426.743	80.003	19.995	103.855	20.041	4.348	0.489
693.000	427.003	80.005	19.992	103.854	20.040	4.404	0.506
693.500	427.251	80.005	19.994	103.855	20.043	4.163	0.515
694.000	427.483	80.004	19.993	103.855	20.037	4.634	0.494
694.500	427.777	80.005	19.994	103.853	20.040	4.415	0.503
695.000	428.024	80.005	19.994	103.854	20.038	4.551	0.534
695.500	428.269	80.003	19.995	103.854	20.037	4.656	0.517
696.000	428.540	80.002	19.993	103.854	20.039	4.510	0.504
696.500	428.765	80.005	19.994	103.854	20.039	4.539	0.505
697.000	429.002	80.004	19.995	103.854	20.040	4.469	0.479
697.500	429.258	80.004	19.995	103.853	20.038	4.604	0.478
698.000	429.511	80.006	19.995	103.852	20.040	4.398	0.501
698.500	429.718	80.003	19.995	103.852	20.037	4.656	0.485
699.000	430.015	80.004	19.994	103.851	20.037	4.645	0.482
699.500	430.241	80.004	19.994	103.852	20.037	4.654	0.514
700.000	430.492	80.002	19.994	103.851	20.038	4.623	0.500
700.500	430.745	80.003	19.993	103.852	20.037	4.699	0.491
701.000	430.999	80.004	19.996	103.851	20.035	4.855	0.505
701.500	431.232	80.004	19.994	103.851	20.037	4.667	0.497
702.000	431.491	80.004	19.995	103.851	20.036	4.743	0.490
702.500	431.736	80.005	19.993	103.851	20.037	4.632	0.498
703.000	431.992	80.003	19.994	103.850	20.036	4.756	0.502
703.500	432.255	80.005	19.993	103.851	20.036	4.771	0.510
704.000	432.511	80.004	19.995	103.849	20.035	4.792	0.520
704.500	432.714	80.005	19.994	103.846	20.037	4.705	0.489
705.000	433.002	80.004	19.995	103.844	20.037	4.708	0.475
705.500	433.241	80.006	19.995	103.843	20.034	4.866	0.509
706.000	433.525	80.001	19.993	103.842	20.038	4.602	0.525
706.500	433.785	80.004	19.995	103.843	20.039	4.482	0.534
707.000	434.076	80.004	19.995	103.846	20.039	4.521	0.548
707.500	434.283	80.004	19.996	103.848	20.037	4.660	0.525
708.000	434.522	80.004	19.996	103.848	20.039	4.526	0.472
708.500	434.798	80.003	19.991	103.848	20.038	4.571	0.480
709.000	435.044	80.004	19.996	103.848	20.039	4.534	0.519
709.500	435.311	80.002	19.995	103.849	20.035	4.821	0.518
710.000	435.515	80.005	19.998	103.850	20.037	4.701	0.492
710.500	435.815	80.004	19.994	103.851	20.038	4.552	0.488
711.000	436.053	80.003	19.994	103.851	20.039	4.478	0.521
711.500	436.299	80.003	19.997	103.851	20.038	4.626	0.511
712.000	436.545	80.003	19.994	103.851	20.039	4.489	0.488
712.500	436.826	80.003	19.995	103.851	20.043	4.229	0.509
713.000	437.054	80.004	19.996	103.851	20.039	4.491	0.518
713.500	437.265	80.003	19.995	103.851	20.041	4.363	0.474
714.000	437.553	80.001	19.995	103.849	20.041	4.354	0.470
714.500	437.804	80.002	19.995	103.848	20.041	4.339	0.519
715.000	438.059	80.002	19.994	103.847	20.042	4.282	0.522
715.500	438.289	80.003	19.996	103.845	20.041	4.356	0.496
716.000	438.514	80.004	19.994	103.845	20.039	4.480	0.470
716.500	438.816	80.003	19.994	103.847	20.039	4.534	0.491
717.000	439.023	80.004	19.995	103.848	20.039	4.543	0.518
717.500	439.305	80.004	19.993	103.845	20.041	4.358	0.499
718.000	439.539	80.003	19.993	103.846	20.037	4.705	0.503
718.500	439.780	80.004	19.995	103.847	20.038	4.580	0.496
719.000	440.058	80.005	19.995	103.847	20.039	4.508	0.497
719.500	440.320	80.004	19.994	103.848	20.036	4.760	0.529
720.000	440.583	80.005	19.995	103.852	20.037	4.673	0.533
720.500	440.842	80.004	19.995	103.851	20.035	4.840	0.524
721.000	441.063	80.005	19.995	103.851	20.035	4.799	0.501
721.500	441.313	80.005	19.993	103.851	20.036	4.760	0.475
722.000	441.562	80.005	19.994	103.851	20.038	4.595	0.485
722.500	441.807	80.005	19.995	103.852	20.040	4.469	0.497
723.000	442.093	80.006	19.995	103.852	20.036	4.751	0.513
723.500	442.305	80.005	19.992	103.851	20.036	4.714	0.514
724.000	442.541	80.005	19.995	103.845	20.036	4.712	0.473
724.500	442.820	80.006	19.994	103.841	20.036	4.723	0.482
725.000	443.095	80.005	19.994	103.841	20.037	4.690	0.534
725.500	443.330	80.007	19.995	103.841	20.036	4.773	0.532
726.000	443.577	80.005	19.995	103.842	20.037	4.664	0.496
726.500	443.864	80.007	19.994	103.845	20.039	4.530	0.508
727.000	444.058	80.005	19.995	103.847	20.042	4.270	0.507
727.500	444.316	80.006	19.995	103.843	20.040	4.465	0.467
728.000	444.600	80.006	19.994	103.842	20.039	4.547	0.498
728.500	444.835	80.006	19.994	103.842	20.038	4.615	0.530
729.000	445.109	80.004	19.995	103.844	20.042	4.255	0.514
729.500	445.312	80.005	19.995	103.842	20.043	4.222	0.494
730.000	445.597	80.005	19.995	103.846	20.039	4.547	0.482
730.500	445.820	80.005	19.995	103.847	20.039	4.547	0.497
731.000	446.077	80.005	19.995	103.847	20.040	4.402	0.494
731.500	446.342	80.006	19.995	103.848	20.042	4.302	0.501
732.000	446.559	80.005	19.996	103.851	20.037	4.682	0.502
732.500	446.767	80.005	19.996	103.851	20.040	4.426	0.453
733.000	447.022	80.003	19.995	103.851	20.037	4.645	0.444
733.500	447.271	80.004	19.995	103.851	20.040	4.463	0.484
734.000	447.551	80.004	19.995	103.851	20.038	4.560	0.516
734.500	447.782	80.003	19.995	103.850	20.039	4.482	0.519
735.000	448.052	80.005	19.995	103.846	20.038	4.582	0.506
735.500	448.301	80.005	19.995	103.845	20.040	4.413	0.510
736.000	448.555	80.004	19.995	103.845	20.040	4.443	0.511
736.500	448.817	80.003	19.995	103.846	20.037	4.634	0.510
737.000	449.035	80.003	19.995	103.845	20.038	4.615	0.498
737.500	449.305	80.002	19.995	103.847	20.038	4.589	0.484
738.000	449.533	80.003	19.995	103.847	20.036	4.749	0.493
738.500	449.818	80.004	19.995	103.847	20.034	4.892	0.505
739.000	450.099	80.005	19.995	103.847	20.035	4.840	0.540
739.500	450.348	80.004	19.995	103.848	20.038	4.558	0.548
740.000	450.574	80.004	19.996	103.851	20.037	4.690	0.503
740.500	450.832	80.004	19.994	103.850	20.036	4.740	0.479
741.000	451.095	80.004	19.995	103.849	20.036	4.762	0.503
741.500	451.364	80.003	19.996	103.848	20.038	4.606	0.527
742.000	451.609	80.005	19.996	103.847	20.040	4.461	0.523
742.500	451.862	80.005	19.995	103.847	20.037	4.639	0.506
743.000	452.119	80.005	19.995	103.850	20.036	4.756	0.504
743.500	452.389	80.006	19.995	103.851	20.036	4.751	0.519
744.001	452.676	80.005	19.996	103.851	20.037	4.632	0.542
744.500	452.913	80.004	19.994	103.851	20.037	4.680	0.540
745.000	453.151	80.004	19.994	103.852	20.039	4.513	0.500
745.500	453.410	80.006	19.994	103.852	20.039	4.547	0.486
746.000	453.630	80.004	19.994	103.852	20.041	4.324	0.488
746.501	453.898	80.006	19.994	103.853	20.038	4.590	0.483
747.000	454.126	80.004	19.993	103.852	20.039	4.525	0.492
747.500	454.399	80.006	19.993	103.851	20.041	4.330	0.499
748.000	454.647	80.007	19.993	103.850	20.038	4.619	0.511
748.500	454.920	80.007	19.994	103.849	20.041	4.365	0.521
749.000	455.181	80.006	19.993	103.848	20.039	4.482	0.527
749.500	455.421	80.007	19.994	103.849	20.042	4.298	0.518
750.001	455.711	80.008	19.993	103.849	20.041	4.341	0.516
750.500	455.971	80.005	19.993	103.848	20.039	4.482	0.539
751.000	456.214	80.006	19.994	103.849	20.040	4.465	0.526
751.500	456.468	80.007	19.994	103.850	20.040	4.409	0.500
752.000	456.692	80.006	19.994	103.850	20.039	4.539	0.488
752.500	456.968	80.006	19.995	103.853	20.037	4.647	0.489
753.000	457.218	80.005	19.992	103.854	20.040	4.443	0.513
753.500	457.423	80.006	19.993	103.854	20.038	4.560	0.490
754.000	457.728	80.005	19.993	103.855	20.039	4.474	0.483
754.500	457.950	80.007	19.994	103.855	20.039	4.476	0.519
755.000	458.233	80.007	19.994	103.854	20.037	4.695	0.516
755.500	458.497	80.006	19.994	103.853	20.038	4.608	0.526
756.000	458.759	80.005	19.994	103.850	20.040	4.471	0.537
756.500	458.999	80.005	19.993	103.847	20.040	4.461	0.514
757.000	459.222	80.005	19.994	103.845	20.043	4.216	0.482
757.500	459.510	80.005	19.993	103.842	20.040	4.443	0.486
758.000	459.755	80.005	19.994	103.842	20.042	4.302	0.522
758.500	460.039	80.006	19.994	103.846	20.040	4.463	0.532
759.000	460.258	80.004	19.994	103.847	20.041	4.328	0.516
759.500	460.525	80.004	19.994	103.846	20.037	4.695	0.494
760.000	460.773	80.004	19.995	103.847	20.040	4.430	0.500
760.500	461.029	80.003	19.995	103.847	20.039	4.532	0.509
761.000	461.302	80.004	19.994	103.847	20.042	4.287	0.517
761.500	461.565	80.004	19.993	103.849	20.043	4.172	0.533
762.000	461.796	80.004	19.995	103.852	20.042	4.309	0.515
762.500	462.072	80.003	19.993	103.854	20.038	4.612	0.501
763.000	462.312	80.005	19.993	103.854	20.040	4.432	0.511
763.500	462.581	80.004	19.994	103.854	20.041	4.383	0.512
764.000	462.861	80.005	19.994	103.854	20.041	4.341	0.529
764.500	463.070	80.003	19.995	103.852	20.041	4.372	0.519
765.000	463.364	80.004	19.995	103.851	20.041	4.359	0.496
765.500	463.551	80.004	19.994	103.851	20.043	4.170	0.492
766.000	463.829	80.004	19.996	103.850	20.039	4.515	0.473
766.500	464.113	80.004	19.994	103.849	20.042	4.253	0.513
767.000	464.370	80.004	19.994	103.849	20.040	4.456	0.552
767.500	464.596	80.004	19.994	103.849	20.042	4.287	0.512
768.000	464.841	80.003	19.995	103.848	20.041	4.376	0.476
768.500	465.095	80.003	19.993	103.849	20.041	4.335	0.485
769.000	465.357	80.004	19.996	103.850	20.043	4.237	0.508
769.500	465.592	80.005	19.995	103.852	20.045	4.042	0.507
770.000	465.881	80.003	19.994	103.851	20.043	4.187	0.511
770.500	466.142	80.005	19.995	103.851	20.041	4.344	0.537
771.001	466.423	80.004	19.996	103.847	20.040	4.432	0.546
771.500	466.624	80.004	19.995	103.844	20.042	4.285	0.512
772.000	466.922	80.003	19.996	103.843	20.041	4.380	0.490
772.500	467.171	80.005	19.994	103.843	20.044	4.133	0.523
773.000	467.391	80.005	19.994	103.842	20.040	4.450	0.508
773.500	467.662	80.004	19.994	103.846	20.041	4.372	0.480
774.000	467.919	80.005	19.993	103.849	20.041	4.378	0.510
774.500	468.175	80.005	19.995	103.850	20.039	4.545	0.521
775.000	468.451	80.004	19.993	103.851	20.039	4.530	0.522
775.500	468.690	80.004	19.995	103.853	20.037	4.634	0.523
776.000	468.927	80.005	19.993	103.853	20.039	4.508	0.496
776.500	469.195	80.004	19.994	103.853	20.041	4.350	0.490
777.000	469.481	80.005	19.995	103.853	20.039	4.482	0.529
777.500	469.719	80.005	19.994	103.852	20.037	4.697	0.540
778.000	469.980	80.003	19.993	103.851	20.038	4.606	0.512
778.500	470.208	80.005	19.995	103.850	20.040	4.458	0.493
779.000	470.471	80.005	19.994	103.851	20.041	4.341	0.490
779.500	470.730	80.003	19.994	103.850	20.039	4.482	0.507
780.000	471.002	80.003	19.994	103.849	20.043	4.170	0.527
780.500	471.248	80.003	19.995	103.849	20.039	4.537	0.525
781.000	471.528	80.006	19.994	103.849	20.039	4.476	0.522
781.500	471.758	80.004	19.993	103.849	20.038	4.554	0.518
782.000	472.032	80.005	19.992	103.849	20.039	4.476	0.507
782.500	472.277	80.005	19.993	103.850	20.038	4.578	0.511
783.000	472.562	80.005	19.994	103.850	20.038	4.599	0.525
783.500	472.828	80.007	19.994	103.849	20.038	4.554	0.541
784.000	473.071	80.004	19.994	103.849	20.037	4.697	0.530
784.500	473.326	80.004	19.993	103.850	20.033	4.970	0.503
785.000	473.587	80.004	19.994	103.851	20.039	4.526	0.507
785.500	473.877	80.006	19.994	103.852	20.038	4.599	0.533
786.000	474.072	80.004	19.994	103.852	20.038	4.560	0.518
786.500	474.355	80.005	19.994	103.852	20.039	4.476	0.482
787.000	474.650	80.003	19.995	103.852	20.038	4.567	0.528
787.501	474.883	80.004	19.995	103.852	20.040	4.446	0.553
788.000	475.184	80.005	19.993	103.852	20.038	4.567	0.531
788.500	475.355	80.004	19.994	103.850	20.039	4.485	0.503
789.000	475.648	80.003	19.993	103.849	20.040	4.456	0.468
789.500	475.884	80.003	19.992	103.850	20.038	4.600	0.497
790.000	476.172	80.004	19.995	103.849	20.039	4.537	0.527
790.500	476.390	80.004	19.995	103.848	20.037	4.634	0.515
791.000	476.644	80.004	19.993	103.849	20.042	4.296	0.488
791.500	476.877	80.004	19.994	103.850	20.041	4.381	0.479
792.000	477.153	80.005	19.993	103.846	20.042	4.244	0.499
792.500	477.425	80.004	19.995	103.844	20.041	4.346	0.529
793.000	477.652	80.005	19.995	103.844	20.042	4.272	0.523
793.500	477.914	80.003	19.994	103.845	20.041	4.368	0.494
794.000	478.191	80.004	19.995	103.842	20.042	4.259	0.514
794.500	478.478	80.003	19.995	103.846	20.040	4.472	0.552
795.000	478.655	80.004	19.994	103.848	20.037	4.649	0.514
795.500	478.916	80.003	19.996	103.848	20.039	4.547	0.451
796.000	479.207	80.002	19.995	103.849	20.041	4.383	0.495
796.500	479.442	80.003	19.995	103.851	20.044	4.146	0.539
797.000	479.700	80.003	19.993	103.852	20.044	4.131	0.510
797.500	479.927	80.004	19.996	103.851	20.042	4.268	0.489
798.000	480.194	80.003	19.995	103.852	20.042	4.296	0.489
798.500	480.407	80.004	19.995	103.852	20.042	4.274	0.487
799.000	480.699	80.002	19.994	103.852	20.043	4.229	0.492
799.500	480.957	80.004	19.995	103.852	20.039	4.500	0.527
800.000	481.230	80.003	19.994	103.853	20.041	4.359	0.541
800.500	481.425	80.003	19.995	103.852	20.042	4.244	0.500
801.001	481.702	80.004	19.995	103.852	20.041	4.359	0.470
801.501	481.943	80.004	19.994	103.852	20.041	4.354	0.495
802.000	482.232	80.004	19.994	103.852	20.042	4.244	0.524
802.500	482.461	80.005	19.994	103.852	20.044	4.118	0.523
803.000	482.675	80.004	19.994	103.853	20.043	4.177	0.480
803.500	482.956	80.006	19.995	103.853	20.043	4.228	0.470
804.000	483.182	80.004	19.995	103.854	20.043	4.209	0.502
804.500	483.465	80.005	19.995	103.853	20.042	4.250	0.508
805.000	483.694	80.004	19.995	103.853	20.044	4.124	0.510
805.500	483.964	80.006	19.995	103.854	20.044	4.129	0.505
806.000	484.215	80.005	19.995	103.851	20.044	4.092	0.510
806.500	484.446	80.006	19.994	103.851	20.044	4.135	0.501
807.000	484.722	80.006	19.994	103.851	20.045	4.014	0.494
807.500	484.960	80.007	19.995	103.852	20.043	4.198	0.511
808.000	485.184	80.006	19.995	103.852	20.044	4.105	0.488
808.500	485.440	80.005	19.996	103.855	20.045	4.005	0.471
809.000	485.703	80.005	19.995	103.855	20.043	4.205	0.499
809.500	485.956	80.004	19.994	103.855	20.046	3.992	0.518
810.000	486.216	80.006	19.995	103.854	20.043	4.179	0.515
810.500	486.485	80.004	19.995	103.853	20.045	4.051	0.522
811.000	486.735	80.006	19.994	103.852	20.044	4.125	0.524
811.500	486.973	80.006	19.995	103.852	20.044	4.110	0.503
812.000	487.243	80.005	19.994	103.851	20.044	4.149	0.498
812.500	487.512	80.005	19.994	103.851	20.042	4.285	0.524
813.000	487.747	80.005	19.994	103.852	20.045	4.079	0.522
813.501	488.014	80.006	19.995	103.852	20.044	4.136	0.503
814.000	488.256	80.006	19.994	103.849	20.040	4.413	0.505
814.500	488.507	80.006	19.995	103.847	20.042	4.276	0.502
815.000	488.755	80.005	19.994	103.842	20.044	4.081	0.496
815.500	489.003	80.005	19.993	103.841	20.042	4.296	0.497
816.000	489.264	80.004	19.994	103.842	20.043	4.166	0.503
816.500	489.539	80.005	19.994	103.844	20.043	4.233	0.523
817.000	489.800	80.004	19.994	103.844	20.040	4.445	0.536
817.500	490.078	80.005	19.994	103.849	20.043	4.179	0.537
818.000	490.344	80.005	19.995	103.850	20.042	4.287	0.541
818.500	490.544	80.004	19.994	103.850	20.044	4.133	0.505
819.000	490.808	80.005	19.994	103.852	20.041	4.330	0.465
819.500	491.050	80.003	19.993	103.854	20.043	4.200	0.485
820.000	491.329	80.004	19.994	103.854	20.041	4.346	0.514
820.500	491.591	80.002	19.996	103.854	20.043	4.190	0.531
821.000	491.856	80.005	19.995	103.854	20.040	4.465	0.534
821.500	492.095	80.004	19.995	103.854	20.040	4.424	0.515
822.000	492.383	80.004	19.993	103.854	20.040	4.400	0.515
822.500	492.642	80.005	19.994	103.855	20.042	4.300	0.537
823.000	492.898	80.005	19.994	103.855	20.043	4.226	0.532
823.500	493.160	80.004	19.994	103.855	20.039	4.513	0.517
824.000	493.394	80.004	19.995	103.855	20.040	4.406	0.507
824.500	493.674	80.004	19.994	103.854	20.043	4.176	0.505
825.000	493.935	80.004	19.994	103.852	20.043	4.163	0.527
825.500	494.180	80.005	19.994	103.849	20.041	4.341	0.523
826.000	494.498	80.006	19.995	103.848	20.042	4.243	0.534
826.500	494.732	80.005	19.995	103.847	20.043	4.217	0.558
827.000	494.992	80.005	19.995	103.846	20.045	4.043	0.523
827.500	495.259	80.005	19.995	103.845	20.045	4.059	0.510
828.000	495.495	80.004	19.993	103.846	20.045	4.050	0.515
828.500	495.765	80.004	19.995	103.845	20.041	4.330	0.505
829.000	496.001	80.005	19.998	103.845	20.042	4.278	0.506
829.500	496.281	80.005	19.995	103.846	20.042	4.310	0.511
830.000	496.493	80.006	19.996	103.848	20.043	4.221	0.504
830.500	496.761	80.005	19.996	103.849	20.043	4.213	0.486
831.000	497.026	80.006	19.995	103.850	20.041	4.328	0.507
831.500	497.276	80.007	19.996	103.850	20.044	4.081	0.524
832.000	497.510	80.007	19.995	103.848	20.042	4.309	0.499
832.500	497.765	80.007	19.995	103.848	20.042	4.282	0.486
833.000	498.034	80.007	19.995	103.846	20.040	4.456	0.507
833.500	498.269	80.006	19.995	103.845	20.042	4.241	0.514
834.000	498.559	80.006	19.995	103.845	20.043	4.234	0.515
834.500	498.814	80.006	19.996	103.847	20.044	4.117	0.535
835.000	499.069	80.006	19.994	103.847	20.041	4.364	0.528
835.500	499.311	80.006	19.996	103.846	20.041	4.358	0.504
836.000	499.562	80.006	19.995	103.840	20.043	4.191	0.495
836.500	499.851	80.007	19.995	103.833	20.041	4.371	0.517
837.000	500.081	80.007	19.995	103.827	20.041	4.380	0.529
837.500	500.354	80.006	19.994	103.826	20.040	4.458	0.511
838.000	500.595	80.006	19.994	103.826	20.038	4.575	0.508
838.500	500.867	80.007	19.995	103.831	20.041	4.382	0.514
839.000	501.085	80.006	19.994	103.836	20.040	4.399	0.502
839.500	501.366	80.005	19.994	103.837	20.038	4.573	0.495
840.001	501.602	80.005	19.994	103.832	20.040	4.417	0.508
840.500	501.855	80.006	19.994	103.829	20.040	4.448	0.503
841.000	502.125	80.006	19.996	103.829	20.039	4.506	0.506
841.500	502.397	80.005	19.997	103.831	20.035	4.805	0.532
842.000	502.644	80.005	19.994	103.833	20.039	4.504	0.531
842.500	502.894	80.005	19.994	103.840	20.041	4.339	0.508
843.000	503.143	80.006	19.993	103.843	20.037	4.645	0.498
843.500	503.372	80.004	19.993	103.839	20.040	4.465	0.488
844.000	503.625	80.004	19.994	103.836	20.038	4.617	0.480
844.500	503.904	80.004	19.994	103.831	20.040	4.467	0.507
845.000	504.171	80.005	19.994	103.826	20.038	4.617	0.539
845.500	504.429	80.005	19.993	103.824	20.040	4.458	0.535
846.000	504.678	80.004	19.994	103.828	20.040	4.465	0.516
846.500	504.916	80.004	19.994	103.830	20.041	4.354	0.497
847.000	505.144	80.004	19.993	103.837	20.042	4.270	0.476
847.500	505.448	80.005	19.994	103.840	20.038	4.563	0.499
848.000	505.715	80.004	19.995	103.838	20.039	4.519	0.552
848.500	505.947	80.005	19.994	103.834	20.038	4.563	0.535
849.000	506.184	80.004	19.994	103.834	20.037	4.636	0.484
849.500	506.455	80.005	19.993	103.833	20.043	4.227	0.488
850.000	506.700	80.004	19.994	103.836	20.040	4.428	0.512
850.500	506.964	80.003	19.994	103.842	20.039	4.495	0.513
851.000	507.231	80.004	19.993	103.847	20.040	4.419	0.520
851.500	507.458	80.004	19.992	103.850	20.040	4.441	0.513
852.000	507.729	80.004	19.993	103.847	20.040	4.448	0.496
852.500	507.968	80.004	19.994	103.845	20.041	4.322	0.503
853.000	508.197	80.004	19.993	103.842	20.038	4.582	0.489
853.500	508.486	80.003	19.994	103.841	20.040	4.415	0.494
854.000	508.731	80.004	19.993	103.841	20.035	4.803	0.526
854.500	508.981	80.004	19.994	103.845	20.040	4.443	0.514
855.000	509.209	80.004	19.995	103.847	20.038	4.608	0.487
855.500	509.497	80.004	19.995	103.849	20.039	4.482	0.497
856.000	509.729	80.004	19.994	103.850	20.040	4.417	0.518
856.500	509.972	80.003	19.994	103.850	20.038	4.619	0.498
857.000	510.233	80.003	19.994	103.849	20.039	4.500	0.489
857.500	510.491	80.004	19.994	103.850	20.039	4.532	0.511
858.000	510.789	80.004	19.994	103.850	20.042	4.269	0.537
858.500	511.014	80.004	19.994	103.850	20.043	4.163	0.539
859.000	511.279	80.004	19.995	103.851	20.044	4.141	0.506
859.500	511.530	80.005	19.994	103.852	20.042	4.256	0.503
860.000	511.744	80.003	19.994	103.852	20.044	4.143	0.490
860.500	512.041	80.004	19.994	103.852	20.040	4.419	0.488
861.000	512.282	80.005	19.995	103.851	20.041	4.369	0.525
861.500	512.509	80.004	19.995	103.851	20.040	4.419	0.503
862.000	512.758	80.004	19.996	103.851	20.041	4.320	0.472
862.500	513.014	80.004	19.995	103.851	20.044	4.153	0.490
863.000	513.295	80.005	19.995	103.852	20.042	4.248	0.521
863.500	513.545	80.005	19.995	103.846	20.038	4.582	0.534
864.000	513.808	80.004	19.994	103.844	20.044	4.120	0.522
864.500	514.069	80.005	19.993	103.843	20.045	4.035	0.519
865.000	514.327	80.004	19.993	103.844	20.039	4.530	0.522
865.500	514.582	80.004	19.994	103.843	20.044	4.126	0.516
866.000	514.858	80.005	19.994	103.848	20.039	4.523	0.522
866.500	515.082	80.004	19.994	103.851	20.041	4.389	0.516
867.000	515.366	80.005	19.993	103.852	20.041	4.391	0.504
867.500	515.638	80.006	19.993	103.851	20.042	4.258	0.532
868.000	515.839	80.004	19.994	103.849	20.042	4.315	0.515
868.500	516.084	80.004	19.994	103.845	20.041	4.351	0.460
869.000	516.361	80.004	19.995	103.840	20.042	4.278	0.484
869.500	516.586	80.003	19.993	103.840	20.042	4.312	0.511
870.000	516.893	80.004	19.993	103.839	20.042	4.287	0.517
870.500	517.126	80.002	19.994	103.837	20.042	4.245	0.536
871.000	517.338	80.004	19.993	103.836	20.044	4.154	0.493
871.500	517.633	80.003	19.994	103.839	20.040	4.434	0.476
872.000	517.879	80.004	19.993	103.840	20.044	4.095	0.524
872.500	518.147	80.003	19.994	103.842	20.046	3.952	0.528
873.000	518.371	80.004	19.994	103.846	20.041	4.347	0.503
873.500	518.673	80.003	19.993	103.848	20.042	4.279	0.509
874.000	518.912	80.003	19.993	103.846	20.040	4.462	0.534
874.500	519.135	80.003	19.995	103.842	20.046	3.946	0.502
875.000	519.362	80.002	19.994	103.841	20.042	4.313	0.456
875.500	519.648	80.003	19.992	103.838	20.044	4.153	0.481
876.000	519.896	80.003	19.992	103.840	20.043	4.233	0.524
876.500	520.182	80.004	19.994	103.842	20.045	4.077	0.535
877.000	520.420	80.003	19.994	103.846	20.044	4.096	0.529
877.500	520.693	80.003	19.994	103.844	20.046	3.990	0.517
878.000	520.892	80.003	19.994	103.842	20.044	4.126	0.491
878.500	521.200	80.003	19.993	103.836	20.047	3.862	0.490
879.001	521.459	80.003	19.994	103.834	20.042	4.304	0.537
879.501	521.686	80.003	19.994	103.830	20.045	4.066	0.526
880.000	521.931	80.002	19.994	103.829	20.043	4.224	0.479
880.500	522.212	80.004	19.993	103.833	20.045	4.067	0.499
881.000	522.447	80.003	19.995	103.838	20.046	3.933	0.521
881.500	522.735	80.006	19.994	103.836	20.045	4.033	0.519
882.000	522.959	80.004	19.993	103.832	20.043	4.184	0.517
882.500	523.218	80.003	19.994	103.829	20.044	4.152	0.498
883.000	523.447	80.004	19.993	103.823	20.046	3.944	0.486
883.501	523.727	80.004	19.995	103.819	20.042	4.304	0.499
884.000	523.957	80.005	19.993	103.819	20.047	3.922	0.509
884.500	524.268	80.004	19.994	103.822	20.046	3.939	0.525
885.000	524.499	80.005	19.994	103.825	20.044	4.134	0.541
885.500	524.745	80.005	19.994	103.833	20.047	3.887	0.509
886.000	524.990	80.005	19.993	103.840	20.045	4.054	0.484
886.500	525.251	80.004	19.993	103.847	20.045	4.039	0.499
887.000	525.485	80.005	19.991	103.849	20.046	3.994	0.501
887.500	525.803	80.005	19.993	103.852	20.047	3.918	0.523
888.000	526.061	80.005	19.994	103.849	20.045	4.025	0.563
888.500	526.274	80.004	19.993	103.846	20.046	3.983	0.523
889.000	526.544	80.005	19.995	103.843	20.048	3.767	0.477
889.500	526.790	80.005	19.995	103.844	20.045	4.057	0.500
890.000	527.046	80.006	19.995	103.842	20.044	4.114	0.509
890.500	527.296	80.005	19.994	103.840	20.045	4.033	0.504
891.000	527.594	80.006	19.994	103.836	20.047	3.866	0.527
891.500	527.816	80.005	19.994	103.831	20.045	4.066	0.534
892.000	528.099	80.005	19.994	103.828	20.046	3.977	0.512
892.500	528.342	80.005	19.993	103.826	20.049	3.738	0.516
893.000	528.603	80.005	19.995	103.828	20.046	3.951	0.515
893.500	528.872	80.005	19.995	103.831	20.046	3.949	0.517
894.000	529.108	80.005	19.994	103.834	20.045	4.023	0.518
894.500	529.364	80.005	19.994	103.831	20.046	3.966	0.499
895.000	529.605	80.005	19.995	103.830	20.046	3.964	0.494
895.500	529.835	80.006	19.995	103.825	20.048	3.793	0.484
896.000	530.106	80.004	19.995	103.822	20.048	3.790	0.486
896.500	530.357	80.004	19.995	103.823	20.047	3.886	0.511
897.000	530.592	80.004	19.994	103.829	20.050	3.643	0.504
897.500	530.850	80.004	19.995	103.833	20.048	3.842	0.490
898.000	531.115	80.005	19.995	103.838	20.048	3.773	0.508
898.501	531.382	80.004	19.995	103.845	20.048	3.771	0.527
899.000	531.625	80.005	19.994	103.847	20.047	3.903	0.521
899.500	531.848	80.004	19.995	103.848	20.047	3.912	0.488
900.000	532.109	80.005	19.994	103.849	20.045	4.044	0.474
900.500	532.351	80.004	19.995	103.850	20.048	3.795	0.493
901.000	532.583	80.005	19.994	103.850	20.047	3.873	0.489
901.500	532.865	80.005	19.994	103.850	20.046	3.968	0.494
902.000	533.117	80.005	19.995	103.847	20.045	4.038	0.525
902.500	533.380	80.006	19.994	103.847	20.048	3.795	0.525
903.000	533.631	80.004	19.994	103.845	20.046	3.981	0.514
903.500	533.869	80.006	19.995	103.846	20.049	3.719	0.501
904.000	534.135	80.005	19.995	103.846	20.045	4.051	0.496
904.500	534.401	80.005	19.994	103.849	20.048	3.828	0.518
905.000	534.653	80.005	19.995	103.848	20.045	4.008	0.526
905.500	534.940	80.004	19.994	103.847	20.047	3.873	0.528
906.000	535.173	80.003	19.994	103.846	20.047	3.923	0.529
906.500	535.439	80.005	19.995	103.846	20.045	4.020	0.510
907.000	535.669	80.004	19.995	103.844	20.047	3.911	0.498
907.500	535.960	80.006	19.994	103.845	20.046	3.980	0.508
908.000	536.196	80.005	19.994	103.848	20.046	4.000	0.524
908.500	536.442	80.005	19.994	103.846	20.046	4.000	0.504
909.000	536.725	80.007	19.994	103.844	20.043	4.180	0.505
909.500	536.993	80.006	19.995	103.846	20.046	3.985	0.540
910.000	537.216	80.006	19.994	103.845	20.044	4.145	0.521
910.500	537.502	80.006	19.994	103.844	20.047	3.907	0.500
911.000	537.787	80.007	19.993	103.842	20.045	4.011	0.540
911.500	538.015	80.006	19.993	103.844	20.044	4.112	0.542
912.000	538.283	80.007	19.995	103.844	20.047	3.872	0.505
912.500	538.540	80.006	19.994	103.845	20.044	4.121	0.511
913.000	538.803	80.007	19.995	103.846	20.045	4.052	0.522
913.500	539.050	80.006	19.995	103.850	20.047	3.879	0.514
914.000	539.372	80.006	19.994	103.851	20.045	4.063	0.539
914.500	539.577	80.007	19.994	103.850	20.045	4.037	0.548
915.000	539.834	80.005	19.993	103.851	20.048	3.822	0.495
915.500	540.083	80.006	19.994	103.852	20.047	3.881	0.484
916.000	540.387	80.007	19.994	103.852	20.047	3.846	0.529
916.500	540.655	80.007	19.993	103.850	20.046	3.989	0.563
917.000	540.885	80.007	19.995	103.843	20.047	3.892	0.535
917.500	541.168	80.006	19.994	103.835	20.046	3.981	0.505
918.000	541.413	80.006	19.993	103.827	20.049	3.714	0.520
918.500	541.664	80.005	19.995	103.819	20.044	4.080	0.512
919.000	541.909	80.006	19.995	103.816	20.046	3.924	0.496
919.500	542.175	80.006	19.994	103.820	20.045	4.061	0.504
920.000	542.430	80.006	19.995	103.821	20.048	3.799	0.516
920.500	542.697	80.006	19.994	103.824	20.050	3.682	0.522
921.000	542.948	80.005	19.995	103.826	20.044	4.130	0.520
921.500	543.211	80.005	19.995	103.825	20.044	4.126	0.516
922.000	543.451	80.006	19.995	103.820	20.049	3.764	0.508
922.500	543.697	80.004	19.995	103.818	20.048	3.813	0.494
923.000	543.948	80.004	19.994	103.815	20.049	3.714	0.491
923.500	544.180	80.003	19.994	103.817	20.048	3.816	0.490
924.000	544.463	80.004	19.994	103.823	20.048	3.835	0.499
924.500	544.718	80.003	19.994	103.825	20.050	3.640	0.526
925.000	544.958	80.004	19.995	103.827	20.047	3.848	0.516
925.500	545.239	80.003	19.995	103.831	20.047	3.922	0.508
926.000	545.493	80.004	19.995	103.832	20.044	4.097	0.529
926.500	545.749	80.003	19.995	103.830	20.045	4.060	0.523
927.000	545.992	80.003	19.996	103.834	20.048	3.826	0.504
927.500	546.223	80.004	19.998	103.834	20.047	3.865	0.486
928.000	546.501	80.002	19.995	103.830	20.048	3.798	0.491
928.500	546.734	80.004	19.995	103.828	20.047	3.850	0.510
929.000	547.006	80.003	19.995	103.824	20.047	3.902	0.509
929.500	547.216	80.003	19.996	103.823	20.050	3.668	0.494
930.000	547.481	80.003	19.996	103.829	20.049	3.753	0.478
930.500	547.725	80.003	19.995	103.835	20.052	3.508	0.492
931.000	548.000	80.002	19.995	103.833	20.048	3.779	0.514
931.500	548.238	80.002	19.995	103.834	20.048	3.827	0.516
932.000	548.527	80.003	19.995	103.833	20.048	3.823	0.520
932.500	548.753	80.003	19.995	103.828	20.048	3.771	0.521
933.000	548.975	80.004	19.995	103.823	20.048	3.831	0.481
933.500	549.244	80.003	19.995	103.823	20.050	3.680	0.469
934.000	549.462	80.004	19.994	103.827	20.045	4.029	0.489
934.500	549.769	80.002	19.995	103.827	20.049	3.708	0.506
935.000	549.997	80.005	19.994	103.826	20.049	3.725	0.530
935.500	550.230	80.003	19.995	103.826	20.049	3.734	0.498
936.000	550.523	80.005	19.993	103.827	20.045	4.033	0.493
936.500	550.774	80.003	19.994	103.821	20.048	3.790	0.534
937.000	551.009	80.004	19.995	103.819	20.046	3.935	0.515
937.500	551.263	80.004	19.994	103.819	20.046	3.991	0.488
938.000	551.523	80.003	19.995	103.818	20.048	3.825	0.501
938.500	551.785	80.003	19.995	103.818	20.046	3.935	0.518
939.000	551.993	80.003	19.994	103.819	20.047	3.903	0.496
939.500	552.270	80.003	19.993	103.817	20.049	3.756	0.478
940.001	552.476	80.002	19.994	103.818	20.046	3.992	0.484
940.500	552.734	80.004	19.994	103.819	20.048	3.782	0.474
941.000	553.020	80.004	19.994	103.824	20.048	3.831	0.504
941.500	553.219	80.002	19.994	103.830	20.050	3.671	0.514
942.000	553.508	80.003	19.995	103.836	20.050	3.677	0.486
942.500	553.800	80.004	19.995	103.841	20.050	3.660	0.534
943.000	554.021	80.002	19.995	103.842	20.050	3.673	0.547
943.500	554.289	80.003	19.995	103.838	20.048	3.832	0.501
944.000	554.560	80.003	19.994	103.838	20.046	3.940	0.514
944.500	554.819	80.003	19.993	103.840	20.050	3.669	0.535
945.000	555.069	80.003	19.994	103.840	20.051	3.580	0.520
945.500	555.330	80.005	19.993	103.843	20.048	3.844	0.510
946.000	555.602	80.003	19.994	103.842	20.049	3.760	0.522
946.500	555.858	80.004	19.995	103.836	20.048	3.788	0.530
947.000	556.102	80.004	19.994	103.830	20.048	3.805	0.514
947.500	556.386	80.004	19.994	103.826	20.048	3.796	0.514
948.000	556.593	80.002	19.993	103.824	20.049	3.720	0.509
948.500	556.852	80.002	19.991	103.827	20.048	3.844	0.478
949.000	557.131	80.003	19.995	103.834	20.049	3.751	0.502
949.500	557.396	80.003	19.994	103.840	20.047	3.850	0.541
950.000	557.618	80.001	19.994	103.846	20.045	4.050	0.516
950.500	557.897	80.003	19.994	103.848	20.044	4.097	0.494
951.000	558.134	80.003	19.994	103.849	20.046	3.937	0.508
951.500	558.400	80.003	19.994	103.845	20.045	4.060	0.510
952.001	558.697	80.002	19.994	103.841	20.044	4.104	0.533
952.500	558.986	80.002	19.993	103.839	20.046	3.943	0.574
953.000	559.257	80.001	19.994	103.839	20.046	3.963	0.573
953.500	559.493	80.002	19.995	103.842	20.048	3.783	0.534
954.000	559.756	80.003	19.994	103.845	20.046	3.937	0.503
954.500	560.010	80.002	19.994	103.849	20.047	3.864	0.508
955.000	560.278	80.003	19.996	103.851	20.048	3.768	0.519
955.500	560.555	80.003	19.993	103.852	20.046	3.952	0.533
956.000	560.832	80.003	19.995	103.845	20.047	3.866	0.549
956.500	561.095	80.002	19.995	103.841	20.045	4.063	0.547
957.000	561.379	80.003	19.994	103.835	20.046	3.937	0.544
957.500	561.616	80.001	19.995	103.828	20.046	3.935	0.534
958.000	561.901	80.003	19.995	103.827	20.045	4.046	0.522
958.500	562.150	80.003	19.995	103.829	20.046	3.983	0.528
959.000	562.422	80.003	19.994	103.831	20.044	4.131	0.527
959.500	562.668	80.002	19.993	103.831	20.047	3.855	0.519
960.000	562.959	80.002	19.994	103.829	20.047	3.892	0.527
960.500	563.216	80.002	19.994	103.824	20.049	3.744	0.542
961.000	563.460	80.004	19.994	103.820	20.047	3.913	0.524
961.500	563.757	80.003	19.994	103.819	20.046	3.978	0.521
962.000	564.022	80.002	19.994	103.819	20.049	3.738	0.552
962.500	564.238	80.003	19.994	103.820	20.050	3.660	0.521
963.000	564.494	80.003	19.995	103.821	20.045	4.007	0.476
963.500	564.738	80.003	19.994	103.822	20.047	3.920	0.486
964.000	565.045	80.004	19.994	103.821	20.048	3.773	0.526
964.500	565.296	80.003	19.994	103.823	20.048	3.768	0.554
965.000	565.535	80.003	19.994	103.828	20.047	3.859	0.524
965.500	565.829	80.004	19.994	103.829	20.046	3.959	0.512
966.000	566.097	80.004	19.995	103.829	20.046	3.976	0.547
966.500	566.350	80.003	19.994	103.830	20.049	3.712	0.541
967.000	566.666	80.005	19.994	103.829	20.047	3.883	0.545
967.500	566.926	80.005	19.994	103.829	20.048	3.829	0.573
968.000	567.183	80.005	19.993	103.834	20.049	3.714	0.547
968.500	567.456	80.006	19.994	103.838	20.048	3.816	0.523
969.000	567.727	80.005	19.994	103.842	20.051	3.562	0.537
969.500	567.977	80.004	19.993	103.842	20.050	3.657	0.533
970.000	568.243	80.006	19.994	103.839	20.049	3.700	0.518
970.500	568.506	80.006	19.994	103.837	20.048	3.824	0.522
971.000	568.763	80.005	19.995	103.832	20.047	3.867	0.524
971.500	569.023	80.007	19.994	103.826	20.048	3.815	0.519
972.001	569.265	80.005	19.994	103.825	20.050	3.679	0.509
972.500	569.541	80.005	19.994	103.827	20.046	3.985	0.510
973.000	569.818	80.005	19.994	103.827	20.049	3.711	0.536
973.500	570.100	80.005	19.994	103.833	20.046	3.950	0.556
974.000	570.341	80.006	19.994	103.833	20.050	3.675	0.541
974.500	570.597	80.006	19.994	103.835	20.049	3.729	0.510
975.000	570.873	80.006	19.994	103.835	20.051	3.579	0.514
975.500	571.146	80.006	19.994	103.833	20.049	3.712	0.540
976.000	571.418	80.006	19.993	103.828	20.049	3.738	0.547
976.500	571.681	80.005	19.994	103.831	20.045	4.043	0.541
977.000	571.941	80.006	19.994	103.828	20.049	3.764	0.529
977.500	572.216	80.005	19.993	103.826	20.048	3.807	0.529
978.000	572.465	80.006	19.994	103.826	20.047	3.849	0.529
978.500	572.771	80.005	19.993	103.827	20.045	4.050	0.539
979.000	573.002	80.006	19.994	103.823	20.044	4.111	0.546
979.500	573.257	80.005	19.994	103.822	20.045	4.015	0.511
980.000	573.549	80.006	19.994	103.818	20.044	4.132	0.516
980.500	573.831	80.005	19.994	103.815	20.047	3.846	0.560
981.000	574.114	80.004	19.993	103.816	20.043	4.158	0.570
981.500	574.368	80.005	19.994	103.816	20.041	4.336	0.551
982.000	574.617	80.004	19.993	103.816	20.044	4.112	0.520
982.500	574.899	80.006	19.994	103.817	20.043	4.180	0.517
983.000	575.209	80.005	19.994	103.817	20.046	3.969	0.562
983.500	575.429	80.005	19.995	103.818	20.045	4.041	0.561
984.000	575.716	80.005	19.994	103.821	20.046	3.974	0.518
984.500	575.980	80.004	19.994	103.822	20.046	3.956	0.529
985.000	576.218	80.005	19.994	103.827	20.046	3.980	0.527
985.500	576.495	80.004	19.994	103.829	20.048	3.807	0.508
986.000	576.748	80.006	19.994	103.827	20.050	3.677	0.522
986.500	577.013	80.004	19.993	103.824	20.047	3.872	0.524
987.000	577.290	80.006	19.994	103.830	20.045	4.017	0.531
987.500	577.540	80.005	19.995	103.827	20.052	3.514	0.535
988.000	577.793	80.005	19.994	103.829	20.046	3.948	0.515
988.500	578.056	80.005	19.995	103.835	20.047	3.878	0.510
989.000	578.329	80.005	19.994	103.835	20.049	3.746	0.526
989.500	578.594	80.004	19.993	103.830	20.050	3.627	0.537
990.000	578.850	80.005	19.994	103.827	20.052	3.512	0.529
990.500	579.072	80.004	19.994	103.822	20.046	3.982	0.499
991.000	579.352	80.005	19.994	103.817	20.047	3.896	0.490
991.500	579.614	80.006	19.993	103.817	20.046	3.926	0.522
992.000	579.873	80.006	19.994	103.816	20.049	3.735	0.532
992.500	580.091	80.006	19.994	103.817	20.050	3.616	0.499
993.000	580.351	80.006	19.995	103.819	20.048	3.841	0.477
993.500	580.613	80.006	19.995	103.822	20.046	3.971	0.500
994.000	580.900	80.006	19.994	103.819	20.049	3.720	0.536
994.500	581.137	80.006	19.994	103.819	20.052	3.507	0.537
995.000	581.377	80.005	19.995	103.817	20.049	3.748	0.500
995.500	581.661	80.006	19.994	103.816	20.048	3.841	0.500
996.001	581.928	80.005	19.994	103.812	20.050	3.679	0.538
996.501	582.146	80.006	19.994	103.813	20.049	3.722	0.518
997.000	582.439	80.006	19.995	103.814	20.049	3.735	0.498
997.500	582.681	80.005	19.994	103.814	20.049	3.757	0.523
998.000	582.968	80.007	19.994	103.814	20.048	3.807	0.531
998.500	583.176	80.006	19.993	103.815	20.048	3.790	0.512
999.000	583.457	80.006	19.994	103.815	20.047	3.879	0.492
999.500	583.720	80.004	19.994	103.813	20.047	3.898	0.516
1000.000	583.956	80.005	19.994	103.814	20.049	3.753	0.521
1000.500	584.226	80.005	19.994	103.814	20.050	3.632	0.502
1001.000	584.469	80.005	19.994	103.815	20.050	3.649	0.509
1001.500	584.740	80.005	19.994	103.815	20.050	3.668	0.514
1002.000	585.004	80.005	19.994	103.818	20.049	3.703	0.525
1002.500	585.233	80.005	19.993	103.818	20.045	4.063	0.514
1003.000	585.490	80.005	19.994	103.818	20.050	3.631	0.489
1003.500	585.739	80.005	19.994	103.817	20.049	3.718	0.496
1004.000	586.008	80.005	19.995	103.817	20.048	3.785	0.512
1004.500	586.230	80.005	19.994	103.815	20.045	4.015	0.504
1005.000	586.490	80.003	19.993	103.814	20.047	3.887	0.486
1005.500	586.730	80.004	19.994	103.814	20.047	3.906	0.491
1006.000	586.982	80.004	19.994	103.815	20.047	3.900	0.496
1006.500	587.266	80.003	19.994	103.814	20.045	4.002	0.514
1007.000	587.484	80.004	19.995	103.814	20.047	3.876	0.519
1007.500	587.748	80.002	19.995	103.817	20.047	3.861	0.492
1008.000	588.007	80.004	19.995	103.819	20.047	3.909	0.502
1008.500	588.224	80.003	19.992	103.821	20.049	3.755	0.499
1009.000	588.549	80.004	19.996	103.823	20.049	3.742	0.510
1009.500	588.752	80.002	19.996	103.829	20.048	3.790	0.535
1010.000	589.038	80.002	19.995	103.830	20.049	3.742	0.508
1010.500	589.269	80.002	19.995	103.834	20.049	3.716	0.502
1011.000	589.489	80.003	19.995	103.837	20.051	3.592	0.484
1011.500	589.777	80.003	19.993	103.839	20.050	3.657	0.480
1012.000	590.027	80.004	19.995	103.834	20.048	3.783	0.523
1012.500	590.262	80.003	19.995	103.832	20.051	3.581	0.511
1013.000	590.532	80.003	19.995	103.829	20.048	3.787	0.495
1013.500	590.768	80.004	19.994	103.825	20.050	3.659	0.506
1014.000	591.071	80.002	19.995	103.822	20.047	3.887	0.523
1014.500	591.319	80.003	19.995	103.821	20.046	3.965	0.545
1015.000	591.558	80.004	19.994	103.820	20.050	3.681	0.519
1015.500	591.800	80.003	19.994	103.817	20.048	3.787	0.484
1016.000	592.041	80.003	19.995	103.816	20.047	3.908	0.482
1016.500	592.284	80.003	19.995	103.818	20.048	3.776	0.484
1017.000	592.524	80.003	19.995	103.817	20.052	3.460	0.484
1017.500	592.808	80.003	19.994	103.817	20.049	3.759	0.504
1018.000	593.068	80.002	19.995	103.817	20.047	3.863	0.534
1018.500	593.302	80.002	19.995	103.818	20.051	3.596	0.519
1019.000	593.565	80.003	19.995	103.818	20.050	3.659	0.496
1019.500	593.784	80.002	19.995	103.817	20.048	3.841	0.489
1020.000	594.102	80.003	19.995	103.820	20.045	4.023	0.509
1020.500	594.313	80.003	19.994	103.821	20.047	3.872	0.533
1021.000	594.589	80.003	19.996	103.821	20.045	4.038	0.508
1021.500	594.854	80.002	19.995	103.821	20.049	3.757	0.514
1022.000	595.113	80.005	19.995	103.824	20.049	3.746	0.532
1022.500	595.343	80.004	19.995	103.821	20.048	3.822	0.506
1023.000	595.644	80.004	19.995	103.819	20.050	3.618	0.510
1023.501	595.868	80.003	19.996	103.819	20.050	3.671	0.529
1024.000	596.131	80.003	19.996	103.817	20.051	3.586	0.506
1024.500	596.393	80.004	19.994	103.816	20.047	3.896	0.506
1025.000	596.654	80.003	19.995	103.817	20.047	3.885	0.524
1025.500	596.902	80.004	19.995	103.817	20.047	3.898	0.516
1026.000	597.151	80.003	19.994	103.816	20.048	3.835	0.503
1026.500	597.414	80.003	19.995	103.815	20.050	3.612	0.505
1027.000	597.624	80.004	19.995	103.812	20.047	3.874	0.492
1027.500	597.910	80.003	19.995	103.812	20.050	3.664	0.484
1028.000	598.122	80.003	19.996	103.813	20.048	3.777	0.497
1028.500	598.407	80.003	19.995	103.812	20.047	3.878	0.497
1029.000	598.644	80.004	19.994	103.813	20.048	3.785	0.510
1029.500	598.912	80.004	19.994	103.817	20.048	3.839	0.514
1030.000	599.153	80.003	19.995	103.817	20.046	3.943	0.507
1030.501	599.426	80.004	19.994	103.815	20.048	3.798	0.511
1031.000	599.656	80.005	19.995	103.815	20.048	3.783	0.508
1031.500	599.900	80.003	19.995	103.815	20.049	3.744	0.488
1032.000	600.192	80.004	19.995	103.811	20.048	3.844	0.505
1032.500	600.443	80.004	19.994	103.810	20.049	3.731	0.540
1033.000	600.707	80.004	19.995	103.817	20.050	3.681	0.529
1033.500	600.958	80.004	19.994	103.820	20.051	3.558	0.515
1034.000	601.205	80.004	19.993	103.825	20.048	3.837	0.507
1034.500	601.479	80.005	19.994	103.828	20.052	3.514	0.510
1035.000	601.723	80.004	19.993	103.831	20.049	3.699	0.519
1035.500	602.001	80.003	19.996	103.826	20.050	3.647	0.520
1036.000	602.283	80.004	19.993	103.823	20.051	3.568	0.541
1036.500	602.526	80.003	19.994	103.819	20.050	3.640	0.543
1037.000	602.798	80.003	19.994	103.816	20.053	3.423	0.520
1037.500	603.053	80.004	19.994	103.816	20.049	3.699	0.520
1038.000	603.291	80.003	19.994	103.822	20.049	3.735	0.510
1038.500	603.545	80.003	19.995	103.824	20.051	3.590	0.492
1039.000	603.824	80.003	19.994	103.823	20.049	3.688	0.513
1039.500	604.100	80.003	19.994	103.823	20.052	3.497	0.545
1040.000	604.333	80.003	19.994	103.820	20.049	3.701	0.532
1040.500	604.605	80.004	19.994	103.815	20.052	3.508	0.507
1041.000	604.882	80.003	19.994	103.814	20.050	3.634	0.527
1041.500	605.140	80.004	19.994	103.815	20.049	3.733	0.542
1042.000	605.412	80.004	19.994	103.817	20.048	3.831	0.533
1042.500	605.648	80.004	19.994	103.818	20.052	3.471	0.519
1043.000	605.939	80.004	19.995	103.820	20.050	3.653	0.517
1043.500	606.220	80.003	19.993	103.822	20.048	3.804	0.550
1044.000	606.464	80.004	19.995	103.826	20.049	3.740	0.549
1044.500	606.736	80.003	19.994	103.828	20.049	3.748	0.520
1045.000	607.008	80.005	19.993	103.828	20.050	3.683	0.530
1045.500	607.299	80.003	19.993	103.828	20.049	3.744	0.554
1046.000	607.519	80.004	19.995	103.829	20.049	3.733	0.537
1046.500	607.830	80.003	19.994	103.828	20.046	3.998	0.521
1047.000	608.112	80.005	19.994	103.824	20.048	3.813	0.562
1047.500	608.378	80.004	19.994	103.823	20.050	3.629	0.571
1048.000	608.631	80.005	19.994	103.826	20.050	3.679	0.534
1048.501	608.899	80.005	19.994	103.823	20.050	3.670	0.520
1049.001	609.170	80.005	19.995	103.820	20.048	3.824	0.530
1049.501	609.456	80.005	19.994	103.820	20.051	3.579	0.548
1050.000	609.720	80.004	19.994	103.819	20.050	3.672	0.554
1050.500	609.974	80.006	19.994	103.821	20.051	3.607	0.534
1051.000	610.259	80.004	19.994	103.824	20.049	3.694	0.528
1051.500	610.504	80.005	19.994	103.826	20.050	3.666	0.534
1052.000	610.791	80.006	19.994	103.827	20.050	3.677	0.531
1052.500	611.036	80.006	19.994	103.826	20.049	3.763	0.532
1053.000	611.332	80.006	19.994	103.820	20.050	3.668	0.537
1053.500	611.615	80.006	19.994	103.816	20.050	3.675	0.560
1054.000	611.855	80.006	19.994	103.814	20.050	3.633	0.551
1054.500	612.182	80.005	19.995	103.814	20.049	3.727	0.545
1055.000	612.427	80.006	19.994	103.819	20.052	3.495	0.569
1055.500	612.680	80.006	19.994	103.822	20.052	3.501	0.535
1056.000	612.963	80.006	19.994	103.827	20.049	3.731	0.517
1056.500	613.256	80.004	19.994	103.830	20.051	3.579	0.556
1057.000	613.510	80.006	19.995	103.828	20.054	3.354	0.561
1057.500	613.778	80.005	19.994	103.826	20.052	3.458	0.535
1058.000	614.047	80.006	19.994	103.822	20.054	3.334	0.530
1058.500	614.324	80.005	19.994	103.817	20.052	3.510	0.541
1059.000	614.592	80.005	19.994	103.814	20.054	3.326	0.546
1059.500	614.866	80.005	19.994	103.814	20.054	3.345	0.543
1060.000	615.128	80.004	19.994	103.812	20.055	3.219	0.539
1060.500	615.395	80.004	19.995	103.812	20.053	3.430	0.533
1061.000	615.668	80.005	19.994	103.813	20.053	3.434	0.534
1061.500	615.948	80.004	19.994	103.814	20.053	3.425	0.546
1062.000	616.203	80.005	19.994	103.814	20.055	3.291	0.544
1062.500	616.482	80.005	19.995	103.815	20.054	3.321	0.535
1063.000	616.756	80.005	19.993	103.816	20.054	3.345	0.543
1063.500	617.020	80.004	19.994	103.816	20.054	3.347	0.545
1064.000	617.310	80.005	19.995	103.817	20.051	3.603	0.546
1064.500	617.547	80.004	19.994	103.822	20.050	3.648	0.541
1065.000	617.792	80.005	19.994	103.822	20.054	3.338	0.505
1065.500	618.055	80.006	19.993	103.823	20.054	3.351	0.495
1066.000	618.378	80.006	19.995	103.824	20.051	3.562	0.547
1066.500	618.607	80.004	19.994	103.823	20.053	3.397	0.569
1067.000	618.887	80.006	19.993	103.818	20.049	3.687	0.530
1067.500	619.136	80.003	19.994	103.820	20.053	3.425	0.519
1068.000	619.409	80.005	19.993	103.820	20.051	3.568	0.526
1068.500	619.674	80.003	19.993	103.821	20.055	3.293	0.530
1069.000	619.942	80.006	19.995	103.821	20.053	3.421	0.536
1069.500	620.241	80.005	19.994	103.821	20.053	3.447	0.550
1070.000	620.485	80.005	19.994	103.819	20.055	3.273	0.554
1070.500	620.730	80.005	19.994	103.818	20.051	3.549	0.516
1071.000	621.035	80.006	19.993	103.818	20.049	3.761	0.520
1071.500	621.313	80.006	19.994	103.818	20.050	3.657	0.567
1072.000	621.552	80.007	19.993	103.819	20.050	3.659	0.549
1072.500	621.816	80.004	19.993	103.819	20.052	3.505	0.510
1073.000	622.079	80.006	19.994	103.821	20.048	3.768	0.515
1073.500	622.335	80.006	19.994	103.821	20.047	3.885	0.524
1074.000	622.609	80.007	19.994	103.821	20.049	3.709	0.525
1074.500	622.858	80.005	19.994	103.820	20.050	3.681	0.526
1075.000	623.115	80.006	19.993	103.818	20.052	3.484	0.514
1075.500	623.411	80.007	19.994	103.817	20.051	3.570	0.529
1076.000	623.634	80.006	19.993	103.817	20.049	3.739	0.536
1076.500	623.923	80.006	19.993	103.815	20.051	3.575	0.516
1077.000	624.192	80.006	19.993	103.814	20.051	3.551	0.535
1077.500	624.443	80.007	19.993	103.814	20.050	3.622	0.539
1078.000	624.695	80.006	19.994	103.815	20.052	3.464	0.511
1078.500	624.942	80.007	19.994	103.815	20.052	3.525	0.501
1079.000	625.224	80.006	19.994	103.816	20.053	3.375	0.514
1079.500	625.489	80.006	19.994	103.818	20.052	3.468	0.538
1080.000	625.713	80.006	19.993	103.818	20.055	3.260	0.518
1080.501	625.969	80.005	19.993	103.816	20.053	3.408	0.484
1081.000	626.227	80.006	19.994	103.816	20.051	3.605	0.497
1081.500	626.473	80.005	19.994	103.816	20.053	3.414	0.509
1082.000	626.736	80.005	19.994	103.816	20.054	3.371	0.507
1082.500	626.995	80.005	19.994	103.815	20.053	3.429	0.516
1083.000	627.270	80.005	19.993	103.814	20.055	3.258	0.528
1083.500	627.546	80.005	19.994	103.814	20.050	3.646	0.542
1084.000	627.770	80.004	19.993	103.814	20.049	3.687	0.526
1084.500	628.003	80.004	19.993	103.813	20.050	3.611	0.478
1085.000	628.263	80.005	19.994	103.814	20.048	3.791	0.474
1085.500	628.487	80.004	19.994	103.815	20.053	3.440	0.488
1086.000	628.742	80.005	19.993	103.815	20.052	3.501	0.482
1086.500	629.022	80.003	19.994	103.815	20.051	3.594	0.507
1087.000	629.258	80.002	19.993	103.814	20.055	3.249	0.526
1087.500	629.502	80.004	19.994	103.814	20.052	3.464	0.498
1088.000	629.767	80.002	19.993	103.813	20.053	3.434	0.494
1088.500	630.007	80.004	19.994	103.813	20.051	3.566	0.507
1089.000	630.284	80.003	19.996	103.813	20.050	3.646	0.511
1089.500	630.520	80.004	19.994	103.813	20.051	3.546	0.515
1090.000	630.824	80.004	19.994	103.813	20.049	3.711	0.526
1090.500	631.032	80.004	19.994	103.813	20.054	3.312	0.526
1091.000	631.307	80.004	19.995	103.813	20.056	3.143	0.498
1091.500	631.542	80.003	19.995	103.813	20.055	3.226	0.497
1092.000	631.818	80.004	19.995	103.812	20.051	3.562	0.510
1092.500	632.040	80.003	19.994	103.811	20.054	3.308	0.504
1093.000	632.314	80.003	19.995	103.811	20.055	3.236	0.497
1093.500	632.544	80.004	19.995	103.811	20.055	3.221	0.500
1094.000	632.811	80.003	19.995	103.811	20.054	3.327	0.501
1094.500	633.065	80.003	19.994	103.811	20.053	3.403	0.509
1095.000	633.294	80.003	19.994	103.812	20.053	3.386	0.502
1095.500	633.547	80.003	19.995	103.813	20.052	3.471	0.482
1096.000	633.826	80.003	19.995	103.813	20.052	3.488	0.507
1096.500	634.073	80.003	19.994	103.812	20.054	3.328	0.529
1097.000	634.327	80.004	19.994	103.812	20.052	3.501	0.513
1097.500	634.583	80.004	19.995	103.812	20.054	3.317	0.506
1098.000	634.833	80.003	19.994	103.812	20.051	3.551	0.508
1098.500	635.062	80.004	19.995	103.812	20.052	3.477	0.492
1099.000	635.330	80.004	19.994	103.812	20.053	3.444	0.488
1099.500	635.566	80.004	19.995	103.813	20.052	3.509	0.501
1100.000	635.821	80.005	19.994	103.813	20.056	3.191	0.497
1100.500	636.094	80.006	19.993	103.814	20.057	3.106	0.509
1101.000	636.308	80.004	19.995	103.817	20.056	3.208	0.508
1101.500	636.571	80.005	19.995	103.819	20.058	2.987	0.482
1102.000	636.852	80.004	19.994	103.819	20.058	3.031	0.511
1102.500	637.049	80.004	19.995	103.820	20.059	2.955	0.511
1103.000	637.310	80.004	19.995	103.821	20.055	3.256	0.468
1103.500	637.545	80.005	19.995	103.816	20.057	3.082	0.477
1104.001	637.816	80.004	19.995	103.815	20.057	3.130	0.501
1104.500	638.068	80.004	19.995	103.815	20.057	3.078	0.515
1105.000	638.309	80.006	19.995	103.813	20.056	3.184	0.508
1105.500	638.525	80.005	19.995	103.813	20.057	3.117	0.475
1106.000	638.762	80.005	19.994	103.813	20.059	2.974	0.455
1106.500	639.058	80.004	19.994	103.814	20.053	3.379	0.493
1107.000	639.285	80.005	19.994	103.814	20.054	3.358	0.529
1107.500	639.521	80.005	19.995	103.814	20.055	3.267	0.493
1108.000	639.771	80.004	19.995	103.813	20.054	3.362	0.474
1108.500	640.035	80.006	19.995	103.811	20.054	3.373	0.500
1109.000	640.281	80.004	19.994	103.811	20.056	3.156	0.512
1109.500	640.534	80.005	19.996	103.810	20.053	3.401	0.504
1110.000	640.761	80.004	19.994	103.809	20.055	3.284	0.489
1110.500	640.991	80.004	19.995	103.809	20.053	3.427	0.468
1111.000	641.229	80.004	19.996	103.810	20.052	3.484	0.463
1111.500	641.482	80.003	19.995	103.811	20.052	3.499	0.479
1112.000	641.721	80.004	19.996	103.812	20.053	3.384	0.491
1112.500	641.988	80.004	19.996	103.813	20.055	3.291	0.499
1113.000	642.236	80.003	19.995	103.813	20.053	3.388	0.511
1113.500	642.523	80.005	19.995	103.813	20.053	3.410	0.526
1114.000	642.764	80.004	19.996	103.812	20.052	3.484	0.532
1114.500	643.008	80.005	19.996	103.811	20.053	3.386	0.507
1115.000	643.247	80.004	19.996	103.810	20.055	3.228	0.484
1115.500	643.515	80.004	19.995	103.811	20.054	3.317	0.494
1116.000	643.774	80.003	19.996	103.810	20.055	3.288	0.517
1116.500	644.029	80.004	19.996	103.811	20.052	3.481	0.521
1117.000	644.269	80.003	19.996	103.810	20.053	3.449	0.505
1117.500	644.475	80.003	19.996	103.810	20.053	3.375	0.471
1118.000	644.755	80.004	19.996	103.810	20.053	3.375	0.466
1118.500	644.989	80.003	19.996	103.810	20.052	3.481	0.499
1119.000	645.239	80.003	19.997	103.811	20.051	3.533	0.499
1119.500	645.482	80.003	19.996	103.812	20.052	3.486	0.489
1120.000	645.731	80.004	19.996	103.812	20.052	3.527	0.492
1120.500	645.933	80.003	19.996	103.813	20.053	3.445	0.471
1121.000	646.232	80.002	19.997	103.813	20.051	3.572	0.476
1121.500	646.486	80.003	19.995	103.812	20.050	3.614	0.528
1122.000	646.721	80.003	19.996	103.812	20.054	3.325	0.521
1122.500	646.999	80.003	19.996	103.815	20.053	3.447	0.501
1123.000	647.254	80.003	19.996	103.814	20.051	3.585	0.523
1123.500	647.501	80.004	19.996	103.814	20.050	3.683	0.517
1124.000	647.746	80.003	19.995	103.815	20.054	3.367	0.496
1124.500	647.979	80.004	19.995	103.816	20.053	3.403	0.485
1125.000	648.225	80.003	19.995	103.813	20.051	3.575	0.479
1125.500	648.514	80.004	19.995	103.813	20.052	3.488	0.507
1126.000	648.759	80.002	19.995	103.811	20.049	3.709	0.534
1126.500	649.002	80.003	19.995	103.809	20.049	3.726	0.511
1127.000	649.267	80.003	19.993	103.808	20.051	3.533	0.498
1127.500	649.527	80.003	19.994	103.809	20.054	3.315	0.516
1128.000	649.753	80.004	19.993	103.809	20.049	3.750	0.506
1128.500	650.042	80.002	19.992	103.811	20.052	3.462	0.501
1129.000	650.300	80.003	19.996	103.813	20.051	3.555	0.532
1129.500	650.575	80.004	19.994	103.815	20.050	3.622	0.540
1130.000	650.827	80.005	19.996	103.815	20.051	3.542	0.529
1130.500	651.074	80.004	19.994	103.815	20.051	3.557	0.513
1131.000	651.322	80.004	19.995	103.816	20.052	3.512	0.497
1131.500	651.551	80.005	19.994	103.816	20.049	3.724	0.486
1132.000	651.820	80.005	19.995	103.815	20.050	3.679	0.488
1132.500	652.117	80.006	19.994	103.814	20.049	3.716	0.532
1133.000	652.280	80.007	19.994	103.814	20.050	3.627	0.513
1133.500	652.601	80.007	19.994	103.814	20.050	3.616	0.472
1134.000	652.831	80.007	19.994	103.814	20.049	3.700	0.518
1134.500	653.096	80.005	19.994	103.814	20.050	3.624	0.523
1135.000	653.349	80.007	19.993	103.815	20.051	3.557	0.507
1135.500	653.561	80.005	19.993	103.815	20.051	3.583	0.492
1136.000	653.856	80.005	19.993	103.815	20.051	3.546	0.486
1136.500	654.128	80.006	19.993	103.815	20.050	3.629	0.537
1137.000	654.390	80.006	19.994	103.815	20.052	3.494	0.551
1137.500	654.635	80.005	19.993	103.815	20.050	3.665	0.521
1138.001	654.880	80.005	19.995	103.815	20.053	3.451	0.499
1138.500	655.127	80.006	19.994	103.815	20.053	3.444	0.491
1139.000	655.388	80.005	19.994	103.815	20.049	3.687	0.500
1139.500	655.651	80.006	19.995	103.815	20.046	3.934	0.516
1140.000	655.912	80.004	19.994	103.815	20.052	3.488	0.525
1140.500	656.186	80.006	19.993	103.815	20.053	3.401	0.530
1141.000	656.446	80.005	19.994	103.815	20.051	3.564	0.534
1141.500	656.707	80.006	19.994	103.815	20.050	3.640	0.527
1142.000	656.954	80.004	19.993	103.815	20.050	3.620	0.515
1142.500	657.206	80.004	19.995	103.815	20.051	3.555	0.504
1143.000	657.488	80.004	19.994	103.815	20.048	3.843	0.516
1143.501	657.706	80.005	19.994	103.815	20.050	3.633	0.517
1144.000	657.985	80.006	19.995	103.814	20.052	3.464	0.499
1144.500	658.170	80.004	19.993	103.814	20.049	3.716	0.481
1145.000	658.433	80.005	19.994	103.814	20.051	3.546	0.456
1145.500	658.732	80.005	19.995	103.814	20.050	3.668	0.505
1146.000	658.964	80.005	19.993	103.813	20.054	3.334	0.547
1146.500	659.198	80.005	19.994	103.812	20.052	3.499	0.498
1147.000	659.452	80.004	19.994	103.813	20.053	3.436	0.476
1147.500	659.717	80.004	19.994	103.810	20.053	3.425	0.503
1148.000	659.990	80.005	19.993	103.803	20.049	3.692	0.528
1148.500	660.237	80.005	19.993	103.796	20.050	3.655	0.529
1149.000	660.513	80.004	19.994	103.797	20.055	3.262	0.522
1149.500	660.737	80.005	19.994	103.798	20.051	3.546	0.512
1150.000	661.001	80.005	19.994	103.801	20.050	3.631	0.494
1150.500	661.240	80.004	19.995	103.808	20.053	3.386	0.496
1151.000	661.488	80.005	19.995	103.814	20.050	3.640	0.495
1151.500	661.730	80.004	19.994	103.814	20.049	3.707	0.489
1152.000	662.000	80.006	19.994	103.814	20.052	3.525	0.501
1152.500	662.230	80.006	19.994	103.812	20.052	3.529	0.505
1153.000	662.490	80.006	19.994	103.812	20.050	3.639	0.495
1153.500	662.742	80.006	19.993	103.814	20.050	3.637	0.501
1154.000	662.985	80.006	19.995	103.814	20.050	3.659	0.504
1154.500	663.270	80.007	19.994	103.814	20.047	3.856	0.512
1155.000	663.478	80.006	19.994	103.815	20.046	3.973	0.511
1155.500	663.737	80.007	19.994	103.815	20.047	3.906	0.480
1156.000	664.005	80.006	19.994	103.814	20.048	3.774	0.497
1156.500	664.248	80.007	19.994	103.814	20.048	3.778	0.519
1157.000	664.469	80.007	19.994	103.814	20.048	3.815	0.488
1157.500	664.749	80.007	19.993	103.814	20.050	3.668	0.483
1158.000	665.004	80.006	19.992	103.813	20.051	3.607	0.518
1158.500	665.225	80.007	19.994	103.812	20.051	3.559	0.505
1159.000	665.472	80.009	19.994	103.811	20.048	3.824	0.472
1159.500	665.713	80.007	19.993	103.811	20.050	3.642	0.478
1160.000	665.955	80.007	19.993	103.811	20.050	3.661	0.486
1160.500	666.311	80.008	19.993	103.811	20.051	3.579	0.541
1161.000	666.515	80.007	19.994	103.811	20.054	3.343	0.579
1161.500	666.729	80.007	19.993	103.812	20.050	3.672	0.489
1162.000	667.030	80.007	19.994	103.812	20.049	3.694	0.466
1162.500	667.283	80.006	19.993	103.811	20.045	4.017	0.534
1163.000	667.528	80.007	19.993	103.811	20.047	3.895	0.525
1163.500	667.812	80.008	19.994	103.809	20.053	3.432	0.513
1164.000	668.029	80.007	19.993	103.806	20.049	3.731	0.515
1164.500	668.292	80.006	19.993	103.803	20.052	3.518	0.491
1165.000	668.534	80.007	19.994	103.803	20.048	3.796	0.493
1165.500	668.754	80.007	19.994	103.803	20.046	3.989	0.483
1166.000	669.021	80.006	19.993	103.805	20.047	3.846	0.474
1166.500	669.281	80.006	19.994	103.808	20.051	3.557	0.507
1167.000	669.585	80.007	19.993	103.809	20.051	3.546	0.546
1167.500	669.779	80.005	19.994	103.807	20.050	3.635	0.531
1168.000	670.085	80.006	19.994	103.808	20.049	3.704	0.499
1168.500	670.303	80.005	19.994	103.808	20.051	3.600	0.512
1169.000	670.556	80.005	19.993	103.807	20.048	3.783	0.498
1169.500	670.836	80.004	19.993	103.808	20.052	3.486	0.502
1170.000	671.068	80.006	19.994	103.810	20.051	3.538	0.522
1170.500	671.347	80.003	19.993	103.808	20.051	3.603	0.512
1171.000	671.577	80.004	19.994	103.808	20.051	3.579	0.510
1171.500	671.835	80.006	19.994	103.810	20.049	3.700	0.498
1172.000	672.089	80.005	19.994	103.811	20.052	3.520	0.500
1172.500	672.389	80.006	19.994	103.811	20.053	3.451	0.533
1173.000	672.633	80.005	19.995	103.812	20.051	3.546	0.549
1173.500	672.888	80.005	19.994	103.812	20.048	3.785	0.522
1174.000	673.135	80.006	19.995	103.812	20.051	3.538	0.500
1174.500	673.418	80.004	19.994	103.812	20.051	3.553	0.516
1175.000	673.701	80.005	19.995	103.812	20.051	3.549	0.548
1175.500	673.904	80.004	19.995	103.813	20.049	3.709	0.526
1176.000	674.203	80.005	19.995	103.813	20.050	3.674	0.494
1176.500	674.452	80.005	19.994	103.814	20.049	3.715	0.525
1177.000	674.703	80.004	19.995	103.814	20.052	3.505	0.524
1177.500	674.977	80.005	19.994	103.807	20.050	3.616	0.512
1178.000	675.203	80.004	19.995	103.805	20.052	3.477	0.512
1178.500	675.488	80.004	19.995	103.805	20.051	3.551	0.505
1179.000	675.724	80.004	19.995	103.805	20.050	3.616	0.516
1179.501	675.966	80.005	19.994	103.805	20.052	3.475	0.500
1180.001	676.272	80.005	19.995	103.811	20.051	3.531	0.514
1180.500	676.524	80.006	19.996	103.810	20.052	3.460	0.553
1181.000	676.774	80.004	19.996	103.810	20.055	3.286	0.530
1181.500	677.084	80.005	19.996	103.809	20.054	3.312	0.531
1182.000	677.337	80.006	19.996	103.810	20.053	3.395	0.562
1182.500	677.576	80.004	19.996	103.810	20.050	3.640	0.527
1183.000	677.845	80.004	19.996	103.812	20.052	3.503	0.500
1183.500	678.095	80.004	19.995	103.812	20.053	3.438	0.514
1184.000	678.361	80.003	19.995	103.811	20.051	3.544	0.517
1184.500	678.621	80.004	19.995	103.811	20.054	3.358	0.521
1185.000	678.852	80.005	19.995	103.811	20.053	3.403	0.509
1185.500	679.111	80.005	19.995	103.812	20.050	3.620	0.490
1186.000	679.358	80.004	19.996	103.812	20.053	3.440	0.498
1186.500	679.629	80.005	19.994	103.813	20.052	3.529	0.512
1187.000	679.879	80.005	19.995	103.812	20.053	3.440	0.519
1187.500	680.135	80.005	19.995	103.812	20.050	3.648	0.514
1188.000	680.410	80.005	19.994	103.808	20.050	3.674	0.518
1188.500	680.727	80.003	19.994	103.806	20.051	3.594	0.561
1189.000	680.922	80.005	19.997	103.807	20.049	3.720	0.553
1189.500	681.174	80.005	19.996	103.807	20.048	3.772	0.479
1190.000	681.438	80.005	19.995	103.808	20.050	3.609	0.481
1190.500	681.716	80.004	19.995	103.812	20.051	3.594	0.529
1191.000	681.960	80.004	19.994	103.813	20.051	3.584	0.532
1191.500	682.234	80.003	19.994	103.813	20.050	3.664	0.520
1192.000	682.450	80.004	19.994	103.814	20.051	3.585	0.504
1192.500	682.752	80.005	19.995	103.814	20.046	3.956	0.504
1193.000	682.992	80.005	19.995	103.815	20.046	3.980	0.530
1193.500	683.258	80.005	19.995	103.815	20.046	3.939	0.524
1194.000	683.474	80.005	19.995	103.815	20.046	3.978	0.494
1194.500	683.759	80.005	19.995	103.815	20.049	3.724	0.491
1195.000	684.096	80.006	19.996	103.814	20.048	3.778	0.562
1195.500	684.383	80.004	19.994	103.814	20.049	3.696	0.623
1196.001	684.626	80.004	19.996	103.814	20.049	3.692	0.577
1196.501	684.801	80.004	19.995	103.814	20.049	3.735	0.474
1197.000	685.061	80.004	19.994	103.814	20.051	3.590	0.426
1197.500	685.304	80.004	19.994	103.814	20.050	3.627	0.469
1198.000	685.556	80.003	19.995	103.814	20.045	4.021	0.499
1198.500	685.834	80.003	19.994	103.815	20.050	3.670	0.512
1199.000	686.084	80.006	19.996	103.814	20.047	3.896	0.529
1199.500	686.327	80.004	19.995	103.805	20.047	3.920	0.511
1200.000	686.589	80.004	19.994	103.770	20.050	3.618	0.499
1200.500	686.862	80.003	19.995	103.753	20.049	3.733	0.520
1201.001	687.139	80.003	19.995	103.746	20.048	3.818	0.542
1201.500	687.418	80.003	19.994	103.744	20.049	3.711	0.553
1202.000	687.663	80.003	19.995	103.758	20.051	3.568	0.540
1202.500	687.905	80.003	19.995	103.830	20.048	3.830	0.506
1203.000	688.172	80.003	19.996	103.864	20.050	3.642	0.499
1203.500	688.411	80.003	19.994	103.870	20.051	3.590	0.508
1204.000	688.698	80.003	19.995	103.873	20.050	3.627	0.515
1204.500	688.978	80.004	19.996	103.867	20.050	3.681	0.546
1205.000	689.217	80.003	19.994	103.829	20.047	3.909	0.543
1205.500	689.502	80.004	19.995	103.812	20.055	3.236	0.522
1206.000	689.731	80.004	19.996	103.811	20.046	3.939	0.519
1206.500	690.008	80.002	19.994	103.810	20.054	3.347	0.510
1207.000	690.275	80.003	19.995	103.811	20.051	3.590	0.525
1207.500	690.524	80.003	19.996	103.813	20.050	3.616	0.530
1208.000	690.823	80.003	19.995	103.813	20.050	3.661	0.532
1208.500	691.064	80.003	19.996	103.815	20.051	3.600	0.544
1209.000	691.322	80.003	19.996	103.816	20.052	3.466	0.520
1209.500	691.627	80.003	19.995	103.816	20.051	3.561	0.531
1210.001	691.865	80.003	19.996	103.818	20.051	3.564	0.553
1210.501	692.145	80.002	19.994	103.823	20.051	3.559	0.531
1211.000	692.420	80.004	19.996	103.825	20.053	3.427	0.536
1211.500	692.679	80.004	19.996	103.824	20.049	3.720	0.544
1212.000	692.946	80.003	19.994	103.824	20.049	3.705	0.529
1212.500	693.212	80.005	19.996	103.822	20.053	3.395	0.529
1213.000	693.471	80.005	19.996	103.817	20.047	3.859	0.529
1213.500	693.779	80.004	19.996	103.814	20.049	3.739	0.546
1214.000	694.023	80.005	19.996	103.814	20.051	3.566	0.559
1214.500	694.295	80.006	19.995	103.815	20.052	3.507	0.534
1215.000	694.551	80.005	19.994	103.816	20.051	3.585	0.522
1215.500	694.810	80.005	19.994	103.815	20.051	3.544	0.522
1216.000	695.117	80.005	19.995	103.815	20.053	3.442	0.540
1216.500	695.352	80.004	19.994	103.814	20.054	3.368	0.554
1217.000	695.649	80.005	19.994	103.811	20.049	3.715	0.537
1217.500	695.878	80.006	19.996	103.809	20.048	3.802	0.529
1218.000	696.140	80.006	19.995	103.808	20.051	3.605	0.509
1218.500	696.413	80.006	19.995	103.808	20.048	3.809	0.513
1219.000	696.663	80.004	19.995	103.807	20.050	3.629	0.529
1219.500	696.963	80.006	19.996	103.807	20.052	3.479	0.537
1220.000	697.227	80.005	19.994	103.808	20.050	3.644	0.557
1220.500	697.453	80.005	19.995	103.809	20.054	3.314	0.527
1221.000	697.729	80.004	19.992	103.809	20.050	3.676	0.496
1221.500	697.957	80.006	19.995	103.810	20.050	3.620	0.504
1222.000	698.294	80.006	19.995	103.811	20.054	3.353	0.535
1222.500	698.495	80.005	19.995	103.812	20.046	3.995	0.551
1223.000	698.771	80.004	19.994	103.812	20.051	3.544	0.507
1223.500	699.037	80.004	19.994	103.814	20.049	3.757	0.510
1224.000	699.309	80.005	19.994	103.814	20.048	3.824	0.540
1224.500	699.552	80.005	19.995	103.814	20.047	3.872	0.527
1225.000	699.827	80.005	19.995	103.814	20.047	3.861	0.516
1225.500	700.072	80.005	19.995	103.811	20.045	4.064	0.519
1226.000	700.317	80.004	19.993	103.807	20.048	3.820	0.505
1226.500	700.584	80.004	19.994	103.806	20.045	4.028	0.501
1227.000	700.819	80.004	19.994	103.806	20.046	3.934	0.507
1227.500	701.084	80.004	19.994	103.804	20.048	3.794	0.501
1228.000	701.339	80.003	19.994	103.807	20.046	3.997	0.510
1228.500	701.613	80.005	19.994	103.810	20.047	3.874	0.524
1229.000	701.867	80.005	19.994	103.811	20.045	4.006	0.528
1229.500	702.135	80.006	19.994	103.811	20.046	3.941	0.525
1230.000	702.397	80.004	19.995	103.813	20.046	3.999	0.526
1230.500	702.664	80.005	19.995	103.814	20.046	3.967	0.530
1231.000	702.855	80.004	19.993	103.813	20.050	3.611	0.493
1231.500	703.147	80.005	19.994	103.812	20.051	3.542	0.470
1232.000	703.424	80.006	19.993	103.812	20.047	3.867	0.526
1232.500	703.626	80.006	19.994	103.813	20.048	3.795	0.524
1233.000	703.948	80.005	19.994	103.813	20.046	3.936	0.501
1233.500	704.195	80.005	19.994	103.813	20.051	3.548	0.546
1234.000	704.446	80.006	19.994	103.812	20.048	3.832	0.534
1234.500	704.720	80.007	19.993	103.811	20.049	3.750	0.512
1235.000	704.958	80.005	19.995	103.811	20.049	3.752	0.518
1235.500	705.191	80.006	19.994	103.811	20.051	3.599	0.491
1236.000	705.455	80.005	19.995	103.811	20.048	3.799	0.483
1236.500	705.695	80.005	19.994	103.812	20.048	3.836	0.500
1237.000	705.924	80.007	19.995	103.813	20.045	4.028	0.487
1237.500	706.233	80.007	19.993	103.813	20.047	3.896	0.504
1238.000	706.474	80.006	19.993	103.813	20.049	3.740	0.545
1238.500	706.711	80.006	19.994	103.813	20.047	3.910	0.514
1239.000	706.957	80.006	19.994	103.812	20.049	3.701	0.480
1239.500	707.217	80.007	19.993	103.812	20.046	3.980	0.495
1240.000	707.470	80.006	19.994	103.811	20.050	3.675	0.510
1240.500	707.720	80.006	19.994	103.811	20.045	4.031	0.508
1241.000	708.036	80.006	19.994	103.811	20.047	3.902	0.534
1241.500	708.229	80.006	19.994	103.810	20.047	3.860	0.538
1242.000	708.537	80.007	19.992	103.809	20.050	3.610	0.505
1242.500	708.789	80.007	19.994	103.808	20.048	3.791	0.530
1243.000	709.035	80.006	19.995	103.803	20.049	3.692	0.529
1243.500	709.250	80.007	19.994	103.801	20.047	3.854	0.479
1244.000	709.551	80.006	19.993	103.801	20.047	3.889	0.489
1244.500	709.804	80.007	19.994	103.802	20.046	3.937	0.535
1245.000	710.089	80.006	19.995	103.803	20.043	4.184	0.546
1245.500	710.322	80.007	19.993	103.805	20.046	3.980	0.528
1246.000	710.627	80.006	19.992	103.801	20.047	3.885	0.528
1246.500	710.864	80.006	19.993	103.765	20.043	4.236	0.540
1247.000	711.112	80.006	19.994	103.732	20.046	3.971	0.514
1247.500	711.365	80.005	19.995	103.719	20.049	3.752	0.493
1248.000	711.594	80.006	19.995	103.715	20.048	3.772	0.491
1248.500	711.890	80.005	19.993	103.721	20.048	3.826	0.503
1249.000	712.165	80.006	19.995	103.757	20.049	3.755	0.548
1249.500	712.407	80.004	19.995	103.796	20.050	3.642	0.544
1250.000	712.666	80.004	19.995	103.841	20.048	3.833	0.509
1250.500	712.920	80.004	19.994	103.878	20.050	3.666	0.507
1251.000	713.174	80.005	19.995	103.885	20.048	3.766	0.511
1251.500	713.405	80.004	19.994	103.887	20.052	3.464	0.496
1252.000	713.675	80.005	19.994	103.881	20.052	3.475	0.493
1252.500	713.936	80.004	19.995	103.850	20.051	3.590	0.516
1253.000	714.185	80.005	19.994	103.819	20.053	3.436	0.521
1253.500	714.441	80.004	19.994	103.813	20.053	3.406	0.508
1254.000	714.698	80.004	19.994	103.812	20.050	3.631	0.509
1254.500	714.970	80.006	19.993	103.812	20.050	3.644	0.521
1255.000	715.231	80.004	19.994	103.811	20.048	3.779	0.531
1255.500	715.492	80.004	19.993	103.812	20.050	3.677	0.528
1256.000	715.736	80.004	19.994	103.812	20.049	3.744	0.513
1256.500	715.993	80.003	19.995	103.813	20.050	3.670	0.503
1257.000	716.294	80.003	19.994	103.814	20.050	3.609	0.529
1257.500	716.530	80.004	19.995	103.815	20.050	3.672	0.547
1258.000	716.778	80.004	19.993	103.815	20.051	3.588	0.511
1258.500	717.009	80.004	19.994	103.815	20.053	3.434	0.482
1259.000	717.242	80.005	19.994	103.816	20.052	3.460	0.472
1259.500	717.542	80.003	19.994	103.816	20.052	3.529	0.498
1260.000	717.744	80.003	19.995	103.816	20.055	3.232	0.518
1260.500	718.009	80.003	19.993	103.817	20.053	3.419	0.484
1261.000	718.268	80.005	19.994	103.817	20.053	3.447	0.495
1261.500	718.552	80.005	19.994	103.819	20.055	3.289	0.533
1262.000	718.818	80.003	19.993	103.819	20.050	3.629	0.547
1262.500	719.047	80.005	19.994	103.819	20.049	3.703	0.523
1263.000	719.305	80.004	19.993	103.818	20.052	3.494	0.491
1263.500	719.568	80.004	19.993	103.819	20.052	3.462	0.504
1264.000	719.814	80.003	19.994	103.820	20.052	3.523	0.515
1264.500	720.093	80.004	19.995	103.821	20.054	3.306	0.517
1265.000	720.331	80.003	19.994	103.822	20.051	3.562	0.521
1265.501	720.610	80.004	19.993	103.821	20.050	3.640	0.517
1266.001	720.870	80.004	19.993	103.820	20.052	3.458	0.528
1266.501	721.142	80.004	19.994	103.818	20.054	3.308	0.536
1267.000	721.398	80.005	19.995	103.816	20.054	3.308	0.530
1267.500	721.651	80.004	19.995	103.815	20.053	3.416	0.519
1268.000	721.918	80.004	19.995	103.814	20.055	3.289	0.515
1268.500	722.124	80.004	19.994	103.814	20.055	3.249	0.496
1269.000	722.365	80.005	19.993	103.814	20.054	3.327	0.460
1269.500	722.658	80.005	19.995	103.814	20.056	3.173	0.490
1270.000	722.906	80.003	19.994	103.815	20.053	3.405	0.537
1270.500	723.198	80.004	19.994	103.816	20.055	3.282	0.541
1271.000	723.437	80.004	19.994	103.817	20.051	3.548	0.536
1271.500	723.686	80.005	19.995	103.817	20.049	3.742	0.509
1272.000	723.961	80.004	19.995	103.818	20.048	3.822	0.506
1272.500	724.221	80.005	19.994	103.817	20.048	3.785	0.529
1273.000	724.485	80.005	19.995	103.817	20.053	3.451	0.530
1273.500	724.753	80.005	19.994	103.816	20.049	3.718	0.528
1274.000	725.021	80.004	19.994	103.814	20.049	3.753	0.534
1274.500	725.269	80.005	19.995	103.812	20.051	3.564	0.526
1275.000	725.518	80.004	19.994	103.812	20.050	3.657	0.507
1275.500	725.769	80.004	19.995	103.812	20.048	3.804	0.498
1276.000	726.053	80.004	19.994	103.812	20.051	3.577	0.517
1276.500	726.311	80.005	19.994	103.815	20.050	3.674	0.539
1277.000	726.540	80.003	19.994	103.816	20.046	3.965	0.514
1277.500	726.797	80.003	19.994	103.815	20.045	4.040	0.486
1278.000	727.076	80.004	19.995	103.815	20.049	3.761	0.511
1278.500	727.323	80.003	19.995	103.816	20.047	3.872	0.531
1279.000	727.596	80.003	19.995	103.815	20.050	3.633	0.523
1279.500	727.786	80.003	19.995	103.814	20.051	3.588	0.492
1280.000	728.064	80.003	19.995	103.811	20.050	3.620	0.466
1280.500	728.309	80.004	19.995	103.808	20.051	3.555	0.496
1281.000	728.596	80.003	19.995	103.808	20.050	3.631	0.527
1281.500	728.877	80.004	19.995	103.808	20.049	3.735	0.550
1282.000	729.080	80.003	19.994	103.810	20.055	3.243	0.526
1282.500	729.400	80.005	19.994	103.814	20.051	3.566	0.503
1283.000	729.562	80.003	19.995	103.816	20.050	3.637	0.502
1283.500	729.883	80.004	19.995	103.816	20.051	3.538	0.483
1284.000	730.138	80.003	19.995	103.817	20.053	3.440	0.529
1284.500	730.406	80.004	19.995	103.818	20.053	3.434	0.549
1285.000	730.664	80.005	19.994	103.818	20.051	3.551	0.524
1285.500	730.862	80.004	19.995	103.818	20.051	3.544	0.491
1286.000	731.117	80.004	19.995	103.816	20.052	3.494	0.455
1286.500	731.431	80.004	19.994	103.812	20.052	3.503	0.511
1287.000	731.642	80.005	19.995	103.806	20.052	3.505	0.547
1287.500	731.899	80.004	19.995	103.806	20.052	3.473	0.497
1288.000	732.158	80.004	19.995	103.806	20.052	3.492	0.492
1288.500	732.393	80.003	19.995	103.807	20.053	3.429	0.505
1289.000	732.679	80.005	19.995	103.810	20.054	3.325	0.507
1289.500	732.887	80.004	19.995	103.813	20.049	3.711	0.507
1290.000	733.094	80.006	19.994	103.813	20.054	3.338	0.454
1290.500	733.415	80.004	19.995	103.812	20.047	3.850	0.471
1291.000	733.663	80.005	19.995	103.811	20.053	3.399	0.549
1291.500	733.922	80.004	19.995	103.811	20.051	3.583	0.538
1292.000	734.155	80.006	19.995	103.812	20.054	3.366	0.500
1292.500	734.426	80.005	19.995	103.812	20.050	3.609	0.498
1293.000	734.677	80.006	19.994	103.812	20.053	3.431	0.513
1293.500	734.920	80.005	19.995	103.812	20.051	3.544	0.508
1294.000	735.172	80.006	19.994	103.813	20.055	3.269	0.495
1294.500	735.413	80.005	19.995	103.811	20.050	3.637	0.494
1295.000	735.676	80.006	19.994	103.809	20.055	3.223	0.498
1295.500	735.918	80.005	19.995	103.808	20.051	3.540	0.504
1296.000	736.169	80.006	19.994	103.808	20.050	3.646	0.499
1296.500	736.406	80.005	19.995	103.808	20.053	3.394	0.491
1297.000	736.669	80.005	19.996	103.810	20.050	3.609	0.494
1297.500	736.885	80.007	19.994	103.809	20.057	3.108	0.489
1298.000	737.172	80.007	19.995	103.810	20.052	3.466	0.491
1298.500	737.411	80.007	19.995	103.808	20.056	3.189	0.514
1299.000	737.654	80.005	19.995	103.808	20.051	3.559	0.504
1299.500	737.893	80.005	19.995	103.807	20.051	3.533	0.482
1300.000	738.152	80.005	19.996	103.807	20.052	3.479	0.490
1300.500	738.410	80.005	19.995	103.807	20.051	3.551	0.508
1301.000	738.640	80.006	19.995	103.809	20.053	3.442	0.503
1301.500	738.892	80.005	19.995	103.808	20.052	3.485	0.485
1302.000	739.152	80.006	19.995	103.808	20.052	3.494	0.497
1302.500	739.413	80.004	19.995	103.810	20.053	3.435	0.516
1303.000	739.672	80.005	19.994	103.811	20.055	3.273	0.520
1303.500	739.910	80.005	19.995	103.811	20.052	3.470	0.509
1304.000	740.122	80.005	19.995	103.810	20.053	3.388	0.474
1304.500	740.424	80.004	19.995	103.810	20.050	3.613	0.482
1305.000	740.657	80.005	19.996	103.810	20.053	3.399	0.524
1305.500	740.878	80.005	19.995	103.808	20.049	3.724	0.494
1306.000	741.174	80.004	19.996	103.806	20.051	3.535	0.486
1306.500	741.424	80.005	19.995	103.806	20.051	3.604	0.532
1307.000	741.674	80.004	19.996	103.807	20.054	3.362	0.523
1307.500	741.909	80.004	19.995	103.805	20.050	3.659	0.492
1308.000	742.156	80.004	19.994	103.806	20.052	3.503	0.484
1308.500	742.392	80.004	19.994	103.807	20.049	3.735	0.482
1309.000	742.626	80.004	19.997	103.807	20.051	3.598	0.476
1309.500	742.910	80.006	19.997	103.808	20.053	3.388	0.494
1310.000	743.133	80.005	19.997	103.811	20.051	3.583	0.513
1310.500	743.415	80.006	19.997	103.811	20.049	3.737	0.506
1311.000	743.684	80.005	19.995	103.809	20.051	3.565	0.528
