Sample ID:	C:\MCC\MCC Cal\Test\PineLap_SidingA_MCC_30K_min_211119_R1.txt
Sample Weight (mg):	4.77
Heating Rate (C/s):	0.5
Combustor Temp (C):	900
N2 Flow Rate (cc/min):	80
O2 Flow Rate (cc/min):	20
Calibration File:	C:\MCC\MCC Cal\Coeff1 JN10440_30_210304.txt.txt
T Correction Coefficients:	0	1.024463	0
Time Shift (s):	14
*
Time (s)	Temperature (C)	N2 flow rate (cc/min)	O2 flow rate (cc/min)	Flow Rate (cc/min)	Oxygen (%)	HRR (W/g)	Heating rate (C/s)
0.000	106.680	80.005	19.995	103.038	20.289	-0.185	0.020
0.500	106.694	80.006	19.999	103.034	20.284	0.128	-0.011
1.000	106.671	80.007	20.000	103.036	20.286	0.002	-0.014
1.500	106.682	80.006	19.997	103.039	20.285	0.064	-0.011
2.000	106.680	80.007	19.998	103.040	20.286	0.026	-0.001
2.500	106.662	80.006	19.996	103.046	20.284	0.156	-0.005
3.001	106.664	80.006	19.996	103.052	20.290	-0.232	-0.018
3.500	106.660	80.006	19.994	103.050	20.286	-0.007	-0.009
4.000	106.680	80.006	19.994	103.045	20.286	0.051	0.007
4.500	106.661	80.007	19.995	103.040	20.285	0.104	0.009
5.000	106.691	80.006	19.995	103.036	20.288	-0.132	0.006
5.500	106.691	80.007	19.997	103.036	20.284	0.163	0.021
6.000	106.653	80.006	19.995	103.038	20.285	0.086	-0.004
6.500	106.669	80.006	19.996	103.043	20.283	0.249	-0.030
7.000	106.674	80.006	19.995	103.049	20.282	0.262	-0.000
7.500	106.674	80.007	19.997	103.053	20.283	0.209	0.013
8.000	106.683	80.005	19.996	103.055	20.283	0.240	0.007
8.500	106.693	80.006	19.995	103.055	20.285	0.062	0.014
9.000	106.686	80.006	19.996	103.055	20.283	0.240	0.011
9.500	106.692	80.006	19.993	103.054	20.282	0.302	0.001
10.000	106.679	80.006	19.995	103.055	20.283	0.216	-0.004
10.500	106.695	80.007	19.994	103.055	20.282	0.282	-0.002
11.000	106.688	80.005	19.994	103.056	20.282	0.319	0.006
11.500	106.660	80.007	19.995	103.057	20.284	0.154	-0.013
12.001	106.668	80.007	19.993	103.058	20.280	0.425	-0.028
12.501	106.664	80.007	19.995	103.059	20.284	0.135	-0.008
13.001	106.698	80.007	19.994	103.064	20.284	0.187	0.017
13.501	106.715	80.006	19.996	103.076	20.282	0.322	0.040
14.001	106.763	80.006	19.994	103.083	20.282	0.311	0.058
14.501	106.759	80.006	19.995	103.094	20.279	0.476	0.054
15.001	106.745	80.006	19.996	103.109	20.280	0.454	0.013
15.501	106.765	80.006	19.995	103.126	20.279	0.485	-0.006
16.000	106.764	80.007	19.996	103.130	20.279	0.498	0.012
16.500	106.799	80.006	19.996	103.137	20.277	0.597	0.026
17.000	106.817	80.006	19.997	103.135	20.278	0.588	0.043
17.500	106.856	80.006	19.997	103.126	20.277	0.626	0.055
18.000	106.832	80.006	19.996	103.117	20.278	0.566	0.036
18.500	106.835	80.007	19.996	103.116	20.278	0.582	-0.003
19.000	106.854	80.007	19.997	103.115	20.275	0.760	0.000
19.500	106.862	80.006	19.994	103.118	20.274	0.818	0.024
20.000	106.920	80.005	19.994	103.118	20.275	0.747	0.046
20.500	106.903	80.005	19.996	103.114	20.276	0.689	0.054
21.000	106.912	80.006	19.995	103.108	20.274	0.831	0.016
21.500	106.946	80.006	19.995	103.103	20.275	0.738	0.017
22.000	106.948	80.006	19.995	103.101	20.274	0.824	0.040
22.500	106.973	80.004	19.996	103.105	20.274	0.806	0.032
23.000	107.020	80.005	19.996	103.105	20.276	0.713	0.049
23.500	107.032	80.005	19.995	103.105	20.274	0.841	0.065
24.000	107.060	80.003	19.995	103.103	20.274	0.850	0.050
24.500	107.087	80.006	19.995	103.100	20.275	0.747	0.048
25.000	107.080	80.004	19.996	103.096	20.276	0.692	0.037
25.500	107.138	80.005	19.996	103.095	20.277	0.623	0.036
26.000	107.155	80.003	19.996	103.095	20.276	0.691	0.063
26.500	107.192	80.004	19.995	103.093	20.277	0.605	0.064
27.000	107.214	80.005	19.997	103.093	20.273	0.878	0.056
27.500	107.229	80.005	19.996	103.092	20.274	0.801	0.048
28.000	107.242	80.005	19.995	103.092	20.274	0.823	0.032
28.500	107.246	80.006	19.994	103.095	20.272	0.947	0.023
29.000	107.309	80.003	19.998	103.102	20.274	0.852	0.042
29.500	107.311	80.004	19.996	103.106	20.270	1.121	0.066
30.000	107.340	80.003	19.994	103.114	20.268	1.206	0.048
30.500	107.391	80.003	19.993	103.122	20.268	1.257	0.055
31.000	107.413	80.003	19.995	103.129	20.266	1.347	0.077
31.500	107.418	80.002	19.998	103.140	20.269	1.202	0.050
32.000	107.465	80.004	19.994	103.155	20.265	1.420	0.039
32.500	107.504	80.003	19.996	103.165	20.264	1.538	0.069
33.000	107.527	80.005	19.994	103.174	20.263	1.557	0.074
33.500	107.574	80.005	19.996	103.184	20.263	1.561	0.066
34.001	107.592	80.004	19.994	103.186	20.264	1.494	0.068
34.501	107.633	80.006	19.996	103.183	20.262	1.650	0.062
35.001	107.667	80.004	19.995	103.183	20.263	1.571	0.067
35.500	107.686	80.006	19.995	103.185	20.261	1.735	0.064
36.000	107.775	80.006	19.994	103.182	20.258	1.944	0.080
36.500	107.775	80.006	19.995	103.187	20.258	1.898	0.098
37.000	107.825	80.006	19.994	103.189	20.259	1.850	0.070
37.500	107.876	80.007	19.994	103.195	20.258	1.943	0.076
38.000	107.937	80.005	19.994	103.200	20.259	1.873	0.107
38.500	107.976	80.006	19.994	103.205	20.255	2.108	0.106
39.000	108.044	80.006	19.994	103.205	20.258	1.915	0.103
39.500	108.101	80.007	19.994	103.210	20.253	2.231	0.116
40.001	108.143	80.005	19.995	103.212	20.253	2.249	0.112
40.501	108.193	80.007	19.994	103.211	20.251	2.420	0.095
41.000	108.259	80.008	19.995	103.216	20.250	2.471	0.104
41.501	108.328	80.007	19.995	103.203	20.249	2.497	0.126
42.001	108.333	80.010	19.995	103.186	20.251	2.407	0.105
42.501	108.396	80.007	19.993	103.172	20.249	2.521	0.071
43.000	108.469	80.007	19.995	103.164	20.249	2.504	0.102
43.500	108.532	80.008	19.993	103.151	20.250	2.436	0.136
44.000	108.575	80.008	19.994	103.163	20.249	2.508	0.121
44.500	108.645	80.008	19.994	103.182	20.249	2.554	0.109
45.000	108.719	80.008	19.994	103.215	20.246	2.719	0.128
45.500	108.811	80.009	19.994	103.257	20.248	2.582	0.155
46.000	108.878	80.008	19.994	103.282	20.247	2.648	0.163
46.500	108.959	80.007	19.993	103.289	20.251	2.398	0.154
47.000	109.018	80.008	19.994	103.295	20.247	2.627	0.144
47.500	109.136	80.010	19.994	103.282	20.248	2.614	0.159
48.000	109.193	80.010	19.995	103.254	20.249	2.526	0.176
48.500	109.285	80.007	19.993	103.244	20.247	2.632	0.162
49.000	109.366	80.008	19.994	103.243	20.248	2.603	0.161
49.500	109.432	80.009	19.995	103.239	20.246	2.697	0.160
50.000	109.564	80.009	19.995	103.240	20.247	2.627	0.172
50.500	109.632	80.008	19.995	103.240	20.248	2.566	0.199
51.000	109.719	80.009	19.996	103.238	20.244	2.840	0.177
51.500	109.846	80.008	19.995	103.240	20.245	2.814	0.184
52.000	109.873	80.008	19.995	103.244	20.245	2.779	0.184
52.500	109.974	80.008	19.994	103.244	20.245	2.776	0.141
53.001	110.064	80.009	19.995	103.245	20.242	2.996	0.159
53.501	110.203	80.007	19.995	103.247	20.243	2.919	0.210
54.000	110.218	80.008	19.995	103.248	20.245	2.816	0.192
54.500	110.355	80.007	19.995	103.250	20.242	2.972	0.153
55.000	110.449	80.008	19.995	103.256	20.241	3.052	0.191
55.500	110.557	80.006	19.995	103.262	20.243	2.898	0.216
56.000	110.695	80.007	19.994	103.265	20.241	3.032	0.224
56.500	110.778	80.006	19.995	103.272	20.244	2.889	0.234
57.000	110.868	80.007	19.994	103.272	20.239	3.214	0.197
57.501	111.002	80.008	19.993	103.268	20.242	2.968	0.198
58.001	111.116	80.006	19.994	103.262	20.238	3.276	0.236
58.501	111.213	80.007	19.994	103.261	20.242	2.987	0.229
59.001	111.314	80.008	19.994	103.256	20.241	3.042	0.205
59.501	111.434	80.008	19.996	103.254	20.238	3.253	0.210
60.001	111.540	80.006	19.994	103.252	20.240	3.104	0.223
60.501	111.677	80.008	19.994	103.251	20.240	3.153	0.234
61.001	111.798	80.006	19.995	103.250	20.239	3.185	0.250
61.501	111.947	80.007	19.994	103.249	20.241	3.084	0.264
62.000	112.046	80.008	19.995	103.248	20.239	3.165	0.259
62.500	112.160	80.009	19.994	103.248	20.241	3.071	0.230
63.000	112.261	80.007	19.994	103.251	20.241	3.058	0.214
63.500	112.387	80.008	19.995	103.255	20.240	3.134	0.221
64.000	112.557	80.007	19.994	103.258	20.242	2.994	0.261
64.500	112.636	80.008	19.994	103.259	20.243	2.943	0.272
65.000	112.737	80.009	19.993	103.261	20.243	2.934	0.215
65.500	112.870	80.008	19.994	103.258	20.244	2.837	0.207
66.000	113.016	80.007	19.994	103.255	20.239	3.209	0.256
66.500	113.140	80.007	19.994	103.251	20.243	2.923	0.274
67.000	113.283	80.007	19.994	103.251	20.243	2.908	0.269
67.500	113.421	80.009	19.994	103.250	20.241	3.035	0.274
68.000	113.560	80.007	19.994	103.255	20.239	3.167	0.278
68.500	113.675	80.007	19.994	103.258	20.241	3.075	0.265
69.000	113.806	80.008	19.994	103.262	20.243	2.952	0.250
69.500	113.949	80.009	19.995	103.263	20.240	3.135	0.260
70.000	114.092	80.010	19.994	103.264	20.240	3.159	0.280
70.500	114.237	80.010	19.994	103.266	20.240	3.158	0.287
71.000	114.364	80.009	19.994	103.268	20.238	3.282	0.280
71.500	114.562	80.010	19.993	103.265	20.237	3.363	0.298
72.000	114.668	80.010	19.994	103.267	20.238	3.259	0.315
72.500	114.805	80.009	19.993	103.271	20.239	3.213	0.274
73.000	114.955	80.009	19.994	103.268	20.236	3.409	0.265
73.500	115.083	80.009	19.993	103.269	20.240	3.123	0.282
74.001	115.214	80.005	19.992	103.274	20.239	3.178	0.269
74.501	115.362	80.008	19.995	103.277	20.242	3.013	0.269
75.000	115.528	80.008	19.994	103.279	20.238	3.296	0.297
75.500	115.657	80.008	19.994	103.283	20.239	3.193	0.305
76.000	115.815	80.005	19.992	103.285	20.236	3.393	0.291
76.501	115.964	80.005	19.993	103.286	20.240	3.097	0.297
77.001	116.113	80.006	19.993	103.288	20.240	3.134	0.303
77.500	116.270	80.006	19.994	103.288	20.238	3.268	0.302
78.000	116.426	80.007	19.994	103.285	20.238	3.263	0.309
78.500	116.562	80.005	19.992	103.282	20.238	3.298	0.302
79.000	116.736	80.006	19.994	103.275	20.237	3.318	0.301
79.500	116.908	80.006	19.993	103.273	20.237	3.311	0.328
80.000	117.029	80.006	19.995	103.270	20.240	3.129	0.320
80.500	117.228	80.006	19.994	103.272	20.238	3.268	0.307
81.000	117.394	80.005	19.994	103.274	20.236	3.373	0.342
81.500	117.562	80.004	19.995	103.281	20.239	3.221	0.349
82.000	117.721	80.007	19.994	103.285	20.237	3.340	0.330
82.500	117.880	80.006	19.994	103.288	20.236	3.371	0.322
83.000	118.044	80.007	19.995	103.288	20.237	3.338	0.320
83.500	118.216	80.005	19.995	103.289	20.237	3.327	0.330
84.000	118.344	80.007	19.995	103.290	20.239	3.211	0.318
84.501	118.527	80.006	19.994	103.290	20.237	3.301	0.305
85.001	118.675	80.005	19.995	103.291	20.234	3.530	0.321
85.501	118.841	80.007	19.994	103.292	20.235	3.439	0.323
86.001	119.032	80.006	19.994	103.292	20.235	3.481	0.336
86.501	119.178	80.007	19.994	103.292	20.237	3.325	0.347
87.001	119.359	80.006	19.994	103.291	20.233	3.573	0.332
87.500	119.560	80.004	19.996	103.291	20.234	3.547	0.354
88.000	119.724	80.006	19.994	103.293	20.233	3.603	0.374
88.500	119.901	80.004	19.995	103.294	20.233	3.582	0.353
89.000	120.094	80.007	19.995	103.298	20.234	3.513	0.355
89.500	120.236	80.004	19.994	103.300	20.232	3.656	0.352
90.000	120.431	80.006	19.996	103.302	20.230	3.797	0.336
90.501	120.631	80.007	19.995	103.306	20.234	3.564	0.366
91.001	120.765	80.006	19.994	103.309	20.231	3.747	0.365
91.500	120.951	80.008	19.995	103.307	20.230	3.796	0.327
92.000	121.148	80.006	19.995	103.305	20.231	3.720	0.352
92.500	121.331	80.005	19.994	103.303	20.228	3.962	0.381
93.000	121.511	80.005	19.995	103.296	20.231	3.714	0.371
93.500	121.706	80.006	19.995	103.292	20.228	3.916	0.369
94.000	121.856	80.005	19.994	103.292	20.229	3.878	0.360
94.500	122.068	80.008	19.995	103.293	20.229	3.890	0.354
95.000	122.286	80.005	19.994	103.294	20.230	3.798	0.396
95.501	122.487	80.006	19.994	103.295	20.229	3.864	0.425
96.001	122.648	80.007	19.994	103.296	20.229	3.883	0.391
96.500	122.847	80.005	19.994	103.297	20.231	3.728	0.361
97.000	123.072	80.006	19.994	103.297	20.230	3.826	0.391
97.501	123.235	80.005	19.994	103.298	20.231	3.750	0.406
98.001	123.405	80.005	19.993	103.304	20.231	3.707	0.361
98.500	123.572	80.006	19.994	103.310	20.232	3.685	0.335
99.000	123.797	80.005	19.994	103.313	20.227	4.022	0.364
99.500	124.007	80.006	19.995	103.314	20.229	3.855	0.413
100.000	124.127	80.006	19.994	103.313	20.233	3.622	0.383
100.500	124.371	80.005	19.994	103.309	20.228	3.941	0.347
101.000	124.580	80.005	19.994	103.304	20.229	3.873	0.409
101.500	124.733	80.007	19.994	103.299	20.229	3.882	0.408
102.000	124.961	80.006	19.995	103.298	20.229	3.846	0.371
102.500	125.145	80.005	19.994	103.300	20.228	3.963	0.396
103.000	125.372	80.004	19.994	103.302	20.230	3.784	0.412
103.500	125.525	80.005	19.993	103.307	20.232	3.653	0.395
104.000	125.718	80.004	19.994	103.310	20.227	4.004	0.363
104.500	125.917	80.005	19.995	103.310	20.227	4.002	0.370
105.000	126.132	80.008	19.995	103.312	20.228	3.953	0.403
105.500	126.334	80.006	19.995	103.309	20.230	3.776	0.415
106.000	126.550	80.006	19.994	103.302	20.228	3.925	0.417
106.500	126.752	80.008	19.995	103.298	20.229	3.899	0.419
107.000	126.925	80.003	19.994	103.296	20.228	3.934	0.397
107.500	127.162	80.005	19.995	103.293	20.231	3.764	0.392
108.000	127.332	80.006	19.995	103.293	20.229	3.905	0.409
108.500	127.544	80.006	19.996	103.294	20.229	3.885	0.395
109.000	127.763	80.004	19.995	103.299	20.231	3.754	0.407
109.501	127.943	80.004	19.995	103.304	20.227	4.038	0.415
110.001	128.177	80.005	19.996	103.305	20.225	4.127	0.406
110.500	128.404	80.006	19.996	103.308	20.229	3.892	0.437
111.000	128.600	80.005	19.995	103.306	20.228	3.938	0.443
111.500	128.797	80.004	19.995	103.302	20.226	4.081	0.408
112.000	129.053	80.006	19.996	103.296	20.227	4.042	0.423
112.500	129.240	80.005	19.995	103.296	20.226	4.073	0.447
113.000	129.447	80.006	19.995	103.291	20.225	4.167	0.418
113.500	129.692	80.006	19.995	103.295	20.227	4.011	0.423
114.001	129.924	80.006	19.995	103.297	20.228	3.945	0.464
114.501	130.083	80.004	19.995	103.301	20.227	4.028	0.434
115.000	130.346	80.004	19.995	103.304	20.228	3.925	0.407
115.500	130.585	80.004	19.995	103.305	20.227	4.026	0.462
116.000	130.764	80.005	19.996	103.305	20.226	4.101	0.460
116.500	130.939	80.005	19.995	103.305	20.226	4.064	0.386
117.000	131.185	80.004	19.996	103.304	20.229	3.894	0.388
117.500	131.435	80.007	19.995	103.305	20.224	4.200	0.459
118.000	131.612	80.006	19.996	103.308	20.230	3.802	0.461
118.500	131.797	80.005	19.996	103.305	20.228	3.967	0.394
119.000	132.061	80.007	19.996	103.304	20.229	3.849	0.406
119.500	132.298	80.006	19.995	103.304	20.228	3.941	0.476
120.000	132.476	80.006	19.996	103.298	20.230	3.804	0.458
120.500	132.710	80.005	19.996	103.296	20.228	3.958	0.414
121.001	132.957	80.009	19.996	103.301	20.226	4.082	0.447
121.501	133.158	80.006	19.995	103.301	20.227	4.002	0.464
122.000	133.382	80.008	19.996	103.299	20.229	3.849	0.437
122.500	133.624	80.008	19.995	103.299	20.229	3.849	0.446
123.000	133.806	80.007	19.995	103.297	20.230	3.798	0.445
123.500	134.044	80.006	19.996	103.298	20.227	4.002	0.421
124.000	134.278	80.007	19.995	103.297	20.230	3.828	0.446
124.500	134.488	80.007	19.996	103.298	20.231	3.720	0.458
125.000	134.721	80.006	19.995	103.301	20.228	3.913	0.444
125.500	134.952	80.007	19.995	103.302	20.229	3.907	0.454
126.000	135.145	80.008	19.995	103.299	20.227	4.026	0.444
126.500	135.385	80.010	19.995	103.301	20.226	4.052	0.428
127.000	135.636	80.009	19.995	103.301	20.229	3.881	0.462
127.500	135.844	80.009	19.995	103.299	20.228	3.927	0.475
128.000	136.088	80.008	19.995	103.297	20.226	4.070	0.456
128.500	136.296	80.008	19.995	103.296	20.227	4.020	0.452
129.000	136.539	80.007	19.994	103.293	20.228	3.928	0.451
129.500	136.755	80.008	19.994	103.293	20.226	4.046	0.455
130.000	136.995	80.009	19.994	103.293	20.227	4.002	0.458
130.500	137.248	80.008	19.994	103.295	20.230	3.793	0.474
131.000	137.462	80.007	19.994	103.295	20.228	3.972	0.480
131.500	137.702	80.006	19.994	103.295	20.225	4.173	0.460
132.000	137.948	80.008	19.994	103.294	20.231	3.771	0.470
132.500	138.162	80.008	19.994	103.293	20.228	3.954	0.474
133.000	138.414	80.006	19.995	103.293	20.226	4.084	0.463
133.500	138.612	80.007	19.995	103.292	20.225	4.154	0.457
134.000	138.837	80.006	19.993	103.294	20.230	3.833	0.436
134.500	139.110	80.007	19.994	103.299	20.228	3.938	0.461
135.000	139.337	80.007	19.996	103.303	20.228	3.967	0.499
135.500	139.571	80.006	19.994	103.309	20.230	3.793	0.481
136.000	139.794	80.006	19.995	103.314	20.230	3.830	0.459
136.500	140.015	80.006	19.994	103.317	20.230	3.778	0.450
137.000	140.316	80.007	19.993	103.311	20.228	3.963	0.483
137.500	140.472	80.006	19.995	103.307	20.229	3.884	0.490
138.000	140.734	80.007	19.995	103.303	20.228	3.923	0.438
138.500	140.986	80.006	19.995	103.302	20.229	3.901	0.466
139.000	141.232	80.006	19.994	103.301	20.229	3.857	0.506
139.500	141.455	80.006	19.994	103.299	20.226	4.053	0.484
140.000	141.654	80.006	19.993	103.297	20.227	3.985	0.445
140.500	141.922	80.008	19.994	103.294	20.227	3.998	0.444
141.000	142.144	80.008	19.993	103.292	20.227	4.000	0.478
141.500	142.380	80.008	19.993	103.295	20.227	3.989	0.474
142.000	142.627	80.007	19.994	103.297	20.227	3.981	0.471
142.500	142.853	80.006	19.994	103.304	20.227	4.036	0.478
143.000	143.129	80.010	19.994	103.307	20.229	3.880	0.487
143.500	143.353	80.007	19.993	103.305	20.227	3.989	0.501
144.000	143.616	80.007	19.993	103.299	20.227	4.001	0.494
144.500	143.828	80.006	19.994	103.301	20.228	3.957	0.481
145.000	144.132	80.007	19.994	103.302	20.227	4.038	0.495
145.500	144.322	80.005	19.994	103.300	20.230	3.798	0.505
146.000	144.549	80.009	19.994	103.306	20.225	4.139	0.456
146.500	144.801	80.007	19.994	103.312	20.226	4.080	0.448
147.000	145.034	80.008	19.994	103.310	20.226	4.051	0.482
147.500	145.296	80.009	19.993	103.305	20.227	4.007	0.490
148.000	145.543	80.012	19.994	103.302	20.226	4.071	0.502
148.500	145.782	80.007	19.994	103.296	20.227	4.040	0.498
149.000	146.027	80.009	19.994	103.290	20.226	4.108	0.485
149.500	146.297	80.010	19.994	103.289	20.228	3.934	0.499
150.000	146.514	80.007	19.994	103.291	20.227	3.994	0.501
150.500	146.768	80.009	19.994	103.299	20.230	3.800	0.479
151.000	146.983	80.007	19.993	103.302	20.227	4.003	0.470
151.500	147.196	80.008	19.994	103.303	20.229	3.870	0.448
152.000	147.439	80.008	19.993	103.302	20.226	4.057	0.442
152.500	147.714	80.008	19.993	103.300	20.225	4.150	0.487
153.000	147.936	80.009	19.994	103.293	20.224	4.181	0.507
153.500	148.209	80.008	19.994	103.291	20.226	4.093	0.495
154.000	148.456	80.008	19.994	103.291	20.228	3.963	0.507
154.500	148.677	80.009	19.995	103.291	20.223	4.266	0.494
155.000	148.927	80.008	19.996	103.290	20.221	4.407	0.470
155.500	149.179	80.008	19.995	103.290	20.226	4.053	0.486
156.000	149.417	80.009	19.994	103.290	20.224	4.225	0.496
156.500	149.652	80.009	19.994	103.290	20.222	4.315	0.482
157.000	149.923	80.006	19.994	103.291	20.222	4.348	0.490
157.500	150.205	80.007	19.994	103.291	20.227	4.022	0.529
158.000	150.432	80.007	19.993	103.291	20.225	4.176	0.531
158.500	150.676	80.006	19.993	103.292	20.224	4.211	0.490
159.000	150.882	80.006	19.994	103.292	20.224	4.203	0.461
159.500	151.160	80.004	19.993	103.292	20.224	4.214	0.467
160.000	151.388	80.006	19.993	103.292	20.228	3.935	0.495
160.500	151.650	80.007	19.994	103.292	20.227	4.000	0.498
161.000	151.876	80.006	19.994	103.291	20.224	4.214	0.489
161.500	152.139	80.005	19.994	103.291	20.225	4.144	0.488
162.000	152.407	80.004	19.993	103.291	20.226	4.071	0.510
162.500	152.607	80.004	19.992	103.292	20.224	4.187	0.500
163.000	152.880	80.004	19.995	103.292	20.228	3.924	0.471
163.500	153.118	80.006	19.994	103.292	20.224	4.220	0.492
164.000	153.371	80.006	19.994	103.291	20.226	4.053	0.501
164.500	153.605	80.005	19.993	103.291	20.226	4.082	0.489
165.000	153.836	80.007	19.994	103.290	20.223	4.264	0.476
165.500	154.071	80.006	19.994	103.291	20.227	4.029	0.466
166.000	154.371	80.007	19.994	103.290	20.223	4.258	0.500
166.500	154.596	80.007	19.994	103.291	20.228	3.926	0.530
167.000	154.821	80.006	19.995	103.291	20.227	3.976	0.488
167.500	155.036	80.007	19.994	103.290	20.226	4.097	0.445
168.000	155.285	80.007	19.994	103.289	20.226	4.062	0.452
168.500	155.513	80.006	19.994	103.289	20.227	4.038	0.470
169.000	155.781	80.006	19.994	103.289	20.224	4.187	0.486
169.500	156.052	80.008	19.993	103.289	20.228	3.910	0.518
170.000	156.296	80.006	19.993	103.290	20.227	4.007	0.527
170.500	156.530	80.005	19.994	103.290	20.228	3.959	0.497
171.000	156.770	80.006	19.993	103.289	20.227	3.989	0.476
171.500	157.044	80.004	19.995	103.288	20.226	4.099	0.494
172.000	157.313	80.007	19.994	103.287	20.228	3.934	0.528
172.500	157.570	80.006	19.994	103.286	20.226	4.106	0.534
173.000	157.789	80.007	19.995	103.287	20.224	4.179	0.501
173.500	158.033	80.004	19.994	103.287	20.226	4.099	0.470
174.000	158.293	80.006	19.994	103.285	20.225	4.135	0.484
174.500	158.553	80.007	19.993	103.285	20.224	4.196	0.512
175.000	158.763	80.004	19.995	103.285	20.226	4.078	0.495
175.500	159.036	80.006	19.995	103.285	20.225	4.159	0.477
176.000	159.325	80.006	19.992	103.288	20.225	4.120	0.523
176.500	159.523	80.006	19.995	103.290	20.226	4.106	0.524
177.000	159.798	80.007	19.994	103.291	20.223	4.287	0.480
177.500	160.038	80.005	19.996	103.291	20.222	4.348	0.494
178.000	160.312	80.006	19.996	103.291	20.225	4.170	0.514
178.500	160.554	80.007	19.995	103.288	20.226	4.100	0.515
179.000	160.813	80.006	19.994	103.287	20.228	3.965	0.509
179.500	161.069	80.006	19.994	103.287	20.227	3.983	0.508
180.000	161.325	80.006	19.994	103.287	20.226	4.109	0.514
180.500	161.559	80.006	19.995	103.287	20.226	4.106	0.501
181.000	161.835	80.004	19.996	103.287	20.224	4.217	0.500
181.500	162.067	80.006	19.994	103.287	20.227	4.038	0.509
182.000	162.349	80.007	19.995	103.289	20.223	4.267	0.511
182.500	162.611	80.008	19.995	103.288	20.226	4.087	0.529
183.000	162.826	80.007	19.995	103.288	20.229	3.872	0.510
183.500	163.123	80.006	19.995	103.287	20.228	3.962	0.494
184.000	163.344	80.004	19.995	103.286	20.228	3.915	0.515
184.500	163.592	80.005	19.995	103.285	20.227	4.036	0.494
185.000	163.847	80.006	19.995	103.285	20.227	4.014	0.486
185.500	164.096	80.006	19.995	103.285	20.230	3.833	0.503
186.000	164.374	80.005	19.996	103.286	20.230	3.816	0.516
186.500	164.630	80.007	19.996	103.286	20.228	3.941	0.531
187.000	164.872	80.009	19.997	103.284	20.228	3.965	0.516
187.500	165.128	80.004	19.998	103.284	20.228	3.957	0.498
188.000	165.369	80.006	19.997	103.283	20.226	4.067	0.497
188.500	165.612	80.006	19.997	103.284	20.229	3.873	0.491
189.000	165.863	80.006	19.996	103.284	20.229	3.878	0.490
189.500	166.126	80.006	19.995	103.286	20.229	3.883	0.504
190.000	166.393	80.006	19.995	103.286	20.230	3.834	0.522
190.500	166.606	80.007	19.995	103.284	20.224	4.210	0.505
191.000	166.899	80.005	19.995	103.281	20.231	3.731	0.493
191.500	167.145	80.008	19.994	103.280	20.226	4.107	0.523
192.000	167.393	80.006	19.995	103.280	20.228	3.939	0.517
192.500	167.634	80.006	19.996	103.274	20.227	4.003	0.491
193.000	167.893	80.005	19.996	103.270	20.226	4.054	0.495
193.500	168.144	80.005	19.996	103.267	20.227	3.999	0.505
194.000	168.411	80.004	19.994	103.267	20.229	3.860	0.513
194.500	168.642	80.005	19.995	103.268	20.228	3.948	0.508
195.000	168.919	80.007	19.995	103.274	20.228	3.926	0.503
195.500	169.155	80.005	19.995	103.282	20.229	3.889	0.510
196.000	169.395	80.005	19.996	103.287	20.231	3.720	0.494
196.500	169.665	80.005	19.995	103.287	20.226	4.107	0.493
197.000	169.935	80.005	19.994	103.284	20.225	4.151	0.525
197.500	170.163	80.006	19.995	103.284	20.228	3.961	0.519
198.000	170.407	80.005	19.994	103.282	20.228	3.961	0.485
198.500	170.695	80.007	19.995	103.282	20.225	4.138	0.502
199.000	170.954	80.004	19.995	103.283	20.225	4.155	0.540
199.500	171.186	80.005	19.995	103.279	20.224	4.198	0.519
200.000	171.447	80.005	19.995	103.276	20.225	4.116	0.492
200.500	171.729	80.007	19.995	103.271	20.227	4.041	0.518
201.000	171.927	80.006	19.995	103.271	20.227	3.984	0.512
201.500	172.179	80.006	19.995	103.271	20.226	4.054	0.465
202.000	172.439	80.006	19.993	103.276	20.225	4.142	0.481
202.500	172.690	80.007	19.996	103.274	20.224	4.223	0.511
203.000	172.952	80.003	19.996	103.280	20.228	3.933	0.512
203.500	173.204	80.013	19.996	103.282	20.227	4.028	0.514
204.000	173.407	80.026	20.001	103.282	20.230	3.816	0.485
204.500	173.684	80.023	19.999	103.283	20.227	3.988	0.467
205.000	173.950	80.013	19.997	103.286	20.229	3.854	0.511
205.500	174.208	80.005	19.996	103.285	20.228	3.966	0.534
206.000	174.470	80.007	19.996	103.278	20.228	3.962	0.523
206.500	174.689	80.009	19.997	103.274	20.228	3.940	0.501
207.000	174.931	80.008	19.995	103.273	20.227	3.982	0.471
207.500	175.186	80.007	19.997	103.273	20.228	3.927	0.479
208.000	175.469	80.006	19.996	103.274	20.229	3.861	0.518
208.500	175.713	80.006	19.995	103.278	20.225	4.145	0.532
209.000	175.948	80.007	19.996	103.275	20.229	3.868	0.503
209.500	176.211	80.006	19.996	103.268	20.228	3.918	0.488
210.000	176.421	80.007	19.997	103.265	20.229	3.852	0.486
210.500	176.663	80.007	19.996	103.263	20.230	3.813	0.463
211.000	176.931	80.005	19.996	103.262	20.227	3.982	0.481
211.500	177.200	80.007	19.996	103.267	20.225	4.132	0.523
212.000	177.459	80.006	19.994	103.269	20.226	4.043	0.533
212.500	177.688	80.010	19.994	103.270	20.228	3.964	0.508
213.000	177.932	80.007	19.995	103.268	20.227	4.008	0.480
213.500	178.226	80.006	19.995	103.269	20.232	3.665	0.506
214.000	178.438	80.007	19.995	103.271	20.227	4.008	0.522
214.500	178.661	80.005	19.995	103.272	20.230	3.832	0.470
215.000	178.955	80.006	19.996	103.272	20.228	3.914	0.476
215.500	179.183	80.006	19.995	103.273	20.228	3.971	0.519
216.000	179.402	80.006	19.998	103.271	20.228	3.964	0.485
216.500	179.667	80.006	19.995	103.269	20.227	3.989	0.466
217.000	179.938	80.005	19.994	103.269	20.225	4.144	0.510
217.500	180.183	80.004	19.995	103.271	20.226	4.107	0.526
218.000	180.447	80.004	19.996	103.268	20.226	4.088	0.512
218.500	180.682	80.007	19.993	103.265	20.228	3.912	0.504
219.000	180.921	80.006	19.994	103.264	20.227	3.987	0.486
219.500	181.141	80.006	19.995	103.264	20.228	3.965	0.466
220.000	181.443	80.007	19.995	103.264	20.225	4.160	0.491
220.500	181.674	80.005	19.995	103.265	20.228	3.963	0.528
221.000	181.940	80.005	19.993	103.266	20.228	3.912	0.515
221.500	182.188	80.005	19.994	103.264	20.223	4.273	0.506
222.000	182.417	80.005	19.995	103.260	20.226	4.066	0.496
222.500	182.623	80.006	19.994	103.259	20.223	4.280	0.456
223.000	182.904	80.005	19.995	103.263	20.225	4.119	0.461
223.500	183.147	80.005	19.993	103.266	20.224	4.182	0.505
224.000	183.421	80.005	19.995	103.267	20.226	4.070	0.520
224.500	183.656	80.005	19.996	103.268	20.225	4.161	0.513
225.000	183.867	80.007	19.995	103.264	20.225	4.136	0.478
225.500	184.139	80.004	19.994	103.259	20.226	4.077	0.465
226.000	184.376	80.006	19.994	103.259	20.228	3.912	0.496
226.500	184.655	80.007	19.994	103.261	20.226	4.106	0.512
227.000	184.894	80.007	19.993	103.260	20.229	3.862	0.517
227.500	185.157	80.008	19.994	103.263	20.229	3.901	0.510
228.000	185.422	80.007	19.994	103.265	20.229	3.862	0.515
228.500	185.644	80.005	19.993	103.264	20.230	3.789	0.507
229.000	185.853	80.008	19.995	103.260	20.229	3.886	0.459
229.500	186.117	80.007	19.995	103.260	20.228	3.941	0.452
230.000	186.398	80.008	19.995	103.256	20.228	3.919	0.509
230.500	186.657	80.008	19.992	103.254	20.228	3.934	0.543
231.000	186.887	80.007	19.993	103.253	20.227	4.007	0.514
231.500	187.150	80.009	19.995	103.253	20.231	3.729	0.491
232.000	187.425	80.008	19.995	103.255	20.228	3.934	0.516
232.501	187.660	80.009	19.994	103.254	20.229	3.903	0.524
233.000	187.923	80.008	19.994	103.255	20.228	3.912	0.504
233.500	188.128	80.007	19.994	103.252	20.228	3.922	0.483
234.000	188.396	80.010	19.993	103.251	20.230	3.832	0.470
234.500	188.622	80.006	19.991	103.253	20.229	3.869	0.483
235.000	188.871	80.008	19.995	103.253	20.229	3.848	0.485
235.500	189.123	80.007	19.994	103.253	20.228	3.934	0.488
236.000	189.367	80.008	19.995	103.253	20.230	3.816	0.498
236.500	189.593	80.008	19.993	103.253	20.230	3.831	0.483
237.000	189.871	80.009	19.995	103.249	20.230	3.835	0.488
237.500	190.121	80.008	19.995	103.250	20.227	3.980	0.516
238.000	190.344	80.007	19.994	103.250	20.232	3.699	0.500
238.500	190.634	80.007	19.995	103.251	20.231	3.734	0.493
239.000	190.876	80.009	19.995	103.251	20.231	3.739	0.523
239.500	191.121	80.006	19.994	103.250	20.228	3.945	0.510
240.000	191.390	80.007	19.996	103.250	20.232	3.679	0.500
240.500	191.612	80.007	19.994	103.249	20.232	3.671	0.503
241.000	191.890	80.008	19.994	103.249	20.231	3.763	0.495
241.500	192.145	80.007	19.994	103.249	20.230	3.780	0.516
242.000	192.399	80.006	19.994	103.250	20.232	3.640	0.521
242.500	192.610	80.006	19.995	103.249	20.228	3.950	0.487
243.000	192.888	80.008	19.994	103.251	20.232	3.643	0.477
243.500	193.101	80.024	20.000	103.256	20.231	3.755	0.490
244.000	193.361	80.023	20.000	103.264	20.230	3.837	0.482
244.500	193.610	80.023	20.000	103.272	20.230	3.782	0.490
245.000	193.829	80.022	20.001	103.280	20.230	3.811	0.488
245.500	194.107	80.023	20.002	103.289	20.230	3.793	0.483
246.000	194.387	80.024	20.002	103.292	20.232	3.659	0.528
246.500	194.586	80.023	20.003	103.292	20.233	3.609	0.518
247.000	194.830	80.034	20.005	103.292	20.233	3.608	0.461
247.500	195.085	80.043	20.008	103.294	20.235	3.457	0.471
248.000	195.337	80.042	20.009	103.296	20.236	3.382	0.503
248.500	195.592	80.043	20.008	103.296	20.235	3.441	0.507
249.000	195.827	80.042	20.010	103.297	20.237	3.336	0.499
249.500	196.097	80.042	20.008	103.297	20.236	3.408	0.497
250.000	196.318	80.042	20.009	103.295	20.235	3.492	0.498
250.500	196.582	80.044	20.010	103.291	20.235	3.481	0.488
251.000	196.839	80.043	20.010	103.289	20.238	3.265	0.503
251.500	197.042	80.043	20.010	103.287	20.234	3.522	0.490
252.000	197.279	80.044	20.009	103.287	20.236	3.393	0.450
252.500	197.551	80.036	20.009	103.288	20.236	3.417	0.474
253.000	197.785	80.025	20.006	103.288	20.236	3.426	0.507
253.500	198.005	80.024	20.004	103.286	20.235	3.498	0.480
254.000	198.293	80.028	20.003	103.279	20.233	3.632	0.481
254.500	198.545	80.026	20.003	103.272	20.234	3.540	0.524
255.000	198.768	80.027	20.003	103.263	20.233	3.626	0.508
255.500	199.059	80.028	20.003	103.256	20.234	3.560	0.495
256.000	199.300	80.025	20.000	103.251	20.231	3.712	0.523
256.500	199.513	80.024	20.001	103.250	20.232	3.679	0.492
257.000	199.753	80.023	19.998	103.250	20.232	3.696	0.454
257.500	199.991	80.014	19.997	103.250	20.231	3.756	0.466
258.000	200.216	80.008	19.996	103.250	20.234	3.553	0.470
258.500	200.466	80.008	19.996	103.250	20.229	3.853	0.469
259.000	200.716	80.005	19.995	103.250	20.231	3.705	0.488
259.500	200.948	80.005	19.996	103.250	20.230	3.813	0.491
260.000	201.183	80.007	19.997	103.247	20.229	3.875	0.474
260.500	201.455	80.006	19.995	103.248	20.231	3.749	0.487
261.000	201.720	80.005	19.996	103.248	20.229	3.875	0.522
261.500	201.983	80.007	19.994	103.248	20.229	3.861	0.533
262.000	202.230	80.008	19.995	103.249	20.228	3.908	0.519
262.500	202.439	80.006	19.995	103.251	20.228	3.938	0.483
263.000	202.700	80.007	19.994	103.251	20.228	3.969	0.463
263.500	202.931	80.005	19.995	103.252	20.227	4.015	0.481
264.000	203.177	80.006	19.995	103.253	20.227	3.987	0.484
264.500	203.464	80.005	19.995	103.253	20.226	4.081	0.505
265.000	203.615	80.006	19.995	103.254	20.228	3.916	0.486
265.500	203.906	80.007	19.994	103.254	20.226	4.108	0.440
266.000	204.130	80.006	19.995	103.252	20.226	4.092	0.479
266.500	204.409	80.005	19.995	103.251	20.229	3.883	0.509
267.000	204.629	80.005	19.994	103.251	20.229	3.888	0.501
267.500	204.913	80.005	19.994	103.251	20.229	3.890	0.502
268.000	205.121	80.008	19.994	103.252	20.229	3.844	0.498
268.500	205.374	80.006	19.994	103.252	20.224	4.180	0.476
269.000	205.616	80.006	19.995	103.251	20.228	3.945	0.478
269.500	205.867	80.007	19.995	103.251	20.225	4.119	0.494
270.000	206.100	80.007	19.995	103.251	20.227	4.022	0.488
270.500	206.360	80.007	19.995	103.251	20.225	4.112	0.488
271.000	206.575	80.003	19.995	103.250	20.226	4.053	0.484
271.500	206.842	80.003	19.995	103.251	20.225	4.174	0.479
272.000	207.094	80.005	19.995	103.251	20.225	4.172	0.501
272.500	207.354	80.005	19.995	103.252	20.226	4.082	0.516
273.000	207.625	80.005	19.995	103.251	20.222	4.317	0.522
273.500	207.857	80.005	19.995	103.252	20.226	4.097	0.517
274.000	208.117	80.003	19.994	103.252	20.227	4.011	0.497
274.500	208.333	80.003	19.994	103.252	20.228	3.938	0.484
275.000	208.598	80.005	19.994	103.252	20.223	4.273	0.479
275.500	208.851	80.004	19.994	103.252	20.226	4.101	0.500
276.000	209.072	80.004	19.995	103.251	20.229	3.897	0.496
276.500	209.314	80.004	19.995	103.251	20.225	4.159	0.468
277.000	209.540	80.004	19.995	103.251	20.224	4.182	0.465
277.500	209.787	80.005	19.996	103.250	20.224	4.181	0.471
278.000	210.030	80.006	19.995	103.250	20.224	4.200	0.481
278.500	210.276	80.003	19.995	103.252	20.226	4.066	0.489
279.000	210.526	80.004	19.995	103.252	20.222	4.314	0.493
279.500	210.771	80.003	19.996	103.252	20.224	4.218	0.495
280.000	211.046	80.005	19.996	103.252	20.225	4.139	0.507
280.500	211.265	80.005	19.997	103.253	20.225	4.176	0.507
281.000	211.503	80.006	19.996	103.253	20.224	4.178	0.475
281.500	211.779	80.004	19.995	103.253	20.220	4.513	0.485
282.000	212.006	80.005	19.995	103.252	20.223	4.310	0.508
282.500	212.245	80.005	19.994	103.251	20.222	4.315	0.484
283.000	212.482	80.005	19.995	103.252	20.222	4.335	0.471
283.500	212.715	80.005	19.994	103.251	20.224	4.202	0.474
284.000	212.942	80.005	19.994	103.251	20.223	4.308	0.466
284.500	213.207	80.004	19.994	103.253	20.222	4.328	0.476
285.000	213.472	80.006	19.994	103.253	20.225	4.123	0.511
285.500	213.703	80.006	19.994	103.252	20.222	4.357	0.513
286.000	213.958	80.004	19.994	103.252	20.221	4.390	0.491
286.500	214.203	80.005	19.993	103.252	20.221	4.434	0.493
287.000	214.453	80.006	19.994	103.252	20.221	4.445	0.498
287.500	214.692	80.007	19.994	103.251	20.220	4.480	0.492
288.000	214.939	80.007	19.995	103.252	20.226	4.104	0.487
288.500	215.182	80.005	19.995	103.252	20.222	4.315	0.488
289.000	215.425	80.006	19.995	103.252	20.225	4.161	0.488
289.500	215.709	80.006	19.996	103.252	20.223	4.282	0.507
290.001	215.896	80.006	19.996	103.254	20.224	4.178	0.499
290.501	216.173	80.007	19.994	103.253	20.222	4.376	0.467
291.000	216.416	80.007	19.996	103.254	20.222	4.344	0.492
291.500	216.633	80.007	19.995	103.254	20.222	4.313	0.490
292.000	216.897	80.007	19.994	103.254	20.222	4.332	0.470
292.500	217.127	80.007	19.996	103.252	20.225	4.117	0.487
293.000	217.399	80.007	19.994	103.252	20.222	4.359	0.498
293.500	217.624	80.007	19.995	103.251	20.223	4.295	0.499
294.000	217.870	80.008	19.995	103.251	20.224	4.218	0.484
294.500	218.117	80.007	19.993	103.251	20.222	4.350	0.482
295.000	218.341	80.004	19.994	103.251	20.223	4.253	0.482
295.500	218.590	80.006	19.995	103.251	20.223	4.258	0.472
296.000	218.828	80.008	19.995	103.251	20.226	4.097	0.480
296.500	219.086	80.007	19.993	103.249	20.222	4.330	0.491
297.000	219.327	80.007	19.995	103.249	20.222	4.315	0.498
297.500	219.570	80.005	19.996	103.248	20.224	4.181	0.492
298.000	219.839	80.007	19.994	103.248	20.224	4.196	0.498
298.500	220.078	80.006	19.993	103.248	20.227	4.040	0.510
299.000	220.316	80.006	19.994	103.248	20.228	3.961	0.492
299.500	220.562	80.006	19.993	103.248	20.226	4.108	0.481
300.000	220.804	80.006	19.997	103.248	20.225	4.167	0.486
300.501	221.070	80.004	19.995	103.248	20.225	4.126	0.498
301.000	221.289	80.006	19.995	103.248	20.225	4.163	0.496
301.500	221.540	80.007	19.994	103.248	20.226	4.082	0.477
302.000	221.799	80.006	19.997	103.248	20.226	4.058	0.490
302.500	222.037	80.006	19.994	103.248	20.228	3.965	0.504
303.000	222.308	80.006	19.995	103.248	20.228	3.954	0.503
303.500	222.572	80.005	19.997	103.248	20.231	3.745	0.522
304.000	222.822	80.008	19.995	103.247	20.228	3.945	0.524
304.500	223.046	80.006	19.997	103.247	20.226	4.053	0.494
305.000	223.304	80.007	19.994	103.247	20.229	3.864	0.479
305.500	223.530	80.004	19.996	103.247	20.229	3.899	0.483
306.000	223.775	80.007	19.995	103.247	20.228	3.923	0.477
306.500	224.042	80.007	19.994	103.248	20.230	3.811	0.491
307.000	224.254	80.005	19.995	103.248	20.229	3.879	0.495
307.500	224.511	80.006	19.995	103.247	20.228	3.932	0.474
308.000	224.777	80.006	19.996	103.247	20.229	3.846	0.496
308.500	225.041	80.006	19.996	103.246	20.228	3.963	0.526
309.000	225.280	80.007	19.996	103.245	20.228	3.941	0.517
309.500	225.529	80.007	19.997	103.245	20.226	4.059	0.496
310.000	225.801	80.006	19.995	103.245	20.227	3.987	0.505
310.500	226.012	80.007	19.995	103.245	20.226	4.075	0.502
311.000	226.278	80.007	19.994	103.245	20.229	3.904	0.480
311.500	226.518	80.008	19.995	103.247	20.226	4.053	0.492
312.000	226.764	80.007	19.996	103.247	20.228	3.950	0.496
312.500	227.012	80.007	19.995	103.247	20.228	3.935	0.490
313.000	227.267	80.006	19.995	103.246	20.226	4.069	0.498
313.500	227.535	80.008	19.995	103.246	20.227	4.040	0.513
314.000	227.773	80.007	19.992	103.246	20.228	3.928	0.515
314.500	228.012	80.007	19.995	103.246	20.224	4.225	0.491
315.000	228.268	80.007	19.995	103.246	20.226	4.078	0.486
315.500	228.567	80.008	19.996	103.247	20.228	3.965	0.525
316.000	228.818	80.007	19.994	103.247	20.229	3.888	0.553
316.500	229.054	80.008	19.995	103.247	20.226	4.055	0.519
317.000	229.279	80.008	19.994	103.246	20.226	4.049	0.474
317.500	229.575	80.008	19.994	103.246	20.224	4.201	0.491
318.000	229.826	80.007	19.994	103.246	20.223	4.289	0.534
318.500	230.038	80.007	19.994	103.247	20.225	4.119	0.505
319.000	230.327	80.008	19.993	103.247	20.223	4.280	0.482
319.500	230.584	80.007	19.993	103.248	20.227	4.000	0.523
320.000	230.836	80.007	19.995	103.249	20.222	4.311	0.527
320.500	231.091	80.007	19.993	103.249	20.223	4.297	0.508
321.000	231.336	80.006	19.992	103.249	20.224	4.242	0.504
321.500	231.587	80.007	19.994	103.246	20.223	4.273	0.498
322.000	231.803	80.006	19.995	103.242	20.227	4.038	0.481
322.500	232.055	80.006	19.994	103.239	20.226	4.097	0.467
323.000	232.321	80.005	19.994	103.238	20.226	4.075	0.493
323.500	232.536	80.007	19.995	103.239	20.225	4.161	0.500
324.000	232.793	80.004	19.993	103.242	20.223	4.245	0.476
324.500	233.072	80.006	19.993	103.241	20.223	4.302	0.504
325.000	233.325	80.004	19.994	103.242	20.223	4.308	0.534
325.500	233.553	80.006	19.993	103.243	20.223	4.256	0.507
326.000	233.848	80.004	19.994	103.241	20.223	4.280	0.502
326.500	234.084	80.005	19.994	103.241	20.225	4.163	0.527
327.000	234.318	80.007	19.995	103.245	20.223	4.260	0.501
327.500	234.560	80.007	19.994	103.248	20.224	4.244	0.473
328.000	234.811	80.005	19.994	103.248	20.225	4.137	0.484
328.500	235.083	80.006	19.993	103.247	20.224	4.181	0.508
329.000	235.288	80.003	19.993	103.246	20.222	4.346	0.500
329.500	235.561	80.004	19.995	103.245	20.221	4.443	0.478
330.000	235.801	80.002	19.994	103.243	20.223	4.301	0.496
330.500	236.020	80.005	19.994	103.243	20.221	4.420	0.486
331.000	236.287	80.005	19.994	103.245	20.223	4.286	0.472
331.500	236.551	80.006	19.994	103.247	20.221	4.381	0.508
332.000	236.810	80.004	19.994	103.244	20.222	4.317	0.527
332.500	237.064	80.006	19.994	103.244	20.223	4.263	0.518
333.000	237.289	80.005	19.994	103.241	20.223	4.261	0.496
333.500	237.523	80.003	19.994	103.239	20.220	4.452	0.469
334.000	237.790	80.005	19.994	103.238	20.223	4.271	0.480
334.500	238.018	80.007	19.993	103.242	20.224	4.234	0.497
335.000	238.257	80.005	19.993	103.243	20.225	4.154	0.481
335.500	238.539	80.004	19.994	103.245	20.223	4.284	0.494
336.000	238.787	80.004	19.993	103.246	20.221	4.386	0.525
336.500	239.011	80.006	19.994	103.246	20.220	4.496	0.500
337.000	239.285	80.004	19.996	103.245	20.223	4.256	0.485
337.500	239.498	80.006	19.994	103.245	20.219	4.547	0.493
338.000	239.766	80.006	19.994	103.246	20.222	4.351	0.484
338.500	239.992	80.004	19.996	103.244	20.225	4.151	0.488
339.000	240.292	80.005	19.994	103.245	20.222	4.351	0.510
339.500	240.474	80.005	19.994	103.244	20.223	4.309	0.503
340.000	240.753	80.005	19.993	103.246	20.222	4.359	0.471
340.500	241.012	80.005	19.994	103.247	20.221	4.427	0.499
341.000	241.231	80.005	19.994	103.248	20.216	4.744	0.508
341.500	241.476	80.005	19.994	103.246	20.220	4.473	0.471
342.000	241.732	80.005	19.994	103.246	20.220	4.477	0.483
342.500	241.977	80.005	19.993	103.242	20.220	4.484	0.501
343.000	242.210	80.007	19.996	103.237	20.219	4.554	0.489
343.500	242.482	80.005	19.995	103.233	20.219	4.554	0.492
344.000	242.711	80.004	19.994	103.232	20.221	4.392	0.503
344.500	242.968	80.005	19.994	103.233	20.221	4.398	0.494
345.000	243.225	80.006	19.994	103.234	20.221	4.401	0.500
345.500	243.471	80.009	19.995	103.239	20.224	4.216	0.508
346.000	243.745	80.006	19.994	103.243	20.221	4.436	0.511
346.500	243.987	80.005	19.994	103.245	20.220	4.476	0.518
347.000	244.236	80.004	19.994	103.242	20.222	4.369	0.503
347.500	244.466	80.007	19.994	103.238	20.217	4.676	0.485
348.000	244.743	80.006	19.993	103.234	20.219	4.571	0.493
348.500	244.992	80.006	19.993	103.233	20.218	4.643	0.516
349.000	245.234	80.006	19.993	103.232	20.218	4.599	0.508
349.500	245.459	80.007	19.993	103.234	20.218	4.643	0.479
350.000	245.742	80.005	19.994	103.240	20.218	4.627	0.487
350.500	245.965	80.006	19.994	103.244	20.217	4.702	0.507
351.000	246.232	80.006	19.993	103.244	20.217	4.707	0.498
351.500	246.508	80.006	19.994	103.247	20.218	4.643	0.517
352.000	246.720	80.004	19.994	103.248	20.217	4.693	0.515
352.500	246.964	80.006	19.993	103.248	20.216	4.760	0.472
353.000	247.224	80.005	19.994	103.250	20.217	4.713	0.480
353.500	247.498	80.007	19.994	103.251	20.216	4.733	0.519
354.000	247.725	80.005	19.993	103.250	20.217	4.698	0.518
354.500	247.963	80.004	19.993	103.249	20.217	4.707	0.484
355.000	248.230	80.007	19.994	103.249	20.215	4.837	0.485
355.500	248.455	80.006	19.993	103.247	20.214	4.903	0.498
356.000	248.722	80.004	19.993	103.246	20.214	4.884	0.491
356.500	249.033	80.005	19.993	103.245	20.217	4.704	0.535
357.000	249.242	80.005	19.994	103.243	20.214	4.875	0.549
357.500	249.529	80.006	19.994	103.239	20.217	4.704	0.508
358.000	249.789	80.005	19.994	103.232	20.214	4.895	0.522
358.500	250.039	80.006	19.993	103.231	20.217	4.668	0.528
359.000	250.262	80.003	19.994	103.235	20.218	4.646	0.491
359.500	250.546	80.007	19.994	103.238	20.213	4.954	0.490
360.000	250.812	80.005	19.994	103.243	20.214	4.873	0.528
360.500	251.062	80.005	19.994	103.246	20.214	4.871	0.533
361.000	251.284	80.003	19.994	103.246	20.214	4.902	0.494
361.500	251.527	80.005	19.995	103.242	20.217	4.710	0.468
362.000	251.784	80.004	19.994	103.243	20.214	4.851	0.483
362.500	252.026	80.005	19.994	103.242	20.216	4.730	0.500
363.000	252.263	80.006	19.994	103.245	20.214	4.855	0.489
363.500	252.557	80.006	19.995	103.242	20.216	4.774	0.505
364.000	252.825	80.006	19.995	103.240	20.212	4.988	0.547
364.500	253.054	80.007	19.995	103.239	20.217	4.686	0.530
365.000	253.316	80.006	19.995	103.238	20.218	4.631	0.494
365.500	253.549	80.006	19.995	103.237	20.216	4.741	0.493
366.000	253.779	80.007	19.994	103.235	20.214	4.901	0.479
366.500	254.046	80.007	19.994	103.232	20.213	4.967	0.480
367.000	254.295	80.005	19.995	103.226	20.216	4.750	0.507
367.500	254.592	80.006	19.994	103.219	20.212	4.988	0.531
368.000	254.846	80.005	19.994	103.216	20.213	4.944	0.549
368.500	255.053	80.006	19.996	103.220	20.213	4.983	0.506
369.000	255.321	80.006	19.994	103.225	20.212	5.038	0.468
369.500	255.575	80.006	19.995	103.227	20.214	4.906	0.498
370.000	255.851	80.007	19.995	103.229	20.213	4.948	0.526
370.500	256.062	80.007	19.994	103.229	20.214	4.893	0.508
371.000	256.309	80.006	19.994	103.225	20.215	4.834	0.472
371.500	256.581	80.006	19.995	103.221	20.216	4.754	0.489
372.001	256.825	80.006	19.997	103.220	20.214	4.899	0.518
372.500	257.070	80.006	19.996	103.220	20.213	4.939	0.503
373.000	257.383	80.006	19.994	103.220	20.215	4.846	0.523
373.500	257.588	80.006	19.994	103.219	20.212	5.010	0.538
374.000	257.847	80.006	19.994	103.223	20.215	4.822	0.491
374.500	258.076	80.007	19.995	103.223	20.214	4.877	0.476
375.000	258.323	80.006	19.996	103.220	20.212	5.044	0.482
375.500	258.615	80.006	19.995	103.220	20.214	4.864	0.508
376.000	258.870	80.006	19.994	103.220	20.213	4.928	0.543
376.500	259.104	80.006	19.997	103.222	20.214	4.857	0.518
377.000	259.361	80.006	19.995	103.222	20.217	4.685	0.490
377.500	259.640	80.007	19.995	103.225	20.216	4.725	0.514
378.000	259.879	80.007	19.995	103.224	20.215	4.816	0.527
378.500	260.097	80.007	19.995	103.222	20.217	4.699	0.488
379.000	260.389	80.007	19.994	103.216	20.219	4.558	0.484
379.500	260.610	80.008	19.995	103.215	20.215	4.791	0.512
380.000	260.825	80.006	19.995	103.214	20.218	4.631	0.475
380.500	261.105	80.007	19.995	103.213	20.214	4.862	0.465
381.000	261.324	80.007	19.994	103.214	20.214	4.886	0.497
381.500	261.609	80.006	19.994	103.214	20.213	4.957	0.502
382.000	261.817	80.006	19.994	103.220	20.216	4.757	0.499
382.500	262.047	80.005	19.994	103.224	20.212	5.019	0.465
383.000	262.330	80.006	19.995	103.227	20.215	4.785	0.475
383.500	262.603	80.007	19.994	103.227	20.215	4.791	0.534
384.000	262.836	80.006	19.995	103.229	20.216	4.739	0.531
384.500	263.100	80.006	19.994	103.222	20.213	4.939	0.502
385.000	263.374	80.006	19.994	103.218	20.211	5.056	0.517
385.500	263.618	80.006	19.995	103.220	20.210	5.129	0.528
386.000	263.853	80.007	19.994	103.225	20.211	5.073	0.499
386.500	264.127	80.007	19.994	103.227	20.210	5.162	0.494
387.000	264.368	80.006	19.995	103.230	20.213	4.977	0.512
387.500	264.631	80.005	19.994	103.228	20.209	5.239	0.509
388.000	264.855	80.007	19.995	103.227	20.212	5.039	0.495
388.500	265.095	80.007	19.995	103.227	20.211	5.107	0.476
389.000	265.344	80.007	19.995	103.226	20.212	5.045	0.477
389.500	265.635	80.009	19.997	103.226	20.209	5.224	0.514
390.000	265.864	80.008	19.994	103.227	20.210	5.126	0.530
390.500	266.104	80.007	19.995	103.229	20.209	5.203	0.495
391.000	266.413	80.007	19.995	103.223	20.208	5.291	0.509
391.500	266.632	80.008	19.995	103.219	20.211	5.087	0.539
392.000	266.878	80.008	19.994	103.218	20.212	5.021	0.496
392.500	267.147	80.007	19.995	103.218	20.207	5.331	0.490
393.000	267.448	80.007	19.995	103.217	20.208	5.298	0.542
393.500	267.670	80.006	19.994	103.219	20.210	5.186	0.546
394.000	267.922	80.007	19.995	103.224	20.207	5.366	0.498
394.500	268.124	80.006	19.994	103.224	20.209	5.195	0.464
395.000	268.367	80.005	19.994	103.224	20.209	5.212	0.449
395.500	268.621	80.008	19.996	103.226	20.211	5.095	0.471
396.000	268.869	80.007	19.994	103.225	20.209	5.201	0.500
396.500	269.124	80.006	19.995	103.219	20.208	5.267	0.503
397.000	269.426	80.007	19.994	103.219	20.209	5.210	0.530
397.500	269.644	80.006	19.994	103.219	20.210	5.135	0.539
398.000	269.933	80.007	19.995	103.216	20.210	5.160	0.513
398.500	270.182	80.008	19.994	103.214	20.210	5.179	0.522
399.000	270.400	80.005	19.995	103.214	20.212	5.045	0.502
399.500	270.680	80.006	19.994	103.212	20.212	5.014	0.483
400.000	270.949	80.007	19.994	103.213	20.211	5.082	0.524
400.500	271.193	80.006	19.995	103.214	20.211	5.085	0.531
401.000	271.445	80.008	19.995	103.216	20.208	5.274	0.504
401.500	271.735	80.007	19.995	103.216	20.211	5.121	0.520
402.000	271.948	80.007	19.994	103.215	20.211	5.102	0.523
402.500	272.204	80.005	19.995	103.214	20.214	4.882	0.486
403.000	272.477	80.006	19.994	103.212	20.214	4.893	0.499
403.500	272.725	80.005	19.994	103.211	20.211	5.100	0.525
404.000	272.992	80.005	19.995	103.213	20.211	5.067	0.518
404.500	273.187	80.003	19.993	103.213	20.211	5.097	0.489
405.000	273.447	80.006	19.995	103.215	20.211	5.101	0.459
405.500	273.701	80.005	19.996	103.216	20.210	5.163	0.484
406.000	273.960	80.005	19.994	103.218	20.213	4.961	0.513
406.500	274.215	80.006	19.997	103.220	20.207	5.326	0.514
407.000	274.491	80.005	19.995	103.221	20.210	5.135	0.523
407.500	274.765	80.004	19.996	103.219	20.211	5.100	0.540
408.000	274.987	80.003	19.995	103.218	20.210	5.173	0.523
408.500	275.278	80.004	19.995	103.216	20.210	5.183	0.504
409.000	275.504	80.005	19.995	103.213	20.207	5.335	0.515
409.500	275.783	80.004	19.994	103.213	20.209	5.214	0.511
410.001	276.029	80.007	19.994	103.213	20.211	5.115	0.516
410.500	276.281	80.003	19.995	103.215	20.209	5.232	0.512
411.000	276.511	80.004	19.994	103.217	20.214	4.886	0.490
411.500	276.774	80.004	19.994	103.218	20.212	4.994	0.487
412.001	277.022	80.005	19.996	103.224	20.211	5.061	0.502
412.500	277.315	80.005	19.993	103.226	20.210	5.149	0.526
413.000	277.528	80.004	19.994	103.225	20.212	5.001	0.524
413.500	277.781	80.005	19.993	103.224	20.211	5.096	0.486
414.000	278.041	80.004	19.994	103.226	20.214	4.902	0.489
414.500	278.325	80.005	19.994	103.225	20.213	4.968	0.529
415.000	278.553	80.005	19.994	103.225	20.210	5.159	0.528
415.500	278.818	80.005	19.994	103.225	20.212	5.038	0.503
416.000	279.059	80.005	19.995	103.227	20.214	4.917	0.499
416.500	279.338	80.005	19.994	103.226	20.210	5.129	0.513
417.000	279.607	80.005	19.994	103.224	20.211	5.103	0.534
417.500	279.839	80.004	19.993	103.223	20.211	5.078	0.524
418.000	280.092	80.004	19.994	103.222	20.211	5.074	0.493
418.500	280.372	80.004	19.995	103.220	20.214	4.862	0.509
419.000	280.545	80.005	19.993	103.218	20.213	4.953	0.493
419.500	280.848	80.005	19.993	103.219	20.214	4.858	0.465
420.000	281.100	80.005	19.994	103.223	20.212	4.990	0.516
420.500	281.342	80.006	19.994	103.223	20.215	4.785	0.525
421.000	281.583	80.004	19.994	103.223	20.214	4.913	0.489
421.500	281.852	80.005	19.994	103.223	20.212	5.047	0.496
422.000	282.083	80.005	19.993	103.220	20.214	4.896	0.505
422.500	282.345	80.004	19.993	103.216	20.215	4.799	0.496
423.000	282.571	80.006	19.993	103.215	20.216	4.750	0.490
423.500	282.819	80.005	19.994	103.215	20.217	4.715	0.481
424.000	283.097	80.005	19.994	103.215	20.214	4.878	0.500
424.500	283.368	80.004	19.994	103.216	20.214	4.854	0.537
425.000	283.598	80.004	19.994	103.217	20.211	5.091	0.525
425.500	283.859	80.004	19.995	103.216	20.215	4.786	0.496
426.000	284.104	80.004	19.994	103.216	20.211	5.087	0.499
426.500	284.387	80.005	19.995	103.216	20.213	4.973	0.518
427.000	284.627	80.005	19.994	103.215	20.215	4.847	0.526
427.500	284.888	80.005	19.993	103.213	20.212	5.005	0.512
428.000	285.136	80.005	19.994	103.212	20.213	4.979	0.505
428.500	285.377	80.004	19.994	103.210	20.211	5.085	0.499
429.000	285.642	80.006	19.994	103.213	20.214	4.864	0.497
429.500	285.891	80.005	19.994	103.213	20.210	5.124	0.510
430.000	286.171	80.006	19.994	103.214	20.213	4.959	0.522
430.500	286.384	80.004	19.993	103.214	20.212	5.003	0.511
431.000	286.628	80.007	19.994	103.214	20.216	4.748	0.474
431.500	286.908	80.006	19.994	103.211	20.213	4.922	0.491
432.000	287.190	80.005	19.994	103.211	20.212	5.032	0.544
432.500	287.439	80.006	19.994	103.211	20.214	4.858	0.547
433.000	287.672	80.004	19.994	103.214	20.213	4.939	0.506
433.500	287.930	80.005	19.994	103.214	20.214	4.867	0.486
434.000	288.189	80.004	19.994	103.215	20.211	5.120	0.504
434.500	288.489	80.005	19.994	103.214	20.209	5.215	0.538
435.000	288.708	80.005	19.995	103.214	20.213	4.966	0.539
435.500	288.936	80.003	19.995	103.211	20.211	5.113	0.483
436.000	289.255	80.004	19.994	103.211	20.215	4.838	0.497
436.500	289.493	80.005	19.995	103.211	20.214	4.856	0.552
437.000	289.761	80.004	19.994	103.211	20.215	4.838	0.532
437.500	289.998	80.004	19.995	103.211	20.216	4.746	0.505
438.000	290.258	80.006	19.994	103.212	20.212	5.019	0.501
438.500	290.517	80.003	19.994	103.213	20.214	4.895	0.508
439.000	290.760	80.005	19.994	103.213	20.214	4.893	0.511
439.500	291.015	80.005	19.994	103.215	20.214	4.895	0.500
440.000	291.281	80.004	19.995	103.215	20.212	5.034	0.509
440.501	291.525	80.005	19.993	103.213	20.212	5.043	0.516
441.001	291.785	80.005	19.994	103.213	20.211	5.085	0.507
441.500	292.032	80.006	19.994	103.212	20.211	5.111	0.505
442.000	292.285	80.005	19.993	103.211	20.214	4.903	0.503
442.500	292.553	80.005	19.994	103.212	20.213	4.938	0.511
443.000	292.774	80.005	19.995	103.212	20.215	4.830	0.505
443.500	293.052	80.004	19.995	103.212	20.212	5.047	0.494
444.000	293.304	80.005	19.994	103.211	20.213	4.955	0.514
444.500	293.533	80.005	19.994	103.211	20.210	5.171	0.505
445.000	293.823	80.006	19.995	103.211	20.210	5.144	0.500
445.500	294.081	80.006	19.995	103.211	20.213	4.962	0.533
446.000	294.319	80.006	19.994	103.211	20.210	5.142	0.522
446.500	294.580	80.007	19.994	103.211	20.212	5.036	0.498
447.000	294.862	80.005	19.994	103.212	20.210	5.133	0.521
447.500	295.042	80.006	19.994	103.212	20.211	5.109	0.503
448.000	295.340	80.007	19.994	103.211	20.209	5.232	0.470
448.500	295.604	80.006	19.993	103.211	20.211	5.056	0.520
449.000	295.849	80.007	19.994	103.211	20.211	5.072	0.535
449.500	296.102	80.007	19.993	103.213	20.212	5.037	0.504
450.000	296.373	80.008	19.994	103.213	20.210	5.121	0.511
450.500	296.609	80.007	19.995	103.213	20.209	5.222	0.515
451.000	296.876	80.006	19.995	103.211	20.213	4.964	0.505
451.500	297.115	80.007	19.993	103.210	20.207	5.338	0.505
452.000	297.373	80.008	19.994	103.208	20.211	5.065	0.501
452.500	297.640	80.006	19.993	103.207	20.208	5.255	0.511
453.000	297.882	80.009	19.994	103.207	20.212	5.025	0.517
453.500	298.092	80.008	19.994	103.208	20.211	5.087	0.481
454.000	298.384	80.008	19.993	103.210	20.211	5.074	0.477
454.500	298.610	80.008	19.994	103.210	20.210	5.166	0.510
455.000	298.884	80.008	19.993	103.210	20.212	4.986	0.509
455.500	299.134	80.007	19.993	103.209	20.210	5.129	0.512
456.000	299.372	80.008	19.995	103.209	20.210	5.144	0.506
456.500	299.625	80.007	19.995	103.209	20.209	5.204	0.489
457.000	299.897	80.008	19.994	103.210	20.210	5.177	0.508
457.500	300.129	80.007	19.994	103.212	20.209	5.193	0.515
458.000	300.381	80.007	19.994	103.212	20.209	5.239	0.494
458.500	300.630	80.008	19.994	103.213	20.209	5.193	0.492
459.000	300.886	80.005	19.995	103.211	20.207	5.369	0.503
459.500	301.152	80.007	19.994	103.208	20.210	5.138	0.513
460.000	301.394	80.007	19.995	103.205	20.211	5.089	0.515
460.500	301.638	80.007	19.994	103.205	20.210	5.138	0.497
461.000	301.882	80.006	19.994	103.205	20.208	5.287	0.487
461.500	302.139	80.006	19.993	103.206	20.205	5.525	0.494
462.000	302.404	80.007	19.995	103.208	20.209	5.246	0.511
462.500	302.627	80.005	19.995	103.209	20.206	5.430	0.505
463.000	302.898	80.006	19.995	103.210	20.209	5.254	0.491
463.500	303.181	80.005	19.994	103.210	20.207	5.364	0.524
464.000	303.388	80.006	19.994	103.211	20.208	5.267	0.522
464.500	303.661	80.007	19.994	103.212	20.207	5.340	0.485
465.000	303.899	80.006	19.994	103.212	20.208	5.292	0.495
465.500	304.137	80.007	19.996	103.213	20.210	5.175	0.493
466.000	304.352	80.006	19.995	103.212	20.205	5.523	0.464
466.500	304.615	80.007	19.995	103.211	20.206	5.391	0.465
467.000	304.920	80.006	19.995	103.210	20.205	5.474	0.523
467.500	305.156	80.006	19.994	103.210	20.205	5.518	0.555
468.000	305.391	80.006	19.995	103.210	20.203	5.650	0.506
468.500	305.647	80.006	19.994	103.211	20.202	5.695	0.481
469.000	305.905	80.006	19.995	103.213	20.204	5.582	0.503
469.500	306.141	80.006	19.995	103.214	20.204	5.536	0.505
470.000	306.392	80.005	19.995	103.214	20.206	5.430	0.490
470.500	306.641	80.006	19.995	103.214	20.207	5.324	0.494
471.000	306.857	80.006	19.995	103.213	20.207	5.349	0.483
471.500	307.128	80.005	19.994	103.212	20.207	5.366	0.476
472.000	307.346	80.005	19.994	103.212	20.206	5.395	0.488
472.500	307.590	80.006	19.995	103.213	20.204	5.527	0.476
473.000	307.826	80.008	19.995	103.213	20.207	5.336	0.471
473.500	308.095	80.007	19.994	103.213	20.206	5.448	0.493
474.000	308.390	80.006	19.994	103.213	20.201	5.792	0.535
474.500	308.609	80.007	19.995	103.212	20.205	5.462	0.539
475.000	308.872	80.007	19.994	103.212	20.205	5.490	0.498
475.500	309.096	80.007	19.994	103.215	20.203	5.628	0.485
476.000	309.382	80.007	19.993	103.215	20.204	5.553	0.498
476.500	309.604	80.008	19.994	103.215	20.203	5.608	0.509
477.000	309.859	80.007	19.993	103.215	20.205	5.492	0.493
477.500	310.122	80.008	19.994	103.215	20.203	5.622	0.497
478.000	310.361	80.008	19.995	103.213	20.201	5.772	0.510
478.500	310.610	80.009	19.993	103.213	20.204	5.573	0.495
479.000	310.842	80.007	19.994	103.212	20.201	5.754	0.484
479.500	311.127	80.008	19.993	103.212	20.203	5.604	0.499
480.000	311.361	80.008	19.994	103.214	20.201	5.756	0.519
480.500	311.610	80.009	19.994	103.214	20.200	5.802	0.501
481.000	311.849	80.007	19.994	103.215	20.201	5.754	0.485
481.500	312.134	80.007	19.994	103.216	20.201	5.756	0.506
482.000	312.397	80.009	19.994	103.216	20.201	5.761	0.536
482.500	312.656	80.007	19.994	103.215	20.197	6.003	0.536
483.000	312.869	80.005	19.994	103.213	20.200	5.829	0.497
483.500	313.115	80.006	19.994	103.211	20.199	5.930	0.465
484.000	313.388	80.005	19.994	103.209	20.199	5.869	0.489
484.500	313.632	80.006	19.994	103.209	20.197	6.025	0.518
485.000	313.903	80.005	19.994	103.209	20.198	5.970	0.516
485.500	314.152	80.005	19.994	103.209	20.194	6.205	0.518
486.000	314.405	80.005	19.994	103.213	20.196	6.120	0.511
486.500	314.655	80.006	19.995	103.215	20.194	6.252	0.502
487.000	314.902	80.006	19.994	103.215	20.197	6.016	0.500
487.500	315.128	80.006	19.995	103.216	20.196	6.098	0.485
488.001	315.367	80.005	19.994	103.215	20.197	6.018	0.469
488.501	315.623	80.005	19.995	103.213	20.194	6.225	0.480
489.000	315.845	80.005	19.994	103.212	20.197	6.063	0.486
489.500	316.124	80.005	19.994	103.212	20.195	6.194	0.489
490.000	316.355	80.004	19.995	103.213	20.197	6.043	0.506
490.500	316.609	80.005	19.995	103.213	20.193	6.289	0.498
491.000	316.858	80.004	19.995	103.214	20.195	6.195	0.494
491.500	317.109	80.005	19.995	103.213	20.194	6.227	0.502
492.000	317.348	80.004	19.995	103.215	20.193	6.271	0.495
492.500	317.608	80.004	19.995	103.214	20.192	6.384	0.494
493.000	317.860	80.005	19.996	103.213	20.194	6.247	0.505
493.500	318.121	80.004	19.996	103.214	20.193	6.322	0.512
494.000	318.347	80.004	19.995	103.214	20.192	6.403	0.500
494.500	318.622	80.005	19.996	103.212	20.191	6.456	0.494
495.000	318.833	80.005	19.996	103.211	20.190	6.472	0.494
495.500	319.120	80.005	19.996	103.213	20.188	6.617	0.492
496.000	319.338	80.004	19.995	103.212	20.190	6.503	0.501
496.501	319.555	80.003	19.996	103.212	20.190	6.535	0.470
497.001	319.826	80.005	19.996	103.212	20.188	6.624	0.461
497.501	320.062	80.005	19.996	103.211	20.189	6.566	0.498
498.000	320.323	80.005	19.995	103.210	20.186	6.775	0.502
498.500	320.534	80.004	19.996	103.210	20.182	7.015	0.485
499.000	320.827	80.005	19.995	103.210	20.185	6.863	0.488
499.500	321.058	80.004	19.996	103.209	20.184	6.890	0.514
500.000	321.306	80.004	19.996	103.209	20.182	7.068	0.501
500.500	321.564	80.006	19.995	103.209	20.187	6.721	0.492
501.000	321.781	80.005	19.995	103.209	20.185	6.866	0.491
501.500	322.045	80.005	19.994	103.210	20.185	6.820	0.478
502.000	322.304	80.007	19.994	103.210	20.183	7.000	0.502
502.500	322.535	80.005	19.995	103.210	20.183	7.000	0.507
503.000	322.801	80.006	19.994	103.210	20.183	6.973	0.493
503.500	323.016	80.006	19.995	103.210	20.181	7.092	0.489
504.000	323.291	80.006	19.995	103.209	20.181	7.134	0.486
504.500	323.529	80.007	19.994	103.210	20.185	6.861	0.501
505.000	323.766	80.006	19.994	103.210	20.181	7.119	0.493
505.500	323.990	80.006	19.994	103.211	20.179	7.278	0.468
506.000	324.289	80.005	19.993	103.211	20.179	7.231	0.492
506.500	324.512	80.005	19.994	103.211	20.178	7.284	0.523
507.000	324.727	80.006	19.994	103.210	20.177	7.401	0.480
507.500	325.004	80.007	19.994	103.211	20.178	7.286	0.465
508.000	325.226	80.005	19.995	103.211	20.176	7.431	0.496
508.500	325.454	80.006	19.994	103.212	20.175	7.486	0.474
509.000	325.671	80.006	19.995	103.211	20.176	7.418	0.448
509.500	325.977	80.005	19.995	103.211	20.174	7.618	0.484
510.000	326.191	80.006	19.994	103.211	20.174	7.578	0.522
510.500	326.489	80.006	19.994	103.211	20.172	7.706	0.515
511.000	326.725	80.007	19.994	103.210	20.172	7.715	0.522
511.500	326.951	80.006	19.994	103.211	20.174	7.585	0.498
512.000	327.176	80.006	19.995	103.210	20.173	7.671	0.457
512.500	327.443	80.006	19.995	103.211	20.173	7.680	0.472
513.000	327.676	80.005	19.994	103.212	20.171	7.762	0.496
513.500	327.887	80.005	19.995	103.212	20.173	7.660	0.472
514.000	328.147	80.006	19.995	103.212	20.172	7.750	0.457
514.500	328.369	80.006	19.994	103.212	20.167	8.046	0.476
515.000	328.626	80.006	19.994	103.210	20.169	7.909	0.480
515.500	328.886	80.007	19.994	103.209	20.170	7.848	0.498
516.000	329.131	80.005	19.995	103.209	20.170	7.859	0.511
516.500	329.356	80.005	19.995	103.210	20.170	7.885	0.488
517.000	329.608	80.005	19.995	103.210	20.171	7.766	0.474
517.500	329.844	80.005	19.995	103.211	20.169	7.942	0.482
518.000	330.095	80.004	19.995	103.210	20.171	7.810	0.487
518.500	330.358	80.006	19.994	103.210	20.168	8.004	0.500
519.000	330.565	80.006	19.994	103.210	20.169	7.936	0.492
519.500	330.793	80.005	19.994	103.215	20.169	7.913	0.453
520.000	331.077	80.006	19.994	103.216	20.165	8.158	0.474
520.500	331.285	80.005	19.995	103.216	20.166	8.118	0.502
521.000	331.523	80.003	19.995	103.216	20.167	8.059	0.469
521.500	331.779	80.005	19.994	103.216	20.165	8.197	0.470
522.000	332.027	80.005	19.994	103.212	20.167	8.039	0.499
522.500	332.285	80.004	19.995	103.211	20.166	8.103	0.505
523.000	332.519	80.004	19.995	103.211	20.162	8.371	0.499
523.500	332.763	80.005	19.995	103.211	20.164	8.268	0.485
524.000	332.981	80.005	19.994	103.212	20.164	8.292	0.470
524.500	333.238	80.004	19.994	103.213	20.162	8.402	0.468
525.000	333.491	80.005	19.995	103.213	20.163	8.310	0.492
525.500	333.728	80.004	19.994	103.213	20.165	8.215	0.500
526.000	334.001	80.004	19.995	103.213	20.159	8.598	0.500
526.500	334.230	80.005	19.995	103.212	20.159	8.582	0.505
527.000	334.457	80.004	19.995	103.210	20.161	8.448	0.479
527.500	334.732	80.007	19.995	103.210	20.159	8.598	0.479
528.000	334.945	80.005	19.995	103.210	20.163	8.340	0.495
528.500	335.155	80.004	19.995	103.210	20.158	8.649	0.456
529.000	335.441	80.004	19.995	103.209	20.158	8.690	0.460
529.500	335.665	80.004	19.994	103.212	20.157	8.763	0.503
530.000	335.966	80.006	19.994	103.212	20.159	8.611	0.518
530.500	336.188	80.004	19.994	103.212	20.161	8.450	0.524
531.000	336.422	80.006	19.995	103.213	20.162	8.398	0.489
531.500	336.668	80.004	19.994	103.214	20.157	8.715	0.468
532.000	336.875	80.007	19.994	103.214	20.159	8.600	0.467
532.500	337.116	80.006	19.995	103.213	20.160	8.552	0.450
533.000	337.388	80.005	19.994	103.213	20.156	8.790	0.480
533.500	337.642	80.007	19.994	103.213	20.157	8.699	0.520
534.000	337.850	80.008	19.994	103.212	20.158	8.640	0.493
534.500	338.125	80.006	19.994	103.212	20.159	8.580	0.472
535.000	338.347	80.006	19.994	103.212	20.158	8.637	0.490
535.500	338.618	80.007	19.995	103.211	20.159	8.583	0.495
536.000	338.820	80.006	19.994	103.210	20.159	8.565	0.483
536.500	339.075	80.007	19.994	103.211	20.159	8.571	0.465
537.000	339.306	80.008	19.995	103.214	20.157	8.725	0.472
537.500	339.531	80.007	19.994	103.215	20.160	8.516	0.471
538.000	339.800	80.007	19.993	103.215	20.162	8.386	0.475
538.500	340.013	80.007	19.993	103.216	20.160	8.521	0.489
539.000	340.272	80.006	19.993	103.216	20.159	8.613	0.477
539.500	340.504	80.007	19.994	103.213	20.160	8.532	0.481
540.000	340.739	80.007	19.993	103.212	20.163	8.340	0.479
540.500	340.965	80.007	19.993	103.213	20.159	8.586	0.464
541.000	341.215	80.006	19.994	103.212	20.159	8.588	0.469
541.500	341.462	80.005	19.994	103.212	20.158	8.661	0.487
542.000	341.728	80.007	19.993	103.213	20.159	8.602	0.505
542.500	341.932	80.007	19.994	103.213	20.160	8.520	0.491
543.000	342.162	80.007	19.993	103.213	20.159	8.597	0.452
543.500	342.410	80.006	19.994	103.213	20.159	8.626	0.456
544.000	342.655	80.006	19.994	103.212	20.155	8.864	0.485
544.500	342.884	80.006	19.994	103.212	20.156	8.809	0.484
545.000	343.134	80.005	19.993	103.212	20.157	8.714	0.477
545.500	343.349	80.006	19.994	103.212	20.159	8.580	0.472
546.000	343.593	80.007	19.994	103.212	20.158	8.664	0.462
546.500	343.845	80.006	19.993	103.213	20.159	8.587	0.478
547.000	344.056	80.006	19.993	103.214	20.159	8.625	0.479
547.500	344.306	80.005	19.994	103.213	20.156	8.787	0.462
548.000	344.557	80.007	19.993	103.213	20.157	8.739	0.481
548.500	344.829	80.006	19.994	103.214	20.160	8.532	0.512
549.000	345.021	80.007	19.994	103.214	20.159	8.610	0.494
549.501	345.271	80.006	19.994	103.214	20.156	8.788	0.454
550.001	345.518	80.005	19.994	103.214	20.160	8.514	0.470
550.500	345.756	80.008	19.994	103.216	20.157	8.733	0.491
551.000	345.990	80.003	19.994	103.216	20.159	8.583	0.478
551.500	346.272	80.006	19.993	103.218	20.159	8.609	0.494
552.000	346.498	80.006	19.993	103.219	20.155	8.863	0.512
552.500	346.750	80.006	19.995	103.221	20.159	8.616	0.493
553.000	346.989	80.006	19.994	103.219	20.159	8.607	0.485
553.500	347.265	80.008	19.994	103.219	20.157	8.706	0.503
554.000	347.489	80.007	19.994	103.217	20.157	8.722	0.507
554.500	347.719	80.008	19.994	103.216	20.157	8.742	0.477
555.000	347.980	80.007	19.995	103.215	20.159	8.577	0.472
555.501	348.213	80.008	19.994	103.215	20.156	8.786	0.492
556.000	348.485	80.007	19.996	103.213	20.158	8.647	0.500
556.500	348.715	80.008	19.994	103.213	20.157	8.702	0.504
557.000	348.976	80.007	19.994	103.212	20.156	8.778	0.497
557.500	349.235	80.007	19.995	103.211	20.160	8.538	0.505
558.001	349.475	80.007	19.994	103.210	20.158	8.682	0.509
558.500	349.726	80.008	19.994	103.209	20.158	8.688	0.495
559.000	349.981	80.008	19.994	103.209	20.157	8.765	0.499
559.500	350.279	80.008	19.995	103.208	20.157	8.717	0.530
560.000	350.518	80.008	19.995	103.208	20.156	8.776	0.545
560.500	350.752	80.008	19.995	103.209	20.155	8.876	0.505
561.000	351.007	80.007	19.996	103.210	20.157	8.737	0.481
561.500	351.261	80.009	19.994	103.211	20.155	8.888	0.499
562.000	351.503	80.007	19.995	103.210	20.158	8.640	0.502
562.500	351.782	80.006	19.993	103.210	20.155	8.840	0.509
563.000	352.058	80.008	19.996	103.209	20.158	8.697	0.538
563.500	352.266	80.009	19.994	103.208	20.159	8.596	0.519
564.000	352.547	80.008	19.995	103.207	20.157	8.703	0.487
564.500	352.797	80.006	19.995	103.207	20.156	8.818	0.510
565.000	353.050	80.008	19.995	103.207	20.155	8.873	0.517
565.500	353.327	80.009	19.993	103.207	20.159	8.622	0.516
566.000	353.567	80.006	19.994	103.207	20.152	9.062	0.524
566.500	353.862	80.007	19.994	103.208	20.157	8.757	0.527
567.000	354.104	80.007	19.995	103.210	20.154	8.957	0.536
567.500	354.343	80.007	19.995	103.212	20.155	8.862	0.509
568.000	354.608	80.007	19.993	103.213	20.154	8.940	0.492
568.500	354.861	80.007	19.995	103.213	20.156	8.832	0.511
569.000	355.125	80.006	19.994	103.214	20.154	8.904	0.517
569.500	355.345	80.006	19.996	103.214	20.152	9.056	0.501
570.000	355.624	80.005	19.994	103.212	20.155	8.885	0.491
570.500	355.898	80.006	19.994	103.212	20.155	8.880	0.526
571.000	356.146	80.006	19.994	103.212	20.159	8.579	0.538
571.500	356.406	80.005	19.994	103.211	20.154	8.911	0.515
572.000	356.719	80.005	19.995	103.210	20.155	8.858	0.541
572.500	356.932	80.006	19.995	103.212	20.155	8.878	0.549
573.000	357.225	80.005	19.994	103.212	20.155	8.856	0.516
573.500	357.456	80.006	19.994	103.214	20.156	8.817	0.515
574.000	357.698	80.006	19.994	103.215	20.157	8.757	0.499
574.500	357.979	80.004	19.993	103.214	20.157	8.698	0.498
575.000	358.227	80.005	19.994	103.213	20.156	8.777	0.525
575.500	358.481	80.005	19.995	103.213	20.153	8.997	0.515
576.000	358.757	80.006	19.994	103.212	20.155	8.851	0.516
576.500	358.979	80.004	19.995	103.211	20.156	8.772	0.514
577.000	359.275	80.006	19.994	103.212	20.156	8.785	0.508
577.500	359.567	80.006	19.995	103.210	20.155	8.891	0.553
578.000	359.792	80.006	19.994	103.210	20.157	8.743	0.553
578.500	360.073	80.007	19.995	103.209	20.155	8.845	0.512
579.000	360.323	80.006	19.995	103.209	20.155	8.885	0.518
579.501	360.581	80.005	19.994	103.208	20.154	8.931	0.520
580.000	360.844	80.004	19.994	103.208	20.152	9.046	0.515
580.500	361.103	80.004	19.994	103.209	20.155	8.894	0.522
581.000	361.338	80.003	19.995	103.209	20.153	9.000	0.508
581.500	361.602	80.004	19.996	103.209	20.154	8.957	0.496
582.000	361.890	80.007	19.995	103.209	20.153	8.982	0.525
582.500	362.152	80.004	19.994	103.209	20.152	9.074	0.551
583.000	362.392	80.005	19.994	103.208	20.152	9.035	0.526
583.500	362.642	80.005	19.996	103.207	20.151	9.112	0.496
584.000	362.923	80.005	19.995	103.206	20.153	9.028	0.511
584.500	363.201	80.004	19.995	103.206	20.153	9.006	0.545
585.000	363.430	80.005	19.995	103.207	20.151	9.132	0.533
585.500	363.733	80.006	19.995	103.207	20.153	9.026	0.519
586.000	363.991	80.005	19.995	103.208	20.148	9.338	0.547
586.500	364.263	80.005	19.995	103.212	20.154	8.917	0.545
587.000	364.537	80.004	19.995	103.212	20.151	9.155	0.538
587.500	364.781	80.005	19.995	103.212	20.150	9.172	0.532
588.000	365.037	80.006	19.995	103.212	20.149	9.302	0.509
588.500	365.297	80.005	19.996	103.212	20.151	9.142	0.508
589.000	365.570	80.006	19.995	103.210	20.151	9.157	0.525
589.500	365.832	80.004	19.995	103.209	20.151	9.124	0.533
590.000	366.099	80.004	19.996	103.207	20.152	9.063	0.532
590.500	366.380	80.005	19.995	103.206	20.152	9.063	0.539
591.000	366.635	80.004	19.995	103.205	20.151	9.133	0.542
591.500	366.855	80.005	19.996	103.205	20.149	9.263	0.505
592.000	367.146	80.005	19.995	103.205	20.149	9.241	0.493
592.500	367.417	80.007	19.996	103.205	20.149	9.261	0.537
593.000	367.670	80.006	19.995	103.207	20.150	9.212	0.543
593.500	367.940	80.004	19.995	103.208	20.149	9.298	0.524
594.000	368.196	80.006	19.995	103.206	20.147	9.382	0.525
594.500	368.426	80.006	19.995	103.202	20.145	9.525	0.506
595.000	368.721	80.008	19.995	103.202	20.147	9.437	0.505
595.500	368.991	80.007	19.995	103.201	20.147	9.426	0.545
596.000	369.211	80.006	19.995	103.201	20.143	9.653	0.528
596.500	369.533	80.005	19.994	103.203	20.144	9.598	0.516
597.000	369.809	80.003	19.995	103.209	20.146	9.452	0.570
597.500	370.037	80.006	19.995	103.210	20.143	9.648	0.551
598.000	370.319	80.005	19.994	103.212	20.143	9.674	0.507
598.500	370.537	80.006	19.995	103.212	20.143	9.699	0.505
599.000	370.829	80.007	19.995	103.212	20.142	9.736	0.505
599.500	371.081	80.006	19.994	103.212	20.144	9.641	0.527
600.000	371.360	80.006	19.994	103.211	20.140	9.851	0.537
600.500	371.610	80.006	19.995	103.211	20.141	9.820	0.530
601.000	371.857	80.006	19.995	103.211	20.139	9.976	0.513
601.500	372.129	80.005	19.994	103.211	20.138	10.029	0.508
602.000	372.388	80.005	19.995	103.212	20.138	10.020	0.525
602.500	372.710	80.004	19.995	103.213	20.135	10.201	0.556
603.000	372.968	80.006	19.994	103.213	20.136	10.179	0.581
603.500	373.272	80.005	19.994	103.213	20.138	10.029	0.571
604.000	373.516	80.005	19.995	103.212	20.135	10.189	0.555
604.500	373.812	80.004	19.995	103.211	20.135	10.192	0.544
605.000	374.062	80.006	19.995	103.210	20.133	10.330	0.543
605.500	374.307	80.004	19.993	103.210	20.131	10.463	0.521
606.000	374.545	80.005	19.995	103.211	20.133	10.366	0.489
606.500	374.820	80.005	19.994	103.209	20.128	10.687	0.498
607.000	375.111	80.004	19.994	103.210	20.130	10.564	0.539
607.500	375.346	80.007	19.994	103.211	20.128	10.683	0.545
608.000	375.590	80.004	19.995	103.211	20.128	10.692	0.502
608.500	375.877	80.005	19.995	103.211	20.125	10.859	0.505
609.000	376.134	80.005	19.993	103.213	20.126	10.804	0.538
609.500	376.378	80.006	19.994	103.213	20.124	10.962	0.523
610.000	376.640	80.006	19.994	103.213	20.125	10.872	0.504
610.500	376.932	80.004	19.994	103.212	20.123	11.000	0.530
611.000	377.167	80.006	19.995	103.213	20.123	11.028	0.541
611.500	377.444	80.007	19.993	103.213	20.124	10.954	0.520
612.000	377.742	80.006	19.995	103.213	20.124	10.941	0.544
612.500	377.941	80.005	19.994	103.212	20.123	11.058	0.536
613.000	378.229	80.006	19.994	103.212	20.121	11.146	0.492
613.500	378.507	80.006	19.994	103.212	20.120	11.239	0.526
614.000	378.818	80.006	19.993	103.211	20.118	11.354	0.577
614.500	378.981	80.006	19.994	103.211	20.115	11.552	0.532
615.000	379.272	80.006	19.995	103.213	20.114	11.632	0.464
615.500	379.554	80.007	19.996	103.212	20.114	11.630	0.513
616.000	379.800	80.006	19.993	103.212	20.113	11.680	0.551
616.500	380.047	80.006	19.994	103.212	20.113	11.733	0.511
617.000	380.327	80.008	19.995	103.211	20.109	12.002	0.510
617.500	380.584	80.008	19.994	103.208	20.106	12.173	0.532
618.000	380.853	80.008	19.993	103.207	20.110	11.900	0.531
618.500	381.102	80.006	19.994	103.207	20.107	12.088	0.522
619.000	381.386	80.007	19.994	103.205	20.107	12.115	0.526
619.500	381.591	80.007	19.994	103.205	20.105	12.239	0.511
620.000	381.915	80.007	19.995	103.208	20.103	12.403	0.509
620.500	382.098	80.006	19.995	103.208	20.104	12.291	0.518
621.000	382.380	80.006	19.994	103.208	20.102	12.445	0.486
621.500	382.668	80.007	19.994	103.210	20.100	12.550	0.517
622.000	382.939	80.008	19.994	103.210	20.098	12.694	0.565
622.500	383.170	80.006	19.994	103.208	20.097	12.767	0.531
623.000	383.407	80.007	19.995	103.206	20.097	12.797	0.485
623.500	383.688	80.006	19.995	103.206	20.094	12.954	0.493
624.000	383.953	80.006	19.995	103.202	20.096	12.827	0.532
624.500	384.194	80.006	19.993	103.200	20.094	12.979	0.526
625.000	384.441	80.005	19.995	103.197	20.092	13.120	0.497
625.500	384.742	80.007	19.994	103.192	20.090	13.219	0.518
626.000	385.009	80.007	19.995	103.190	20.088	13.368	0.558
626.500	385.236	80.007	19.995	103.193	20.087	13.441	0.532
627.000	385.471	80.007	19.995	103.193	20.090	13.246	0.478
627.500	385.733	80.008	19.994	103.196	20.085	13.568	0.480
628.000	386.008	80.007	19.994	103.202	20.083	13.715	0.517
628.500	386.214	80.007	19.995	103.197	20.083	13.729	0.508
629.000	386.477	80.007	19.994	103.192	20.079	13.995	0.475
629.500	386.727	80.008	19.995	103.189	20.077	14.110	0.492
630.000	386.996	80.006	19.994	103.184	20.074	14.308	0.516
630.500	387.262	80.007	19.994	103.181	20.077	14.101	0.527
631.000	387.473	80.006	19.995	103.185	20.072	14.436	0.506
631.500	387.743	80.007	19.995	103.185	20.074	14.303	0.479
632.000	387.983	80.007	19.994	103.185	20.071	14.530	0.495
632.500	388.268	80.007	19.994	103.189	20.070	14.609	0.517
633.000	388.503	80.006	19.994	103.185	20.066	14.889	0.522
633.500	388.779	80.008	19.994	103.185	20.069	14.672	0.516
634.000	388.991	80.006	19.994	103.187	20.066	14.842	0.500
634.500	389.232	80.007	19.994	103.185	20.065	14.957	0.470
635.000	389.482	80.008	19.994	103.181	20.062	15.131	0.472
635.500	389.714	80.008	19.995	103.181	20.062	15.114	0.486
636.000	389.935	80.007	19.995	103.181	20.062	15.129	0.467
636.500	390.225	80.009	19.994	103.179	20.059	15.341	0.482
637.000	390.445	80.008	19.994	103.182	20.057	15.451	0.511
637.500	390.696	80.009	19.992	103.186	20.058	15.398	0.490
638.000	390.909	80.008	19.994	103.188	20.055	15.631	0.467
638.500	391.166	80.007	19.994	103.184	20.051	15.869	0.467
639.000	391.455	80.009	19.994	103.188	20.055	15.593	0.508
639.500	391.617	80.009	19.993	103.188	20.050	15.948	0.499
640.000	391.891	80.010	19.994	103.188	20.047	16.182	0.444
640.500	392.150	80.008	19.994	103.187	20.047	16.122	0.484
641.000	392.405	80.010	19.994	103.186	20.046	16.250	0.523
641.500	392.649	80.009	19.993	103.182	20.044	16.386	0.506
642.000	392.848	80.009	19.994	103.185	20.043	16.417	0.471
642.500	393.122	80.009	19.993	103.186	20.044	16.383	0.458
643.000	393.323	80.008	19.993	103.186	20.043	16.408	0.475
643.500	393.588	80.008	19.992	103.187	20.039	16.671	0.471
644.000	393.847	80.009	19.995	103.189	20.037	16.850	0.495
644.500	394.104	80.008	19.994	103.182	20.034	17.025	0.520
645.000	394.297	80.009	19.994	103.177	20.033	17.129	0.483
645.500	394.591	80.009	19.994	103.175	20.032	17.144	0.468
646.000	394.823	80.009	19.994	103.177	20.031	17.247	0.506
646.500	395.056	80.009	19.994	103.174	20.031	17.226	0.495
647.000	395.279	80.008	19.995	103.175	20.026	17.597	0.461
647.500	395.527	80.008	19.995	103.175	20.027	17.487	0.464
648.000	395.727	80.008	19.994	103.175	20.025	17.671	0.459
648.500	395.960	80.007	19.993	103.172	20.021	17.915	0.440
649.000	396.243	80.009	19.994	103.174	20.019	18.032	0.475
649.500	396.493	80.008	19.994	103.175	20.021	17.899	0.525
650.000	396.711	80.007	19.994	103.178	20.019	18.036	0.500
650.500	396.958	80.007	19.994	103.177	20.019	18.013	0.466
651.000	397.183	80.006	19.994	103.176	20.015	18.341	0.469
651.500	397.433	80.006	19.995	103.174	20.016	18.256	0.473
652.000	397.651	80.006	19.995	103.177	20.012	18.530	0.472
652.500	397.851	80.006	19.994	103.179	20.011	18.563	0.444
653.000	398.137	80.006	19.995	103.187	20.006	18.914	0.452
653.500	398.388	80.006	19.996	103.193	20.008	18.781	0.511
654.000	398.581	80.005	19.995	103.199	20.005	18.974	0.490
654.500	398.815	80.006	19.995	103.197	20.006	18.901	0.435
655.000	399.073	80.005	19.995	103.193	20.005	18.993	0.459
655.500	399.308	80.006	19.996	103.187	20.003	19.152	0.492
656.000	399.543	80.005	19.995	103.186	20.003	19.140	0.482
656.500	399.779	80.005	19.994	103.188	20.000	19.326	0.470
657.000	400.038	80.007	19.996	103.187	19.998	19.493	0.483
657.500	400.277	80.005	19.994	103.193	19.996	19.621	0.497
658.000	400.527	80.005	19.995	103.198	19.994	19.751	0.493
658.500	400.685	80.004	19.995	103.200	19.994	19.733	0.448
659.000	400.929	80.004	19.995	103.196	19.988	20.169	0.405
659.500	401.237	80.007	19.994	103.197	19.992	19.848	0.477
660.000	401.401	80.004	19.995	103.195	19.981	20.580	0.512
660.500	401.665	80.006	19.995	103.196	19.992	19.890	0.451
661.000	401.845	80.004	19.995	103.196	19.985	20.347	0.436
661.500	402.148	80.005	19.994	103.199	19.989	20.041	0.463
662.000	402.356	80.004	19.994	103.201	19.984	20.406	0.497
662.500	402.600	80.005	19.995	103.204	19.992	19.868	0.482
663.000	402.808	80.006	19.994	103.204	19.989	20.082	0.453
663.500	403.051	80.005	19.995	103.201	19.985	20.332	0.451
664.000	403.314	80.005	19.994	103.197	19.984	20.435	0.478
664.500	403.596	80.005	19.995	103.194	19.976	20.929	0.525
665.000	403.743	80.006	19.995	103.187	19.970	21.380	0.487
665.500	404.006	80.006	19.996	103.187	19.980	20.656	0.419
666.000	404.232	80.005	19.995	103.188	19.977	20.853	0.450
666.500	404.543	80.006	19.995	103.195	19.975	21.013	0.513
667.000	404.725	80.005	19.994	103.200	19.977	20.847	0.515
667.500	404.933	80.005	19.994	103.207	19.974	21.075	0.441
668.000	405.184	80.006	19.994	103.207	19.978	20.792	0.424
668.500	405.536	80.007	19.994	103.208	19.974	21.108	0.531
669.000	405.606	80.005	19.995	103.207	19.973	21.130	0.512
669.501	405.912	80.006	19.994	103.206	19.971	21.276	0.399
670.000	406.210	80.006	19.995	103.205	19.972	21.226	0.490
670.500	406.332	80.006	19.995	103.203	19.969	21.405	0.513
671.000	406.599	80.006	19.995	103.199	19.972	21.192	0.405
671.500	406.766	80.006	19.995	103.193	19.973	21.126	0.411
672.000	407.139	80.005	19.994	103.189	19.972	21.217	0.486
672.500	407.369	80.006	19.994	103.187	19.971	21.302	0.572
673.000	407.631	80.006	19.995	103.190	19.972	21.216	0.548
673.500	407.687	80.004	19.995	103.195	19.969	21.395	0.405
674.001	408.190	80.005	19.993	103.200	19.972	21.222	0.438
674.500	408.260	80.005	19.993	103.199	19.969	21.402	0.566
675.000	408.763	80.007	19.995	103.198	19.974	21.107	0.573
675.500	408.705	80.005	19.994	103.194	19.968	21.472	0.509
676.000	409.166	80.006	19.996	103.188	19.969	21.404	0.424
676.500	409.349	80.005	19.996	103.187	19.970	21.335	0.524
677.000	409.268	80.004	19.995	103.189	19.969	21.398	0.373
677.500	409.603	80.005	19.996	103.187	19.970	21.375	0.178
678.000	409.636	80.003	19.995	103.187	19.968	21.495	0.311
678.500	409.778	80.005	19.994	103.192	19.968	21.455	0.271
679.000	410.018	80.004	19.995	103.187	19.971	21.319	0.279
679.500	410.496	80.004	19.994	103.184	19.972	21.210	0.551
680.000	411.056	80.005	19.996	103.183	19.971	21.299	0.878
680.500	411.120	80.005	19.996	103.179	19.971	21.280	0.831
681.000	411.483	80.004	19.996	103.180	19.971	21.287	0.526
681.500	411.611	80.004	19.996	103.183	19.973	21.140	0.459
682.001	411.851	80.004	19.995	103.190	19.977	20.907	0.429
682.501	412.061	80.004	19.995	103.198	19.976	20.946	0.409
683.001	412.450	80.004	19.995	103.205	19.978	20.781	0.525
683.501	412.597	80.005	19.995	103.202	19.978	20.805	0.568
684.000	412.830	80.005	19.995	103.199	19.980	20.686	0.458
684.500	413.091	80.004	19.995	103.192	19.979	20.732	0.437
685.000	413.373	80.005	19.996	103.184	19.980	20.688	0.518
685.500	413.592	80.006	19.995	103.181	19.981	20.594	0.522
686.000	413.864	80.006	19.996	103.179	19.982	20.508	0.496
686.500	414.023	80.004	19.996	103.180	19.988	20.109	0.461
687.000	414.357	80.005	19.996	103.181	19.985	20.372	0.462
687.500	414.499	80.004	19.996	103.182	19.987	20.232	0.484
688.000	414.820	80.007	19.996	103.185	19.992	19.858	0.470
688.500	414.993	80.004	19.995	103.190	19.989	20.075	0.479
689.000	415.298	80.005	19.995	103.196	19.989	20.048	0.486
689.500	415.504	80.005	19.994	103.198	19.994	19.720	0.495
690.000	415.748	80.005	19.996	103.201	19.995	19.636	0.481
690.500	416.020	80.006	19.995	103.197	19.997	19.544	0.482
691.000	416.198	80.005	19.994	103.193	19.995	19.677	0.483
691.500	416.524	80.006	19.994	103.191	19.996	19.566	0.477
692.000	416.804	80.005	19.995	103.191	20.000	19.336	0.555
692.500	416.981	80.006	19.994	103.189	20.000	19.316	0.532
693.000	417.273	80.006	19.994	103.188	20.003	19.094	0.464
693.500	417.512	80.006	19.994	103.188	20.004	19.040	0.500
694.000	417.725	80.008	19.994	103.188	20.007	18.874	0.491
694.500	417.989	80.006	19.994	103.188	20.010	18.645	0.464
695.000	418.229	80.006	19.995	103.190	20.010	18.633	0.491
695.500	418.482	80.007	19.994	103.191	20.013	18.466	0.499
696.000	418.798	80.006	19.994	103.189	20.013	18.422	0.531
696.500	418.990	80.006	19.993	103.188	20.018	18.098	0.538
697.000	419.290	80.006	19.995	103.190	20.021	17.918	0.500
697.500	419.507	80.008	19.994	103.193	20.019	18.016	0.505
698.000	419.760	80.007	19.993	103.194	20.023	17.756	0.494
698.500	419.973	80.008	19.994	103.199	20.024	17.711	0.468
699.000	420.230	80.009	19.993	103.201	20.027	17.520	0.468
699.500	420.525	80.008	19.994	103.202	20.030	17.315	0.511
700.000	420.812	80.008	19.994	103.198	20.031	17.226	0.567
700.500	421.011	80.007	19.993	103.195	20.033	17.115	0.534
701.000	421.300	80.006	19.995	103.191	20.035	16.955	0.487
701.500	421.541	80.008	19.993	103.185	20.040	16.650	0.509
702.000	421.809	80.007	19.994	103.182	20.037	16.858	0.520
702.500	422.040	80.008	19.994	103.187	20.039	16.667	0.504
703.000	422.300	80.009	19.994	103.189	20.042	16.513	0.495
703.500	422.563	80.008	19.994	103.189	20.044	16.377	0.507
704.000	422.825	80.007	19.994	103.191	20.043	16.444	0.524
704.500	423.053	80.008	19.994	103.188	20.047	16.123	0.507
705.000	423.327	80.007	19.995	103.180	20.052	15.796	0.496
705.500	423.576	80.008	19.993	103.181	20.052	15.842	0.512
706.000	423.814	80.006	19.994	103.184	20.055	15.595	0.505
706.500	424.049	80.006	19.993	103.182	20.054	15.652	0.480
707.000	424.315	80.007	19.994	103.181	20.058	15.420	0.487
707.500	424.587	80.006	19.993	103.182	20.059	15.322	0.519
708.000	424.855	80.007	19.994	103.179	20.063	15.065	0.539
708.500	425.128	80.007	19.994	103.176	20.066	14.887	0.540
709.000	425.333	80.007	19.994	103.179	20.066	14.895	0.510
709.500	425.637	80.006	19.994	103.183	20.068	14.764	0.494
710.000	425.883	80.007	19.994	103.186	20.069	14.665	0.530
710.500	426.106	80.006	19.994	103.188	20.070	14.617	0.509
711.000	426.383	80.007	19.994	103.193	20.075	14.251	0.484
711.500	426.653	80.008	19.994	103.198	20.078	14.077	0.524
712.000	426.908	80.006	19.995	103.197	20.077	14.097	0.536
712.500	427.160	80.007	19.995	103.201	20.081	13.868	0.516
713.000	427.390	80.006	19.995	103.205	20.079	14.010	0.495
713.500	427.616	80.007	19.995	103.207	20.084	13.657	0.469
714.000	427.930	80.005	19.995	103.205	20.086	13.545	0.498
714.500	428.184	80.007	19.994	103.201	20.085	13.576	0.554
715.000	428.438	80.007	19.995	103.194	20.088	13.391	0.539
715.500	428.698	80.005	19.994	103.191	20.090	13.275	0.511
716.000	428.969	80.006	19.995	103.189	20.091	13.191	0.522
716.500	429.234	80.006	19.996	103.188	20.095	12.888	0.533
717.000	429.464	80.007	19.995	103.190	20.096	12.826	0.515
717.500	429.740	80.007	19.995	103.191	20.100	12.585	0.501
718.000	429.988	80.006	19.994	103.186	20.101	12.526	0.515
718.500	430.265	80.007	19.994	103.181	20.102	12.470	0.524
719.000	430.534	80.007	19.995	103.177	20.100	12.595	0.536
719.500	430.741	80.009	19.995	103.174	20.103	12.371	0.511
720.000	431.041	80.007	19.993	103.175	20.105	12.228	0.491
720.500	431.284	80.008	19.994	103.181	20.111	11.815	0.525
721.000	431.573	80.006	19.995	103.187	20.110	11.891	0.538
721.500	431.826	80.008	19.994	103.193	20.110	11.874	0.537
722.000	432.087	80.007	19.994	103.197	20.113	11.691	0.528
722.500	432.350	80.007	19.994	103.198	20.114	11.631	0.519
723.000	432.638	80.008	19.994	103.197	20.113	11.683	0.538
723.500	432.870	80.008	19.993	103.199	20.117	11.452	0.536
724.000	433.111	80.008	19.993	103.201	20.115	11.562	0.496
724.500	433.413	80.008	19.994	103.205	20.119	11.285	0.507
725.000	433.696	80.007	19.994	103.209	20.120	11.243	0.564
725.500	433.979	80.009	19.994	103.208	20.119	11.301	0.576
726.000	434.215	80.010	19.993	103.205	20.122	11.110	0.543
726.500	434.483	80.009	19.994	103.205	20.123	11.006	0.511
727.000	434.758	80.010	19.993	103.205	20.124	10.941	0.523
727.500	435.025	80.008	19.993	103.202	20.124	10.971	0.542
728.000	435.260	80.008	19.993	103.204	20.127	10.764	0.522
728.500	435.579	80.008	19.993	103.205	20.126	10.827	0.528
729.000	435.853	80.008	19.994	103.203	20.131	10.495	0.574
729.500	436.122	80.008	19.993	103.197	20.129	10.612	0.568
730.001	436.375	80.009	19.994	103.198	20.131	10.493	0.533
730.500	436.650	80.008	19.994	103.196	20.134	10.275	0.525
731.000	436.931	80.009	19.994	103.194	20.133	10.325	0.542
731.500	437.226	80.008	19.994	103.189	20.130	10.534	0.566
732.000	437.498	80.007	19.993	103.192	20.135	10.226	0.572
732.500	437.756	80.007	19.993	103.195	20.133	10.338	0.549
733.000	438.027	80.006	19.993	103.196	20.138	10.008	0.530
733.500	438.318	80.006	19.994	103.199	20.138	10.008	0.545
734.000	438.581	80.004	19.993	103.201	20.138	10.044	0.557
734.500	438.853	80.004	19.994	103.201	20.137	10.090	0.545
735.000	439.170	80.006	19.994	103.200	20.136	10.128	0.563
735.500	439.412	80.005	19.994	103.202	20.139	9.961	0.574
736.000	439.740	80.006	19.994	103.200	20.141	9.836	0.564
736.500	439.981	80.006	19.994	103.197	20.141	9.829	0.569
737.000	440.243	80.005	19.994	103.196	20.145	9.535	0.536
737.500	440.529	80.005	19.994	103.196	20.141	9.830	0.526
738.000	440.811	80.005	19.995	103.191	20.139	9.919	0.558
738.500	441.074	80.006	19.994	103.192	20.141	9.815	0.556
739.000	441.365	80.005	19.994	103.195	20.140	9.850	0.549
739.500	441.585	80.006	19.994	103.197	20.143	9.703	0.533
740.000	441.881	80.005	19.994	103.195	20.141	9.786	0.514
740.500	442.180	80.005	19.994	103.195	20.144	9.593	0.556
741.000	442.417	80.006	19.994	103.196	20.144	9.635	0.566
741.500	442.761	80.005	19.994	103.197	20.143	9.665	0.559
742.000	443.020	80.006	19.994	103.200	20.145	9.557	0.592
742.500	443.309	80.004	19.994	103.204	20.146	9.484	0.575
743.000	443.596	80.005	19.995	103.206	20.144	9.586	0.562
743.500	443.887	80.006	19.994	103.199	20.147	9.432	0.577
744.000	444.143	80.004	19.995	103.199	20.146	9.439	0.563
744.500	444.389	80.005	19.996	103.197	20.145	9.561	0.524
745.000	444.679	80.005	19.995	103.196	20.146	9.480	0.518
745.500	444.977	80.004	19.994	103.199	20.146	9.449	0.561
746.000	445.263	80.004	19.995	103.206	20.148	9.351	0.586
746.500	445.545	80.006	19.995	103.208	20.147	9.382	0.576
747.000	445.804	80.005	19.995	103.205	20.149	9.260	0.555
747.500	446.107	80.007	19.994	103.203	20.147	9.421	0.552
748.000	446.378	80.006	19.995	103.200	20.149	9.300	0.568
748.500	446.635	80.006	19.994	103.197	20.149	9.242	0.551
749.000	446.939	80.004	19.994	103.194	20.148	9.365	0.544
749.500	447.222	80.006	19.994	103.195	20.149	9.285	0.573
750.000	447.478	80.005	19.994	103.196	20.148	9.325	0.563
750.500	447.766	80.004	19.994	103.195	20.150	9.182	0.542
751.000	448.055	80.005	19.994	103.195	20.150	9.194	0.561
751.500	448.342	80.008	19.996	103.197	20.153	9.025	0.577
752.000	448.606	80.005	19.994	103.193	20.149	9.255	0.563
752.500	448.870	80.006	19.994	103.194	20.146	9.446	0.539
753.000	449.154	80.005	19.995	103.196	20.149	9.283	0.538
753.500	449.456	80.006	19.993	103.199	20.153	9.033	0.568
754.001	449.748	80.006	19.994	103.195	20.151	9.108	0.590
754.500	449.997	80.006	19.995	103.194	20.152	9.050	0.567
755.000	450.284	80.006	19.994	103.186	20.151	9.161	0.538
755.500	450.576	80.007	19.994	103.182	20.151	9.136	0.557
756.000	450.865	80.006	19.995	103.180	20.150	9.220	0.580
756.500	451.146	80.007	19.995	103.184	20.151	9.109	0.575
757.000	451.437	80.006	19.994	103.190	20.153	9.018	0.572
757.500	451.697	80.005	19.994	103.192	20.152	9.071	0.562
758.000	451.987	80.007	19.994	103.194	20.150	9.180	0.551
758.500	452.265	80.006	19.996	103.192	20.151	9.101	0.559
759.000	452.513	80.006	19.994	103.188	20.151	9.101	0.546
759.500	452.803	80.007	19.995	103.184	20.150	9.215	0.532
760.000	453.077	80.005	19.995	103.186	20.152	9.060	0.551
760.500	453.364	80.005	19.995	103.184	20.152	9.058	0.562
761.000	453.630	80.005	19.993	103.183	20.150	9.180	0.557
761.500	453.940	80.005	19.994	103.187	20.151	9.134	0.565
762.000	454.186	80.006	19.994	103.192	20.151	9.155	0.566
762.500	454.494	80.006	19.995	103.195	20.149	9.236	0.555
763.000	454.805	80.005	19.994	103.200	20.148	9.330	0.587
763.500	455.064	80.005	19.994	103.204	20.150	9.233	0.595
764.000	455.356	80.006	19.995	103.203	20.152	9.066	0.560
764.500	455.647	80.006	19.994	103.203	20.150	9.198	0.567
765.000	455.924	80.006	19.995	103.202	20.151	9.131	0.576
765.500	456.230	80.003	19.995	103.200	20.151	9.124	0.575
766.000	456.495	80.005	19.994	103.200	20.150	9.177	0.577
766.500	456.752	80.005	19.995	103.203	20.150	9.224	0.547
767.000	457.062	80.006	19.995	103.198	20.149	9.253	0.545
767.500	457.318	80.005	19.995	103.194	20.153	8.994	0.567
768.000	457.599	80.004	19.995	103.193	20.150	9.175	0.551
768.500	457.903	80.005	19.995	103.190	20.147	9.397	0.561
769.000	458.153	80.006	19.994	103.185	20.148	9.359	0.569
769.500	458.456	80.005	19.995	103.185	20.150	9.211	0.554
770.000	458.695	80.005	19.995	103.186	20.150	9.190	0.547
770.500	458.990	80.005	19.996	103.185	20.147	9.375	0.538
771.000	459.269	80.004	19.995	103.190	20.147	9.411	0.554
771.500	459.539	80.003	19.996	103.189	20.151	9.151	0.562
772.000	459.864	80.005	19.996	103.187	20.149	9.268	0.572
772.500	460.135	80.003	19.995	103.186	20.151	9.161	0.595
773.000	460.388	80.005	19.995	103.185	20.147	9.403	0.560
773.500	460.679	80.004	19.995	103.179	20.152	9.033	0.534
774.000	461.004	80.005	19.996	103.176	20.153	9.025	0.580
774.500	461.267	80.005	19.995	103.177	20.151	9.117	0.602
775.000	461.476	80.005	19.996	103.179	20.150	9.207	0.530
775.500	461.780	80.005	19.994	103.184	20.151	9.109	0.493
776.000	462.034	80.005	19.996	103.190	20.153	9.026	0.536
776.500	462.339	80.007	19.995	103.190	20.152	9.037	0.558
777.000	462.597	80.005	19.996	103.188	20.151	9.150	0.561
777.500	462.861	80.006	19.995	103.184	20.150	9.180	0.542
778.000	463.138	80.005	19.995	103.178	20.150	9.215	0.531
778.500	463.443	80.006	19.996	103.172	20.148	9.328	0.562
779.000	463.694	80.007	19.994	103.174	20.151	9.162	0.569
779.500	463.949	80.007	19.995	103.176	20.149	9.300	0.531
780.000	464.245	80.007	19.995	103.180	20.149	9.278	0.529
780.500	464.502	80.007	19.995	103.185	20.150	9.209	0.552
781.000	464.777	80.006	19.994	103.189	20.151	9.121	0.542
781.500	465.023	80.006	19.995	103.191	20.152	9.093	0.527
782.000	465.338	80.007	19.994	103.190	20.150	9.170	0.541
782.500	465.564	80.008	19.996	103.186	20.154	8.911	0.550
783.000	465.806	80.008	19.994	103.181	20.155	8.899	0.504
783.500	466.117	80.008	19.994	103.177	20.151	9.137	0.510
784.000	466.356	80.007	19.994	103.174	20.153	8.970	0.552
784.500	466.623	80.007	19.994	103.173	20.153	9.025	0.528
785.000	466.885	80.006	19.995	103.173	20.153	9.025	0.517
785.500	467.200	80.007	19.994	103.174	20.152	9.053	0.553
786.000	467.486	80.006	19.995	103.174	20.154	8.945	0.589
786.500	467.755	80.009	19.995	103.173	20.155	8.864	0.578
787.000	467.966	80.007	19.994	103.178	20.152	9.033	0.518
787.500	468.251	80.006	19.993	103.179	20.156	8.802	0.487
788.000	468.523	80.006	19.994	103.179	20.155	8.844	0.526
788.500	468.784	80.006	19.994	103.179	20.155	8.882	0.545
789.000	469.034	80.006	19.993	103.183	20.155	8.845	0.522
789.500	469.304	80.007	19.993	103.184	20.158	8.653	0.516
790.000	469.571	80.008	19.993	103.189	20.156	8.814	0.529
790.500	469.832	80.006	19.994	103.193	20.156	8.810	0.533
791.000	470.105	80.007	19.994	103.197	20.160	8.557	0.531
791.500	470.373	80.005	19.994	103.195	20.159	8.567	0.537
792.000	470.631	80.007	19.993	103.194	20.161	8.478	0.534
792.500	470.908	80.007	19.994	103.194	20.163	8.342	0.531
793.000	471.151	80.007	19.993	103.192	20.164	8.236	0.527
793.500	471.421	80.006	19.995	103.191	20.162	8.412	0.516
794.000	471.696	80.007	19.993	103.192	20.164	8.273	0.529
794.500	471.932	80.005	19.994	103.189	20.163	8.301	0.528
795.000	472.177	80.006	19.994	103.191	20.163	8.332	0.496
795.500	472.467	80.006	19.995	103.196	20.165	8.217	0.508
796.000	472.735	80.008	19.994	103.197	20.167	8.084	0.547
796.500	473.023	80.007	19.994	103.195	20.165	8.216	0.557
797.000	473.277	80.007	19.994	103.195	20.166	8.143	0.548
797.500	473.550	80.007	19.994	103.189	20.167	8.040	0.534
798.000	473.800	80.006	19.994	103.181	20.164	8.252	0.525
798.500	474.065	80.007	19.994	103.177	20.167	8.051	0.519
799.000	474.339	80.007	19.995	103.180	20.167	8.040	0.527
799.500	474.608	80.007	19.995	103.185	20.168	8.014	0.541
800.001	474.863	80.006	19.994	103.189	20.168	7.983	0.534
800.501	475.128	80.006	19.995	103.189	20.171	7.796	0.522
801.000	475.439	80.007	19.994	103.190	20.171	7.761	0.548
801.500	475.667	80.006	19.995	103.185	20.169	7.904	0.558
802.000	475.947	80.009	19.993	103.179	20.169	7.897	0.524
802.500	476.189	80.008	19.994	103.174	20.167	8.053	0.515
803.000	476.429	80.009	19.994	103.174	20.171	7.752	0.502
803.500	476.711	80.007	19.993	103.174	20.170	7.831	0.502
804.000	476.941	80.007	19.994	103.174	20.170	7.869	0.517
804.500	477.204	80.008	19.994	103.179	20.171	7.794	0.503
805.000	477.473	80.007	19.994	103.182	20.171	7.798	0.513
805.500	477.777	80.008	19.994	103.184	20.170	7.846	0.552
806.000	477.999	80.008	19.994	103.185	20.170	7.851	0.550
806.500	478.276	80.008	19.994	103.186	20.173	7.659	0.512
807.000	478.510	80.008	19.993	103.182	20.171	7.778	0.504
807.500	478.804	80.008	19.992	103.179	20.171	7.787	0.519
808.000	479.043	80.008	19.994	103.177	20.175	7.529	0.530
808.500	479.299	80.009	19.994	103.176	20.173	7.640	0.514
809.000	479.569	80.007	19.993	103.174	20.172	7.683	0.511
809.500	479.775	80.009	19.993	103.175	20.175	7.500	0.501
810.000	480.086	80.008	19.994	103.175	20.174	7.557	0.496
810.500	480.356	80.008	19.994	103.174	20.175	7.546	0.549
811.000	480.574	80.008	19.993	103.174	20.176	7.450	0.534
811.500	480.797	80.009	19.993	103.174	20.178	7.296	0.464
812.000	481.091	80.007	19.993	103.174	20.176	7.430	0.479
812.500	481.358	80.007	19.993	103.174	20.177	7.357	0.539
813.000	481.590	80.006	19.994	103.175	20.178	7.318	0.530
813.500	481.839	80.008	19.994	103.175	20.178	7.296	0.490
814.000	482.121	80.007	19.993	103.175	20.180	7.175	0.506
814.500	482.365	80.008	19.994	103.174	20.179	7.252	0.528
815.000	482.630	80.006	19.995	103.174	20.175	7.501	0.518
815.500	482.894	80.007	19.992	103.173	20.178	7.336	0.519
816.000	483.093	80.005	19.994	103.173	20.178	7.279	0.496
816.500	483.374	80.006	19.994	103.173	20.180	7.188	0.471
817.000	483.619	80.006	19.994	103.173	20.180	7.162	0.503
817.500	483.880	80.006	19.995	103.173	20.179	7.230	0.516
818.000	484.154	80.006	19.993	103.173	20.181	7.113	0.520
818.500	484.399	80.006	19.994	103.172	20.180	7.164	0.527
819.000	484.631	80.007	19.995	103.172	20.179	7.219	0.498
819.500	484.866	80.007	19.993	103.173	20.182	7.072	0.472
820.000	485.127	80.007	19.994	103.175	20.180	7.172	0.482
820.500	485.347	80.007	19.993	103.178	20.180	7.168	0.489
821.000	485.653	80.007	19.995	103.179	20.182	7.022	0.503
821.500	485.858	80.007	19.994	103.178	20.179	7.262	0.519
822.000	486.128	80.006	19.994	103.177	20.180	7.159	0.493
822.500	486.379	80.005	19.995	103.176	20.182	7.022	0.498
823.000	486.640	80.007	19.993	103.177	20.183	7.003	0.516
823.500	486.903	80.006	19.993	103.176	20.185	6.858	0.518
824.000	487.132	80.006	19.994	103.177	20.183	6.970	0.508
824.500	487.428	80.006	19.994	103.177	20.183	6.975	0.509
825.000	487.677	80.007	19.994	103.176	20.186	6.791	0.535
825.500	487.867	80.007	19.994	103.172	20.185	6.818	0.492
826.000	488.114	80.007	19.994	103.172	20.188	6.653	0.438
826.500	488.371	80.007	19.994	103.172	20.185	6.822	0.471
827.000	488.645	80.007	19.994	103.172	20.184	6.873	0.518
827.500	488.907	80.006	19.993	103.172	20.186	6.754	0.533
828.000	489.125	80.008	19.995	103.172	20.186	6.796	0.508
828.500	489.392	80.007	19.994	103.172	20.189	6.539	0.482
829.000	489.603	80.006	19.995	103.172	20.188	6.629	0.482
829.500	489.877	80.006	19.993	103.172	20.192	6.376	0.482
830.000	490.105	80.006	19.994	103.172	20.191	6.417	0.493
830.500	490.344	80.005	19.994	103.172	20.191	6.466	0.484
831.000	490.651	80.007	19.994	103.174	20.189	6.547	0.506
831.500	490.853	80.008	19.993	103.177	20.194	6.248	0.528
832.000	491.120	80.007	19.995	103.180	20.190	6.523	0.490
832.500	491.335	80.007	19.994	103.180	20.193	6.299	0.476
833.000	491.622	80.005	19.995	103.180	20.193	6.288	0.492
833.500	491.819	80.007	19.995	103.179	20.190	6.495	0.493
834.000	492.083	80.007	19.994	103.176	20.192	6.347	0.472
834.500	492.329	80.007	19.995	103.173	20.189	6.561	0.485
835.000	492.569	80.007	19.994	103.173	20.195	6.147	0.498
835.500	492.826	80.006	19.995	103.174	20.191	6.433	0.492
836.000	493.066	80.007	19.995	103.174	20.194	6.239	0.497
836.500	493.316	80.006	19.995	103.177	20.193	6.266	0.494
837.000	493.586	80.007	19.995	103.178	20.196	6.100	0.505
837.500	493.843	80.007	19.994	103.178	20.196	6.125	0.523
838.000	494.092	80.007	19.994	103.175	20.198	5.984	0.516
838.500	494.317	80.007	19.995	103.174	20.198	5.979	0.490
839.000	494.601	80.004	19.994	103.170	20.196	6.078	0.492
839.500	494.831	80.007	19.994	103.170	20.198	5.963	0.512
840.000	495.102	80.007	19.995	103.169	20.199	5.921	0.507
840.500	495.334	80.006	19.995	103.170	20.196	6.126	0.502
841.000	495.552	80.008	19.995	103.171	20.194	6.248	0.476
841.500	495.815	80.006	19.995	103.169	20.194	6.223	0.466
842.000	496.078	80.004	19.995	103.169	20.198	5.942	0.504
842.500	496.345	80.007	19.995	103.167	20.195	6.160	0.528
843.000	496.585	80.007	19.995	103.166	20.196	6.078	0.519
843.500	496.853	80.007	19.995	103.166	20.195	6.168	0.507
844.000	497.083	80.006	19.995	103.168	20.198	5.939	0.502
844.500	497.334	80.005	19.997	103.169	20.196	6.124	0.489
845.000	497.569	80.006	19.995	103.171	20.197	6.009	0.484
845.500	497.804	80.006	19.994	103.172	20.197	6.009	0.478
846.000	498.064	80.005	19.995	103.172	20.196	6.093	0.482
846.500	498.311	80.007	19.995	103.171	20.199	5.866	0.501
847.000	498.564	80.004	19.995	103.169	20.201	5.752	0.504
847.500	498.812	80.005	19.994	103.169	20.201	5.754	0.501
848.001	499.091	80.005	19.995	103.170	20.203	5.637	0.514
848.500	499.300	80.005	19.994	103.171	20.200	5.807	0.507
849.000	499.576	80.005	19.995	103.172	20.201	5.754	0.486
849.500	499.796	80.004	19.994	103.176	20.202	5.677	0.491
850.000	500.035	80.004	19.994	103.178	20.204	5.572	0.478
850.500	500.286	80.005	19.994	103.178	20.205	5.512	0.475
851.000	500.536	80.003	19.995	103.178	20.204	5.580	0.495
851.500	500.793	80.005	19.994	103.178	20.203	5.607	0.504
852.000	501.073	80.004	19.995	103.175	20.206	5.420	0.522
852.500	501.295	80.005	19.995	103.175	20.206	5.404	0.520
853.000	501.543	80.006	19.994	103.175	20.204	5.556	0.486
853.500	501.787	80.005	19.995	103.175	20.206	5.451	0.481
854.000	502.016	80.005	19.993	103.176	20.206	5.451	0.482
854.500	502.266	80.005	19.995	103.177	20.208	5.296	0.476
855.000	502.481	80.006	19.996	103.182	20.206	5.418	0.472
855.500	502.737	80.006	19.995	103.183	20.209	5.221	0.468
856.000	502.952	80.005	19.996	103.183	20.207	5.336	0.471
856.500	503.211	80.004	19.995	103.184	20.207	5.330	0.472
857.000	503.469	80.007	19.995	103.183	20.207	5.347	0.495
857.500	503.692	80.006	19.995	103.177	20.208	5.294	0.499
858.000	503.951	80.006	19.994	103.175	20.209	5.190	0.482
858.500	504.174	80.006	19.994	103.175	20.206	5.437	0.482
859.000	504.447	80.006	19.995	103.175	20.207	5.360	0.489
859.500	504.666	80.005	19.996	103.174	20.207	5.354	0.494
860.001	504.912	80.005	19.995	103.175	20.206	5.396	0.479
860.501	505.158	80.006	19.995	103.175	20.208	5.301	0.478
861.000	505.386	80.007	19.994	103.174	20.208	5.298	0.483
861.500	505.712	80.005	19.995	103.174	20.206	5.437	0.514
862.000	505.964	80.007	19.995	103.174	20.206	5.411	0.566
862.500	506.176	80.007	19.996	103.173	20.208	5.287	0.521
863.000	506.419	80.006	19.994	103.173	20.208	5.254	0.459
863.500	506.697	80.007	19.996	103.173	20.207	5.323	0.488
864.000	506.915	80.007	19.995	103.173	20.211	5.083	0.508
864.500	507.156	80.007	19.995	103.172	20.209	5.232	0.477
865.000	507.408	80.006	19.995	103.172	20.210	5.164	0.476
865.500	507.659	80.006	19.995	103.172	20.211	5.103	0.499
866.000	507.889	80.006	19.995	103.172	20.207	5.321	0.492
866.500	508.141	80.005	19.996	103.172	20.208	5.301	0.481
867.000	508.394	80.007	19.995	103.172	20.210	5.122	0.493
867.500	508.648	80.005	19.995	103.172	20.214	4.911	0.506
868.000	508.874	80.006	19.995	103.173	20.210	5.134	0.494
868.500	509.100	80.006	19.995	103.174	20.212	5.015	0.466
869.000	509.372	80.005	19.995	103.174	20.214	4.882	0.475
869.500	509.632	80.006	19.994	103.174	20.212	4.984	0.515
870.000	509.852	80.006	19.996	103.175	20.214	4.913	0.506
870.500	510.107	80.005	19.996	103.174	20.213	4.953	0.477
871.000	510.344	80.006	19.994	103.174	20.211	5.061	0.483
871.500	510.599	80.005	19.995	103.174	20.213	4.975	0.492
872.000	510.820	80.005	19.995	103.174	20.214	4.893	0.484
872.500	511.075	80.006	19.996	103.174	20.212	5.028	0.476
873.000	511.291	80.005	19.995	103.174	20.213	4.944	0.473
873.500	511.520	80.006	19.996	103.174	20.215	4.792	0.458
874.000	511.792	80.006	19.994	103.174	20.213	4.966	0.473
874.500	512.005	80.005	19.995	103.174	20.212	5.006	0.493
875.000	512.251	80.005	19.995	103.173	20.216	4.768	0.472
875.500	512.511	80.007	19.995	103.174	20.212	4.986	0.482
876.000	512.730	80.006	19.995	103.174	20.213	4.953	0.492
876.500	513.004	80.007	19.995	103.175	20.215	4.805	0.486
877.000	513.185	80.007	19.994	103.175	20.213	4.975	0.474
877.500	513.452	80.007	19.995	103.176	20.212	4.990	0.452
878.000	513.747	80.006	19.994	103.175	20.217	4.682	0.505
878.500	513.997	80.007	19.995	103.175	20.214	4.874	0.553
879.000	514.233	80.006	19.995	103.172	20.216	4.779	0.515
879.500	514.489	80.007	19.994	103.172	20.216	4.746	0.489
880.000	514.734	80.006	19.994	103.172	20.216	4.777	0.496
880.500	514.991	80.006	19.994	103.173	20.214	4.898	0.502
881.000	515.264	80.007	19.994	103.173	20.214	4.874	0.516
881.500	515.506	80.007	19.996	103.174	20.214	4.858	0.522
882.000	515.725	80.007	19.995	103.174	20.213	4.931	0.488
882.500	516.011	80.007	19.995	103.173	20.213	4.958	0.483
883.000	516.228	80.007	19.994	103.174	20.213	4.973	0.504
883.500	516.485	80.008	19.993	103.175	20.214	4.889	0.488
884.000	516.718	80.008	19.994	103.175	20.216	4.744	0.481
884.500	516.990	80.009	19.994	103.174	20.218	4.614	0.498
885.000	517.218	80.009	19.994	103.174	20.214	4.852	0.503
885.500	517.453	80.007	19.994	103.172	20.214	4.902	0.481
886.000	517.704	80.009	19.993	103.170	20.217	4.654	0.474
886.500	517.959	80.009	19.994	103.170	20.215	4.795	0.496
887.000	518.200	80.010	19.993	103.170	20.217	4.680	0.501
887.500	518.431	80.010	19.993	103.170	20.218	4.640	0.484
888.000	518.677	80.008	19.993	103.169	20.217	4.667	0.474
888.500	518.934	80.009	19.995	103.169	20.212	5.017	0.490
889.000	519.210	80.010	19.993	103.169	20.214	4.860	0.518
889.500	519.457	80.009	19.994	103.169	20.214	4.874	0.528
890.000	519.705	80.008	19.994	103.170	20.219	4.557	0.509
890.500	519.905	80.009	19.993	103.170	20.216	4.753	0.471
891.000	520.164	80.009	19.993	103.171	20.217	4.691	0.454
891.500	520.409	80.009	19.993	103.171	20.215	4.803	0.481
892.000	520.682	80.009	19.994	103.170	20.220	4.471	0.511
892.500	520.911	80.008	19.994	103.170	20.217	4.647	0.510
893.000	521.151	80.008	19.995	103.169	20.217	4.664	0.485
893.500	521.413	80.008	19.994	103.169	20.217	4.662	0.486
894.000	521.651	80.008	19.994	103.169	20.216	4.763	0.501
894.500	521.916	80.008	19.994	103.169	20.218	4.600	0.502
895.000	522.130	80.007	19.995	103.169	20.215	4.803	0.491
895.500	522.392	80.008	19.994	103.170	20.218	4.600	0.477
896.000	522.629	80.006	19.993	103.170	20.217	4.689	0.488
896.500	522.870	80.007	19.994	103.170	20.217	4.702	0.489
897.000	523.123	80.007	19.994	103.170	20.216	4.742	0.486
897.500	523.349	80.007	19.994	103.169	20.220	4.468	0.487
898.000	523.618	80.006	19.995	103.170	20.219	4.530	0.487
898.500	523.869	80.007	19.994	103.170	20.219	4.550	0.508
899.000	524.120	80.006	19.994	103.169	20.220	4.501	0.511
899.500	524.380	80.006	19.994	103.169	20.220	4.488	0.506
900.000	524.591	80.007	19.995	103.169	20.216	4.731	0.491
900.500	524.862	80.006	19.994	103.170	20.216	4.761	0.476
901.000	525.099	80.007	19.994	103.170	20.218	4.594	0.495
901.500	525.336	80.006	19.994	103.171	20.217	4.669	0.491
902.000	525.584	80.007	19.994	103.172	20.217	4.656	0.479
902.500	525.819	80.007	19.994	103.172	20.218	4.609	0.484
903.000	526.113	80.007	19.995	103.171	20.217	4.698	0.506
903.500	526.328	80.007	19.995	103.171	20.217	4.647	0.519
904.000	526.593	80.007	19.995	103.171	20.217	4.700	0.494
904.500	526.820	80.007	19.995	103.172	20.219	4.523	0.486
905.000	527.106	80.006	19.995	103.171	20.217	4.680	0.502
905.500	527.331	80.006	19.994	103.171	20.219	4.550	0.512
906.000	527.606	80.006	19.994	103.171	20.219	4.526	0.506
906.500	527.864	80.007	19.994	103.170	20.221	4.391	0.517
907.000	528.100	80.007	19.994	103.171	20.222	4.349	0.513
907.500	528.357	80.006	19.995	103.171	20.216	4.732	0.493
908.000	528.596	80.008	19.996	103.171	20.222	4.367	0.495
908.500	528.854	80.007	19.995	103.171	20.221	4.394	0.497
909.000	529.140	80.007	19.995	103.171	20.222	4.316	0.521
909.500	529.373	80.006	19.995	103.171	20.220	4.473	0.532
910.000	529.639	80.007	19.995	103.170	20.222	4.363	0.509
910.500	529.865	80.006	19.995	103.171	20.218	4.622	0.495
911.000	530.093	80.007	19.994	103.171	20.220	4.486	0.473
911.500	530.383	80.007	19.996	103.171	20.216	4.733	0.486
912.000	530.639	80.007	19.993	103.172	20.221	4.404	0.532
912.500	530.894	80.007	19.993	103.172	20.219	4.532	0.529
913.000	531.161	80.006	19.995	103.172	20.221	4.437	0.517
913.500	531.402	80.006	19.995	103.172	20.220	4.462	0.515
914.000	531.630	80.007	19.994	103.172	20.218	4.594	0.489
914.500	531.886	80.007	19.995	103.172	20.221	4.433	0.476
915.000	532.130	80.006	19.995	103.172	20.220	4.486	0.492
915.500	532.362	80.005	19.996	103.173	20.222	4.336	0.488
916.001	532.641	80.006	19.994	103.173	20.221	4.389	0.494
916.501	532.893	80.008	19.994	103.173	20.220	4.455	0.521
917.000	533.144	80.006	19.994	103.173	20.218	4.629	0.517
917.500	533.418	80.007	19.995	103.175	20.222	4.341	0.514
918.000	533.639	80.008	19.994	103.174	20.220	4.481	0.509
918.500	533.931	80.007	19.994	103.174	20.220	4.458	0.504
919.000	534.160	80.006	19.993	103.174	20.219	4.557	0.517
919.500	534.444	80.006	19.994	103.174	20.222	4.314	0.517
920.000	534.687	80.007	19.994	103.173	20.221	4.400	0.520
920.500	534.994	80.006	19.994	103.173	20.220	4.469	0.539
921.000	535.251	80.007	19.993	103.173	20.220	4.453	0.557
921.500	535.470	80.006	19.993	103.173	20.221	4.433	0.520
922.000	535.716	80.006	19.994	103.173	20.221	4.398	0.471
922.500	535.995	80.007	19.994	103.173	20.220	4.468	0.495
923.000	536.244	80.006	19.993	103.174	20.222	4.329	0.527
923.500	536.482	80.007	19.993	103.173	20.221	4.422	0.507
924.000	536.734	80.007	19.994	103.174	20.226	4.043	0.488
924.500	537.007	80.005	19.994	103.174	20.220	4.473	0.507
925.000	537.205	80.006	19.995	103.174	20.226	4.094	0.498
925.500	537.476	80.006	19.994	103.174	20.221	4.378	0.470
926.000	537.739	80.004	19.994	103.174	20.221	4.440	0.501
926.500	538.010	80.006	19.993	103.171	20.221	4.387	0.534
927.000	538.281	80.005	19.995	103.171	20.221	4.420	0.538
927.500	538.545	80.005	19.993	103.171	20.223	4.299	0.539
928.000	538.797	80.006	19.994	103.172	20.221	4.384	0.526
928.500	539.027	80.005	19.994	103.172	20.222	4.362	0.499
929.000	539.283	80.005	19.994	103.173	20.221	4.433	0.485
929.500	539.553	80.005	19.995	103.171	20.223	4.286	0.506
930.000	539.822	80.006	19.995	103.169	20.223	4.303	0.532
930.500	540.042	80.005	19.994	103.168	20.223	4.248	0.514
931.000	540.252	80.006	19.995	103.168	20.224	4.180	0.459
931.500	540.560	80.005	19.994	103.169	20.225	4.160	0.474
932.000	540.797	80.006	19.996	103.172	20.222	4.341	0.532
932.500	541.038	80.005	19.995	103.173	20.223	4.248	0.511
933.000	541.294	80.005	19.995	103.173	20.221	4.416	0.487
933.500	541.552	80.006	19.994	103.174	20.219	4.526	0.505
934.000	541.808	80.004	19.994	103.174	20.222	4.372	0.514
934.500	542.062	80.004	19.994	103.175	20.223	4.248	0.512
935.000	542.318	80.005	19.994	103.175	20.224	4.197	0.510
935.500	542.585	80.005	19.995	103.175	20.226	4.063	0.516
936.001	542.847	80.005	19.994	103.174	20.227	4.008	0.526
936.500	543.076	80.005	19.994	103.175	20.224	4.228	0.510
937.000	543.322	80.006	19.994	103.175	20.224	4.231	0.483
937.500	543.580	80.004	19.996	103.175	20.224	4.235	0.489
938.000	543.872	80.006	19.994	103.175	20.227	3.993	0.527
938.500	544.096	80.006	19.995	103.175	20.225	4.149	0.533
939.000	544.332	80.006	19.995	103.175	20.226	4.074	0.488
939.500	544.610	80.007	19.994	103.176	20.222	4.369	0.487
940.000	544.837	80.006	19.995	103.176	20.224	4.229	0.510
940.500	545.084	80.006	19.994	103.176	20.226	4.052	0.490
941.000	545.315	80.007	19.995	103.176	20.227	4.023	0.476
941.500	545.594	80.007	19.995	103.175	20.227	4.023	0.494
942.000	545.834	80.008	19.995	103.174	20.226	4.061	0.515
942.500	546.103	80.007	19.994	103.174	20.222	4.332	0.514
943.000	546.348	80.008	19.995	103.174	20.226	4.077	0.511
943.500	546.612	80.009	19.995	103.174	20.226	4.090	0.512
944.000	546.849	80.007	19.995	103.173	20.227	4.019	0.505
944.500	547.088	80.008	19.994	103.173	20.225	4.134	0.489
945.000	547.374	80.009	19.994	103.172	20.224	4.228	0.500
945.500	547.637	80.009	19.994	103.171	20.224	4.239	0.537
946.000	547.906	80.008	19.995	103.171	20.223	4.301	0.541
946.500	548.102	80.006	19.994	103.172	20.225	4.165	0.498
947.000	548.367	80.009	19.994	103.171	20.228	3.966	0.463
947.500	548.630	80.008	19.995	103.170	20.222	4.334	0.495
948.000	548.856	80.007	19.994	103.169	20.223	4.257	0.509
948.500	549.137	80.009	19.994	103.170	20.227	3.995	0.498
949.000	549.400	80.008	19.995	103.169	20.227	4.006	0.525
949.500	549.601	80.008	19.994	103.169	20.222	4.316	0.504
950.000	549.872	80.007	19.995	103.170	20.223	4.273	0.468
950.500	550.149	80.008	19.994	103.170	20.224	4.186	0.510
951.000	550.378	80.007	19.994	103.170	20.226	4.096	0.527
951.500	550.626	80.006	19.995	103.171	20.224	4.219	0.492
952.000	550.896	80.007	19.996	103.171	20.226	4.070	0.498
952.500	551.147	80.007	19.993	103.171	20.224	4.184	0.519
953.000	551.397	80.006	19.994	103.170	20.227	4.013	0.511
953.500	551.638	80.006	19.994	103.170	20.222	4.343	0.497
954.001	551.911	80.007	19.995	103.170	20.224	4.204	0.503
954.500	552.195	80.006	19.994	103.169	20.226	4.070	0.535
955.000	552.438	80.006	19.995	103.169	20.224	4.209	0.541
955.500	552.693	80.007	19.995	103.170	20.225	4.134	0.512
956.000	552.957	80.006	19.995	103.170	20.223	4.246	0.509
956.500	553.175	80.006	19.995	103.170	20.224	4.217	0.500
957.000	553.474	80.006	19.995	103.171	20.223	4.261	0.500
957.500	553.738	80.006	19.995	103.170	20.224	4.239	0.540
958.000	553.977	80.006	19.995	103.170	20.223	4.283	0.533
958.500	554.251	80.006	19.995	103.171	20.226	4.088	0.508
959.000	554.512	80.007	19.996	103.171	20.225	4.167	0.524
959.500	554.758	80.007	19.996	103.171	20.225	4.149	0.521
960.000	555.037	80.008	19.995	103.171	20.226	4.076	0.516
960.500	555.313	80.007	19.995	103.171	20.226	4.088	0.540
961.000	555.550	80.005	19.996	103.170	20.224	4.206	0.534
961.500	555.835	80.007	19.995	103.171	20.225	4.173	0.517
962.000	556.116	80.006	19.995	103.171	20.223	4.281	0.544
962.500	556.361	80.007	19.995	103.171	20.227	4.028	0.547
963.000	556.621	80.007	19.995	103.170	20.225	4.147	0.516
963.500	556.865	80.007	19.996	103.172	20.225	4.167	0.504
964.000	557.153	80.008	19.997	103.171	20.222	4.319	0.518
964.500	557.388	80.006	19.996	103.170	20.224	4.200	0.528
965.000	557.677	80.008	19.996	103.170	20.224	4.228	0.524
965.500	557.974	80.007	19.996	103.170	20.225	4.171	0.555
966.000	558.166	80.008	19.995	103.169	20.226	4.055	0.537
966.500	558.440	80.008	19.995	103.169	20.225	4.169	0.477
967.000	558.705	80.008	19.995	103.170	20.226	4.068	0.503
967.500	558.998	80.008	19.995	103.170	20.223	4.257	0.549
968.000	559.221	80.009	19.995	103.170	20.226	4.050	0.537
968.500	559.479	80.008	19.995	103.170	20.225	4.127	0.498
969.000	559.765	80.008	19.995	103.170	20.228	3.946	0.512
969.500	560.037	80.007	19.994	103.169	20.220	4.458	0.551
970.000	560.238	80.009	19.994	103.169	20.225	4.156	0.515
970.500	560.546	80.009	19.994	103.169	20.222	4.350	0.491
971.000	560.834	80.008	19.994	103.169	20.224	4.235	0.553
971.500	561.078	80.008	19.994	103.169	20.224	4.224	0.564
972.000	561.346	80.009	19.994	103.169	20.221	4.433	0.521
972.500	561.631	80.010	19.993	103.169	20.224	4.224	0.532
973.000	561.884	80.009	19.994	103.169	20.225	4.122	0.546
973.500	562.130	80.008	19.995	103.169	20.225	4.125	0.519
974.000	562.394	80.008	19.993	103.169	20.227	4.025	0.505
974.500	562.645	80.007	19.995	103.169	20.223	4.288	0.512
975.000	562.898	80.008	19.995	103.169	20.223	4.246	0.509
975.500	563.172	80.009	19.995	103.169	20.223	4.244	0.515
976.000	563.450	80.008	19.994	103.169	20.223	4.279	0.540
976.500	563.678	80.006	19.994	103.169	20.221	4.411	0.530
977.000	563.955	80.007	19.995	103.169	20.227	4.026	0.506
977.500	564.192	80.007	19.994	103.169	20.227	4.024	0.509
978.000	564.480	80.007	19.995	103.170	20.222	4.310	0.519
978.500	564.755	80.007	19.994	103.170	20.225	4.162	0.544
979.000	564.995	80.006	19.993	103.170	20.222	4.345	0.539
979.500	565.247	80.006	19.994	103.170	20.225	4.123	0.504
980.000	565.548	80.006	19.994	103.171	20.224	4.199	0.523
980.500	565.823	80.005	19.993	103.171	20.223	4.281	0.565
981.000	566.069	80.006	19.994	103.171	20.222	4.312	0.549
981.500	566.348	80.004	19.993	103.171	20.224	4.177	0.523
982.000	566.623	80.005	19.993	103.172	20.223	4.301	0.539
982.500	566.842	80.006	19.994	103.173	20.221	4.400	0.524
983.000	567.121	80.006	19.994	103.173	20.222	4.373	0.496
983.500	567.407	80.006	19.995	103.174	20.220	4.510	0.531
984.000	567.663	80.005	19.994	103.174	20.219	4.576	0.554
984.500	567.954	80.005	19.993	103.174	20.220	4.492	0.545
985.000	568.253	80.005	19.995	103.175	20.219	4.521	0.568
985.500	568.490	80.006	19.994	103.175	20.220	4.455	0.563
986.000	568.761	80.006	19.994	103.176	20.214	4.862	0.523
986.500	569.016	80.005	19.994	103.177	20.219	4.578	0.517
987.000	569.295	80.006	19.994	103.177	20.219	4.539	0.530
987.500	569.607	80.006	19.994	103.176	20.220	4.457	0.562
988.000	569.824	80.006	19.995	103.175	20.220	4.464	0.560
988.500	570.137	80.006	19.995	103.174	20.217	4.668	0.530
989.000	570.367	80.005	19.994	103.173	20.221	4.396	0.536
989.500	570.654	80.006	19.994	103.173	20.218	4.580	0.530
990.000	570.916	80.006	19.995	103.174	20.219	4.554	0.533
990.500	571.211	80.007	19.994	103.176	20.219	4.574	0.553
991.001	571.464	80.006	19.994	103.178	20.222	4.360	0.552
991.501	571.751	80.007	19.994	103.182	20.217	4.649	0.544
992.001	572.032	80.005	19.994	103.184	20.220	4.479	0.554
992.500	572.283	80.006	19.995	103.183	20.220	4.470	0.550
993.000	572.585	80.006	19.995	103.181	20.221	4.415	0.542
993.500	572.866	80.006	19.994	103.180	20.221	4.393	0.568
994.000	573.144	80.005	19.994	103.176	20.218	4.585	0.571
994.500	573.399	80.007	19.993	103.176	20.220	4.493	0.546
995.000	573.668	80.005	19.994	103.176	20.217	4.699	0.529
995.500	573.997	80.006	19.994	103.175	20.222	4.352	0.561
996.000	574.247	80.005	19.993	103.175	20.220	4.459	0.588
996.500	574.503	80.006	19.994	103.176	20.220	4.499	0.542
997.000	574.841	80.005	19.994	103.178	20.220	4.473	0.550
997.500	575.088	80.005	19.994	103.178	20.226	4.069	0.590
998.000	575.373	80.006	19.993	103.178	20.219	4.528	0.559
998.500	575.652	80.007	19.995	103.179	20.221	4.407	0.548
999.000	575.937	80.006	19.994	103.179	20.220	4.499	0.564
999.500	576.203	80.007	19.994	103.177	20.219	4.517	0.557
1000.000	576.406	80.005	19.993	103.177	20.221	4.398	0.510
1000.500	576.720	80.006	19.993	103.177	20.220	4.444	0.493
1001.000	577.017	80.006	19.994	103.176	20.220	4.479	0.564
1001.500	577.293	80.005	19.993	103.175	20.222	4.352	0.592
1002.001	577.591	80.007	19.993	103.175	20.219	4.576	0.574
1002.500	577.860	80.006	19.993	103.175	20.221	4.407	0.571
1003.000	578.105	80.006	19.994	103.175	20.219	4.535	0.540
1003.500	578.411	80.006	19.993	103.175	20.217	4.664	0.532
1004.000	578.685	80.006	19.993	103.175	20.219	4.519	0.565
1004.500	578.974	80.006	19.994	103.175	20.222	4.358	0.572
1005.000	579.264	80.005	19.994	103.176	20.218	4.625	0.571
1005.500	579.503	80.006	19.994	103.175	20.223	4.288	0.554
1006.000	579.763	80.005	19.995	103.176	20.223	4.306	0.514
1006.500	580.057	80.006	19.994	103.176	20.224	4.235	0.527
1007.000	580.309	80.005	19.994	103.176	20.221	4.416	0.550
1007.500	580.602	80.006	19.994	103.177	20.220	4.506	0.545
1008.000	580.893	80.006	19.994	103.177	20.224	4.239	0.564
1008.500	581.132	80.004	19.993	103.177	20.223	4.292	0.557
1009.000	581.425	80.005	19.994	103.176	20.222	4.328	0.531
1009.500	581.721	80.007	19.994	103.176	20.222	4.361	0.561
1010.000	581.971	80.006	19.994	103.175	20.222	4.336	0.567
1010.500	582.262	80.006	19.993	103.174	20.221	4.438	0.543
1011.000	582.495	80.006	19.994	103.174	20.222	4.338	0.533
1011.500	582.788	80.004	19.994	103.172	20.222	4.321	0.525
1012.000	583.088	80.005	19.994	103.171	20.222	4.328	0.559
1012.500	583.337	80.006	19.993	103.173	20.221	4.437	0.571
1013.000	583.616	80.005	19.993	103.173	20.222	4.313	0.539
1013.500	583.888	80.006	19.994	103.172	20.222	4.348	0.540
1014.000	584.140	80.006	19.993	103.172	20.224	4.216	0.538
1014.500	584.402	80.005	19.994	103.173	20.223	4.279	0.519
1015.000	584.673	80.006	19.994	103.172	20.222	4.314	0.523
1015.500	584.952	80.006	19.994	103.170	20.224	4.219	0.541
1016.000	585.222	80.005	19.994	103.170	20.224	4.201	0.550
1016.500	585.505	80.005	19.994	103.172	20.224	4.182	0.551
1017.000	585.773	80.004	19.994	103.172	20.220	4.449	0.552
1017.500	586.010	80.006	19.993	103.172	20.224	4.182	0.529
1018.000	586.302	80.004	19.993	103.173	20.222	4.336	0.517
1018.500	586.587	80.005	19.994	103.174	20.221	4.429	0.553
1019.000	586.857	80.006	19.995	103.173	20.223	4.303	0.566
1019.500	587.123	80.006	19.995	103.173	20.221	4.383	0.545
1020.000	587.370	80.004	19.993	103.172	20.219	4.546	0.524
1020.500	587.652	80.006	19.995	103.172	20.225	4.112	0.521
1021.000	587.919	80.006	19.994	103.171	20.220	4.471	0.539
1021.500	588.176	80.008	19.995	103.166	20.219	4.523	0.537
1022.000	588.456	80.006	19.994	103.145	20.218	4.596	0.530
1022.500	588.708	80.007	19.995	103.123	20.222	4.372	0.534
1023.000	588.994	80.007	19.994	103.108	20.217	4.647	0.535
1023.500	589.236	80.007	19.995	103.103	20.219	4.546	0.533
1024.000	589.502	80.007	19.994	103.108	20.219	4.539	0.518
1024.500	589.783	80.007	19.995	103.161	20.221	4.380	0.528
1025.000	590.055	80.009	19.994	103.204	20.223	4.299	0.550
1025.500	590.347	80.006	19.994	103.224	20.225	4.169	0.558
1026.000	590.583	80.007	19.995	103.230	20.220	4.466	0.546
1026.500	590.874	80.008	19.995	103.229	20.221	4.385	0.528
1027.000	591.145	80.005	19.994	103.198	20.222	4.332	0.545
1027.501	591.408	80.008	19.994	103.178	20.224	4.180	0.548
1028.001	591.640	80.008	19.996	103.172	20.224	4.213	0.515
1028.500	591.904	80.008	19.996	103.172	20.222	4.360	0.495
1029.000	592.216	80.006	19.994	103.172	20.221	4.433	0.536
1029.500	592.460	80.006	19.995	103.172	20.220	4.462	0.566
1030.000	592.715	80.007	19.994	103.172	20.223	4.285	0.528
1030.500	592.983	80.006	19.994	103.172	20.218	4.631	0.511
1031.001	593.234	80.009	19.995	103.173	20.223	4.297	0.521
1031.501	593.512	80.007	19.994	103.173	20.221	4.424	0.524
1032.000	593.803	80.007	19.994	103.173	20.223	4.301	0.549
1032.500	594.037	80.007	19.994	103.174	20.220	4.510	0.547
1033.000	594.321	80.008	19.994	103.173	20.223	4.281	0.522
1033.500	594.584	80.007	19.995	103.172	20.224	4.224	0.533
1034.000	594.847	80.005	19.994	103.172	20.223	4.266	0.536
1034.500	595.138	80.007	19.995	103.172	20.224	4.187	0.540
1035.000	595.373	80.007	19.995	103.174	20.224	4.209	0.541
1035.500	595.624	80.006	19.995	103.175	20.224	4.198	0.506
1036.000	595.891	80.007	19.995	103.176	20.222	4.345	0.502
1036.500	596.136	80.008	19.995	103.176	20.225	4.164	0.515
1037.000	596.394	80.006	19.994	103.177	20.218	4.580	0.508
1037.500	596.665	80.007	19.994	103.177	20.221	4.398	0.516
1038.000	596.947	80.007	19.996	103.176	20.220	4.479	0.541
1038.500	597.179	80.007	19.994	103.175	20.221	4.417	0.533
1039.001	597.436	80.006	19.995	103.175	20.219	4.560	0.501
1039.501	597.678	80.007	19.994	103.174	20.222	4.371	0.494
1040.000	597.944	80.005	19.994	103.172	20.221	4.376	0.504
1040.500	598.243	80.006	19.995	103.172	20.223	4.243	0.537
1041.000	598.454	80.006	19.995	103.172	20.222	4.358	0.537
1041.500	598.753	80.007	19.995	103.172	20.227	4.028	0.510
1042.000	598.971	80.008	19.994	103.172	20.221	4.411	0.514
1042.500	599.234	80.007	19.995	103.173	20.224	4.220	0.500
1043.000	599.493	80.006	19.994	103.172	20.223	4.307	0.502
1043.500	599.749	80.005	19.994	103.172	20.224	4.186	0.518
1044.000	600.009	80.007	19.994	103.173	20.227	3.979	0.515
1044.500	600.266	80.007	19.994	103.173	20.223	4.296	0.517
1045.000	600.503	80.007	19.995	103.172	20.225	4.136	0.505
1045.500	600.777	80.007	19.993	103.173	20.224	4.235	0.502
1046.000	601.045	80.007	19.995	103.173	20.226	4.088	0.526
1046.500	601.293	80.006	19.994	103.173	20.227	4.032	0.529
1047.000	601.543	80.009	19.995	103.174	20.225	4.131	0.507
1047.501	601.793	80.007	19.994	103.175	20.225	4.166	0.499
1048.001	602.063	80.007	19.995	103.176	20.224	4.233	0.510
1048.501	602.312	80.007	19.995	103.176	20.223	4.301	0.520
1049.000	602.557	80.006	19.994	103.177	20.223	4.261	0.506
1049.500	602.779	80.005	19.994	103.177	20.224	4.197	0.480
1050.000	603.030	80.007	19.994	103.178	20.223	4.253	0.470
1050.500	603.298	80.008	19.994	103.176	20.222	4.372	0.497
1051.001	603.530	80.007	19.994	103.176	20.224	4.233	0.509
1051.501	603.765	80.008	19.994	103.176	20.227	3.980	0.483
1052.000	604.048	80.008	19.995	103.175	20.222	4.325	0.492
1052.500	604.269	80.009	19.993	103.173	20.225	4.109	0.511
1053.000	604.515	80.007	19.994	103.173	20.224	4.197	0.486
1053.500	604.726	80.009	19.995	103.173	20.226	4.083	0.462
1054.000	605.009	80.007	19.995	103.173	20.228	3.964	0.475
1054.500	605.198	80.009	19.995	103.173	20.225	4.109	0.483
1055.000	605.486	80.006	19.994	103.173	20.228	3.966	0.474
1055.500	605.752	80.008	19.995	103.172	20.229	3.863	0.516
1056.001	605.996	80.006	19.994	103.172	20.226	4.063	0.532
1056.501	606.256	80.008	19.995	103.171	20.224	4.206	0.507
1057.001	606.484	80.007	19.996	103.171	20.226	4.098	0.496
1057.500	606.740	80.006	19.995	103.174	20.226	4.092	0.486
1058.000	606.951	80.007	19.995	103.176	20.222	4.325	0.476
1058.500	607.213	80.005	19.995	103.177	20.224	4.197	0.470
1059.000	607.455	80.006	19.995	103.177	20.225	4.140	0.489
1059.500	607.717	80.006	19.995	103.177	20.223	4.301	0.504
1060.000	607.965	80.005	19.994	103.174	20.222	4.345	0.507
1060.500	608.178	80.005	19.995	103.172	20.224	4.228	0.486
1061.000	608.456	80.005	19.995	103.172	20.220	4.497	0.477
1061.500	608.688	80.006	19.995	103.172	20.221	4.429	0.500
1062.001	608.933	80.005	19.994	103.172	20.221	4.418	0.493
1062.501	609.194	80.005	19.995	103.173	20.220	4.499	0.491
1063.001	609.441	80.004	19.994	103.173	20.218	4.633	0.507
1063.500	609.664	80.003	19.995	103.174	20.218	4.594	0.490
1064.000	609.938	80.006	19.995	103.174	20.219	4.527	0.484
1064.500	610.181	80.004	19.994	103.175	20.220	4.455	0.506
1065.000	610.414	80.004	19.994	103.177	20.217	4.699	0.496
1065.500	610.662	80.006	19.994	103.179	20.217	4.689	0.479
1066.001	610.902	80.005	19.994	103.179	20.218	4.623	0.484
1066.501	611.133	80.004	19.995	103.180	20.219	4.554	0.479
1067.000	611.386	80.003	19.994	103.181	20.217	4.660	0.478
1067.500	611.640	80.006	19.995	103.179	20.217	4.713	0.496
1068.000	611.892	80.006	19.994	103.177	20.218	4.631	0.507
1068.500	612.140	80.004	19.994	103.177	20.218	4.635	0.503
1069.000	612.388	80.005	19.994	103.177	20.220	4.504	0.498
1069.500	612.646	80.005	19.994	103.176	20.216	4.719	0.501
1070.000	612.908	80.006	19.994	103.179	20.218	4.638	0.513
1070.500	613.140	80.006	19.994	103.179	20.218	4.634	0.507
1071.000	613.356	80.005	19.995	103.178	20.217	4.675	0.471
1071.500	613.618	80.006	19.994	103.179	20.217	4.656	0.463
1072.000	613.848	80.006	19.994	103.178	20.220	4.457	0.485
1072.500	614.096	80.006	19.995	103.176	20.221	4.435	0.485
1073.000	614.344	80.006	19.994	103.176	20.219	4.543	0.487
1073.501	614.576	80.006	19.994	103.176	20.219	4.515	0.488
1074.001	614.836	80.007	19.995	103.176	20.216	4.721	0.486
1074.500	615.104	80.006	19.993	103.177	20.218	4.616	0.510
1075.000	615.327	80.005	19.994	103.177	20.218	4.587	0.510
1075.500	615.596	80.007	19.994	103.176	20.220	4.479	0.491
1076.000	615.781	80.006	19.995	103.175	20.220	4.457	0.473
1076.500	616.060	80.005	19.995	103.174	20.222	4.330	0.459
1077.000	616.305	80.006	19.994	103.172	20.217	4.656	0.494
1077.500	616.551	80.007	19.995	103.175	20.215	4.816	0.508
1078.000	616.808	80.006	19.993	103.175	20.219	4.539	0.497
1078.500	617.028	80.006	19.994	103.175	20.217	4.669	0.490
1079.000	617.302	80.007	19.993	103.175	20.219	4.576	0.485
1079.500	617.488	80.008	19.995	103.175	20.221	4.389	0.477
1080.000	617.768	80.007	19.994	103.172	20.219	4.536	0.463
1080.500	618.025	80.006	19.995	103.171	20.219	4.536	0.501
1081.000	618.258	80.007	19.994	103.172	20.218	4.625	0.513
1081.500	618.473	80.006	19.993	103.174	20.220	4.455	0.469
1082.000	618.703	80.006	19.995	103.174	20.220	4.492	0.447
1082.500	618.995	80.006	19.993	103.175	20.219	4.523	0.484
1083.000	619.228	80.004	19.994	103.175	20.218	4.598	0.524
1083.500	619.450	80.006	19.994	103.174	20.217	4.690	0.490
1084.001	619.697	80.005	19.995	103.172	20.221	4.428	0.462
1084.501	619.901	80.005	19.995	103.172	20.219	4.571	0.460
1085.000	620.167	80.005	19.995	103.174	20.221	4.381	0.461
1085.500	620.415	80.006	19.994	103.176	20.220	4.460	0.492
1086.001	620.655	80.006	19.993	103.176	20.218	4.643	0.501
1086.501	620.921	80.006	19.995	103.175	20.219	4.562	0.496
1087.000	621.153	80.006	19.994	103.176	20.220	4.469	0.502
1087.500	621.403	80.007	19.995	103.174	20.219	4.542	0.491
1088.000	621.612	80.006	19.995	103.171	20.218	4.619	0.471
1088.500	621.839	80.007	19.995	103.173	20.220	4.450	0.448
1089.000	622.085	80.006	19.994	103.175	20.220	4.499	0.454
1089.500	622.334	80.006	19.995	103.177	20.218	4.642	0.484
1090.000	622.601	80.006	19.994	103.179	20.218	4.591	0.506
1090.500	622.825	80.006	19.995	103.179	20.219	4.525	0.504
1091.000	623.054	80.005	19.994	103.177	20.219	4.523	0.472
1091.500	623.302	80.006	19.995	103.176	20.221	4.428	0.465
1092.000	623.533	80.006	19.994	103.174	20.222	4.363	0.478
1092.500	623.800	80.006	19.995	103.172	20.220	4.497	0.489
1093.000	624.017	80.005	19.994	103.173	20.221	4.382	0.491
1093.500	624.271	80.008	19.995	103.176	20.222	4.338	0.478
1094.000	624.507	80.005	19.994	103.178	20.224	4.188	0.481
1094.501	624.726	80.007	19.995	103.179	20.222	4.320	0.473
1095.001	624.968	80.007	19.995	103.186	20.220	4.456	0.458
1095.500	625.198	80.005	19.994	103.194	20.223	4.269	0.467
1096.000	625.477	80.004	19.995	103.195	20.222	4.331	0.491
1096.501	625.709	80.005	19.994	103.197	20.220	4.505	0.510
1097.001	625.994	80.004	19.995	103.201	20.223	4.285	0.514
1097.500	626.199	80.007	19.995	103.198	20.223	4.283	0.503
1098.000	626.442	80.006	19.994	103.192	20.225	4.118	0.469
1098.500	626.691	80.004	19.995	103.188	20.224	4.230	0.470
1099.001	626.931	80.005	19.995	103.189	20.223	4.260	0.491
1099.501	627.225	80.006	19.995	103.184	20.222	4.314	0.512
1100.001	627.413	80.006	19.994	103.180	20.223	4.270	0.508
1100.500	627.677	80.005	19.994	103.179	20.220	4.444	0.467
1101.000	627.911	80.006	19.994	103.179	20.221	4.398	0.475
1101.500	628.220	80.005	19.995	103.175	20.220	4.455	0.521
1102.000	628.446	80.005	19.994	103.175	20.223	4.305	0.539
1102.500	628.663	80.006	19.994	103.176	20.222	4.311	0.489
1103.000	628.864	80.007	19.993	103.176	20.219	4.514	0.431
1103.500	629.143	80.008	19.994	103.174	20.218	4.639	0.449
1104.000	629.410	80.008	19.994	103.175	20.222	4.363	0.513
1104.500	629.626	80.008	19.995	103.175	20.219	4.540	0.515
1105.000	629.859	80.007	19.994	103.178	20.219	4.548	0.466
1105.500	630.187	80.006	19.994	103.182	20.219	4.513	0.505
1106.000	630.407	80.007	19.993	103.189	20.221	4.434	0.554
1106.500	630.654	80.006	19.993	103.193	20.219	4.552	0.507
1107.000	630.897	80.008	19.995	103.191	20.215	4.839	0.478
1107.500	631.190	80.009	19.993	103.188	20.221	4.418	0.513
1108.000	631.425	80.008	19.994	103.189	20.220	4.509	0.532
1108.500	631.669	80.008	19.995	103.185	20.219	4.578	0.503
1109.000	631.938	80.007	19.994	103.184	20.215	4.833	0.496
1109.500	632.174	80.007	19.994	103.189	20.218	4.633	0.509
1110.001	632.416	80.007	19.995	103.190	20.220	4.464	0.491
1110.501	632.677	80.007	19.994	103.185	20.220	4.488	0.490
1111.001	632.946	80.008	19.995	103.184	20.217	4.677	0.516
1111.501	633.229	80.006	19.994	103.184	20.218	4.641	0.541
1112.000	633.423	80.007	19.994	103.180	20.217	4.659	0.514
1112.500	633.673	80.006	19.994	103.180	20.219	4.514	0.461
1113.000	633.928	80.008	19.994	103.185	20.218	4.599	0.475
1113.500	634.221	80.008	19.995	103.190	20.220	4.454	0.526
1114.000	634.491	80.007	19.995	103.191	20.221	4.377	0.555
1114.500	634.745	80.008	19.994	103.193	20.221	4.379	0.544
1115.000	635.000	80.005	19.994	103.199	20.219	4.564	0.517
1115.500	635.268	80.008	19.994	103.202	20.218	4.638	0.516
1116.000	635.518	80.007	19.994	103.200	20.220	4.456	0.520
1116.500	635.762	80.006	19.994	103.205	20.218	4.640	0.506
1117.000	636.005	80.006	19.995	103.207	20.216	4.738	0.490
1117.500	636.259	80.006	19.993	103.208	20.218	4.638	0.492
1118.001	636.502	80.006	19.994	103.206	20.217	4.700	0.497
1118.501	636.781	80.007	19.994	103.202	20.220	4.510	0.509
1119.001	637.020	80.006	19.994	103.194	20.220	4.499	0.520
1119.501	637.267	80.006	19.994	103.189	20.219	4.517	0.502
1120.000	637.486	80.005	19.995	103.183	20.217	4.706	0.476
1120.500	637.718	80.007	19.995	103.178	20.218	4.644	0.458
1121.001	638.019	80.006	19.993	103.178	20.219	4.524	0.492
1121.501	638.283	80.006	19.995	103.180	20.217	4.680	0.549
1122.000	638.537	80.007	19.997	103.185	20.217	4.713	0.542
1122.500	638.802	80.006	19.993	103.189	20.218	4.642	0.519
1123.000	639.028	80.006	19.995	103.192	20.219	4.546	0.505
1123.500	639.326	80.006	19.994	103.195	20.217	4.686	0.507
1124.000	639.585	80.005	19.995	103.196	20.214	4.869	0.541
1124.500	639.832	80.007	19.995	103.196	20.220	4.510	0.532
1125.000	640.092	80.006	19.994	103.199	20.214	4.865	0.506
1125.500	640.337	80.006	19.995	103.202	20.218	4.610	0.506
1126.000	640.647	80.006	19.994	103.206	20.216	4.759	0.530
1126.501	640.881	80.008	19.995	103.210	20.216	4.766	0.549
1127.001	641.102	80.008	19.995	103.209	20.217	4.667	0.499
1127.501	641.414	80.006	19.994	103.205	20.215	4.845	0.494
1128.001	641.694	80.007	19.994	103.204	20.219	4.559	0.563
1128.500	641.915	80.007	19.994	103.204	20.220	4.501	0.547
1129.000	642.215	80.007	19.993	103.204	20.219	4.568	0.511
1129.500	642.456	80.007	19.993	103.207	20.220	4.504	0.531
1130.000	642.723	80.007	19.994	103.211	20.218	4.612	0.525
1130.500	642.989	80.006	19.994	103.213	20.219	4.566	0.521
1131.001	643.247	80.007	19.994	103.213	20.211	5.056	0.529
1131.501	643.581	80.008	19.994	103.213	20.216	4.753	0.558
1132.001	643.781	80.007	19.994	103.211	20.215	4.845	0.563
1132.500	644.044	80.007	19.994	103.211	20.216	4.759	0.498
1133.000	644.323	80.008	19.994	103.211	20.216	4.726	0.502
1133.500	644.613	80.007	19.993	103.211	20.219	4.519	0.556
1134.001	644.880	80.008	19.994	103.212	20.216	4.746	0.563
1134.501	645.101	80.007	19.994	103.213	20.217	4.675	0.522
1135.000	645.370	80.008	19.994	103.212	20.215	4.819	0.489
1135.500	645.687	80.008	19.993	103.211	20.215	4.801	0.538
1136.000	645.912	80.008	19.994	103.211	20.216	4.751	0.564
1136.500	646.217	80.006	19.993	103.210	20.217	4.689	0.536
1137.000	646.448	80.007	19.993	103.210	20.216	4.763	0.533
1137.500	646.735	80.007	19.994	103.211	20.218	4.647	0.527
1138.000	646.992	80.008	19.994	103.212	20.217	4.699	0.531
1138.500	647.305	80.007	19.994	103.213	20.217	4.664	0.557
1139.000	647.630	80.008	19.994	103.213	20.215	4.794	0.604
1139.500	647.817	80.007	19.995	103.213	20.215	4.843	0.575
1140.000	648.078	80.006	19.995	103.212	20.215	4.829	0.481
1140.500	648.352	80.008	19.995	103.211	20.213	4.939	0.492
1141.001	648.676	80.005	19.995	103.209	20.218	4.587	0.566
1141.501	648.884	80.006	19.994	103.209	20.214	4.896	0.565
1142.000	649.249	80.005	19.994	103.208	20.211	5.076	0.553
1142.500	649.492	80.005	19.995	103.208	20.218	4.609	0.590
1143.000	649.759	80.005	19.994	103.209	20.220	4.468	0.558
1143.500	650.024	80.004	19.995	103.211	20.215	4.838	0.521
1144.000	650.288	80.005	19.995	103.212	20.220	4.501	0.530
1144.500	650.572	80.005	19.994	103.213	20.217	4.662	0.539
1145.000	650.840	80.005	19.995	103.213	20.212	5.044	0.550
1145.500	651.155	80.004	19.995	103.212	20.216	4.765	0.568
1146.000	651.349	80.004	19.995	103.210	20.217	4.689	0.546
1146.500	651.582	80.005	19.996	103.209	20.217	4.658	0.468
1147.001	651.886	80.006	19.996	103.209	20.215	4.824	0.482
1147.501	652.274	80.005	19.995	103.211	20.217	4.661	0.615
1148.000	652.507	80.006	19.996	103.215	20.216	4.760	0.656
1148.500	652.785	80.005	19.996	103.215	20.215	4.833	0.565
1149.000	653.076	80.005	19.997	103.215	20.216	4.727	0.540
1149.500	653.329	80.005	19.994	103.215	20.216	4.775	0.557
1150.001	653.658	80.006	19.995	103.214	20.216	4.781	0.563
1150.501	653.888	80.005	19.996	103.212	20.217	4.665	0.570
1151.000	654.219	80.005	19.995	103.212	20.217	4.681	0.560
1151.500	654.467	80.006	19.995	103.213	20.214	4.865	0.570
1152.000	654.757	80.005	19.995	103.215	20.215	4.794	0.559
1152.500	654.973	80.005	19.995	103.214	20.212	5.045	0.522
1153.000	655.294	80.005	19.996	103.215	20.215	4.814	0.522
1153.500	655.564	80.005	19.995	103.215	20.211	5.073	0.564
1154.000	655.819	80.006	19.995	103.213	20.208	5.261	0.558
1154.500	656.147	80.005	19.996	103.212	20.210	5.137	0.554
1155.000	656.387	80.005	19.995	103.212	20.208	5.309	0.575
1155.500	656.668	80.005	19.996	103.218	20.212	5.042	0.544
1156.000	656.902	80.005	19.995	103.203	20.211	5.120	0.518
1156.500	657.234	80.005	19.996	103.182	20.211	5.087	0.540
1157.000	657.484	80.006	19.996	103.169	20.215	4.805	0.574
1157.500	657.743	80.005	19.995	103.162	20.211	5.079	0.546
1158.000	658.018	80.006	19.996	103.154	20.212	5.031	0.521
1158.500	658.309	80.006	19.997	103.189	20.213	4.938	0.550
1159.000	658.600	80.006	19.995	103.236	20.213	4.925	0.574
1159.500	658.826	80.006	19.995	103.262	20.212	5.037	0.550
1160.000	659.128	80.007	19.994	103.277	20.211	5.090	0.523
1160.500	659.391	80.007	19.995	103.280	20.215	4.802	0.546
1161.000	659.681	80.007	19.994	103.259	20.210	5.131	0.559
1161.501	659.936	80.005	19.994	103.233	20.212	4.989	0.549
1162.001	660.220	80.006	19.994	103.221	20.210	5.184	0.542
1162.500	660.489	80.007	19.994	103.214	20.214	4.881	0.546
1163.000	660.763	80.006	19.994	103.215	20.208	5.312	0.548
1163.500	661.049	80.006	19.994	103.217	20.212	5.030	0.551
1164.000	661.328	80.007	19.994	103.217	20.213	4.960	0.562
1164.500	661.598	80.008	19.994	103.219	20.213	4.938	0.557
1165.001	661.863	80.006	19.994	103.219	20.211	5.100	0.542
1165.501	662.116	80.006	19.994	103.219	20.212	4.993	0.526
1166.001	662.394	80.006	19.994	103.219	20.212	4.999	0.525
1166.500	662.641	80.005	19.995	103.224	20.213	4.979	0.528
1167.000	662.888	80.005	19.994	103.222	20.212	5.003	0.509
1167.500	663.144	80.005	19.994	103.222	20.210	5.182	0.498
1168.000	663.435	80.007	19.994	103.223	20.214	4.911	0.525
1168.500	663.711	80.005	19.994	103.227	20.211	5.096	0.557
1169.000	664.006	80.007	19.995	103.226	20.213	4.955	0.569
1169.500	664.223	80.004	19.995	103.232	20.214	4.885	0.542
1170.000	664.552	80.005	19.993	103.239	20.212	5.026	0.529
1170.500	664.801	80.004	19.994	103.240	20.210	5.145	0.562
1171.000	665.036	80.004	19.995	103.242	20.211	5.078	0.531
1171.500	665.360	80.006	19.994	103.242	20.209	5.217	0.521
1172.000	665.583	80.005	19.995	103.242	20.213	4.942	0.553
1172.500	665.888	80.005	19.993	103.241	20.212	5.028	0.538
1173.000	666.119	80.005	19.995	103.243	20.211	5.085	0.533
1173.500	666.399	80.004	19.994	103.242	20.213	4.944	0.524
1174.001	666.645	80.005	19.993	103.245	20.214	4.909	0.518
1174.501	666.923	80.005	19.994	103.246	20.213	4.944	0.525
1175.000	667.198	80.005	19.995	103.245	20.208	5.318	0.538
1175.500	667.453	80.005	19.993	103.246	20.211	5.074	0.542
1176.000	667.710	80.004	19.994	103.247	20.208	5.265	0.521
1176.500	668.055	80.005	19.995	103.247	20.208	5.263	0.557
1177.000	668.274	80.004	19.995	103.247	20.212	4.995	0.583
1177.501	668.530	80.004	19.994	103.249	20.209	5.228	0.519
1178.001	668.785	80.005	19.995	103.250	20.209	5.255	0.493
1178.501	669.089	80.005	19.994	103.250	20.208	5.257	0.535
1179.000	669.312	80.004	19.994	103.248	20.211	5.098	0.543
1179.500	669.560	80.004	19.994	103.248	20.214	4.907	0.499
1180.000	669.860	80.004	19.993	103.245	20.208	5.259	0.510
1180.500	670.130	80.004	19.995	103.242	20.211	5.089	0.559
1181.000	670.358	80.005	19.994	103.241	20.210	5.184	0.534
1181.500	670.646	80.004	19.994	103.245	20.208	5.285	0.507
1182.000	670.944	80.004	19.994	103.247	20.203	5.610	0.551
1182.500	671.174	80.005	19.995	103.250	20.206	5.395	0.557
1183.000	671.457	80.004	19.994	103.253	20.209	5.247	0.520
1183.500	671.733	80.005	19.994	103.253	20.207	5.340	0.536
1184.000	671.994	80.006	19.994	103.254	20.210	5.179	0.547
1184.500	672.230	80.004	19.994	103.251	20.204	5.538	0.517
1185.000	672.521	80.005	19.993	103.251	20.206	5.421	0.513
1185.500	672.775	80.005	19.993	103.251	20.204	5.536	0.537
1186.000	673.055	80.006	19.993	103.251	20.206	5.456	0.540
1186.501	673.283	80.005	19.995	103.250	20.205	5.480	0.521
1187.001	673.575	80.005	19.993	103.250	20.205	5.484	0.514
1187.500	673.857	80.007	19.994	103.250	20.204	5.579	0.546
1188.000	674.061	80.008	19.993	103.246	20.205	5.508	0.530
1188.500	674.383	80.007	19.994	103.246	20.206	5.421	0.507
1189.001	674.641	80.006	19.994	103.245	20.207	5.344	0.553
1189.501	674.873	80.007	19.994	103.245	20.205	5.495	0.534
1190.001	675.173	80.007	19.993	103.246	20.206	5.447	0.511
1190.500	675.414	80.007	19.993	103.250	20.207	5.337	0.536
1191.000	675.705	80.008	19.994	103.250	20.205	5.506	0.536
1191.500	675.979	80.006	19.995	103.251	20.204	5.555	0.549
1192.000	676.234	80.007	19.994	103.251	20.204	5.535	0.548
1192.500	676.450	80.009	19.993	103.251	20.202	5.680	0.500
1193.001	676.731	80.007	19.994	103.252	20.207	5.359	0.484
1193.501	676.992	80.008	19.993	103.253	20.203	5.619	0.519
1194.000	677.252	80.007	19.993	103.252	20.202	5.689	0.531
1194.500	677.520	80.007	19.993	103.253	20.199	5.879	0.524
1195.000	677.764	80.006	19.993	103.253	20.203	5.595	0.520
1195.500	678.012	80.008	19.993	103.252	20.201	5.784	0.502
1196.001	678.276	80.006	19.993	103.252	20.201	5.751	0.502
1196.501	678.517	80.008	19.995	103.255	20.201	5.773	0.509
1197.000	678.836	80.006	19.993	103.258	20.199	5.909	0.533
1197.500	679.075	80.007	19.993	103.262	20.205	5.471	0.559
1198.000	679.327	80.006	19.994	103.265	20.204	5.543	0.524
1198.500	679.569	80.007	19.994	103.264	20.205	5.528	0.492
1199.000	679.851	80.006	19.994	103.265	20.203	5.608	0.509
1199.500	680.065	80.007	19.995	103.265	20.204	5.586	0.510
1200.000	680.340	80.006	19.994	103.264	20.207	5.386	0.492
1200.500	680.576	80.006	19.994	103.265	20.208	5.297	0.500
1201.000	680.793	80.007	19.993	103.268	20.201	5.795	0.482
1201.500	681.090	80.006	19.994	103.268	20.202	5.696	0.484
1202.000	681.355	80.006	19.994	103.267	20.203	5.603	0.538
1202.500	681.619	80.005	19.993	103.265	20.202	5.695	0.545
1203.000	681.879	80.006	19.994	103.265	20.206	5.415	0.526
1203.500	682.120	80.005	19.994	103.262	20.205	5.466	0.513
1204.000	682.352	80.006	19.994	103.264	20.207	5.334	0.488
1204.500	682.659	80.008	19.994	103.261	20.206	5.442	0.506
1205.000	682.878	80.008	19.994	103.259	20.205	5.505	0.532
1205.500	683.139	80.006	19.994	103.256	20.204	5.547	0.503
1206.000	683.408	80.005	19.995	103.256	20.205	5.518	0.505
1206.500	683.658	80.006	19.994	103.256	20.203	5.657	0.524
1207.000	683.929	80.007	19.994	103.260	20.204	5.558	0.520
1207.500	684.165	80.006	19.994	103.261	20.206	5.444	0.514
1208.000	684.440	80.007	19.995	103.269	20.205	5.488	0.509
1208.500	684.649	80.006	19.994	103.271	20.208	5.312	0.498
1209.001	684.888	80.007	19.995	103.268	20.204	5.586	0.466
1209.501	685.175	80.006	19.993	103.263	20.203	5.650	0.487
1210.000	685.386	80.007	19.994	103.263	20.203	5.641	0.512
1210.500	685.646	80.021	19.998	103.258	20.200	5.864	0.485
1211.000	685.903	80.027	19.998	103.262	20.203	5.628	0.494
1211.500	686.168	80.027	20.001	103.273	20.208	5.278	0.519
1212.000	686.450	80.028	19.999	103.288	20.204	5.562	0.534
1212.500	686.700	80.028	19.997	103.297	20.204	5.562	0.539
1213.000	687.036	80.024	19.996	103.303	20.204	5.573	0.559
1213.501	687.213	80.016	19.996	103.302	20.203	5.661	0.550
1214.001	687.468	80.008	19.995	103.291	20.204	5.582	0.473
1214.501	687.721	80.008	19.997	103.282	20.204	5.566	0.470
1215.000	687.939	80.008	19.997	103.278	20.205	5.516	0.489
1215.500	688.202	80.009	19.995	103.278	20.203	5.612	0.476
1216.000	688.479	80.008	19.996	103.279	20.205	5.500	0.510
1216.500	688.712	80.008	19.996	103.283	20.205	5.483	0.525
1217.000	688.997	80.008	19.995	103.282	20.204	5.589	0.515
1217.500	689.234	80.008	19.995	103.283	20.205	5.511	0.520
1218.000	689.500	80.008	19.995	103.282	20.203	5.612	0.513
1218.501	689.757	80.006	19.994	103.282	20.200	5.814	0.513
1219.001	689.992	80.008	19.993	103.281	20.204	5.564	0.507
1219.501	690.234	80.006	19.995	103.282	20.202	5.694	0.484
1220.001	690.521	80.007	19.994	103.282	20.205	5.510	0.503
1220.501	690.734	80.007	19.994	103.283	20.199	5.867	0.515
1221.001	690.992	80.006	19.995	103.283	20.203	5.661	0.485
1221.501	691.260	80.007	19.995	103.286	20.202	5.697	0.498
1222.001	691.487	80.006	19.996	103.287	20.201	5.747	0.510
1222.501	691.764	80.007	19.994	103.287	20.200	5.856	0.500
1223.000	692.010	80.007	19.995	103.288	20.198	5.940	0.514
1223.500	692.231	80.006	19.994	103.287	20.200	5.810	0.495
1224.000	692.508	80.006	19.994	103.287	20.201	5.789	0.483
1224.500	692.724	80.006	19.995	103.289	20.196	6.075	0.495
1225.000	692.985	80.006	19.996	103.290	20.198	5.952	0.484
1225.500	693.260	80.007	19.995	103.291	20.202	5.721	0.506
1226.000	693.502	80.006	19.995	103.291	20.200	5.836	0.527
1226.500	693.793	80.006	19.993	103.291	20.198	5.981	0.526
1227.000	694.017	80.006	19.995	103.289	20.198	5.967	0.524
1227.500	694.296	80.007	19.995	103.287	20.199	5.904	0.509
1228.000	694.529	80.005	19.994	103.288	20.199	5.919	0.507
1228.500	694.804	80.006	19.995	103.292	20.195	6.146	0.510
1229.000	695.049	80.006	19.995	103.293	20.195	6.183	0.514
1229.500	695.300	80.007	19.995	103.273	20.198	5.994	0.508
1230.000	695.558	80.007	19.994	103.258	20.198	5.961	0.502
1230.500	695.797	80.005	19.995	103.249	20.198	5.992	0.503
1231.000	696.065	80.007	19.995	103.238	20.196	6.071	0.502
1231.500	696.276	80.005	19.995	103.237	20.195	6.178	0.493
1232.000	696.554	80.005	19.994	103.263	20.201	5.795	0.483
1232.501	696.796	80.007	19.995	103.314	20.199	5.896	0.505
1233.001	697.083	80.005	19.995	103.342	20.199	5.931	0.525
1233.500	697.303	80.007	19.995	103.357	20.197	6.058	0.518
1234.000	697.542	80.006	19.995	103.358	20.200	5.836	0.482
1234.500	697.773	80.006	19.995	103.352	20.197	6.008	0.464
1235.000	698.057	80.007	19.995	103.319	20.198	5.990	0.493
1235.501	698.270	80.007	19.996	103.306	20.195	6.142	0.506
1236.001	698.504	80.006	19.995	103.303	20.199	5.918	0.472
1236.500	698.810	80.005	19.995	103.305	20.196	6.087	0.493
1237.000	699.032	80.006	19.996	103.306	20.201	5.771	0.534
1237.500	699.258	80.003	19.995	103.308	20.197	6.017	0.488
1238.001	699.498	80.005	19.995	103.307	20.198	5.940	0.457
1238.501	699.797	80.006	19.995	103.304	20.195	6.171	0.502
1239.000	700.040	80.005	19.995	103.304	20.192	6.347	0.540
1239.500	700.298	80.006	19.996	103.304	20.195	6.160	0.522
1240.000	700.562	80.005	19.994	103.304	20.198	5.982	0.511
1240.500	700.776	80.004	19.995	103.301	20.193	6.314	0.500
1241.000	701.051	80.006	19.995	103.302	20.195	6.162	0.484
1241.501	701.240	80.004	19.995	103.304	20.197	6.017	0.477
1242.001	701.575	80.005	19.996	103.311	20.197	6.032	0.494
1242.500	701.770	80.005	19.996	103.314	20.196	6.080	0.526
1243.000	702.039	80.006	19.996	103.320	20.191	6.428	0.497
1243.501	702.258	80.006	19.996	103.323	20.194	6.239	0.476
1244.001	702.526	80.004	19.996	103.326	20.196	6.074	0.488
1244.500	702.770	80.006	19.996	103.326	20.193	6.287	0.499
1245.000	703.057	80.006	19.994	103.326	20.194	6.250	0.521
1245.500	703.296	80.006	19.995	103.327	20.197	6.067	0.529
1246.000	703.529	80.005	19.995	103.329	20.191	6.449	0.499
1246.500	703.798	80.005	19.996	103.330	20.193	6.293	0.487
1247.000	704.059	80.005	19.995	103.331	20.193	6.326	0.516
1247.500	704.325	80.004	19.995	103.330	20.194	6.258	0.528
1248.000	704.547	80.006	19.996	103.327	20.197	6.053	0.508
1248.500	704.803	80.005	19.995	103.325	20.196	6.082	0.483
1249.000	705.052	80.007	19.996	103.322	20.193	6.295	0.491
1249.500	705.283	80.005	19.995	103.320	20.198	5.989	0.493
1250.000	705.550	80.005	19.994	103.321	20.192	6.358	0.489
1250.500	705.780	80.006	19.995	103.324	20.192	6.367	0.497
1251.000	706.047	80.007	19.995	103.325	20.195	6.145	0.497
1251.500	706.318	80.005	19.994	103.327	20.191	6.466	0.518
1252.000	706.527	80.006	19.995	103.328	20.195	6.146	0.509
1252.500	706.783	80.006	19.994	103.328	20.194	6.224	0.472
1253.000	707.093	80.004	19.994	103.328	20.189	6.587	0.515
1253.500	707.286	80.006	19.994	103.328	20.193	6.344	0.534
1254.000	707.528	80.006	19.995	103.329	20.193	6.311	0.469
1254.500	707.803	80.005	19.994	103.330	20.190	6.526	0.476
1255.000	708.061	80.005	19.994	103.330	20.192	6.392	0.525
1255.500	708.307	80.004	19.994	103.331	20.192	6.412	0.519
1256.000	708.538	80.006	19.995	103.331	20.193	6.342	0.490
1256.500	708.769	80.006	19.995	103.331	20.189	6.568	0.469
1257.000	709.045	80.005	19.993	103.331	20.186	6.757	0.485
1257.501	709.283	80.004	19.995	103.331	20.191	6.430	0.511
1258.001	709.546	80.006	19.995	103.333	20.190	6.528	0.507
1258.501	709.809	80.004	19.994	103.336	20.190	6.515	0.513
1259.001	710.044	80.006	19.994	103.338	20.188	6.638	0.512
1259.500	710.317	80.005	19.995	103.338	20.187	6.737	0.503
1260.000	710.530	80.004	19.994	103.339	20.189	6.581	0.497
1260.500	710.821	80.005	19.993	103.344	20.184	6.924	0.495
1261.000	711.057	80.005	19.995	103.344	20.187	6.709	0.515
1261.500	711.299	80.006	19.994	103.345	20.190	6.498	0.503
1262.000	711.572	80.004	19.993	103.345	20.190	6.539	0.497
1262.500	711.818	80.005	19.994	103.346	20.186	6.755	0.517
1263.000	712.070	80.006	19.994	103.341	20.190	6.543	0.509
1263.500	712.319	80.004	19.994	103.345	20.191	6.467	0.500
1264.000	712.577	80.005	19.993	103.351	20.189	6.598	0.504
1264.500	712.827	80.005	19.995	103.358	20.183	6.968	0.508
1265.000	713.099	80.005	19.994	103.365	20.189	6.570	0.515
1265.500	713.298	80.007	19.994	103.369	20.186	6.763	0.497
1266.000	713.567	80.007	19.994	103.366	20.185	6.833	0.469
1266.500	713.836	80.007	19.995	103.361	20.190	6.541	0.503
1267.000	714.068	80.006	19.995	103.359	20.189	6.582	0.520
1267.500	714.311	80.006	19.994	103.357	20.190	6.534	0.488
1268.000	714.552	80.006	19.996	103.358	20.190	6.538	0.479
1268.500	714.811	80.006	19.995	103.361	20.188	6.672	0.492
1269.000	715.051	80.008	19.995	103.366	20.190	6.516	0.500
1269.500	715.309	80.007	19.994	103.366	20.188	6.620	0.499
1270.000	715.543	80.007	19.996	103.365	20.188	6.616	0.495
1270.500	715.833	80.007	19.995	103.362	20.188	6.666	0.508
1271.000	716.097	80.008	19.994	103.362	20.188	6.624	0.539
1271.500	716.366	80.009	19.995	103.361	20.186	6.767	0.543
1272.000	716.580	80.008	19.994	103.362	20.192	6.378	0.508
1272.500	716.862	80.008	19.995	103.363	20.186	6.793	0.489
1273.000	717.069	80.007	19.995	103.365	20.187	6.686	0.492
1273.500	717.343	80.008	19.994	103.365	20.186	6.760	0.485
1274.000	717.589	80.008	19.994	103.367	20.189	6.584	0.501
1274.500	717.848	80.007	19.994	103.367	20.188	6.628	0.512
1275.000	718.082	80.008	19.995	103.367	20.189	6.560	0.499
1275.500	718.327	80.008	19.994	103.367	20.187	6.720	0.486
1276.000	718.563	80.009	19.995	103.367	20.186	6.794	0.480
1276.500	718.847	80.007	19.995	103.366	20.189	6.596	0.500
1277.000	719.096	80.008	19.995	103.366	20.187	6.734	0.526
1277.500	719.351	80.008	19.995	103.369	20.184	6.951	0.519
1278.000	719.628	80.006	19.994	103.374	20.185	6.866	0.518
1278.500	719.855	80.006	19.993	103.379	20.186	6.816	0.517
1279.000	720.105	80.006	19.994	103.382	20.187	6.735	0.490
1279.500	720.342	80.006	19.994	103.382	20.179	7.257	0.482
1280.000	720.596	80.008	19.994	103.380	20.186	6.772	0.489
1280.500	720.841	80.007	19.994	103.376	20.182	7.026	0.495
1281.000	721.122	80.007	19.995	103.371	20.181	7.134	0.512
1281.501	721.373	80.006	19.994	103.370	20.182	7.053	0.529
1282.001	721.615	80.006	19.994	103.370	20.182	7.090	0.513
1282.501	721.870	80.008	19.995	103.370	20.182	7.042	0.495
1283.000	722.105	80.006	19.994	103.371	20.181	7.130	0.493
1283.500	722.341	80.007	19.995	103.374	20.180	7.200	0.480
1284.000	722.590	80.005	19.994	103.378	20.180	7.181	0.478
1284.500	722.855	80.007	19.994	103.379	20.180	7.163	0.500
1285.000	723.142	80.008	19.995	103.380	20.182	7.075	0.533
1285.500	723.393	80.007	19.993	103.383	20.181	7.103	0.545
1286.000	723.628	80.007	19.995	103.387	20.180	7.169	0.512
1286.500	723.877	80.007	19.994	103.391	20.182	7.053	0.485
1287.000	724.159	80.008	19.994	103.396	20.183	6.973	0.507
1287.500	724.398	80.007	19.993	103.402	20.180	7.198	0.526
1288.000	724.654	80.006	19.995	103.404	20.183	6.959	0.508
1288.500	724.875	80.008	19.993	103.403	20.180	7.204	0.486
1289.000	725.116	80.008	19.994	103.398	20.178	7.325	0.470
1289.500	725.356	80.008	19.994	103.397	20.180	7.160	0.472
1290.000	725.598	80.008	19.994	103.397	20.184	6.923	0.481
1290.500	725.855	80.007	19.994	103.397	20.178	7.296	0.490
1291.000	726.111	80.008	19.994	103.397	20.180	7.171	0.506
1291.500	726.406	80.008	19.993	103.401	20.183	6.982	0.532
1292.000	726.615	80.008	19.993	103.403	20.180	7.193	0.527
1292.500	726.854	80.009	19.995	103.403	20.179	7.289	0.476
1293.000	727.117	80.009	19.994	103.398	20.183	6.993	0.475
1293.501	727.342	80.009	19.993	103.395	20.179	7.258	0.495
1294.001	727.600	80.009	19.995	103.396	20.176	7.452	0.485
1294.500	727.868	80.008	19.994	103.396	20.180	7.214	0.505
1295.000	728.088	80.008	19.994	103.395	20.177	7.362	0.508
1295.500	728.351	80.009	19.995	103.399	20.185	6.885	0.485
1296.000	728.588	80.008	19.992	103.403	20.179	7.232	0.491
1296.500	728.852	80.010	19.994	103.403	20.180	7.171	0.501
1297.000	729.111	80.009	19.994	103.402	20.180	7.175	0.512
1297.500	729.357	80.008	19.994	103.402	20.179	7.234	0.514
1298.000	729.634	80.008	19.993	103.401	20.182	7.050	0.514
1298.500	729.859	80.009	19.994	103.399	20.176	7.454	0.513
1299.000	730.123	80.010	19.994	103.399	20.184	6.894	0.496
1299.500	730.371	80.009	19.993	103.399	20.184	6.889	0.500
1300.000	730.628	80.009	19.993	103.399	20.180	7.184	0.508
1300.501	730.881	80.008	19.993	103.401	20.174	7.592	0.508
1301.001	731.113	80.007	19.995	103.403	20.179	7.241	0.498
1301.500	731.351	80.009	19.995	103.404	20.187	6.727	0.477
1302.000	731.581	80.010	19.994	103.404	20.171	7.781	0.469
1302.500	731.837	80.008	19.996	103.406	20.178	7.350	0.477
1303.001	732.109	80.008	19.995	103.407	20.182	7.043	0.507
1303.501	732.344	80.008	19.995	103.409	20.180	7.179	0.518
1304.001	732.609	80.007	19.995	103.410	20.177	7.392	0.504
1304.501	732.859	80.007	19.993	103.411	20.179	7.286	0.508
1305.001	733.104	80.008	19.995	103.409	20.178	7.328	0.505
1305.500	733.353	80.007	19.995	103.410	20.182	7.080	0.494
1306.000	733.578	80.005	19.995	103.408	20.177	7.416	0.484
1306.500	733.867	80.005	19.996	103.408	20.180	7.182	0.494
1307.000	734.109	80.005	19.996	103.409	20.179	7.245	0.522
1307.500	734.317	80.005	19.995	103.411	20.180	7.199	0.491
1308.000	734.601	80.005	19.995	103.410	20.177	7.416	0.471
1308.501	734.832	80.006	19.995	103.410	20.176	7.462	0.503
1309.001	735.088	80.006	19.995	103.411	20.176	7.439	0.501
1309.501	735.365	80.006	19.995	103.410	20.177	7.412	0.510
1310.001	735.610	80.005	19.995	103.409	20.176	7.461	0.528
1310.500	735.818	80.007	19.995	103.409	20.180	7.162	0.488
1311.000	736.105	80.006	19.995	103.408	20.173	7.643	0.474
1311.500	736.318	80.005	19.994	103.411	20.175	7.514	0.497
1312.000	736.564	80.007	19.996	103.412	20.177	7.391	0.479
1312.500	736.851	80.007	19.994	103.411	20.175	7.556	0.496
1313.001	737.146	80.009	19.993	103.411	20.177	7.400	0.558
1313.501	737.459	80.007	19.992	103.412	20.169	7.938	0.596
1314.001	737.599	80.006	19.994	103.409	20.173	7.649	0.531
1314.501	737.731	80.003	19.995	103.412	20.173	7.686	0.362
1315.000	738.042	80.007	19.995	103.418	20.176	7.480	0.357
1315.500	738.369	80.008	19.993	103.423	20.172	7.714	0.540
1316.000	738.568	80.007	19.995	103.423	20.176	7.483	0.582
1316.501	738.805	80.005	19.994	103.421	20.174	7.595	0.481
1317.001	739.045	80.004	19.995	103.416	20.174	7.571	0.457
1317.500	739.330	80.006	19.995	103.411	20.172	7.735	0.501
1318.000	739.564	80.006	19.995	103.407	20.178	7.300	0.522
1318.500	739.811	80.006	19.994	103.409	20.175	7.531	0.500
1319.001	740.090	80.006	19.995	103.417	20.176	7.463	0.503
1319.501	740.301	80.006	19.995	103.421	20.175	7.509	0.508
1320.001	740.547	80.006	19.994	103.427	20.176	7.495	0.474
1320.501	740.814	80.006	19.994	103.433	20.172	7.737	0.485
1321.000	741.094	80.005	19.994	103.433	20.175	7.528	0.530
1321.500	741.280	80.006	19.996	103.429	20.176	7.476	0.507
1322.000	741.507	80.004	19.995	103.430	20.176	7.493	0.440
1322.500	741.754	80.005	19.995	103.430	20.176	7.461	0.443
1323.000	741.991	80.006	19.994	103.426	20.170	7.892	0.479
1323.500	742.297	80.005	19.993	103.424	20.175	7.541	0.514
1324.000	742.491	80.006	19.994	103.424	20.174	7.628	0.522
1324.500	742.777	80.006	19.995	103.419	20.171	7.777	0.490
1325.000	743.005	80.006	19.993	103.416	20.173	7.688	0.497
1325.500	743.263	80.005	19.995	103.414	20.172	7.756	0.500
1326.000	743.476	80.006	19.994	103.415	20.173	7.664	0.479
1326.500	743.711	80.005	19.995	103.417	20.176	7.493	0.459
1327.000	743.954	80.005	19.995	103.425	20.177	7.372	0.463
