Sample ID:	C:\MCC\MCC Cal\Test\Fiberglas_Insulation3B_MCC_30K_min_220221_R1.txt
Sample Weight (mg):	4.68
Heating Rate (C/s):	0.5
Combustor Temp (C):	900
N2 Flow Rate (cc/min):	80
O2 Flow Rate (cc/min):	20
Calibration File:	C:\MCC\MCC Cal\Coeff1 JN10440_30_210304.txt.txt
T Correction Coefficients:	0	1.024463	0
Time Shift (s):	14
*
Time (s)	Temperature (C)	N2 flow rate (cc/min)	O2 flow rate (cc/min)	Flow Rate (cc/min)	Oxygen (%)	HRR (W/g)	Heating rate (C/s)
0.000	113.009	80.006	19.993	103.669	19.998	-0.165	-0.018
0.500	113.034	80.023	19.997	103.669	19.998	-0.143	0.002
1.000	113.014	80.020	19.996	103.670	19.997	-0.102	0.014
1.500	113.017	80.011	19.997	103.670	19.998	-0.149	-0.006
2.000	112.993	80.010	19.996	103.670	19.997	-0.090	-0.019
2.500	113.033	80.010	19.995	103.669	19.995	0.011	-0.003
3.000	113.008	80.011	19.995	103.668	19.996	-0.053	0.016
3.500	113.022	80.009	19.994	103.668	19.998	-0.154	0.002
4.000	113.010	80.009	19.994	103.667	19.995	0.062	-0.004
4.500	113.004	80.010	19.995	103.665	19.999	-0.241	-0.008
5.000	113.006	80.010	19.993	103.664	19.997	-0.088	-0.011
5.500	113.026	80.010	19.995	103.665	19.998	-0.154	0.009
6.000	113.025	80.011	19.994	103.665	19.996	-0.030	0.021
6.500	113.044	80.011	19.995	103.666	19.996	-0.021	0.019
7.000	113.061	80.010	19.994	103.667	19.996	-0.015	0.027
7.500	113.016	80.010	19.994	103.668	19.998	-0.158	0.004
8.000	113.010	80.011	19.994	103.668	19.997	-0.092	-0.040
8.500	113.056	80.010	19.994	103.668	19.997	-0.122	-0.005
9.000	113.009	80.010	19.994	103.667	19.997	-0.098	0.020
9.500	113.002	80.010	19.995	103.666	19.997	-0.096	-0.028
10.000	113.040	80.010	19.994	103.667	19.999	-0.222	-0.012
10.500	113.020	80.011	19.994	103.671	19.995	0.038	0.025
11.000	112.986	80.010	19.995	103.674	19.994	0.100	-0.018
11.500	113.005	80.010	19.995	103.675	19.995	0.064	-0.034
12.000	113.019	80.010	19.994	103.679	19.997	-0.075	0.009
12.500	113.003	80.009	19.995	103.680	19.997	-0.073	0.016
13.001	112.991	80.009	19.993	103.679	19.997	-0.124	-0.015
13.500	113.032	80.009	19.996	103.675	19.997	-0.071	0.000
14.000	113.004	80.010	19.993	103.678	19.994	0.126	0.021
14.500	112.992	80.009	19.994	103.679	19.996	0.004	-0.013
15.000	113.050	80.009	19.994	103.679	19.995	0.038	0.003
15.500	113.015	80.009	19.995	103.680	19.999	-0.216	0.034
16.000	113.015	80.009	19.995	103.680	19.999	-0.235	-0.006
16.500	112.995	80.008	19.995	103.678	19.998	-0.145	-0.028
17.000	112.992	80.008	19.995	103.675	19.998	-0.141	-0.021
17.500	113.021	80.008	19.994	103.673	19.999	-0.235	0.002
18.000	113.028	80.008	19.995	103.671	19.997	-0.085	0.031
18.500	113.005	80.007	19.994	103.672	19.994	0.107	0.010
19.000	113.031	80.008	19.994	103.670	19.997	-0.119	-0.007
19.500	113.044	80.007	19.995	103.669	19.997	-0.117	0.021
20.000	113.031	80.007	19.992	103.669	19.995	0.030	0.019
20.500	113.043	80.008	19.994	103.668	19.996	-0.040	-0.000
21.000	113.045	80.008	19.993	103.669	19.998	-0.149	0.007
21.500	113.053	80.007	19.993	103.679	19.995	0.036	0.012
22.000	113.039	80.009	19.993	103.668	19.992	0.231	0.002
22.500	113.077	80.007	19.994	103.648	19.992	0.226	0.009
23.000	113.060	80.009	19.993	103.634	19.993	0.147	0.023
23.500	113.050	80.008	19.994	103.626	19.994	0.094	-0.003
24.000	113.048	80.006	19.993	103.615	19.993	0.158	-0.020
24.500	113.060	80.007	19.993	103.626	19.994	0.134	-0.001
25.000	113.076	80.008	19.993	103.654	19.992	0.280	0.019
25.500	113.066	80.008	19.992	103.703	19.992	0.237	0.017
26.000	113.064	80.007	19.993	103.735	19.990	0.371	-0.003
26.500	113.083	80.008	19.993	103.751	19.991	0.331	0.003
27.000	113.096	80.008	19.993	103.760	19.992	0.264	0.024
27.500	113.115	80.009	19.992	103.762	19.986	0.687	0.032
28.000	113.142	80.007	19.993	103.736	19.987	0.574	0.039
28.500	113.138	80.007	19.993	103.719	19.990	0.414	0.035
29.000	113.124	80.008	19.993	103.714	19.988	0.538	0.002
29.500	113.134	80.008	19.993	103.712	19.987	0.587	-0.011
30.000	113.187	80.007	19.993	103.713	19.986	0.638	0.029
30.500	113.201	80.008	19.993	103.715	19.987	0.584	0.065
31.000	113.196	80.009	19.993	103.716	19.987	0.599	0.038
31.500	113.184	80.008	19.992	103.718	19.988	0.539	-0.004
32.000	113.211	80.008	19.994	103.725	19.986	0.689	-0.001
32.499	113.241	80.008	19.992	103.731	19.984	0.770	0.036
32.999	113.236	80.008	19.992	103.737	19.981	1.040	0.041
33.499	113.242	80.009	19.992	103.744	19.984	0.832	0.013
33.999	113.242	80.008	19.993	103.752	19.980	1.072	0.004
34.500	113.272	80.009	19.992	103.761	19.983	0.896	0.018
35.000	113.293	80.008	19.993	103.769	19.980	1.083	0.040
35.499	113.301	80.009	19.992	103.774	19.982	0.908	0.040
35.999	113.338	80.008	19.993	103.775	19.978	1.192	0.037
36.499	113.340	80.009	19.993	103.776	19.977	1.260	0.042
36.999	113.396	80.008	19.992	103.777	19.977	1.305	0.049
37.499	113.399	80.009	19.994	103.778	19.977	1.258	0.059
37.999	113.455	80.009	19.993	103.780	19.975	1.426	0.059
38.499	113.512	80.009	19.994	103.787	19.979	1.145	0.086
38.999	113.503	80.007	19.991	103.790	19.972	1.608	0.080
39.499	113.515	80.008	19.993	103.789	19.974	1.473	0.025
39.999	113.519	80.009	19.993	103.793	19.971	1.721	0.010
40.499	113.566	80.008	19.994	103.801	19.970	1.759	0.034
40.999	113.627	80.007	19.993	103.809	19.973	1.576	0.079
41.499	113.625	80.007	19.994	103.817	19.971	1.717	0.083
41.999	113.657	80.006	19.993	103.825	19.968	1.936	0.044
42.499	113.716	80.007	19.993	103.829	19.970	1.770	0.060
42.999	113.759	80.007	19.994	103.829	19.967	1.949	0.097
43.499	113.813	80.007	19.993	103.831	19.969	1.821	0.100
43.999	113.883	80.008	19.993	103.831	19.968	1.893	0.110
44.499	113.891	80.007	19.993	103.831	19.965	2.089	0.101
44.999	113.948	80.007	19.995	103.831	19.967	1.982	0.071
45.499	114.012	80.008	19.993	103.831	19.969	1.821	0.093
45.999	114.044	80.008	19.994	103.829	19.966	2.042	0.109
46.499	114.100	80.007	19.995	103.828	19.966	2.059	0.092
46.999	114.151	80.006	19.994	103.826	19.967	1.997	0.097
47.499	114.235	80.008	19.995	103.825	19.968	1.917	0.121
47.999	114.276	80.007	19.993	103.825	19.965	2.104	0.130
48.499	114.314	80.007	19.992	103.826	19.965	2.117	0.102
48.999	114.374	80.007	19.994	103.826	19.966	2.015	0.088
49.499	114.453	80.007	19.994	103.828	19.964	2.183	0.119
49.999	114.494	80.008	19.993	103.828	19.969	1.812	0.130
50.499	114.545	80.008	19.993	103.825	19.969	1.859	0.106
51.000	114.600	80.008	19.993	103.822	19.968	1.929	0.099
51.500	114.705	80.008	19.994	103.822	19.964	2.153	0.133
51.999	114.764	80.009	19.993	103.821	19.967	2.010	0.162
52.499	114.819	80.008	19.994	103.820	19.964	2.196	0.139
52.999	114.873	80.009	19.993	103.822	19.963	2.243	0.112
53.499	114.979	80.008	19.995	103.824	19.964	2.157	0.135
53.999	115.009	80.009	19.993	103.825	19.964	2.217	0.148
54.499	115.072	80.008	19.993	103.833	19.964	2.200	0.114
54.999	115.182	80.008	19.993	103.839	19.964	2.206	0.133
55.499	115.278	80.008	19.994	103.842	19.964	2.216	0.190
55.999	115.316	80.008	19.994	103.844	19.965	2.150	0.170
56.499	115.412	80.008	19.993	103.846	19.963	2.225	0.133
56.999	115.495	80.009	19.994	103.844	19.960	2.483	0.156
57.499	115.568	80.009	19.993	103.844	19.964	2.200	0.168
57.999	115.631	80.008	19.993	103.842	19.960	2.485	0.146
58.499	115.717	80.008	19.993	103.839	19.963	2.270	0.142
59.000	115.826	80.007	19.992	103.836	19.961	2.364	0.172
59.500	115.902	80.010	19.994	103.833	19.959	2.523	0.190
59.999	116.008	80.011	19.994	103.833	19.961	2.428	0.183
60.499	116.059	80.010	19.994	103.837	19.963	2.225	0.169
60.999	116.167	80.010	19.993	103.838	19.962	2.332	0.158
61.499	116.244	80.009	19.994	103.840	19.963	2.259	0.172
61.999	116.346	80.010	19.994	103.840	19.959	2.534	0.182
62.499	116.442	80.010	19.994	103.839	19.956	2.737	0.188
62.999	116.495	80.011	19.994	103.841	19.955	2.790	0.173
63.500	116.629	80.009	19.993	103.842	19.961	2.427	0.168
64.001	116.692	80.009	19.994	103.847	19.957	2.646	0.192
64.501	116.847	80.009	19.994	103.852	19.957	2.689	0.207
65.000	116.920	80.010	19.992	103.857	19.957	2.652	0.223
65.499	117.045	80.009	19.992	103.859	19.956	2.712	0.214
65.999	117.091	80.010	19.993	103.864	19.958	2.580	0.184
66.499	117.228	80.010	19.995	103.864	19.955	2.846	0.177
66.999	117.318	80.009	19.993	103.864	19.956	2.708	0.205
67.499	117.394	80.011	19.993	103.863	19.956	2.748	0.197
67.999	117.553	80.011	19.993	103.861	19.957	2.686	0.200
68.499	117.631	80.010	19.992	103.861	19.954	2.848	0.235
68.999	117.748	80.010	19.994	103.861	19.957	2.659	0.216
69.499	117.849	80.009	19.993	103.861	19.954	2.853	0.207
69.999	117.905	80.009	19.994	103.863	19.955	2.838	0.188
70.499	118.090	80.009	19.994	103.864	19.957	2.667	0.199
70.999	118.193	80.009	19.993	103.866	19.956	2.754	0.265
71.499	118.313	80.009	19.994	103.866	19.955	2.810	0.255
71.999	118.386	80.009	19.993	103.866	19.954	2.882	0.208
72.499	118.536	80.010	19.992	103.865	19.953	2.940	0.208
72.999	118.645	80.009	19.994	103.866	19.951	3.068	0.241
73.499	118.741	80.009	19.993	103.866	19.953	2.927	0.232
73.999	118.876	80.009	19.994	103.869	19.955	2.846	0.219
74.499	119.015	80.008	19.992	103.877	19.951	3.110	0.253
74.999	119.117	80.009	19.994	103.884	19.953	2.954	0.257
75.499	119.219	80.009	19.992	103.890	19.951	3.110	0.222
75.999	119.334	80.008	19.994	103.898	19.951	3.084	0.210
76.499	119.437	80.009	19.993	103.902	19.951	3.065	0.217
76.999	119.561	80.008	19.993	103.903	19.948	3.276	0.223
77.499	119.751	80.008	19.993	103.903	19.950	3.132	0.271
77.999	119.864	80.009	19.995	103.903	19.950	3.157	0.309
78.499	119.997	80.009	19.994	103.902	19.951	3.108	0.274
78.999	120.105	80.009	19.993	103.902	19.951	3.123	0.244
79.499	120.253	80.008	19.994	103.901	19.951	3.097	0.249
79.999	120.396	80.008	19.994	103.902	19.949	3.219	0.273
80.499	120.492	80.009	19.994	103.903	19.951	3.115	0.265
80.999	120.651	80.009	19.994	103.906	19.952	3.004	0.247
81.499	120.839	80.008	19.993	103.906	19.946	3.427	0.301
81.999	120.957	80.008	19.994	103.906	19.946	3.408	0.327
82.499	121.081	80.010	19.995	103.906	19.946	3.413	0.274
82.999	121.222	80.010	19.994	103.905	19.947	3.366	0.254
83.499	121.396	80.009	19.994	103.903	19.942	3.724	0.290
83.999	121.526	80.011	19.994	103.903	19.945	3.489	0.309
84.499	121.662	80.010	19.993	103.902	19.946	3.451	0.285
84.999	121.860	80.009	19.993	103.904	19.944	3.576	0.300
85.499	121.983	80.009	19.993	103.907	19.945	3.474	0.328
85.999	122.118	80.010	19.994	103.911	19.944	3.608	0.290
86.499	122.244	80.011	19.994	103.912	19.946	3.470	0.260
86.999	122.459	80.010	19.994	103.913	19.943	3.664	0.301
87.499	122.569	80.010	19.993	103.911	19.945	3.476	0.333
88.000	122.764	80.010	19.993	103.908	19.947	3.395	0.314
88.500	122.892	80.010	19.993	103.905	19.945	3.508	0.314
89.000	123.090	80.010	19.994	103.908	19.944	3.584	0.324
89.501	123.197	80.010	19.993	103.908	19.943	3.652	0.316
90.001	123.367	80.011	19.993	103.909	19.946	3.439	0.291
90.500	123.537	80.011	19.993	103.910	19.945	3.486	0.308
90.999	123.679	80.010	19.993	103.910	19.945	3.495	0.326
91.499	123.867	80.010	19.994	103.906	19.947	3.345	0.321
91.999	123.982	80.011	19.993	103.907	19.945	3.486	0.317
92.499	124.187	80.011	19.993	103.908	19.948	3.298	0.312
92.999	124.410	80.010	19.993	103.911	19.946	3.460	0.374
93.499	124.531	80.011	19.993	103.912	19.946	3.463	0.386
93.999	124.714	80.010	19.993	103.912	19.945	3.520	0.324
94.500	124.872	80.010	19.993	103.913	19.946	3.416	0.323
95.001	125.018	80.010	19.993	103.913	19.947	3.378	0.323
95.500	125.186	80.011	19.994	103.911	19.946	3.420	0.309
95.999	125.405	80.009	19.994	103.913	19.945	3.494	0.351
96.499	125.551	80.010	19.994	103.916	19.942	3.739	0.376
96.999	125.702	80.009	19.993	103.917	19.948	3.315	0.331
97.499	125.887	80.011	19.993	103.919	19.945	3.527	0.316
97.999	126.067	80.009	19.994	103.921	19.943	3.625	0.350
98.499	126.262	80.009	19.994	103.923	19.947	3.386	0.370
98.999	126.452	80.008	19.994	103.926	19.944	3.542	0.380
99.499	126.607	80.008	19.994	103.930	19.946	3.416	0.365
99.999	126.763	80.009	19.995	103.931	19.943	3.618	0.328
100.499	126.976	80.008	19.994	103.935	19.946	3.420	0.340
100.999	127.109	80.008	19.994	103.938	19.943	3.637	0.358
101.499	127.322	80.008	19.995	103.940	19.945	3.480	0.346
101.999	127.498	80.006	19.995	103.941	19.941	3.774	0.367
102.499	127.696	80.007	19.994	103.943	19.942	3.731	0.382
103.000	127.863	80.008	19.995	103.943	19.941	3.773	0.370
103.500	128.076	80.006	19.995	103.944	19.943	3.618	0.372
103.999	128.274	80.008	19.995	103.942	19.943	3.611	0.395
104.499	128.460	80.007	19.995	103.939	19.945	3.473	0.398
104.999	128.629	80.006	19.994	103.938	19.945	3.475	0.370
105.500	128.829	80.007	19.995	103.936	19.940	3.850	0.362
106.000	129.055	80.008	19.994	103.935	19.942	3.695	0.397
106.499	129.245	80.007	19.994	103.936	19.943	3.652	0.421
106.999	129.444	80.007	19.994	103.939	19.941	3.797	0.402
107.499	129.626	80.006	19.994	103.940	19.945	3.484	0.385
107.999	129.817	80.007	19.994	103.942	19.942	3.727	0.378
108.499	130.018	80.006	19.995	103.939	19.944	3.576	0.383
108.999	130.208	80.006	19.994	103.934	19.942	3.735	0.391
109.499	130.434	80.007	19.994	103.928	19.944	3.608	0.403
109.999	130.594	80.006	19.994	103.927	19.941	3.810	0.401
110.499	130.810	80.007	19.995	103.928	19.944	3.563	0.381
110.999	131.027	80.008	19.994	103.928	19.942	3.686	0.404
111.499	131.243	80.008	19.995	103.934	19.943	3.663	0.433
112.000	131.382	80.007	19.995	103.940	19.945	3.480	0.394
112.500	131.589	80.007	19.994	103.940	19.945	3.531	0.351
112.999	131.849	80.008	19.994	103.939	19.942	3.737	0.407
113.499	132.027	80.007	19.995	103.943	19.945	3.480	0.453
113.999	132.273	80.008	19.994	103.942	19.943	3.629	0.431
114.499	132.438	80.008	19.994	103.942	19.942	3.680	0.417
114.999	132.664	80.008	19.994	103.943	19.945	3.531	0.401
115.499	132.865	80.007	19.994	103.943	19.940	3.833	0.409
115.999	133.036	80.009	19.994	103.942	19.943	3.660	0.400
116.499	133.281	80.008	19.995	103.942	19.939	3.922	0.395
116.999	133.478	80.009	19.994	103.942	19.938	3.974	0.429
117.499	133.658	80.009	19.994	103.940	19.939	3.905	0.409
117.999	133.920	80.008	19.995	103.936	19.941	3.773	0.409
118.499	134.124	80.008	19.994	103.934	19.939	3.929	0.454
118.999	134.355	80.008	19.992	103.931	19.938	3.978	0.451
119.499	134.563	80.008	19.994	103.931	19.941	3.759	0.437
119.999	134.782	80.009	19.994	103.932	19.939	3.891	0.433
120.499	134.990	80.010	19.994	103.935	19.940	3.856	0.427
120.999	135.156	80.010	19.995	103.939	19.941	3.805	0.400
121.499	135.408	80.010	19.993	103.942	19.941	3.808	0.395
121.999	135.634	80.008	19.993	103.941	19.942	3.716	0.448
122.499	135.811	80.009	19.993	103.940	19.943	3.633	0.441
123.000	136.060	80.009	19.993	103.940	19.939	3.927	0.415
123.501	136.293	80.009	19.993	103.939	19.939	3.905	0.454
124.000	136.486	80.009	19.995	103.939	19.937	4.086	0.454
124.499	136.722	80.008	19.993	103.940	19.939	3.916	0.428
124.999	136.931	80.009	19.994	103.940	19.936	4.099	0.437
125.499	137.188	80.009	19.994	103.941	19.940	3.825	0.456
125.999	137.391	80.008	19.993	103.941	19.940	3.863	0.463
126.499	137.619	80.009	19.993	103.942	19.939	3.914	0.445
126.999	137.829	80.009	19.993	103.941	19.939	3.956	0.435
127.499	138.097	80.008	19.994	103.942	19.940	3.861	0.459
128.000	138.309	80.008	19.994	103.942	19.940	3.882	0.479
128.500	138.471	80.009	19.994	103.942	19.940	3.839	0.427
129.000	138.743	80.008	19.993	103.940	19.939	3.946	0.404
129.500	138.950	80.009	19.992	103.940	19.939	3.924	0.456
130.000	139.176	80.008	19.993	103.940	19.938	3.969	0.456
130.500	139.394	80.010	19.993	103.939	19.940	3.820	0.438
131.000	139.630	80.007	19.993	103.939	19.939	3.914	0.449
131.500	139.878	80.008	19.993	103.941	19.941	3.761	0.470
132.000	140.103	80.008	19.994	103.942	19.938	3.980	0.479
132.500	140.335	80.009	19.993	103.942	19.940	3.876	0.465
133.000	140.591	80.008	19.994	103.942	19.935	4.214	0.472
133.500	140.814	80.007	19.995	103.941	19.937	4.033	0.483
134.000	141.059	80.007	19.993	103.942	19.937	4.042	0.473
134.500	141.288	80.008	19.993	103.941	19.938	4.016	0.471
135.000	141.529	80.007	19.994	103.941	19.939	3.914	0.473
135.500	141.767	80.009	19.994	103.941	19.937	4.070	0.475
136.000	141.996	80.007	19.993	103.942	19.938	4.004	0.473
136.500	142.225	80.008	19.994	103.942	19.936	4.127	0.462
137.000	142.441	80.007	19.993	103.942	19.939	3.950	0.451
137.500	142.693	80.008	19.992	103.943	19.939	3.933	0.457
138.000	142.901	80.008	19.994	103.943	19.940	3.863	0.464
138.500	143.169	80.009	19.993	103.944	19.938	3.976	0.468
139.000	143.417	80.007	19.994	103.944	19.937	4.091	0.496
139.500	143.658	80.008	19.994	103.944	19.941	3.790	0.502
140.000	143.894	80.008	19.994	103.944	19.938	4.008	0.483
140.500	144.143	80.008	19.994	103.943	19.939	3.950	0.481
141.000	144.404	80.009	19.994	103.937	19.937	4.074	0.498
141.500	144.655	80.009	19.995	103.935	19.938	4.016	0.512
142.000	144.865	80.009	19.994	103.935	19.938	3.993	0.487
142.500	145.126	80.009	19.994	103.935	19.936	4.108	0.466
143.000	145.350	80.009	19.994	103.935	19.938	3.984	0.478
143.500	145.630	80.010	19.994	103.938	19.938	3.974	0.494
144.000	145.863	80.009	19.995	103.940	19.938	3.986	0.508
144.500	146.115	80.010	19.994	103.939	19.941	3.774	0.499
145.000	146.375	80.009	19.993	103.938	19.942	3.731	0.499
145.500	146.613	80.009	19.993	103.938	19.940	3.820	0.505
146.000	146.853	80.009	19.993	103.938	19.942	3.733	0.488
146.500	147.076	80.009	19.993	103.937	19.940	3.837	0.470
147.000	147.333	80.010	19.994	103.937	19.943	3.661	0.472
147.500	147.551	80.010	19.995	103.939	19.939	3.901	0.478
148.000	147.819	80.011	19.993	103.940	19.941	3.776	0.481
148.500	148.093	80.010	19.994	103.941	19.942	3.733	0.514
149.000	148.313	80.010	19.993	103.942	19.941	3.761	0.517
149.500	148.602	80.009	19.994	103.942	19.942	3.733	0.502
150.000	148.823	80.010	19.993	103.941	19.942	3.712	0.510
150.500	149.077	80.009	19.994	103.941	19.941	3.789	0.492
151.000	149.343	80.010	19.992	103.940	19.942	3.702	0.497
151.500	149.604	80.010	19.994	103.939	19.944	3.567	0.524
152.000	149.810	80.009	19.993	103.938	19.946	3.448	0.497
152.500	150.079	80.009	19.994	103.938	19.944	3.552	0.471
153.000	150.333	80.010	19.993	103.938	19.943	3.640	0.499
153.500	150.596	80.009	19.993	103.939	19.943	3.614	0.520
154.000	150.834	80.010	19.994	103.940	19.946	3.452	0.509
154.500	151.091	80.010	19.993	103.942	19.945	3.482	0.498
155.000	151.330	80.010	19.995	103.941	19.946	3.416	0.495
155.500	151.569	80.009	19.993	103.940	19.943	3.627	0.487
156.000	151.836	80.009	19.994	103.940	19.947	3.372	0.492
156.500	152.099	80.009	19.994	103.938	19.949	3.255	0.518
157.000	152.343	80.010	19.993	103.936	19.949	3.204	0.518
157.500	152.613	80.010	19.992	103.936	19.946	3.410	0.511
158.000	152.876	80.010	19.994	103.936	19.946	3.418	0.524
158.500	153.111	80.009	19.993	103.936	19.947	3.372	0.516
159.000	153.343	80.010	19.992	103.939	19.948	3.314	0.483
159.500	153.646	80.009	19.993	103.938	19.948	3.327	0.501
160.000	153.933	80.010	19.992	103.936	19.944	3.544	0.563
160.500	154.121	80.010	19.992	103.930	19.948	3.304	0.532
161.000	154.362	80.009	19.993	103.927	19.945	3.498	0.452
161.500	154.628	80.009	19.993	103.926	19.945	3.506	0.468
162.000	154.894	80.010	19.994	103.924	19.947	3.363	0.519
162.500	155.168	80.009	19.992	103.925	19.945	3.474	0.536
163.000	155.388	80.009	19.993	103.930	19.949	3.259	0.517
163.500	155.642	80.010	19.993	103.929	19.947	3.372	0.484
164.000	155.903	80.010	19.993	103.927	19.946	3.413	0.494
164.500	156.189	80.008	19.993	103.927	19.946	3.443	0.531
165.000	156.468	80.010	19.993	103.931	19.948	3.330	0.556
165.500	156.678	80.009	19.993	103.927	19.945	3.472	0.527
166.000	156.965	80.011	19.993	103.925	19.945	3.494	0.493
166.500	157.205	80.010	19.993	103.922	19.946	3.402	0.512
167.000	157.451	80.009	19.993	103.920	19.949	3.219	0.507
167.500	157.734	80.009	19.992	103.916	19.945	3.513	0.508
168.000	157.989	80.009	19.994	103.916	19.945	3.479	0.533
168.500	158.231	80.009	19.993	103.920	19.947	3.340	0.517
169.000	158.457	80.008	19.993	103.922	19.947	3.372	0.482
169.500	158.762	80.009	19.994	103.922	19.947	3.340	0.500
170.000	159.044	80.009	19.993	103.922	19.947	3.370	0.559
170.500	159.320	80.009	19.993	103.920	19.950	3.180	0.572
171.000	159.543	80.010	19.993	103.916	19.947	3.370	0.529
171.500	159.775	80.010	19.994	103.916	19.947	3.381	0.477
172.000	160.044	80.010	19.993	103.915	19.949	3.253	0.478
172.500	160.299	80.011	19.993	103.915	19.948	3.276	0.513
173.000	160.560	80.011	19.993	103.914	19.949	3.236	0.520
173.500	160.780	80.010	19.993	103.912	19.950	3.146	0.498
174.000	161.036	80.010	19.993	103.909	19.948	3.326	0.478
174.500	161.304	80.009	19.993	103.909	19.950	3.127	0.500
175.000	161.573	80.010	19.994	103.906	19.946	3.438	0.530
175.500	161.834	80.010	19.993	103.906	19.947	3.366	0.533
176.000	162.093	80.010	19.994	103.906	19.945	3.519	0.525
176.500	162.323	80.010	19.994	103.906	19.945	3.513	0.504
177.000	162.606	80.010	19.994	103.906	19.945	3.524	0.501
177.500	162.863	80.011	19.994	103.905	19.947	3.381	0.527
178.000	163.097	80.009	19.994	103.906	19.946	3.413	0.516
178.500	163.360	80.011	19.994	103.905	19.944	3.587	0.494
179.000	163.621	80.008	19.991	103.905	19.947	3.392	0.510
179.500	163.894	80.009	19.994	103.905	19.946	3.466	0.529
180.000	164.137	80.010	19.995	103.908	19.951	3.106	0.526
180.500	164.417	80.009	19.994	103.910	19.947	3.375	0.520
181.000	164.680	80.009	19.993	103.913	19.947	3.398	0.533
181.500	164.910	80.009	19.994	103.913	19.948	3.311	0.518
182.000	165.199	80.009	19.994	103.913	19.947	3.340	0.506
182.500	165.491	80.009	19.993	103.910	19.950	3.191	0.550
183.000	165.704	80.009	19.994	103.908	19.951	3.106	0.543
183.500	165.969	80.009	19.994	103.904	19.951	3.089	0.492
184.000	166.197	80.008	19.995	103.904	19.949	3.260	0.486
184.500	166.447	80.009	19.994	103.904	19.949	3.253	0.486
185.000	166.742	80.008	19.994	103.903	19.950	3.140	0.511
185.500	166.968	80.009	19.993	103.903	19.950	3.176	0.533
186.000	167.235	80.008	19.993	103.903	19.951	3.077	0.507
186.500	167.512	80.008	19.993	103.903	19.948	3.313	0.519
187.000	167.719	80.008	19.994	103.903	19.949	3.211	0.514
187.500	167.984	80.008	19.994	103.903	19.951	3.102	0.477
188.000	168.233	80.008	19.993	103.903	19.948	3.325	0.493
188.500	168.471	80.008	19.993	103.903	19.948	3.306	0.501
189.000	168.730	80.008	19.994	103.903	19.950	3.127	0.492
189.500	168.975	80.009	19.993	103.903	19.946	3.426	0.501
190.000	169.258	80.009	19.994	103.903	19.949	3.236	0.516
190.500	169.523	80.008	19.994	103.903	19.949	3.213	0.538
191.000	169.765	80.008	19.993	103.901	19.949	3.230	0.528
191.500	170.025	80.008	19.993	103.901	19.948	3.294	0.505
192.000	170.275	80.007	19.993	103.901	19.948	3.302	0.506
192.500	170.495	80.007	19.993	103.901	19.947	3.360	0.489
193.000	170.759	80.008	19.994	103.901	19.949	3.217	0.477
193.500	171.044	80.008	19.994	103.903	19.945	3.528	0.517
194.000	171.285	80.008	19.994	103.903	19.941	3.794	0.538
194.500	171.555	80.007	19.993	103.903	19.946	3.432	0.519
195.000	171.804	80.008	19.994	103.901	19.946	3.424	0.515
195.500	172.039	80.007	19.993	103.899	19.949	3.255	0.501
196.000	172.309	80.008	19.994	103.898	19.946	3.447	0.494
196.500	172.563	80.008	19.995	103.897	19.947	3.377	0.514
197.000	172.808	80.008	19.995	103.897	19.949	3.204	0.512
197.500	173.086	80.010	19.994	103.899	19.947	3.385	0.512
198.000	173.314	80.008	19.993	103.900	19.950	3.149	0.514
198.500	173.562	80.008	19.995	103.901	19.950	3.188	0.491
199.000	173.851	80.007	19.993	103.902	19.949	3.230	0.506
199.500	174.070	80.008	19.993	103.902	19.953	2.977	0.523
200.000	174.353	80.008	19.994	103.902	19.949	3.203	0.505
200.500	174.594	80.009	19.994	103.902	19.948	3.267	0.513
201.000	174.832	80.009	19.994	103.902	19.950	3.160	0.501
201.500	175.108	80.008	19.995	103.900	19.949	3.235	0.497
202.000	175.291	80.008	19.994	103.895	19.948	3.271	0.487
202.500	175.568	80.008	19.994	103.893	19.951	3.090	0.459
203.000	175.829	80.010	19.994	103.891	19.949	3.211	0.499
203.500	176.043	80.007	19.994	103.891	19.951	3.075	0.506
204.000	176.313	80.008	19.994	103.890	19.950	3.183	0.480
204.500	176.530	80.008	19.994	103.896	19.952	3.013	0.486
205.000	176.815	80.009	19.995	103.898	19.950	3.130	0.495
205.500	177.061	80.009	19.995	103.896	19.946	3.456	0.516
206.000	177.345	80.008	19.995	103.893	19.950	3.181	0.530
206.500	177.564	80.008	19.995	103.892	19.948	3.280	0.516
207.000	177.814	80.008	19.995	103.890	19.950	3.147	0.486
207.500	178.087	80.009	19.994	103.888	19.950	3.180	0.496
208.000	178.316	80.008	19.995	103.891	19.950	3.165	0.513
208.500	178.542	80.009	19.994	103.894	19.948	3.286	0.479
209.000	178.778	80.008	19.994	103.894	19.949	3.226	0.458
209.500	179.071	80.008	19.993	103.888	19.947	3.393	0.495
210.000	179.314	80.007	19.995	103.883	19.947	3.367	0.533
210.500	179.582	80.008	19.995	103.881	19.948	3.316	0.524
211.000	179.829	80.007	19.994	103.875	19.950	3.130	0.513
211.500	180.106	80.007	19.994	103.871	19.953	2.922	0.520
212.000	180.307	80.009	19.994	103.872	19.949	3.248	0.501
212.500	180.585	80.009	19.994	103.873	19.950	3.169	0.478
213.000	180.855	80.008	19.995	103.872	19.950	3.150	0.513
213.500	181.083	80.008	19.994	103.877	19.951	3.092	0.523
214.000	181.390	80.007	19.993	103.878	19.952	3.022	0.517
214.500	181.604	80.008	19.993	103.883	19.951	3.062	0.528
215.000	181.902	80.008	19.993	103.884	19.950	3.165	0.517
215.500	182.108	80.008	19.995	103.880	19.954	2.849	0.508
216.000	182.394	80.008	19.994	103.878	19.952	3.045	0.498
216.500	182.634	80.009	19.993	103.881	19.953	2.932	0.509
217.000	182.840	80.009	19.994	103.877	19.955	2.815	0.486
217.500	183.108	80.009	19.994	103.877	19.954	2.873	0.460
218.000	183.375	80.008	19.992	103.879	19.955	2.811	0.504
218.500	183.646	80.007	19.993	103.875	19.953	2.950	0.537
219.000	183.870	80.007	19.993	103.871	19.953	2.983	0.517
219.500	184.101	80.007	19.993	103.871	19.952	3.035	0.475
220.000	184.374	80.007	19.994	103.874	19.951	3.060	0.479
220.500	184.607	80.008	19.992	103.875	19.952	2.985	0.505
221.000	184.847	80.008	19.992	103.876	19.951	3.100	0.489
221.500	185.119	80.007	19.992	103.876	19.951	3.118	0.492
222.000	185.352	80.009	19.993	103.878	19.953	2.921	0.508
222.500	185.589	80.008	19.992	103.877	19.951	3.067	0.488
223.000	185.905	80.008	19.993	103.876	19.951	3.094	0.512
223.500	186.127	80.007	19.993	103.878	19.952	3.052	0.545
224.000	186.424	80.008	19.994	103.878	19.953	2.935	0.529
224.500	186.652	80.009	19.994	103.876	19.955	2.843	0.522
225.000	186.915	80.008	19.994	103.876	19.954	2.898	0.508
225.500	187.152	80.007	19.993	103.876	19.954	2.907	0.496
226.000	187.392	80.008	19.994	103.874	19.955	2.781	0.489
226.500	187.641	80.008	19.993	103.873	19.955	2.836	0.483
227.000	187.919	80.009	19.992	103.876	19.955	2.841	0.508
227.500	188.193	80.010	19.992	103.874	19.955	2.811	0.539
228.000	188.436	80.009	19.993	103.872	19.956	2.726	0.534
228.500	188.653	80.010	19.993	103.872	19.955	2.834	0.489
229.000	188.892	80.009	19.993	103.872	19.954	2.896	0.458
229.500	189.163	80.009	19.992	103.869	19.957	2.696	0.483
230.000	189.441	80.009	19.992	103.870	19.954	2.862	0.530
230.500	189.652	80.010	19.992	103.871	19.955	2.844	0.519
231.000	189.942	80.009	19.994	103.878	19.954	2.860	0.495
231.500	190.185	80.011	19.994	103.879	19.954	2.887	0.517
232.000	190.436	80.009	19.994	103.878	19.957	2.664	0.513
232.500	190.664	80.009	19.993	103.881	19.957	2.675	0.486
233.000	190.885	80.010	19.994	103.882	19.957	2.683	0.464
233.500	191.160	80.010	19.994	103.876	19.955	2.843	0.472
234.000	191.403	80.010	19.993	103.875	19.956	2.726	0.507
234.500	191.662	80.011	19.993	103.874	19.956	2.732	0.510
235.000	191.895	80.010	19.992	103.871	19.955	2.836	0.497
235.500	192.147	80.010	19.993	103.867	19.955	2.817	0.489
236.000	192.375	80.009	19.992	103.868	19.956	2.713	0.483
236.500	192.594	80.010	19.993	103.868	19.955	2.809	0.463
237.000	192.842	80.010	19.993	103.869	19.955	2.826	0.457
237.500	193.115	80.009	19.992	103.873	19.955	2.798	0.494
238.000	193.385	80.009	19.995	103.874	19.956	2.738	0.532
238.500	193.626	80.009	19.992	103.874	19.954	2.866	0.527
239.000	193.863	80.008	19.992	103.874	19.955	2.798	0.494
239.500	194.117	80.009	19.994	103.877	19.956	2.732	0.484
240.000	194.389	80.008	19.993	103.878	19.958	2.607	0.509
240.500	194.631	80.009	19.993	103.880	19.957	2.689	0.520
241.000	194.847	80.009	19.995	103.884	19.956	2.745	0.486
241.500	195.129	80.009	19.995	103.886	19.958	2.619	0.478
242.000	195.378	80.008	19.993	103.883	19.954	2.866	0.515
242.500	195.609	80.008	19.994	103.878	19.956	2.756	0.505
243.000	195.883	80.009	19.993	103.875	19.957	2.692	0.493
243.500	196.110	80.009	19.993	103.871	19.956	2.756	0.503
244.000	196.328	80.008	19.994	103.871	19.957	2.670	0.473
244.500	196.563	80.009	19.994	103.871	19.956	2.758	0.449
245.000	196.793	80.008	19.993	103.872	19.952	3.014	0.459
245.500	197.088	80.009	19.993	103.873	19.954	2.856	0.495
246.000	197.312	80.008	19.993	103.872	19.953	2.939	0.522
246.500	197.588	80.011	19.993	103.871	19.953	2.960	0.509
247.000	197.841	80.009	19.993	103.872	19.952	3.041	0.515
247.500	198.084	80.010	19.992	103.872	19.953	2.977	0.512
248.000	198.349	80.010	19.993	103.871	19.956	2.709	0.502
248.500	198.572	80.009	19.994	103.871	19.954	2.886	0.498
249.000	198.811	80.010	19.994	103.869	19.955	2.828	0.475
249.500	199.070	80.009	19.993	103.868	19.955	2.777	0.480
250.000	199.327	80.011	19.993	103.868	19.954	2.913	0.507
250.500	199.558	80.010	19.992	103.868	19.954	2.898	0.502
251.000	199.791	80.010	19.993	103.867	19.953	2.963	0.476
251.500	200.065	80.010	19.992	103.867	19.955	2.830	0.485
252.000	200.272	80.011	19.992	103.865	19.951	3.120	0.493
252.500	200.508	80.010	19.992	103.865	19.951	3.097	0.462
253.000	200.793	80.011	19.993	103.866	19.953	2.926	0.483
253.500	201.049	80.011	19.993	103.868	19.950	3.143	0.531
254.000	201.283	80.012	19.993	103.869	19.952	3.037	0.515
254.500	201.514	80.010	19.993	103.869	19.954	2.860	0.477
255.000	201.757	80.012	19.992	103.868	19.954	2.877	0.470
255.500	202.007	80.011	19.992	103.868	19.954	2.909	0.484
256.000	202.281	80.012	19.993	103.867	19.955	2.800	0.508
256.500	202.524	80.009	19.992	103.866	19.954	2.867	0.520
257.000	202.787	80.010	19.993	103.867	19.952	3.035	0.511
257.500	203.042	80.011	19.993	103.867	19.948	3.299	0.512
258.000	203.293	80.011	19.992	103.867	19.952	3.018	0.512
258.500	203.535	80.011	19.993	103.868	19.952	2.996	0.500
259.000	203.780	80.011	19.992	103.867	19.953	2.975	0.490
259.500	203.983	80.011	19.994	103.866	19.954	2.879	0.467
260.000	204.244	80.010	19.994	103.865	19.951	3.067	0.456
260.500	204.482	80.011	19.993	103.865	19.954	2.875	0.482
261.000	204.728	80.011	19.993	103.863	19.955	2.796	0.492
261.500	204.979	80.010	19.993	103.864	19.954	2.898	0.491
262.000	205.242	80.011	19.992	103.863	19.952	3.022	0.506
262.500	205.459	80.009	19.994	103.864	19.951	3.094	0.497
263.000	205.748	80.010	19.993	103.863	19.951	3.093	0.493
263.500	205.986	80.009	19.993	103.864	19.953	2.948	0.516
264.000	206.227	80.011	19.992	103.864	19.953	2.945	0.503
264.500	206.467	80.009	19.993	103.867	19.954	2.856	0.480
265.000	206.744	80.009	19.992	103.871	19.952	3.046	0.499
265.500	206.948	80.009	19.993	103.871	19.952	3.016	0.499
266.000	207.231	80.009	19.994	103.871	19.953	2.937	0.484
266.500	207.496	80.009	19.993	103.871	19.953	2.951	0.518
267.000	207.718	80.008	19.994	103.869	19.955	2.834	0.517
267.500	207.946	80.008	19.993	103.864	19.954	2.883	0.468
268.000	208.213	80.008	19.993	103.867	19.949	3.218	0.473
268.500	208.453	80.008	19.994	103.870	19.952	3.026	0.501
269.000	208.726	80.009	19.993	103.870	19.952	3.024	0.510
269.500	208.946	80.009	19.993	103.870	19.951	3.109	0.503
270.000	209.170	80.009	19.994	103.870	19.951	3.056	0.469
270.500	209.439	80.009	19.995	103.869	19.949	3.240	0.469
271.000	209.692	80.008	19.994	103.867	19.951	3.071	0.507
271.500	209.900	80.008	19.994	103.867	19.951	3.054	0.491
272.000	210.190	80.008	19.994	103.867	19.954	2.862	0.479
272.500	210.418	80.007	19.994	103.867	19.951	3.067	0.508
273.000	210.674	80.009	19.994	103.866	19.951	3.058	0.501
273.500	210.904	80.008	19.994	103.864	19.948	3.310	0.485
274.000	211.131	80.009	19.994	103.863	19.952	2.984	0.471
274.500	211.403	80.009	19.993	103.862	19.952	3.050	0.478
275.000	211.664	80.008	19.992	103.862	19.953	2.924	0.516
275.500	211.926	80.008	19.994	103.863	19.952	3.031	0.528
276.000	212.135	80.007	19.994	103.866	19.953	2.975	0.497
276.500	212.403	80.008	19.994	103.867	19.950	3.152	0.474
277.000	212.636	80.007	19.994	103.868	19.950	3.143	0.489
277.500	212.913	80.008	19.993	103.873	19.953	2.922	0.506
278.000	213.142	80.008	19.993	103.873	19.954	2.909	0.508
278.500	213.415	80.008	19.993	103.869	19.954	2.883	0.504
279.000	213.645	80.009	19.994	103.869	19.953	2.962	0.503
279.500	213.913	80.008	19.992	103.869	19.951	3.067	0.501
280.000	214.170	80.007	19.992	103.864	19.955	2.834	0.511
280.500	214.369	80.009	19.992	103.863	19.952	3.003	0.490
281.000	214.645	80.009	19.993	103.863	19.950	3.165	0.465
281.500	214.886	80.009	19.994	103.863	19.956	2.730	0.496
282.000	215.160	80.009	19.993	103.863	19.954	2.882	0.516
282.500	215.379	80.010	19.994	103.863	19.957	2.662	0.504
283.000	215.637	80.008	19.993	103.863	19.951	3.116	0.484
283.500	215.852	80.007	19.993	103.863	19.955	2.835	0.475
284.000	216.110	80.009	19.993	103.864	19.956	2.739	0.473
284.500	216.336	80.009	19.994	103.865	19.954	2.865	0.479
285.000	216.613	80.008	19.993	103.865	19.957	2.690	0.494
285.500	216.848	80.011	19.993	103.867	19.956	2.741	0.507
286.000	217.074	80.009	19.993	103.867	19.956	2.762	0.486
286.500	217.366	80.007	19.993	103.868	19.958	2.638	0.490
287.000	217.598	80.009	19.993	103.868	19.955	2.794	0.522
287.500	217.840	80.008	19.994	103.868	19.954	2.869	0.499
288.000	218.080	80.008	19.993	103.866	19.956	2.769	0.478
288.500	218.339	80.008	19.993	103.866	19.958	2.636	0.490
289.000	218.546	80.008	19.992	103.866	19.959	2.540	0.482
289.500	218.826	80.008	19.993	103.867	19.956	2.771	0.476
290.000	219.119	80.007	19.993	103.866	19.955	2.783	0.530
290.500	219.342	80.008	19.993	103.866	19.954	2.865	0.545
291.000	219.579	80.009	19.994	103.865	19.955	2.815	0.488
291.500	219.845	80.007	19.993	103.864	19.955	2.822	0.481
292.000	220.075	80.009	19.994	103.863	19.957	2.664	0.499
292.500	220.369	80.006	19.993	103.864	19.954	2.888	0.510
293.000	220.578	80.008	19.993	103.863	19.956	2.743	0.514
293.500	220.793	80.007	19.994	103.863	19.956	2.717	0.464
294.000	221.062	80.007	19.994	103.861	19.955	2.815	0.454
294.500	221.321	80.006	19.994	103.861	19.958	2.604	0.506
295.000	221.579	80.007	19.995	103.861	19.957	2.685	0.523
295.500	221.841	80.006	19.994	103.862	19.958	2.596	0.519
296.000	222.091	80.008	19.994	103.863	19.956	2.709	0.516
296.500	222.333	80.006	19.994	103.866	19.957	2.666	0.502
297.000	222.565	80.006	19.994	103.866	19.955	2.809	0.483
297.500	222.860	80.008	19.995	103.866	19.957	2.681	0.500
298.000	223.111	80.010	19.994	103.866	19.955	2.790	0.536
298.500	223.321	80.007	19.994	103.865	19.956	2.720	0.504
299.000	223.603	80.006	19.993	103.864	19.959	2.538	0.476
299.500	223.857	80.008	19.996	103.864	19.956	2.730	0.514
300.000	224.094	80.007	19.995	103.864	19.958	2.574	0.514
300.500	224.354	80.006	19.995	103.864	19.955	2.839	0.494
301.000	224.599	80.007	19.995	103.864	19.954	2.854	0.501
301.500	224.830	80.007	19.996	103.861	19.953	2.959	0.491
302.000	225.121	80.007	19.995	103.860	19.957	2.667	0.499
302.500	225.348	80.007	19.994	103.859	19.955	2.844	0.520
303.000	225.574	80.007	19.995	103.859	19.959	2.566	0.485
303.500	225.841	80.006	19.994	103.859	19.955	2.794	0.473
304.000	226.067	80.007	19.994	103.862	19.956	2.717	0.493
304.500	226.351	80.006	19.995	103.864	19.956	2.751	0.502
305.000	226.600	80.007	19.995	103.866	19.955	2.817	0.522
305.500	226.803	80.007	19.993	103.867	19.957	2.702	0.493
306.000	227.057	80.007	19.994	103.867	19.959	2.549	0.455
306.500	227.283	80.007	19.993	103.867	19.958	2.577	0.469
307.000	227.575	80.006	19.994	103.867	19.958	2.611	0.499
307.500	227.824	80.007	19.995	103.866	19.955	2.807	0.529
308.000	228.084	80.007	19.995	103.863	19.959	2.523	0.524
308.500	228.334	80.007	19.994	103.863	19.954	2.895	0.509
309.000	228.590	80.008	19.996	103.862	19.956	2.739	0.508
309.500	228.860	80.009	19.994	103.861	19.956	2.707	0.517
310.000	229.114	80.008	19.994	103.862	19.956	2.707	0.525
310.500	229.357	80.007	19.993	103.865	19.956	2.711	0.510
311.000	229.616	80.009	19.994	103.864	19.956	2.729	0.499
311.500	229.848	80.009	19.994	103.861	19.957	2.660	0.497
312.000	230.099	80.008	19.994	103.858	19.955	2.790	0.487
312.500	230.378	80.010	19.994	103.852	19.955	2.818	0.506
313.000	230.562	80.008	19.993	103.848	19.954	2.847	0.497
313.500	230.839	80.009	19.993	103.848	19.951	3.069	0.462
314.000	231.100	80.010	19.993	103.851	19.955	2.811	0.500
314.500	231.295	80.011	19.993	103.854	19.954	2.862	0.497
315.000	231.592	80.009	19.994	103.859	19.956	2.773	0.474
315.500	231.821	80.010	19.993	103.862	19.953	2.971	0.509
316.000	232.042	80.009	19.993	103.864	19.954	2.899	0.488
316.500	232.334	80.009	19.993	103.863	19.957	2.692	0.481
317.000	232.580	80.008	19.994	103.863	19.952	3.011	0.525
317.500	232.827	80.010	19.994	103.860	19.954	2.903	0.516
318.000	233.063	80.009	19.993	103.858	19.956	2.713	0.488
318.500	233.353	80.009	19.992	103.859	19.957	2.641	0.504
319.000	233.567	80.010	19.993	103.858	19.951	3.118	0.515
319.500	233.792	80.010	19.993	103.856	19.954	2.882	0.472
320.000	234.061	80.010	19.993	103.853	19.955	2.833	0.467
320.500	234.307	80.010	19.992	103.847	19.957	2.651	0.504
321.000	234.595	80.010	19.994	103.845	19.954	2.869	0.525
321.500	234.798	80.009	19.994	103.844	19.953	2.931	0.513
322.000	235.052	80.010	19.994	103.845	19.954	2.880	0.474
322.500	235.287	80.009	19.993	103.850	19.957	2.690	0.473
323.000	235.546	80.009	19.994	103.858	19.958	2.581	0.491
323.500	235.806	80.010	19.993	103.861	19.956	2.747	0.506
324.000	236.045	80.009	19.993	103.862	19.952	3.026	0.509
324.500	236.304	80.010	19.994	103.860	19.956	2.713	0.498
325.000	236.532	80.010	19.993	103.861	19.957	2.683	0.493
325.500	236.774	80.010	19.992	103.861	19.955	2.785	0.479
326.000	237.044	80.009	19.992	103.860	19.956	2.747	0.491
326.500	237.292	80.009	19.993	103.859	19.957	2.645	0.515
327.000	237.510	80.009	19.992	103.861	19.956	2.736	0.492
327.500	237.783	80.009	19.993	103.861	19.959	2.547	0.478
328.000	238.011	80.009	19.992	103.861	19.955	2.833	0.496
328.500	238.262	80.008	19.993	103.862	19.954	2.856	0.490
329.000	238.533	80.008	19.992	103.859	19.951	3.065	0.501
329.500	238.763	80.009	19.992	103.858	19.953	2.916	0.511
330.000	239.007	80.009	19.993	103.858	19.955	2.809	0.487
330.500	239.254	80.007	19.994	103.858	19.952	2.986	0.482
331.000	239.502	80.007	19.993	103.855	19.952	3.014	0.493
331.500	239.765	80.008	19.993	103.857	19.955	2.805	0.503
332.000	240.021	80.009	19.993	103.859	19.950	3.129	0.515
332.500	240.258	80.009	19.993	103.859	19.954	2.848	0.506
333.000	240.517	80.009	19.992	103.859	19.952	3.035	0.495
333.500	240.719	80.009	19.992	103.863	19.954	2.882	0.478
334.000	240.983	80.010	19.993	103.863	19.952	3.033	0.463
334.500	241.283	80.009	19.995	103.863	19.952	2.990	0.515
335.000	241.475	80.009	19.994	103.863	19.954	2.880	0.528
335.500	241.778	80.009	19.993	103.864	19.955	2.829	0.494
336.000	242.011	80.008	19.994	103.864	19.960	2.470	0.515
336.500	242.243	80.010	19.994	103.864	19.953	2.935	0.500
337.000	242.491	80.010	19.993	103.864	19.954	2.852	0.473
337.500	242.745	80.010	19.993	103.864	19.957	2.669	0.491
338.000	242.997	80.011	19.993	103.864	19.952	3.005	0.504
338.500	243.242	80.010	19.994	103.864	19.954	2.894	0.501
339.000	243.499	80.010	19.993	103.864	19.956	2.748	0.500
339.500	243.732	80.011	19.993	103.862	19.954	2.903	0.496
340.000	244.028	80.010	19.992	103.861	19.955	2.827	0.509
340.500	244.245	80.011	19.993	103.860	19.954	2.876	0.521
341.000	244.502	80.011	19.992	103.860	19.953	2.929	0.493
341.500	244.741	80.010	19.993	103.860	19.954	2.854	0.485
342.000	244.982	80.010	19.993	103.861	19.953	2.920	0.488
342.500	245.216	80.010	19.993	103.862	19.956	2.748	0.478
343.000	245.443	80.011	19.992	103.861	19.953	2.927	0.468
343.500	245.717	80.011	19.992	103.860	19.955	2.805	0.481
344.000	245.982	80.010	19.992	103.861	19.956	2.733	0.520
344.500	246.225	80.011	19.992	103.860	19.954	2.890	0.523
345.000	246.497	80.010	19.992	103.860	19.953	2.978	0.512
345.500	246.734	80.010	19.993	103.859	19.950	3.183	0.512
346.000	246.970	80.011	19.992	103.854	19.951	3.106	0.491
346.500	247.224	80.009	19.992	103.851	19.950	3.151	0.481
347.000	247.460	80.010	19.993	103.851	19.955	2.807	0.491
347.500	247.691	80.010	19.992	103.851	19.951	3.065	0.479
348.000	247.933	80.010	19.993	103.852	19.953	2.959	0.469
348.500	248.185	80.009	19.992	103.858	19.952	3.016	0.483
349.000	248.457	80.010	19.992	103.861	19.953	2.982	0.509
349.500	248.727	80.009	19.993	103.855	19.951	3.059	0.533
350.000	248.992	80.009	19.991	103.850	19.954	2.881	0.539
350.500	249.251	80.009	19.992	103.845	19.950	3.152	0.530
351.000	249.508	80.008	19.992	103.842	19.955	2.781	0.520
351.500	249.755	80.008	19.992	103.840	19.950	3.131	0.510
352.000	249.995	80.007	19.993	103.844	19.954	2.903	0.495
352.500	250.273	80.009	19.993	103.847	19.952	2.991	0.503
353.000	250.532	80.006	19.993	103.848	19.952	3.040	0.527
353.500	250.789	80.008	19.993	103.849	19.952	2.997	0.526
354.000	250.997	80.008	19.994	103.847	19.955	2.808	0.491
354.500	251.301	80.009	19.991	103.845	19.952	3.050	0.489
355.000	251.502	80.007	19.992	103.845	19.953	2.923	0.508
355.500	251.764	80.008	19.992	103.847	19.953	2.963	0.484
356.000	252.021	80.008	19.993	103.846	19.954	2.905	0.491
356.500	252.249	80.009	19.993	103.847	19.955	2.828	0.502
357.000	252.543	80.008	19.992	103.849	19.955	2.831	0.504
357.500	252.822	80.007	19.992	103.849	19.954	2.905	0.547
358.000	253.029	80.008	19.991	103.846	19.956	2.722	0.529
358.500	253.279	80.008	19.992	103.846	19.952	2.989	0.472
359.000	253.501	80.005	19.992	103.848	19.954	2.848	0.465
359.500	253.717	80.007	19.994	103.852	19.957	2.686	0.456
360.000	253.987	80.007	19.992	103.856	19.953	2.929	0.462
360.500	254.227	80.008	19.995	103.861	19.955	2.807	0.498
361.000	254.444	80.006	19.993	103.864	19.956	2.771	0.483
361.500	254.702	80.006	19.993	103.861	19.955	2.841	0.466
362.000	254.971	80.008	19.993	103.858	19.957	2.647	0.501
362.500	255.215	80.008	19.993	103.854	19.955	2.807	0.520
363.000	255.477	80.007	19.993	103.849	19.951	3.066	0.510
363.500	255.767	80.009	19.993	103.843	19.952	3.033	0.529
364.000	255.970	80.008	19.993	103.840	19.956	2.746	0.522
364.500	256.243	80.007	19.995	103.837	19.955	2.816	0.485
365.000	256.511	80.008	19.993	103.839	19.956	2.741	0.509
365.500	256.756	80.009	19.994	103.844	19.953	2.933	0.527
366.000	256.977	80.008	19.993	103.848	19.954	2.880	0.489
366.500	257.236	80.008	19.994	103.851	19.953	2.942	0.474
367.000	257.477	80.008	19.994	103.851	19.950	3.161	0.491
367.500	257.753	80.007	19.994	103.852	19.948	3.262	0.508
368.000	258.027	80.008	19.994	103.850	19.947	3.330	0.533
368.500	258.233	80.007	19.995	103.850	19.954	2.904	0.515
369.000	258.526	80.009	19.993	103.848	19.954	2.863	0.490
369.500	258.784	80.008	19.993	103.851	19.950	3.142	0.525
370.000	258.975	80.007	19.993	103.852	19.953	2.919	0.500
370.500	259.288	80.008	19.995	103.855	19.950	3.136	0.477
371.000	259.536	80.007	19.994	103.858	19.955	2.836	0.533
371.500	259.781	80.008	19.994	103.860	19.954	2.857	0.527
372.000	260.025	80.007	19.994	103.856	19.953	2.925	0.491
372.500	260.253	80.007	19.993	103.852	19.952	3.038	0.480
373.000	260.493	80.007	19.994	103.847	19.953	2.931	0.470
373.500	260.760	80.006	19.995	103.841	19.952	3.019	0.487
374.000	261.040	80.006	19.994	103.841	19.956	2.767	0.526
374.500	261.249	80.008	19.993	103.845	19.955	2.841	0.518
375.000	261.519	80.007	19.993	103.848	19.951	3.084	0.484
375.500	261.751	80.008	19.993	103.847	19.956	2.767	0.491
376.000	262.039	80.008	19.993	103.847	19.954	2.901	0.511
376.500	262.249	80.008	19.993	103.845	19.953	2.956	0.509
377.000	262.504	80.008	19.995	103.844	19.952	3.036	0.482
377.500	262.764	80.007	19.994	103.840	19.953	2.931	0.490
378.000	263.004	80.008	19.992	103.840	19.949	3.232	0.507
378.500	263.246	80.008	19.994	103.841	19.952	3.032	0.491
379.000	263.494	80.007	19.993	103.841	19.949	3.247	0.486
379.500	263.752	80.008	19.994	103.839	19.951	3.102	0.498
380.000	263.979	80.007	19.994	103.837	19.952	3.050	0.495
380.500	264.230	80.006	19.995	103.836	19.954	2.854	0.482
381.000	264.454	80.007	19.993	103.834	19.953	2.926	0.477
381.500	264.719	80.008	19.994	103.837	19.953	2.935	0.482
382.000	264.977	80.007	19.993	103.835	19.954	2.874	0.506
382.500	265.206	80.006	19.994	103.835	19.953	2.968	0.505
383.000	265.503	80.008	19.994	103.835	19.952	3.002	0.507
383.500	265.720	80.007	19.993	103.835	19.955	2.795	0.520
384.000	265.986	80.008	19.994	103.835	19.954	2.852	0.498
384.500	266.230	80.007	19.995	103.840	19.953	2.982	0.497
385.000	266.466	80.008	19.994	103.847	19.955	2.786	0.495
385.500	266.728	80.007	19.995	103.855	19.953	2.927	0.489
386.000	266.981	80.008	19.993	103.860	19.953	2.929	0.507
386.500	267.288	80.008	19.994	103.859	19.951	3.066	0.537
387.000	267.499	80.006	19.995	103.856	19.951	3.074	0.538
387.500	267.747	80.006	19.994	103.853	19.949	3.239	0.488
388.000	268.002	80.007	19.993	103.846	19.954	2.883	0.481
388.500	268.278	80.008	19.994	103.838	19.951	3.098	0.517
389.000	268.510	80.007	19.994	103.835	19.954	2.887	0.519
389.500	268.752	80.007	19.994	103.835	19.952	2.985	0.491
390.000	269.016	80.007	19.994	103.836	19.953	2.944	0.490
390.500	269.225	80.007	19.992	103.842	19.951	3.063	0.490
391.000	269.487	80.006	19.996	103.849	19.954	2.857	0.472
391.500	269.738	80.007	19.994	103.853	19.954	2.914	0.492
392.000	269.991	80.007	19.993	103.853	19.951	3.068	0.509
392.500	270.226	80.008	19.993	103.849	19.954	2.893	0.496
393.000	270.470	80.008	19.994	103.846	19.954	2.878	0.483
393.500	270.756	80.009	19.994	103.841	19.954	2.861	0.505
394.001	271.015	80.007	19.994	103.842	19.955	2.810	0.537
394.500	271.307	80.009	19.993	103.842	19.956	2.744	0.548
395.000	271.601	80.009	19.994	103.840	19.957	2.699	0.569
395.500	271.795	80.009	19.994	103.838	19.954	2.902	0.537
396.000	272.097	80.009	19.993	103.841	19.952	3.042	0.492
396.500	272.338	80.010	19.994	103.838	19.953	2.934	0.520
397.000	272.562	80.009	19.993	103.835	19.953	2.932	0.504
397.500	272.808	80.011	19.995	103.834	19.955	2.787	0.467
398.000	273.050	80.009	19.993	103.832	19.954	2.870	0.479
398.500	273.281	80.008	19.994	103.828	19.953	2.979	0.480
399.000	273.573	80.010	19.995	103.826	19.953	2.932	0.498
399.500	273.801	80.009	19.995	103.829	19.955	2.844	0.521
400.000	274.044	80.008	19.994	103.830	19.952	2.995	0.495
400.500	274.287	80.009	19.994	103.833	19.952	3.032	0.479
401.000	274.529	80.009	19.994	103.839	19.953	2.929	0.486
401.500	274.784	80.008	19.994	103.842	19.955	2.823	0.491
402.000	275.028	80.008	19.994	103.838	19.956	2.757	0.498
402.500	275.306	80.009	19.995	103.840	19.954	2.870	0.510
403.000	275.527	80.009	19.994	103.841	19.954	2.898	0.510
403.500	275.788	80.009	19.995	103.836	19.951	3.079	0.491
404.000	276.014	80.010	19.994	103.832	19.953	2.932	0.485
404.500	276.289	80.010	19.993	103.833	19.951	3.094	0.494
405.000	276.532	80.010	19.993	103.830	19.951	3.057	0.509
405.500	276.802	80.010	19.994	103.829	19.952	2.989	0.515
406.000	277.055	80.009	19.994	103.829	19.953	2.957	0.518
406.500	277.337	80.009	19.994	103.830	19.950	3.129	0.529
407.000	277.583	80.009	19.993	103.829	19.954	2.895	0.531
407.500	277.826	80.009	19.994	103.829	19.951	3.085	0.509
408.000	278.105	80.009	19.994	103.825	19.951	3.115	0.506
408.500	278.340	80.008	19.994	103.824	19.953	2.929	0.518
409.000	278.615	80.011	19.994	103.825	19.951	3.061	0.512
409.500	278.800	80.009	19.994	103.827	19.953	2.946	0.485
410.000	279.111	80.010	19.995	103.827	19.953	2.952	0.478
410.500	279.334	80.008	19.993	103.829	19.953	2.982	0.515
411.000	279.605	80.011	19.993	103.829	19.954	2.874	0.514
411.500	279.830	80.009	19.994	103.829	19.952	3.015	0.494
412.000	280.129	80.009	19.992	103.828	19.954	2.874	0.510
412.500	280.335	80.010	19.993	103.828	19.952	3.021	0.515
413.000	280.587	80.008	19.993	103.828	19.953	2.957	0.481
413.500	280.826	80.009	19.992	103.828	19.952	3.042	0.475
414.000	281.059	80.010	19.992	103.827	19.951	3.070	0.482
414.500	281.345	80.010	19.994	103.827	19.952	3.000	0.496
415.000	281.590	80.009	19.994	103.829	19.953	2.970	0.525
415.500	281.821	80.010	19.993	103.832	19.953	2.951	0.503
416.000	282.089	80.010	19.992	103.836	19.950	3.141	0.487
416.500	282.318	80.010	19.993	103.837	19.952	3.017	0.497
417.000	282.603	80.010	19.993	103.841	19.953	2.919	0.505
417.500	282.835	80.011	19.992	103.840	19.952	3.045	0.516
418.000	283.084	80.010	19.993	103.841	19.955	2.818	0.499
418.500	283.334	80.010	19.992	103.840	19.955	2.780	0.490
419.000	283.583	80.009	19.991	103.841	19.953	2.946	0.499
419.500	283.815	80.012	19.994	103.840	19.954	2.902	0.490
420.000	284.099	80.011	19.995	103.843	19.951	3.098	0.499
420.500	284.301	80.012	19.993	103.842	19.946	3.443	0.501
421.000	284.568	80.010	19.995	103.841	19.950	3.189	0.478
421.500	284.834	80.010	19.994	103.840	19.945	3.524	0.501
422.000	285.097	80.010	19.994	103.837	19.948	3.277	0.530
422.500	285.345	80.011	19.994	103.833	19.949	3.202	0.520
423.000	285.577	80.011	19.993	103.831	19.945	3.533	0.496
423.500	285.815	80.011	19.992	103.828	19.948	3.268	0.475
424.000	286.091	80.009	19.994	103.827	19.951	3.091	0.492
424.500	286.362	80.010	19.993	103.827	19.947	3.367	0.530
425.000	286.605	80.011	19.992	103.827	19.949	3.256	0.530
425.500	286.829	80.011	19.993	103.828	19.948	3.303	0.490
426.000	287.099	80.010	19.993	103.829	19.949	3.202	0.480
426.500	287.322	80.010	19.992	103.829	19.948	3.298	0.494
427.000	287.595	80.010	19.993	103.830	19.945	3.482	0.495
427.500	287.848	80.010	19.992	103.830	19.947	3.345	0.510
428.000	288.088	80.010	19.992	103.830	19.951	3.098	0.509
428.500	288.376	80.010	19.993	103.830	19.948	3.298	0.511
429.000	288.599	80.011	19.992	103.830	19.949	3.241	0.519
429.500	288.819	80.011	19.994	103.829	19.949	3.247	0.477
430.000	289.085	80.009	19.993	103.831	19.949	3.239	0.465
430.500	289.355	80.010	19.993	103.834	19.950	3.156	0.511
431.000	289.602	80.010	19.992	103.835	19.947	3.369	0.526
431.500	289.849	80.009	19.992	103.835	19.948	3.300	0.505
432.000	290.078	80.009	19.993	103.834	19.950	3.157	0.485
432.500	290.355	80.006	19.993	103.832	19.950	3.172	0.491
433.000	290.586	80.007	19.994	103.829	19.949	3.241	0.507
433.500	290.854	80.006	19.994	103.826	19.953	2.961	0.504
434.000	291.069	80.007	19.994	103.826	19.949	3.253	0.491
434.500	291.306	80.007	19.993	103.827	19.950	3.125	0.468
435.000	291.573	80.006	19.994	103.827	19.948	3.260	0.478
435.500	291.819	80.007	19.993	103.827	19.950	3.132	0.508
436.000	292.037	80.006	19.993	103.828	19.950	3.147	0.488
436.500	292.295	80.007	19.993	103.830	19.949	3.198	0.470
437.000	292.536	80.008	19.993	103.830	19.946	3.409	0.487
437.500	292.811	80.006	19.994	103.830	19.950	3.123	0.508
438.000	293.060	80.007	19.994	103.830	19.949	3.243	0.520
438.500	293.278	80.008	19.993	103.831	19.949	3.209	0.495
439.000	293.544	80.008	19.993	103.829	19.948	3.260	0.476
439.500	293.825	80.008	19.992	103.830	19.951	3.055	0.516
440.000	294.051	80.008	19.993	103.830	19.950	3.181	0.527
440.500	294.305	80.009	19.993	103.830	19.950	3.160	0.493
441.000	294.555	80.009	19.993	103.830	19.948	3.275	0.492
441.500	294.809	80.007	19.992	103.829	19.950	3.173	0.504
442.000	295.102	80.008	19.992	103.829	19.952	3.019	0.526
442.500	295.355	80.007	19.992	103.830	19.949	3.217	0.547
443.000	295.595	80.008	19.993	103.830	19.952	3.000	0.519
443.500	295.855	80.008	19.993	103.829	19.953	2.981	0.496
444.000	296.088	80.008	19.993	103.830	19.950	3.124	0.496
444.500	296.354	80.008	19.993	103.830	19.951	3.053	0.496
445.000	296.595	80.008	19.992	103.830	19.952	3.011	0.503
445.500	296.835	80.008	19.993	103.830	19.952	3.025	0.494
446.000	297.077	80.009	19.994	103.831	19.951	3.119	0.482
446.500	297.341	80.009	19.993	103.830	19.949	3.219	0.494
447.000	297.585	80.006	19.992	103.830	19.950	3.188	0.507
447.500	297.876	80.008	19.993	103.831	19.950	3.124	0.522
448.000	298.091	80.010	19.993	103.832	19.953	2.957	0.521
448.500	298.315	80.009	19.992	103.831	19.954	2.868	0.473
449.000	298.609	80.010	19.993	103.832	19.950	3.188	0.479
449.500	298.805	80.008	19.993	103.830	19.946	3.418	0.504
450.000	299.085	80.008	19.993	103.829	19.948	3.322	0.482
450.500	299.338	80.010	19.993	103.827	19.950	3.183	0.505
451.000	299.631	80.009	19.994	103.827	19.950	3.145	0.540
451.500	299.827	80.009	19.993	103.826	19.950	3.153	0.517
452.000	300.088	80.008	19.993	103.826	19.949	3.209	0.472
452.500	300.337	80.008	19.992	103.827	19.949	3.219	0.484
453.000	300.592	80.010	19.993	103.829	19.952	3.042	0.507
453.500	300.869	80.009	19.993	103.829	19.952	2.991	0.518
454.000	301.110	80.010	19.992	103.830	19.952	3.023	0.524
454.500	301.358	80.008	19.993	103.829	19.951	3.073	0.503
455.000	301.586	80.008	19.993	103.828	19.947	3.373	0.483
455.500	301.880	80.009	19.993	103.827	19.952	3.049	0.499
456.000	302.083	80.010	19.993	103.827	19.950	3.170	0.509
456.500	302.356	80.008	19.994	103.828	19.947	3.337	0.486
457.000	302.620	80.009	19.993	103.829	19.948	3.303	0.506
457.500	302.867	80.008	19.993	103.829	19.950	3.164	0.524
458.000	303.134	80.010	19.993	103.828	19.952	3.047	0.513
458.500	303.379	80.009	19.993	103.827	19.949	3.202	0.513
459.000	303.669	80.007	19.993	103.826	19.951	3.121	0.523
459.500	303.848	80.009	19.993	103.824	19.952	2.985	0.502
460.000	304.099	80.010	19.993	103.824	19.948	3.313	0.450
460.500	304.387	80.009	19.993	103.823	19.948	3.268	0.485
461.000	304.618	80.009	19.993	103.823	19.948	3.324	0.529
461.500	304.860	80.007	19.993	103.823	19.948	3.296	0.496
462.000	305.079	80.007	19.994	103.824	19.947	3.345	0.467
462.500	305.364	80.007	19.993	103.824	19.947	3.396	0.483
463.000	305.615	80.008	19.994	103.825	19.948	3.260	0.521
463.500	305.855	80.008	19.993	103.826	19.951	3.083	0.514
464.000	306.117	80.008	19.993	103.826	19.950	3.122	0.496
464.500	306.349	80.008	19.994	103.826	19.950	3.190	0.497
465.000	306.604	80.008	19.995	103.825	19.949	3.230	0.490
465.500	306.857	80.007	19.993	103.825	19.951	3.107	0.498
466.000	307.139	80.007	19.993	103.825	19.949	3.239	0.522
466.500	307.359	80.006	19.993	103.824	19.954	2.904	0.518
467.000	307.603	80.008	19.994	103.825	19.947	3.375	0.483
467.500	307.878	80.007	19.994	103.825	19.950	3.134	0.492
468.000	308.138	80.009	19.994	103.824	19.950	3.177	0.527
468.500	308.387	80.008	19.993	103.824	19.949	3.194	0.522
469.000	308.660	80.009	19.994	103.825	19.952	3.051	0.516
469.500	308.863	80.007	19.994	103.826	19.952	3.036	0.500
470.000	309.130	80.008	19.994	103.827	19.953	2.945	0.473
470.500	309.409	80.006	19.993	103.827	19.955	2.825	0.508
471.000	309.642	80.007	19.994	103.827	19.955	2.799	0.529
471.500	309.901	80.008	19.994	103.827	19.952	2.994	0.502
472.000	310.126	80.008	19.995	103.826	19.952	3.041	0.488
472.500	310.368	80.009	19.994	103.828	19.954	2.910	0.476
473.000	310.642	80.008	19.995	103.828	19.952	3.000	0.492
473.500	310.916	80.008	19.994	103.828	19.952	3.049	0.532
474.000	311.137	80.008	19.994	103.827	19.952	3.004	0.522
474.500	311.399	80.007	19.995	103.827	19.950	3.170	0.489
475.000	311.640	80.008	19.994	103.825	19.952	3.038	0.493
475.500	311.905	80.009	19.994	103.825	19.952	3.006	0.504
476.000	312.159	80.009	19.994	103.825	19.952	3.028	0.512
476.500	312.410	80.010	19.994	103.825	19.953	2.972	0.512
477.000	312.688	80.009	19.994	103.824	19.950	3.177	0.517
477.500	312.934	80.009	19.993	103.824	19.953	2.927	0.526
478.000	313.193	80.009	19.993	103.824	19.953	2.919	0.515
478.500	313.455	80.009	19.993	103.824	19.952	3.025	0.513
479.000	313.699	80.009	19.992	103.823	19.952	3.004	0.513
479.500	313.963	80.010	19.995	103.824	19.949	3.252	0.507
480.000	314.230	80.009	19.994	103.825	19.952	3.051	0.520
480.500	314.472	80.010	19.993	103.825	19.951	3.072	0.520
481.000	314.732	80.011	19.994	103.825	19.953	2.947	0.505
481.500	314.961	80.010	19.993	103.826	19.950	3.122	0.495
482.000	315.237	80.010	19.994	103.826	19.953	2.955	0.497
482.500	315.455	80.009	19.994	103.825	19.954	2.847	0.499
483.000	315.739	80.009	19.992	103.825	19.948	3.284	0.498
483.500	316.000	80.011	19.994	103.824	19.947	3.373	0.523
484.000	316.248	80.010	19.993	103.824	19.948	3.284	0.527
484.500	316.495	80.010	19.993	103.824	19.950	3.168	0.502
485.000	316.768	80.009	19.994	103.824	19.947	3.331	0.507
485.500	316.997	80.009	19.993	103.824	19.946	3.450	0.511
486.000	317.254	80.008	19.994	103.824	19.950	3.149	0.494
486.500	317.499	80.009	19.994	103.821	19.948	3.318	0.494
487.000	317.749	80.006	19.993	103.820	19.949	3.241	0.498
487.500	317.950	80.008	19.993	103.821	19.947	3.397	0.473
488.000	318.229	80.008	19.993	103.821	19.947	3.360	0.466
488.500	318.468	80.008	19.993	103.823	19.947	3.382	0.499
489.000	318.721	80.007	19.993	103.827	19.949	3.249	0.505
489.500	318.990	80.008	19.994	103.828	19.947	3.378	0.507
490.000	319.242	80.009	19.994	103.824	19.946	3.424	0.521
490.500	319.476	80.007	19.995	103.822	19.945	3.518	0.503
491.000	319.766	80.008	19.994	103.822	19.948	3.284	0.506
491.500	320.009	80.008	19.994	103.822	19.948	3.299	0.529
492.000	320.266	80.007	19.994	103.822	19.944	3.563	0.516
492.500	320.543	80.010	19.994	103.825	19.946	3.426	0.517
493.000	320.734	80.007	19.994	103.826	19.943	3.661	0.501
493.500	320.979	80.008	19.993	103.825	19.944	3.538	0.452
494.000	321.232	80.007	19.995	103.824	19.945	3.476	0.467
494.500	321.494	80.008	19.995	103.823	19.943	3.625	0.507
495.000	321.720	80.006	19.994	103.823	19.944	3.582	0.501
495.500	321.995	80.010	19.994	103.823	19.947	3.329	0.494
496.000	322.245	80.007	19.994	103.824	19.947	3.375	0.513
496.500	322.483	80.006	19.993	103.825	19.947	3.397	0.507
497.000	322.707	80.006	19.994	103.826	19.945	3.507	0.475
497.500	322.955	80.008	19.994	103.826	19.948	3.281	0.467
498.000	323.197	80.007	19.994	103.826	19.946	3.405	0.481
498.500	323.454	80.008	19.994	103.827	19.947	3.362	0.495
499.000	323.724	80.009	19.995	103.825	19.945	3.527	0.513
499.500	323.962	80.007	19.994	103.823	19.947	3.398	0.517
500.000	324.245	80.009	19.994	103.821	19.945	3.527	0.515
500.500	324.471	80.007	19.994	103.819	19.943	3.661	0.515
501.000	324.705	80.011	19.994	103.819	19.944	3.588	0.485
501.500	324.962	80.009	19.993	103.820	19.946	3.416	0.475
502.000	325.213	80.009	19.993	103.822	19.946	3.422	0.499
502.500	325.467	80.008	19.994	103.823	19.948	3.288	0.507
503.000	325.756	80.008	19.994	103.824	19.949	3.209	0.524
503.500	325.998	80.009	19.994	103.822	19.946	3.444	0.537
504.000	326.250	80.008	19.994	103.820	19.949	3.205	0.512
504.500	326.464	80.011	19.993	103.817	19.947	3.335	0.480
505.000	326.728	80.009	19.993	103.816	19.949	3.243	0.472
505.500	326.940	80.010	19.994	103.817	19.948	3.284	0.478
506.000	327.224	80.010	19.993	103.818	19.943	3.606	0.486
506.500	327.469	80.010	19.994	103.818	19.947	3.384	0.512
507.000	327.720	80.009	19.992	103.822	19.946	3.435	0.512
507.500	327.927	80.009	19.993	103.825	19.945	3.473	0.477
508.000	328.194	80.010	19.993	103.825	19.946	3.414	0.466
508.500	328.433	80.006	19.994	103.826	19.946	3.444	0.490
509.000	328.701	80.010	19.991	103.827	19.947	3.365	0.506
509.500	328.972	80.011	19.992	103.828	19.943	3.648	0.523
510.000	329.184	80.010	19.993	103.827	19.944	3.550	0.511
510.500	329.496	80.011	19.992	103.828	19.944	3.586	0.504
511.000	329.752	80.008	19.993	103.827	19.944	3.569	0.546
511.500	329.959	80.009	19.992	103.828	19.946	3.446	0.516
512.000	330.249	80.010	19.992	103.827	19.946	3.403	0.480
512.500	330.512	80.010	19.992	103.826	19.948	3.314	0.525
513.000	330.682	80.010	19.992	103.825	19.946	3.410	0.493
513.500	330.971	80.008	19.993	103.825	19.946	3.429	0.446
514.000	331.193	80.008	19.994	103.825	19.946	3.402	0.485
514.500	331.488	80.010	19.992	103.824	19.946	3.423	0.514
515.000	331.732	80.009	19.993	103.820	19.946	3.455	0.528
515.500	331.993	80.009	19.993	103.818	19.945	3.521	0.522
516.000	332.218	80.009	19.993	103.814	19.944	3.557	0.496
516.500	332.489	80.008	19.992	103.813	19.946	3.467	0.491
517.000	332.757	80.008	19.992	103.813	19.944	3.563	0.517
517.500	333.024	80.007	19.993	103.817	19.946	3.459	0.537
518.000	333.252	80.010	19.993	103.820	19.943	3.636	0.515
518.500	333.507	80.007	19.994	103.824	19.946	3.454	0.489
519.000	333.799	80.008	19.993	103.824	19.945	3.527	0.515
519.500	334.007	80.008	19.993	103.825	19.945	3.505	0.523
520.000	334.318	80.008	19.993	103.824	19.945	3.499	0.509
520.500	334.530	80.008	19.992	103.825	19.946	3.452	0.521
521.000	334.780	80.008	19.993	103.824	19.946	3.443	0.492
521.500	335.065	80.007	19.994	103.824	19.943	3.618	0.499
522.000	335.291	80.008	19.993	103.823	19.945	3.471	0.523
522.500	335.549	80.008	19.993	103.823	19.950	3.162	0.498
523.000	335.782	80.008	19.993	103.823	19.949	3.237	0.487
523.500	336.031	80.010	19.993	103.818	19.945	3.512	0.486
524.000	336.305	80.008	19.994	103.812	19.947	3.380	0.502
524.500	336.558	80.009	19.993	103.808	19.948	3.311	0.525
525.000	336.811	80.008	19.993	103.805	19.942	3.687	0.517
525.500	337.052	80.010	19.993	103.805	19.940	3.827	0.501
526.000	337.337	80.008	19.994	103.807	19.945	3.521	0.510
526.500	337.556	80.008	19.994	103.808	19.945	3.491	0.514
527.000	337.833	80.007	19.993	103.810	19.946	3.463	0.500
527.500	338.085	80.008	19.993	103.813	19.948	3.324	0.513
528.000	338.335	80.008	19.995	103.813	19.947	3.359	0.515
528.500	338.583	80.008	19.993	103.815	19.947	3.359	0.500
529.000	338.827	80.009	19.993	103.820	19.947	3.371	0.495
529.500	339.064	80.009	19.994	103.821	19.944	3.561	0.487
530.000	339.338	80.011	19.993	103.820	19.945	3.495	0.496
530.500	339.580	80.007	19.993	103.820	19.949	3.194	0.513
531.000	339.843	80.009	19.994	103.821	19.944	3.537	0.510
531.500	340.099	80.007	19.994	103.822	19.945	3.533	0.512
532.000	340.351	80.008	19.993	103.822	19.946	3.440	0.514
532.500	340.615	80.007	19.993	103.824	19.947	3.391	0.512
533.000	340.869	80.007	19.993	103.823	19.945	3.487	0.517
533.500	341.128	80.009	19.993	103.822	19.944	3.548	0.515
534.000	341.391	80.007	19.993	103.822	19.948	3.305	0.518
534.500	341.611	80.007	19.993	103.822	19.949	3.247	0.503
535.000	341.882	80.008	19.994	103.823	19.945	3.486	0.487
535.500	342.145	80.009	19.994	103.825	19.945	3.493	0.512
536.000	342.394	80.009	19.994	103.825	19.946	3.465	0.523
536.500	342.689	80.008	19.995	103.819	19.943	3.635	0.528
537.000	342.902	80.009	19.993	103.817	19.947	3.373	0.526
537.500	343.139	80.011	19.993	103.814	19.946	3.458	0.479
538.000	343.371	80.008	19.992	103.813	19.943	3.637	0.460
538.500	343.643	80.009	19.993	103.813	19.944	3.591	0.486
539.000	343.873	80.007	19.992	103.816	19.945	3.529	0.503
539.500	344.152	80.010	19.994	103.817	19.949	3.230	0.505
540.000	344.344	80.009	19.994	103.820	19.948	3.309	0.490
540.500	344.663	80.011	19.994	103.820	19.941	3.749	0.491
541.000	344.885	80.008	19.994	103.822	19.944	3.565	0.526
541.500	345.157	80.007	19.993	103.824	19.945	3.486	0.517
542.000	345.415	80.009	19.993	103.820	19.943	3.610	0.512
542.500	345.668	80.009	19.992	103.813	19.942	3.689	0.520
543.000	345.940	80.008	19.993	103.811	19.944	3.565	0.518
543.500	346.225	80.007	19.993	103.811	19.943	3.644	0.541
544.000	346.458	80.008	19.994	103.808	19.947	3.345	0.537
544.500	346.720	80.009	19.994	103.812	19.947	3.377	0.507
545.000	346.982	80.009	19.993	103.816	19.947	3.395	0.510
545.500	347.192	80.009	19.994	103.818	19.945	3.495	0.498
546.000	347.460	80.008	19.993	103.818	19.948	3.316	0.475
546.500	347.700	80.009	19.992	103.821	19.945	3.488	0.493
547.000	347.991	80.007	19.992	103.822	19.946	3.421	0.520
547.500	348.210	80.006	19.993	103.825	19.946	3.463	0.521
548.000	348.458	80.007	19.993	103.825	19.944	3.551	0.488
548.500	348.730	80.008	19.993	103.826	19.943	3.625	0.493
549.000	348.961	80.007	19.993	103.825	19.944	3.604	0.511
549.500	349.215	80.007	19.993	103.823	19.944	3.544	0.494
550.000	349.473	80.008	19.995	103.821	19.946	3.410	0.499
550.500	349.745	80.007	19.992	103.820	19.944	3.542	0.521
551.000	349.969	80.009	19.993	103.820	19.944	3.543	0.513
551.500	350.213	80.007	19.992	103.819	19.944	3.547	0.482
552.000	350.491	80.009	19.993	103.819	19.943	3.664	0.495
552.500	350.746	80.009	19.992	103.822	19.941	3.764	0.527
553.000	350.978	80.008	19.992	103.823	19.942	3.680	0.510
553.500	351.280	80.009	19.992	103.824	19.942	3.734	0.511
554.000	351.486	80.007	19.992	103.827	19.942	3.677	0.522
554.500	351.724	80.008	19.992	103.829	19.942	3.702	0.476
555.000	351.995	80.009	19.994	103.823	19.946	3.436	0.476
555.500	352.265	80.008	19.994	103.823	19.943	3.632	0.525
556.000	352.547	80.008	19.993	103.823	19.945	3.513	0.547
556.500	352.775	80.009	19.993	103.822	19.939	3.885	0.531
557.000	353.004	80.008	19.992	103.819	19.945	3.502	0.483
557.500	353.318	80.008	19.994	103.818	19.942	3.710	0.500
558.000	353.602	80.009	19.992	103.811	19.942	3.693	0.571
558.500	353.845	80.008	19.993	103.806	19.944	3.604	0.563
559.000	354.080	80.009	19.993	103.804	19.943	3.655	0.503
559.500	354.313	80.012	19.994	103.804	19.946	3.435	0.473
560.000	354.569	80.008	19.994	103.805	19.944	3.561	0.478
560.500	354.842	80.011	19.994	103.804	19.946	3.463	0.509
561.000	355.078	80.010	19.993	103.803	19.943	3.625	0.519
561.500	355.326	80.010	19.994	103.800	19.942	3.714	0.497
562.000	355.562	80.010	19.993	103.800	19.943	3.652	0.484
562.500	355.810	80.013	19.993	103.804	19.943	3.659	0.484
563.000	356.085	80.011	19.994	103.809	19.943	3.635	0.504
563.500	356.344	80.008	19.993	103.815	19.937	4.058	0.529
564.000	356.607	80.010	19.995	103.816	19.939	3.902	0.528
564.500	356.837	80.008	19.994	103.815	19.941	3.751	0.507
565.000	357.070	80.010	19.994	103.808	19.943	3.623	0.478
565.500	357.351	80.010	19.993	103.803	19.940	3.832	0.489
566.000	357.596	80.007	19.993	103.799	19.940	3.867	0.521
566.500	357.833	80.009	19.993	103.800	19.943	3.649	0.504
567.000	358.098	80.009	19.995	103.804	19.940	3.830	0.492
567.500	358.365	80.009	19.993	103.808	19.941	3.749	0.517
568.000	358.625	80.009	19.993	103.812	19.941	3.759	0.530
568.500	358.866	80.007	19.994	103.817	19.943	3.640	0.514
569.000	359.115	80.010	19.994	103.820	19.941	3.753	0.495
569.500	359.361	80.010	19.993	103.819	19.940	3.817	0.493
570.000	359.636	80.009	19.994	103.819	19.938	3.975	0.508
570.500	359.879	80.010	19.994	103.820	19.941	3.790	0.519
571.000	360.127	80.010	19.994	103.818	19.941	3.777	0.504
571.500	360.375	80.009	19.993	103.816	19.941	3.773	0.494
572.000	360.671	80.010	19.994	103.817	19.941	3.762	0.520
572.500	360.870	80.010	19.994	103.822	19.943	3.615	0.519
573.000	361.147	80.009	19.993	103.823	19.942	3.675	0.485
573.500	361.395	80.009	19.993	103.823	19.940	3.837	0.501
574.000	361.662	80.010	19.993	103.821	19.944	3.564	0.520
574.500	361.908	80.008	19.993	103.818	19.944	3.583	0.514
575.000	362.170	80.012	19.993	103.811	19.948	3.325	0.510
575.500	362.396	80.009	19.995	103.808	19.940	3.812	0.498
576.000	362.670	80.008	19.993	103.803	19.945	3.517	0.495
576.500	362.921	80.010	19.994	103.802	19.942	3.689	0.513
577.000	363.137	80.008	19.992	103.804	19.943	3.636	0.496
577.500	363.408	80.010	19.993	103.808	19.942	3.687	0.477
578.000	363.640	80.008	19.993	103.812	19.944	3.595	0.495
578.500	363.893	80.008	19.994	103.815	19.943	3.617	0.494
579.000	364.163	80.011	19.994	103.818	19.940	3.837	0.504
579.500	364.397	80.009	19.993	103.814	19.943	3.670	0.514
580.000	364.646	80.009	19.993	103.811	19.939	3.888	0.494
580.500	364.876	80.009	19.993	103.806	19.941	3.756	0.481
581.000	365.185	80.008	19.993	103.803	19.942	3.704	0.509
581.500	365.406	80.009	19.993	103.799	19.944	3.593	0.535
582.000	365.663	80.007	19.993	103.803	19.942	3.730	0.504
582.500	365.897	80.010	19.993	103.805	19.939	3.890	0.484
583.000	366.195	80.010	19.992	103.805	19.942	3.724	0.512
583.500	366.403	80.008	19.993	103.802	19.942	3.743	0.519
584.000	366.660	80.009	19.994	103.801	19.942	3.713	0.485
584.500	366.924	80.008	19.993	103.795	19.944	3.596	0.493
585.000	367.163	80.011	19.995	103.790	19.940	3.831	0.512
585.500	367.421	80.008	19.993	103.788	19.945	3.511	0.500
586.000	367.698	80.011	19.994	103.791	19.944	3.566	0.516
586.500	367.907	80.011	19.994	103.794	19.944	3.588	0.511
587.000	368.161	80.009	19.993	103.799	19.938	3.978	0.474
587.500	368.434	80.008	19.994	103.804	19.942	3.722	0.495
588.000	368.684	80.010	19.993	103.808	19.941	3.749	0.526
588.500	368.961	80.012	19.993	103.808	19.943	3.672	0.525
589.000	369.217	80.011	19.994	103.806	19.939	3.901	0.530
589.500	369.492	80.012	19.993	103.801	19.941	3.755	0.532
590.000	369.740	80.012	19.992	103.798	19.942	3.712	0.527
590.500	369.915	80.013	19.994	103.799	19.943	3.672	0.473
591.000	370.184	80.011	19.994	103.802	19.939	3.894	0.434
591.500	370.441	80.011	19.993	103.805	19.943	3.628	0.485
592.000	370.694	80.010	19.995	103.812	19.943	3.623	0.518
592.500	370.963	80.012	19.994	103.815	19.938	3.984	0.515
593.000	371.206	80.011	19.993	103.815	19.941	3.796	0.517
593.500	371.418	80.011	19.994	103.810	19.938	3.973	0.484
594.000	371.684	80.011	19.994	103.808	19.941	3.781	0.467
594.500	371.928	80.011	19.994	103.807	19.940	3.869	0.494
595.000	372.199	80.009	19.994	103.805	19.940	3.869	0.512
595.500	372.455	80.010	19.994	103.800	19.941	3.779	0.521
596.000	372.713	80.010	19.994	103.797	19.939	3.896	0.521
596.500	372.957	80.010	19.993	103.794	19.942	3.694	0.508
597.000	373.218	80.009	19.994	103.789	19.939	3.920	0.503
597.500	373.478	80.009	19.994	103.791	19.941	3.800	0.513
598.000	373.700	80.009	19.994	103.792	19.941	3.766	0.502
598.500	373.941	80.008	19.995	103.793	19.942	3.728	0.473
599.000	374.210	80.009	19.992	103.797	19.942	3.681	0.486
599.500	374.478	80.008	19.995	103.800	19.938	4.014	0.523
600.000	374.700	80.008	19.995	103.803	19.941	3.768	0.514
600.500	374.968	80.010	19.994	103.810	19.941	3.751	0.490
601.000	375.194	80.010	19.995	103.816	19.942	3.722	0.492
601.500	375.452	80.010	19.994	103.815	19.939	3.903	0.488
602.000	375.692	80.010	19.994	103.811	19.940	3.852	0.491
602.500	375.976	80.010	19.994	103.809	19.942	3.694	0.511
603.000	376.179	80.009	19.994	103.805	19.941	3.758	0.506
603.500	376.464	80.009	19.995	103.803	19.940	3.862	0.487
604.000	376.709	80.009	19.995	103.807	19.941	3.796	0.509
604.500	376.933	80.009	19.993	103.810	19.942	3.704	0.500
605.000	377.230	80.009	19.994	103.809	19.938	4.013	0.495
605.500	377.441	80.009	19.994	103.806	19.943	3.664	0.514
606.000	377.713	80.009	19.994	103.804	19.939	3.905	0.496
606.500	377.947	80.008	19.993	103.801	19.943	3.668	0.495
607.000	378.240	80.010	19.994	103.802	19.938	3.956	0.516
607.500	378.445	80.009	19.993	103.803	19.940	3.875	0.513
608.000	378.700	80.010	19.994	103.806	19.939	3.901	0.480
608.500	378.961	80.009	19.993	103.806	19.940	3.854	0.488
609.000	379.194	80.010	19.993	103.807	19.937	4.037	0.505
609.500	379.469	80.008	19.993	103.808	19.938	3.967	0.501
610.000	379.722	80.009	19.993	103.808	19.934	4.234	0.517
610.500	379.959	80.009	19.994	103.807	19.936	4.093	0.509
611.000	380.238	80.009	19.992	103.806	19.937	4.067	0.504
611.500	380.476	80.009	19.993	103.803	19.935	4.201	0.517
612.000	380.750	80.007	19.993	103.797	19.937	4.029	0.514
612.500	380.972	80.009	19.993	103.794	19.934	4.266	0.504
613.000	381.223	80.010	19.993	103.793	19.938	3.993	0.484
613.500	381.442	80.009	19.993	103.793	19.936	4.089	0.471
614.000	381.727	80.009	19.993	103.793	19.938	3.978	0.487
614.500	381.974	80.007	19.993	103.796	19.940	3.867	0.518
615.000	382.250	80.009	19.992	103.801	19.938	3.993	0.527
615.500	382.470	80.007	19.994	103.803	19.938	3.984	0.510
616.000	382.763	80.008	19.993	103.807	19.937	4.082	0.505
616.500	382.993	80.009	19.992	103.809	19.935	4.201	0.518
617.000	383.239	80.009	19.992	103.805	19.937	4.048	0.499
617.500	383.504	80.009	19.992	103.800	19.936	4.146	0.494
618.000	383.755	80.009	19.994	103.797	19.935	4.195	0.514
618.500	384.051	80.007	19.993	103.793	19.935	4.166	0.531
619.000	384.243	80.009	19.994	103.793	19.936	4.140	0.517
619.500	384.541	80.009	19.993	103.796	19.937	4.057	0.489
620.000	384.790	80.009	19.993	103.796	19.936	4.104	0.519
620.500	385.028	80.007	19.994	103.796	19.935	4.170	0.517
621.000	385.250	80.009	19.993	103.798	19.934	4.229	0.473
621.500	385.532	80.006	19.994	103.804	19.936	4.118	0.482
622.000	385.770	80.009	19.993	103.803	19.935	4.195	0.512
622.500	386.052	80.010	19.993	103.804	19.937	4.086	0.520
623.000	386.279	80.010	19.992	103.803	19.937	4.045	0.515
623.500	386.489	80.009	19.993	103.800	19.939	3.930	0.474
624.000	386.725	80.009	19.993	103.794	19.937	4.076	0.441
624.500	387.003	80.008	19.993	103.790	19.937	4.024	0.480
625.000	387.264	80.008	19.993	103.791	19.937	4.059	0.527
625.500	387.496	80.007	19.993	103.796	19.934	4.272	0.516
626.000	387.744	80.007	19.993	103.798	19.935	4.197	0.486
626.500	388.017	80.009	19.992	103.799	19.935	4.223	0.501
627.000	388.255	80.009	19.993	103.800	19.937	4.080	0.517
627.500	388.506	80.008	19.993	103.800	19.934	4.234	0.500
628.000	388.754	80.008	19.994	103.795	19.936	4.095	0.494
628.500	389.048	80.006	19.993	103.794	19.937	4.028	0.520
629.000	389.267	80.009	19.994	103.794	19.934	4.289	0.528
629.500	389.536	80.008	19.993	103.793	19.933	4.337	0.500
630.000	389.770	80.008	19.993	103.794	19.936	4.158	0.495
630.500	390.017	80.007	19.994	103.794	19.937	4.071	0.492
631.000	390.313	80.009	19.994	103.795	19.938	4.001	0.512
631.500	390.469	80.009	19.993	103.795	19.937	4.086	0.497
632.000	390.762	80.010	19.993	103.798	19.940	3.872	0.450
632.500	390.999	80.008	19.993	103.804	19.936	4.120	0.490
633.000	391.282	80.006	19.993	103.807	19.935	4.167	0.526
633.500	391.508	80.008	19.993	103.809	19.934	4.286	0.514
634.000	391.751	80.007	19.993	103.811	19.942	3.725	0.489
634.500	392.065	80.008	19.993	103.807	19.934	4.284	0.513
635.000	392.327	80.007	19.993	103.800	19.936	4.141	0.566
635.500	392.523	80.008	19.993	103.799	19.937	4.041	0.517
636.000	392.802	80.008	19.993	103.797	19.938	4.010	0.467
636.500	393.031	80.008	19.993	103.796	19.936	4.108	0.491
637.000	393.343	80.008	19.992	103.798	19.938	4.016	0.525
637.500	393.571	80.008	19.993	103.798	19.928	4.688	0.541
638.000	393.833	80.009	19.992	103.797	19.943	3.621	0.515
638.500	394.080	80.007	19.994	103.797	19.932	4.376	0.499
639.000	394.330	80.009	19.992	103.802	19.939	3.909	0.503
639.500	394.634	80.009	19.992	103.806	19.934	4.281	0.526
640.000	394.894	80.007	19.993	103.808	19.942	3.686	0.559
640.500	395.150	80.009	19.992	103.812	19.941	3.771	0.540
641.000	395.398	80.008	19.993	103.815	19.935	4.186	0.510
641.500	395.632	80.009	19.992	103.812	19.938	3.958	0.493
642.000	395.890	80.009	19.992	103.810	19.943	3.654	0.487
642.500	396.134	80.010	19.993	103.812	19.935	4.206	0.497
643.000	396.361	80.009	19.992	103.815	19.936	4.110	0.486
643.500	396.707	80.008	19.993	103.817	19.937	4.085	0.521
644.000	396.909	80.009	19.993	103.819	19.935	4.227	0.560
644.500	397.119	80.009	19.993	103.818	19.939	3.937	0.480
645.000	397.370	80.008	19.993	103.815	19.935	4.168	0.437
645.500	397.639	80.009	19.993	103.814	19.934	4.228	0.491
646.000	397.902	80.011	19.993	103.809	19.938	3.952	0.526
646.500	398.205	80.010	19.993	103.803	19.935	4.172	0.549
647.000	398.463	80.008	19.992	103.802	19.936	4.155	0.563
647.500	398.623	80.010	19.992	103.805	19.935	4.170	0.489
648.000	399.025	80.010	19.993	103.804	19.935	4.174	0.490
648.500	399.116	80.011	19.992	103.802	19.934	4.276	0.528
649.000	399.563	80.011	19.993	103.802	19.933	4.329	0.515
649.500	399.723	80.009	19.992	103.801	19.933	4.340	0.572
650.000	399.937	80.008	19.992	103.796	19.934	4.237	0.491
650.500	400.198	80.010	19.993	103.797	19.935	4.193	0.424
651.000	400.440	80.009	19.992	103.798	19.936	4.143	0.488
651.500	400.547	80.011	19.993	103.798	19.934	4.261	0.426
652.000	401.181	80.010	19.993	103.801	19.932	4.366	0.545
652.500	400.960	80.011	19.993	103.801	19.934	4.285	0.578
653.000	401.603	80.011	19.993	103.795	19.934	4.270	0.418
653.500	401.647	80.010	19.993	103.794	19.932	4.430	0.554
654.000	402.280	80.009	19.993	103.795	19.933	4.302	0.682
654.500	402.479	80.010	19.993	103.792	19.932	4.411	0.754
655.000	402.495	80.011	19.993	103.792	19.933	4.317	0.523
655.500	402.589	80.008	19.993	103.791	19.931	4.486	0.163
656.000	403.352	80.009	19.993	103.789	19.932	4.404	0.483
656.500	403.199	80.008	19.993	103.789	19.934	4.263	0.733
657.000	403.458	80.009	19.993	103.795	19.931	4.455	0.358
657.500	403.815	80.008	19.993	103.795	19.932	4.379	0.361
658.000	404.052	80.009	19.993	103.795	19.937	4.052	0.605
658.500	404.372	80.007	19.993	103.800	19.935	4.189	0.575
659.000	404.504	80.009	19.992	103.800	19.934	4.240	0.505
659.500	404.765	80.020	19.996	103.797	19.934	4.242	0.423
660.000	405.078	80.020	19.996	103.803	19.934	4.296	0.484
660.500	405.379	80.016	19.996	103.810	19.935	4.170	0.594
661.000	405.444	80.012	19.995	103.810	19.933	4.309	0.490
661.500	405.878	80.008	19.995	103.810	19.934	4.292	0.432
662.000	406.041	80.007	19.994	103.810	19.933	4.336	0.548
662.500	406.243	80.011	19.994	103.806	19.936	4.144	0.481
663.000	406.633	80.008	19.995	103.803	19.935	4.195	0.479
663.500	406.848	80.010	19.993	103.800	19.937	4.050	0.599
664.000	407.030	80.009	19.994	103.799	19.935	4.171	0.501
664.500	407.289	80.008	19.994	103.796	19.940	3.841	0.419
665.000	407.620	80.009	19.993	103.792	19.938	4.018	0.516
665.500	407.741	80.008	19.993	103.787	19.936	4.110	0.521
666.000	408.054	80.010	19.993	103.789	19.935	4.163	0.443
666.500	408.360	80.010	19.994	103.789	19.934	4.251	0.526
667.000	408.547	80.010	19.995	103.792	19.938	3.991	0.556
667.500	408.787	80.009	19.994	103.797	19.939	3.904	0.460
668.000	409.115	80.009	19.994	103.800	19.940	3.829	0.498
668.500	409.234	80.010	19.993	103.797	19.936	4.117	0.508
669.000	409.590	80.010	19.993	103.800	19.935	4.196	0.461
669.500	409.833	80.011	19.993	103.799	19.939	3.927	0.537
670.000	410.077	80.011	19.994	103.793	19.938	3.965	0.543
670.500	410.346	80.012	19.994	103.792	19.937	4.070	0.500
671.000	410.607	80.011	19.994	103.790	19.935	4.187	0.522
671.500	410.864	80.010	19.993	103.787	19.934	4.236	0.524
672.000	411.101	80.012	19.994	103.786	19.937	4.048	0.506
672.500	411.301	80.012	19.993	103.786	19.936	4.153	0.465
673.000	411.532	80.012	19.993	103.788	19.936	4.127	0.433
673.500	411.855	80.012	19.993	103.790	19.939	3.946	0.492
674.000	412.057	80.010	19.994	103.797	19.935	4.202	0.540
674.500	412.379	80.012	19.994	103.803	19.934	4.276	0.525
675.000	412.633	80.011	19.992	103.805	19.934	4.272	0.550
675.500	412.839	80.011	19.994	103.803	19.935	4.180	0.518
676.000	413.114	80.010	19.993	103.803	19.938	4.020	0.471
676.500	413.376	80.011	19.992	103.798	19.935	4.180	0.509
677.000	413.580	80.011	19.993	103.792	19.935	4.195	0.501
677.500	413.873	80.011	19.993	103.790	19.937	4.084	0.482
678.000	414.122	80.010	19.994	103.789	19.934	4.240	0.520
678.500	414.362	80.009	19.994	103.786	19.932	4.398	0.516
679.000	414.621	80.011	19.993	103.786	19.938	3.991	0.494
679.500	414.878	80.010	19.994	103.787	19.935	4.183	0.507
680.000	415.113	80.009	19.994	103.788	19.932	4.387	0.503
680.500	415.368	80.010	19.994	103.791	19.936	4.116	0.491
681.000	415.594	80.009	19.994	103.794	19.933	4.313	0.486
681.500	415.859	80.009	19.993	103.794	19.935	4.170	0.486
682.000	416.129	80.009	19.993	103.793	19.934	4.247	0.513
682.500	416.394	80.007	19.993	103.794	19.933	4.349	0.535
683.000	416.647	80.008	19.994	103.794	19.932	4.418	0.527
683.500	416.878	80.008	19.994	103.796	19.933	4.353	0.501
684.000	417.159	80.007	19.993	103.798	19.934	4.260	0.498
684.500	417.337	80.008	19.993	103.798	19.930	4.550	0.485
685.000	417.636	80.008	19.995	103.799	19.934	4.260	0.468
685.500	417.863	80.007	19.995	103.796	19.931	4.468	0.502
686.000	418.167	80.008	19.995	103.796	19.933	4.315	0.529
686.500	418.400	80.008	19.994	103.799	19.931	4.469	0.534
687.000	418.648	80.008	19.994	103.800	19.932	4.434	0.509
687.500	418.907	80.009	19.994	103.798	19.933	4.339	0.494
688.000	419.162	80.007	19.995	103.799	19.934	4.285	0.510
688.500	419.385	80.009	19.994	103.797	19.934	4.244	0.496
689.000	419.664	80.007	19.993	103.792	19.935	4.215	0.490
689.500	419.901	80.008	19.995	103.792	19.934	4.232	0.509
690.000	420.199	80.007	19.994	103.792	19.932	4.366	0.525
690.500	420.412	80.007	19.995	103.793	19.934	4.262	0.523
691.000	420.692	80.007	19.993	103.793	19.935	4.221	0.502
691.500	420.925	80.007	19.994	103.793	19.932	4.366	0.503
692.000	421.209	80.007	19.994	103.792	19.929	4.595	0.515
692.500	421.430	80.006	19.995	103.792	19.934	4.255	0.511
693.000	421.688	80.008	19.995	103.790	19.936	4.121	0.492
693.500	421.946	80.008	19.995	103.789	19.935	4.200	0.497
694.000	422.210	80.007	19.995	103.788	19.933	4.342	0.519
694.500	422.485	80.009	19.994	103.789	19.936	4.154	0.531
695.000	422.667	80.009	19.995	103.791	19.935	4.159	0.498
695.500	422.927	80.009	19.993	103.792	19.932	4.415	0.450
696.000	423.204	80.009	19.993	103.792	19.935	4.193	0.490
696.500	423.467	80.009	19.994	103.792	19.935	4.186	0.538
697.000	423.719	80.008	19.993	103.790	19.933	4.355	0.528
697.500	423.957	80.007	19.993	103.789	19.934	4.289	0.503
698.000	424.220	80.009	19.993	103.790	19.934	4.284	0.495
698.500	424.462	80.007	19.994	103.790	19.938	4.011	0.503
699.000	424.712	80.008	19.993	103.791	19.932	4.372	0.498
699.500	424.957	80.007	19.993	103.794	19.932	4.415	0.494
700.000	425.240	80.008	19.992	103.795	19.933	4.346	0.512
700.500	425.529	80.008	19.993	103.795	19.931	4.465	0.550
701.000	425.717	80.009	19.993	103.795	19.932	4.415	0.524
701.500	425.995	80.008	19.993	103.794	19.932	4.378	0.472
702.000	426.223	80.008	19.993	103.792	19.928	4.707	0.486
702.500	426.512	80.008	19.993	103.791	19.930	4.545	0.511
703.000	426.766	80.008	19.993	103.790	19.930	4.569	0.530
703.500	427.037	80.009	19.993	103.791	19.932	4.398	0.534
704.000	427.277	80.009	19.992	103.794	19.930	4.553	0.518
704.500	427.552	80.008	19.992	103.797	19.929	4.611	0.513
705.000	427.777	80.011	19.992	103.798	19.932	4.432	0.508
705.500	428.071	80.008	19.992	103.802	19.931	4.453	0.509
706.000	428.301	80.007	19.992	103.806	19.932	4.383	0.521
706.500	428.549	80.010	19.992	103.805	19.933	4.364	0.501
707.000	428.818	80.008	19.993	103.803	19.933	4.364	0.498
707.500	429.089	80.009	19.992	103.806	19.931	4.441	0.529
708.000	429.319	80.008	19.992	103.806	19.935	4.211	0.521
708.500	429.628	80.011	19.993	103.805	19.931	4.496	0.520
709.000	429.866	80.009	19.992	103.806	19.931	4.439	0.543
709.500	430.113	80.009	19.993	103.812	19.932	4.432	0.516
710.000	430.351	80.007	19.993	103.809	19.933	4.319	0.485
710.500	430.642	80.007	19.992	103.806	19.931	4.496	0.507
711.000	430.890	80.009	19.992	103.807	19.933	4.319	0.534
711.500	431.154	80.009	19.993	103.809	19.930	4.554	0.526
712.000	431.395	80.007	19.992	103.804	19.932	4.405	0.508
712.500	431.635	80.009	19.993	103.805	19.931	4.486	0.492
713.000	431.896	80.009	19.992	103.803	19.931	4.479	0.491
713.500	432.159	80.010	19.992	103.798	19.929	4.577	0.513
714.000	432.397	80.008	19.993	103.796	19.932	4.396	0.512
714.500	432.680	80.007	19.992	103.799	19.930	4.533	0.511
715.000	432.928	80.008	19.993	103.797	19.929	4.575	0.526
715.500	433.183	80.009	19.992	103.797	19.929	4.637	0.517
716.000	433.482	80.007	19.993	103.799	19.929	4.635	0.528
716.500	433.725	80.007	19.993	103.798	19.933	4.340	0.548
717.000	433.953	80.008	19.993	103.793	19.932	4.430	0.507
717.500	434.218	80.011	19.994	103.793	19.930	4.539	0.482
718.000	434.529	80.007	19.992	103.793	19.929	4.583	0.534
718.500	434.770	80.008	19.993	103.791	19.930	4.543	0.564
719.000	435.026	80.008	19.991	103.788	19.931	4.501	0.524
719.500	435.297	80.008	19.994	103.788	19.931	4.445	0.512
720.000	435.551	80.007	19.994	103.789	19.932	4.386	0.526
720.500	435.811	80.008	19.993	103.790	19.932	4.411	0.520
721.000	436.049	80.008	19.994	103.791	19.928	4.708	0.506
721.500	436.323	80.009	19.993	103.792	19.933	4.341	0.505
722.000	436.595	80.008	19.994	103.792	19.932	4.394	0.529
722.500	436.888	80.009	19.993	103.790	19.931	4.443	0.555
723.000	437.093	80.010	19.992	103.789	19.931	4.494	0.532
723.500	437.368	80.009	19.994	103.788	19.928	4.669	0.489
724.000	437.612	80.009	19.994	103.787	19.932	4.383	0.500
724.500	437.882	80.010	19.994	103.786	19.930	4.563	0.516
725.000	438.137	80.010	19.993	103.786	19.931	4.501	0.519
725.500	438.428	80.009	19.993	103.786	19.930	4.531	0.535
726.000	438.638	80.008	19.993	103.787	19.933	4.302	0.523
726.500	438.919	80.010	19.994	103.789	19.930	4.513	0.496
727.000	439.147	80.008	19.993	103.792	19.931	4.503	0.500
727.500	439.444	80.008	19.993	103.794	19.932	4.420	0.517
728.000	439.677	80.012	19.993	103.795	19.930	4.556	0.527
728.500	439.920	80.009	19.993	103.795	19.930	4.522	0.503
729.000	440.195	80.011	19.993	103.794	19.929	4.592	0.497
729.500	440.429	80.011	19.993	103.791	19.930	4.528	0.513
730.000	440.725	80.010	19.993	103.789	19.925	4.866	0.520
730.500	440.956	80.013	19.994	103.788	19.930	4.531	0.529
731.000	441.260	80.012	19.993	103.787	19.930	4.563	0.531
731.500	441.473	80.010	19.992	103.787	19.928	4.661	0.526
732.000	441.733	80.011	19.994	103.786	19.929	4.639	0.495
732.500	442.013	80.011	19.993	103.787	19.930	4.541	0.507
733.000	442.248	80.011	19.992	103.787	19.931	4.458	0.527
733.500	442.526	80.011	19.992	103.787	19.932	4.405	0.514
734.000	442.789	80.013	19.992	103.786	19.933	4.364	0.527
734.500	443.009	80.011	19.992	103.785	19.929	4.614	0.512
735.000	443.299	80.011	19.993	103.784	19.928	4.650	0.497
735.500	443.532	80.009	19.993	103.784	19.927	4.716	0.516
736.000	443.780	80.012	19.993	103.785	19.930	4.531	0.501
736.500	444.059	80.010	19.993	103.786	19.931	4.441	0.504
737.000	444.309	80.013	19.993	103.786	19.929	4.578	0.528
737.500	444.541	80.010	19.993	103.787	19.931	4.465	0.505
738.000	444.825	80.010	19.992	103.786	19.932	4.432	0.499
738.500	445.090	80.010	19.993	103.786	19.930	4.516	0.533
739.000	445.324	80.009	19.993	103.785	19.930	4.511	0.524
739.500	445.599	80.011	19.993	103.785	19.929	4.575	0.504
740.000	445.856	80.011	19.994	103.785	19.932	4.428	0.521
740.500	446.113	80.008	19.992	103.785	19.932	4.396	0.523
741.000	446.335	80.010	19.994	103.785	19.930	4.562	0.496
741.500	446.575	80.010	19.993	103.785	19.934	4.287	0.471
742.000	446.858	80.011	19.993	103.785	19.931	4.501	0.492
742.500	447.106	80.008	19.992	103.786	19.931	4.435	0.527
743.000	447.389	80.010	19.992	103.786	19.929	4.582	0.531
743.500	447.599	80.010	19.993	103.785	19.933	4.302	0.512
744.000	447.872	80.010	19.993	103.785	19.930	4.520	0.489
744.500	448.135	80.010	19.992	103.785	19.934	4.296	0.510
745.000	448.383	80.010	19.994	103.785	19.933	4.354	0.524
745.500	448.651	80.009	19.993	103.785	19.931	4.460	0.514
746.000	448.903	80.010	19.992	103.785	19.933	4.360	0.518
746.500	449.186	80.009	19.993	103.786	19.931	4.492	0.527
747.000	449.419	80.010	19.993	103.786	19.930	4.541	0.525
747.500	449.688	80.011	19.992	103.786	19.932	4.420	0.509
748.000	449.911	80.012	19.993	103.787	19.932	4.401	0.497
748.500	450.154	80.010	19.993	103.787	19.933	4.326	0.479
749.000	450.421	80.010	19.994	103.786	19.932	4.375	0.488
749.500	450.686	80.011	19.993	103.785	19.931	4.482	0.521
750.000	450.921	80.011	19.993	103.784	19.931	4.467	0.516
750.500	451.174	80.009	19.993	103.784	19.934	4.281	0.494
751.000	451.444	80.010	19.992	103.785	19.933	4.343	0.506
751.500	451.676	80.010	19.992	103.785	19.933	4.345	0.512
752.000	451.962	80.010	19.993	103.788	19.932	4.367	0.510
752.500	452.188	80.011	19.993	103.789	19.936	4.136	0.515
753.000	452.443	80.010	19.992	103.789	19.930	4.518	0.496
753.500	452.725	80.010	19.993	103.788	19.932	4.392	0.509
754.000	452.963	80.010	19.993	103.789	19.932	4.422	0.528
754.500	453.199	80.010	19.993	103.787	19.933	4.326	0.497
755.000	453.454	80.010	19.993	103.787	19.934	4.296	0.483
755.500	453.724	80.013	19.993	103.787	19.931	4.482	0.508
756.000	453.964	80.009	19.993	103.787	19.932	4.379	0.517
756.500	454.238	80.011	19.992	103.788	19.931	4.458	0.512
757.000	454.479	80.013	19.993	103.789	19.933	4.358	0.515
757.500	454.723	80.011	19.992	103.788	19.937	4.046	0.500
758.000	454.986	80.013	19.992	103.788	19.936	4.108	0.496
758.500	455.245	80.012	19.993	103.788	19.935	4.213	0.515
759.000	455.515	80.012	19.993	103.787	19.936	4.116	0.526
759.500	455.767	80.011	19.994	103.787	19.935	4.172	0.526
760.000	455.972	80.011	19.993	103.787	19.934	4.268	0.489
760.500	456.213	80.011	19.994	103.787	19.933	4.355	0.451
761.000	456.498	80.011	19.993	103.787	19.938	4.004	0.486
761.500	456.759	80.011	19.994	103.785	19.937	4.042	0.536
762.000	457.004	80.012	19.993	103.785	19.935	4.204	0.526
762.500	457.268	80.010	19.994	103.784	19.934	4.234	0.508
763.000	457.510	80.011	19.994	103.784	19.932	4.405	0.507
763.500	457.754	80.009	19.992	103.784	19.935	4.187	0.496
764.000	458.009	80.010	19.994	103.785	19.936	4.106	0.492
764.500	458.287	80.011	19.993	103.785	19.935	4.211	0.516
765.000	458.517	80.009	19.994	103.786	19.934	4.234	0.521
765.500	458.763	80.008	19.992	103.786	19.933	4.315	0.492
766.000	459.063	80.007	19.992	103.787	19.935	4.194	0.511
766.500	459.312	80.008	19.993	103.787	19.935	4.206	0.547
767.000	459.556	80.009	19.993	103.787	19.933	4.317	0.521
767.500	459.817	80.008	19.993	103.787	19.933	4.356	0.499
768.000	460.069	80.007	19.993	103.787	19.933	4.305	0.509
768.500	460.302	80.008	19.993	103.787	19.931	4.441	0.499
769.000	460.602	80.006	19.992	103.788	19.932	4.394	0.509
769.500	460.825	80.007	19.993	103.791	19.934	4.264	0.528
770.000	461.103	80.008	19.993	103.792	19.931	4.464	0.512
770.500	461.355	80.009	19.992	103.792	19.931	4.499	0.516
771.000	461.620	80.008	19.994	103.792	19.933	4.321	0.524
771.500	461.858	80.008	19.994	103.792	19.934	4.256	0.510
772.000	462.134	80.008	19.994	103.790	19.932	4.401	0.509
772.500	462.361	80.007	19.993	103.788	19.933	4.309	0.508
773.000	462.652	80.008	19.993	103.788	19.933	4.334	0.510
773.500	462.889	80.008	19.993	103.788	19.933	4.360	0.523
774.000	463.135	80.008	19.993	103.788	19.932	4.371	0.506
774.500	463.411	80.007	19.992	103.788	19.934	4.260	0.503
775.000	463.655	80.010	19.992	103.788	19.934	4.251	0.521
775.500	463.879	80.007	19.994	103.789	19.932	4.398	0.494
776.000	464.173	80.009	19.993	103.788	19.932	4.371	0.493
776.500	464.398	80.007	19.993	103.789	19.935	4.202	0.518
777.000	464.649	80.008	19.993	103.788	19.932	4.418	0.498
777.500	464.937	80.007	19.994	103.789	19.931	4.441	0.508
778.000	465.205	80.007	19.993	103.788	19.935	4.177	0.547
778.500	465.443	80.008	19.994	103.788	19.936	4.151	0.531
779.000	465.657	80.008	19.992	103.787	19.934	4.275	0.479
779.500	465.950	80.008	19.995	103.786	19.937	4.083	0.479
780.000	466.202	80.008	19.994	103.788	19.934	4.228	0.526
780.500	466.447	80.009	19.996	103.789	19.937	4.077	0.521
781.000	466.714	80.009	19.995	103.788	19.938	3.989	0.505
781.500	466.993	80.008	19.995	103.789	19.936	4.096	0.529
782.000	467.214	80.007	19.995	103.788	19.937	4.023	0.523
782.500	467.473	80.007	19.994	103.786	19.935	4.192	0.490
783.000	467.712	80.006	19.994	103.785	19.938	3.982	0.488
783.500	467.971	80.009	19.994	103.784	19.938	3.955	0.498
784.000	468.252	80.008	19.994	103.784	19.937	4.051	0.519
784.500	468.512	80.009	19.995	103.784	19.935	4.183	0.541
785.000	468.778	80.009	19.994	103.783	19.936	4.117	0.533
785.500	469.055	80.008	19.994	103.783	19.936	4.119	0.535
786.000	469.290	80.008	19.994	103.784	19.938	3.991	0.528
786.500	469.553	80.011	19.994	103.784	19.937	4.030	0.505
787.000	469.822	80.009	19.994	103.784	19.936	4.096	0.515
787.500	470.087	80.009	19.995	103.784	19.934	4.275	0.532
788.000	470.348	80.008	19.995	103.783	19.934	4.268	0.530
788.500	470.620	80.009	19.995	103.782	19.936	4.100	0.530
789.000	470.868	80.010	19.994	103.781	19.939	3.891	0.527
789.500	471.139	80.009	19.994	103.781	19.934	4.255	0.520
790.000	471.372	80.008	19.994	103.782	19.936	4.134	0.511
790.500	471.650	80.009	19.994	103.782	19.936	4.117	0.508
791.000	471.920	80.008	19.994	103.782	19.937	4.044	0.530
791.500	472.172	80.009	19.995	103.782	19.935	4.166	0.535
792.000	472.434	80.008	19.994	103.782	19.939	3.893	0.518
792.500	472.714	80.010	19.994	103.781	19.940	3.861	0.528
793.000	472.950	80.008	19.994	103.782	19.935	4.177	0.529
793.500	473.240	80.008	19.994	103.783	19.940	3.820	0.521
794.000	473.493	80.008	19.995	103.783	19.935	4.183	0.535
794.500	473.796	80.008	19.994	103.783	19.938	3.987	0.549
795.000	474.030	80.010	19.993	103.783	19.937	4.061	0.546
795.500	474.287	80.009	19.993	103.782	19.938	3.999	0.514
796.000	474.566	80.007	19.994	103.780	19.933	4.341	0.514
796.500	474.866	80.008	19.993	103.781	19.936	4.134	0.558
797.000	475.141	80.009	19.994	103.781	19.936	4.125	0.576
797.500	475.374	80.008	19.994	103.781	19.938	3.976	0.541
798.000	475.620	80.008	19.993	103.782	19.938	4.002	0.494
798.500	475.909	80.009	19.994	103.784	19.938	3.959	0.507
799.000	476.132	80.009	19.993	103.784	19.938	3.974	0.524
799.500	476.419	80.009	19.992	103.784	19.940	3.827	0.511
800.000	476.694	80.008	19.993	103.785	19.939	3.897	0.536
800.500	476.939	80.008	19.992	103.784	19.941	3.790	0.541
801.000	477.235	80.009	19.994	103.784	19.938	3.957	0.530
801.500	477.461	80.009	19.993	103.784	19.940	3.827	0.531
802.000	477.746	80.009	19.994	103.785	19.940	3.859	0.517
802.500	478.005	80.009	19.994	103.784	19.942	3.707	0.528
803.000	478.262	80.008	19.993	103.785	19.941	3.746	0.530
803.500	478.496	80.008	19.995	103.786	19.941	3.801	0.503
804.000	478.784	80.009	19.993	103.786	19.942	3.714	0.506
804.500	479.089	80.009	19.993	103.786	19.940	3.852	0.558
805.000	479.323	80.008	19.993	103.786	19.940	3.863	0.566
805.500	479.560	80.009	19.994	103.787	19.942	3.731	0.505
806.000	479.829	80.010	19.993	103.786	19.941	3.795	0.488
806.500	480.102	80.009	19.993	103.786	19.942	3.737	0.524
807.000	480.385	80.009	19.993	103.785	19.941	3.765	0.550
807.500	480.660	80.010	19.993	103.784	19.941	3.778	0.557
808.000	480.899	80.009	19.993	103.784	19.941	3.750	0.536
808.500	481.135	80.010	19.993	103.784	19.940	3.833	0.494
809.000	481.430	80.010	19.993	103.787	19.941	3.788	0.503
809.500	481.656	80.008	19.992	103.790	19.940	3.831	0.526
810.000	481.944	80.011	19.993	103.790	19.941	3.771	0.518
810.500	482.183	80.010	19.993	103.791	19.941	3.759	0.520
811.000	482.480	80.009	19.994	103.790	19.943	3.607	0.531
811.500	482.747	80.008	19.993	103.787	19.942	3.709	0.550
812.000	482.964	80.010	19.993	103.785	19.942	3.714	0.524
812.500	483.228	80.012	19.994	103.785	19.943	3.645	0.483
813.000	483.508	80.009	19.993	103.786	19.939	3.893	0.512
813.500	483.790	80.009	19.993	103.786	19.944	3.545	0.553
814.000	484.026	80.011	19.993	103.787	19.944	3.541	0.539
814.500	484.302	80.009	19.992	103.787	19.942	3.688	0.515
815.000	484.578	80.012	19.993	103.785	19.947	3.347	0.533
815.500	484.841	80.011	19.992	103.783	19.948	3.262	0.546
816.000	485.078	80.011	19.992	103.783	19.945	3.499	0.519
816.500	485.359	80.010	19.993	103.784	19.946	3.437	0.509
817.000	485.622	80.010	19.993	103.784	19.947	3.356	0.531
817.500	485.901	80.009	19.993	103.785	19.947	3.385	0.543
818.000	486.190	80.010	19.993	103.787	19.947	3.374	0.555
818.500	486.395	80.010	19.993	103.787	19.941	3.744	0.531
819.000	486.680	80.009	19.993	103.786	19.947	3.345	0.492
819.500	486.915	80.010	19.993	103.786	19.951	3.097	0.505
820.000	487.187	80.010	19.993	103.786	19.947	3.362	0.514
820.500	487.435	80.008	19.992	103.786	19.945	3.488	0.514
821.000	487.710	80.009	19.994	103.786	19.946	3.440	0.521
821.500	487.955	80.010	19.994	103.787	19.947	3.334	0.521
822.000	488.237	80.009	19.992	103.787	19.948	3.315	0.523
822.500	488.447	80.011	19.993	103.787	19.948	3.298	0.510
823.000	488.748	80.010	19.994	103.786	19.950	3.144	0.502
823.500	489.018	80.009	19.993	103.783	19.949	3.200	0.541
824.000	489.228	80.009	19.993	103.783	19.945	3.473	0.526
824.500	489.544	80.010	19.992	103.780	19.946	3.420	0.503
825.000	489.788	80.009	19.993	103.780	19.943	3.660	0.543
825.500	490.036	80.010	19.993	103.781	19.946	3.413	0.526
826.000	490.306	80.009	19.993	103.782	19.946	3.460	0.505
826.500	490.554	80.010	19.993	103.777	19.947	3.345	0.518
827.000	490.821	80.009	19.993	103.779	19.945	3.487	0.517
827.500	491.095	80.010	19.992	103.779	19.945	3.470	0.528
828.000	491.346	80.008	19.992	103.779	19.944	3.590	0.533
828.500	491.623	80.010	19.993	103.781	19.945	3.477	0.527
829.000	491.877	80.010	19.993	103.786	19.949	3.212	0.529
829.500	492.116	80.010	19.993	103.787	19.949	3.198	0.512
830.000	492.380	80.010	19.993	103.787	19.948	3.324	0.498
830.500	492.637	80.010	19.994	103.788	19.950	3.127	0.512
831.000	492.894	80.011	19.993	103.788	19.948	3.304	0.518
831.500	493.197	80.009	19.993	103.788	19.950	3.189	0.537
832.000	493.422	80.009	19.992	103.788	19.946	3.409	0.544
832.500	493.707	80.009	19.992	103.788	19.947	3.357	0.519
833.000	493.971	80.008	19.992	103.788	19.948	3.289	0.530
833.500	494.215	80.011	19.992	103.785	19.948	3.304	0.528
834.000	494.508	80.010	19.991	103.783	19.951	3.110	0.522
834.500	494.740	80.011	19.993	103.782	19.948	3.289	0.531
835.000	494.982	80.010	19.993	103.782	19.951	3.095	0.499
835.500	495.267	80.010	19.992	103.781	19.949	3.210	0.501
836.000	495.519	80.012	19.992	103.781	19.951	3.112	0.532
836.500	495.817	80.012	19.993	103.785	19.948	3.281	0.544
837.000	496.034	80.011	19.992	103.785	19.947	3.377	0.532
837.500	496.279	80.010	19.994	103.787	19.952	3.018	0.488
838.000	496.569	80.011	19.992	103.791	19.947	3.336	0.499
838.500	496.810	80.012	19.992	103.793	19.948	3.292	0.533
839.000	497.050	80.010	19.990	103.787	19.945	3.492	0.506
839.500	497.314	80.011	19.995	103.784	19.948	3.319	0.492
840.000	497.571	80.011	19.994	103.782	19.951	3.102	0.512
840.500	497.828	80.011	19.993	103.779	19.950	3.179	0.518
841.000	498.103	80.012	19.992	103.778	19.948	3.275	0.523
841.500	498.374	80.010	19.993	103.784	19.949	3.221	0.539
842.000	498.604	80.012	19.992	103.788	19.950	3.187	0.523
842.500	498.868	80.010	19.992	103.785	19.948	3.258	0.497
843.000	499.129	80.011	19.992	103.786	19.951	3.089	0.510
843.500	499.436	80.011	19.993	103.784	19.947	3.334	0.547
844.000	499.650	80.011	19.992	103.782	19.948	3.302	0.544
844.500	499.903	80.012	19.993	103.779	19.949	3.253	0.494
845.000	500.162	80.010	19.992	103.779	19.950	3.127	0.489
845.500	500.427	80.012	19.993	103.779	19.952	3.044	0.518
846.000	500.682	80.010	19.992	103.780	19.948	3.308	0.522
846.500	500.947	80.010	19.992	103.781	19.946	3.447	0.520
847.000	501.190	80.010	19.993	103.782	19.947	3.392	0.514
847.500	501.464	80.009	19.994	103.783	19.947	3.343	0.513
848.000	501.708	80.008	19.992	103.782	19.946	3.432	0.518
848.500	501.957	80.009	19.993	103.781	19.947	3.377	0.505
849.000	502.231	80.009	19.993	103.780	19.947	3.388	0.508
849.500	502.505	80.008	19.993	103.778	19.948	3.311	0.535
850.000	502.731	80.008	19.993	103.778	19.950	3.136	0.524
850.500	502.985	80.008	19.992	103.777	19.949	3.253	0.490
851.000	503.239	80.009	19.993	103.772	19.945	3.486	0.494
851.500	503.520	80.008	19.992	103.770	19.948	3.268	0.522
852.000	503.731	80.009	19.993	103.772	19.948	3.274	0.514
852.500	504.013	80.009	19.994	103.773	19.947	3.366	0.493
853.000	504.253	80.008	19.993	103.772	19.948	3.291	0.507
853.500	504.494	80.008	19.993	103.776	19.949	3.251	0.502
854.000	504.757	80.008	19.994	103.776	19.952	3.046	0.493
854.500	505.043	80.008	19.993	103.776	19.950	3.151	0.526
855.000	505.247	80.008	19.994	103.776	19.951	3.055	0.519
855.500	505.493	80.007	19.993	103.780	19.950	3.162	0.470
856.000	505.784	80.008	19.993	103.782	19.949	3.200	0.494
856.500	505.999	80.008	19.993	103.785	19.947	3.332	0.522
857.000	506.294	80.008	19.993	103.784	19.947	3.362	0.508
857.500	506.518	80.008	19.995	103.779	19.948	3.324	0.515
858.000	506.758	80.009	19.994	103.777	19.950	3.129	0.492
858.500	506.990	80.008	19.993	103.776	19.950	3.189	0.468
859.000	507.289	80.009	19.993	103.776	19.947	3.341	0.501
859.500	507.521	80.009	19.994	103.777	19.947	3.388	0.531
860.000	507.752	80.008	19.993	103.780	19.950	3.179	0.497
860.500	508.023	80.009	19.994	103.781	19.946	3.400	0.482
861.000	508.245	80.008	19.994	103.780	19.949	3.215	0.497
861.500	508.521	80.009	19.994	103.778	19.947	3.364	0.496
862.000	508.761	80.007	19.993	103.780	19.949	3.206	0.507
862.500	509.030	80.008	19.994	103.781	19.948	3.279	0.512
863.000	509.238	80.009	19.993	103.782	19.948	3.285	0.493
863.500	509.517	80.009	19.993	103.784	19.948	3.287	0.482
864.000	509.776	80.010	19.992	103.786	19.951	3.074	0.513
864.500	510.008	80.008	19.993	103.786	19.950	3.185	0.515
865.000	510.265	80.010	19.993	103.786	19.949	3.221	0.490
865.500	510.521	80.009	19.993	103.783	19.948	3.287	0.501
866.000	510.739	80.009	19.993	103.777	19.948	3.288	0.493
866.500	511.032	80.009	19.993	103.772	19.949	3.256	0.492
867.000	511.266	80.010	19.994	103.769	19.952	3.038	0.519
867.500	511.517	80.011	19.994	103.768	19.951	3.115	0.507
868.000	511.776	80.010	19.994	103.771	19.948	3.290	0.498
868.500	512.017	80.009	19.993	103.777	19.951	3.062	0.505
869.000	512.303	80.009	19.993	103.782	19.949	3.190	0.513
869.500	512.521	80.009	19.993	103.784	19.950	3.170	0.515
870.000	512.746	80.010	19.992	103.781	19.951	3.119	0.474
870.500	512.981	80.010	19.993	103.781	19.950	3.168	0.451
871.000	513.247	80.010	19.994	103.777	19.950	3.170	0.480
871.500	513.471	80.009	19.993	103.774	19.948	3.281	0.495
872.000	513.750	80.009	19.993	103.774	19.950	3.168	0.497
872.500	514.002	80.009	19.993	103.777	19.947	3.358	0.517
873.000	514.275	80.010	19.993	103.773	19.949	3.211	0.528
873.500	514.529	80.010	19.993	103.775	19.949	3.191	0.526
874.000	514.789	80.009	19.993	103.773	19.948	3.285	0.521
874.500	515.024	80.009	19.993	103.773	19.949	3.221	0.505
875.000	515.287	80.010	19.994	103.771	19.950	3.187	0.496
875.500	515.513	80.008	19.993	103.772	19.949	3.236	0.493
876.000	515.818	80.008	19.994	103.772	19.948	3.298	0.510
876.500	516.048	80.009	19.993	103.776	19.950	3.134	0.533
877.000	516.271	80.009	19.994	103.773	19.951	3.072	0.494
877.500	516.537	80.009	19.993	103.773	19.951	3.093	0.471
878.000	516.788	80.009	19.994	103.774	19.952	2.999	0.503
878.500	517.060	80.008	19.994	103.773	19.949	3.230	0.520
879.000	517.321	80.008	19.994	103.768	19.949	3.197	0.528
879.500	517.563	80.008	19.993	103.769	19.952	3.025	0.518
880.000	517.817	80.008	19.994	103.767	19.950	3.123	0.500
880.500	518.063	80.007	19.994	103.770	19.949	3.219	0.498
881.000	518.287	80.007	19.994	103.773	19.950	3.121	0.485
881.500	518.547	80.007	19.993	103.777	19.953	2.950	0.477
882.000	518.809	80.007	19.994	103.776	19.951	3.106	0.503
882.500	519.078	80.007	19.994	103.779	19.948	3.264	0.527
883.000	519.344	80.007	19.994	103.780	19.949	3.198	0.533
883.500	519.570	80.008	19.994	103.777	19.951	3.087	0.513
884.000	519.787	80.008	19.994	103.777	19.946	3.456	0.467
884.500	520.078	80.008	19.994	103.783	19.946	3.436	0.475
885.000	520.326	80.008	19.993	103.785	19.949	3.225	0.524
885.500	520.550	80.008	19.994	103.784	19.947	3.339	0.506
886.000	520.801	80.005	19.994	103.787	19.947	3.345	0.474
886.500	521.067	80.007	19.993	103.786	19.948	3.287	0.496
887.000	521.304	80.006	19.994	103.786	19.950	3.134	0.510
887.500	521.596	80.008	19.994	103.785	19.947	3.368	0.515
888.000	521.795	80.007	19.994	103.786	19.948	3.268	0.510
888.500	522.043	80.009	19.995	103.785	19.951	3.068	0.469
889.000	522.347	80.007	19.994	103.784	19.950	3.170	0.499
889.500	522.568	80.009	19.994	103.784	19.949	3.242	0.538
890.000	522.846	80.008	19.994	103.783	19.950	3.148	0.512
890.500	523.074	80.008	19.993	103.783	19.948	3.321	0.502
891.000	523.340	80.008	19.994	103.783	19.949	3.208	0.500
891.500	523.612	80.008	19.994	103.780	19.947	3.381	0.516
892.000	523.884	80.008	19.993	103.779	19.946	3.432	0.541
892.500	524.096	80.009	19.994	103.777	19.945	3.469	0.514
893.000	524.353	80.009	19.994	103.778	19.947	3.373	0.476
893.500	524.636	80.009	19.993	103.778	19.948	3.292	0.504
894.000	524.873	80.010	19.993	103.783	19.945	3.526	0.530
894.500	525.151	80.009	19.993	103.784	19.945	3.488	0.517
895.000	525.383	80.009	19.992	103.785	19.946	3.452	0.513
895.500	525.647	80.008	19.993	103.785	19.944	3.567	0.503
896.000	525.918	80.010	19.993	103.780	19.950	3.150	0.516
896.500	526.138	80.010	19.992	103.778	19.947	3.342	0.513
897.000	526.382	80.010	19.992	103.777	19.949	3.257	0.477
897.500	526.642	80.009	19.992	103.777	19.946	3.407	0.484
898.000	526.920	80.011	19.993	103.774	19.946	3.421	0.521
898.500	527.133	80.009	19.992	103.774	19.948	3.319	0.515
899.000	527.438	80.008	19.991	103.775	19.950	3.183	0.504
899.500	527.694	80.009	19.994	103.777	19.945	3.507	0.539
900.000	527.958	80.010	19.994	103.779	19.947	3.347	0.541
900.500	528.179	80.009	19.993	103.784	19.947	3.368	0.503
901.000	528.458	80.010	19.993	103.789	19.946	3.458	0.493
901.500	528.717	80.009	19.993	103.789	19.944	3.539	0.519
902.000	528.979	80.009	19.992	103.788	19.944	3.590	0.529
902.500	529.255	80.009	19.993	103.787	19.943	3.631	0.530
903.000	529.498	80.010	19.993	103.786	19.947	3.349	0.528
903.500	529.754	80.010	19.992	103.784	19.945	3.531	0.509
904.000	530.007	80.009	19.992	103.778	19.945	3.528	0.504
904.500	530.268	80.008	19.992	103.774	19.946	3.443	0.512
905.000	530.559	80.010	19.992	103.774	19.946	3.415	0.533
905.500	530.793	80.009	19.993	103.775	19.945	3.481	0.538
906.000	531.064	80.010	19.992	103.777	19.946	3.441	0.515
906.500	531.333	80.009	19.993	103.782	19.944	3.556	0.522
907.000	531.587	80.008	19.993	103.787	19.946	3.424	0.531
907.500	531.821	80.009	19.992	103.788	19.942	3.723	0.505
908.000	532.098	80.009	19.993	103.785	19.943	3.644	0.500
908.500	532.339	80.010	19.993	103.786	19.947	3.383	0.515
909.000	532.630	80.009	19.993	103.786	19.947	3.345	0.525
909.500	532.882	80.009	19.994	103.783	19.946	3.411	0.537
910.000	533.146	80.009	19.992	103.781	19.947	3.337	0.529
910.500	533.413	80.010	19.992	103.783	19.945	3.520	0.524
911.000	533.677	80.009	19.992	103.783	19.948	3.311	0.531
911.500	533.883	80.009	19.993	103.783	19.947	3.373	0.500
912.000	534.144	80.010	19.994	103.785	19.948	3.300	0.469
912.500	534.468	80.010	19.993	103.783	19.948	3.272	0.526
913.000	534.731	80.010	19.992	103.782	19.947	3.332	0.586
913.500	534.951	80.009	19.993	103.778	19.948	3.270	0.535
914.000	535.219	80.009	19.992	103.775	19.948	3.281	0.485
914.500	535.481	80.009	19.992	103.773	19.949	3.217	0.509
915.000	535.739	80.011	19.993	103.777	19.946	3.399	0.525
915.500	535.977	80.011	19.995	103.776	19.948	3.288	0.508
916.000	536.254	80.010	19.994	103.779	19.948	3.270	0.506
916.500	536.499	80.009	19.995	103.781	19.948	3.275	0.519
917.000	536.810	80.010	19.993	103.781	19.947	3.349	0.539
917.500	537.024	80.010	19.993	103.778	19.949	3.253	0.540
918.000	537.298	80.010	19.993	103.780	19.947	3.385	0.506
918.500	537.595	80.011	19.994	103.777	19.949	3.229	0.529
919.000	537.827	80.011	19.993	103.775	19.949	3.245	0.550
919.500	538.065	80.010	19.993	103.773	19.949	3.253	0.499
920.000	538.322	80.011	19.993	103.773	19.950	3.148	0.482
920.500	538.596	80.012	19.994	103.769	19.948	3.266	0.513
921.000	538.856	80.011	19.993	103.770	19.948	3.288	0.533
921.500	539.113	80.011	19.993	103.772	19.949	3.239	0.526
922.000	539.366	80.013	19.993	103.776	19.948	3.258	0.514
922.500	539.656	80.012	19.994	103.776	19.948	3.301	0.527
923.000	539.918	80.013	19.992	103.779	19.951	3.094	0.547
923.500	540.166	80.012	19.993	103.775	19.948	3.320	0.531
924.000	540.435	80.012	19.992	103.771	19.950	3.156	0.514
924.500	540.690	80.011	19.992	103.770	19.950	3.141	0.520
925.000	540.923	80.011	19.994	103.769	19.947	3.377	0.506
925.500	541.206	80.012	19.992	103.768	19.948	3.311	0.502
926.000	541.450	80.010	19.993	103.773	19.949	3.213	0.522
926.500	541.721	80.010	19.993	103.775	19.949	3.215	0.521
927.000	541.971	80.011	19.993	103.776	19.950	3.151	0.518
927.500	542.259	80.011	19.992	103.778	19.945	3.490	0.529
928.000	542.501	80.011	19.993	103.781	19.948	3.279	0.534
928.500	542.769	80.011	19.993	103.782	19.952	3.019	0.520
929.000	543.057	80.010	19.994	103.783	19.948	3.279	0.533
929.500	543.288	80.009	19.992	103.783	19.947	3.367	0.537
930.000	543.545	80.010	19.992	103.784	19.946	3.425	0.503
930.500	543.787	80.009	19.992	103.783	19.949	3.245	0.494
931.000	544.024	80.010	19.993	103.783	19.951	3.109	0.489
931.500	544.311	80.009	19.992	103.777	19.948	3.295	0.501
932.000	544.554	80.009	19.992	103.775	19.948	3.318	0.527
932.500	544.814	80.008	19.993	103.772	19.948	3.265	0.517
933.000	545.058	80.009	19.993	103.769	19.950	3.145	0.504
933.500	545.309	80.008	19.994	103.769	19.950	3.174	0.500
934.000	545.610	80.009	19.993	103.770	19.952	2.993	0.523
934.500	545.859	80.008	19.992	103.767	19.949	3.226	0.551
935.000	546.145	80.008	19.993	103.766	19.950	3.155	0.543
935.500	546.345	80.009	19.992	103.767	19.952	2.991	0.511
936.000	546.595	80.007	19.992	103.768	19.949	3.247	0.468
936.500	546.869	80.008	19.992	103.772	19.950	3.156	0.487
937.000	547.119	80.008	19.993	103.774	19.950	3.122	0.524
937.500	547.410	80.010	19.992	103.775	19.951	3.090	0.532
938.000	547.660	80.008	19.993	103.777	19.951	3.087	0.541
938.500	547.910	80.009	19.993	103.778	19.951	3.070	0.520
939.000	548.170	80.009	19.993	103.774	19.950	3.181	0.505
939.500	548.431	80.009	19.993	103.775	19.950	3.136	0.515
940.000	548.678	80.008	19.993	103.771	19.949	3.215	0.515
940.500	548.931	80.009	19.993	103.763	19.950	3.166	0.504
941.000	549.209	80.008	19.992	103.755	19.948	3.309	0.516
941.500	549.467	80.010	19.992	103.754	19.948	3.311	0.533
942.000	549.692	80.010	19.992	103.754	19.951	3.053	0.509
942.500	549.973	80.010	19.993	103.754	19.952	2.998	0.495
943.000	550.218	80.009	19.992	103.756	19.951	3.051	0.516
943.500	550.479	80.009	19.993	103.762	19.953	2.927	0.516
944.000	550.731	80.008	19.992	103.768	19.950	3.162	0.509
944.500	551.003	80.008	19.993	103.772	19.951	3.072	0.519
945.000	551.280	80.008	19.993	103.778	19.949	3.210	0.536
945.500	551.510	80.009	19.993	103.779	19.948	3.266	0.528
946.000	551.766	80.009	19.993	103.779	19.951	3.053	0.496
946.500	552.053	80.009	19.993	103.775	19.947	3.347	0.515
947.000	552.303	80.008	19.993	103.768	19.949	3.247	0.540
947.500	552.538	80.009	19.992	103.762	19.947	3.386	0.511
948.000	552.821	80.008	19.993	103.761	19.949	3.205	0.501
948.500	553.098	80.008	19.992	103.757	19.949	3.196	0.539
949.000	553.369	80.008	19.993	103.760	19.950	3.126	0.554
949.500	553.613	80.009	19.993	103.766	19.949	3.228	0.531
950.000	553.907	80.008	19.993	103.772	19.947	3.384	0.527
950.500	554.154	80.007	19.994	103.777	19.951	3.108	0.540
951.000	554.409	80.007	19.993	103.776	19.948	3.279	0.522
951.500	554.665	80.007	19.993	103.772	19.948	3.286	0.507
952.000	554.931	80.009	19.994	103.767	19.950	3.181	0.517
952.500	555.193	80.008	19.993	103.763	19.946	3.401	0.525
953.000	555.421	80.009	19.994	103.758	19.948	3.273	0.509
953.500	555.724	80.008	19.994	103.756	19.949	3.232	0.510
954.000	555.966	80.008	19.993	103.758	19.949	3.238	0.538
954.500	556.218	80.008	19.994	103.764	19.949	3.217	0.519
955.000	556.462	80.009	19.995	103.767	19.951	3.115	0.495
955.500	556.755	80.008	19.993	103.770	19.947	3.336	0.517
956.000	557.007	80.008	19.993	103.777	19.948	3.315	0.541
956.500	557.232	80.008	19.993	103.776	19.949	3.208	0.511
957.000	557.523	80.007	19.994	103.771	19.949	3.228	0.497
957.500	557.748	80.008	19.993	103.770	19.950	3.145	0.517
958.000	558.025	80.009	19.993	103.772	19.951	3.089	0.509
958.500	558.272	80.008	19.993	103.765	19.947	3.335	0.513
959.000	558.551	80.008	19.993	103.764	19.950	3.152	0.525
959.500	558.790	80.008	19.995	103.768	19.949	3.252	0.522
960.000	559.076	80.009	19.996	103.769	19.949	3.218	0.521
960.500	559.330	80.007	19.994	103.769	19.953	2.913	0.532
961.000	559.578	80.009	19.995	103.771	19.948	3.273	0.521
961.500	559.832	80.007	19.994	103.770	19.953	2.961	0.502
962.000	560.059	80.008	19.994	103.764	19.954	2.901	0.491
962.500	560.349	80.007	19.994	103.760	19.952	3.008	0.499
963.000	560.574	80.008	19.994	103.758	19.952	2.982	0.516
963.500	560.854	80.007	19.994	103.762	19.949	3.236	0.510
964.000	561.087	80.008	19.993	103.769	19.953	2.954	0.509
964.500	561.376	80.009	19.993	103.773	19.949	3.243	0.517
965.000	561.620	80.008	19.994	103.776	19.950	3.129	0.528
965.500	561.889	80.007	19.994	103.779	19.948	3.258	0.523
966.000	562.134	80.008	19.992	103.781	19.947	3.330	0.513
966.500	562.401	80.008	19.993	103.781	19.947	3.334	0.513
967.000	562.643	80.006	19.993	103.784	19.951	3.085	0.511
967.500	562.903	80.008	19.993	103.786	19.948	3.305	0.506
968.000	563.146	80.006	19.993	103.781	19.950	3.157	0.502
968.500	563.394	80.008	19.993	103.773	19.953	2.929	0.496
969.000	563.641	80.007	19.993	103.766	19.951	3.091	0.493
969.500	563.908	80.007	19.992	103.758	19.951	3.108	0.505
970.000	564.150	80.007	19.995	103.752	19.952	3.042	0.511
970.500	564.402	80.009	19.995	103.752	19.949	3.206	0.501
971.000	564.624	80.007	19.993	103.753	19.950	3.164	0.484
971.500	564.898	80.007	19.992	103.758	19.951	3.098	0.485
972.000	565.163	80.008	19.993	103.765	19.951	3.063	0.517
972.500	565.411	80.007	19.993	103.772	19.949	3.194	0.526
973.000	565.660	80.007	19.993	103.779	19.949	3.194	0.505
973.500	565.889	80.008	19.993	103.784	19.952	3.040	0.487
974.000	566.179	80.007	19.993	103.786	19.952	2.987	0.498
974.500	566.412	80.008	19.993	103.782	19.948	3.284	0.521
975.000	566.719	80.008	19.993	103.781	19.949	3.198	0.531
975.500	566.914	80.010	19.994	103.777	19.952	3.014	0.521
976.000	567.221	80.009	19.994	103.776	19.950	3.166	0.502
976.500	567.438	80.008	19.993	103.774	19.949	3.221	0.513
977.000	567.692	80.008	19.993	103.776	19.947	3.336	0.497
977.500	567.930	80.008	19.994	103.777	19.947	3.385	0.482
978.000	568.185	80.009	19.994	103.777	19.948	3.281	0.493
978.500	568.405	80.009	19.994	103.775	19.946	3.424	0.484
979.000	568.696	80.008	19.994	103.772	19.946	3.443	0.493
979.500	568.978	80.008	19.993	103.770	19.950	3.159	0.542
980.000	569.169	80.007	19.994	103.770	19.945	3.511	0.522
980.500	569.466	80.009	19.994	103.770	19.946	3.415	0.481
981.000	569.705	80.009	19.995	103.772	19.950	3.138	0.512
981.500	569.975	80.009	19.994	103.772	19.947	3.352	0.523
982.000	570.240	80.010	19.994	103.773	19.948	3.279	0.523
982.500	570.484	80.009	19.993	103.773	19.948	3.290	0.522
983.000	570.743	80.008	19.994	103.772	19.949	3.192	0.506
983.500	570.991	80.008	19.994	103.770	19.950	3.147	0.505
984.000	571.224	80.009	19.993	103.767	19.948	3.311	0.494
984.500	571.508	80.010	19.994	103.763	19.949	3.239	0.499
985.000	571.751	80.009	19.994	103.762	19.948	3.281	0.522
985.500	571.993	80.009	19.994	103.763	19.947	3.343	0.506
986.000	572.238	80.009	19.994	103.768	19.949	3.206	0.486
986.500	572.492	80.008	19.994	103.774	19.949	3.230	0.494
987.000	572.736	80.009	19.995	103.780	19.949	3.207	0.498
987.500	572.990	80.010	19.993	103.780	19.949	3.198	0.498
988.000	573.230	80.009	19.994	103.781	19.953	2.976	0.496
988.500	573.524	80.008	19.994	103.781	19.951	3.070	0.515
989.000	573.785	80.009	19.994	103.781	19.951	3.064	0.545
989.500	574.040	80.010	19.994	103.781	19.950	3.179	0.535
990.000	574.311	80.009	19.993	103.780	19.948	3.258	0.521
990.500	574.585	80.009	19.995	103.776	19.948	3.287	0.536
991.000	574.805	80.009	19.994	103.775	19.950	3.149	0.520
991.500	575.101	80.009	19.993	103.775	19.951	3.119	0.505
992.000	575.335	80.011	19.993	103.775	19.950	3.128	0.523
992.500	575.585	80.009	19.993	103.775	19.948	3.258	0.507
993.000	575.836	80.010	19.993	103.775	19.949	3.243	0.492
993.500	576.105	80.008	19.994	103.773	19.948	3.264	0.510
994.000	576.344	80.010	19.992	103.766	19.952	3.023	0.514
994.500	576.585	80.009	19.993	103.763	19.950	3.158	0.494
995.000	576.846	80.010	19.992	103.765	19.952	3.027	0.491
995.500	577.084	80.009	19.993	103.769	19.949	3.222	0.500
996.000	577.343	80.009	19.993	103.768	19.951	3.119	0.498
996.500	577.594	80.009	19.994	103.773	19.951	3.068	0.503
997.000	577.883	80.009	19.992	103.771	19.952	3.000	0.525
997.500	578.142	80.009	19.993	103.766	19.950	3.177	0.544
998.000	578.396	80.011	19.994	103.763	19.952	3.045	0.531
998.500	578.617	80.009	19.992	103.768	19.951	3.116	0.494
999.000	578.870	80.010	19.994	103.766	19.950	3.167	0.474
999.500	579.132	80.010	19.994	103.769	19.949	3.241	0.494
1000.000	579.383	80.011	19.994	103.773	19.951	3.054	0.514
1000.500	579.610	80.011	19.992	103.777	19.948	3.286	0.495
1001.000	579.916	80.012	19.993	103.776	19.948	3.303	0.505
1001.500	580.192	80.011	19.993	103.775	19.948	3.324	0.558
1002.000	580.425	80.012	19.994	103.778	19.950	3.175	0.546
1002.500	580.697	80.011	19.993	103.777	19.948	3.266	0.507
1003.000	580.917	80.010	19.993	103.773	19.951	3.068	0.498
1003.500	581.199	80.012	19.992	103.767	19.947	3.367	0.497
1004.000	581.432	80.010	19.993	103.771	19.949	3.213	0.508
1004.500	581.687	80.011	19.992	103.769	19.950	3.160	0.501
1005.000	581.961	80.011	19.993	103.770	19.950	3.138	0.508
1005.500	582.208	80.011	19.994	103.771	19.948	3.270	0.525
1006.000	582.451	80.011	19.992	103.771	19.950	3.162	0.506
1006.500	582.697	80.012	19.992	103.767	19.950	3.173	0.490
1007.000	582.943	80.012	19.993	103.768	19.949	3.207	0.490
1007.500	583.244	80.012	19.993	103.764	19.949	3.217	0.520
1008.000	583.448	80.012	19.993	103.760	19.948	3.303	0.526
1008.500	583.759	80.012	19.992	103.760	19.948	3.273	0.510
1009.000	583.968	80.011	19.992	103.756	19.948	3.292	0.517
1009.500	584.217	80.011	19.992	103.749	19.947	3.347	0.489
1010.000	584.473	80.011	19.992	103.747	19.948	3.313	0.482
1010.500	584.722	80.010	19.992	103.749	19.948	3.264	0.506
1011.000	585.001	80.011	19.993	103.753	19.946	3.415	0.517
1011.500	585.228	80.012	19.993	103.761	19.945	3.467	0.517
1012.000	585.491	80.011	19.993	103.765	19.947	3.362	0.498
1012.500	585.750	80.010	19.993	103.767	19.952	3.002	0.506
1013.000	585.992	80.010	19.992	103.768	19.949	3.226	0.512
1013.500	586.235	80.009	19.994	103.764	19.949	3.222	0.493
1014.000	586.468	80.010	19.993	103.759	19.951	3.066	0.480
1014.500	586.742	80.009	19.993	103.759	19.950	3.172	0.491
1015.000	586.970	80.009	19.993	103.763	19.950	3.185	0.504
1015.500	587.224	80.010	19.993	103.765	19.949	3.236	0.492
1016.000	587.501	80.009	19.993	103.769	19.950	3.121	0.507
1016.500	587.784	80.009	19.993	103.773	19.948	3.283	0.545
1017.000	588.013	80.010	19.993	103.771	19.950	3.159	0.536
1017.500	588.294	80.009	19.993	103.769	19.949	3.253	0.510
1018.000	588.519	80.009	19.993	103.770	19.947	3.362	0.508
1018.500	588.793	80.009	19.992	103.767	19.950	3.140	0.503
1019.000	589.060	80.008	19.991	103.767	19.951	3.095	0.520
1019.500	589.267	80.009	19.995	103.773	19.951	3.095	0.507
1020.000	589.588	80.009	19.995	103.777	19.946	3.406	0.501
1020.500	589.758	80.009	19.994	103.778	19.945	3.522	0.509
1021.000	590.076	80.009	19.994	103.780	19.948	3.294	0.490
1021.500	590.315	80.010	19.993	103.782	19.947	3.387	0.523
1022.000	590.550	80.010	19.995	103.776	19.945	3.479	0.515
1022.500	590.804	80.008	19.993	103.773	19.950	3.170	0.481
1023.000	591.048	80.009	19.993	103.772	19.951	3.097	0.494
1023.500	591.288	80.009	19.993	103.768	19.951	3.074	0.491
1024.000	591.552	80.009	19.993	103.763	19.949	3.228	0.494
1024.499	591.802	80.009	19.993	103.764	19.948	3.288	0.509
1025.000	592.053	80.010	19.993	103.765	19.946	3.426	0.507
1025.500	592.324	80.009	19.992	103.768	19.948	3.296	0.512
1025.999	592.614	80.009	19.993	103.776	19.947	3.336	0.542
1026.499	592.878	80.008	19.992	103.782	19.948	3.262	0.557
1026.999	593.115	80.008	19.992	103.784	19.946	3.414	0.527
1027.499	593.366	80.008	19.992	103.784	19.947	3.386	0.495
1027.999	593.635	80.009	19.994	103.779	19.948	3.285	0.504
1028.499	593.884	80.009	19.992	103.775	19.948	3.326	0.518
1028.999	594.161	80.009	19.993	103.773	19.948	3.310	0.522
1029.499	594.411	80.009	19.991	103.775	19.947	3.343	0.527
1029.999	594.665	80.009	19.993	103.777	19.948	3.326	0.515
1030.499	594.959	80.009	19.994	103.782	19.944	3.579	0.526
1030.999	595.167	80.009	19.994	103.785	19.945	3.497	0.525
1031.499	595.450	80.009	19.994	103.787	19.944	3.582	0.497
1031.999	595.709	80.010	19.993	103.786	19.946	3.405	0.517
1032.499	595.933	80.010	19.993	103.784	19.946	3.460	0.513
1032.999	596.217	80.009	19.992	103.783	19.944	3.589	0.495
1033.499	596.479	80.008	19.994	103.782	19.946	3.399	0.526
1033.999	596.724	80.009	19.991	103.776	19.945	3.469	0.526
1034.499	596.997	80.009	19.992	103.772	19.946	3.416	0.513
1034.999	597.245	80.008	19.994	103.771	19.948	3.307	0.520
1035.500	597.480	80.010	19.991	103.772	19.946	3.412	0.502
1036.000	597.786	80.008	19.991	103.772	19.951	3.102	0.512
1036.499	598.044	80.009	19.993	103.773	19.948	3.311	0.553
1037.000	598.277	80.009	19.991	103.776	19.948	3.268	0.527
1037.500	598.526	80.010	19.993	103.773	19.949	3.241	0.486
1037.999	598.825	80.008	19.994	103.770	19.948	3.271	0.515
1038.499	599.032	80.010	19.992	103.771	19.950	3.130	0.527
1039.000	599.307	80.009	19.994	103.776	19.953	2.972	0.494
1039.500	599.601	80.009	19.993	103.780	19.950	3.155	0.525
1039.999	599.836	80.010	19.991	103.785	19.950	3.164	0.549
1040.499	600.101	80.010	19.993	103.785	19.950	3.174	0.515
1041.000	600.335	80.009	19.992	103.785	19.944	3.554	0.499
1041.500	600.603	80.008	19.992	103.780	19.950	3.162	0.500
1041.999	600.874	80.009	19.993	103.775	19.948	3.298	0.521
1042.499	601.142	80.009	19.994	103.773	19.948	3.258	0.539
1042.999	601.399	80.009	19.992	103.770	19.950	3.125	0.532
1043.499	601.630	80.008	19.993	103.767	19.950	3.149	0.506
1043.999	601.912	80.007	19.994	103.765	19.946	3.426	0.500
1044.499	602.180	80.009	19.992	103.763	19.948	3.292	0.531
1044.999	602.419	80.009	19.991	103.759	19.950	3.187	0.529
1045.499	602.664	80.008	19.992	103.760	19.949	3.219	0.496
1045.999	602.926	80.008	19.992	103.762	19.950	3.160	0.495
1046.499	603.174	80.007	19.992	103.767	19.951	3.089	0.508
1046.999	603.421	80.008	19.993	103.770	19.948	3.318	0.503
1047.500	603.712	80.009	19.994	103.774	19.948	3.297	0.517
1048.000	603.974	80.008	19.994	103.777	19.947	3.337	0.545
1048.499	604.214	80.008	19.994	103.776	19.950	3.145	0.527
1048.999	604.505	80.008	19.994	103.773	19.946	3.410	0.517
1049.499	604.783	80.008	19.995	103.775	19.948	3.284	0.550
1050.000	605.021	80.008	19.993	103.774	19.950	3.179	0.542
1050.500	605.291	80.009	19.993	103.774	19.949	3.196	0.512
1050.999	605.580	80.009	19.994	103.773	19.951	3.070	0.534
1051.499	605.840	80.008	19.995	103.775	19.949	3.222	0.555
1051.999	606.104	80.009	19.995	103.772	19.950	3.177	0.537
1052.499	606.381	80.008	19.995	103.772	19.950	3.177	0.532
1052.999	606.614	80.008	19.993	103.772	19.949	3.211	0.525
1053.499	606.883	80.009	19.994	103.774	19.946	3.401	0.506
1053.999	607.164	80.008	19.996	103.777	19.949	3.236	0.526
1054.499	607.399	80.009	19.995	103.778	19.950	3.177	0.533
1054.999	607.636	80.009	19.993	103.777	19.951	3.081	0.494
1055.499	607.927	80.009	19.993	103.772	19.945	3.506	0.500
1056.000	608.175	80.010	19.994	103.767	19.948	3.301	0.534
1056.500	608.439	80.010	19.993	103.765	19.947	3.386	0.526
1056.999	608.727	80.009	19.995	103.766	19.946	3.414	0.532
1057.499	608.990	80.010	19.995	103.763	19.944	3.576	0.551
1057.999	609.240	80.010	19.995	103.764	19.944	3.564	0.532
1058.499	609.529	80.010	19.993	103.762	19.944	3.591	0.526
1058.999	609.761	80.011	19.992	103.755	19.941	3.805	0.530
1059.499	610.066	80.010	19.993	103.751	19.946	3.450	0.529
1059.999	610.293	80.010	19.994	103.752	19.945	3.502	0.535
1060.500	610.565	80.010	19.991	103.751	19.948	3.284	0.516
1061.000	610.794	80.011	19.993	103.753	19.947	3.365	0.500
1061.499	611.046	80.009	19.994	103.757	19.945	3.493	0.491
1061.999	611.304	80.010	19.993	103.759	19.947	3.380	0.495
1062.499	611.575	80.010	19.994	103.762	19.945	3.478	0.519
1062.999	611.814	80.009	19.992	103.766	19.947	3.373	0.519
1063.499	612.104	80.011	19.992	103.765	19.946	3.459	0.520
1063.999	612.388	80.011	19.992	103.763	19.945	3.514	0.552
1064.499	612.626	80.011	19.994	103.767	19.944	3.561	0.548
1064.999	612.868	80.011	19.995	103.767	19.946	3.421	0.501
1065.499	613.161	80.009	19.993	103.763	19.946	3.465	0.508
1065.999	613.407	80.010	19.993	103.762	19.948	3.318	0.537
1066.499	613.686	80.010	19.993	103.762	19.948	3.316	0.532
1066.999	613.901	80.010	19.993	103.759	19.946	3.418	0.510
1067.499	614.167	80.011	19.992	103.754	19.944	3.559	0.488
1067.999	614.427	80.010	19.993	103.754	19.947	3.377	0.504
1068.499	614.697	80.011	19.993	103.755	19.947	3.365	0.528
1069.000	614.956	80.010	19.993	103.754	19.947	3.331	0.529
1069.500	615.204	80.009	19.992	103.751	19.947	3.350	0.518
1069.999	615.467	80.009	19.993	103.750	19.949	3.228	0.509
1070.499	615.717	80.009	19.995	103.750	19.945	3.490	0.512
1070.999	615.943	80.010	19.993	103.750	19.948	3.309	0.494
1071.500	616.201	80.009	19.994	103.750	19.947	3.330	0.479
1072.000	616.466	80.008	19.996	103.752	19.945	3.467	0.503
1072.499	616.724	80.009	19.995	103.757	19.946	3.418	0.523
1072.999	616.960	80.010	19.994	103.759	19.946	3.429	0.509
1073.500	617.241	80.010	19.994	103.762	19.946	3.408	0.506
1074.000	617.494	80.009	19.993	103.764	19.946	3.406	0.526
1074.499	617.786	80.009	19.995	103.762	19.949	3.246	0.540
1074.999	618.046	80.009	19.997	103.760	19.947	3.382	0.548
1075.499	618.289	80.010	19.993	103.758	19.945	3.484	0.527
1075.999	618.533	80.008	19.994	103.755	19.950	3.145	0.495
1076.499	618.817	80.011	19.994	103.758	19.948	3.307	0.508
1076.999	619.053	80.009	19.994	103.764	19.947	3.375	0.524
1077.499	619.352	80.009	19.995	103.767	19.944	3.578	0.527
1077.999	619.569	80.009	19.993	103.768	19.947	3.347	0.526
1078.499	619.830	80.010	19.994	103.769	19.946	3.448	0.497
1078.999	620.117	80.008	19.993	103.765	19.945	3.493	0.513
1079.499	620.363	80.010	19.996	103.760	19.946	3.439	0.540
1079.999	620.624	80.011	19.996	103.759	19.948	3.271	0.520
1080.499	620.878	80.009	19.995	103.761	19.948	3.279	0.512
1080.999	621.085	80.009	19.994	103.764	19.949	3.194	0.488
1081.499	621.346	80.009	19.993	103.768	19.949	3.230	0.464
1081.999	621.652	80.009	19.995	103.770	19.946	3.439	0.517
1082.499	621.928	80.009	19.994	103.765	19.949	3.252	0.575
1083.000	622.198	80.010	19.993	103.764	19.950	3.145	0.564
1083.500	622.439	80.010	19.993	103.759	19.948	3.288	0.528
1084.000	622.691	80.011	19.995	103.754	19.948	3.312	0.502
1084.501	622.930	80.010	19.993	103.753	19.948	3.312	0.492
1085.001	623.184	80.011	19.993	103.753	19.947	3.331	0.493
1085.501	623.445	80.010	19.993	103.752	19.948	3.282	0.504
1086.001	623.721	80.010	19.994	103.755	19.945	3.478	0.525
1086.501	623.961	80.011	19.995	103.757	19.949	3.228	0.527
1087.000	624.223	80.012	19.993	103.760	19.949	3.209	0.510
1087.499	624.504	80.011	19.994	103.765	19.950	3.183	0.522
1087.999	624.736	80.011	19.995	103.765	19.948	3.303	0.527
1088.499	624.995	80.011	19.993	103.765	19.947	3.369	0.502
1088.999	625.256	80.012	19.993	103.766	19.948	3.303	0.506
1089.499	625.513	80.011	19.992	103.763	19.948	3.292	0.519
1089.999	625.822	80.012	19.994	103.759	19.947	3.382	0.542
1090.499	626.040	80.012	19.992	103.761	19.946	3.452	0.546
1090.999	626.280	80.012	19.990	103.758	19.949	3.198	0.492
1091.499	626.534	80.011	19.993	103.759	19.945	3.501	0.476
1091.999	626.803	80.012	19.991	103.765	19.946	3.401	0.509
1092.499	627.060	80.011	19.992	103.764	19.945	3.471	0.525
1092.999	627.291	80.011	19.993	103.761	19.946	3.442	0.507
1093.499	627.568	80.012	19.991	103.760	19.943	3.672	0.498
1093.999	627.839	80.010	19.993	103.756	19.947	3.342	0.528
1094.499	628.106	80.010	19.993	103.752	19.946	3.401	0.543
1094.999	628.353	80.010	19.992	103.751	19.947	3.395	0.526
1095.500	628.610	80.011	19.992	103.754	19.951	3.077	0.509
1096.000	628.858	80.010	19.994	103.755	19.948	3.260	0.505
1096.499	629.135	80.011	19.992	103.754	19.948	3.258	0.515
1096.999	629.382	80.010	19.993	103.753	19.946	3.410	0.524
1097.499	629.599	80.009	19.993	103.756	19.947	3.335	0.494
1097.999	629.828	80.009	19.993	103.753	19.948	3.307	0.455
1098.499	630.114	80.009	19.993	103.757	19.949	3.239	0.481
1098.999	630.391	80.009	19.992	103.759	19.947	3.382	0.539
1099.499	630.643	80.008	19.993	103.760	19.946	3.439	0.546
1099.999	630.863	80.009	19.996	103.757	19.948	3.269	0.500
1100.500	631.143	80.008	19.991	103.757	19.949	3.237	0.486
1101.000	631.377	80.009	19.993	103.754	19.947	3.395	0.507
1101.499	631.604	80.008	19.993	103.757	19.949	3.194	0.488
1101.999	631.864	80.008	19.990	103.762	19.947	3.371	0.474
1102.499	632.130	80.009	19.994	103.764	19.950	3.184	0.506
1102.999	632.358	80.008	19.994	103.764	19.950	3.188	0.510
1103.499	632.622	80.007	19.992	103.765	19.946	3.455	0.493
1104.000	632.880	80.008	19.993	103.762	19.945	3.519	0.507
1104.500	633.128	80.010	19.990	103.757	19.950	3.175	0.514
1104.999	633.379	80.008	19.992	103.755	19.947	3.376	0.503
1105.499	633.604	80.009	19.992	103.756	19.950	3.186	0.488
1105.999	633.874	80.009	19.993	103.755	19.949	3.205	0.486
1106.499	634.131	80.008	19.993	103.756	19.948	3.267	0.511
1106.999	634.373	80.009	19.993	103.757	19.950	3.175	0.513
1107.499	634.608	80.010	19.992	103.760	19.947	3.333	0.488
1107.999	634.917	80.010	19.992	103.761	19.946	3.429	0.510
1108.499	635.167	80.009	19.992	103.763	19.948	3.286	0.551
1108.999	635.421	80.009	19.991	103.767	19.947	3.374	0.532
1109.499	635.684	80.009	19.994	103.768	19.946	3.427	0.511
1109.999	635.964	80.010	19.993	103.764	19.949	3.256	0.530
1110.499	636.161	80.009	19.993	103.762	19.948	3.271	0.510
1110.999	636.445	80.010	19.992	103.759	19.946	3.429	0.479
1111.499	636.675	80.009	19.993	103.753	19.949	3.250	0.497
1112.000	636.930	80.009	19.993	103.749	19.950	3.179	0.500
1112.501	637.200	80.009	19.996	103.751	19.949	3.231	0.505
1113.000	637.443	80.009	19.993	103.753	19.946	3.399	0.519
1113.499	637.700	80.008	19.992	103.756	19.946	3.427	0.507
1113.999	637.973	80.009	19.993	103.756	19.947	3.331	0.515
1114.499	638.209	80.011	19.993	103.756	19.951	3.073	0.520
1114.999	638.463	80.008	19.994	103.754	19.949	3.198	0.499
1115.499	638.703	80.010	19.992	103.754	19.947	3.331	0.492
1115.999	638.985	80.010	19.994	103.753	19.949	3.243	0.508
1116.499	639.215	80.010	19.993	103.753	19.949	3.213	0.517
1116.999	639.477	80.010	19.993	103.753	19.949	3.243	0.502
1117.499	639.724	80.009	19.992	103.753	19.949	3.230	0.501
1117.999	639.972	80.009	19.993	103.753	19.948	3.306	0.502
1118.499	640.229	80.009	19.993	103.752	19.947	3.338	0.499
1118.999	640.469	80.010	19.990	103.751	19.947	3.343	0.501
1119.499	640.735	80.010	19.992	103.755	19.948	3.313	0.502
1119.999	640.981	80.009	19.993	103.756	19.949	3.226	0.509
1120.499	641.206	80.010	19.994	103.754	19.947	3.347	0.492
1121.000	641.466	80.009	19.993	103.753	19.949	3.222	0.478
1121.500	641.753	80.008	19.993	103.753	19.948	3.266	0.516
1121.999	641.998	80.009	19.993	103.749	19.949	3.190	0.539
1122.499	642.253	80.009	19.994	103.750	19.950	3.179	0.516
1122.999	642.467	80.010	19.994	103.753	19.949	3.236	0.484
1123.499	642.719	80.010	19.993	103.756	19.949	3.200	0.468
1123.999	642.996	80.010	19.993	103.757	19.950	3.151	0.498
1124.499	643.253	80.008	19.993	103.758	19.949	3.220	0.531
1124.999	643.527	80.009	19.992	103.761	19.949	3.232	0.532
1125.499	643.780	80.009	19.993	103.757	19.949	3.218	0.529
1125.999	644.011	80.010	19.993	103.759	19.949	3.211	0.506
1126.499	644.241	80.010	19.991	103.760	19.951	3.075	0.473
1126.999	644.471	80.011	19.993	103.761	19.950	3.154	0.461
1127.499	644.747	80.009	19.993	103.763	19.948	3.258	0.483
1127.999	644.983	80.009	19.992	103.771	19.951	3.077	0.509
1128.499	645.242	80.010	19.992	103.773	19.949	3.231	0.504
1128.999	645.512	80.010	19.993	103.778	19.948	3.295	0.512
1129.499	645.762	80.009	19.992	103.783	19.952	3.004	0.524
1129.999	646.022	80.009	19.993	103.782	19.952	3.011	0.515
1130.499	646.264	80.009	19.992	103.779	19.952	3.041	0.506
1130.999	646.504	80.009	19.992	103.776	19.952	3.047	0.492
1131.499	646.794	80.009	19.993	103.771	19.953	2.927	0.506
1131.999	647.012	80.009	19.990	103.768	19.950	3.133	0.519
1132.499	647.280	80.007	19.993	103.769	19.953	2.947	0.497
1132.999	647.526	80.010	19.994	103.767	19.951	3.096	0.501
1133.500	647.769	80.008	19.992	103.767	19.950	3.124	0.502
1134.000	648.041	80.008	19.994	103.766	19.951	3.051	0.502
1134.499	648.316	80.009	19.994	103.766	19.950	3.137	0.531
1134.999	648.546	80.009	19.994	103.760	19.948	3.305	0.526
1135.499	648.805	80.007	19.995	103.759	19.947	3.327	0.497
1135.999	649.065	80.008	19.993	103.760	19.948	3.306	0.503
1136.499	649.313	80.009	19.993	103.760	19.947	3.329	0.513
1136.999	649.613	80.009	19.993	103.754	19.952	3.045	0.528
1137.500	649.849	80.010	19.994	103.754	19.951	3.094	0.542
1138.000	650.100	80.010	19.994	103.752	19.950	3.133	0.512
1138.499	650.359	80.008	19.993	103.748	19.952	2.989	0.499
1138.999	650.626	80.007	19.993	103.748	19.948	3.292	0.518
1139.499	650.849	80.010	19.995	103.748	19.949	3.198	0.508
1139.999	651.119	80.009	19.993	103.749	19.952	3.036	0.491
1140.499	651.413	80.011	19.995	103.752	19.952	2.981	0.528
1140.999	651.622	80.011	19.994	103.752	19.950	3.124	0.533
1141.499	651.911	80.009	19.994	103.754	19.950	3.120	0.501
1141.999	652.157	80.009	19.994	103.755	19.952	3.017	0.517
1142.499	652.411	80.010	19.993	103.755	19.948	3.259	0.518
1142.999	652.674	80.011	19.994	103.754	19.953	2.966	0.509
1143.499	652.935	80.011	19.995	103.754	19.953	2.968	0.520
1143.999	653.164	80.010	19.993	103.753	19.952	3.049	0.507
1144.499	653.453	80.010	19.994	103.754	19.950	3.183	0.504
1144.999	653.679	80.010	19.993	103.753	19.951	3.119	0.517
1145.499	653.928	80.010	19.994	103.752	19.946	3.418	0.495
1146.000	654.240	80.011	19.994	103.751	19.952	3.023	0.518
1146.501	654.477	80.010	19.993	103.751	19.954	2.893	0.555
1147.000	654.712	80.011	19.994	103.749	19.951	3.117	0.511
1147.499	654.947	80.010	19.993	103.749	19.949	3.211	0.471
1147.999	655.221	80.010	19.993	103.749	19.949	3.237	0.489
1148.499	655.472	80.011	19.995	103.750	19.951	3.064	0.517
1148.999	655.744	80.011	19.994	103.752	19.951	3.096	0.524
1149.499	655.972	80.010	19.992	103.755	19.951	3.073	0.512
1149.999	656.241	80.010	19.993	103.755	19.953	2.917	0.498
1150.500	656.496	80.010	19.994	103.755	19.950	3.162	0.510
1151.000	656.745	80.011	19.992	103.754	19.952	3.047	0.514
1151.499	656.997	80.011	19.993	103.751	19.950	3.169	0.503
1152.000	657.278	80.010	19.994	103.745	19.952	3.006	0.517
1152.500	657.509	80.010	19.993	103.745	19.951	3.098	0.522
1152.999	657.759	80.010	19.992	103.746	19.952	2.994	0.496
1153.499	658.031	80.010	19.993	103.748	19.954	2.896	0.502
1153.999	658.286	80.010	19.994	103.750	19.953	2.972	0.525
1154.499	658.533	80.010	19.992	103.758	19.952	2.994	0.514
1154.999	658.810	80.009	19.994	103.761	19.954	2.872	0.513
1155.499	659.038	80.010	19.994	103.767	19.956	2.770	0.514
1155.999	659.296	80.010	19.993	103.772	19.952	3.045	0.495
1156.499	659.545	80.010	19.992	103.778	19.950	3.149	0.496
1156.999	659.817	80.010	19.993	103.775	19.953	2.923	0.514
1157.500	660.079	80.010	19.994	103.774	19.950	3.177	0.528
1158.001	660.316	80.009	19.993	103.769	19.952	3.021	0.517
1158.501	660.584	80.009	19.994	103.763	19.950	3.138	0.502
1159.000	660.801	80.009	19.993	103.755	19.950	3.144	0.495
1159.499	661.059	80.008	19.993	103.752	19.947	3.364	0.480
1159.999	661.329	80.009	19.993	103.752	19.951	3.111	0.502
1160.499	661.572	80.010	19.994	103.750	19.950	3.179	0.521
1160.999	661.828	80.009	19.994	103.753	19.949	3.247	0.506
1161.499	662.083	80.009	19.994	103.757	19.948	3.260	0.505
1161.999	662.341	80.010	19.991	103.760	19.949	3.239	0.512
1162.499	662.555	80.010	19.993	103.759	19.951	3.109	0.492
1162.999	662.832	80.010	19.993	103.759	19.948	3.266	0.482
1163.499	663.076	80.010	19.993	103.757	19.950	3.132	0.506
1163.999	663.368	80.009	19.994	103.753	19.951	3.070	0.528
1164.500	663.620	80.009	19.993	103.752	19.950	3.156	0.540
1165.000	663.853	80.008	19.992	103.751	19.950	3.183	0.514
1165.499	664.112	80.010	19.993	103.751	19.948	3.295	0.488
1165.999	664.363	80.009	19.994	103.751	19.945	3.472	0.501
1166.499	664.663	80.010	19.992	103.756	19.950	3.132	0.531
1166.999	664.873	80.010	19.993	103.758	19.948	3.322	0.530
1167.499	665.153	80.011	19.994	103.760	19.945	3.470	0.500
1167.999	665.384	80.010	19.993	103.761	19.946	3.444	0.500
1168.499	665.655	80.011	19.993	103.765	19.949	3.224	0.506
1168.999	665.871	80.011	19.993	103.767	19.947	3.387	0.495
1169.499	666.168	80.010	19.994	103.772	19.948	3.323	0.500
1169.999	666.395	80.011	19.994	103.774	19.948	3.318	0.518
1170.499	666.656	80.010	19.993	103.774	19.948	3.267	0.506
1170.999	666.931	80.011	19.995	103.771	19.951	3.077	0.512
1171.499	667.146	80.010	19.993	103.767	19.948	3.303	0.513
1171.999	667.430	80.011	19.994	103.764	19.947	3.370	0.495
1172.499	667.640	80.011	19.993	103.762	19.948	3.305	0.496
1172.999	667.896	80.012	19.994	103.765	19.944	3.574	0.480
1173.499	668.129	80.011	19.993	103.769	19.946	3.399	0.478
1173.999	668.421	80.011	19.994	103.767	19.948	3.318	0.507
1174.499	668.685	80.011	19.995	103.763	19.949	3.197	0.540
1174.999	668.926	80.011	19.995	103.765	19.949	3.231	0.531
1175.499	669.197	80.011	19.995	103.761	19.948	3.299	0.509
1175.999	669.468	80.010	19.993	103.757	19.949	3.239	0.527
1176.499	669.710	80.010	19.994	103.755	19.948	3.314	0.527
1176.999	669.969	80.010	19.995	103.755	19.948	3.269	0.507
1177.499	670.208	80.012	19.994	103.753	19.945	3.471	0.499
1177.999	670.490	80.009	19.994	103.751	19.945	3.473	0.509
1178.499	670.719	80.009	19.995	103.751	19.946	3.435	0.516
1178.999	670.974	80.010	19.995	103.750	19.951	3.102	0.498
1179.499	671.232	80.009	19.995	103.749	19.950	3.185	0.498
1179.999	671.502	80.008	19.994	103.747	19.945	3.478	0.520
1180.499	671.729	80.008	19.993	103.748	19.946	3.420	0.513
1180.999	671.990	80.008	19.996	103.747	19.945	3.497	0.493
1181.499	672.260	80.008	19.993	103.747	19.945	3.494	0.509
1181.999	672.514	80.008	19.993	103.747	19.947	3.341	0.527
1182.499	672.757	80.009	19.993	103.748	19.949	3.222	0.510
1182.999	673.024	80.008	19.994	103.748	19.947	3.345	0.503
1183.499	673.315	80.009	19.993	103.749	19.950	3.147	0.534
1183.999	673.527	80.008	19.995	103.751	19.950	3.137	0.531
1184.499	673.861	80.009	19.996	103.751	19.947	3.363	0.525
1184.999	674.089	80.008	19.994	103.750	19.947	3.340	0.554
1185.499	674.311	80.010	19.994	103.751	19.952	2.994	0.506
1186.000	674.581	80.008	19.993	103.752	19.947	3.361	0.472
1186.500	674.890	80.008	19.996	103.755	19.948	3.263	0.536
1186.999	675.114	80.009	19.992	103.760	19.947	3.346	0.556
1187.499	675.375	80.009	19.993	103.762	19.947	3.382	0.508
1187.999	675.637	80.008	19.993	103.762	19.948	3.303	0.504
1188.499	675.904	80.010	19.994	103.763	19.950	3.162	0.526
1189.000	676.138	80.009	19.995	103.765	19.949	3.224	0.515
1189.500	676.419	80.009	19.992	103.766	19.949	3.222	0.508
1189.999	676.683	80.008	19.991	103.768	19.947	3.352	0.530
1190.499	676.923	80.009	19.993	103.768	19.946	3.439	0.525
1190.999	677.137	80.008	19.992	103.769	19.950	3.160	0.479
1191.499	677.413	80.011	19.993	103.770	19.950	3.149	0.472
1191.999	677.729	80.008	19.994	103.772	19.951	3.079	0.541
1192.499	677.953	80.010	19.993	103.772	19.953	2.973	0.566
1192.999	678.212	80.009	19.994	103.771	19.951	3.090	0.511
1193.499	678.453	80.009	19.993	103.768	19.954	2.911	0.491
1193.999	678.728	80.009	19.991	103.761	19.952	3.024	0.508
1194.499	679.001	80.009	19.993	103.753	19.949	3.218	0.532
1194.999	679.206	80.010	19.992	103.749	19.951	3.086	0.513
1195.499	679.470	80.010	19.992	103.749	19.951	3.103	0.473
1195.999	679.719	80.009	19.992	103.749	19.954	2.872	0.491
1196.499	679.976	80.008	19.993	103.752	19.951	3.075	0.510
1196.999	680.224	80.010	19.993	103.754	19.951	3.086	0.505
1197.499	680.525	80.010	19.994	103.756	19.950	3.173	0.526
1197.999	680.755	80.010	19.992	103.756	19.951	3.067	0.540
1198.499	681.002	80.010	19.992	103.755	19.951	3.099	0.504
1198.999	681.270	80.008	19.993	103.751	19.950	3.124	0.496
1199.499	681.509	80.009	19.993	103.751	19.953	2.943	0.511
1199.999	681.797	80.011	19.994	103.756	19.951	3.073	0.517
1200.499	682.014	80.010	19.993	103.763	19.953	2.938	0.516
1200.999	682.280	80.010	19.994	103.767	19.949	3.214	0.494
1201.499	682.539	80.011	19.992	103.768	19.956	2.770	0.504
1201.999	682.772	80.010	19.992	103.767	19.951	3.092	0.508
1202.499	683.043	80.009	19.994	103.760	19.950	3.177	0.498
1202.999	683.261	80.010	19.995	103.753	19.951	3.081	0.497
1203.499	683.531	80.010	19.993	103.751	19.951	3.064	0.489
1203.999	683.763	80.011	19.993	103.751	19.952	3.030	0.495
1204.499	684.033	80.010	19.993	103.752	19.949	3.209	0.502
1204.999	684.289	80.010	19.993	103.753	19.949	3.235	0.514
1205.499	684.567	80.011	19.993	103.754	19.951	3.081	0.530
1205.999	684.804	80.010	19.993	103.752	19.951	3.111	0.525
1206.499	685.027	80.010	19.993	103.752	19.949	3.196	0.488
1206.999	685.333	80.010	19.994	103.751	19.951	3.053	0.494
1207.499	685.566	80.009	19.992	103.749	19.949	3.246	0.534
1207.999	685.880	80.011	19.993	103.748	19.947	3.361	0.543
1208.500	686.095	80.010	19.994	103.748	19.950	3.158	0.538
1209.000	686.381	80.010	19.992	103.748	19.948	3.320	0.515
1209.499	686.607	80.009	19.993	103.749	19.948	3.280	0.507
1209.999	686.880	80.010	19.993	103.749	19.950	3.150	0.506
1210.499	687.138	80.009	19.994	103.749	19.948	3.280	0.515
1210.999	687.391	80.009	19.994	103.750	19.948	3.320	0.520
1211.499	687.632	80.009	19.993	103.749	19.950	3.167	0.502
1211.999	687.888	80.009	19.994	103.748	19.950	3.188	0.496
1212.499	688.104	80.010	19.993	103.748	19.946	3.412	0.485
1212.999	688.388	80.009	19.993	103.749	19.949	3.229	0.486
1213.499	688.639	80.009	19.992	103.749	19.951	3.071	0.518
1214.000	688.901	80.008	19.992	103.750	19.947	3.337	0.524
1214.500	689.188	80.010	19.993	103.750	19.949	3.241	0.531
1214.999	689.398	80.008	19.994	103.751	19.948	3.294	0.523
1215.499	689.662	80.009	19.994	103.750	19.950	3.160	0.486
1215.999	689.906	80.009	19.994	103.751	19.953	2.980	0.491
1216.499	690.173	80.009	19.993	103.752	19.947	3.341	0.510
1216.999	690.391	80.009	19.992	103.753	19.951	3.090	0.498
1217.499	690.665	80.009	19.993	103.755	19.947	3.327	0.488
1217.999	690.914	80.008	19.993	103.756	19.948	3.290	0.507
1218.499	691.169	80.009	19.994	103.755	19.945	3.506	0.514
1218.999	691.412	80.009	19.992	103.755	19.950	3.188	0.501
1219.499	691.657	80.009	19.994	103.754	19.949	3.207	0.493
1219.999	691.913	80.009	19.992	103.752	19.951	3.100	0.494
1220.499	692.184	80.009	19.992	103.752	19.949	3.211	0.514
1221.000	692.376	80.010	19.991	103.752	19.950	3.152	0.495
1221.500	692.655	80.009	19.994	103.752	19.950	3.188	0.467
1221.999	692.905	80.010	19.993	103.752	19.949	3.249	0.500
1222.499	693.145	80.010	19.993	103.751	19.948	3.258	0.510
1222.999	693.396	80.010	19.992	103.751	19.950	3.171	0.491
1223.499	693.649	80.010	19.993	103.751	19.951	3.066	0.498
1223.999	693.897	80.010	19.993	103.751	19.951	3.096	0.503
1224.499	694.160	80.010	19.994	103.751	19.951	3.115	0.506
1224.999	694.393	80.010	19.991	103.754	19.951	3.101	0.503
1225.499	694.644	80.010	19.991	103.761	19.948	3.307	0.490
1225.999	694.917	80.011	19.994	103.765	19.949	3.197	0.504
1226.499	695.161	80.011	19.993	103.768	19.949	3.201	0.521
1226.999	695.429	80.011	19.993	103.769	19.949	3.239	0.515
1227.499	695.685	80.011	19.992	103.766	19.949	3.226	0.518
1227.999	695.967	80.011	19.991	103.759	19.950	3.156	0.531
1228.499	696.206	80.011	19.991	103.756	19.951	3.073	0.530
1229.000	696.482	80.011	19.992	103.755	19.949	3.218	0.519
1229.500	696.682	80.011	19.993	103.756	19.947	3.342	0.495
1229.999	696.961	80.011	19.993	103.756	19.947	3.393	0.477
1230.499	697.214	80.010	19.993	103.756	19.949	3.201	0.505
1230.999	697.478	80.011	19.995	103.755	19.946	3.406	0.525
1231.499	697.708	80.009	19.993	103.755	19.948	3.278	0.506
1231.999	697.972	80.011	19.991	103.758	19.948	3.293	0.494
1232.499	698.195	80.010	19.992	103.762	19.949	3.256	0.491
1232.999	698.470	80.011	19.993	103.763	19.949	3.216	0.492
1233.499	698.734	80.011	19.992	103.763	19.949	3.209	0.518
1233.999	698.973	80.010	19.994	103.763	19.950	3.147	0.521
1234.499	699.230	80.010	19.992	103.758	19.950	3.171	0.500
1234.999	699.484	80.010	19.993	103.754	19.947	3.367	0.503
1235.499	699.722	80.010	19.991	103.754	19.949	3.252	0.501
1235.999	699.970	80.010	19.992	103.753	19.951	3.105	0.489
1236.500	700.249	80.010	19.992	103.751	19.948	3.284	0.507
1237.001	700.476	80.009	19.995	103.751	19.946	3.433	0.517
1237.500	700.779	80.011	19.992	103.751	19.948	3.312	0.518
1237.999	700.973	80.009	19.992	103.752	19.950	3.154	0.514
1238.499	701.223	80.009	19.992	103.754	19.947	3.359	0.471
1238.999	701.475	80.009	19.991	103.754	19.945	3.523	0.473
1239.499	701.700	80.010	19.996	103.754	19.948	3.292	0.489
1239.999	701.996	80.009	19.994	103.754	19.949	3.207	0.498
1240.499	702.214	80.010	19.992	103.754	19.950	3.171	0.518
1240.999	702.493	80.010	19.995	103.753	19.949	3.192	0.506
1241.499	702.728	80.010	19.994	103.752	19.947	3.350	0.505
1241.999	702.975	80.010	19.992	103.751	19.947	3.333	0.498
1242.499	703.218	80.010	19.994	103.750	19.949	3.214	0.486
1242.999	703.468	80.010	19.993	103.750	19.945	3.512	0.492
1243.500	703.701	80.011	19.991	103.750	19.946	3.463	0.488
1244.000	703.975	80.010	19.992	103.750	19.945	3.493	0.494
1244.499	704.184	80.010	19.993	103.750	19.945	3.519	0.495
1244.999	704.447	80.010	19.995	103.750	19.948	3.280	0.478
1245.499	704.734	80.010	19.994	103.749	19.948	3.276	0.511
1245.999	704.984	80.010	19.995	103.747	19.944	3.557	0.543
1246.499	705.225	80.011	19.994	103.749	19.949	3.243	0.514
1246.999	705.477	80.010	19.993	103.749	19.950	3.171	0.492
1247.499	705.724	80.010	19.995	103.750	19.950	3.147	0.496
1247.999	705.978	80.011	19.994	103.750	19.949	3.226	0.500
1248.499	706.226	80.011	19.992	103.752	19.947	3.360	0.502
1248.999	706.465	80.010	19.993	103.753	19.948	3.271	0.495
1249.499	706.721	80.011	19.993	103.754	19.947	3.386	0.491
1249.999	706.978	80.011	19.993	103.756	19.947	3.350	0.504
1250.500	707.217	80.011	19.993	103.758	19.949	3.243	0.505
1251.001	707.462	80.011	19.993	103.756	19.945	3.491	0.490
1251.501	707.719	80.012	19.994	103.754	19.948	3.322	0.493
1252.000	707.979	80.013	19.991	103.752	19.946	3.465	0.510
1252.499	708.217	80.011	19.993	103.750	19.945	3.521	0.507
1252.999	708.479	80.011	19.993	103.748	19.946	3.399	0.498
1253.499	708.715	80.012	19.995	103.748	19.945	3.478	0.499
1253.999	708.984	80.012	19.993	103.748	19.947	3.344	0.502
1254.499	709.243	80.011	19.993	103.749	19.951	3.113	0.517
1254.999	709.480	80.013	19.994	103.747	19.945	3.519	0.512
1255.499	709.769	80.012	19.993	103.747	19.944	3.536	0.511
1255.999	710.001	80.011	19.993	103.747	19.944	3.557	0.524
1256.499	710.228	80.011	19.993	103.747	19.948	3.282	0.490
1256.999	710.472	80.012	19.993	103.746	19.949	3.239	0.465
1257.499	710.736	80.012	19.994	103.750	19.949	3.246	0.490
1257.999	711.013	80.011	19.993	103.756	19.947	3.387	0.524
1258.499	711.257	80.012	19.992	103.760	19.945	3.521	0.531
1258.999	711.499	80.010	19.990	103.767	19.946	3.452	0.504
1259.499	711.784	80.011	19.995	103.770	19.949	3.209	0.506
1259.999	712.023	80.011	19.992	103.771	19.948	3.288	0.525
1260.499	712.263	80.011	19.993	103.768	19.946	3.448	0.502
1260.999	712.528	80.011	19.995	103.768	19.946	3.461	0.492
1261.499	712.757	80.011	19.993	103.763	19.946	3.434	0.499
1261.999	713.021	80.010	19.993	103.760	19.946	3.414	0.494
1262.499	713.292	80.010	19.994	103.757	19.948	3.301	0.514
1262.999	713.537	80.007	19.993	103.756	19.945	3.480	0.525
1263.499	713.782	80.009	19.993	103.754	19.944	3.551	0.503
1263.999	714.015	80.010	19.993	103.751	19.947	3.395	0.484
1264.499	714.282	80.009	19.995	103.752	19.945	3.514	0.488
1264.999	714.546	80.010	19.994	103.750	19.950	3.181	0.515
1265.499	714.815	80.010	19.994	103.748	19.943	3.672	0.532
1265.999	715.073	80.009	19.994	103.747	19.946	3.425	0.530
1266.499	715.294	80.010	19.994	103.746	19.946	3.399	0.503
1266.999	715.532	80.008	19.994	103.746	19.946	3.425	0.469
1267.499	715.804	80.010	19.994	103.746	19.944	3.576	0.484
1267.999	716.105	80.008	19.994	103.745	19.945	3.474	0.542
1268.499	716.322	80.010	19.993	103.745	19.946	3.414	0.546
1268.999	716.596	80.010	19.994	103.747	19.946	3.403	0.504
1269.499	716.849	80.008	19.992	103.750	19.946	3.418	0.509
1269.999	717.124	80.010	19.994	103.753	19.943	3.657	0.528
1270.499	717.336	80.009	19.995	103.756	19.946	3.410	0.508
1270.999	717.604	80.009	19.994	103.756	19.943	3.608	0.483
1271.499	717.847	80.009	19.995	103.756	19.944	3.566	0.495
1271.999	718.107	80.010	19.994	103.753	19.946	3.427	0.507
1272.499	718.352	80.008	19.995	103.750	19.943	3.604	0.503
1272.999	718.629	80.009	19.995	103.747	19.946	3.457	0.513
1273.499	718.873	80.008	19.994	103.747	19.945	3.491	0.522
1273.999	719.142	80.008	19.995	103.746	19.945	3.489	0.517
1274.499	719.395	80.009	19.995	103.752	19.945	3.506	0.517
1274.999	719.629	80.010	19.994	103.756	19.948	3.310	0.504
1275.499	719.883	80.009	19.994	103.757	19.943	3.623	0.487
1275.999	720.134	80.009	19.994	103.758	19.944	3.559	0.497
1276.500	720.397	80.009	19.995	103.758	19.944	3.580	0.510
1277.001	720.626	80.009	19.993	103.752	19.944	3.567	0.503
1277.501	720.913	80.009	19.993	103.750	19.948	3.262	0.504
1278.000	721.143	80.010	19.994	103.751	19.941	3.761	0.516
1278.499	721.384	80.008	19.994	103.757	19.944	3.570	0.494
1278.999	721.664	80.009	19.994	103.761	19.949	3.252	0.496
1279.499	721.901	80.008	19.994	103.766	19.942	3.682	0.519
1279.999	722.173	80.009	19.995	103.766	19.944	3.593	0.513
1280.500	722.406	80.008	19.994	103.767	19.953	2.934	0.507
1281.000	722.668	80.010	19.993	103.761	19.946	3.414	0.500
1281.499	722.934	80.010	19.993	103.757	19.943	3.610	0.512
1281.999	723.185	80.009	19.995	103.753	19.947	3.342	0.523
1282.499	723.441	80.008	19.994	103.752	19.943	3.606	0.512
1282.999	723.687	80.010	19.993	103.750	19.946	3.452	0.504
1283.499	723.921	80.009	19.993	103.751	19.947	3.382	0.491
1283.999	724.190	80.009	19.993	103.754	19.947	3.350	0.492
1284.500	724.428	80.009	19.993	103.754	19.942	3.681	0.505
1285.000	724.670	80.008	19.994	103.755	19.946	3.405	0.493
1285.499	724.916	80.010	19.992	103.753	19.946	3.424	0.484
1285.999	725.161	80.009	19.992	103.753	19.944	3.586	0.489
1286.499	725.423	80.010	19.993	103.752	19.944	3.565	0.499
1286.999	725.694	80.009	19.993	103.756	19.946	3.435	0.520
1287.499	725.935	80.009	19.992	103.759	19.947	3.378	0.523
1287.999	726.200	80.009	19.992	103.762	19.947	3.372	0.509
1288.499	726.429	80.008	19.994	103.763	19.944	3.564	0.500
1288.999	726.700	80.009	19.991	103.762	19.943	3.659	0.497
1289.499	726.954	80.009	19.992	103.761	19.946	3.446	0.512
1289.999	727.180	80.009	19.993	103.763	19.943	3.610	0.503
1290.499	727.418	80.009	19.991	103.767	19.946	3.433	0.472
1290.999	727.680	80.009	19.993	103.768	19.944	3.538	0.482
1291.499	727.935	80.010	19.994	103.766	19.946	3.454	0.508
1291.999	728.182	80.010	19.991	103.763	19.945	3.529	0.510
1292.499	728.474	80.009	19.992	103.758	19.946	3.397	0.521
1292.999	728.646	80.008	19.993	103.753	19.942	3.683	0.502
1293.499	728.871	80.007	19.993	103.755	19.945	3.495	0.430
1294.000	729.204	80.008	19.994	103.756	19.944	3.593	0.478
1294.500	729.472	80.011	19.991	103.756	19.942	3.687	0.580
1294.999	729.697	80.007	19.993	103.761	19.944	3.591	0.547
1295.499	729.954	80.009	19.993	103.763	19.941	3.794	0.487
1295.999	730.211	80.009	19.992	103.761	19.944	3.570	0.498
1296.499	730.437	80.010	19.993	103.764	19.946	3.436	0.499
1297.000	730.693	80.008	19.992	103.765	19.947	3.388	0.482
1297.500	730.948	80.009	19.991	103.761	19.944	3.544	0.497
1297.999	731.171	80.009	19.991	103.757	19.943	3.661	0.495
1298.499	731.422	80.008	19.992	103.757	19.946	3.427	0.476
1298.999	731.693	80.008	19.993	103.753	19.948	3.305	0.498
1299.500	731.910	80.008	19.991	103.753	19.943	3.647	0.505
1300.000	732.143	80.008	19.992	103.753	19.945	3.519	0.469
1300.499	732.414	80.010	19.993	103.753	19.944	3.557	0.477
1300.999	732.703	80.008	19.993	103.754	19.946	3.449	0.532
1301.499	732.902	80.009	19.994	103.757	19.944	3.579	0.523
1301.999	733.168	80.009	19.994	103.758	19.946	3.465	0.476
1302.500	733.420	80.009	19.993	103.758	19.942	3.685	0.492
1303.000	733.663	80.008	19.993	103.759	19.946	3.449	0.507
1303.500	733.928	80.007	19.993	103.757	19.945	3.493	0.501
1304.000	734.141	80.008	19.994	103.753	19.943	3.621	0.493
1304.499	734.404	80.009	19.993	103.756	19.943	3.641	0.477
1304.999	734.656	80.009	19.997	103.757	19.943	3.606	0.496
1305.499	734.905	80.009	19.994	103.757	19.946	3.412	0.508
1305.999	735.154	80.009	19.993	103.758	19.944	3.562	0.500
1306.499	735.393	80.009	19.992	103.758	19.944	3.557	0.493
1306.999	735.645	80.010	19.993	103.754	19.946	3.436	0.490
1307.499	735.882	80.009	19.993	103.752	19.944	3.594	0.490
1307.999	736.147	80.010	19.993	103.752	19.943	3.625	0.495
1308.499	736.396	80.010	19.993	103.752	19.944	3.534	0.508
1308.999	736.631	80.010	19.996	103.756	19.946	3.461	0.499
1309.499	736.900	80.010	19.993	103.757	19.944	3.564	0.494
1309.999	737.153	80.011	19.993	103.756	19.945	3.529	0.513
1310.499	737.390	80.010	19.993	103.755	19.946	3.450	0.506
1310.999	737.635	80.011	19.994	103.754	19.944	3.599	0.486
1311.499	737.868	80.011	19.992	103.749	19.947	3.378	0.480
1311.999	738.130	80.010	19.993	103.749	19.950	3.139	0.487
1312.499	738.424	80.011	19.992	103.749	19.943	3.651	0.525
1312.999	738.684	80.010	19.993	103.748	19.945	3.525	0.555
1313.499	738.934	80.009	19.992	103.748	19.945	3.480	0.532
1313.999	739.157	80.011	19.993	103.748	19.943	3.613	0.492
1314.499	739.409	80.010	19.993	103.748	19.944	3.572	0.474
1314.999	739.684	80.009	19.994	103.749	19.947	3.389	0.501
1315.499	739.965	80.011	19.993	103.749	19.943	3.623	0.541
1315.999	740.197	80.009	19.993	103.749	19.946	3.421	0.535
1316.499	740.452	80.011	19.993	103.749	19.945	3.512	0.500
1316.999	740.702	80.009	19.994	103.749	19.947	3.378	0.496
1317.499	740.964	80.010	19.993	103.749	19.944	3.559	0.508
1317.999	741.224	80.009	19.993	103.750	19.945	3.521	0.517
1318.499	741.504	80.010	19.991	103.749	19.944	3.539	0.531
1318.999	741.742	80.009	19.992	103.749	19.944	3.582	0.529
1319.499	741.998	80.010	19.995	103.749	19.944	3.541	0.506
1319.999	742.274	80.010	19.994	103.748	19.942	3.706	0.513
1320.499	742.496	80.010	19.993	103.748	19.944	3.582	0.515
1320.999	742.769	80.009	19.994	103.752	19.941	3.804	0.497
1321.499	742.989	80.010	19.991	103.757	19.943	3.662	0.494
1321.999	743.309	80.010	19.990	103.761	19.943	3.651	0.516
1322.499	743.512	80.011	19.994	103.761	19.944	3.581	0.531
1322.999	743.782	80.010	19.993	103.760	19.942	3.707	0.498
1323.499	744.077	80.010	19.993	103.756	19.943	3.668	0.519
1323.999	744.338	80.010	19.992	103.751	19.943	3.647	0.561
1324.499	744.625	80.011	19.994	103.748	19.940	3.832	0.552
1324.999	744.844	80.010	19.992	103.749	19.942	3.734	0.527
1325.499	745.098	80.011	19.993	103.750	19.945	3.502	0.489
