Sample ID:	C:\MCC\MCC Cal\Test\Fiberglas_Insulation3B_MCC_30K_min_220222_R2.txt
Sample Weight (mg):	4.91
Heating Rate (C/s):	0.5
Combustor Temp (C):	900
N2 Flow Rate (cc/min):	80
O2 Flow Rate (cc/min):	20
Calibration File:	C:\MCC\MCC Cal\Coeff1 JN10440_30_210304.txt.txt
T Correction Coefficients:	0	1.024463	0
Time Shift (s):	14
*
Time (s)	Temperature (C)	N2 flow rate (cc/min)	O2 flow rate (cc/min)	Flow Rate (cc/min)	Oxygen (%)	HRR (W/g)	Heating rate (C/s)
0.000	116.250	80.003	19.994	103.645	20.021	0.125	-0.013
0.500	116.283	80.004	19.994	103.644	20.019	0.244	-0.023
1.000	116.244	80.003	19.993	103.644	20.018	0.294	-0.011
1.500	116.251	80.002	19.994	103.644	20.022	0.053	-0.019
2.000	116.252	80.004	19.997	103.645	20.023	-0.024	-0.012
2.500	116.274	80.004	19.996	103.651	20.018	0.311	0.016
3.000	116.284	80.004	19.996	103.654	20.024	-0.062	0.027
3.500	116.262	80.004	19.996	103.658	20.023	-0.024	0.010
4.000	116.224	80.005	19.996	103.658	20.023	-0.013	-0.036
4.500	116.216	80.004	19.996	103.659	20.019	0.262	-0.053
5.000	116.272	80.004	19.994	103.654	20.021	0.118	0.001
5.500	116.233	80.004	19.994	103.655	20.022	0.069	0.033
6.000	116.231	80.005	19.995	103.656	20.019	0.253	-0.012
6.500	116.281	80.003	19.994	103.661	20.019	0.269	0.003
7.000	116.199	80.004	19.994	103.661	20.019	0.213	0.008
7.500	116.229	80.004	19.995	103.665	20.021	0.102	-0.042
8.001	116.228	80.003	19.993	103.665	20.019	0.229	-0.011
8.501	116.260	80.004	19.995	103.666	20.021	0.095	0.030
9.000	116.215	80.003	19.996	103.667	20.020	0.193	0.009
9.501	116.219	80.003	19.995	103.672	20.020	0.158	-0.027
10.001	116.250	80.003	19.994	103.673	20.020	0.196	-0.003
10.501	116.214	80.004	19.994	103.672	20.020	0.156	0.015
11.000	116.224	80.004	19.994	103.668	20.020	0.151	-0.015
11.500	116.229	80.004	19.995	103.662	20.020	0.200	-0.006
12.000	116.235	80.002	19.996	103.655	20.015	0.498	0.013
12.500	116.209	80.003	19.994	103.651	20.017	0.349	-0.004
13.000	116.250	80.004	19.994	103.655	20.017	0.371	-0.002
13.500	116.251	80.004	19.995	103.659	20.021	0.080	0.029
14.000	116.216	80.003	19.995	103.665	20.019	0.236	0.004
14.500	116.218	80.002	19.995	103.668	20.021	0.144	-0.034
15.000	116.228	80.002	19.994	103.667	20.015	0.514	-0.011
15.500	116.239	80.004	19.993	103.661	20.019	0.247	0.016
16.000	116.244	80.003	19.995	103.658	20.016	0.456	0.019
16.500	116.223	80.002	19.995	103.652	20.015	0.518	-0.000
17.000	116.235	80.002	19.997	103.651	20.019	0.256	-0.013
17.500	116.207	80.001	19.996	103.653	20.019	0.253	-0.013
18.000	116.240	80.003	19.997	103.657	20.018	0.311	-0.006
18.500	116.222	80.002	19.994	103.662	20.021	0.111	0.010
19.000	116.205	80.002	19.996	103.668	20.015	0.507	-0.010
19.500	116.234	80.003	19.994	103.673	20.018	0.293	-0.012
20.000	116.223	80.004	19.995	103.678	20.017	0.389	0.015
20.500	116.206	80.003	19.994	103.681	20.017	0.362	-0.005
21.000	116.249	80.003	19.993	103.683	20.017	0.364	-0.001
21.500	116.242	80.002	19.997	103.683	20.018	0.333	0.031
22.000	116.231	80.003	19.996	103.685	20.018	0.280	0.009
22.500	116.272	80.003	19.995	103.685	20.023	-0.007	0.006
23.000	116.273	80.004	19.994	103.685	20.016	0.422	0.036
23.500	116.251	80.003	19.994	103.685	20.014	0.541	0.011
24.000	116.290	80.003	19.994	103.685	20.018	0.326	-0.002
24.500	116.262	80.004	19.995	103.687	20.017	0.359	0.014
25.000	116.266	80.004	19.995	103.686	20.014	0.595	-0.006
25.500	116.280	80.003	19.994	103.689	20.013	0.613	-0.003
26.000	116.286	80.004	19.994	103.692	20.015	0.482	0.019
26.500	116.295	80.003	19.996	103.697	20.013	0.650	0.018
27.000	116.312	80.005	19.995	103.702	20.011	0.776	0.021
27.500	116.322	80.005	19.995	103.710	20.012	0.705	0.027
28.000	116.328	80.004	19.995	103.714	20.010	0.825	0.021
28.500	116.298	80.003	19.996	103.719	20.011	0.787	-0.004
29.000	116.337	80.003	19.995	103.722	20.009	0.910	-0.008
29.500	116.338	80.005	19.994	103.727	20.009	0.876	0.024
30.000	116.349	80.005	19.994	103.735	20.006	1.111	0.026
30.500	116.399	80.004	19.995	103.741	20.008	0.971	0.037
31.000	116.384	80.004	19.995	103.748	20.007	1.033	0.048
31.500	116.443	80.003	19.994	103.755	20.003	1.278	0.039
32.000	116.429	80.003	19.992	103.761	20.001	1.442	0.044
32.500	116.454	80.004	19.997	103.768	20.001	1.459	0.028
33.000	116.468	80.002	19.996	103.778	20.001	1.457	0.025
33.500	116.515	80.004	19.997	103.788	19.997	1.705	0.050
34.000	116.539	80.002	19.996	103.796	19.995	1.821	0.066
34.500	116.544	80.001	19.994	103.805	19.993	1.940	0.050
35.000	116.602	80.001	19.995	103.813	19.994	1.883	0.046
35.500	116.615	80.003	19.996	103.821	19.991	2.075	0.067
36.000	116.666	80.002	19.994	103.827	19.989	2.250	0.067
36.500	116.693	80.002	19.997	103.833	19.987	2.370	0.071
37.000	116.723	80.001	19.995	103.838	19.990	2.182	0.068
37.500	116.777	80.002	19.996	103.839	19.988	2.319	0.070
38.000	116.820	80.002	19.994	103.840	19.984	2.534	0.090
38.500	116.878	80.002	19.994	103.840	19.983	2.643	0.099
39.000	116.897	80.001	19.993	103.842	19.983	2.637	0.089
39.500	116.922	80.002	19.994	103.846	19.983	2.652	0.060
40.000	116.997	80.002	19.995	103.849	19.982	2.703	0.072
40.500	117.050	80.001	19.995	103.854	19.983	2.608	0.114
41.000	117.117	80.002	19.997	103.859	19.981	2.770	0.124
41.500	117.184	80.002	19.994	103.864	19.982	2.694	0.127
42.000	117.242	80.002	19.994	103.868	19.982	2.703	0.129
42.501	117.301	80.002	19.994	103.874	19.981	2.747	0.121
43.001	117.390	80.001	19.994	103.876	19.984	2.537	0.132
43.500	117.433	80.001	19.994	103.879	19.982	2.674	0.140
44.001	117.487	80.001	19.995	103.882	19.980	2.801	0.115
44.501	117.563	80.002	19.993	103.882	19.978	2.958	0.113
45.000	117.632	80.001	19.994	103.883	19.982	2.677	0.137
45.500	117.730	80.002	19.995	103.885	19.976	3.111	0.156
46.000	117.803	80.002	19.993	103.890	19.980	2.834	0.169
46.500	117.879	80.002	19.994	103.892	19.981	2.783	0.159
47.000	117.938	80.001	19.994	103.894	19.981	2.776	0.142
47.500	118.019	80.001	19.995	103.894	19.980	2.803	0.138
48.000	118.134	80.002	19.993	103.894	19.975	3.129	0.168
48.500	118.178	80.001	19.993	103.890	19.978	2.974	0.178
49.000	118.291	80.002	19.995	103.889	19.976	3.051	0.158
49.500	118.370	80.001	19.994	103.889	19.976	3.058	0.174
50.000	118.472	80.002	19.993	103.888	19.977	3.014	0.186
50.500	118.546	80.002	19.994	103.887	19.978	2.964	0.178
51.000	118.671	80.001	19.993	103.886	19.978	2.927	0.188
51.500	118.747	80.001	19.992	103.884	19.978	2.971	0.200
52.000	118.830	80.002	19.995	103.884	19.976	3.093	0.180
52.500	118.917	80.000	19.992	103.884	19.977	2.997	0.165
53.000	119.059	80.001	19.994	103.884	19.976	3.093	0.199
53.500	119.160	80.002	19.995	103.884	19.974	3.242	0.236
54.000	119.273	80.003	19.993	103.884	19.975	3.146	0.228
54.500	119.370	80.002	19.993	103.884	19.975	3.173	0.212
55.000	119.493	80.001	19.993	103.883	19.975	3.169	0.215
55.500	119.581	80.001	19.994	103.883	19.974	3.233	0.215
56.000	119.749	80.003	19.994	103.883	19.977	3.047	0.233
56.500	119.829	80.001	19.993	103.882	19.975	3.155	0.252
57.000	119.969	80.003	19.993	103.883	19.975	3.160	0.235
57.500	120.061	80.003	19.992	103.883	19.975	3.166	0.226
58.000	120.176	80.001	19.995	103.884	19.973	3.250	0.219
58.500	120.265	80.003	19.994	103.884	19.976	3.093	0.205
59.000	120.428	80.001	19.993	103.884	19.978	2.973	0.228
59.501	120.514	80.002	19.993	103.884	19.976	3.084	0.251
60.001	120.638	80.003	19.996	103.883	19.976	3.051	0.229
60.501	120.765	80.002	19.995	103.882	19.976	3.104	0.230
61.001	120.914	80.002	19.994	103.887	19.973	3.277	0.264
61.501	121.023	80.002	19.995	103.894	19.975	3.151	0.267
62.000	121.173	80.003	19.995	103.900	19.974	3.246	0.258
62.500	121.323	80.001	19.995	103.905	19.972	3.342	0.280
63.000	121.465	80.001	19.993	103.911	19.971	3.410	0.296
63.500	121.590	80.002	19.995	103.912	19.973	3.281	0.279
64.000	121.731	80.002	19.995	103.905	19.974	3.221	0.266
64.500	121.860	80.002	19.994	103.901	19.974	3.237	0.268
65.000	122.003	80.002	19.993	103.899	19.972	3.344	0.271
65.500	122.141	80.004	19.993	103.896	19.970	3.490	0.277
66.000	122.295	80.003	19.994	103.890	19.972	3.343	0.287
66.500	122.485	80.002	19.994	103.891	19.971	3.395	0.318
67.000	122.608	80.001	19.994	103.889	19.975	3.181	0.328
67.500	122.736	80.002	19.994	103.887	19.974	3.201	0.282
68.000	122.898	80.003	19.993	103.888	19.975	3.166	0.271
68.500	123.054	80.002	19.994	103.890	19.971	3.403	0.304
69.000	123.189	80.002	19.992	103.895	19.971	3.408	0.304
69.500	123.388	80.002	19.994	103.899	19.971	3.390	0.312
70.000	123.533	80.002	19.993	103.902	19.971	3.408	0.339
70.500	123.680	80.003	19.993	103.897	19.972	3.377	0.318
71.000	123.822	80.002	19.993	103.896	19.970	3.459	0.290
71.500	123.999	80.003	19.994	103.890	19.969	3.532	0.304
72.000	124.151	80.002	19.994	103.887	19.972	3.379	0.324
72.500	124.327	80.002	19.994	103.885	19.973	3.290	0.329
73.000	124.460	80.004	19.991	103.891	19.974	3.246	0.319
73.500	124.616	80.002	19.991	103.894	19.974	3.191	0.299
74.000	124.799	80.004	19.994	103.899	19.971	3.406	0.314
74.500	124.915	80.002	19.994	103.902	19.973	3.313	0.319
75.000	125.092	80.003	19.994	103.903	19.971	3.435	0.296
75.500	125.261	80.003	19.995	103.900	19.972	3.351	0.320
76.000	125.444	80.002	19.995	103.898	19.975	3.178	0.349
76.500	125.611	80.002	19.992	103.898	19.972	3.342	0.351
77.000	125.749	80.003	19.995	103.899	19.971	3.444	0.327
77.501	125.900	80.004	19.992	103.901	19.970	3.500	0.297
78.001	126.093	80.003	19.995	103.901	19.969	3.570	0.316
78.501	126.256	80.004	19.993	103.902	19.972	3.324	0.350
79.001	126.439	80.004	19.994	103.902	19.968	3.626	0.351
79.501	126.593	80.004	19.994	103.903	19.970	3.499	0.341
80.001	126.790	80.004	19.994	103.902	19.971	3.424	0.344
80.501	126.945	80.005	19.994	103.899	19.970	3.483	0.352
81.001	127.124	80.004	19.993	103.899	19.971	3.401	0.343
81.501	127.324	80.005	19.993	103.898	19.968	3.605	0.357
82.001	127.470	80.004	19.996	103.897	19.970	3.498	0.363
82.501	127.669	80.004	19.994	103.896	19.968	3.620	0.345
83.000	127.826	80.004	19.995	103.898	19.968	3.593	0.350
83.500	128.007	80.004	19.994	103.895	19.968	3.625	0.347
84.000	128.183	80.004	19.993	103.892	19.967	3.673	0.348
84.500	128.375	80.004	19.994	103.888	19.967	3.696	0.363
85.000	128.536	80.004	19.993	103.886	19.968	3.631	0.360
85.500	128.718	80.005	19.994	103.885	19.971	3.419	0.348
86.000	128.912	80.004	19.994	103.885	19.967	3.651	0.360
86.500	129.121	80.004	19.995	103.885	19.966	3.749	0.390
87.000	129.291	80.004	19.993	103.885	19.971	3.396	0.391
87.500	129.461	80.005	19.995	103.883	19.969	3.554	0.359
88.001	129.665	80.003	19.993	103.882	19.970	3.487	0.357
88.501	129.831	80.005	19.993	103.882	19.967	3.655	0.372
89.000	129.997	80.004	19.994	103.882	19.965	3.784	0.351
89.500	130.192	80.004	19.994	103.882	19.966	3.715	0.347
90.000	130.383	80.003	19.994	103.883	19.965	3.831	0.374
90.500	130.567	80.003	19.994	103.888	19.968	3.640	0.380
91.000	130.776	80.003	19.995	103.894	19.965	3.833	0.384
91.500	130.939	80.002	19.993	103.900	19.965	3.779	0.383
92.000	131.118	80.001	19.993	103.906	19.970	3.462	0.357
92.500	131.309	80.003	19.996	103.912	19.965	3.808	0.355
93.000	131.476	80.002	19.995	103.915	19.967	3.658	0.364
93.500	131.672	80.003	19.995	103.916	19.968	3.620	0.361
94.000	131.884	80.002	19.995	103.917	19.965	3.777	0.386
94.500	132.071	80.003	19.996	103.915	19.965	3.779	0.404
95.000	132.283	80.003	19.995	103.911	19.969	3.578	0.399
95.500	132.439	80.002	19.996	103.909	19.964	3.848	0.383
96.001	132.674	80.003	19.996	103.906	19.969	3.558	0.379
96.501	132.829	80.001	19.994	103.906	19.967	3.702	0.391
97.000	133.043	80.002	19.996	103.909	19.965	3.835	0.379
97.500	133.220	80.002	19.995	103.914	19.969	3.571	0.379
98.000	133.440	80.002	19.993	103.914	19.968	3.582	0.394
98.500	133.641	80.002	19.994	103.914	19.967	3.669	0.409
99.000	133.820	80.003	19.994	103.915	19.968	3.590	0.400
99.500	134.045	80.004	19.993	103.915	19.964	3.853	0.392
100.001	134.270	80.003	19.994	103.915	19.966	3.736	0.427
100.501	134.458	80.003	19.995	103.917	19.965	3.822	0.432
101.000	134.592	80.004	19.994	103.919	19.967	3.680	0.367
101.500	134.830	80.004	19.994	103.919	19.966	3.711	0.347
102.000	135.070	80.004	19.995	103.919	19.965	3.790	0.425
102.500	135.237	80.003	19.995	103.919	19.964	3.896	0.442
103.000	135.451	80.003	19.994	103.919	19.964	3.848	0.393
103.500	135.657	80.004	19.993	103.920	19.966	3.762	0.400
104.000	135.832	80.003	19.994	103.919	19.968	3.591	0.401
104.500	136.098	80.003	19.993	103.919	19.966	3.770	0.411
105.000	136.268	80.003	19.994	103.918	19.966	3.742	0.438
105.500	136.507	80.004	19.993	103.918	19.965	3.824	0.423
106.000	136.713	80.005	19.994	103.918	19.966	3.755	0.427
106.501	136.904	80.004	19.993	103.918	19.960	4.163	0.421
107.001	137.146	80.005	19.994	103.919	19.965	3.783	0.414
107.500	137.315	80.004	19.994	103.918	19.965	3.790	0.422
108.000	137.595	80.004	19.994	103.917	19.965	3.808	0.430
108.500	137.804	80.003	19.993	103.917	19.967	3.686	0.469
109.000	138.003	80.005	19.994	103.917	19.964	3.908	0.449
109.500	138.186	80.004	19.994	103.910	19.966	3.737	0.396
110.000	138.465	80.004	19.994	103.902	19.968	3.594	0.422
110.500	138.617	80.003	19.994	103.897	19.964	3.899	0.446
111.000	138.868	80.004	19.994	103.893	19.967	3.706	0.417
111.500	139.104	80.004	19.994	103.896	19.966	3.760	0.446
112.000	139.302	80.004	19.992	103.908	19.966	3.758	0.461
112.500	139.482	80.003	19.995	103.919	19.966	3.737	0.406
113.000	139.736	80.003	19.994	103.926	19.967	3.649	0.406
113.500	139.963	80.003	19.993	103.930	19.968	3.600	0.457
114.000	140.138	80.004	19.994	103.928	19.968	3.631	0.441
114.501	140.390	80.002	19.994	103.922	19.970	3.494	0.415
115.001	140.618	80.003	19.994	103.921	19.968	3.607	0.454
115.500	140.835	80.003	19.994	103.922	19.970	3.456	0.463
116.000	141.079	80.003	19.993	103.923	19.968	3.592	0.453
116.500	141.286	80.003	19.993	103.923	19.974	3.230	0.456
117.000	141.522	80.001	19.993	103.923	19.973	3.297	0.447
117.500	141.772	80.001	19.994	103.924	19.971	3.432	0.464
118.000	141.983	80.002	19.996	103.927	19.971	3.420	0.474
118.500	142.197	80.002	19.994	103.927	19.972	3.350	0.443
119.000	142.412	80.001	19.995	103.928	19.969	3.545	0.427
119.500	142.624	80.000	19.994	103.927	19.970	3.465	0.428
120.000	142.891	80.002	19.995	103.923	19.972	3.352	0.453
120.500	143.112	80.001	19.994	103.915	19.970	3.465	0.484
121.000	143.301	80.001	19.996	103.914	19.971	3.423	0.450
121.500	143.557	80.000	19.994	103.913	19.970	3.478	0.428
122.000	143.802	80.000	19.995	103.912	19.970	3.498	0.473
122.500	144.062	80.001	19.995	103.913	19.974	3.223	0.502
123.001	144.252	80.001	19.996	103.913	19.969	3.565	0.477
123.501	144.494	80.001	19.995	103.913	19.967	3.656	0.441
124.000	144.746	80.002	19.995	103.912	19.968	3.580	0.464
124.500	144.951	80.001	19.995	103.912	19.964	3.879	0.476
125.000	145.232	80.003	19.997	103.914	19.967	3.662	0.471
125.500	145.438	80.002	19.995	103.918	19.969	3.571	0.486
126.000	145.671	80.000	19.995	103.913	19.969	3.556	0.463
126.500	145.911	80.002	19.997	103.909	19.968	3.585	0.456
127.001	146.146	80.001	19.995	103.907	19.971	3.436	0.474
127.501	146.378	80.002	19.994	103.905	19.968	3.600	0.471
128.000	146.610	80.002	19.995	103.905	19.970	3.505	0.465
128.500	146.848	80.001	19.995	103.911	19.970	3.511	0.467
129.000	147.109	80.001	19.996	103.914	19.969	3.529	0.484
129.500	147.329	80.001	19.995	103.916	19.972	3.339	0.490
130.000	147.528	80.002	19.995	103.917	19.970	3.481	0.450
130.500	147.812	80.002	19.996	103.916	19.970	3.483	0.451
131.000	148.068	80.002	19.996	103.913	19.969	3.512	0.512
131.500	148.282	80.002	19.995	103.912	19.969	3.563	0.505
132.000	148.498	80.001	19.993	103.912	19.968	3.616	0.449
132.500	148.775	80.002	19.994	103.912	19.972	3.368	0.461
133.000	148.980	80.002	19.995	103.913	19.967	3.707	0.488
133.500	149.220	80.002	19.994	103.916	19.968	3.638	0.464
134.000	149.501	80.003	19.996	103.916	19.974	3.223	0.483
134.500	149.733	80.003	19.993	103.915	19.973	3.303	0.517
135.000	149.953	80.001	19.995	103.915	19.971	3.425	0.482
135.500	150.202	80.003	19.994	103.916	19.966	3.760	0.460
136.000	150.412	80.002	19.994	103.915	19.966	3.775	0.464
136.500	150.659	80.002	19.994	103.915	19.969	3.569	0.458
137.000	150.916	80.002	19.994	103.916	19.969	3.522	0.480
137.500	151.128	80.002	19.993	103.916	19.971	3.440	0.486
138.000	151.358	80.002	19.996	103.916	19.971	3.412	0.455
138.500	151.662	80.003	19.992	103.916	19.970	3.481	0.488
139.000	151.849	80.002	19.994	103.915	19.969	3.540	0.513
139.500	152.093	80.003	19.995	103.915	19.969	3.556	0.461
140.000	152.335	80.002	19.994	103.913	19.970	3.503	0.458
140.500	152.610	80.002	19.994	103.909	19.970	3.495	0.502
141.000	152.812	80.004	19.993	103.906	19.970	3.504	0.497
141.500	153.059	80.002	19.994	103.907	19.966	3.748	0.463
142.000	153.288	80.003	19.993	103.907	19.969	3.525	0.463
142.500	153.540	80.003	19.993	103.907	19.970	3.446	0.479
143.000	153.825	80.002	19.994	103.910	19.971	3.419	0.509
143.500	154.037	80.003	19.994	103.907	19.968	3.614	0.517
144.000	154.250	80.003	19.994	103.907	19.967	3.686	0.461
144.501	154.509	80.004	19.996	103.907	19.968	3.644	0.449
145.000	154.762	80.004	19.995	103.907	19.972	3.323	0.492
145.500	155.001	80.004	19.994	103.909	19.969	3.569	0.502
146.000	155.242	80.003	19.994	103.915	19.968	3.634	0.486
146.500	155.476	80.002	19.994	103.916	19.968	3.643	0.477
147.000	155.716	80.002	19.994	103.916	19.967	3.671	0.475
147.500	155.971	80.002	19.994	103.913	19.967	3.684	0.485
148.000	156.210	80.002	19.994	103.913	19.970	3.456	0.494
148.500	156.450	80.001	19.994	103.913	19.968	3.609	0.486
149.000	156.706	80.003	19.993	103.913	19.967	3.664	0.488
149.500	156.938	80.002	19.994	103.913	19.967	3.671	0.492
150.000	157.202	80.003	19.993	103.909	19.967	3.656	0.492
150.500	157.433	80.002	19.994	103.902	19.971	3.383	0.495
151.000	157.674	80.003	19.996	103.896	19.968	3.627	0.483
151.500	157.909	80.002	19.995	103.889	19.967	3.673	0.474
152.000	158.177	80.000	19.993	103.885	19.967	3.707	0.490
152.500	158.407	80.003	19.995	103.888	19.968	3.612	0.500
153.000	158.642	80.002	19.995	103.894	19.966	3.745	0.481
153.500	158.855	80.002	19.995	103.899	19.964	3.863	0.457
154.000	159.131	80.002	19.996	103.906	19.970	3.466	0.469
154.500	159.332	80.001	19.995	103.912	19.966	3.747	0.483
155.000	159.604	80.002	19.995	103.916	19.968	3.623	0.475
155.500	159.853	80.001	19.994	103.913	19.964	3.869	0.497
156.000	160.090	80.001	19.994	103.910	19.967	3.692	0.503
156.500	160.337	80.002	19.995	103.907	19.970	3.499	0.485
157.000	160.601	80.002	19.995	103.903	19.969	3.557	0.498
157.500	160.861	80.002	19.994	103.901	19.970	3.475	0.517
158.000	161.113	80.002	19.995	103.905	19.968	3.603	0.518
158.500	161.365	80.003	19.994	103.908	19.968	3.590	0.508
159.000	161.594	80.002	19.994	103.910	19.974	3.245	0.493
159.500	161.827	80.002	19.997	103.910	19.971	3.435	0.471
160.000	162.070	80.003	19.994	103.909	19.968	3.637	0.469
160.500	162.323	80.003	19.995	103.906	19.970	3.488	0.486
161.000	162.598	80.003	19.995	103.905	19.972	3.315	0.513
161.500	162.829	80.002	19.994	103.905	19.966	3.743	0.517
162.000	163.092	80.004	19.994	103.907	19.968	3.588	0.500
162.501	163.312	80.003	19.994	103.910	19.967	3.695	0.488
163.000	163.576	80.003	19.994	103.912	19.970	3.475	0.483
163.500	163.854	80.004	19.993	103.906	19.971	3.437	0.513
164.000	164.096	80.003	19.993	103.899	19.972	3.364	0.531
164.500	164.385	80.004	19.993	103.896	19.969	3.526	0.525
165.000	164.573	80.004	19.996	103.895	19.967	3.670	0.504
165.500	164.867	80.003	19.995	103.890	19.968	3.603	0.480
166.000	165.114	80.003	19.993	103.892	19.970	3.487	0.512
166.500	165.326	80.003	19.995	103.895	19.968	3.589	0.500
167.001	165.590	80.003	19.994	103.900	19.968	3.611	0.467
167.500	165.854	80.003	19.996	103.896	19.969	3.516	0.502
168.000	166.115	80.004	19.994	103.895	19.967	3.652	0.527
168.500	166.317	80.003	19.994	103.892	19.969	3.565	0.494
169.000	166.594	80.004	19.994	103.888	19.968	3.639	0.471
169.500	166.873	80.004	19.994	103.882	19.973	3.268	0.517
170.000	167.125	80.003	19.993	103.881	19.972	3.340	0.544
170.500	167.395	80.002	19.993	103.881	19.969	3.546	0.526
171.000	167.621	80.003	19.994	103.884	19.970	3.459	0.509
171.500	167.891	80.004	19.993	103.885	19.970	3.477	0.496
172.000	168.135	80.003	19.995	103.887	19.972	3.333	0.505
172.500	168.402	80.003	19.993	103.886	19.969	3.517	0.513
173.000	168.664	80.003	19.993	103.886	19.970	3.464	0.520
173.500	168.899	80.003	19.993	103.884	19.969	3.577	0.513
174.000	169.125	80.002	19.994	103.883	19.972	3.356	0.479
174.500	169.390	80.002	19.994	103.882	19.973	3.276	0.476
175.000	169.641	80.002	19.993	103.886	19.971	3.400	0.503
175.500	169.920	80.002	19.994	103.890	19.973	3.269	0.523
176.000	170.152	80.002	19.993	103.897	19.971	3.399	0.521
176.500	170.432	80.002	19.993	103.901	19.971	3.388	0.512
177.000	170.654	80.002	19.993	103.909	19.972	3.360	0.507
177.500	170.904	80.002	19.994	103.910	19.970	3.495	0.487
178.000	171.133	80.002	19.994	103.907	19.973	3.247	0.476
178.500	171.388	80.002	19.993	103.904	19.976	3.111	0.482
179.000	171.660	80.002	19.993	103.900	19.972	3.316	0.506
179.500	171.894	80.002	19.996	103.894	19.971	3.395	0.516
180.000	172.115	80.004	19.995	103.890	19.971	3.424	0.481
180.500	172.400	80.004	19.993	103.891	19.969	3.539	0.481
181.000	172.651	80.003	19.994	103.889	19.970	3.493	0.521
181.500	172.906	80.003	19.993	103.888	19.975	3.176	0.521
182.000	173.176	80.003	19.993	103.887	19.969	3.515	0.516
182.500	173.442	80.003	19.994	103.887	19.968	3.583	0.530
183.000	173.627	80.004	19.993	103.885	19.970	3.486	0.493
183.501	173.934	80.004	19.994	103.881	19.970	3.479	0.471
184.001	174.190	80.002	19.993	103.878	19.970	3.488	0.527
184.500	174.461	80.004	19.995	103.878	19.972	3.315	0.545
185.000	174.689	80.003	19.994	103.878	19.970	3.506	0.514
185.500	174.929	80.005	19.994	103.880	19.969	3.518	0.484
186.000	175.199	80.004	19.994	103.882	19.972	3.365	0.489
186.500	175.466	80.003	19.994	103.884	19.969	3.522	0.523
187.000	175.711	80.004	19.994	103.884	19.969	3.517	0.525
187.500	175.936	80.004	19.994	103.882	19.971	3.389	0.491
188.000	176.194	80.005	19.995	103.879	19.973	3.313	0.476
188.500	176.428	80.004	19.994	103.877	19.972	3.362	0.487
189.000	176.693	80.004	19.995	103.876	19.973	3.254	0.495
189.500	176.917	80.004	19.995	103.877	19.975	3.171	0.494
190.000	177.240	80.004	19.994	103.877	19.970	3.446	0.518
190.500	177.459	80.005	19.994	103.879	19.975	3.167	0.544
191.000	177.703	80.003	19.994	103.881	19.975	3.116	0.503
191.500	177.963	80.004	19.995	103.882	19.971	3.418	0.484
192.000	178.225	80.005	19.995	103.882	19.971	3.411	0.513
192.500	178.472	80.006	19.995	103.886	19.970	3.451	0.515
193.000	178.719	80.005	19.994	103.889	19.973	3.270	0.502
193.500	178.956	80.004	19.994	103.890	19.972	3.329	0.489
194.000	179.239	80.003	19.995	103.889	19.974	3.225	0.502
194.500	179.411	80.005	19.994	103.889	19.973	3.256	0.487
195.000	179.692	80.004	19.994	103.883	19.973	3.289	0.454
195.500	179.977	80.002	19.994	103.878	19.974	3.211	0.510
196.000	180.221	80.004	19.995	103.875	19.972	3.356	0.548
196.500	180.443	80.002	19.994	103.875	19.970	3.506	0.497
197.000	180.726	80.003	19.996	103.876	19.971	3.402	0.485
197.500	180.959	80.002	19.992	103.877	19.972	3.355	0.511
198.000	181.198	80.001	19.994	103.877	19.976	3.076	0.494
198.500	181.467	80.003	19.995	103.877	19.974	3.183	0.490
199.000	181.739	80.002	19.993	103.878	19.971	3.387	0.524
199.500	181.983	80.002	19.996	103.877	19.974	3.236	0.528
200.000	182.242	80.002	19.993	103.875	19.974	3.183	0.509
200.500	182.475	80.002	19.994	103.875	19.974	3.231	0.498
201.000	182.721	80.002	19.995	103.875	19.975	3.138	0.486
201.500	182.997	80.002	19.993	103.875	19.977	2.999	0.500
202.000	183.245	80.002	19.995	103.875	19.974	3.183	0.523
202.500	183.421	80.001	19.994	103.878	19.975	3.147	0.474
203.000	183.757	80.002	19.993	103.875	19.976	3.109	0.468
203.500	183.957	80.002	19.994	103.869	19.975	3.151	0.524
204.000	184.220	80.002	19.993	103.865	19.976	3.058	0.499
204.500	184.481	80.002	19.992	103.865	19.974	3.202	0.493
205.000	184.780	80.002	19.994	103.864	19.974	3.214	0.542
205.501	184.958	80.001	19.993	103.867	19.971	3.424	0.518
206.001	185.228	80.002	19.993	103.873	19.970	3.451	0.462
206.500	185.472	80.003	19.995	103.876	19.975	3.121	0.481
207.000	185.716	80.003	19.994	103.877	19.973	3.304	0.501
207.500	186.003	80.002	19.993	103.876	19.972	3.366	0.509
208.000	186.234	80.003	19.995	103.878	19.973	3.274	0.524
208.500	186.512	80.002	19.996	103.878	19.975	3.161	0.514
209.000	186.775	80.002	19.995	103.878	19.975	3.167	0.525
209.500	187.033	80.003	19.993	103.878	19.975	3.136	0.531
210.000	187.281	80.003	19.993	103.879	19.973	3.267	0.513
210.500	187.531	80.003	19.994	103.878	19.976	3.081	0.502
211.001	187.744	80.002	19.994	103.877	19.972	3.338	0.481
211.500	188.035	80.001	19.993	103.877	19.972	3.327	0.484
212.000	188.282	80.001	19.993	103.876	19.973	3.276	0.520
212.500	188.539	80.002	19.997	103.876	19.973	3.289	0.521
213.000	188.796	80.002	19.997	103.876	19.976	3.089	0.509
213.500	189.007	80.002	19.998	103.877	19.976	3.103	0.491
214.000	189.252	80.003	19.997	103.877	19.976	3.107	0.462
214.500	189.563	80.002	19.995	103.876	19.973	3.298	0.507
215.000	189.777	80.002	19.995	103.876	19.972	3.347	0.541
215.500	190.013	80.003	19.996	103.876	19.973	3.296	0.487
216.000	190.308	80.002	19.995	103.875	19.972	3.363	0.490
216.500	190.514	80.003	19.996	103.875	19.972	3.351	0.516
217.000	190.755	80.002	19.996	103.875	19.974	3.203	0.474
217.500	191.031	80.002	19.996	103.876	19.972	3.320	0.482
218.000	191.286	80.002	19.995	103.876	19.972	3.316	0.524
218.500	191.504	80.003	19.995	103.877	19.976	3.050	0.502
219.000	191.747	80.002	19.995	103.876	19.975	3.152	0.467
219.500	191.993	80.001	19.996	103.873	19.977	3.039	0.475
220.000	192.257	80.002	19.995	103.871	19.976	3.109	0.500
220.500	192.514	80.002	19.995	103.869	19.975	3.136	0.516
221.000	192.760	80.003	19.994	103.869	19.974	3.194	0.512
221.500	192.981	80.002	19.995	103.868	19.975	3.116	0.484
222.000	193.247	80.004	19.994	103.871	19.979	2.864	0.477
222.500	193.470	80.003	19.994	103.873	19.971	3.385	0.488
223.000	193.723	80.002	19.995	103.874	19.973	3.300	0.483
223.500	193.974	80.002	19.995	103.873	19.974	3.205	0.490
224.000	194.243	80.002	19.994	103.874	19.973	3.300	0.512
224.500	194.483	80.003	19.995	103.875	19.977	3.027	0.514
225.000	194.762	80.003	19.995	103.874	19.975	3.179	0.514
225.500	194.985	80.002	19.995	103.873	19.973	3.278	0.510
226.000	195.249	80.001	19.994	103.871	19.974	3.231	0.494
226.500	195.488	80.002	19.994	103.871	19.975	3.163	0.495
227.000	195.721	80.001	19.993	103.869	19.974	3.227	0.488
227.500	195.963	80.003	19.993	103.871	19.974	3.187	0.473
228.000	196.233	80.002	19.994	103.870	19.975	3.139	0.493
228.500	196.448	80.003	19.994	103.870	19.975	3.138	0.498
229.000	196.717	80.002	19.994	103.869	19.978	2.926	0.484
229.500	196.954	80.003	19.994	103.871	19.976	3.069	0.495
230.000	197.184	80.002	19.994	103.871	19.976	3.059	0.487
230.500	197.411	80.002	19.994	103.873	19.978	2.954	0.462
231.000	197.666	80.002	19.993	103.878	19.975	3.180	0.470
231.500	197.934	80.001	19.994	103.877	19.975	3.134	0.503
232.000	198.214	80.002	19.995	103.873	19.978	2.950	0.535
232.500	198.463	80.002	19.995	103.870	19.973	3.276	0.538
233.000	198.683	80.002	19.994	103.869	19.977	3.015	0.499
233.500	198.938	80.003	19.994	103.867	19.975	3.128	0.472
234.000	199.199	80.002	19.994	103.865	19.977	2.997	0.495
234.500	199.418	80.003	19.993	103.868	19.976	3.074	0.498
235.000	199.686	80.001	19.994	103.870	19.976	3.101	0.484
235.500	199.954	80.003	19.994	103.867	19.979	2.894	0.512
236.000	200.183	80.003	19.994	103.867	19.978	2.937	0.517
236.500	200.421	80.003	19.994	103.872	19.976	3.070	0.482
237.000	200.666	80.003	19.994	103.874	19.977	3.023	0.475
237.500	200.904	80.002	19.994	103.870	19.978	2.926	0.483
238.000	201.122	80.001	19.995	103.871	19.981	2.720	0.469
238.500	201.378	80.003	19.994	103.869	19.981	2.720	0.465
239.000	201.605	80.003	19.993	103.867	19.980	2.835	0.479
239.500	201.899	80.003	19.994	103.865	19.980	2.842	0.502
240.000	202.111	80.003	19.994	103.869	19.980	2.800	0.514
240.500	202.385	80.003	19.994	103.871	19.978	2.920	0.496
241.000	202.633	80.003	19.994	103.873	19.980	2.800	0.504
241.500	202.843	80.003	19.994	103.873	19.977	3.013	0.490
242.000	203.120	80.004	19.993	103.871	19.978	2.951	0.473
242.500	203.370	80.003	19.994	103.865	19.977	3.004	0.507
243.000	203.609	80.004	19.995	103.864	19.979	2.884	0.508
243.500	203.853	80.004	19.993	103.860	19.981	2.776	0.486
244.000	204.096	80.003	19.994	103.859	19.978	2.964	0.485
244.500	204.315	80.003	19.994	103.858	19.983	2.595	0.475
245.000	204.586	80.003	19.994	103.863	19.981	2.762	0.476
245.500	204.867	80.003	19.994	103.866	19.980	2.786	0.521
246.000	205.102	80.005	19.994	103.868	19.978	2.966	0.534
246.500	205.310	80.005	19.995	103.866	19.978	2.946	0.480
247.000	205.591	80.003	19.994	103.868	19.978	2.930	0.466
247.500	205.847	80.003	19.993	103.866	19.976	3.061	0.513
248.000	206.071	80.003	19.995	103.861	19.979	2.877	0.509
248.500	206.351	80.004	19.994	103.858	19.975	3.164	0.492
249.000	206.575	80.004	19.994	103.861	19.977	3.002	0.503
249.500	206.839	80.004	19.994	103.862	19.976	3.055	0.496
250.000	207.061	80.003	19.995	103.858	19.979	2.902	0.487
250.500	207.311	80.004	19.994	103.857	19.979	2.870	0.479
251.000	207.593	80.003	19.994	103.854	19.977	3.034	0.502
251.500	207.853	80.005	19.994	103.848	19.974	3.196	0.537
252.000	208.082	80.003	19.993	103.843	19.976	3.079	0.515
252.500	208.315	80.003	19.995	103.843	19.976	3.092	0.475
253.000	208.610	80.003	19.995	103.841	19.976	3.064	0.495
253.500	208.832	80.004	19.994	103.843	19.978	2.924	0.523
254.000	209.055	80.004	19.994	103.845	19.977	2.984	0.481
254.500	209.341	80.005	19.994	103.846	19.977	2.992	0.477
255.000	209.571	80.005	19.994	103.848	19.979	2.888	0.513
255.500	209.791	80.004	19.993	103.851	19.979	2.866	0.483
256.000	210.043	80.003	19.993	103.855	19.977	3.045	0.461
256.500	210.315	80.003	19.993	103.856	19.978	2.967	0.498
257.000	210.500	80.003	19.994	103.857	19.982	2.708	0.490
257.500	210.795	80.003	19.994	103.859	19.979	2.857	0.468
258.000	211.050	80.003	19.993	103.855	19.978	2.968	0.515
258.500	211.287	80.004	19.995	103.848	19.981	2.750	0.522
259.000	211.513	80.003	19.992	103.846	19.979	2.892	0.478
259.500	211.751	80.004	19.995	103.844	19.979	2.877	0.464
260.000	211.996	80.004	19.994	103.844	19.979	2.877	0.473
260.500	212.218	80.004	19.995	103.852	19.981	2.724	0.475
261.000	212.457	80.003	19.994	103.859	19.979	2.899	0.464
261.500	212.720	80.004	19.994	103.863	19.979	2.894	0.481
262.000	212.982	80.004	19.994	103.867	19.983	2.631	0.513
262.500	213.203	80.004	19.993	103.870	19.980	2.799	0.503
263.000	213.459	80.005	19.994	103.867	19.982	2.715	0.480
263.500	213.706	80.003	19.993	103.861	19.977	3.017	0.491
264.000	213.971	80.004	19.995	103.858	19.977	2.992	0.508
264.500	214.190	80.005	19.993	103.857	19.978	2.971	0.498
265.000	214.451	80.005	19.995	103.856	19.978	2.926	0.482
265.500	214.654	80.005	19.993	103.859	19.979	2.886	0.472
266.000	214.952	80.006	19.995	103.863	19.978	2.942	0.482
266.500	215.182	80.005	19.994	103.868	19.978	2.944	0.514
267.000	215.430	80.005	19.993	103.871	19.980	2.804	0.504
267.500	215.688	80.006	19.993	103.873	19.979	2.908	0.493
268.000	215.913	80.006	19.994	103.871	19.980	2.850	0.494
268.500	216.148	80.006	19.993	103.867	19.981	2.768	0.471
269.000	216.410	80.005	19.995	103.867	19.982	2.717	0.479
269.500	216.648	80.006	19.991	103.865	19.979	2.910	0.499
270.000	216.919	80.006	19.994	103.860	19.978	2.977	0.504
270.500	217.165	80.006	19.992	103.861	19.979	2.893	0.513
271.001	217.398	80.005	19.993	103.865	19.978	2.935	0.498
271.501	217.650	80.006	19.993	103.865	19.980	2.815	0.482
272.001	217.879	80.005	19.992	103.864	19.980	2.809	0.483
272.500	218.120	80.004	19.994	103.865	19.980	2.820	0.475
273.000	218.378	80.005	19.996	103.867	19.975	3.130	0.484
273.500	218.643	80.004	19.994	103.863	19.977	3.017	0.511
274.000	218.895	80.004	19.993	103.860	19.979	2.880	0.520
274.500	219.102	80.003	19.995	103.856	19.979	2.853	0.488
275.000	219.396	80.005	19.994	103.858	19.978	2.964	0.480
275.500	219.613	80.002	19.994	103.852	19.976	3.077	0.506
276.000	219.840	80.004	19.994	103.850	19.979	2.902	0.478
276.500	220.086	80.002	19.995	103.848	19.979	2.871	0.459
277.000	220.343	80.002	19.994	103.850	19.977	3.002	0.488
277.500	220.600	80.003	19.996	103.851	19.980	2.820	0.509
278.000	220.804	80.003	19.995	103.853	19.976	3.075	0.487
278.500	221.074	80.002	19.993	103.858	19.976	3.095	0.467
279.000	221.310	80.003	19.995	103.858	19.978	2.924	0.490
279.500	221.546	80.001	19.995	103.858	19.980	2.816	0.489
280.000	221.785	80.002	19.996	103.854	19.978	2.946	0.474
280.500	222.026	80.002	19.995	103.852	19.979	2.869	0.477
281.000	222.325	80.002	19.995	103.850	19.983	2.618	0.510
281.500	222.528	80.002	19.995	103.848	19.981	2.775	0.521
282.000	222.800	80.002	19.994	103.848	19.983	2.645	0.489
282.500	223.051	80.001	19.995	103.847	19.981	2.756	0.499
283.000	223.281	80.003	19.995	103.845	19.979	2.889	0.502
283.500	223.549	80.003	19.995	103.846	19.979	2.866	0.489
284.000	223.808	80.001	19.995	103.850	19.980	2.787	0.513
284.500	224.041	80.002	19.995	103.849	19.980	2.849	0.510
285.000	224.307	80.001	19.996	103.852	19.979	2.898	0.496
285.500	224.529	80.002	19.994	103.854	19.977	3.009	0.494
286.000	224.787	80.002	19.995	103.851	19.980	2.802	0.484
286.500	225.003	80.002	19.994	103.848	19.982	2.658	0.477
287.000	225.272	80.001	19.993	103.847	19.979	2.862	0.479
287.500	225.509	80.002	19.994	103.845	19.981	2.729	0.496
288.000	225.772	80.001	19.993	103.845	19.980	2.819	0.503
288.500	226.050	80.003	19.994	103.846	19.979	2.853	0.520
289.000	226.245	80.002	19.995	103.845	19.979	2.886	0.507
289.500	226.491	80.002	19.996	103.846	19.976	3.082	0.457
290.000	226.727	80.001	19.994	103.844	19.978	2.964	0.462
290.500	227.024	80.001	19.993	103.843	19.978	2.930	0.507
291.000	227.265	80.001	19.994	103.844	19.979	2.853	0.535
291.500	227.481	80.001	19.995	103.844	19.978	2.934	0.498
292.000	227.732	80.001	19.994	103.843	19.979	2.914	0.462
292.500	227.991	80.001	19.994	103.843	19.975	3.134	0.489
293.000	228.251	80.002	19.995	103.843	19.980	2.795	0.514
293.500	228.523	80.002	19.994	103.842	19.979	2.914	0.525
294.001	228.762	80.002	19.994	103.841	19.981	2.753	0.521
294.500	229.026	80.002	19.994	103.841	19.977	3.035	0.507
295.000	229.313	80.001	19.994	103.842	19.979	2.893	0.527
295.500	229.511	80.002	19.994	103.841	19.980	2.799	0.519
296.000	229.801	80.001	19.995	103.841	19.980	2.826	0.487
296.500	230.043	80.002	19.994	103.842	19.978	2.968	0.510
297.000	230.266	80.002	19.995	103.844	19.980	2.791	0.498
297.500	230.520	80.002	19.994	103.848	19.978	2.951	0.471
298.000	230.788	80.002	19.995	103.851	19.978	2.931	0.500
298.500	231.037	80.002	19.995	103.851	19.981	2.718	0.519
299.000	231.258	80.001	19.995	103.853	19.979	2.855	0.493
299.500	231.528	80.001	19.994	103.850	19.983	2.642	0.481
300.000	231.791	80.003	19.995	103.847	19.975	3.164	0.513
300.500	232.019	80.002	19.995	103.848	19.985	2.498	0.513
301.000	232.246	80.002	19.995	103.851	19.981	2.769	0.473
301.500	232.535	80.002	19.994	103.852	19.978	2.978	0.485
302.000	232.748	80.001	19.994	103.859	19.978	2.940	0.509
302.500	233.039	80.002	19.994	103.865	19.981	2.784	0.504
303.000	233.245	80.001	19.993	103.869	19.977	3.040	0.501
303.500	233.496	80.002	19.995	103.871	19.981	2.773	0.477
304.000	233.781	80.001	19.994	103.871	19.980	2.796	0.496
304.500	234.017	80.001	19.994	103.872	19.978	2.960	0.528
305.000	234.251	80.001	19.995	103.867	19.981	2.729	0.495
305.500	234.496	80.003	19.995	103.862	19.983	2.651	0.475
306.000	234.752	80.001	19.995	103.862	19.982	2.663	0.490
306.500	235.015	80.001	19.995	103.861	19.981	2.749	0.510
307.000	235.252	80.002	19.996	103.854	19.981	2.734	0.509
307.500	235.488	80.000	19.994	103.852	19.981	2.762	0.487
308.000	235.720	80.001	19.996	103.850	19.982	2.687	0.470
308.500	235.973	80.001	19.996	103.845	19.978	2.924	0.476
309.000	236.221	80.000	19.995	103.844	19.980	2.798	0.493
309.500	236.480	80.000	19.996	103.844	19.978	2.922	0.504
310.000	236.718	80.000	19.995	103.844	19.983	2.603	0.502
310.500	236.975	80.001	19.995	103.845	19.981	2.725	0.496
311.000	237.235	80.001	19.995	103.844	19.981	2.780	0.506
311.500	237.468	80.000	19.995	103.844	19.984	2.534	0.506
312.000	237.719	80.001	19.995	103.843	19.984	2.536	0.489
312.500	237.937	80.001	19.994	103.842	19.979	2.889	0.476
313.000	238.215	80.000	19.994	103.841	19.980	2.807	0.482
313.500	238.442	80.002	19.994	103.841	19.982	2.665	0.501
314.000	238.718	80.001	19.995	103.841	19.981	2.771	0.504
314.500	238.973	80.001	19.995	103.841	19.981	2.766	0.517
315.000	239.201	80.001	19.995	103.842	19.978	2.935	0.507
315.500	239.380	80.002	19.995	103.841	19.983	2.607	0.445
316.000	239.677	80.002	19.995	103.841	19.982	2.660	0.441
316.500	239.906	80.003	19.994	103.841	19.977	3.038	0.501
317.000	240.193	80.003	19.995	103.841	19.980	2.844	0.522
317.500	240.405	80.003	19.995	103.840	19.979	2.858	0.508
318.000	240.676	80.003	19.995	103.839	19.979	2.878	0.491
318.500	240.943	80.003	19.995	103.839	19.978	2.977	0.510
319.000	241.160	80.003	19.994	103.838	19.976	3.095	0.511
319.500	241.443	80.002	19.995	103.837	19.977	2.984	0.492
320.000	241.650	80.002	19.994	103.837	19.974	3.182	0.495
320.500	241.906	80.002	19.994	103.837	19.975	3.168	0.477
321.001	242.194	80.004	19.994	103.838	19.976	3.062	0.504
321.501	242.429	80.002	19.993	103.839	19.977	2.987	0.534
322.000	242.670	80.002	19.994	103.839	19.977	3.026	0.500
322.500	242.902	80.004	19.993	103.839	19.979	2.867	0.475
323.001	243.161	80.004	19.994	103.839	19.978	2.949	0.482
323.501	243.432	80.004	19.994	103.840	19.980	2.835	0.510
324.000	243.660	80.003	19.993	103.839	19.981	2.774	0.515
324.500	243.899	80.004	19.994	103.845	19.985	2.494	0.483
325.000	244.124	80.004	19.994	103.849	19.978	2.929	0.465
325.500	244.432	80.004	19.993	103.850	19.977	3.017	0.499
326.000	244.659	80.005	19.994	103.849	19.980	2.845	0.534
326.500	244.923	80.003	19.992	103.849	19.981	2.784	0.513
327.000	245.174	80.003	19.994	103.843	19.983	2.591	0.503
327.500	245.397	80.003	19.993	103.839	19.982	2.656	0.495
328.000	245.672	80.003	19.993	103.838	19.977	2.986	0.486
328.500	245.897	80.003	19.993	103.838	19.979	2.913	0.499
329.000	246.191	80.004	19.993	103.838	19.982	2.655	0.509
329.500	246.417	80.003	19.994	103.839	19.979	2.897	0.519
330.000	246.638	80.002	19.994	103.840	19.979	2.915	0.484
330.500	246.880	80.002	19.994	103.840	19.982	2.669	0.455
331.001	247.117	80.004	19.994	103.840	19.982	2.700	0.471
331.500	247.341	80.002	19.995	103.841	19.979	2.906	0.470
332.000	247.606	80.002	19.992	103.840	19.979	2.895	0.475
332.500	247.820	80.003	19.995	103.840	19.980	2.820	0.484
333.000	248.080	80.005	19.996	103.840	19.982	2.682	0.477
333.500	248.332	80.003	19.996	103.839	19.978	2.933	0.493
334.000	248.601	80.002	19.994	103.839	19.979	2.874	0.516
334.500	248.850	80.002	19.994	103.839	19.982	2.701	0.520
335.000	249.103	80.003	19.994	103.840	19.983	2.636	0.511
335.500	249.354	80.003	19.994	103.840	19.985	2.487	0.503
336.000	249.621	80.002	19.994	103.840	19.980	2.822	0.510
336.500	249.869	80.004	19.995	103.840	19.981	2.731	0.516
337.000	250.168	80.003	19.993	103.840	19.978	2.916	0.531
337.500	250.390	80.003	19.994	103.839	19.983	2.630	0.534
338.000	250.649	80.002	19.994	103.843	19.982	2.696	0.501
338.500	250.928	80.004	19.994	103.847	19.984	2.558	0.509
339.000	251.148	80.003	19.994	103.849	19.983	2.643	0.518
339.500	251.394	80.003	19.994	103.848	19.986	2.399	0.482
340.000	251.640	80.004	19.995	103.848	19.983	2.600	0.479
340.500	251.885	80.003	19.993	103.844	19.981	2.773	0.492
341.000	252.161	80.003	19.994	103.840	19.981	2.742	0.506
341.500	252.386	80.003	19.994	103.839	19.986	2.423	0.511
342.000	252.675	80.004	19.994	103.839	19.982	2.660	0.507
342.500	252.893	80.002	19.994	103.839	19.984	2.572	0.511
343.000	253.093	80.004	19.994	103.839	19.982	2.716	0.463
343.500	253.388	80.003	19.995	103.839	19.979	2.862	0.456
344.000	253.638	80.003	19.994	103.836	19.983	2.632	0.520
344.500	253.871	80.004	19.996	103.833	19.981	2.765	0.514
345.000	254.123	80.004	19.994	103.832	19.981	2.765	0.484
345.500	254.353	80.004	19.993	103.831	19.981	2.740	0.483
346.000	254.601	80.005	19.994	103.829	19.982	2.714	0.480
346.500	254.847	80.003	19.995	103.830	19.981	2.749	0.487
347.000	255.108	80.004	19.994	103.833	19.979	2.882	0.501
347.501	255.371	80.004	19.993	103.834	19.982	2.702	0.516
348.000	255.585	80.004	19.993	103.830	19.982	2.713	0.500
348.500	255.856	80.004	19.993	103.829	19.982	2.656	0.481
349.000	256.095	80.004	19.995	103.830	19.983	2.587	0.497
349.500	256.365	80.004	19.994	103.830	19.981	2.734	0.510
350.000	256.594	80.004	19.994	103.829	19.981	2.767	0.504
350.500	256.841	80.005	19.994	103.831	19.981	2.749	0.487
351.000	257.058	80.004	19.993	103.834	19.980	2.805	0.470
351.500	257.330	80.004	19.994	103.836	19.982	2.707	0.476
352.000	257.566	80.005	19.995	103.836	19.978	2.929	0.498
352.500	257.829	80.005	19.994	103.838	19.982	2.700	0.504
353.000	258.097	80.005	19.993	103.838	19.980	2.846	0.515
353.500	258.321	80.005	19.994	103.833	19.982	2.667	0.512
354.000	258.639	80.005	19.994	103.832	19.980	2.806	0.517
354.500	258.854	80.003	19.994	103.831	19.984	2.560	0.537
355.000	259.102	80.003	19.994	103.828	19.980	2.804	0.498
355.500	259.333	80.003	19.993	103.827	19.979	2.898	0.471
356.000	259.588	80.004	19.993	103.831	19.982	2.705	0.482
356.500	259.848	80.003	19.994	103.831	19.985	2.482	0.501
357.000	260.080	80.003	19.993	103.832	19.983	2.649	0.503
357.500	260.350	80.001	19.993	103.836	19.983	2.611	0.496
358.000	260.574	80.003	19.994	103.839	19.981	2.773	0.498
358.500	260.757	80.003	19.994	103.840	19.983	2.640	0.451
359.000	261.035	80.002	19.993	103.841	19.980	2.815	0.434
359.500	261.260	80.001	19.993	103.841	19.983	2.596	0.482
360.000	261.524	80.001	19.994	103.840	19.981	2.760	0.496
360.500	261.801	80.002	19.994	103.840	19.980	2.827	0.515
361.000	262.046	80.002	19.995	103.840	19.981	2.720	0.531
361.500	262.270	80.003	19.994	103.840	19.982	2.665	0.495
362.000	262.522	80.002	19.995	103.840	19.984	2.558	0.473
362.500	262.786	80.000	19.994	103.841	19.980	2.820	0.496
363.000	263.004	80.002	19.994	103.842	19.983	2.651	0.499
363.500	263.273	80.002	19.994	103.843	19.983	2.618	0.484
364.000	263.501	80.001	19.993	103.844	19.982	2.702	0.492
364.500	263.759	80.001	19.995	103.846	19.983	2.596	0.492
365.000	264.017	80.002	19.993	103.847	19.983	2.616	0.501
365.500	264.270	80.002	19.993	103.847	19.984	2.571	0.514
366.000	264.505	80.001	19.996	103.846	19.984	2.552	0.500
366.500	264.780	80.001	19.994	103.845	19.985	2.519	0.499
367.000	264.982	80.003	19.995	103.846	19.982	2.678	0.494
367.500	265.268	80.002	19.996	103.845	19.982	2.663	0.483
368.000	265.493	80.001	19.995	103.845	19.983	2.614	0.500
368.500	265.764	80.001	19.996	103.845	19.980	2.843	0.503
369.000	265.983	80.001	19.995	103.845	19.982	2.687	0.492
369.500	266.253	80.001	19.994	103.843	19.984	2.565	0.489
370.000	266.533	80.001	19.994	103.842	19.981	2.723	0.520
370.500	266.757	80.000	19.995	103.842	19.982	2.674	0.527
371.000	267.008	80.001	19.995	103.842	19.983	2.629	0.489
371.500	267.223	80.003	19.994	103.842	19.983	2.592	0.470
372.000	267.517	80.002	19.996	103.842	19.981	2.782	0.488
372.500	267.727	80.002	19.995	103.842	19.981	2.769	0.506
373.000	267.996	80.001	19.993	103.842	19.981	2.720	0.491
373.500	268.223	80.002	19.995	103.843	19.984	2.543	0.488
374.000	268.497	80.001	19.996	103.842	19.983	2.634	0.499
374.500	268.742	80.002	19.995	103.841	19.982	2.676	0.510
375.000	269.000	80.001	19.994	103.841	19.982	2.698	0.511
375.500	269.226	80.001	19.996	103.841	19.980	2.798	0.494
376.000	269.491	80.002	19.995	103.841	19.982	2.692	0.488
376.500	269.733	80.002	19.996	103.839	19.983	2.632	0.499
377.000	269.981	80.002	19.995	103.837	19.982	2.705	0.499
377.500	270.231	80.002	19.995	103.833	19.980	2.791	0.494
378.000	270.453	80.003	19.995	103.830	19.984	2.581	0.485
378.500	270.752	80.002	19.994	103.828	19.983	2.589	0.496
379.000	271.006	80.003	19.994	103.829	19.982	2.680	0.537
379.500	271.285	80.004	19.995	103.828	19.981	2.765	0.543
380.000	271.511	80.002	19.994	103.830	19.981	2.722	0.519
380.500	271.742	80.002	19.995	103.832	19.982	2.687	0.481
381.000	271.992	80.001	19.995	103.834	19.984	2.583	0.469
381.500	272.260	80.003	19.994	103.834	19.983	2.645	0.499
382.000	272.502	80.003	19.994	103.835	19.980	2.791	0.514
382.500	272.745	80.002	19.994	103.834	19.984	2.531	0.498
383.000	273.007	80.002	19.993	103.834	19.981	2.760	0.495
383.500	273.274	80.002	19.995	103.834	19.985	2.472	0.517
384.000	273.493	80.001	19.995	103.835	19.982	2.673	0.507
384.500	273.721	80.001	19.995	103.837	19.983	2.614	0.466
385.000	273.978	80.001	19.994	103.837	19.980	2.822	0.466
385.500	274.241	80.002	19.996	103.836	19.982	2.667	0.503
386.000	274.505	80.000	19.994	103.836	19.983	2.610	0.523
386.500	274.727	80.002	19.996	103.836	19.984	2.545	0.506
387.000	274.963	80.002	19.994	103.837	19.985	2.516	0.472
387.500	275.250	80.002	19.996	103.839	19.984	2.552	0.491
388.000	275.437	80.002	19.996	103.839	19.984	2.523	0.498
388.500	275.727	80.002	19.996	103.838	19.983	2.591	0.475
389.000	275.968	80.002	19.995	103.838	19.984	2.576	0.504
389.500	276.206	80.001	19.995	103.837	19.982	2.691	0.506
390.000	276.463	80.002	19.995	103.837	19.982	2.654	0.487
390.500	276.739	80.002	19.996	103.838	19.985	2.459	0.514
391.000	276.975	80.002	19.995	103.838	19.984	2.565	0.522
391.500	277.221	80.002	19.993	103.839	19.981	2.783	0.497
392.000	277.444	80.002	19.995	103.838	19.983	2.634	0.476
392.500	277.690	80.002	19.996	103.837	19.981	2.723	0.469
393.000	277.956	80.001	19.996	103.838	19.984	2.541	0.491
393.500	278.190	80.001	19.995	103.839	19.985	2.503	0.506
394.000	278.468	80.001	19.996	103.839	19.984	2.538	0.506
394.500	278.715	80.000	19.997	103.840	19.982	2.654	0.519
395.000	278.966	80.002	19.996	103.841	19.983	2.601	0.511
395.500	279.247	80.002	19.996	103.839	19.985	2.481	0.514
396.000	279.469	80.000	19.994	103.836	19.987	2.385	0.517
396.500	279.743	80.002	19.996	103.834	19.982	2.660	0.500
397.000	279.989	80.001	19.995	103.832	19.981	2.747	0.508
397.500	280.237	80.001	19.996	103.830	19.982	2.667	0.507
398.000	280.488	80.001	19.994	103.830	19.986	2.438	0.497
398.500	280.719	80.001	19.995	103.832	19.988	2.308	0.490
399.000	280.988	80.001	19.995	103.833	19.984	2.529	0.491
399.500	281.233	80.001	19.996	103.837	19.985	2.507	0.507
400.001	281.486	80.002	19.995	103.837	19.980	2.802	0.506
400.501	281.714	80.001	19.995	103.836	19.984	2.561	0.490
401.000	282.003	80.001	19.995	103.836	19.983	2.625	0.499
401.500	282.237	80.002	19.994	103.836	19.983	2.609	0.520
402.000	282.480	80.002	19.995	103.835	19.981	2.758	0.500
402.500	282.760	80.002	19.995	103.835	19.981	2.729	0.501
403.000	282.974	80.003	19.994	103.836	19.982	2.692	0.509
403.500	283.271	80.003	19.995	103.835	19.982	2.687	0.502
404.000	283.518	80.002	19.994	103.835	19.981	2.763	0.527
404.500	283.723	80.004	19.994	103.835	19.980	2.787	0.498
405.000	283.972	80.003	19.996	103.836	19.983	2.601	0.453
405.500	284.234	80.004	19.995	103.834	19.984	2.585	0.482
406.000	284.472	80.004	19.995	103.832	19.985	2.507	0.506
406.500	284.754	80.005	19.994	103.831	19.987	2.365	0.511
407.000	285.002	80.003	19.994	103.831	19.982	2.698	0.525
407.500	285.255	80.004	19.995	103.831	19.980	2.818	0.515
408.000	285.466	80.004	19.996	103.833	19.982	2.705	0.482
408.500	285.761	80.003	19.993	103.834	19.986	2.392	0.485
409.000	286.001	80.003	19.994	103.834	19.983	2.643	0.520
409.500	286.232	80.004	19.994	103.833	19.985	2.474	0.503
410.000	286.502	80.004	19.994	103.833	19.982	2.656	0.486
410.501	286.768	80.003	19.995	103.834	19.987	2.352	0.519
411.001	286.994	80.004	19.993	103.835	19.985	2.472	0.514
411.500	287.243	80.004	19.995	103.835	19.983	2.623	0.483
412.000	287.526	80.003	19.993	103.834	19.984	2.576	0.504
412.500	287.733	80.004	19.994	103.828	19.982	2.661	0.511
413.000	288.001	80.003	19.993	103.826	19.987	2.355	0.483
413.500	288.242	80.003	19.994	103.827	19.984	2.539	0.492
414.000	288.512	80.002	19.993	103.827	19.983	2.636	0.510
414.500	288.733	80.003	19.994	103.828	19.985	2.490	0.501
415.000	288.985	80.004	19.994	103.833	19.982	2.658	0.482
415.500	289.267	80.003	19.993	103.832	19.984	2.576	0.504
416.000	289.512	80.003	19.993	103.830	19.981	2.743	0.530
416.500	289.765	80.004	19.993	103.830	19.986	2.414	0.512
417.000	289.994	80.001	19.993	103.832	19.984	2.523	0.490
417.500	290.268	80.003	19.992	103.834	19.986	2.423	0.492
418.000	290.546	80.004	19.994	103.835	19.981	2.778	0.527
418.500	290.800	80.002	19.993	103.832	19.985	2.476	0.542
419.000	291.055	80.003	19.993	103.829	19.984	2.558	0.520
419.500	291.314	80.003	19.993	103.829	19.986	2.419	0.511
420.000	291.559	80.004	19.994	103.829	19.988	2.279	0.509
420.500	291.796	80.004	19.995	103.830	19.984	2.563	0.493
421.000	292.038	80.004	19.994	103.835	19.984	2.559	0.481
421.500	292.301	80.003	19.994	103.839	19.987	2.332	0.492
422.000	292.514	80.003	19.994	103.839	19.984	2.541	0.490
422.500	292.805	80.004	19.993	103.840	19.987	2.341	0.490
423.000	293.077	80.003	19.993	103.838	19.985	2.459	0.534
423.500	293.271	80.004	19.994	103.830	19.980	2.792	0.515
424.000	293.568	80.003	19.992	103.827	19.986	2.439	0.478
424.500	293.817	80.004	19.995	103.824	19.981	2.747	0.518
425.000	294.051	80.003	19.994	103.823	19.985	2.465	0.514
425.500	294.304	80.004	19.994	103.823	19.986	2.430	0.485
426.000	294.564	80.002	19.994	103.831	19.985	2.454	0.500
426.500	294.796	80.003	19.995	103.832	19.987	2.343	0.502
427.000	295.053	80.003	19.994	103.832	19.988	2.264	0.490
427.500	295.364	80.003	19.995	103.831	19.983	2.590	0.528
428.000	295.546	80.004	19.994	103.828	19.984	2.545	0.530
428.500	295.819	80.003	19.994	103.825	19.982	2.652	0.474
429.000	296.081	80.005	19.995	103.825	19.979	2.861	0.495
429.500	296.321	80.003	19.995	103.828	19.985	2.472	0.518
430.000	296.558	80.002	19.994	103.830	19.982	2.667	0.490
430.500	296.815	80.005	19.994	103.834	19.979	2.913	0.486
431.000	297.097	80.004	19.995	103.835	19.983	2.607	0.517
431.500	297.287	80.003	19.995	103.836	19.982	2.694	0.506
432.000	297.595	80.003	19.993	103.833	19.984	2.580	0.485
432.500	297.861	80.003	19.994	103.832	19.983	2.614	0.536
433.000	298.075	80.002	19.994	103.830	19.983	2.605	0.527
433.500	298.378	80.004	19.994	103.824	19.980	2.809	0.499
434.000	298.592	80.004	19.995	103.819	19.984	2.565	0.517
434.500	298.863	80.003	19.994	103.817	19.981	2.738	0.501
435.000	299.100	80.002	19.993	103.814	19.980	2.827	0.496
435.500	299.362	80.003	19.995	103.817	19.980	2.827	0.504
436.000	299.630	80.002	19.995	103.821	19.983	2.590	0.515
436.500	299.851	80.003	19.994	103.823	19.983	2.601	0.510
437.000	300.148	80.002	19.994	103.828	19.985	2.501	0.503
437.500	300.376	80.001	19.992	103.829	19.983	2.605	0.521
438.000	300.627	80.001	19.992	103.825	19.982	2.678	0.502
438.500	300.860	80.001	19.993	103.823	19.984	2.559	0.482
439.000	301.130	80.002	19.993	103.825	19.986	2.419	0.494
439.500	301.399	80.001	19.994	103.824	19.985	2.454	0.521
440.000	301.641	80.002	19.994	103.826	19.982	2.652	0.525
440.500	301.876	80.001	19.995	103.825	19.983	2.634	0.494
441.000	302.120	80.001	19.995	103.826	19.986	2.401	0.478
441.500	302.380	80.001	19.995	103.828	19.982	2.663	0.492
442.000	302.638	80.001	19.995	103.829	19.985	2.475	0.511
442.500	302.907	80.001	19.994	103.831	19.982	2.714	0.523
443.000	303.133	80.001	19.995	103.837	19.987	2.352	0.511
443.500	303.421	80.002	19.995	103.840	19.979	2.907	0.504
444.000	303.618	80.002	19.994	103.837	19.983	2.594	0.500
444.500	303.883	80.000	19.994	103.833	19.983	2.625	0.474
445.000	304.125	80.000	19.995	103.830	19.986	2.446	0.485
445.500	304.374	80.002	19.995	103.827	19.984	2.528	0.499
446.000	304.630	80.001	19.993	103.821	19.984	2.552	0.498
446.500	304.876	80.001	19.994	103.819	19.986	2.399	0.503
447.000	305.149	80.002	19.994	103.821	19.983	2.623	0.511
447.500	305.402	80.001	19.994	103.823	19.983	2.603	0.523
448.000	305.611	80.001	19.994	103.823	19.983	2.638	0.494
448.500	305.881	80.002	19.993	103.827	19.985	2.474	0.470
449.000	306.165	80.002	19.994	103.827	19.983	2.601	0.516
449.500	306.359	80.002	19.994	103.824	19.982	2.708	0.516
450.000	306.628	80.003	19.995	103.820	19.982	2.686	0.470
450.500	306.880	80.002	19.993	103.818	19.983	2.586	0.492
451.000	307.148	80.002	19.995	103.820	19.986	2.411	0.521
451.500	307.448	80.002	19.993	103.822	19.987	2.339	0.544
452.000	307.663	80.002	19.992	103.823	19.983	2.599	0.541
452.500	307.918	80.002	19.996	103.819	19.985	2.495	0.493
453.000	308.202	80.003	19.995	103.818	19.982	2.675	0.505
453.500	308.380	80.003	19.995	103.818	19.983	2.599	0.500
454.000	308.653	80.002	19.994	103.820	19.985	2.468	0.457
454.500	308.955	80.002	19.994	103.820	19.981	2.773	0.513
455.000	309.173	80.002	19.996	103.823	19.984	2.575	0.548
455.500	309.423	80.002	19.994	103.826	19.983	2.642	0.494
456.000	309.751	80.004	19.994	103.820	19.982	2.677	0.523
456.501	309.992	80.002	19.994	103.814	19.982	2.675	0.574
457.000	310.213	80.003	19.994	103.819	19.981	2.764	0.516
457.500	310.479	80.003	19.995	103.821	19.982	2.659	0.475
458.000	310.698	80.002	19.994	103.822	19.980	2.799	0.486
458.500	310.977	80.002	19.994	103.824	19.983	2.643	0.491
459.000	311.202	80.002	19.994	103.822	19.985	2.481	0.501
459.500	311.501	80.001	19.994	103.818	19.980	2.841	0.514
460.000	311.753	80.001	19.994	103.814	19.978	2.928	0.537
460.500	312.034	80.001	19.994	103.808	19.978	2.946	0.542
461.000	312.222	80.002	19.994	103.807	19.984	2.555	0.501
461.500	312.541	80.002	19.994	103.809	19.981	2.768	0.488
462.000	312.775	80.002	19.995	103.806	19.982	2.692	0.530
462.500	313.014	80.003	19.995	103.806	19.980	2.839	0.513
463.000	313.284	80.002	19.993	103.807	19.980	2.834	0.491
463.500	313.519	80.002	19.994	103.804	19.980	2.845	0.507
464.000	313.795	80.002	19.994	103.803	19.980	2.814	0.508
464.501	314.058	80.001	19.995	103.804	19.976	3.065	0.525
465.000	314.302	80.002	19.996	103.803	19.980	2.824	0.523
465.500	314.579	80.002	19.996	103.802	19.979	2.908	0.514
466.000	314.809	80.002	19.996	103.803	19.979	2.887	0.514
466.500	315.079	80.002	19.995	103.803	19.982	2.677	0.504
467.000	315.324	80.002	19.994	103.804	19.979	2.909	0.507
467.500	315.575	80.002	19.994	103.804	19.978	2.950	0.505
468.000	315.821	80.002	19.994	103.806	19.981	2.767	0.496
468.500	316.073	80.002	19.995	103.807	19.983	2.645	0.497
469.000	316.310	80.001	19.994	103.809	19.981	2.767	0.494
469.500	316.597	80.001	19.995	103.811	19.978	2.923	0.507
470.000	316.869	80.001	19.994	103.813	19.987	2.359	0.541
470.500	317.093	80.001	19.995	103.811	19.978	2.923	0.527
471.000	317.294	80.001	19.994	103.809	19.981	2.766	0.460
471.500	317.588	80.001	19.995	103.807	19.982	2.659	0.460
472.000	317.874	80.001	19.994	103.803	19.978	2.959	0.538
472.500	318.120	80.001	19.996	103.802	19.981	2.744	0.556
473.000	318.346	80.002	19.995	103.803	19.982	2.655	0.501
473.500	318.628	80.001	19.994	103.805	19.979	2.885	0.490
474.000	318.864	80.002	19.994	103.805	19.980	2.825	0.514
474.500	319.103	80.002	19.996	103.805	19.981	2.776	0.496
475.000	319.341	80.002	19.994	103.805	19.984	2.575	0.475
475.500	319.583	80.000	19.994	103.804	19.985	2.453	0.478
476.000	319.851	80.003	19.994	103.804	19.983	2.595	0.495
476.500	320.077	80.002	19.995	103.809	19.981	2.735	0.503
477.000	320.358	80.003	19.995	103.812	19.986	2.444	0.500
477.500	320.580	80.001	19.995	103.814	19.984	2.575	0.504
478.000	320.813	80.002	19.994	103.816	19.986	2.430	0.479
478.500	321.096	80.001	19.994	103.818	19.986	2.424	0.486
479.000	321.330	80.002	19.994	103.814	19.981	2.734	0.517
479.500	321.576	80.002	19.994	103.818	19.985	2.482	0.498
480.000	321.878	80.003	19.994	103.818	19.983	2.644	0.514
480.500	322.114	80.003	19.994	103.820	19.981	2.768	0.543
481.000	322.360	80.002	19.994	103.817	19.981	2.766	0.510
481.500	322.581	80.001	19.994	103.814	19.983	2.604	0.474
482.000	322.814	80.003	19.995	103.809	19.981	2.734	0.460
482.500	323.073	80.003	19.995	103.806	19.983	2.612	0.473
483.000	323.347	80.004	19.995	103.804	19.979	2.901	0.512
483.500	323.589	80.003	19.994	103.805	19.981	2.746	0.524
484.000	323.848	80.002	19.996	103.809	19.982	2.705	0.509
484.500	324.152	80.003	19.995	103.810	19.983	2.644	0.532
485.000	324.334	80.004	19.995	103.811	19.978	2.956	0.524
485.500	324.613	80.003	19.997	103.810	19.983	2.650	0.473
486.000	324.882	80.002	19.994	103.811	19.977	3.032	0.505
486.500	325.146	80.003	19.994	103.807	19.983	2.625	0.541
487.000	325.369	80.003	19.996	103.807	19.983	2.650	0.510
487.500	325.640	80.002	19.994	103.807	19.982	2.681	0.490
488.000	325.912	80.001	19.994	103.808	19.977	2.994	0.518
488.500	326.166	80.002	19.994	103.806	19.985	2.516	0.535
489.000	326.384	80.002	19.994	103.807	19.986	2.452	0.499
489.500	326.626	80.002	19.995	103.807	19.985	2.465	0.466
490.000	326.902	80.003	19.996	103.808	19.985	2.497	0.489
490.500	327.152	80.003	19.995	103.810	19.985	2.457	0.522
491.000	327.413	80.001	19.994	103.811	19.984	2.552	0.518
491.500	327.634	80.002	19.995	103.812	19.982	2.675	0.496
492.000	327.883	80.002	19.995	103.811	19.986	2.410	0.476
492.500	328.157	80.002	19.997	103.809	19.984	2.581	0.497
493.000	328.423	80.001	19.995	103.812	19.984	2.563	0.532
493.500	328.647	80.002	19.995	103.814	19.983	2.644	0.515
494.000	328.947	80.002	19.995	103.814	19.983	2.617	0.507
494.500	329.163	80.001	19.995	103.814	19.984	2.570	0.521
495.000	329.441	80.002	19.995	103.813	19.984	2.537	0.505
495.500	329.649	80.003	19.997	103.808	19.985	2.486	0.490
496.000	329.900	80.001	19.995	103.805	19.984	2.528	0.472
496.500	330.184	80.001	19.996	103.803	19.982	2.706	0.497
497.000	330.441	80.002	19.997	103.805	19.985	2.495	0.538
497.500	330.668	80.001	19.996	103.812	19.983	2.617	0.512
498.000	330.911	80.000	19.995	103.820	19.980	2.843	0.477
498.500	331.168	80.001	19.995	103.825	19.979	2.854	0.485
499.000	331.417	80.000	19.995	103.830	19.981	2.737	0.503
499.500	331.673	80.002	19.995	103.834	19.984	2.572	0.505
500.000	331.924	80.001	19.993	103.830	19.986	2.426	0.506
500.500	332.150	80.001	19.995	103.824	19.982	2.704	0.492
501.000	332.451	80.001	19.996	103.817	19.983	2.590	0.502
501.500	332.735	80.001	19.994	103.812	19.980	2.821	0.555
502.000	332.953	80.001	19.995	103.807	19.984	2.557	0.543
502.500	333.221	80.002	19.994	103.804	19.981	2.721	0.494
503.000	333.473	80.002	19.994	103.804	19.979	2.850	0.503
503.500	333.730	80.001	19.994	103.807	19.981	2.746	0.515
504.000	333.981	80.002	19.994	103.808	19.979	2.884	0.508
504.500	334.276	80.002	19.993	103.808	19.983	2.624	0.526
505.000	334.522	80.002	19.994	103.808	19.982	2.673	0.543
505.500	334.713	80.004	19.995	103.808	19.984	2.548	0.490
506.000	334.972	80.004	19.995	103.807	19.984	2.570	0.444
506.500	335.226	80.002	19.993	103.807	19.982	2.670	0.481
507.000	335.539	80.003	19.993	103.807	19.982	2.706	0.540
507.500	335.712	80.003	19.995	103.806	19.981	2.763	0.527
508.000	335.999	80.004	19.994	103.807	19.978	2.928	0.474
508.500	336.227	80.004	19.994	103.807	19.982	2.659	0.487
509.000	336.484	80.004	19.993	103.806	19.985	2.495	0.500
509.500	336.775	80.003	19.992	103.805	19.979	2.890	0.517
510.000	337.058	80.005	19.994	103.805	19.983	2.593	0.561
510.500	337.253	80.004	19.993	103.804	19.982	2.702	0.526
511.000	337.503	80.004	19.993	103.802	19.983	2.644	0.461
511.500	337.744	80.005	19.994	103.801	19.982	2.664	0.468
512.000	338.018	80.003	19.992	103.801	19.982	2.670	0.503
512.500	338.232	80.004	19.995	103.800	19.980	2.833	0.501
513.000	338.530	80.003	19.995	103.799	19.982	2.706	0.500
513.500	338.753	80.003	19.995	103.799	19.978	2.948	0.516
514.000	339.000	80.003	19.995	103.799	19.980	2.790	0.496
514.500	339.263	80.003	19.996	103.799	19.977	3.003	0.490
515.000	339.528	80.003	19.995	103.799	19.981	2.772	0.519
515.500	339.752	80.002	19.995	103.800	19.981	2.746	0.509
516.000	340.024	80.004	19.994	103.800	19.980	2.790	0.492
516.500	340.281	80.003	19.994	103.800	19.985	2.504	0.512
517.000	340.540	80.002	19.993	103.800	19.978	2.930	0.522
517.500	340.787	80.002	19.993	103.802	19.981	2.728	0.511
518.000	341.043	80.002	19.994	103.802	19.978	2.954	0.504
518.500	341.269	80.002	19.995	103.802	19.974	3.227	0.493
519.000	341.548	80.002	19.995	103.802	19.975	3.148	0.494
519.500	341.813	80.002	19.995	103.802	19.979	2.883	0.524
520.000	342.040	80.001	19.994	103.801	19.978	2.952	0.518
520.500	342.277	80.003	19.995	103.801	19.978	2.974	0.478
521.000	342.534	80.003	19.995	103.802	19.976	3.101	0.479
521.500	342.760	80.002	19.994	103.801	19.976	3.076	0.489
522.000	343.005	80.003	19.994	103.801	19.977	3.023	0.477
522.500	343.297	80.003	19.995	103.800	19.975	3.163	0.504
523.000	343.513	80.001	19.994	103.800	19.981	2.772	0.522
523.500	343.759	80.001	19.994	103.799	19.978	2.961	0.485
524.001	344.012	80.001	19.995	103.800	19.979	2.859	0.481
524.500	344.271	80.001	19.994	103.801	19.977	3.005	0.505
525.000	344.533	80.001	19.995	103.801	19.979	2.859	0.516
525.500	344.784	80.000	19.995	103.801	19.979	2.876	0.517
526.000	345.024	80.003	19.994	103.801	19.980	2.801	0.502
526.500	345.303	80.001	19.995	103.800	19.979	2.914	0.505
527.000	345.535	80.002	19.995	103.800	19.978	2.934	0.516
527.500	345.779	80.002	19.994	103.800	19.978	2.961	0.494
528.000	346.067	80.002	19.994	103.800	19.977	3.029	0.504
528.500	346.295	80.000	19.994	103.800	19.973	3.265	0.524
529.000	346.538	80.001	19.994	103.800	19.977	3.047	0.493
529.500	346.795	80.002	19.994	103.801	19.977	3.028	0.485
530.000	347.043	80.003	19.994	103.802	19.979	2.875	0.503
530.500	347.284	80.002	19.994	103.802	19.977	3.021	0.497
531.000	347.538	80.003	19.994	103.802	19.976	3.050	0.492
531.500	347.783	80.003	19.995	103.803	19.975	3.148	0.497
532.000	348.068	80.002	19.994	103.803	19.978	2.915	0.514
532.500	348.278	80.002	19.993	103.804	19.978	2.957	0.513
533.000	348.530	80.002	19.994	103.803	19.976	3.097	0.479
533.500	348.773	80.003	19.995	103.803	19.973	3.259	0.479
534.001	349.032	80.003	19.994	103.804	19.977	2.999	0.498
534.501	349.312	80.002	19.995	103.803	19.979	2.903	0.520
535.001	349.512	80.002	19.995	103.805	19.978	2.919	0.510
535.500	349.786	80.003	19.993	103.807	19.976	3.094	0.478
536.000	350.055	80.002	19.996	103.811	19.979	2.866	0.509
536.500	350.346	80.001	19.994	103.810	19.980	2.795	0.551
537.000	350.604	80.003	19.995	103.811	19.984	2.572	0.554
537.500	350.859	80.004	19.994	103.811	19.978	2.930	0.531
538.000	351.113	80.004	19.994	103.813	19.980	2.817	0.511
538.500	351.383	80.004	19.995	103.810	19.977	2.992	0.517
539.000	351.606	80.003	19.995	103.812	19.976	3.094	0.509
539.500	351.845	80.003	19.995	103.811	19.977	3.014	0.478
540.000	352.105	80.003	19.996	103.809	19.977	2.985	0.481
540.500	352.372	80.002	19.994	103.806	19.976	3.088	0.513
541.000	352.640	80.003	19.994	103.804	19.978	2.915	0.531
541.500	352.891	80.002	19.994	103.803	19.980	2.812	0.527
542.000	353.142	80.002	19.995	103.804	19.978	2.968	0.510
542.500	353.393	80.001	19.994	103.804	19.980	2.797	0.502
543.000	353.644	80.003	19.994	103.804	19.980	2.834	0.502
543.500	353.916	80.002	19.995	103.804	19.980	2.830	0.513
544.000	354.178	80.002	19.996	103.805	19.977	3.023	0.529
544.500	354.433	80.003	19.993	103.804	19.978	2.928	0.526
545.000	354.686	80.002	19.994	103.803	19.977	3.045	0.512
545.500	354.951	80.002	19.995	103.802	19.976	3.059	0.513
546.000	355.190	80.002	19.993	103.802	19.976	3.050	0.511
546.500	355.467	80.002	19.994	103.803	19.976	3.079	0.510
547.000	355.711	80.002	19.994	103.803	19.978	2.974	0.519
547.500	355.991	80.001	19.993	103.803	19.974	3.234	0.523
548.000	356.201	80.002	19.995	103.804	19.977	2.994	0.507
548.500	356.454	80.002	19.994	103.805	19.977	2.988	0.476
549.000	356.746	80.001	19.994	103.805	19.980	2.841	0.504
549.500	356.962	80.001	19.994	103.804	19.976	3.097	0.526
550.000	357.236	80.001	19.995	103.804	19.983	2.641	0.499
550.500	357.480	80.001	19.995	103.804	19.979	2.901	0.504
551.000	357.757	80.001	19.996	103.803	19.978	2.977	0.520
551.500	358.003	80.001	19.995	103.802	19.978	2.939	0.523
552.001	358.263	80.001	19.994	103.803	19.978	2.975	0.515
552.501	358.457	80.001	19.994	103.803	19.981	2.763	0.480
553.001	358.747	80.001	19.994	103.802	19.979	2.866	0.469
553.500	359.022	80.001	19.995	103.802	19.977	3.045	0.525
554.000	359.268	80.001	19.993	103.804	19.976	3.068	0.543
554.500	359.516	80.000	19.993	103.806	19.979	2.906	0.507
555.000	359.762	80.001	19.994	103.805	19.980	2.788	0.494
555.500	360.025	80.002	19.994	103.806	19.977	2.981	0.501
556.000	360.298	80.000	19.995	103.807	19.980	2.821	0.522
556.500	360.525	80.002	19.995	103.805	19.979	2.875	0.518
557.000	360.740	80.001	19.995	103.803	19.977	3.027	0.471
557.500	361.025	80.001	19.995	103.804	19.981	2.761	0.471
558.000	361.295	80.002	19.996	103.804	19.973	3.254	0.528
558.500	361.530	80.002	19.996	103.803	19.983	2.626	0.530
559.000	361.788	80.001	19.995	103.803	19.979	2.852	0.499
559.500	362.054	80.002	19.994	103.803	19.974	3.214	0.509
560.000	362.307	80.002	19.993	103.803	19.979	2.892	0.522
560.500	362.545	80.002	19.994	103.803	19.979	2.874	0.505
561.000	362.794	80.004	19.995	103.803	19.981	2.777	0.489
561.500	363.036	80.003	19.995	103.804	19.979	2.864	0.489
562.000	363.308	80.003	19.995	103.803	19.979	2.885	0.502
562.500	363.571	80.003	19.995	103.803	19.978	2.968	0.524
563.000	363.809	80.003	19.994	103.802	19.980	2.804	0.518
563.500	364.080	80.005	19.994	103.802	19.974	3.183	0.505
564.000	364.352	80.004	19.994	103.802	19.979	2.866	0.526
564.500	364.625	80.003	19.994	103.802	19.979	2.912	0.544
565.000	364.824	80.002	19.994	103.802	19.980	2.824	0.509
565.500	365.076	80.002	19.993	103.803	19.977	3.037	0.462
566.000	365.338	80.005	19.994	103.803	19.983	2.641	0.483
566.500	365.609	80.004	19.994	103.804	19.981	2.748	0.524
567.000	365.851	80.004	19.994	103.804	19.977	2.984	0.523
567.500	366.078	80.005	19.994	103.804	19.981	2.761	0.491
568.000	366.347	80.004	19.994	103.805	19.978	2.941	0.483
568.500	366.613	80.005	19.994	103.805	19.984	2.571	0.515
569.000	366.857	80.004	19.994	103.804	19.983	2.602	0.523
569.500	367.144	80.005	19.994	103.803	19.976	3.085	0.521
570.000	367.360	80.004	19.995	103.803	19.983	2.586	0.517
570.500	367.591	80.002	19.995	103.802	19.980	2.833	0.474
571.000	367.873	80.002	19.995	103.802	19.978	2.972	0.480
571.500	368.144	80.005	19.994	103.802	19.979	2.906	0.533
572.000	368.356	80.002	19.993	103.802	19.980	2.830	0.518
572.500	368.642	80.004	19.996	103.802	19.976	3.052	0.491
573.000	368.870	80.004	19.998	103.803	19.980	2.784	0.506
573.500	369.146	80.004	19.997	103.804	19.978	2.934	0.509
574.000	369.373	80.004	19.997	103.805	19.977	2.983	0.503
574.500	369.633	80.001	19.997	103.804	19.977	3.006	0.495
575.000	369.921	80.001	19.995	103.804	19.979	2.879	0.518
575.500	370.167	80.003	19.995	103.802	19.978	2.950	0.541
576.000	370.421	80.003	19.996	103.800	19.980	2.821	0.517
576.500	370.691	80.004	19.995	103.800	19.978	2.930	0.512
577.000	370.920	80.003	19.995	103.799	19.980	2.839	0.511
577.500	371.143	80.001	19.994	103.799	19.978	2.935	0.475
578.000	371.457	80.003	19.996	103.797	19.977	3.039	0.494
578.500	371.693	80.003	19.995	103.797	19.980	2.793	0.544
579.000	371.917	80.002	19.995	103.798	19.973	3.252	0.506
579.500	372.191	80.003	19.996	103.800	19.974	3.179	0.479
580.001	372.480	80.002	19.996	103.800	19.977	2.995	0.531
580.500	372.711	80.003	19.995	103.802	19.974	3.203	0.542
581.000	372.988	80.002	19.996	103.802	19.975	3.130	0.514
581.500	373.210	80.001	19.995	103.801	19.978	2.930	0.503
582.000	373.490	80.003	19.996	103.799	19.978	2.975	0.500
582.500	373.723	80.002	19.996	103.800	19.978	2.963	0.507
583.000	373.986	80.002	19.997	103.799	19.978	2.930	0.504
583.500	374.242	80.002	19.995	103.800	19.980	2.842	0.508
584.001	374.495	80.004	19.995	103.800	19.976	3.095	0.514
584.500	374.781	80.003	19.996	103.799	19.981	2.761	0.524
585.000	375.010	80.003	19.994	103.798	19.978	2.974	0.527
585.500	375.253	80.002	19.995	103.798	19.977	2.997	0.494
586.000	375.510	80.003	19.995	103.798	19.980	2.823	0.486
586.500	375.786	80.004	19.995	103.798	19.979	2.888	0.516
587.000	376.008	80.003	19.996	103.797	19.977	2.984	0.515
587.500	376.263	80.003	19.996	103.795	19.977	2.986	0.487
588.000	376.533	80.003	19.994	103.795	19.977	3.001	0.501
588.500	376.791	80.004	19.995	103.793	19.974	3.196	0.527
589.000	377.046	80.004	19.994	103.790	19.974	3.225	0.521
589.500	377.335	80.004	19.995	103.789	19.973	3.279	0.528
590.000	377.564	80.004	19.995	103.790	19.979	2.914	0.531
590.500	377.808	80.003	19.994	103.789	19.977	2.999	0.495
591.000	378.065	80.006	19.995	103.791	19.978	2.977	0.487
591.500	378.315	80.006	19.995	103.794	19.977	3.045	0.504
592.000	378.573	80.004	19.994	103.796	19.978	2.965	0.507
592.500	378.797	80.005	19.994	103.797	19.976	3.072	0.495
593.000	379.051	80.003	19.994	103.797	19.979	2.850	0.480
593.500	379.322	80.003	19.993	103.796	19.979	2.877	0.502
594.001	379.571	80.004	19.994	103.796	19.977	3.005	0.523
594.500	379.814	80.004	19.994	103.796	19.977	3.023	0.506
595.000	380.104	80.003	19.993	103.796	19.982	2.708	0.512
595.500	380.366	80.004	19.994	103.797	19.979	2.895	0.543
596.000	380.614	80.002	19.994	103.798	19.979	2.903	0.531
596.500	380.854	80.003	19.995	103.798	19.976	3.074	0.499
597.000	381.163	80.003	19.994	103.798	19.979	2.877	0.519
597.500	381.380	80.003	19.994	103.798	19.979	2.890	0.538
598.000	381.648	80.003	19.994	103.799	19.980	2.801	0.505
598.500	381.941	80.002	19.995	103.798	19.980	2.801	0.523
599.000	382.184	80.001	19.995	103.797	19.979	2.886	0.549
599.500	382.456	80.002	19.994	103.796	19.982	2.675	0.525
600.000	382.659	80.001	19.993	103.797	19.977	3.025	0.495
600.500	382.961	80.002	19.993	103.797	19.979	2.870	0.490
601.000	383.210	80.002	19.995	103.800	19.976	3.099	0.529
601.500	383.487	80.002	19.993	103.802	19.980	2.794	0.539
602.000	383.727	80.003	19.994	103.803	19.978	2.935	0.521
602.500	383.958	80.002	19.994	103.803	19.976	3.090	0.494
603.000	384.255	80.001	19.994	103.802	19.980	2.793	0.499
603.500	384.499	80.002	19.994	103.801	19.976	3.063	0.534
604.000	384.738	80.002	19.995	103.801	19.983	2.595	0.512
604.500	384.979	80.002	19.994	103.801	19.980	2.792	0.482
605.000	385.253	80.002	19.993	103.802	19.982	2.688	0.498
605.500	385.536	80.001	19.995	103.802	19.978	2.930	0.536
606.000	385.794	80.002	19.994	103.802	19.980	2.793	0.549
606.500	386.112	80.002	19.995	103.800	19.979	2.873	0.559
607.000	386.337	80.001	19.994	103.800	19.979	2.901	0.560
607.500	386.570	80.003	19.994	103.800	19.977	3.041	0.500
608.000	386.828	80.001	19.994	103.800	19.980	2.843	0.474
608.500	387.078	80.002	19.993	103.800	19.976	3.085	0.500
609.000	387.363	80.001	19.994	103.801	19.976	3.096	0.522
609.500	387.630	80.002	19.994	103.801	19.976	3.063	0.543
610.000	387.860	80.003	19.995	103.803	19.979	2.895	0.524
610.500	388.114	80.002	19.994	103.804	19.978	2.979	0.491
611.000	388.376	80.002	19.994	103.804	19.979	2.877	0.500
611.500	388.665	80.001	19.994	103.805	19.980	2.786	0.534
612.000	388.919	80.001	19.994	103.805	19.977	2.990	0.547
612.500	389.158	80.002	19.993	103.803	19.975	3.156	0.518
613.000	389.396	80.002	19.994	103.803	19.977	3.028	0.485
613.500	389.701	80.002	19.995	103.802	19.974	3.188	0.510
614.000	389.909	80.002	19.994	103.802	19.979	2.890	0.528
614.500	390.177	80.000	19.994	103.803	19.980	2.846	0.495
615.000	390.433	80.002	19.994	103.803	19.976	3.107	0.501
615.500	390.727	80.002	19.994	103.802	19.977	3.043	0.537
616.000	390.927	80.002	19.994	103.799	19.976	3.054	0.522
616.500	391.210	80.001	19.994	103.798	19.978	2.937	0.488
617.000	391.476	80.001	19.994	103.796	19.977	3.045	0.516
617.500	391.746	80.001	19.993	103.797	19.977	3.037	0.543
618.000	391.998	80.003	19.993	103.799	19.976	3.050	0.529
618.500	392.241	80.002	19.994	103.803	19.978	2.919	0.508
619.000	392.525	80.002	19.993	103.804	19.980	2.804	0.510
619.500	392.771	80.001	19.994	103.805	19.975	3.130	0.528
620.000	393.058	80.001	19.993	103.805	19.979	2.875	0.532
620.500	393.321	80.002	19.994	103.806	19.980	2.813	0.542
621.000	393.563	80.001	19.994	103.805	19.977	3.045	0.528
621.500	393.808	80.002	19.994	103.806	19.979	2.862	0.496
622.000	394.090	80.002	19.995	103.806	19.972	3.330	0.507
622.500	394.339	80.001	19.993	103.802	19.979	2.902	0.529
623.000	394.635	80.002	19.993	103.801	19.974	3.210	0.538
623.500	394.857	80.001	19.994	103.798	19.976	3.052	0.531
624.000	395.104	80.001	19.994	103.798	19.973	3.248	0.494
624.500	395.379	80.001	19.994	103.798	19.981	2.755	0.496
625.000	395.648	80.002	19.994	103.800	19.976	3.070	0.533
625.500	395.906	80.001	19.994	103.800	19.979	2.868	0.535
626.000	396.109	80.000	19.993	103.803	19.978	2.955	0.494
626.500	396.403	80.000	19.994	103.804	19.975	3.139	0.479
627.000	396.645	80.001	19.993	103.804	19.977	3.044	0.516
627.500	396.912	80.002	19.994	103.804	19.977	3.045	0.523
628.000	397.126	80.000	19.995	103.803	19.981	2.768	0.495
628.500	397.400	80.002	19.993	103.803	19.976	3.065	0.484
629.000	397.628	80.002	19.993	103.802	19.978	2.972	0.495
629.500	397.930	80.002	19.993	103.800	19.978	2.959	0.516
630.000	398.135	80.001	19.994	103.800	19.976	3.048	0.519
630.500	398.459	80.001	19.994	103.800	19.977	3.034	0.518
631.000	398.676	80.002	19.994	103.799	19.977	3.046	0.535
631.500	398.918	80.001	19.992	103.796	19.978	2.970	0.500
632.000	399.210	80.001	19.993	103.798	19.975	3.168	0.497
632.500	399.470	80.001	19.995	103.793	19.978	2.957	0.544
633.000	399.757	80.001	19.996	103.792	19.977	3.021	0.549
633.500	399.960	80.001	19.995	103.792	19.978	2.953	0.518
634.000	400.242	80.002	19.995	103.796	19.975	3.113	0.487
634.500	400.474	80.002	19.995	103.795	19.977	3.001	0.500
635.000	400.735	80.002	19.993	103.796	19.975	3.152	0.504
635.500	400.968	80.002	19.995	103.791	19.976	3.061	0.493
636.000	401.234	80.002	19.994	103.786	19.976	3.061	0.496
636.500	401.491	80.003	19.995	103.784	19.972	3.317	0.511
637.000	401.710	80.002	19.992	103.786	19.974	3.230	0.499
637.500	401.981	80.002	19.993	103.790	19.975	3.146	0.483
638.000	402.213	80.002	19.994	103.795	19.974	3.199	0.497
638.500	402.492	80.002	19.995	103.800	19.975	3.154	0.507
639.000	402.766	80.002	19.994	103.803	19.975	3.116	0.532
639.500	403.028	80.002	19.997	103.802	19.977	3.015	0.544
640.000	403.288	80.001	19.996	103.801	19.975	3.165	0.529
640.500	403.503	80.001	19.997	103.798	19.972	3.357	0.499
641.000	403.798	80.002	19.996	103.798	19.972	3.314	0.493
641.500	404.006	80.004	19.995	103.798	19.976	3.079	0.506
642.000	404.262	80.002	19.996	103.798	19.978	2.922	0.483
642.500	404.520	80.003	19.994	103.796	19.973	3.268	0.489
643.000	404.791	80.003	19.994	103.795	19.978	2.952	0.522
643.500	405.038	80.003	19.994	103.794	19.974	3.219	0.524
644.000	405.316	80.002	19.994	103.787	19.975	3.157	0.522
644.500	405.549	80.005	19.995	103.784	19.974	3.217	0.518
645.000	405.772	80.003	19.996	103.786	19.977	3.006	0.483
645.500	406.066	80.003	19.995	103.789	19.975	3.141	0.486
646.000	406.322	80.002	19.995	103.789	19.974	3.184	0.533
646.500	406.538	80.003	19.995	103.794	19.977	3.004	0.511
647.000	406.790	80.003	19.995	103.796	19.974	3.222	0.470
647.500	407.080	80.004	19.995	103.797	19.973	3.295	0.505
648.000	407.323	80.003	19.996	103.797	19.976	3.048	0.537
648.500	407.563	80.003	19.995	103.797	19.977	3.028	0.508
649.000	407.788	80.005	19.995	103.798	19.978	2.953	0.475
649.500	408.047	80.003	19.996	103.800	19.979	2.912	0.475
650.000	408.281	80.002	19.994	103.799	19.979	2.879	0.488
650.501	408.558	80.003	19.994	103.798	19.977	2.997	0.502
651.000	408.808	80.003	19.994	103.797	19.972	3.335	0.519
651.500	409.031	80.003	19.996	103.794	19.977	2.991	0.500
652.000	409.282	80.004	19.995	103.793	19.978	2.969	0.474
652.500	409.564	80.003	19.995	103.794	19.975	3.140	0.503
653.000	409.807	80.005	19.995	103.794	19.974	3.206	0.529
653.500	410.042	80.003	19.995	103.795	19.979	2.900	0.502
654.000	410.312	80.003	19.995	103.798	19.977	2.995	0.492
654.500	410.598	80.004	19.994	103.798	19.978	2.948	0.530
655.000	410.804	80.002	19.994	103.798	19.976	3.084	0.524
655.500	411.109	80.003	19.995	103.798	19.973	3.250	0.502
656.000	411.330	80.003	19.995	103.797	19.974	3.228	0.518
656.500	411.588	80.003	19.994	103.794	19.972	3.321	0.503
657.000	411.877	80.003	19.995	103.793	19.974	3.223	0.513
657.500	412.110	80.003	19.994	103.789	19.974	3.190	0.534
658.001	412.326	80.002	19.995	103.784	19.978	2.952	0.485
658.500	412.594	80.004	19.994	103.786	19.976	3.081	0.467
659.000	412.830	80.004	19.994	103.788	19.976	3.110	0.494
659.500	413.091	80.004	19.995	103.790	19.972	3.337	0.500
660.000	413.321	80.004	19.995	103.795	19.975	3.121	0.494
660.500	413.585	80.004	19.995	103.799	19.977	3.002	0.492
661.000	413.826	80.004	19.995	103.795	19.975	3.146	0.499
661.500	414.061	80.004	19.994	103.788	19.977	2.982	0.491
662.000	414.357	80.004	19.994	103.781	19.976	3.081	0.504
662.500	414.598	80.004	19.994	103.778	19.972	3.328	0.534
663.000	414.814	80.003	19.995	103.778	19.977	2.997	0.497
663.500	415.066	80.004	19.995	103.782	19.978	2.955	0.462
664.000	415.310	80.004	19.995	103.784	19.976	3.048	0.482
664.500	415.566	80.003	19.994	103.784	19.976	3.103	0.498
665.000	415.845	80.004	19.993	103.784	19.976	3.081	0.518
665.500	416.083	80.004	19.995	103.784	19.975	3.137	0.526
666.000	416.309	80.004	19.995	103.785	19.974	3.191	0.490
666.500	416.549	80.005	19.994	103.789	19.974	3.193	0.465
667.000	416.824	80.003	19.994	103.796	19.978	2.978	0.490
667.500	417.081	80.005	19.995	103.797	19.975	3.171	0.523
668.000	417.368	80.004	19.996	103.797	19.982	2.684	0.538
668.500	417.606	80.004	19.994	103.797	19.976	3.067	0.535
669.000	417.844	80.004	19.994	103.795	19.976	3.091	0.501
669.500	418.101	80.004	19.994	103.789	19.975	3.158	0.486
670.000	418.334	80.004	19.995	103.791	19.977	3.038	0.493
670.500	418.623	80.005	19.995	103.791	19.976	3.047	0.505
671.000	418.875	80.004	19.995	103.789	19.975	3.164	0.531
671.500	419.118	80.003	19.994	103.788	19.972	3.333	0.518
672.000	419.395	80.003	19.994	103.792	19.980	2.791	0.508
672.500	419.629	80.003	19.995	103.793	19.979	2.911	0.516
673.000	419.878	80.003	19.994	103.793	19.976	3.058	0.497
673.500	420.099	80.004	19.994	103.795	19.970	3.475	0.477
674.000	420.357	80.003	19.995	103.798	19.974	3.213	0.475
674.500	420.640	80.004	19.994	103.799	19.977	3.036	0.510
675.000	420.898	80.004	19.994	103.798	19.974	3.198	0.541
675.500	421.136	80.003	19.995	103.792	19.978	2.922	0.519
676.000	421.389	80.003	19.995	103.785	19.978	2.951	0.494
676.500	421.679	80.003	19.994	103.777	19.974	3.202	0.517
677.000	421.903	80.004	19.996	103.773	19.970	3.453	0.528
677.500	422.145	80.003	19.995	103.774	19.980	2.836	0.490
678.000	422.437	80.002	19.995	103.775	19.971	3.379	0.500
678.500	422.632	80.002	19.995	103.775	19.978	2.953	0.511
679.000	422.889	80.002	19.994	103.775	19.975	3.146	0.470
679.500	423.141	80.002	19.994	103.772	19.975	3.173	0.480
680.000	423.433	80.001	19.994	103.764	19.973	3.284	0.526
680.500	423.645	80.000	19.995	103.762	19.973	3.286	0.524
681.000	423.919	80.002	19.996	103.762	19.976	3.084	0.495
681.500	424.176	80.002	19.995	103.761	19.975	3.170	0.509
682.000	424.401	80.002	19.996	103.762	19.973	3.281	0.507
682.500	424.618	80.002	19.994	103.764	19.978	2.959	0.462
683.000	424.894	80.001	19.995	103.765	19.981	2.742	0.467
683.500	425.170	80.002	19.995	103.765	19.972	3.328	0.523
684.000	425.415	80.003	19.993	103.765	19.971	3.406	0.537
684.500	425.640	80.000	19.994	103.764	19.973	3.255	0.495
685.000	425.920	80.001	19.994	103.763	19.973	3.264	0.487
685.500	426.179	80.002	19.994	103.762	19.977	3.009	0.522
686.000	426.432	80.003	19.993	103.763	19.976	3.102	0.526
686.500	426.677	80.001	19.995	103.764	19.976	3.086	0.505
687.000	426.910	80.002	19.995	103.766	19.971	3.394	0.488
687.500	427.187	80.003	19.994	103.767	19.972	3.312	0.494
688.000	427.470	80.002	19.993	103.769	19.973	3.292	0.534
688.500	427.660	80.003	19.995	103.770	19.974	3.201	0.516
689.000	427.926	80.001	19.993	103.772	19.977	2.984	0.465
689.500	428.192	80.004	19.995	103.774	19.973	3.262	0.494
690.000	428.472	80.001	19.994	103.778	19.973	3.281	0.538
690.500	428.718	80.001	19.993	103.783	19.977	3.046	0.536
691.000	428.961	80.001	19.992	103.784	19.981	2.744	0.508
691.500	429.231	80.003	19.994	103.784	19.979	2.906	0.501
692.000	429.497	80.001	19.993	103.788	19.976	3.077	0.524
692.500	429.715	80.003	19.995	103.789	19.977	3.011	0.510
693.000	429.962	80.003	19.997	103.787	19.976	3.051	0.474
693.500	430.243	80.002	19.996	103.793	19.974	3.220	0.496
694.000	430.474	80.002	19.994	103.796	19.972	3.324	0.520
694.500	430.741	80.002	19.995	103.791	19.971	3.397	0.505
695.000	431.008	80.003	19.994	103.786	19.972	3.357	0.516
695.500	431.252	80.002	19.993	103.787	19.975	3.161	0.522
696.000	431.519	80.003	19.994	103.783	19.975	3.170	0.511
696.500	431.752	80.002	19.994	103.782	19.973	3.248	0.506
697.000	432.001	80.002	19.995	103.787	19.976	3.093	0.491
697.500	432.251	80.003	19.993	103.793	19.972	3.343	0.490
698.000	432.529	80.002	19.994	103.795	19.972	3.319	0.513
698.500	432.762	80.004	19.995	103.794	19.970	3.501	0.519
699.000	433.025	80.003	19.993	103.790	19.970	3.445	0.504
699.500	433.292	80.003	19.995	103.786	19.968	3.628	0.513
700.000	433.530	80.003	19.993	103.784	19.973	3.299	0.517
700.500	433.807	80.003	19.994	103.780	19.973	3.268	0.510
701.000	434.051	80.001	19.993	103.783	19.979	2.912	0.518
701.500	434.284	80.003	19.994	103.788	19.975	3.154	0.499
702.000	434.538	80.001	19.992	103.792	19.976	3.055	0.482
702.500	434.830	80.004	19.994	103.789	19.971	3.419	0.517
703.000	435.039	80.003	19.995	103.785	19.971	3.403	0.524
703.500	435.307	80.001	19.995	103.780	19.974	3.197	0.489
704.000	435.574	80.002	19.994	103.778	19.969	3.524	0.506
704.500	435.818	80.003	19.994	103.777	19.975	3.159	0.523
705.000	436.057	80.004	19.994	103.782	19.971	3.381	0.497
705.500	436.330	80.002	19.995	103.790	19.968	3.581	0.497
706.000	436.568	80.003	19.994	103.795	19.972	3.341	0.512
706.500	436.827	80.001	19.993	103.796	19.970	3.465	0.504
707.000	437.090	80.002	19.995	103.794	19.976	3.106	0.509
707.500	437.328	80.002	19.995	103.787	19.974	3.243	0.512
708.000	437.587	80.003	19.993	103.787	19.978	2.977	0.499
708.500	437.824	80.002	19.994	103.787	19.970	3.456	0.496
709.000	438.103	80.001	19.995	103.787	19.974	3.239	0.506
709.500	438.372	80.002	19.994	103.785	19.972	3.341	0.532
710.000	438.590	80.000	19.994	103.787	19.970	3.499	0.517
710.500	438.839	80.001	19.995	103.787	19.972	3.352	0.477
711.000	439.101	80.002	19.996	103.786	19.973	3.274	0.490
711.500	439.326	80.002	19.994	103.787	19.971	3.390	0.499
712.000	439.596	80.000	19.993	103.793	19.975	3.156	0.491
712.500	439.865	80.002	19.994	103.798	19.975	3.165	0.517
713.000	440.140	80.002	19.994	103.797	19.972	3.325	0.541
713.500	440.349	80.002	19.993	103.791	19.973	3.310	0.514
714.000	440.623	80.003	19.995	103.786	19.977	3.046	0.484
714.500	440.878	80.000	19.993	103.786	19.975	3.157	0.506
715.000	441.116	80.002	19.994	103.782	19.973	3.261	0.511
715.500	441.349	80.003	19.995	103.780	19.970	3.474	0.482
716.000	441.619	80.003	19.996	103.784	19.979	2.884	0.487
716.501	441.880	80.002	19.995	103.789	19.980	2.830	0.517
717.000	442.173	80.000	19.993	103.789	19.974	3.234	0.543
717.500	442.415	80.002	19.995	103.793	19.977	3.037	0.544
718.000	442.640	80.002	19.994	103.796	19.975	3.119	0.500
718.500	442.905	80.003	19.995	103.797	19.974	3.243	0.478
719.000	443.167	80.000	19.995	103.796	19.973	3.288	0.509
719.500	443.358	80.002	19.994	103.796	19.970	3.478	0.490
720.000	443.628	80.004	19.994	103.796	19.975	3.139	0.457
720.500	443.953	80.004	19.995	103.797	19.973	3.299	0.528
721.000	444.181	80.004	19.994	103.798	19.975	3.155	0.574
721.500	444.419	80.003	19.994	103.798	19.973	3.296	0.509
722.000	444.659	80.006	19.995	103.798	19.972	3.376	0.472
722.500	444.930	80.001	19.993	103.799	19.974	3.237	0.495
723.001	445.188	80.004	19.995	103.799	19.976	3.095	0.520
723.501	445.457	80.004	19.994	103.799	19.976	3.106	0.528
724.000	445.698	80.003	19.994	103.800	19.970	3.484	0.518
724.500	445.918	80.004	19.995	103.800	19.975	3.129	0.486
725.000	446.222	80.003	19.995	103.797	19.974	3.184	0.493
725.500	446.446	80.004	19.994	103.796	19.981	2.767	0.526
726.000	446.711	80.005	19.993	103.793	19.975	3.169	0.508
726.500	446.984	80.004	19.996	103.792	19.972	3.332	0.513
727.000	447.185	80.005	19.994	103.791	19.971	3.425	0.506
727.501	447.460	80.004	19.994	103.794	19.976	3.088	0.475
728.000	447.709	80.005	19.993	103.793	19.969	3.541	0.500
728.500	447.969	80.003	19.995	103.795	19.975	3.154	0.516
729.000	448.201	80.003	19.995	103.794	19.974	3.208	0.501
729.500	448.515	80.004	19.994	103.794	19.975	3.177	0.519
730.000	448.774	80.005	19.997	103.795	19.979	2.911	0.559
730.500	449.008	80.003	19.996	103.796	19.976	3.088	0.533
731.000	449.273	80.001	19.994	103.796	19.975	3.144	0.496
731.500	449.520	80.003	19.994	103.797	19.975	3.129	0.505
732.000	449.769	80.002	19.994	103.796	19.973	3.286	0.504
732.500	450.040	80.005	19.995	103.795	19.975	3.153	0.509
733.000	450.262	80.004	19.996	103.796	19.976	3.108	0.507
733.500	450.528	80.002	19.993	103.793	19.976	3.104	0.490
734.000	450.783	80.004	19.995	103.787	19.972	3.355	0.504
734.500	451.033	80.003	19.993	103.784	19.975	3.151	0.513
735.000	451.288	80.005	19.995	103.777	19.976	3.082	0.505
735.500	451.569	80.003	19.994	103.771	19.974	3.195	0.520
736.000	451.821	80.001	19.994	103.768	19.976	3.084	0.535
736.500	452.064	80.002	19.995	103.774	19.978	2.964	0.515
737.000	452.335	80.002	19.995	103.776	19.976	3.084	0.504
737.500	452.588	80.003	19.994	103.784	19.975	3.120	0.518
738.000	452.820	80.002	19.994	103.789	19.976	3.053	0.504
738.500	453.080	80.003	19.996	103.795	19.978	2.944	0.489
739.000	453.303	80.003	19.994	103.795	19.978	2.927	0.487
739.500	453.582	80.005	19.995	103.797	19.974	3.222	0.493
740.000	453.844	80.005	19.996	103.794	19.976	3.111	0.522
740.500	454.104	80.003	19.995	103.788	19.976	3.111	0.532
741.000	454.343	80.003	19.995	103.784	19.977	3.014	0.511
741.500	454.596	80.003	19.995	103.783	19.977	3.005	0.496
742.000	454.835	80.003	19.994	103.781	19.973	3.267	0.492
742.500	455.115	80.003	19.995	103.780	19.970	3.482	0.505
743.000	455.395	80.003	19.995	103.783	19.982	2.658	0.539
743.500	455.603	80.002	19.994	103.785	19.974	3.198	0.524
744.000	455.941	80.004	19.993	103.779	19.982	2.676	0.517
744.500	456.149	80.004	19.994	103.774	19.982	2.678	0.547
745.000	456.421	80.005	19.995	103.776	19.981	2.763	0.513
745.500	456.646	80.004	19.995	103.774	19.975	3.155	0.488
746.000	456.934	80.005	19.993	103.773	19.980	2.796	0.505
746.500	457.168	80.005	19.994	103.773	19.978	2.920	0.518
747.000	457.398	80.005	19.996	103.775	19.975	3.140	0.493
747.500	457.650	80.006	19.994	103.777	19.974	3.224	0.473
748.000	457.920	80.005	19.995	103.776	19.975	3.137	0.502
748.500	458.191	80.005	19.995	103.774	19.975	3.157	0.531
749.000	458.428	80.004	19.994	103.774	19.974	3.182	0.524
749.500	458.671	80.004	19.995	103.772	19.974	3.189	0.494
750.000	458.970	80.005	19.994	103.766	19.978	2.931	0.511
750.500	459.201	80.004	19.994	103.764	19.977	2.998	0.536
751.000	459.467	80.006	19.993	103.764	19.978	2.934	0.514
751.500	459.769	80.002	19.993	103.764	19.977	2.994	0.533
752.000	459.957	80.002	19.993	103.763	19.977	3.009	0.529
752.500	460.226	80.005	19.995	103.763	19.980	2.831	0.473
753.000	460.505	80.005	19.997	103.766	19.978	2.953	0.502
753.500	460.726	80.004	19.995	103.769	19.974	3.206	0.524
754.000	460.983	80.006	19.995	103.769	19.977	2.997	0.489
754.500	461.246	80.005	19.995	103.770	19.976	3.111	0.499
755.000	461.518	80.004	19.993	103.771	19.976	3.106	0.528
755.500	461.783	80.004	19.994	103.769	19.981	2.727	0.537
756.000	462.023	80.004	19.993	103.766	19.982	2.658	0.521
756.500	462.246	80.003	19.995	103.766	19.982	2.678	0.483
757.000	462.516	80.004	19.995	103.767	19.977	2.994	0.477
757.500	462.761	80.001	19.994	103.771	19.982	2.714	0.504
758.000	463.058	80.003	19.996	103.776	19.974	3.222	0.528
758.500	463.267	80.002	19.995	103.784	19.977	3.002	0.524
759.000	463.509	80.002	19.994	103.787	19.980	2.806	0.479
759.500	463.772	80.000	19.993	103.786	19.976	3.097	0.478
760.000	464.034	80.001	19.996	103.782	19.972	3.326	0.515
760.500	464.243	80.002	19.995	103.777	19.976	3.104	0.498
761.000	464.507	80.002	19.994	103.770	19.977	3.011	0.472
761.500	464.788	80.001	19.995	103.767	19.979	2.889	0.510
762.000	464.991	80.001	19.995	103.767	19.972	3.346	0.515
762.500	465.283	80.001	19.995	103.766	19.976	3.071	0.489
763.000	465.487	80.001	19.995	103.766	19.978	2.975	0.495
763.500	465.781	80.001	19.995	103.766	19.980	2.813	0.497
764.000	466.029	80.001	19.995	103.767	19.980	2.847	0.520
764.500	466.272	80.002	19.995	103.773	19.976	3.100	0.516
765.000	466.508	79.999	19.995	103.778	19.978	2.938	0.484
765.500	466.772	80.002	19.995	103.785	19.981	2.778	0.489
766.000	467.053	80.002	19.996	103.786	19.985	2.496	0.523
766.500	467.297	80.002	19.995	103.783	19.979	2.867	0.535
767.000	467.578	80.001	19.996	103.779	19.977	3.014	0.525
767.500	467.825	80.002	19.994	103.773	19.979	2.858	0.527
768.000	468.043	80.001	19.996	103.766	19.975	3.167	0.496
768.500	468.329	80.003	19.996	103.765	19.979	2.911	0.484
769.000	468.566	80.002	19.995	103.766	19.982	2.660	0.513
769.500	468.813	80.001	19.995	103.770	19.983	2.611	0.504
770.000	469.063	80.002	19.996	103.776	19.977	3.029	0.491
770.500	469.324	80.002	19.995	103.777	19.978	2.920	0.504
771.000	469.573	80.002	19.994	103.777	19.986	2.451	0.511
771.500	469.839	80.001	19.996	103.776	19.983	2.611	0.512
772.000	470.077	80.002	19.995	103.774	19.987	2.376	0.509
772.500	470.341	80.002	19.995	103.770	19.974	3.180	0.503
773.000	470.588	80.004	19.995	103.770	19.979	2.857	0.506
773.500	470.872	80.001	19.995	103.771	19.981	2.766	0.521
774.000	471.098	80.003	19.995	103.772	19.987	2.336	0.521
774.500	471.329	80.002	19.995	103.769	19.978	2.916	0.483
775.000	471.590	80.001	19.996	103.770	19.981	2.749	0.475
775.500	471.866	80.001	19.994	103.775	19.975	3.169	0.514
776.000	472.084	80.002	19.994	103.773	19.980	2.829	0.515
776.500	472.354	80.001	19.993	103.773	19.983	2.636	0.491
777.000	472.633	80.002	19.994	103.771	19.978	2.974	0.519
777.500	472.890	80.002	19.994	103.768	19.986	2.440	0.543
778.000	473.137	80.002	19.994	103.762	19.980	2.789	0.520
778.500	473.399	80.003	19.994	103.764	19.981	2.762	0.506
779.000	473.670	80.003	19.993	103.769	19.975	3.124	0.521
779.500	473.904	80.003	19.993	103.771	19.985	2.485	0.519
780.000	474.195	80.003	19.995	103.773	19.980	2.800	0.515
780.500	474.431	80.002	19.993	103.774	19.978	2.929	0.526
781.000	474.719	80.003	19.992	103.773	19.988	2.261	0.525
781.500	474.943	80.003	19.995	103.769	19.979	2.876	0.518
782.000	475.226	80.002	19.994	103.769	19.983	2.592	0.510
782.500	475.474	80.002	19.994	103.769	19.987	2.325	0.519
783.000	475.721	80.001	19.993	103.774	19.976	3.095	0.513
783.500	476.009	80.002	19.994	103.779	19.986	2.443	0.515
784.000	476.220	80.001	19.993	103.782	19.980	2.800	0.517
784.500	476.478	80.002	19.994	103.779	19.982	2.660	0.484
785.000	476.723	80.003	19.994	103.777	19.987	2.347	0.486
785.500	476.961	80.003	19.994	103.770	19.983	2.605	0.493
786.000	477.219	80.002	19.994	103.765	19.979	2.862	0.490
786.500	477.462	80.001	19.993	103.762	19.984	2.529	0.499
787.000	477.678	80.002	19.994	103.762	19.980	2.783	0.479
787.500	477.975	80.003	19.994	103.762	19.980	2.814	0.486
788.000	478.241	80.003	19.995	103.763	19.983	2.643	0.538
788.500	478.500	80.002	19.994	103.764	19.980	2.842	0.544
789.000	478.742	79.999	19.995	103.763	19.976	3.075	0.513
789.500	478.954	80.002	19.993	103.763	19.981	2.729	0.477
790.000	479.206	80.001	19.993	103.765	19.983	2.633	0.459
790.500	479.463	80.002	19.995	103.766	19.978	2.964	0.486
791.000	479.720	80.000	19.993	103.766	19.983	2.589	0.512
791.500	480.000	80.003	19.995	103.767	19.983	2.603	0.526
792.000	480.234	80.001	19.994	103.767	19.981	2.760	0.526
792.500	480.485	80.000	19.994	103.768	19.985	2.512	0.499
793.000	480.733	80.003	19.993	103.770	19.985	2.458	0.492
793.500	480.977	80.002	19.994	103.771	19.985	2.483	0.496
794.000	481.244	80.001	19.993	103.771	19.984	2.558	0.501
794.500	481.505	80.001	19.993	103.770	19.981	2.742	0.519
795.000	481.748	80.004	19.996	103.768	19.984	2.545	0.516
795.500	482.038	80.001	19.993	103.769	19.982	2.671	0.519
796.000	482.260	80.002	19.993	103.767	19.983	2.649	0.523
796.500	482.495	80.002	19.996	103.767	19.981	2.729	0.485
797.000	482.759	80.001	19.994	103.768	19.980	2.827	0.478
797.500	483.007	80.001	19.995	103.771	19.986	2.401	0.506
798.000	483.251	80.001	19.995	103.768	19.981	2.756	0.502
798.500	483.496	80.002	19.994	103.769	19.983	2.633	0.490
799.000	483.739	80.002	19.995	103.769	19.979	2.875	0.488
799.500	484.024	80.004	19.993	103.772	19.984	2.574	0.508
800.000	484.253	80.003	19.994	103.775	19.983	2.603	0.521
800.500	484.507	80.002	19.994	103.776	19.982	2.680	0.498
801.000	484.721	80.002	19.994	103.774	19.984	2.583	0.475
801.500	484.991	80.002	19.994	103.773	19.986	2.429	0.477
802.000	485.201	80.001	19.993	103.770	19.982	2.651	0.482
802.500	485.477	80.002	19.996	103.766	19.980	2.800	0.483
803.000	485.738	80.003	19.994	103.764	19.983	2.624	0.511
803.500	485.965	80.004	19.994	103.766	19.985	2.511	0.512
804.000	486.244	80.004	19.995	103.768	19.982	2.668	0.497
804.500	486.506	80.004	19.994	103.772	19.985	2.500	0.524
805.000	486.756	80.003	19.994	103.773	19.985	2.467	0.526
805.500	486.996	80.003	19.995	103.774	19.984	2.564	0.501
806.000	487.259	80.002	19.994	103.772	19.985	2.487	0.496
806.500	487.524	80.002	19.994	103.770	19.989	2.234	0.516
807.000	487.735	80.003	19.994	103.765	19.984	2.533	0.502
807.500	488.010	80.003	19.995	103.765	19.984	2.542	0.481
808.001	488.254	80.003	19.995	103.765	19.985	2.456	0.503
808.500	488.495	80.004	19.994	103.765	19.981	2.716	0.502
809.000	488.712	80.004	19.995	103.767	19.983	2.607	0.471
809.500	488.993	80.004	19.993	103.770	19.986	2.411	0.478
810.000	489.247	80.004	19.994	103.771	19.985	2.462	0.517
810.500	489.484	80.003	19.994	103.770	19.986	2.431	0.513
811.000	489.757	80.004	19.993	103.772	19.985	2.514	0.501
811.500	490.015	80.005	19.995	103.770	19.989	2.203	0.521
812.000	490.281	80.002	19.994	103.769	19.988	2.281	0.527
812.500	490.521	80.003	19.995	103.773	19.988	2.298	0.514
813.000	490.747	80.004	19.995	103.779	19.990	2.149	0.486
813.500	491.002	80.005	19.994	103.785	19.994	1.909	0.474
814.000	491.234	80.002	19.995	103.791	19.986	2.387	0.484
814.500	491.469	80.000	19.993	103.794	19.988	2.318	0.478
815.000	491.737	80.002	19.994	103.796	19.990	2.160	0.485
815.500	492.041	80.003	19.994	103.789	19.987	2.378	0.537
816.000	492.240	80.004	19.995	103.782	19.990	2.169	0.537
816.500	492.491	80.003	19.993	103.779	19.990	2.174	0.476
817.000	492.765	80.003	19.994	103.773	19.990	2.167	0.488
817.500	493.001	80.004	19.994	103.768	19.989	2.242	0.518
818.001	493.310	80.002	19.994	103.771	19.991	2.111	0.527
818.501	493.532	80.001	19.993	103.773	19.989	2.218	0.538
819.000	493.783	80.003	19.994	103.773	19.992	2.030	0.502
819.500	494.039	80.003	19.994	103.776	19.994	1.919	0.490
820.000	494.311	80.004	19.994	103.777	19.992	2.008	0.518
820.500	494.512	80.003	19.994	103.773	19.995	1.815	0.500
821.000	494.827	80.003	19.994	103.771	19.992	2.035	0.494
821.500	495.075	80.003	19.994	103.769	19.986	2.409	0.539
822.000	495.370	80.003	19.993	103.768	19.988	2.272	0.553
822.500	495.608	80.002	19.992	103.768	19.990	2.151	0.538
823.000	495.820	80.003	19.994	103.773	19.989	2.229	0.491
823.500	496.090	80.005	19.994	103.776	19.988	2.266	0.466
824.000	496.340	80.003	19.994	103.777	19.991	2.077	0.502
824.500	496.585	80.003	19.994	103.777	19.989	2.212	0.507
825.000	496.839	80.003	19.994	103.778	19.987	2.329	0.496
825.500	497.084	80.003	19.995	103.774	19.989	2.220	0.499
826.000	497.366	80.003	19.996	103.770	19.997	1.690	0.513
826.500	497.587	80.005	19.996	103.769	19.986	2.427	0.515
827.000	497.842	80.005	19.995	103.769	19.987	2.367	0.490
827.500	498.120	80.005	19.995	103.773	19.992	2.014	0.504
828.000	498.352	80.004	19.995	103.778	19.987	2.327	0.521
828.500	498.611	80.006	19.996	103.782	19.991	2.116	0.501
829.000	498.886	80.005	19.995	103.782	19.992	2.047	0.513
829.500	499.142	80.005	19.995	103.788	19.983	2.585	0.532
830.000	499.370	80.006	19.995	103.772	19.987	2.381	0.507
830.500	499.612	80.005	19.996	103.750	19.987	2.336	0.477
831.000	499.872	80.005	19.995	103.729	19.993	1.968	0.486
831.500	500.103	80.005	19.996	103.720	19.988	2.308	0.497
832.000	500.376	80.004	19.994	103.709	19.985	2.460	0.498
832.500	500.676	80.003	19.994	103.719	19.986	2.451	0.538
833.000	500.896	80.005	19.995	103.737	19.985	2.481	0.546
833.500	501.166	80.005	19.995	103.782	19.993	1.988	0.505
834.000	501.420	80.004	19.995	103.809	19.986	2.420	0.507
834.500	501.661	80.004	19.996	103.820	19.989	2.252	0.509
835.000	501.938	80.004	19.994	103.824	19.991	2.078	0.506
835.500	502.154	80.005	19.994	103.823	19.993	1.969	0.506
836.000	502.412	80.004	19.994	103.797	19.987	2.352	0.484
836.500	502.678	80.005	19.996	103.779	19.986	2.412	0.499
837.000	502.915	80.002	19.994	103.772	19.985	2.483	0.513
837.500	503.178	80.004	19.995	103.769	19.985	2.476	0.501
838.000	503.431	80.004	19.995	103.767	19.989	2.221	0.508
838.500	503.675	80.003	19.994	103.763	19.986	2.445	0.507
839.000	503.942	80.002	19.995	103.769	19.990	2.158	0.504
839.500	504.202	80.002	19.994	103.771	19.990	2.123	0.519
840.000	504.432	80.001	19.996	103.773	19.991	2.107	0.508
840.500	504.703	80.002	19.994	103.773	19.991	2.083	0.495
841.000	504.979	80.002	19.994	103.771	19.992	1.994	0.524
841.500	505.204	80.002	19.994	103.766	19.988	2.287	0.524
842.000	505.490	80.003	19.995	103.761	19.991	2.114	0.506
842.500	505.724	80.002	19.994	103.760	19.985	2.454	0.516
843.000	506.008	80.004	19.995	103.763	19.988	2.314	0.519
843.500	506.237	80.003	19.995	103.766	19.991	2.119	0.516
844.000	506.488	80.003	19.995	103.767	19.988	2.269	0.496
844.500	506.747	80.002	19.996	103.769	19.990	2.183	0.495
845.000	506.996	80.002	19.995	103.774	19.990	2.158	0.510
845.500	507.244	80.002	19.995	103.775	19.992	1.994	0.503
846.000	507.492	80.002	19.995	103.773	19.989	2.250	0.497
846.500	507.760	80.001	19.995	103.773	19.989	2.225	0.506
847.000	508.042	80.000	19.996	103.771	19.990	2.125	0.533
847.500	508.307	80.003	19.995	103.766	19.995	1.857	0.548
848.000	508.520	80.003	19.996	103.765	19.992	2.019	0.512
848.500	508.813	80.000	19.995	103.765	19.991	2.092	0.492
849.000	509.065	80.002	19.995	103.764	19.990	2.150	0.526
849.500	509.325	80.001	19.996	103.766	19.992	2.023	0.528
850.000	509.599	80.001	19.995	103.771	19.994	1.892	0.523
850.500	509.813	80.001	19.995	103.770	19.990	2.134	0.511
851.000	510.079	80.001	19.995	103.772	19.987	2.354	0.484
851.500	510.344	80.001	19.994	103.777	19.990	2.187	0.506
852.000	510.598	80.001	19.996	103.776	19.989	2.249	0.525
852.500	510.847	80.003	19.995	103.771	19.990	2.123	0.511
853.000	511.116	80.002	19.994	103.771	19.988	2.303	0.511
853.500	511.396	80.002	19.994	103.773	19.990	2.150	0.534
854.000	511.628	80.001	19.994	103.771	19.992	2.003	0.530
854.500	511.856	80.001	19.995	103.770	19.991	2.083	0.486
855.000	512.168	80.001	19.995	103.769	19.988	2.296	0.500
855.500	512.388	80.002	19.996	103.766	19.989	2.199	0.536
856.000	512.644	80.001	19.996	103.763	19.990	2.168	0.504
856.500	512.870	80.003	19.995	103.760	19.990	2.152	0.479
857.000	513.133	80.002	19.995	103.760	19.989	2.203	0.486
857.500	513.386	80.001	19.996	103.760	19.990	2.132	0.503
858.000	513.687	80.002	19.995	103.760	19.986	2.445	0.535
858.500	513.959	80.002	19.994	103.761	19.993	1.972	0.563
859.000	514.218	80.003	19.996	103.761	19.992	2.047	0.552
859.500	514.473	80.004	19.996	103.761	19.991	2.068	0.523
860.000	514.716	80.002	19.995	103.761	19.991	2.118	0.506
860.500	514.975	80.002	19.996	103.760	19.995	1.803	0.500
861.000	515.242	80.002	19.995	103.760	19.989	2.207	0.514
861.500	515.516	80.002	19.995	103.760	19.989	2.192	0.533
862.000	515.778	80.001	19.996	103.760	19.990	2.143	0.538
862.500	516.042	80.001	19.995	103.762	19.983	2.598	0.531
863.000	516.274	80.003	19.995	103.763	19.991	2.081	0.511
863.500	516.565	80.002	19.995	103.763	19.992	1.994	0.510
864.000	516.779	80.003	19.996	103.763	19.989	2.200	0.514
864.500	517.037	80.001	19.996	103.763	19.994	1.923	0.488
865.000	517.299	80.003	19.994	103.760	19.988	2.260	0.496
865.500	517.554	80.001	19.995	103.759	19.989	2.241	0.519
866.000	517.805	80.002	19.995	103.759	19.992	2.028	0.512
866.500	518.057	80.001	19.994	103.760	19.990	2.169	0.505
867.000	518.359	80.002	19.994	103.760	19.994	1.903	0.529
867.500	518.588	80.002	19.995	103.762	19.989	2.190	0.542
868.000	518.837	80.002	19.996	103.763	19.994	1.874	0.504
868.500	519.100	80.002	19.994	103.763	19.992	2.052	0.495
869.000	519.341	80.000	19.994	103.764	19.990	2.130	0.508
869.500	519.649	80.000	19.995	103.765	19.991	2.070	0.527
870.000	519.868	80.002	19.994	103.765	19.993	1.972	0.538
870.500	520.142	80.001	19.994	103.765	19.992	2.014	0.510
871.000	520.425	80.001	19.994	103.765	19.990	2.152	0.525
871.500	520.663	80.002	19.995	103.764	19.991	2.081	0.539
872.000	520.902	80.001	19.992	103.765	19.988	2.292	0.499
872.500	521.186	80.001	19.996	103.766	19.989	2.190	0.500
873.000	521.468	80.002	19.996	103.768	19.989	2.207	0.544
873.500	521.696	80.002	19.995	103.774	19.990	2.163	0.538
874.000	521.946	80.001	19.996	103.775	19.994	1.919	0.494
874.500	522.221	80.003	19.996	103.774	19.995	1.838	0.502
875.000	522.462	80.000	19.995	103.774	19.988	2.261	0.521
875.500	522.712	80.001	19.994	103.772	19.987	2.369	0.503
876.000	522.964	80.001	19.993	103.767	19.994	1.921	0.497
876.500	523.273	80.002	19.993	103.768	19.991	2.068	0.532
877.000	523.485	80.002	19.995	103.767	19.992	2.041	0.541
877.500	523.744	80.002	19.995	103.767	19.994	1.890	0.496
878.000	523.977	80.002	19.994	103.767	19.991	2.059	0.481
878.500	524.261	80.002	19.994	103.768	19.990	2.178	0.505
879.000	524.548	80.002	19.994	103.767	19.991	2.083	0.544
879.500	524.777	80.002	19.993	103.767	19.993	1.945	0.543
880.000	525.062	80.001	19.994	103.767	19.990	2.156	0.515
880.500	525.315	80.003	19.995	103.767	19.993	1.950	0.526
881.000	525.538	80.002	19.994	103.766	19.993	1.976	0.507
881.500	525.832	80.002	19.992	103.765	19.991	2.078	0.497
882.000	526.059	80.002	19.995	103.764	19.990	2.187	0.519
882.500	526.327	80.003	19.994	103.764	19.991	2.074	0.508
883.000	526.577	80.003	19.994	103.765	19.998	1.643	0.506
883.500	526.830	80.003	19.995	103.765	19.992	2.045	0.511
884.000	527.105	80.003	19.994	103.768	19.989	2.243	0.516
884.500	527.336	80.001	19.994	103.770	19.989	2.198	0.517
885.000	527.567	80.004	19.994	103.771	19.995	1.843	0.484
885.500	527.816	80.003	19.994	103.771	19.988	2.270	0.472
886.000	528.089	80.002	19.995	103.771	19.989	2.199	0.501
886.500	528.325	80.002	19.994	103.769	19.995	1.837	0.515
887.000	528.630	80.002	19.993	103.768	19.994	1.861	0.525
887.500	528.862	80.002	19.993	103.767	19.990	2.154	0.539
888.000	529.160	80.004	19.993	103.766	19.993	1.983	0.533
888.500	529.405	80.004	19.993	103.766	19.991	2.103	0.536
889.000	529.668	80.004	19.993	103.766	19.990	2.149	0.526
889.500	529.877	80.004	19.994	103.769	19.995	1.805	0.490
890.000	530.151	80.002	19.993	103.775	19.995	1.846	0.478
890.500	530.418	80.003	19.994	103.777	19.997	1.690	0.512
891.000	530.682	80.004	19.995	103.778	19.989	2.194	0.536
891.500	530.929	80.004	19.995	103.781	19.992	2.012	0.521
892.000	531.214	80.002	19.994	103.778	19.991	2.077	0.522
892.500	531.466	80.004	19.996	103.772	19.991	2.059	0.534
893.000	531.716	80.003	19.994	103.771	19.992	2.041	0.519
893.500	531.992	80.005	19.994	103.768	19.995	1.817	0.514
894.000	532.243	80.003	19.994	103.764	19.990	2.168	0.527
894.500	532.503	80.003	19.996	103.763	19.992	2.050	0.520
895.000	532.765	80.003	19.994	103.763	19.992	2.019	0.517
895.500	533.021	80.003	19.995	103.763	19.992	2.027	0.520
896.000	533.255	80.003	19.994	103.764	19.986	2.387	0.504
896.500	533.538	80.003	19.996	103.765	19.992	2.037	0.503
897.000	533.811	80.003	19.995	103.765	19.990	2.145	0.536
897.500	534.062	80.003	19.994	103.766	19.990	2.172	0.540
898.000	534.327	80.003	19.996	103.769	19.989	2.205	0.521
898.500	534.595	80.005	19.995	103.769	19.993	1.968	0.525
899.000	534.819	80.003	19.993	103.769	19.993	1.941	0.512
899.500	535.139	80.003	19.993	103.768	19.993	1.981	0.518
900.000	535.379	80.003	19.993	103.767	19.994	1.919	0.552
900.500	535.666	80.004	19.995	103.763	19.986	2.447	0.543
901.000	535.918	80.004	19.994	103.762	19.990	2.145	0.533
901.500	536.150	80.003	19.994	103.761	19.994	1.883	0.511
902.000	536.414	80.004	19.993	103.761	19.993	1.979	0.490
902.500	536.657	80.004	19.994	103.761	19.994	1.881	0.502
903.001	536.966	80.004	19.993	103.761	19.995	1.856	0.530
903.501	537.166	80.005	19.994	103.761	19.991	2.108	0.530
904.001	537.451	80.004	19.994	103.761	19.991	2.096	0.496
904.500	537.727	80.004	19.994	103.761	19.994	1.901	0.523
905.000	537.967	80.005	19.994	103.761	19.996	1.761	0.539
905.500	538.243	80.003	19.994	103.762	19.991	2.112	0.516
906.000	538.527	80.004	19.994	103.762	19.989	2.245	0.538
906.500	538.767	80.004	19.994	103.761	19.993	1.966	0.542
907.000	539.067	80.005	19.994	103.758	19.995	1.819	0.532
907.500	539.324	80.006	19.994	103.755	19.994	1.866	0.548
908.000	539.530	80.006	19.993	103.755	19.993	1.990	0.510
908.500	539.826	80.006	19.994	103.753	19.992	2.054	0.482
909.000	540.074	80.006	19.994	103.754	19.992	2.052	0.523
909.500	540.300	80.005	19.994	103.750	19.990	2.167	0.509
910.000	540.583	80.005	19.993	103.751	19.991	2.068	0.492
910.500	540.813	80.005	19.994	103.751	19.990	2.178	0.511
911.000	541.095	80.005	19.995	103.752	19.993	1.925	0.512
911.500	541.355	80.006	19.994	103.752	19.991	2.059	0.527
912.000	541.634	80.004	19.993	103.758	19.992	2.039	0.541
912.500	541.882	80.004	19.993	103.760	19.991	2.099	0.533
913.000	542.126	80.005	19.994	103.760	19.992	2.045	0.509
913.500	542.400	80.005	19.994	103.762	19.990	2.148	0.505
914.000	542.674	80.006	19.994	103.762	19.994	1.885	0.533
914.500	542.936	80.004	19.993	103.762	19.990	2.128	0.541
915.000	543.153	80.005	19.994	103.762	19.992	2.025	0.507
915.500	543.459	80.004	19.995	103.761	19.993	1.979	0.501
916.000	543.694	80.004	19.993	103.759	19.992	2.041	0.532
916.500	543.963	80.004	19.994	103.759	19.994	1.879	0.523
917.000	544.197	80.003	19.993	103.759	19.992	2.034	0.503
917.500	544.418	80.004	19.994	103.759	19.991	2.114	0.479
918.000	544.727	80.002	19.994	103.760	19.994	1.916	0.493
918.500	544.971	80.004	19.996	103.760	19.997	1.674	0.542
919.000	545.223	80.001	19.994	103.760	19.993	1.943	0.524
919.500	545.436	80.001	19.995	103.761	19.992	2.045	0.480
920.000	545.740	80.001	19.994	103.761	19.996	1.779	0.491
920.500	545.989	80.001	19.995	103.761	19.990	2.125	0.535
921.000	546.227	80.001	19.995	103.761	19.996	1.768	0.520
921.500	546.528	80.002	19.995	103.762	19.994	1.885	0.513
922.000	546.769	80.002	19.993	103.762	19.994	1.892	0.541
922.500	547.020	80.001	19.995	103.762	19.998	1.610	0.517
923.000	547.270	80.002	19.995	103.762	19.994	1.917	0.496
923.500	547.493	80.002	19.995	103.762	19.993	1.990	0.487
924.000	547.759	80.001	19.994	103.761	19.994	1.872	0.481
924.500	548.034	80.002	19.994	103.761	19.992	2.007	0.515
925.000	548.297	80.001	19.996	103.760	19.995	1.803	0.539
925.500	548.554	80.002	19.995	103.760	19.996	1.770	0.529
926.000	548.838	80.001	19.993	103.760	19.994	1.892	0.531
926.500	549.106	80.000	19.995	103.760	19.991	2.103	0.546
927.001	549.353	80.002	19.994	103.761	19.992	2.025	0.533
927.501	549.559	80.002	19.994	103.763	19.994	1.865	0.484
928.000	549.828	80.001	19.995	103.764	19.997	1.710	0.464
928.500	550.073	80.001	19.994	103.764	19.994	1.888	0.494
929.000	550.326	80.002	19.994	103.764	19.995	1.803	0.506
929.500	550.576	80.002	19.994	103.762	19.992	2.032	0.501
930.000	550.869	80.001	19.994	103.762	19.995	1.839	0.523
930.500	551.125	80.002	19.994	103.762	19.991	2.088	0.546
931.000	551.383	80.002	19.995	103.763	19.993	1.952	0.532
931.500	551.611	80.002	19.994	103.762	19.992	2.017	0.500
932.000	551.898	80.001	19.994	103.763	19.994	1.907	0.500
932.500	552.124	80.000	19.998	103.763	19.989	2.229	0.514
933.000	552.369	80.002	19.997	103.764	19.989	2.198	0.492
933.500	552.662	80.002	19.995	103.764	19.997	1.716	0.505
934.000	552.926	80.001	19.994	103.764	19.995	1.828	0.547
934.500	553.164	80.002	19.996	103.764	19.992	2.034	0.529
935.000	553.429	80.001	19.995	103.764	19.997	1.726	0.503
935.500	553.651	80.002	19.995	103.764	19.994	1.870	0.495
936.000	553.950	80.001	19.994	103.764	19.995	1.839	0.504
936.500	554.192	80.002	19.994	103.764	19.994	1.912	0.531
937.000	554.485	80.003	19.994	103.764	19.994	1.868	0.538
937.500	554.730	80.002	19.994	103.763	19.997	1.723	0.536
938.000	554.980	80.002	19.994	103.763	19.996	1.748	0.516
938.500	555.237	80.001	19.994	103.763	19.993	1.977	0.501
939.000	555.455	80.001	19.995	103.763	19.995	1.830	0.491
939.500	555.740	80.002	19.995	103.763	19.995	1.797	0.489
940.000	555.977	80.001	19.993	103.763	19.991	2.114	0.513
940.500	556.237	80.001	19.993	103.763	19.995	1.837	0.509
941.000	556.490	80.002	19.995	103.763	19.993	1.957	0.504
941.500	556.729	80.002	19.995	103.762	19.994	1.901	0.502
942.000	556.975	80.003	19.994	103.763	19.997	1.706	0.489
942.500	557.239	80.001	19.995	103.763	19.994	1.899	0.498
943.000	557.498	80.001	19.995	103.763	19.994	1.861	0.516
943.500	557.741	80.001	19.995	103.764	19.997	1.674	0.512
944.000	558.005	80.000	19.996	103.764	19.996	1.772	0.505
944.500	558.268	80.001	19.994	103.764	19.996	1.732	0.517
945.000	558.531	80.001	19.993	103.764	19.994	1.872	0.526
945.500	558.785	80.002	19.994	103.764	19.994	1.897	0.521
946.000	559.012	80.001	19.993	103.764	19.995	1.806	0.499
946.500	559.291	80.002	19.994	103.765	19.994	1.888	0.494
947.000	559.549	80.000	19.994	103.765	19.994	1.866	0.522
947.500	559.827	80.001	19.994	103.764	19.995	1.814	0.537
948.000	560.044	80.001	19.995	103.764	19.995	1.836	0.515
948.500	560.304	80.000	19.995	103.763	19.995	1.806	0.486
949.000	560.552	80.001	19.995	103.763	19.994	1.888	0.493
949.500	560.795	80.001	19.995	103.762	19.998	1.650	0.500
950.000	561.051	80.000	19.995	103.761	19.993	1.934	0.495
950.500	561.329	80.001	19.994	103.761	19.994	1.888	0.516
951.000	561.604	80.001	19.995	103.762	19.994	1.888	0.543
951.500	561.858	79.999	19.994	103.762	19.997	1.714	0.541
952.000	562.118	80.001	19.994	103.762	19.996	1.765	0.522
952.500	562.391	80.001	19.995	103.763	19.994	1.868	0.523
953.000	562.638	80.000	19.994	103.764	19.994	1.863	0.526
953.500	562.878	80.001	19.995	103.764	19.998	1.655	0.504
954.000	563.137	80.002	19.995	103.764	19.994	1.885	0.493
954.500	563.385	80.001	19.995	103.764	19.994	1.881	0.503
955.000	563.670	80.002	19.995	103.763	19.996	1.739	0.520
955.500	563.900	80.003	19.995	103.763	19.995	1.836	0.524
956.000	564.166	80.002	19.997	103.762	19.991	2.087	0.505
956.500	564.411	80.002	19.995	103.763	19.991	2.114	0.504
957.000	564.660	80.001	19.995	103.762	19.996	1.775	0.502
957.500	564.963	80.003	19.996	103.762	19.993	1.963	0.523
958.000	565.198	80.002	19.994	103.762	19.991	2.103	0.545
958.500	565.425	80.002	19.994	103.761	19.993	1.946	0.500
959.000	565.659	80.004	19.995	103.761	19.990	2.145	0.462
959.500	565.959	80.002	19.993	103.761	19.997	1.703	0.498
960.000	566.196	80.002	19.996	103.761	19.996	1.786	0.535
960.500	566.464	80.003	19.994	103.762	19.995	1.810	0.521
961.000	566.719	80.002	19.993	103.762	19.998	1.637	0.514
961.500	566.955	80.003	19.994	103.762	19.995	1.825	0.507
962.000	567.230	80.003	19.994	103.761	19.993	1.979	0.501
962.500	567.485	80.003	19.994	103.761	19.992	1.996	0.521
963.000	567.745	80.004	19.993	103.761	19.994	1.870	0.522
963.500	567.991	80.003	19.994	103.761	19.997	1.661	0.511
964.000	568.274	80.003	19.995	103.761	19.994	1.919	0.518
964.500	568.515	80.004	19.993	103.761	19.997	1.679	0.526
965.000	568.795	80.002	19.993	103.761	19.996	1.745	0.522
965.500	569.029	80.004	19.994	103.760	19.993	1.965	0.518
966.000	569.278	80.004	19.994	103.761	19.993	1.950	0.499
966.500	569.522	80.003	19.993	103.760	19.991	2.114	0.488
967.000	569.762	80.003	19.994	103.760	19.994	1.881	0.489
967.500	570.062	80.003	19.994	103.760	19.991	2.094	0.512
968.000	570.290	80.003	19.993	103.761	19.990	2.128	0.534
968.500	570.569	80.004	19.994	103.760	19.995	1.846	0.517
969.000	570.793	80.004	19.993	103.761	19.990	2.163	0.505
969.500	571.069	80.003	19.995	103.761	19.991	2.081	0.501
970.001	571.314	80.003	19.993	103.761	19.993	1.988	0.511
970.500	571.578	80.003	19.993	103.761	19.996	1.792	0.515
971.000	571.834	80.004	19.994	103.761	19.988	2.278	0.514
971.500	572.075	80.003	19.994	103.761	19.993	1.957	0.508
972.000	572.353	80.003	19.994	103.761	19.993	1.979	0.508
972.500	572.613	80.003	19.994	103.760	19.990	2.136	0.528
973.000	572.886	80.003	19.993	103.760	19.993	1.934	0.536
973.500	573.129	80.003	19.995	103.761	19.994	1.874	0.525
974.000	573.399	80.004	19.994	103.763	19.988	2.267	0.514
974.500	573.670	80.003	19.994	103.763	19.988	2.263	0.527
975.000	573.935	80.003	19.994	103.763	19.992	2.041	0.539
975.500	574.201	80.003	19.995	103.764	19.990	2.161	0.533
976.000	574.440	80.002	19.994	103.765	19.994	1.861	0.518
976.500	574.697	80.003	19.994	103.763	19.991	2.117	0.501
977.000	574.961	80.003	19.994	103.763	19.989	2.225	0.509
977.500	575.254	80.002	19.995	103.763	19.989	2.196	0.539
978.000	575.509	80.003	19.995	103.763	19.995	1.854	0.552
978.500	575.752	80.004	19.996	103.763	19.993	1.987	0.523
979.000	576.019	80.004	19.994	103.763	19.987	2.323	0.504
979.500	576.262	80.003	19.994	103.763	19.992	2.019	0.510
980.000	576.518	80.003	19.994	103.763	19.993	1.988	0.505
980.500	576.754	80.003	19.995	103.762	19.993	1.928	0.495
981.000	577.004	80.003	19.994	103.761	19.993	1.956	0.488
981.500	577.291	80.004	19.995	103.761	19.993	1.977	0.511
982.000	577.526	80.003	19.994	103.761	19.995	1.816	0.530
982.500	577.816	80.003	19.995	103.761	19.990	2.134	0.524
983.000	578.055	80.003	19.994	103.761	19.993	1.990	0.527
983.500	578.294	80.003	19.993	103.760	19.996	1.777	0.504
984.000	578.583	80.004	19.993	103.760	19.990	2.163	0.503
984.500	578.814	80.004	19.994	103.761	19.990	2.158	0.523
985.000	579.020	80.004	19.994	103.762	19.992	2.056	0.478
985.500	579.344	80.003	19.994	103.762	19.994	1.916	0.484
986.000	579.580	80.004	19.995	103.762	19.993	1.974	0.545
986.500	579.796	80.005	19.994	103.763	19.991	2.067	0.505
987.000	580.087	80.004	19.994	103.762	19.993	1.934	0.480
987.500	580.324	80.005	19.996	103.760	19.991	2.065	0.518
988.000	580.571	80.005	19.994	103.761	19.992	2.023	0.506
988.500	580.815	80.004	19.994	103.762	19.994	1.910	0.487
989.000	581.085	80.004	19.994	103.761	19.991	2.081	0.503
989.500	581.312	80.005	19.994	103.761	19.993	1.966	0.506
990.000	581.590	80.006	19.994	103.761	19.990	2.148	0.501
990.500	581.906	80.004	19.994	103.761	19.992	2.019	0.550
991.000	582.092	80.005	19.993	103.760	19.997	1.724	0.548
991.500	582.372	80.005	19.993	103.760	19.991	2.116	0.484
992.000	582.641	80.005	19.993	103.761	19.993	1.956	0.507
992.500	582.882	80.006	19.996	103.762	19.993	1.976	0.529
993.000	583.148	80.005	19.996	103.762	19.995	1.803	0.509
993.500	583.377	80.004	19.995	103.762	19.994	1.915	0.501
994.000	583.661	80.005	19.995	103.761	19.997	1.683	0.504
994.500	583.908	80.004	19.994	103.761	19.998	1.643	0.522
995.000	584.176	80.004	19.993	103.762	19.994	1.861	0.523
995.500	584.460	80.004	19.993	103.762	19.995	1.823	0.534
996.000	584.701	80.005	19.993	103.762	19.996	1.763	0.539
996.500	584.968	80.005	19.993	103.763	19.997	1.699	0.516
997.000	585.199	80.005	19.993	103.763	19.995	1.855	0.503
997.500	585.466	80.004	19.995	103.764	19.993	1.987	0.499
998.000	585.725	80.004	19.993	103.762	19.992	2.003	0.512
998.500	585.931	80.004	19.993	103.760	19.990	2.156	0.495
999.000	586.237	80.002	19.994	103.758	19.989	2.232	0.488
999.500	586.490	80.002	19.995	103.754	19.988	2.265	0.535
1000.000	586.708	80.003	19.994	103.748	19.993	1.975	0.515
1000.500	586.993	80.002	19.993	103.747	19.994	1.866	0.487
1001.000	587.255	80.001	19.994	103.750	19.993	1.935	0.525
1001.500	587.500	80.002	19.994	103.749	19.992	2.002	0.527
1002.000	587.756	80.001	19.993	103.752	19.989	2.192	0.504
1002.500	587.994	80.002	19.994	103.755	19.992	2.039	0.497
1003.000	588.261	80.002	19.994	103.757	19.995	1.814	0.500
1003.500	588.502	80.001	19.993	103.757	19.993	1.943	0.506
1004.000	588.792	80.001	19.993	103.755	19.995	1.846	0.519
1004.500	589.023	80.001	19.993	103.753	19.990	2.163	0.526
1005.000	589.320	80.002	19.994	103.752	19.989	2.212	0.525
1005.500	589.560	80.001	19.993	103.753	19.994	1.890	0.533
1006.000	589.841	80.001	19.993	103.753	19.991	2.081	0.529
1006.500	590.132	80.001	19.993	103.758	19.990	2.156	0.546
1007.000	590.352	80.001	19.993	103.767	19.994	1.910	0.542
1007.500	590.620	80.000	19.993	103.747	19.991	2.081	0.500
1008.001	590.853	80.001	19.994	103.722	19.990	2.147	0.495
1008.500	591.094	80.001	19.995	103.706	19.992	2.041	0.488
1009.000	591.378	80.000	19.995	103.697	19.995	1.803	0.499
1009.500	591.654	79.999	19.995	103.687	19.992	2.017	0.542
1010.000	591.884	80.001	19.994	103.736	19.990	2.163	0.533
1010.500	592.128	80.002	19.995	103.781	19.991	2.087	0.490
1011.000	592.389	80.001	19.994	103.802	19.990	2.136	0.489
1011.500	592.649	80.001	19.994	103.811	19.994	1.908	0.513
1012.000	592.905	80.002	19.995	103.817	19.989	2.225	0.519
1012.500	593.157	80.001	19.994	103.790	19.993	1.954	0.512
1013.000	593.404	80.001	19.993	103.768	19.991	2.108	0.503
1013.500	593.659	80.001	19.995	103.757	19.989	2.190	0.500
1014.000	593.955	80.001	19.994	103.751	19.988	2.310	0.527
1014.500	594.240	80.001	19.994	103.750	19.992	2.034	0.566
1015.000	594.488	80.001	19.994	103.751	19.991	2.090	0.557
1015.500	594.778	80.003	19.994	103.752	19.992	2.021	0.535
1016.000	595.001	80.002	19.995	103.758	19.990	2.183	0.525
1016.500	595.288	80.002	19.994	103.771	19.988	2.287	0.511
1017.000	595.544	80.002	19.994	103.776	19.994	1.912	0.526
1017.500	595.828	80.003	19.994	103.776	19.992	2.050	0.542
1018.000	596.038	80.001	19.995	103.776	19.995	1.843	0.517
1018.500	596.302	80.002	19.995	103.775	19.990	2.126	0.484
1019.000	596.577	80.001	19.995	103.768	19.995	1.844	0.506
1019.500	596.841	80.002	19.994	103.764	19.992	2.055	0.539
1020.000	597.110	80.003	19.995	103.764	19.991	2.088	0.536
1020.500	597.353	80.003	19.995	103.764	19.994	1.897	0.523
1021.000	597.594	80.004	19.994	103.764	19.991	2.095	0.498
1021.500	597.848	80.002	19.995	103.760	19.990	2.161	0.489
1022.000	598.109	80.001	19.994	103.759	19.991	2.081	0.505
1022.500	598.350	80.002	19.994	103.758	19.989	2.243	0.508
1023.000	598.626	80.002	19.995	103.757	19.991	2.104	0.509
1023.500	598.912	80.002	19.994	103.758	19.991	2.093	0.539
1024.000	599.129	80.002	19.994	103.760	19.989	2.250	0.533
1024.500	599.397	80.001	19.994	103.760	19.993	1.952	0.495
1025.000	599.643	80.002	19.995	103.761	19.993	1.925	0.499
1025.500	599.935	80.002	19.995	103.760	19.992	2.026	0.526
1026.000	600.182	80.002	19.994	103.760	19.992	1.992	0.539
1026.500	600.418	80.001	19.995	103.760	19.996	1.759	0.511
1027.000	600.683	80.003	19.994	103.760	19.993	1.976	0.492
1027.500	600.950	80.001	19.995	103.760	19.991	2.061	0.516
1028.000	601.180	80.001	19.995	103.758	19.993	1.963	0.514
1028.500	601.476	80.001	19.994	103.756	19.994	1.863	0.511
1029.000	601.732	80.003	19.994	103.757	19.992	2.005	0.539
1029.500	601.967	80.002	19.994	103.756	19.995	1.801	0.521
1030.001	602.244	80.003	19.995	103.750	19.996	1.788	0.502
1030.501	602.511	80.001	19.994	103.751	19.997	1.701	0.529
1031.000	602.749	80.003	19.995	103.752	19.996	1.781	0.525
1031.500	603.035	80.001	19.995	103.752	19.997	1.697	0.514
1032.000	603.278	80.002	19.995	103.752	19.994	1.896	0.526
1032.500	603.539	80.002	19.995	103.756	19.997	1.701	0.516
1033.000	603.807	80.001	19.996	103.752	19.999	1.565	0.516
1033.500	604.034	80.001	19.996	103.749	19.994	1.890	0.512
1034.000	604.312	80.001	19.994	103.748	19.996	1.758	0.500
1034.500	604.589	80.001	19.995	103.744	19.990	2.176	0.530
1035.000	604.832	80.003	19.996	103.745	19.993	1.936	0.538
1035.500	605.086	80.002	19.995	103.749	19.995	1.818	0.509
1036.000	605.360	80.001	19.997	103.753	19.992	2.012	0.512
1036.500	605.623	80.001	19.995	103.754	19.993	1.947	0.532
1037.000	605.860	80.002	19.996	103.759	19.994	1.870	0.519
1037.500	606.142	80.003	19.996	103.760	19.997	1.723	0.510
1038.000	606.394	80.001	19.995	103.761	19.995	1.815	0.526
1038.500	606.645	80.001	19.995	103.761	19.996	1.770	0.519
1039.000	606.939	80.002	19.995	103.761	19.997	1.686	0.524
1039.501	607.208	80.001	19.995	103.761	19.996	1.765	0.554
1040.001	607.475	80.003	19.995	103.761	19.995	1.825	0.550
1040.501	607.738	80.001	19.995	103.760	19.999	1.539	0.533
1041.001	607.979	80.002	19.996	103.760	19.995	1.844	0.517
1041.500	608.277	80.003	19.995	103.764	19.994	1.919	0.521
1042.000	608.572	80.002	19.994	103.769	19.997	1.670	0.566
1042.500	608.794	80.000	19.995	103.773	19.995	1.834	0.555
1043.000	609.097	80.001	19.996	103.773	19.991	2.066	0.521
1043.500	609.360	80.001	19.995	103.775	19.997	1.708	0.545
1044.000	609.628	80.002	19.996	103.775	19.997	1.661	0.548
1044.500	609.898	80.003	19.997	103.777	19.995	1.803	0.534
1045.000	610.181	80.001	19.996	103.781	19.994	1.894	0.545
1045.500	610.423	80.002	19.995	103.788	19.996	1.741	0.539
1046.000	610.685	80.002	19.995	103.789	19.997	1.685	0.514
1046.500	610.931	80.001	19.995	103.785	19.995	1.803	0.506
1047.000	611.234	80.003	19.995	103.779	19.997	1.694	0.528
1047.500	611.504	80.003	19.995	103.770	19.997	1.721	0.561
1048.000	611.769	80.003	19.994	103.763	19.998	1.623	0.554
1048.500	611.983	80.002	19.995	103.759	19.994	1.910	0.507
1049.000	612.271	80.004	19.995	103.760	19.994	1.859	0.490
1049.500	612.555	80.002	19.995	103.762	19.993	1.948	0.537
1050.001	612.806	80.003	19.995	103.764	19.994	1.859	0.553
1050.501	613.059	80.003	19.995	103.763	19.995	1.817	0.520
1051.000	613.386	80.003	19.995	103.761	19.993	1.965	0.542
1051.500	613.666	80.002	19.995	103.759	19.993	1.937	0.593
1052.000	613.937	80.001	19.993	103.752	19.994	1.912	0.579
1052.501	614.215	80.003	19.996	103.752	19.993	1.963	0.550
1053.001	614.476	80.002	19.995	103.753	19.996	1.736	0.544
1053.500	614.761	80.003	19.997	103.755	19.993	1.930	0.542
1054.000	615.039	80.003	19.995	103.755	19.995	1.850	0.555
1054.500	615.332	80.003	19.995	103.757	19.995	1.812	0.567
1055.000	615.606	80.002	19.995	103.755	19.994	1.916	0.569
1055.500	615.875	80.001	19.994	103.754	19.993	1.976	0.555
1056.000	616.165	80.002	19.994	103.755	19.995	1.801	0.551
1056.500	616.407	80.003	19.993	103.759	19.994	1.879	0.545
1057.001	616.717	80.002	19.994	103.761	19.993	1.930	0.542
1057.501	616.979	80.002	19.995	103.764	19.994	1.912	0.562
1058.001	617.260	80.002	19.994	103.766	19.992	2.005	0.557
1058.500	617.538	80.002	19.994	103.766	19.994	1.876	0.551
1059.000	617.803	80.002	19.993	103.766	19.998	1.655	0.551
1059.500	618.062	80.002	19.993	103.766	19.995	1.815	0.533
1060.000	618.366	80.002	19.995	103.766	19.998	1.613	0.543
1060.500	618.629	80.003	19.994	103.765	19.994	1.890	0.565
1061.000	618.934	80.003	19.993	103.765	20.002	1.390	0.568
1061.500	619.145	80.003	19.993	103.763	19.994	1.865	0.542
1062.000	619.454	80.003	19.993	103.764	19.999	1.586	0.518
1062.500	619.737	80.003	19.994	103.763	19.999	1.554	0.556
1063.000	620.034	80.003	19.993	103.763	19.997	1.714	0.586
1063.500	620.310	80.003	19.994	103.763	20.003	1.312	0.576
1064.000	620.588	80.002	19.993	103.764	20.008	0.995	0.564
1064.500	620.856	80.003	19.993	103.762	20.002	1.333	0.550
1065.000	621.129	80.004	19.993	103.758	19.995	1.797	0.543
1065.500	621.397	80.003	19.994	103.758	19.998	1.628	0.541
1066.001	621.658	80.003	19.993	103.758	19.996	1.752	0.535
1066.501	621.977	80.004	19.994	103.761	19.995	1.819	0.555
1067.000	622.222	80.003	19.994	103.765	19.993	1.963	0.572
1067.501	622.540	80.003	19.993	103.768	19.994	1.863	0.563
1068.001	622.788	80.004	19.993	103.766	20.000	1.468	0.565
1068.501	623.071	80.004	19.993	103.765	19.991	2.105	0.549
1069.001	623.356	80.004	19.993	103.762	19.995	1.845	0.549
1069.500	623.638	80.004	19.993	103.759	19.995	1.846	0.567
1070.000	623.906	80.004	19.994	103.756	19.993	1.927	0.559
1070.500	624.167	80.004	19.994	103.753	19.995	1.834	0.539
1071.001	624.467	80.004	19.993	103.752	20.000	1.499	0.545
1071.501	624.724	80.005	19.992	103.751	19.997	1.683	0.559
1072.000	625.009	80.004	19.993	103.752	19.999	1.592	0.550
1072.500	625.318	80.006	19.993	103.754	19.996	1.768	0.568
1073.000	625.574	80.005	19.994	103.757	20.000	1.521	0.579
1073.500	625.837	80.005	19.993	103.759	19.999	1.543	0.542
1074.000	626.122	80.004	19.993	103.759	19.997	1.726	0.534
1074.501	626.417	80.004	19.993	103.760	19.998	1.648	0.564
1075.001	626.703	80.003	19.994	103.761	19.997	1.726	0.580
1075.501	626.941	80.002	19.994	103.763	19.998	1.608	0.552
1076.000	627.248	80.003	19.993	103.763	19.997	1.714	0.534
1076.500	627.543	80.003	19.994	103.762	19.996	1.754	0.573
1077.001	627.747	80.003	19.993	103.759	19.995	1.857	0.551
1077.501	628.158	80.003	19.994	103.756	19.995	1.843	0.557
1078.000	628.418	80.003	19.994	103.756	19.992	2.005	0.642
1078.500	628.638	80.002	19.994	103.757	19.996	1.785	0.575
1079.000	628.866	80.003	19.992	103.758	19.995	1.845	0.464
1079.500	629.182	80.001	19.994	103.761	19.995	1.799	0.496
1080.000	629.419	80.002	19.993	103.763	19.996	1.788	0.548
1080.500	629.670	80.002	19.994	103.764	19.994	1.905	0.521
1081.000	629.955	80.003	19.994	103.764	19.995	1.843	0.512
1081.500	630.229	80.002	19.993	103.764	19.998	1.659	0.547
1082.000	630.564	80.002	19.994	103.762	19.996	1.792	0.584
1082.500	630.761	80.001	19.993	103.762	19.996	1.750	0.571
1083.000	631.085	80.002	19.994	103.761	19.998	1.614	0.527
1083.500	631.325	80.002	19.994	103.760	19.997	1.719	0.543
1084.000	631.636	80.000	19.994	103.759	19.995	1.835	0.557
1084.501	631.926	80.001	19.994	103.759	19.998	1.632	0.576
1085.001	632.169	80.001	19.994	103.759	19.995	1.837	0.568
1085.501	632.463	80.002	19.994	103.756	19.994	1.888	0.535
1086.001	632.734	80.002	19.994	103.756	19.997	1.724	0.550
1086.500	633.001	80.003	19.993	103.757	19.999	1.562	0.551
1087.000	633.307	80.002	19.994	103.757	19.998	1.612	0.555
1087.500	633.585	80.002	19.994	103.758	19.996	1.728	0.578
1088.000	633.823	80.002	19.994	103.760	19.994	1.864	0.550
1088.500	634.108	80.002	19.993	103.759	19.995	1.812	0.520
1089.000	634.418	80.001	19.995	103.760	19.996	1.790	0.559
1089.500	634.653	80.001	19.995	103.760	19.997	1.701	0.570
1090.000	634.931	80.002	19.993	103.760	19.998	1.654	0.528
1090.500	635.178	80.002	19.993	103.760	20.000	1.464	0.518
1091.000	635.511	80.003	19.994	103.761	20.000	1.475	0.552
1091.501	635.758	80.001	19.993	103.761	19.996	1.750	0.580
1092.001	635.998	80.001	19.994	103.761	19.996	1.737	0.533
1092.500	636.299	80.001	19.993	103.760	19.996	1.744	0.514
1093.000	636.584	80.003	19.993	103.760	19.994	1.915	0.564
1093.500	636.858	80.002	19.993	103.760	19.995	1.846	0.572
1094.000	637.102	80.002	19.993	103.759	19.997	1.682	0.538
1094.500	637.389	80.002	19.993	103.759	20.000	1.490	0.525
1095.001	637.649	80.002	19.994	103.757	19.997	1.693	0.539
1095.501	637.941	80.003	19.994	103.751	19.996	1.768	0.549
1096.001	638.202	80.002	19.993	103.746	19.996	1.786	0.553
1096.500	638.492	80.003	19.994	103.745	19.998	1.595	0.552
1097.000	638.751	80.002	19.994	103.746	19.997	1.663	0.550
1097.500	639.002	80.002	19.993	103.744	19.999	1.544	0.529
1098.000	639.298	80.003	19.994	103.745	19.999	1.586	0.528
1098.500	639.556	80.002	19.994	103.748	19.999	1.581	0.550
1099.000	639.844	80.002	19.995	103.749	19.996	1.730	0.550
1099.500	640.101	80.001	19.994	103.749	19.997	1.677	0.546
1100.000	640.352	80.001	19.994	103.753	20.002	1.384	0.526
1100.500	640.647	80.002	19.994	103.758	19.996	1.732	0.527
1101.001	640.895	80.002	19.995	103.760	19.995	1.801	0.545
1101.501	641.148	80.001	19.994	103.758	19.999	1.586	0.522
1102.000	641.425	80.001	19.994	103.757	19.999	1.590	0.516
1102.500	641.677	80.002	19.993	103.756	20.000	1.522	0.529
1103.000	641.993	80.001	19.994	103.753	20.000	1.528	0.548
1103.500	642.209	80.001	19.995	103.749	19.996	1.788	0.550
1104.001	642.448	80.000	19.994	103.747	19.997	1.681	0.494
1104.501	642.734	80.001	19.994	103.747	19.994	1.866	0.490
1105.001	643.051	80.003	19.995	103.747	19.997	1.664	0.564
1105.500	643.274	80.000	19.996	103.750	19.992	2.001	0.571
1106.001	643.582	80.002	19.994	103.752	19.996	1.786	0.535
1106.501	643.797	80.002	19.994	103.753	19.996	1.741	0.527
1107.000	644.069	80.001	19.995	103.753	19.993	1.946	0.505
1107.500	644.318	80.002	19.995	103.754	19.993	1.972	0.504
1108.000	644.632	80.002	19.995	103.750	19.997	1.662	0.542
1108.500	644.873	80.001	19.995	103.744	19.993	1.975	0.559
1109.000	645.090	80.001	19.993	103.742	19.997	1.713	0.506
1109.500	645.412	80.000	19.994	103.742	20.000	1.484	0.498
1110.000	645.614	80.002	19.995	103.742	19.998	1.608	0.531
1110.500	645.897	80.001	19.994	103.747	19.994	1.908	0.505
1111.000	646.179	80.001	19.996	103.754	19.996	1.775	0.525
1111.500	646.433	80.002	19.995	103.755	20.000	1.472	0.551
1112.000	646.693	80.001	19.994	103.749	19.998	1.657	0.525
1112.500	646.988	80.001	19.996	103.744	19.994	1.899	0.534
1113.000	647.204	80.001	19.995	103.742	19.997	1.719	0.533
1113.500	647.490	80.001	19.995	103.741	20.000	1.503	0.507
1114.000	647.775	80.001	19.995	103.744	19.997	1.661	0.537
1114.500	648.010	80.002	19.996	103.744	19.998	1.623	0.546
1115.001	648.263	80.002	19.997	103.748	20.000	1.493	0.504
1115.501	648.520	80.002	19.995	103.747	19.999	1.535	0.498
1116.002	648.808	80.002	19.994	103.746	20.000	1.506	0.527
1116.501	649.062	80.002	19.996	103.747	20.000	1.473	0.543
1117.001	649.331	80.001	19.994	103.753	19.995	1.804	0.533
1117.501	649.584	80.002	19.994	103.753	19.999	1.532	0.523
1118.001	649.808	80.002	19.995	103.752	19.997	1.681	0.500
1118.500	650.106	80.002	19.993	103.749	19.998	1.615	0.499
1119.000	650.366	80.003	19.994	103.745	19.998	1.654	0.540
1119.500	650.620	80.003	19.994	103.745	19.999	1.554	0.536
1120.001	650.881	80.004	19.995	103.743	20.000	1.524	0.515
1120.501	651.150	80.003	19.995	103.748	19.997	1.663	0.523
1121.001	651.381	80.002	19.994	103.753	20.001	1.402	0.514
1121.500	651.679	80.002	19.994	103.758	20.002	1.379	0.514
1122.000	651.919	80.003	19.995	103.758	20.000	1.502	0.534
1122.500	652.174	80.002	19.994	103.761	20.000	1.497	0.517
1123.000	652.459	80.004	19.994	103.761	20.000	1.464	0.518
1123.500	652.740	80.003	19.994	103.760	20.004	1.213	0.553
1124.000	652.973	80.003	19.993	103.760	20.000	1.499	0.539
1124.501	653.236	80.002	19.993	103.760	19.998	1.599	0.505
1125.001	653.497	80.003	19.995	103.761	20.000	1.466	0.511
1125.500	653.780	80.003	19.994	103.758	20.000	1.488	0.534
1126.000	654.020	80.002	19.995	103.754	20.002	1.348	0.533
1126.500	654.256	80.003	19.995	103.751	20.001	1.441	0.499
1127.000	654.566	80.003	19.994	103.748	20.005	1.189	0.511
1127.500	654.842	80.003	19.995	103.747	20.000	1.475	0.566
1128.000	655.082	80.002	19.996	103.749	19.998	1.648	0.551
1128.500	655.368	80.004	19.995	103.753	19.997	1.697	0.521
1129.000	655.598	80.003	19.997	103.758	20.001	1.455	0.522
1129.500	655.872	80.003	19.994	103.760	19.998	1.606	0.510
1130.000	656.122	80.002	19.994	103.761	19.997	1.695	0.514
1130.500	656.403	80.004	19.994	103.760	19.999	1.557	0.527
1131.000	656.629	80.003	19.994	103.760	20.002	1.368	0.519
1131.500	656.887	80.001	19.995	103.759	19.998	1.601	0.495
1132.000	657.123	80.001	19.995	103.754	20.001	1.448	0.489
1132.500	657.443	80.002	19.994	103.748	19.997	1.690	0.525
1133.000	657.672	80.003	19.996	103.743	20.000	1.479	0.553
1133.500	657.909	80.002	19.995	103.738	20.001	1.426	0.508
1134.000	658.164	80.002	19.994	103.732	20.000	1.499	0.479
1134.500	658.451	80.002	19.995	103.735	19.998	1.619	0.517
1135.000	658.776	80.002	19.996	103.741	20.000	1.481	0.577
1135.500	658.967	80.002	19.995	103.749	19.997	1.683	0.564
1136.000	659.215	80.002	19.995	103.753	20.000	1.506	0.478
1136.500	659.494	80.002	19.996	103.754	20.001	1.428	0.483
1137.000	659.714	80.003	19.994	103.752	19.998	1.603	0.513
1137.500	659.979	80.003	19.995	103.745	19.999	1.581	0.492
1138.000	660.229	80.002	19.996	103.738	19.999	1.581	0.500
1138.500	660.527	80.001	19.995	103.732	19.997	1.661	0.532
1139.000	660.742	80.002	19.996	103.731	19.999	1.564	0.530
1139.500	661.030	80.002	19.995	103.734	19.999	1.541	0.508
1140.000	661.271	80.002	19.995	103.740	20.000	1.528	0.516
1140.500	661.533	80.003	19.995	103.744	20.000	1.473	0.516
1141.000	661.779	80.003	19.995	103.750	19.999	1.588	0.505
1141.500	662.029	80.002	19.995	103.756	20.001	1.441	0.502
1142.001	662.245	80.003	19.994	103.755	20.003	1.308	0.481
1142.501	662.502	80.002	19.995	103.752	20.001	1.442	0.469
1143.000	662.769	80.004	19.995	103.748	20.003	1.312	0.499
1143.500	663.014	80.002	19.993	103.743	20.003	1.313	0.518
1144.000	663.261	80.003	19.993	103.741	20.000	1.515	0.502
1144.500	663.499	80.004	19.995	103.738	20.002	1.350	0.488
1145.000	663.783	80.002	19.994	103.740	20.003	1.302	0.504
1145.500	663.983	80.004	19.995	103.745	20.005	1.153	0.503
1146.000	664.322	80.005	19.994	103.751	20.004	1.228	0.511
1146.501	664.476	80.002	19.992	103.750	20.004	1.206	0.515
1147.001	664.709	80.005	19.994	103.751	20.004	1.202	0.440
1147.500	664.982	80.004	19.994	103.751	20.001	1.432	0.447
1148.000	665.251	80.003	19.993	103.753	20.005	1.171	0.524
1148.500	665.481	80.004	19.994	103.754	20.000	1.513	0.520
1149.000	665.739	80.004	19.994	103.757	20.003	1.270	0.493
1149.501	666.002	80.004	19.995	103.760	20.000	1.524	0.504
1150.001	666.270	80.005	19.993	103.757	20.007	1.008	0.526
1150.500	666.527	80.003	19.994	103.751	20.003	1.324	0.529
1151.000	666.757	80.004	19.993	103.747	20.004	1.210	0.506
1151.500	666.989	80.005	19.993	103.746	20.003	1.266	0.474
1152.001	667.226	80.004	19.993	103.747	20.004	1.228	0.466
1152.501	667.480	80.005	19.994	103.751	20.002	1.380	0.480
1153.001	667.729	80.004	19.995	103.752	20.006	1.089	0.497
1153.501	668.005	80.005	19.994	103.755	20.005	1.142	0.514
1154.001	668.256	80.004	19.993	103.754	20.001	1.398	0.526
1154.500	668.495	80.004	19.994	103.754	20.004	1.217	0.509
1155.000	668.777	80.004	19.994	103.752	20.003	1.266	0.506
1155.500	669.022	80.004	19.993	103.755	20.003	1.306	0.524
1156.000	669.284	80.004	19.993	103.753	20.004	1.200	0.517
1156.500	669.522	80.004	19.992	103.750	20.003	1.291	0.504
1157.001	669.732	80.003	19.994	103.749	20.001	1.424	0.474
1157.501	670.025	80.004	19.994	103.751	20.002	1.393	0.475
1158.000	670.256	80.002	19.994	103.751	20.002	1.359	0.513
1158.500	670.528	80.002	19.994	103.754	20.001	1.400	0.514
1159.000	670.763	80.002	19.993	103.758	20.004	1.244	0.505
1159.500	671.037	80.001	19.995	103.758	20.007	1.044	0.508
1160.000	671.280	80.001	19.994	103.758	20.005	1.195	0.513
1160.500	671.498	80.003	19.995	103.759	20.007	1.058	0.489
1161.000	671.729	80.001	19.994	103.759	20.006	1.118	0.455
1161.500	672.010	80.001	19.994	103.758	20.009	0.927	0.481
1162.000	672.282	80.000	19.995	103.756	20.003	1.288	0.533
1162.500	672.467	80.001	19.994	103.749	20.006	1.129	0.505
1163.000	672.726	80.001	19.994	103.741	20.006	1.111	0.450
1163.500	672.947	80.002	19.995	103.735	20.003	1.315	0.462
1164.001	673.243	80.002	19.995	103.729	20.003	1.286	0.498
1164.501	673.508	80.001	19.994	103.726	20.002	1.361	0.539
1165.001	673.717	80.001	19.994	103.727	20.005	1.159	0.518
1165.501	673.960	80.002	19.994	103.734	20.006	1.071	0.464
1166.001	674.230	80.001	19.994	103.741	20.004	1.204	0.483
1166.501	674.469	80.003	19.994	103.741	20.007	1.055	0.511
1167.000	674.732	80.001	19.994	103.742	20.003	1.271	0.505
1167.500	674.968	80.002	19.994	103.741	20.006	1.129	0.500
1168.001	675.206	80.002	19.993	103.735	20.006	1.124	0.486
1168.501	675.450	80.001	19.994	103.732	20.004	1.251	0.479
1169.001	675.713	80.002	19.994	103.731	20.003	1.279	0.495
1169.500	675.948	80.001	19.993	103.729	20.007	1.058	0.502
1170.000	676.209	80.002	19.995	103.728	20.004	1.204	0.497
1170.500	676.444	80.002	19.994	103.728	20.005	1.164	0.496
1171.000	676.662	80.001	19.994	103.725	20.003	1.330	0.474
1171.500	676.912	80.002	19.994	103.727	20.003	1.299	0.461
1172.000	677.185	80.001	19.993	103.728	20.001	1.399	0.496
1172.501	677.441	80.001	19.995	103.731	20.001	1.426	0.526
1173.001	677.683	80.001	19.996	103.738	20.004	1.200	0.513
1173.500	677.931	80.001	19.995	103.743	20.005	1.155	0.494
1174.000	678.173	80.000	19.995	103.748	20.002	1.391	0.490
1174.500	678.424	80.003	19.995	103.754	20.004	1.222	0.491
1175.000	678.655	80.002	19.994	103.756	20.007	1.039	0.488
1175.500	678.893	80.002	19.994	103.754	20.001	1.420	0.476
1176.000	679.196	80.002	19.993	103.755	20.004	1.255	0.505
1176.501	679.397	80.002	19.995	103.754	20.001	1.399	0.522
1177.001	679.643	80.003	19.994	103.750	20.004	1.229	0.475
1177.501	679.912	80.002	19.993	103.751	20.003	1.317	0.481
1178.001	680.118	80.002	19.995	103.745	20.005	1.164	0.495
1178.501	680.370	80.003	19.994	103.739	20.004	1.264	0.466
1179.000	680.613	80.002	19.995	103.735	20.006	1.106	0.477
1179.500	680.855	80.002	19.994	103.734	20.004	1.233	0.490
1180.000	681.092	80.002	19.993	103.732	20.000	1.469	0.482
1180.500	681.359	80.003	19.995	103.736	20.004	1.213	0.492
1181.000	681.645	80.003	19.993	103.738	20.004	1.251	0.528
1181.501	681.853	80.001	19.993	103.741	20.001	1.411	0.523
1182.001	682.107	80.003	19.993	103.744	20.002	1.368	0.478
1182.500	682.341	80.001	19.992	103.745	20.002	1.359	0.475
1183.000	682.602	80.002	19.993	103.743	20.006	1.102	0.491
1183.500	682.842	80.003	19.994	103.743	20.002	1.379	0.498
1184.000	683.077	80.001	19.993	103.745	20.004	1.237	0.487
1184.501	683.344	80.001	19.994	103.746	20.002	1.382	0.489
1185.001	683.572	80.001	19.993	103.746	20.003	1.326	0.499
1185.501	683.800	80.002	19.994	103.745	20.002	1.384	0.476
1186.000	684.040	80.000	19.993	103.743	20.003	1.319	0.462
1186.500	684.289	80.002	19.994	103.738	20.002	1.359	0.479
1187.000	684.539	80.001	19.993	103.734	20.003	1.273	0.494
1187.500	684.794	80.001	19.995	103.735	20.005	1.161	0.501
1188.000	685.019	80.001	19.993	103.736	20.002	1.342	0.492
1188.501	685.260	80.001	19.995	103.738	20.004	1.206	0.474
1189.001	685.544	80.002	19.994	103.742	20.004	1.250	0.496
1189.500	685.731	80.001	19.994	103.742	20.004	1.251	0.498
1190.000	685.994	80.001	19.993	103.737	20.005	1.197	0.461
1190.500	686.245	80.001	19.994	103.736	20.004	1.257	0.482
1191.001	686.511	80.002	19.994	103.735	20.003	1.302	0.515
1191.501	686.755	80.001	19.994	103.730	20.004	1.224	0.513
1192.000	686.959	80.001	19.995	103.728	20.001	1.426	0.479
1192.500	687.155	80.001	19.994	103.729	20.001	1.455	0.424
1193.000	687.542	80.002	19.994	103.729	20.002	1.339	0.491
1193.500	687.698	80.001	19.995	103.731	20.000	1.528	0.563
1194.000	687.989	80.001	19.993	103.733	20.002	1.351	0.495
1194.501	688.205	80.001	19.995	103.735	20.002	1.388	0.477
1195.001	688.470	80.002	19.994	103.737	20.007	1.015	0.494
1195.500	688.687	80.001	19.995	103.744	20.003	1.279	0.481
1196.000	688.936	80.000	19.994	103.748	20.015	0.493	0.474
1196.500	689.195	80.001	19.995	103.753	20.003	1.326	0.487
1197.000	689.446	80.001	19.994	103.757	20.005	1.166	0.509
1197.500	689.674	80.002	19.995	103.758	20.004	1.224	0.494
1198.000	689.902	80.003	19.995	103.754	20.006	1.108	0.468
1198.500	690.210	80.002	19.995	103.754	20.001	1.417	0.496
1199.000	690.420	80.002	19.994	103.751	20.002	1.339	0.527
1199.500	690.694	80.002	19.993	103.750	20.005	1.160	0.501
1200.000	690.898	80.001	19.995	103.749	20.005	1.180	0.481
1200.501	691.164	80.002	19.994	103.752	20.006	1.093	0.474
1201.001	691.411	80.003	19.995	103.747	20.003	1.277	0.491
1201.501	691.649	80.003	19.995	103.751	20.002	1.382	0.499
1202.000	691.929	80.003	19.995	103.754	20.002	1.362	0.502
1202.500	692.135	80.002	19.995	103.757	20.003	1.284	0.502
1203.000	692.411	80.003	19.994	103.759	20.004	1.249	0.484
1203.500	692.670	80.004	19.994	103.760	20.003	1.289	0.508
1204.000	692.889	80.002	19.994	103.755	20.005	1.175	0.506
1204.500	693.151	80.004	19.993	103.750	20.005	1.177	0.479
1205.000	693.352	80.003	19.993	103.743	20.006	1.130	0.472
1205.500	693.614	80.004	19.993	103.743	20.004	1.200	0.463
1206.000	693.896	80.005	19.994	103.745	20.005	1.179	0.504
1206.500	694.104	80.003	19.995	103.750	20.000	1.484	0.518
1207.000	694.370	80.003	19.994	103.755	20.006	1.115	0.483
1207.500	694.605	80.004	19.994	103.755	20.001	1.410	0.487
1208.001	694.876	80.002	19.995	103.753	20.006	1.071	0.503
1208.501	695.155	80.003	19.994	103.751	20.004	1.201	0.528
1209.000	695.518	80.004	19.994	103.744	20.006	1.086	0.596
1209.500	695.505	80.002	19.993	103.737	20.007	1.004	0.496
1210.000	696.009	80.004	19.994	103.739	20.002	1.377	0.421
1210.500	696.067	80.003	19.995	103.740	20.001	1.399	0.526
1211.000	696.354	80.003	19.995	103.742	20.002	1.344	0.453
1211.500	696.659	80.004	19.994	103.745	20.002	1.368	0.468
1212.000	696.894	80.003	19.994	103.747	20.004	1.210	0.566
1212.500	697.098	80.003	19.994	103.747	20.001	1.441	0.490
1213.000	697.411	80.002	19.995	103.743	20.006	1.111	0.478
1213.501	697.657	80.003	19.994	103.738	20.002	1.355	0.538
1214.001	697.923	80.004	19.994	103.737	20.002	1.368	0.536
1214.500	698.159	80.003	19.995	103.738	20.002	1.342	0.507
1215.000	698.384	80.003	19.994	103.738	20.002	1.361	0.481
1215.500	698.639	80.003	19.994	103.740	20.004	1.202	0.471
1216.000	698.892	80.003	19.995	103.744	20.002	1.344	0.494
1216.500	699.159	80.003	19.995	103.749	20.006	1.106	0.514
1217.001	699.378	80.003	19.994	103.752	20.003	1.286	0.503
1217.501	699.650	80.003	19.994	103.754	20.002	1.340	0.489
1218.001	699.905	80.002	19.995	103.756	20.001	1.420	0.509
1218.500	700.159	80.002	19.994	103.756	20.004	1.262	0.518
1219.000	700.396	80.003	19.994	103.755	20.001	1.422	0.500
1219.500	700.678	80.004	19.994	103.755	20.000	1.490	0.505
1220.001	700.899	80.003	19.994	103.757	20.003	1.275	0.511
1220.501	701.182	80.003	19.996	103.757	20.001	1.442	0.504
1221.001	701.420	80.002	19.995	103.757	20.007	1.024	0.512
1221.500	701.679	80.003	19.995	103.757	20.002	1.357	0.509
1222.000	701.929	80.003	19.995	103.757	20.006	1.093	0.503
1222.500	702.208	80.003	19.994	103.758	20.005	1.186	0.519
1223.000	702.423	80.003	19.994	103.759	20.004	1.264	0.512
1223.500	702.712	80.003	19.994	103.759	20.003	1.295	0.499
1224.001	702.894	80.002	19.995	103.760	20.003	1.308	0.487
1224.501	703.167	80.003	19.994	103.757	20.003	1.275	0.463
1225.000	703.391	80.003	19.995	103.756	20.004	1.220	0.476
1225.500	703.644	80.003	19.994	103.755	20.000	1.470	0.487
1226.001	703.951	80.004	19.996	103.754	20.003	1.329	0.519
1226.501	704.145	80.003	19.994	103.753	20.000	1.473	0.531
1227.001	704.425	80.004	19.994	103.756	20.003	1.282	0.488
1227.500	704.680	80.005	19.994	103.752	20.001	1.459	0.505
1228.000	704.935	80.004	19.994	103.747	20.000	1.479	0.522
1228.500	705.168	80.004	19.994	103.741	19.998	1.599	0.499
1229.000	705.410	80.005	19.995	103.741	19.999	1.548	0.481
1229.500	705.650	80.004	19.995	103.737	20.002	1.381	0.478
1230.000	705.894	80.004	19.994	103.735	20.002	1.366	0.483
1230.500	706.180	80.004	19.995	103.736	19.999	1.568	0.507
1231.000	706.429	80.006	19.995	103.738	20.000	1.519	0.533
1231.501	706.629	80.005	19.995	103.737	20.000	1.501	0.492
1232.001	706.882	80.004	19.994	103.740	20.001	1.453	0.451
1232.501	707.160	80.004	19.995	103.745	20.005	1.162	0.492
1233.001	707.396	80.006	19.997	103.750	20.003	1.324	0.523
1233.500	707.658	80.005	19.995	103.753	19.998	1.642	0.506
1234.000	707.911	80.005	19.997	103.752	20.001	1.457	0.507
1234.500	708.171	80.006	19.994	103.749	19.998	1.646	0.514
1235.000	708.397	80.004	19.995	103.743	20.000	1.471	0.499
1235.500	708.650	80.006	19.994	103.738	19.998	1.633	0.483
1236.000	709.037	80.005	19.995	103.736	20.000	1.473	0.559
1236.500	709.192	80.004	19.994	103.738	19.998	1.650	0.591
1237.001	709.426	80.003	19.994	103.736	20.000	1.512	0.466
1237.501	709.701	80.005	19.994	103.740	20.002	1.346	0.450
1238.001	709.944	80.005	19.994	103.743	20.001	1.446	0.513
1238.501	710.231	80.003	19.993	103.746	20.004	1.206	0.523
1239.000	710.459	80.003	19.994	103.746	20.000	1.481	0.522
1239.500	710.682	80.002	19.994	103.750	20.005	1.133	0.483
1240.000	710.962	80.002	19.994	103.751	20.000	1.466	0.477
1240.500	711.201	80.003	19.994	103.748	20.001	1.404	0.511
1241.000	711.484	80.003	19.994	103.748	20.000	1.464	0.520
1241.500	711.738	80.002	19.994	103.750	20.000	1.522	0.530
1242.000	711.989	80.003	19.994	103.750	20.000	1.482	0.521
1242.500	712.203	80.002	19.993	103.750	20.003	1.280	0.485
1243.000	712.503	80.003	19.994	103.752	20.000	1.528	0.490
1243.501	712.765	80.002	19.993	103.748	20.001	1.402	0.538
1244.001	713.002	80.002	19.994	103.747	20.003	1.322	0.530
1244.500	713.247	80.002	19.993	103.744	20.003	1.319	0.491
1245.000	713.525	80.001	19.994	103.742	20.003	1.306	0.503
1245.500	713.767	80.003	19.994	103.744	20.006	1.075	0.521
1246.001	714.013	80.002	19.993	103.747	20.003	1.306	0.504
1246.501	714.321	80.001	19.994	103.746	20.002	1.379	0.521
1247.000	714.552	80.002	19.993	103.748	20.004	1.248	0.546
1247.500	714.817	80.002	19.995	103.749	20.005	1.199	0.517
1248.000	715.036	80.002	19.993	103.749	20.005	1.148	0.490
1248.500	715.364	80.002	19.994	103.750	20.005	1.139	0.516
1249.000	715.554	80.001	19.993	103.752	20.003	1.308	0.533
1249.500	715.850	80.002	19.993	103.753	20.000	1.488	0.502
1250.000	716.136	80.002	19.993	103.753	20.001	1.430	0.534
1250.500	716.406	80.001	19.994	103.749	20.003	1.312	0.569
1251.001	716.679	80.001	19.994	103.746	20.003	1.295	0.549
1251.501	716.911	80.001	19.996	103.741	20.001	1.399	0.524
1252.000	717.224	80.002	19.993	103.739	20.000	1.486	0.525
1252.500	717.458	80.003	19.993	103.739	20.004	1.240	0.546
1253.000	717.735	80.001	19.994	103.742	20.003	1.308	0.530
1253.500	718.001	80.003	19.993	103.744	20.004	1.242	0.527
1254.000	718.261	80.001	19.994	103.746	20.005	1.142	0.534
1254.500	718.511	80.002	19.994	103.750	20.004	1.233	0.518
1255.000	718.795	80.004	19.994	103.753	20.003	1.302	0.522
1255.500	719.007	80.002	19.994	103.753	20.003	1.268	0.515
1256.000	719.285	80.004	19.994	103.754	20.007	1.019	0.493
1256.501	719.577	80.002	19.994	103.756	20.002	1.339	0.530
1257.001	719.822	80.001	19.994	103.756	20.007	1.026	0.553
1257.501	720.098	80.002	19.995	103.755	20.008	0.997	0.529
1258.001	720.387	80.003	19.993	103.754	20.006	1.080	0.543
1258.500	720.638	80.000	19.993	103.750	20.002	1.355	0.552
1259.000	720.922	80.003	19.994	103.749	20.005	1.186	0.537
1259.501	721.201	80.001	19.994	103.747	20.006	1.079	0.549
1260.001	721.412	80.002	19.993	103.748	20.004	1.204	0.527
1260.501	721.687	80.002	19.993	103.748	20.006	1.097	0.488
1261.001	721.947	80.002	19.994	103.751	20.005	1.182	0.511
1261.500	722.237	80.004	19.995	103.753	20.003	1.297	0.543
1262.000	722.499	80.001	19.995	103.751	20.006	1.106	0.551
1262.500	722.760	80.002	19.994	103.746	20.005	1.148	0.538
1263.000	723.043	80.002	19.994	103.748	20.006	1.095	0.534
1263.500	723.306	80.003	19.993	103.748	20.004	1.259	0.545
1264.000	723.553	80.003	19.993	103.749	20.004	1.217	0.528
1264.500	723.832	80.002	19.994	103.752	20.008	0.991	0.518
1265.000	724.084	80.002	19.993	103.749	20.007	1.019	0.528
1265.500	724.350	80.003	19.995	103.746	20.006	1.080	0.524
1266.000	724.571	80.003	19.994	103.747	20.005	1.168	0.503
1266.500	724.857	80.003	19.995	103.743	20.002	1.379	0.497
1267.000	725.134	80.003	19.994	103.742	20.003	1.291	0.535
1267.500	725.367	80.002	19.994	103.747	20.003	1.311	0.536
1268.000	725.665	80.003	19.993	103.747	20.002	1.342	0.521
1268.500	725.915	80.002	19.993	103.741	20.005	1.157	0.540
1269.000	726.189	80.001	19.993	103.739	20.001	1.399	0.536
1269.500	726.458	80.003	19.994	103.735	20.002	1.395	0.533
1270.000	726.673	80.003	19.994	103.732	20.000	1.504	0.514
1270.500	726.972	80.002	19.994	103.738	20.001	1.424	0.499
1271.000	727.227	80.001	19.993	103.745	19.999	1.579	0.534
1271.500	727.464	80.001	19.993	103.748	20.000	1.488	0.523
1272.000	727.728	80.001	19.994	103.746	20.002	1.359	0.497
1272.500	727.985	80.002	19.993	103.746	20.000	1.466	0.511
1273.000	728.257	80.002	19.994	103.741	19.997	1.684	0.525
1273.501	728.523	80.002	19.994	103.737	19.998	1.659	0.533
1274.001	728.753	80.001	19.994	103.739	20.002	1.392	0.517
1274.501	729.024	80.001	19.993	103.742	20.002	1.386	0.498
1275.001	729.269	80.001	19.993	103.745	20.002	1.357	0.509
1275.500	729.537	80.003	19.994	103.748	20.000	1.506	0.515
1276.000	729.794	80.002	19.994	103.747	19.999	1.553	0.519
1276.500	730.017	80.001	19.995	103.743	19.999	1.533	0.503
1277.000	730.326	80.002	19.993	103.739	20.002	1.370	0.506
1277.500	730.582	80.002	19.993	103.737	19.999	1.535	0.548
1278.000	730.813	80.002	19.993	103.734	20.001	1.401	0.526
1278.501	731.099	80.002	19.995	103.737	19.998	1.648	0.502
1279.001	731.339	80.003	19.995	103.745	20.001	1.402	0.521
1279.500	731.590	80.002	19.994	103.752	20.002	1.386	0.508
1280.001	731.811	80.002	19.994	103.754	19.999	1.539	0.481
1280.501	732.046	80.003	19.994	103.759	19.999	1.555	0.464
1281.001	732.354	80.003	19.994	103.760	19.999	1.537	0.499
1281.501	732.614	80.002	19.994	103.759	20.000	1.468	0.555
1282.000	732.847	80.004	19.994	103.759	20.002	1.341	0.531
1282.500	733.063	80.002	19.993	103.758	20.002	1.372	0.471
1283.000	733.340	80.003	19.993	103.756	20.001	1.459	0.471
1283.500	733.579	80.003	19.994	103.755	20.003	1.279	0.504
1284.000	733.806	80.002	19.993	103.753	20.000	1.477	0.491
1284.500	734.038	80.003	19.993	103.751	20.000	1.490	0.463
1285.000	734.325	80.003	19.993	103.752	19.999	1.581	0.489
1285.500	734.549	80.003	19.995	103.752	20.000	1.481	0.515
1286.000	734.812	80.003	19.993	103.750	20.000	1.524	0.499
1286.500	735.048	80.005	19.994	103.748	20.005	1.192	0.492
1287.001	735.309	80.004	19.995	103.751	20.003	1.281	0.498
1287.501	735.535	80.004	19.994	103.750	20.006	1.130	0.492
1288.000	735.815	80.002	19.994	103.749	20.001	1.455	0.496
1288.500	736.028	80.003	19.995	103.752	20.003	1.330	0.499
1289.000	736.317	80.004	19.995	103.757	19.998	1.637	0.498
1289.500	736.562	80.003	19.995	103.757	20.002	1.337	0.519
1290.000	736.828	80.003	19.994	103.755	20.002	1.353	0.523
1290.501	737.074	80.002	19.994	103.753	20.002	1.350	0.511
1291.001	737.293	80.003	19.994	103.749	20.001	1.421	0.488
1291.500	737.548	80.004	19.994	103.749	19.998	1.610	0.470
1292.000	737.812	80.002	19.993	103.749	20.003	1.324	0.497
1292.501	738.033	80.003	19.996	103.752	20.003	1.326	0.502
1293.001	738.304	80.004	19.996	103.755	20.004	1.253	0.488
1293.500	738.563	80.004	19.996	103.759	20.001	1.417	0.511
1294.000	738.828	80.003	19.996	103.759	20.002	1.386	0.527
1294.500	739.053	80.003	19.995	103.759	20.004	1.264	0.508
1295.000	739.282	80.002	19.995	103.760	20.003	1.304	0.472
1295.500	739.539	80.002	19.995	103.760	20.005	1.146	0.470
1296.000	739.796	80.002	19.995	103.760	20.006	1.079	0.500
1296.500	740.042	80.003	19.994	103.759	20.005	1.171	0.508
1297.000	740.303	80.004	19.994	103.759	20.002	1.360	0.505
1297.500	740.561	80.003	19.995	103.758	20.006	1.104	0.513
1298.000	740.817	80.002	19.995	103.759	20.002	1.371	0.517
1298.500	741.064	80.004	19.995	103.759	20.003	1.322	0.508
1299.000	741.328	80.004	19.994	103.759	20.004	1.217	0.507
1299.500	741.553	80.003	19.994	103.760	20.007	1.055	0.500
1300.000	741.798	80.004	19.994	103.759	20.002	1.335	0.479
1300.500	742.036	80.002	19.994	103.755	20.007	1.013	0.476
1301.000	742.321	80.002	19.994	103.751	20.002	1.373	0.503
1301.500	742.569	80.003	19.994	103.748	20.005	1.168	0.528
1302.000	742.781	80.002	19.994	103.747	20.007	1.060	0.497
1302.500	743.058	80.002	19.994	103.747	20.004	1.231	0.474
1303.000	743.300	80.003	19.994	103.750	20.008	0.944	0.504
1303.500	743.600	80.002	19.994	103.752	20.003	1.304	0.531
