Sample ID:	C:\MCC\MCC Cal\Test\Bean_Bag_Chair_Inner_Lining_MCC_30K_min_220314_R1.txt
Sample Weight (mg):	4.48
Heating Rate (C/s):	0.5
Combustor Temp (C):	900
N2 Flow Rate (cc/min):	80
O2 Flow Rate (cc/min):	20
Calibration File:	C:\MCC\MCC Cal\Coeff1 JN10440_30_210304.txt.txt
T Correction Coefficients:	0	1.024463	0
Time Shift (s):	14
*
Time (s)	Temperature (C)	N2 flow rate (cc/min)	O2 flow rate (cc/min)	Flow Rate (cc/min)	Oxygen (%)	HRR (W/g)	Heating rate (C/s)
-0.001	109.553	80.007	19.994	103.629	19.941	0.066	-0.016
0.499	109.609	80.007	19.993	103.628	19.943	-0.090	-0.049
1.000	109.577	80.006	19.994	103.626	19.939	0.152	-0.005
1.500	109.589	80.007	19.995	103.626	19.944	-0.146	0.002
2.000	109.563	80.005	19.993	103.628	19.943	-0.103	-0.016
2.500	109.552	80.005	19.993	103.632	19.938	0.226	-0.025
2.999	109.573	80.005	19.995	103.634	19.943	-0.137	-0.014
3.499	109.566	80.006	19.994	103.632	19.947	-0.386	0.012
3.999	109.575	80.003	19.994	103.627	19.939	0.172	0.008
4.499	109.558	80.006	19.996	103.627	19.947	-0.373	-0.003
4.999	109.578	80.004	19.995	103.627	19.940	0.125	-0.003
5.499	109.573	80.005	19.996	103.627	19.943	-0.127	0.009
5.999	109.584	80.005	19.995	103.631	19.946	-0.306	0.011
6.500	109.555	80.005	19.995	103.637	19.943	-0.135	-0.006
7.000	109.556	80.005	19.994	103.638	19.942	-0.029	-0.023
7.499	109.563	80.005	19.994	103.639	19.942	-0.047	-0.010
7.999	109.567	80.005	19.995	103.638	19.941	0.057	0.009
8.499	109.532	80.005	19.994	103.639	19.939	0.213	-0.010
8.999	109.563	80.006	19.994	103.640	19.940	0.148	-0.017
9.499	109.539	80.004	19.995	103.647	19.939	0.218	0.001
9.999	109.525	80.005	19.995	103.654	19.939	0.213	-0.016
10.499	109.567	80.005	19.995	103.662	19.937	0.359	-0.005
10.999	109.606	80.005	19.993	103.670	19.937	0.365	0.055
11.500	109.545	80.005	19.994	103.676	19.938	0.254	0.030
12.000	109.572	80.004	19.996	103.678	19.937	0.324	-0.028
12.499	109.547	80.005	19.995	103.678	19.936	0.425	-0.016
12.999	109.562	80.006	19.995	103.678	19.940	0.139	-0.004
13.499	109.590	80.004	19.995	103.679	19.940	0.119	0.017
13.999	109.552	80.005	19.995	103.683	19.934	0.521	0.017
14.499	109.590	80.006	19.995	103.683	19.934	0.521	-0.005
14.999	109.567	80.006	19.994	103.688	19.936	0.431	0.007
15.499	109.590	80.005	19.994	103.696	19.935	0.507	0.007
15.999	109.586	80.006	19.995	103.702	19.933	0.632	0.010
16.499	109.609	80.006	19.994	103.705	19.930	0.823	0.019
16.999	109.634	80.006	19.995	103.710	19.930	0.825	0.033
17.499	109.644	80.005	19.994	103.713	19.931	0.730	0.042
17.999	109.651	80.005	19.993	103.713	19.932	0.699	0.026
18.499	109.681	80.005	19.994	103.714	19.932	0.675	0.027
19.000	109.702	80.006	19.994	103.716	19.930	0.802	0.044
19.500	109.697	80.006	19.993	103.718	19.930	0.857	0.033
19.999	109.730	80.005	19.993	103.718	19.933	0.646	0.022
20.499	109.746	80.006	19.994	103.714	19.925	1.218	0.039
20.999	109.798	80.005	19.992	103.713	19.926	1.114	0.058
21.499	109.768	80.006	19.994	103.713	19.928	0.984	0.045
21.999	109.793	80.006	19.992	103.712	19.929	0.902	0.008
22.499	109.832	80.005	19.992	103.713	19.926	1.128	0.029
22.999	109.859	80.006	19.994	103.717	19.928	0.972	0.065
23.499	109.863	80.005	19.993	103.719	19.928	0.982	0.049
24.000	109.883	80.004	19.993	103.719	19.929	0.892	0.028
24.500	109.911	80.005	19.992	103.720	19.923	1.339	0.036
24.999	109.946	80.005	19.993	103.723	19.922	1.449	0.055
25.499	109.980	80.006	19.993	103.723	19.924	1.236	0.066
25.999	110.055	80.007	19.994	103.722	19.925	1.179	0.089
26.499	110.050	80.006	19.993	103.726	19.926	1.158	0.089
26.999	110.100	80.006	19.995	103.732	19.924	1.238	0.057
27.499	110.107	80.006	19.993	103.735	19.923	1.345	0.052
27.999	110.112	80.008	19.992	103.742	19.927	1.037	0.035
28.499	110.137	80.006	19.993	103.745	19.924	1.297	0.021
28.999	110.195	80.005	19.993	103.740	19.923	1.314	0.056
29.499	110.214	80.007	19.994	103.734	19.923	1.361	0.080
29.999	110.229	80.007	19.993	103.735	19.924	1.256	0.055
30.499	110.274	80.006	19.993	103.736	19.919	1.631	0.047
30.999	110.345	80.006	19.995	103.746	19.914	1.996	0.088
31.499	110.366	80.005	19.992	103.761	19.919	1.650	0.104
31.999	110.404	80.007	19.994	103.775	19.913	2.062	0.076
32.499	110.426	80.006	19.993	103.781	19.913	2.039	0.060
32.999	110.484	80.007	19.993	103.789	19.916	1.824	0.070
33.499	110.539	80.006	19.994	103.794	19.913	2.054	0.097
33.999	110.559	80.007	19.994	103.795	19.915	1.930	0.094
34.499	110.624	80.004	19.992	103.796	19.914	1.990	0.079
34.999	110.682	80.006	19.994	103.799	19.912	2.109	0.104
35.499	110.734	80.006	19.994	103.803	19.913	2.095	0.117
35.999	110.783	80.005	19.993	103.805	19.908	2.390	0.106
36.499	110.837	80.005	19.993	103.812	19.911	2.230	0.102
36.999	110.890	80.006	19.993	103.818	19.913	2.070	0.105
37.499	110.958	80.004	19.993	103.824	19.911	2.209	0.114
37.999	111.024	80.007	19.994	103.827	19.910	2.312	0.128
38.499	111.103	80.006	19.992	103.830	19.909	2.363	0.139
38.999	111.173	80.004	19.993	103.831	19.908	2.404	0.147
39.499	111.205	80.005	19.993	103.832	19.909	2.359	0.126
39.999	111.303	80.004	19.994	103.833	19.908	2.443	0.116
40.499	111.328	80.007	19.993	103.833	19.908	2.431	0.126
40.999	111.427	80.005	19.993	103.833	19.907	2.506	0.124
41.499	111.477	80.005	19.993	103.833	19.903	2.765	0.136
41.999	111.582	80.006	19.993	103.831	19.904	2.740	0.152
42.500	111.649	80.006	19.995	103.832	19.905	2.652	0.164
43.000	111.702	80.007	19.993	103.832	19.904	2.718	0.146
43.499	111.792	80.006	19.994	103.832	19.905	2.648	0.131
43.999	111.865	80.007	19.994	103.832	19.907	2.531	0.153
44.499	111.949	80.007	19.993	103.837	19.904	2.707	0.160
44.999	112.053	80.005	19.992	103.837	19.903	2.758	0.172
45.499	112.153	80.008	19.994	103.837	19.900	2.992	0.196
45.999	112.201	80.006	19.993	103.836	19.904	2.750	0.176
46.499	112.301	80.007	19.993	103.836	19.902	2.831	0.148
46.999	112.378	80.006	19.994	103.836	19.900	3.028	0.163
47.499	112.466	80.008	19.993	103.841	19.904	2.748	0.171
47.999	112.556	80.006	19.993	103.844	19.902	2.838	0.172
48.499	112.645	80.005	19.993	103.845	19.899	3.072	0.179
48.999	112.738	80.008	19.993	103.845	19.900	3.027	0.180
49.499	112.875	80.008	19.993	103.845	19.898	3.162	0.206
49.999	112.968	80.008	19.994	103.840	19.901	2.899	0.230
50.499	113.078	80.008	19.993	103.837	19.902	2.862	0.216
50.999	113.168	80.007	19.994	103.836	19.902	2.881	0.201
51.499	113.281	80.008	19.994	103.835	19.901	2.942	0.201
51.999	113.372	80.009	19.993	103.834	19.900	3.007	0.204
52.499	113.465	80.010	19.995	103.835	19.901	2.968	0.194
52.999	113.561	80.009	19.993	103.834	19.901	2.940	0.186
53.499	113.697	80.007	19.993	103.835	19.899	3.106	0.211
53.999	113.811	80.009	19.993	103.834	19.897	3.210	0.241
54.499	113.907	80.008	19.993	103.834	19.900	3.022	0.230
54.999	114.020	80.007	19.992	103.833	19.898	3.132	0.209
55.499	114.108	80.007	19.996	103.840	19.900	2.999	0.205
55.999	114.248	80.008	19.996	103.848	19.898	3.142	0.215
56.500	114.363	80.007	19.997	103.856	19.899	3.114	0.242
57.000	114.463	80.007	19.995	103.861	19.896	3.296	0.235
57.499	114.540	80.007	19.995	103.866	19.895	3.360	0.196
57.999	114.686	80.007	19.994	103.860	19.898	3.147	0.200
58.499	114.811	80.007	19.994	103.851	19.896	3.331	0.246
58.999	114.913	80.007	19.993	103.847	19.897	3.232	0.249
59.499	115.004	80.006	19.995	103.845	19.902	2.890	0.211
59.999	115.160	80.007	19.993	103.844	19.894	3.456	0.220
60.499	115.275	80.007	19.994	103.851	19.893	3.530	0.258
60.999	115.391	80.007	19.993	103.859	19.893	3.534	0.251
61.499	115.538	80.007	19.993	103.863	19.898	3.134	0.247
61.999	115.684	80.006	19.993	103.867	19.892	3.616	0.278
62.499	115.818	80.008	19.992	103.871	19.895	3.374	0.286
62.999	115.915	80.006	19.993	103.871	19.896	3.286	0.255
63.499	116.034	80.007	19.993	103.872	19.897	3.224	0.224
63.999	116.170	80.006	19.993	103.872	19.895	3.388	0.236
64.499	116.315	80.006	19.996	103.872	19.894	3.464	0.268
64.999	116.438	80.006	19.993	103.875	19.894	3.445	0.275
65.499	116.608	80.005	19.993	103.875	19.894	3.441	0.281
65.999	116.706	80.007	19.994	103.875	19.893	3.486	0.280
66.499	116.852	80.007	19.993	103.876	19.894	3.425	0.256
66.999	116.990	80.008	19.994	103.877	19.893	3.503	0.264
67.499	117.141	80.006	19.995	103.877	19.899	3.046	0.286
67.999	117.269	80.008	19.993	103.877	19.897	3.193	0.284
68.499	117.397	80.006	19.993	103.878	19.896	3.265	0.267
68.999	117.532	80.008	19.993	103.880	19.894	3.441	0.259
69.499	117.689	80.007	19.994	103.881	19.891	3.673	0.278
69.999	117.837	80.009	19.994	103.880	19.896	3.280	0.299
70.499	117.980	80.007	19.993	103.880	19.891	3.622	0.298
70.999	118.154	80.009	19.994	103.880	19.891	3.638	0.304
71.499	118.305	80.005	19.994	103.879	19.895	3.367	0.321
71.999	118.432	80.007	19.994	103.880	19.893	3.482	0.302
72.499	118.605	80.006	19.992	103.881	19.893	3.545	0.289
72.999	118.769	80.006	19.993	103.883	19.893	3.500	0.318
73.499	118.920	80.008	19.994	103.889	19.894	3.477	0.326
73.999	119.056	80.008	19.994	103.889	19.893	3.500	0.301
74.499	119.210	80.007	19.993	103.887	19.887	3.957	0.289
74.999	119.386	80.008	19.994	103.885	19.890	3.756	0.310
75.499	119.542	80.010	19.994	103.888	19.892	3.584	0.331
75.999	119.691	80.007	19.992	103.889	19.891	3.660	0.318
76.499	119.867	80.010	19.993	103.890	19.891	3.650	0.315
76.999	120.017	80.007	19.992	103.890	19.888	3.867	0.326
77.499	120.171	80.008	19.994	103.890	19.893	3.541	0.315
77.999	120.335	80.008	19.995	103.891	19.890	3.701	0.311
78.499	120.497	80.007	19.994	103.885	19.894	3.467	0.322
78.999	120.667	80.009	19.993	103.883	19.891	3.660	0.329
79.499	120.846	80.008	19.994	103.887	19.888	3.842	0.340
79.999	121.040	80.009	19.993	103.885	19.882	4.338	0.361
80.499	121.180	80.007	19.994	103.880	19.892	3.598	0.354
80.999	121.338	80.009	19.994	103.880	19.885	4.078	0.316
81.499	121.561	80.008	19.993	103.886	19.884	4.153	0.339
81.999	121.740	80.006	19.994	103.889	19.886	4.039	0.392
82.499	121.888	80.007	19.994	103.896	19.885	4.125	0.365
82.999	122.062	80.006	19.993	103.902	19.888	3.852	0.325
83.499	122.241	80.006	19.992	103.906	19.885	4.088	0.338
83.999	122.405	80.008	19.994	103.905	19.886	3.987	0.348
84.499	122.619	80.006	19.992	103.905	19.886	4.025	0.360
84.999	122.756	80.003	19.992	103.901	19.889	3.818	0.364
85.499	122.957	80.006	19.994	103.897	19.882	4.295	0.344
85.999	123.160	80.006	19.993	103.897	19.889	3.801	0.371
86.499	123.326	80.006	19.995	103.898	19.885	4.119	0.387
86.999	123.512	80.006	19.994	103.898	19.890	3.695	0.360
87.499	123.681	80.005	19.994	103.902	19.888	3.858	0.353
87.999	123.887	80.005	19.993	103.905	19.886	4.010	0.365
88.499	124.085	80.006	19.993	103.904	19.892	3.588	0.390
88.999	124.288	80.004	19.992	103.901	19.889	3.797	0.403
89.499	124.475	80.007	19.992	103.899	19.884	4.172	0.395
89.999	124.632	80.006	19.993	103.897	19.885	4.057	0.367
90.499	124.824	80.006	19.993	103.901	19.885	4.098	0.347
90.999	125.053	80.006	19.993	103.900	19.884	4.168	0.385
91.499	125.243	80.004	19.994	103.904	19.882	4.274	0.420
91.999	125.391	80.006	19.994	103.903	19.885	4.125	0.379
92.499	125.607	80.007	19.994	103.902	19.887	3.934	0.352
92.999	125.803	80.005	19.993	103.903	19.887	3.975	0.388
93.500	125.996	80.008	19.993	103.905	19.882	4.307	0.400
94.000	126.193	80.004	19.993	103.907	19.886	4.049	0.389
94.499	126.390	80.007	19.997	103.905	19.890	3.731	0.392
94.999	126.585	80.008	19.997	103.903	19.884	4.155	0.393
95.499	126.754	80.006	19.997	103.900	19.888	3.906	0.378
95.999	126.992	80.003	19.996	103.899	19.883	4.270	0.386
96.499	127.199	80.007	19.996	103.893	19.884	4.190	0.426
96.999	127.370	80.005	19.994	103.898	19.895	3.369	0.411
97.499	127.583	80.007	19.994	103.900	19.889	3.771	0.381
97.999	127.749	80.006	19.995	103.902	19.891	3.676	0.382
98.500	127.976	80.003	19.995	103.902	19.885	4.107	0.387
99.000	128.200	80.006	19.994	103.906	19.886	4.045	0.422
99.499	128.361	80.005	19.993	103.907	19.892	3.613	0.418
99.999	128.594	80.006	19.995	103.907	19.888	3.885	0.389
100.499	128.815	80.004	19.994	103.907	19.889	3.807	0.424
100.999	129.022	80.005	19.995	103.906	19.887	3.926	0.441
101.499	129.239	80.006	19.994	103.905	19.889	3.832	0.426
101.999	129.424	80.007	19.993	103.904	19.888	3.873	0.413
102.499	129.648	80.006	19.996	103.904	19.887	3.918	0.406
102.999	129.863	80.005	19.995	103.904	19.886	4.051	0.424
103.499	130.060	80.006	19.994	103.905	19.887	3.959	0.425
103.999	130.272	80.006	19.995	103.907	19.884	4.163	0.410
104.499	130.467	80.005	19.996	103.908	19.884	4.190	0.408
104.999	130.678	80.005	19.994	103.908	19.882	4.305	0.407
105.499	130.872	80.004	19.995	103.907	19.888	3.868	0.405
105.999	131.081	80.007	19.995	103.906	19.886	4.004	0.404
106.499	131.290	80.006	19.996	103.905	19.881	4.378	0.410
106.999	131.520	80.006	19.996	103.904	19.882	4.337	0.429
107.499	131.751	80.006	19.995	103.901	19.882	4.337	0.450
107.999	131.981	80.006	19.995	103.896	19.888	3.852	0.461
108.499	132.176	80.007	19.995	103.896	19.885	4.112	0.443
108.999	132.417	80.004	19.994	103.896	19.884	4.196	0.431
109.499	132.639	80.006	19.996	103.897	19.883	4.268	0.450
109.999	132.837	80.005	19.994	103.902	19.885	4.077	0.441
110.499	133.033	80.006	19.994	103.903	19.890	3.725	0.407
110.999	133.286	80.006	19.995	103.904	19.885	4.122	0.422
111.499	133.499	80.007	19.995	103.903	19.880	4.452	0.458
111.999	133.717	80.007	19.995	103.903	19.887	3.965	0.449
112.499	133.942	80.006	19.994	103.903	19.883	4.225	0.437
112.999	134.174	80.005	19.993	103.907	19.884	4.149	0.450
113.499	134.363	80.007	19.996	103.909	19.887	3.924	0.439
113.999	134.602	80.006	19.995	103.909	19.883	4.262	0.424
114.499	134.821	80.008	19.994	103.909	19.890	3.746	0.443
114.999	135.018	80.007	19.994	103.909	19.884	4.163	0.437
115.499	135.219	80.006	19.994	103.909	19.881	4.403	0.407
115.999	135.470	80.008	19.993	103.909	19.885	4.071	0.425
116.499	135.730	80.006	19.994	103.910	19.883	4.202	0.481
116.999	135.917	80.006	19.992	103.910	19.885	4.084	0.479
117.499	136.097	80.005	19.994	103.910	19.886	4.055	0.407
117.999	136.338	80.005	19.993	103.910	19.883	4.243	0.394
118.499	136.553	80.004	19.993	103.910	19.888	3.865	0.438
118.999	136.800	80.006	19.993	103.909	19.885	4.082	0.459
119.499	137.000	80.006	19.993	103.909	19.884	4.161	0.455
119.999	137.265	80.009	19.993	103.909	19.886	4.037	0.456
120.499	137.486	80.005	19.993	103.909	19.885	4.121	0.475
120.999	137.712	80.003	19.993	103.909	19.881	4.383	0.467
121.499	137.938	80.007	19.994	103.910	19.886	4.055	0.450
121.999	138.160	80.010	19.995	103.911	19.889	3.836	0.450
122.499	138.433	80.006	19.994	103.911	19.886	3.987	0.472
122.999	138.628	80.006	19.994	103.910	19.884	4.141	0.482
123.499	138.852	80.007	19.995	103.909	19.893	3.537	0.443
124.000	139.091	80.005	19.993	103.905	19.885	4.104	0.441
124.500	139.307	80.007	19.999	103.904	19.886	3.991	0.459
124.999	139.555	80.006	19.996	103.904	19.883	4.251	0.460
125.499	139.787	80.007	19.994	103.905	19.889	3.825	0.472
125.999	140.024	80.006	19.996	103.907	19.885	4.112	0.474
126.499	140.235	80.007	19.995	103.910	19.886	4.044	0.459
126.999	140.455	80.006	19.995	103.909	19.886	4.042	0.440
127.499	140.725	80.008	19.994	103.907	19.884	4.170	0.461
127.999	140.967	80.007	19.994	103.907	19.883	4.209	0.501
128.500	141.198	80.008	19.997	103.906	19.887	3.916	0.493
129.000	141.432	80.009	19.993	103.907	19.888	3.875	0.469
129.500	141.655	80.008	19.994	103.904	19.883	4.268	0.461
130.000	141.863	80.007	19.994	103.906	19.888	3.901	0.444
130.500	142.122	80.007	19.994	103.906	19.880	4.459	0.449
131.000	142.358	80.008	19.994	103.905	19.882	4.289	0.481
131.500	142.627	80.008	19.994	103.904	19.889	3.797	0.500
132.000	142.815	80.008	19.994	103.907	19.890	3.713	0.481
132.500	143.093	80.010	19.994	103.907	19.885	4.072	0.461
133.000	143.330	80.008	19.992	103.908	19.887	3.945	0.491
133.500	143.571	80.008	19.994	103.909	19.884	4.133	0.497
134.000	143.825	80.007	19.993	103.910	19.887	3.965	0.486
134.500	144.029	80.009	19.993	103.910	19.883	4.209	0.476
135.000	144.305	80.006	19.993	103.911	19.884	4.145	0.469
135.500	144.550	80.008	19.992	103.911	19.885	4.108	0.500
136.000	144.768	80.009	19.993	103.911	19.891	3.676	0.492
136.500	145.043	80.009	19.993	103.911	19.886	4.037	0.479
137.000	145.286	80.008	19.994	103.912	19.887	3.934	0.506
137.500	145.494	80.009	19.994	103.911	19.882	4.330	0.485
138.000	145.747	80.009	19.994	103.912	19.887	3.983	0.456
138.500	145.971	80.009	19.993	103.909	19.888	3.908	0.469
139.000	146.228	80.008	19.993	103.906	19.889	3.809	0.479
139.500	146.471	80.009	19.994	103.905	19.887	3.955	0.490
140.000	146.703	80.008	19.994	103.906	19.889	3.772	0.488
140.500	146.932	80.008	19.995	103.903	19.881	4.383	0.468
141.000	147.213	80.007	19.993	103.902	19.886	4.053	0.486
141.500	147.427	80.009	19.993	103.901	19.886	4.012	0.503
142.000	147.679	80.007	19.994	103.900	19.883	4.209	0.481
142.500	147.917	80.007	19.993	103.898	19.887	3.924	0.478
143.000	148.186	80.006	19.994	103.897	19.886	4.041	0.498
143.500	148.459	80.007	19.992	103.897	19.888	3.867	0.525
144.000	148.645	80.006	19.994	103.901	19.888	3.840	0.500
144.500	148.930	80.006	19.992	103.902	19.881	4.361	0.465
145.000	149.166	80.007	19.991	103.902	19.882	4.330	0.496
145.500	149.434	80.009	19.993	103.906	19.889	3.816	0.513
146.000	149.645	80.009	19.994	103.908	19.885	4.096	0.492
146.500	149.912	80.006	19.993	103.907	19.890	3.709	0.478
147.000	150.178	80.007	19.993	103.907	19.886	4.033	0.506
147.500	150.418	80.007	19.993	103.906	19.883	4.256	0.520
148.000	150.585	80.007	19.993	103.905	19.885	4.101	0.456
148.500	150.859	80.006	19.993	103.902	19.881	4.415	0.424
149.000	151.119	80.009	19.993	103.905	19.884	4.161	0.488
149.500	151.322	80.007	19.993	103.906	19.882	4.298	0.499
150.000	151.627	80.007	19.994	103.904	19.886	4.001	0.486
150.500	151.877	80.008	19.993	103.902	19.885	4.103	0.531
151.000	152.097	80.009	19.994	103.902	19.885	4.074	0.512
151.500	152.334	80.009	19.993	103.900	19.887	3.976	0.463
152.000	152.616	80.009	19.994	103.897	19.890	3.762	0.488
152.500	152.878	80.009	19.993	103.901	19.884	4.168	0.531
153.000	153.107	80.009	19.994	103.900	19.880	4.426	0.517
153.500	153.360	80.010	19.994	103.899	19.884	4.148	0.486
154.000	153.630	80.007	19.994	103.900	19.880	4.461	0.503
154.500	153.856	80.008	19.992	103.900	19.888	3.879	0.510
155.000	154.079	80.008	19.994	103.898	19.885	4.095	0.473
155.500	154.346	80.010	19.992	103.897	19.888	3.859	0.470
156.000	154.591	80.010	19.993	103.897	19.886	4.021	0.501
156.500	154.837	80.009	19.993	103.897	19.882	4.333	0.502
157.000	155.114	80.010	19.993	103.898	19.887	3.929	0.507
157.500	155.340	80.011	19.992	103.894	19.886	4.003	0.513
158.000	155.592	80.010	19.993	103.892	19.880	4.418	0.491
158.500	155.794	80.010	19.992	103.889	19.884	4.191	0.466
159.000	156.090	80.008	19.993	103.882	19.883	4.256	0.476
159.500	156.326	80.009	19.993	103.876	19.882	4.303	0.515
160.000	156.559	80.010	19.993	103.876	19.882	4.334	0.501
160.500	156.783	80.010	19.994	103.877	19.888	3.904	0.463
161.000	157.064	80.009	19.991	103.879	19.884	4.164	0.481
161.500	157.334	80.009	19.993	103.883	19.886	3.986	0.528
162.000	157.567	80.007	19.992	103.889	19.887	3.943	0.527
162.500	157.796	80.007	19.992	103.893	19.882	4.304	0.482
163.000	158.055	80.008	19.994	103.896	19.880	4.429	0.475
163.500	158.300	80.007	19.992	103.895	19.887	3.925	0.496
164.000	158.553	80.008	19.994	103.894	19.886	4.007	0.501
164.500	158.793	80.007	19.995	103.890	19.883	4.218	0.496
165.000	159.066	80.008	19.994	103.889	19.881	4.399	0.503
165.500	159.322	80.008	19.994	103.889	19.881	4.372	0.521
166.000	159.544	80.007	19.994	103.888	19.883	4.253	0.503
166.500	159.766	80.007	19.996	103.883	19.881	4.364	0.461
167.000	160.062	80.006	19.994	103.882	19.886	4.032	0.481
167.500	160.286	80.006	19.994	103.880	19.886	4.044	0.519
168.000	160.539	80.006	19.994	103.876	19.882	4.331	0.499
168.500	160.808	80.007	19.994	103.882	19.881	4.362	0.500
169.000	161.041	80.008	19.994	103.888	19.884	4.134	0.512
169.500	161.311	80.005	19.994	103.891	19.881	4.380	0.503
170.000	161.569	80.006	19.994	103.892	19.888	3.903	0.516
170.500	161.810	80.004	19.994	103.898	19.884	4.183	0.513
171.000	162.072	80.005	19.994	103.895	19.887	3.981	0.500
171.500	162.300	80.005	19.994	103.890	19.886	4.042	0.496
172.000	162.579	80.006	19.993	103.890	19.886	3.991	0.499
172.500	162.801	80.006	19.995	103.889	19.883	4.229	0.504
173.000	163.071	80.007	19.993	103.886	19.882	4.296	0.497
173.500	163.270	80.007	19.994	103.882	19.885	4.091	0.481
174.000	163.583	80.005	19.993	103.881	19.882	4.290	0.491
174.500	163.809	80.005	19.994	103.878	19.884	4.177	0.526
175.000	164.093	80.008	19.995	103.874	19.884	4.169	0.525
175.500	164.316	80.007	19.994	103.870	19.887	3.942	0.509
176.000	164.536	80.007	19.996	103.870	19.887	3.974	0.475
176.500	164.812	80.007	19.994	103.870	19.882	4.312	0.469
177.000	165.098	80.005	19.993	103.870	19.882	4.276	0.529
177.500	165.330	80.004	19.994	103.870	19.884	4.157	0.540
178.000	165.569	80.005	19.994	103.870	19.885	4.114	0.494
178.500	165.870	80.006	19.994	103.871	19.883	4.214	0.505
179.000	166.079	80.007	19.993	103.870	19.885	4.079	0.525
179.500	166.345	80.007	19.994	103.870	19.880	4.456	0.493
180.000	166.634	80.007	19.993	103.871	19.884	4.143	0.515
180.500	166.851	80.006	19.994	103.870	19.882	4.311	0.530
181.000	167.106	80.007	19.994	103.870	19.880	4.481	0.489
181.500	167.348	80.006	19.993	103.871	19.885	4.122	0.485
182.000	167.612	80.005	19.993	103.871	19.886	4.003	0.502
182.500	167.858	80.006	19.994	103.870	19.884	4.186	0.507
183.000	168.145	80.008	19.994	103.870	19.882	4.284	0.521
183.500	168.367	80.007	19.992	103.868	19.882	4.308	0.521
184.000	168.619	80.005	19.993	103.866	19.883	4.249	0.492
184.500	168.896	80.006	19.997	103.865	19.882	4.339	0.501
185.000	169.168	80.007	19.995	103.866	19.882	4.335	0.539
185.500	169.419	80.006	19.995	103.866	19.880	4.431	0.536
186.000	169.686	80.008	19.995	103.870	19.886	4.046	0.521
186.500	169.914	80.005	19.995	103.872	19.886	4.040	0.507
187.000	170.188	80.006	19.993	103.872	19.883	4.251	0.499
187.500	170.420	80.007	19.994	103.871	19.883	4.225	0.504
188.000	170.637	80.007	19.993	103.872	19.880	4.454	0.477
188.500	170.919	80.007	19.993	103.869	19.885	4.079	0.474
189.000	171.178	80.006	19.996	103.869	19.882	4.341	0.520
189.500	171.407	80.006	19.995	103.869	19.884	4.132	0.515
190.000	171.686	80.006	19.994	103.869	19.883	4.231	0.498
190.500	171.909	80.005	19.996	103.869	19.883	4.202	0.505
191.000	172.180	80.007	19.995	103.869	19.880	4.454	0.498
191.500	172.430	80.007	19.995	103.869	19.882	4.294	0.507
192.000	172.646	80.006	19.995	103.869	19.883	4.251	0.493
192.500	172.931	80.006	19.995	103.869	19.881	4.368	0.483
193.000	173.176	80.006	19.995	103.870	19.886	4.016	0.516
193.500	173.456	80.005	19.994	103.870	19.885	4.094	0.528
194.000	173.675	80.007	19.995	103.870	19.883	4.249	0.512
194.500	173.964	80.007	19.995	103.870	19.881	4.349	0.503
195.000	174.158	80.006	19.993	103.870	19.883	4.241	0.496
195.500	174.437	80.006	19.993	103.870	19.884	4.198	0.478
196.000	174.719	80.007	19.996	103.869	19.888	3.893	0.517
196.500	174.955	80.005	19.994	103.869	19.885	4.061	0.540
197.000	175.168	80.005	19.994	103.868	19.889	3.811	0.484
197.500	175.400	80.007	19.995	103.867	19.883	4.267	0.447
198.000	175.659	80.007	19.994	103.867	19.888	3.895	0.468
198.500	175.898	80.005	19.996	103.867	19.886	3.989	0.494
199.000	176.160	80.005	19.994	103.867	19.883	4.259	0.499
199.500	176.408	80.005	19.995	103.867	19.884	4.157	0.506
200.000	176.623	80.006	19.995	103.869	19.884	4.168	0.486
200.500	176.904	80.006	19.994	103.867	19.887	3.977	0.479
201.000	177.164	80.006	19.995	103.866	19.885	4.066	0.518
201.500	177.415	80.004	19.994	103.866	19.887	3.980	0.526
202.000	177.656	80.006	19.994	103.865	19.883	4.213	0.501
202.500	177.899	80.005	19.995	103.863	19.887	3.967	0.488
203.000	178.118	80.005	19.994	103.862	19.885	4.094	0.473
203.500	178.397	80.005	19.996	103.863	19.883	4.206	0.480
204.000	178.621	80.005	19.995	103.864	19.884	4.167	0.501
204.500	178.928	80.006	19.994	103.864	19.888	3.858	0.517
205.000	179.146	80.004	19.995	103.867	19.888	3.876	0.528
205.500	179.388	80.005	19.995	103.870	19.887	3.932	0.492
206.000	179.625	80.006	19.995	103.867	19.889	3.825	0.469
206.500	179.874	80.006	19.995	103.866	19.888	3.888	0.483
207.000	180.141	80.007	19.995	103.867	19.891	3.667	0.501
207.500	180.395	80.006	19.995	103.867	19.889	3.798	0.518
208.000	180.624	80.007	19.994	103.868	19.888	3.882	0.502
208.500	180.887	80.008	19.994	103.871	19.893	3.501	0.488
209.000	181.140	80.006	19.994	103.871	19.890	3.761	0.504
209.500	181.403	80.007	19.994	103.871	19.889	3.819	0.516
210.000	181.638	80.007	19.995	103.867	19.888	3.891	0.507
210.500	181.889	80.008	19.994	103.860	19.886	4.028	0.493
211.000	182.154	80.008	19.994	103.853	19.882	4.295	0.501
211.500	182.381	80.006	19.992	103.846	19.885	4.119	0.504
212.000	182.660	80.009	19.994	103.842	19.886	4.018	0.499
212.500	182.910	80.007	19.994	103.845	19.886	4.007	0.518
213.000	183.123	80.008	19.993	103.854	19.886	4.052	0.496
213.500	183.433	80.008	19.994	103.862	19.883	4.224	0.493
214.000	183.657	80.006	19.992	103.865	19.886	4.038	0.529
214.500	183.906	80.011	19.994	103.865	19.883	4.262	0.504
215.000	184.166	80.008	19.993	103.865	19.886	4.041	0.491
215.500	184.419	80.008	19.993	103.864	19.883	4.262	0.511
216.000	184.678	80.008	19.993	103.864	19.884	4.193	0.512
216.500	184.916	80.007	19.994	103.868	19.885	4.094	0.504
217.000	185.178	80.008	19.992	103.871	19.886	4.029	0.499
217.500	185.424	80.008	19.993	103.870	19.884	4.176	0.504
218.000	185.733	80.008	19.992	103.869	19.885	4.061	0.532
218.500	185.944	80.008	19.993	103.869	19.886	4.004	0.538
219.000	186.218	80.006	19.994	103.869	19.884	4.141	0.502
219.500	186.487	80.007	19.993	103.870	19.884	4.135	0.514
220.000	186.733	80.007	19.993	103.871	19.885	4.076	0.529
220.500	186.959	80.008	19.993	103.867	19.881	4.361	0.494
221.000	187.221	80.007	19.994	103.861	19.886	3.994	0.480
221.500	187.488	80.008	19.993	103.856	19.887	3.923	0.508
222.000	187.714	80.007	19.993	103.854	19.885	4.099	0.511
222.500	187.936	80.008	19.994	103.854	19.883	4.215	0.471
223.000	188.183	80.007	19.993	103.858	19.889	3.768	0.458
223.500	188.452	80.007	19.993	103.866	19.886	3.994	0.492
224.000	188.685	80.007	19.994	103.870	19.880	4.422	0.509
224.500	188.925	80.007	19.993	103.872	19.887	3.967	0.488
225.000	189.185	80.006	19.993	103.869	19.888	3.895	0.486
225.500	189.411	80.007	19.994	103.861	19.885	4.092	0.493
226.000	189.626	80.008	19.994	103.856	19.889	3.825	0.464
226.500	189.939	80.007	19.993	103.848	19.884	4.168	0.484
227.000	190.180	80.008	19.993	103.842	19.886	4.038	0.541
227.500	190.400	80.006	19.993	103.841	19.886	4.012	0.507
228.000	190.648	80.006	19.993	103.847	19.884	4.130	0.465
228.500	190.920	80.006	19.993	103.850	19.887	3.973	0.494
229.000	191.124	80.008	19.995	103.854	19.886	4.042	0.497
229.500	191.366	80.007	19.993	103.852	19.885	4.125	0.461
230.000	191.671	80.008	19.995	103.848	19.887	3.928	0.497
230.500	191.868	80.007	19.993	103.842	19.889	3.789	0.525
231.000	192.075	80.007	19.994	103.834	19.887	3.972	0.453
231.500	192.398	80.007	19.995	103.830	19.886	3.982	0.467
232.000	192.626	80.008	19.993	103.834	19.890	3.721	0.540
232.500	192.823	80.007	19.993	103.837	19.885	4.086	0.488
233.000	193.108	80.006	19.993	103.839	19.888	3.889	0.454
233.500	193.326	80.007	19.993	103.842	19.886	3.985	0.492
234.000	193.557	80.008	19.993	103.849	19.893	3.540	0.476
234.500	193.869	80.009	19.993	103.849	19.895	3.401	0.496
235.000	194.083	80.009	19.995	103.847	19.889	3.772	0.535
235.500	194.328	80.007	19.993	103.850	19.887	3.952	0.493
236.000	194.593	80.008	19.994	103.855	19.885	4.121	0.485
236.500	194.832	80.008	19.993	103.853	19.884	4.170	0.507
237.000	195.039	80.008	19.994	103.856	19.884	4.172	0.475
237.500	195.335	80.009	19.994	103.860	19.887	3.937	0.475
238.000	195.555	80.008	19.994	103.863	19.887	3.941	0.510
238.500	195.809	80.009	19.993	103.863	19.888	3.881	0.495
239.000	196.026	80.008	19.994	103.864	19.884	4.182	0.472
239.500	196.311	80.008	19.993	103.860	19.887	3.938	0.487
240.000	196.558	80.007	19.996	103.860	19.881	4.375	0.518
240.500	196.782	80.008	19.993	103.853	19.887	3.910	0.502
241.000	197.036	80.008	19.993	103.849	19.885	4.094	0.474
241.500	197.273	80.010	19.994	103.844	19.885	4.100	0.485
242.000	197.491	80.010	19.995	103.842	19.888	3.838	0.473
242.500	197.795	80.009	19.994	103.840	19.883	4.202	0.488
243.000	197.983	80.010	19.995	103.847	19.886	4.010	0.506
243.500	198.232	80.007	19.993	103.850	19.885	4.086	0.464
244.000	198.520	80.008	19.993	103.854	19.882	4.275	0.487
244.500	198.787	80.009	19.996	103.859	19.884	4.186	0.546
245.000	198.993	80.008	19.993	103.862	19.887	3.963	0.514
245.500	199.231	80.008	19.993	103.862	19.881	4.352	0.458
246.000	199.480	80.009	19.995	103.858	19.885	4.073	0.465
246.500	199.758	80.008	19.994	103.856	19.884	4.167	0.507
247.000	199.990	80.008	19.993	103.851	19.882	4.288	0.518
247.500	200.220	80.008	19.993	103.846	19.883	4.252	0.486
248.000	200.404	80.009	19.993	103.840	19.882	4.283	0.438
248.500	200.681	80.007	19.993	103.839	19.883	4.262	0.437
249.000	200.944	80.008	19.993	103.844	19.886	4.051	0.500
249.500	201.198	80.009	19.993	103.850	19.882	4.289	0.529
250.000	201.444	80.008	19.994	103.855	19.881	4.365	0.509
250.500	201.697	80.010	19.993	103.857	19.885	4.074	0.500
251.000	202.042	80.005	19.993	103.857	19.883	4.213	0.549
251.500	202.184	80.005	19.993	103.854	19.886	4.018	0.542
252.000	202.472	80.006	19.995	103.851	19.886	4.039	0.458
252.500	202.694	80.009	19.993	103.849	19.883	4.211	0.470
253.000	202.976	80.004	19.993	103.851	19.884	4.134	0.507
253.500	203.134	80.007	19.993	103.855	19.885	4.116	0.472
254.000	203.444	80.007	19.993	103.856	19.884	4.147	0.454
254.500	203.657	80.005	19.993	103.852	19.883	4.264	0.496
255.000	203.903	80.006	19.993	103.847	19.882	4.329	0.491
255.500	204.135	80.006	19.993	103.846	19.881	4.362	0.468
256.000	204.388	80.007	19.994	103.846	19.882	4.278	0.482
256.500	204.665	80.005	19.992	103.848	19.880	4.446	0.508
257.000	204.904	80.007	19.994	103.855	19.881	4.358	0.523
257.500	205.150	80.009	19.994	103.860	19.881	4.397	0.500
258.000	205.386	80.006	19.993	103.859	19.882	4.293	0.484
258.500	205.691	80.005	19.994	103.855	19.885	4.072	0.512
259.000	205.835	80.008	19.993	103.850	19.879	4.552	0.495
259.500	206.154	80.005	19.993	103.850	19.883	4.254	0.456
260.000	206.389	80.007	19.993	103.847	19.881	4.351	0.508
260.500	206.673	80.005	19.994	103.844	19.884	4.152	0.536
261.000	206.881	80.006	19.992	103.847	19.883	4.238	0.505
261.500	207.136	80.005	19.994	103.848	19.887	3.949	0.477
262.000	207.412	80.005	19.993	103.844	19.885	4.074	0.497
262.500	207.630	80.008	19.993	103.849	19.884	4.132	0.513
263.000	207.866	80.008	19.993	103.855	19.881	4.344	0.474
263.500	208.120	80.005	19.993	103.860	19.879	4.512	0.472
264.000	208.356	80.007	19.993	103.864	19.877	4.656	0.490
264.500	208.614	80.007	19.994	103.869	19.880	4.438	0.492
265.000	208.848	80.008	19.994	103.868	19.880	4.465	0.493
265.500	209.102	80.005	19.992	103.865	19.879	4.512	0.490
266.000	209.392	80.008	19.994	103.862	19.881	4.406	0.516
266.500	209.641	80.006	19.995	103.862	19.880	4.423	0.542
267.000	209.884	80.007	19.993	103.863	19.882	4.289	0.515
267.500	210.104	80.005	19.994	103.864	19.881	4.363	0.478
268.000	210.362	80.006	19.993	103.859	19.882	4.318	0.471
268.500	210.610	80.006	19.993	103.855	19.883	4.236	0.492
269.000	210.822	80.007	19.994	103.848	19.882	4.312	0.483
269.500	211.074	80.007	19.993	103.841	19.879	4.545	0.462
270.000	211.357	80.006	19.996	103.838	19.878	4.607	0.500
270.500	211.563	80.007	19.994	103.841	19.879	4.543	0.513
271.000	211.843	80.006	19.993	103.841	19.876	4.755	0.488
271.500	212.067	80.008	19.994	103.841	19.885	4.119	0.495
272.000	212.298	80.007	19.994	103.841	19.880	4.468	0.480
272.500	212.559	80.006	19.994	103.839	19.882	4.312	0.473
273.000	212.825	80.007	19.993	103.837	19.881	4.359	0.509
273.500	213.096	80.006	19.994	103.839	19.881	4.365	0.532
274.000	213.321	80.006	19.994	103.843	19.880	4.427	0.517
274.500	213.571	80.006	19.993	103.846	19.881	4.353	0.485
275.000	213.801	80.006	19.994	103.849	19.881	4.389	0.477
275.500	214.075	80.008	19.994	103.849	19.881	4.359	0.492
276.000	214.320	80.005	19.996	103.845	19.878	4.578	0.512
276.500	214.545	80.009	19.992	103.842	19.880	4.439	0.494
277.000	214.809	80.012	19.993	103.841	19.880	4.472	0.479
277.500	215.043	80.005	19.994	103.839	19.881	4.384	0.493
278.000	215.273	80.010	19.992	103.839	19.878	4.623	0.481
278.500	215.531	80.006	19.996	103.840	19.876	4.707	0.476
279.000	215.741	80.005	19.993	103.840	19.881	4.388	0.478
279.500	216.030	80.003	19.994	103.839	19.877	4.670	0.484
280.000	216.276	80.010	19.993	103.837	19.879	4.533	0.517
280.500	216.519	80.005	19.993	103.838	19.882	4.273	0.512
281.000	216.789	80.009	19.994	103.837	19.881	4.373	0.500
281.500	217.028	80.006	19.994	103.837	19.887	3.972	0.511
282.000	217.298	80.008	19.992	103.835	19.882	4.302	0.509
282.500	217.530	80.005	19.994	103.836	19.883	4.261	0.505
283.000	217.755	80.007	19.992	103.836	19.886	4.043	0.479
283.500	218.027	80.006	19.994	103.836	19.885	4.105	0.477
284.000	218.230	80.006	19.994	103.835	19.879	4.543	0.486
284.500	218.527	80.004	19.992	103.836	19.880	4.437	0.488
285.000	218.745	80.006	19.994	103.839	19.886	4.050	0.508
285.500	219.029	80.005	19.993	103.841	19.882	4.298	0.509
286.000	219.258	80.002	19.994	103.843	19.885	4.111	0.507
286.500	219.504	80.006	19.993	103.844	19.885	4.107	0.494
287.000	219.742	80.005	19.995	103.843	19.884	4.191	0.479
287.500	220.021	80.007	19.993	103.840	19.884	4.138	0.501
288.000	220.255	80.004	19.994	103.838	19.886	4.044	0.515
288.500	220.457	80.005	19.994	103.837	19.881	4.345	0.474
289.000	220.740	80.006	19.995	103.837	19.883	4.220	0.460
289.500	220.972	80.005	19.994	103.837	19.885	4.082	0.501
290.000	221.282	80.006	19.994	103.839	19.880	4.445	0.529
290.500	221.497	80.004	19.994	103.840	19.879	4.544	0.534
291.000	221.752	80.006	19.994	103.840	19.885	4.087	0.498
291.500	222.003	80.005	19.995	103.839	19.886	4.034	0.488
292.000	222.216	80.006	19.995	103.839	19.883	4.239	0.484
292.500	222.472	80.005	19.996	103.839	19.881	4.362	0.466
293.000	222.742	80.006	19.995	103.837	19.880	4.450	0.498
293.500	222.992	80.006	19.994	103.837	19.881	4.364	0.524
294.000	223.254	80.007	19.995	103.840	19.883	4.249	0.516
294.500	223.495	80.006	19.995	103.840	19.883	4.234	0.507
295.000	223.730	80.006	19.995	103.837	19.883	4.236	0.489
295.500	224.051	80.006	19.995	103.837	19.883	4.232	0.516
296.000	224.269	80.007	19.995	103.834	19.885	4.074	0.547
296.500	224.506	80.004	19.994	103.830	19.884	4.140	0.497
297.000	224.765	80.006	19.996	103.829	19.885	4.113	0.476
297.500	224.997	80.007	19.994	103.829	19.881	4.345	0.493
298.000	225.258	80.008	19.995	103.829	19.884	4.126	0.492
298.500	225.512	80.006	19.994	103.831	19.885	4.095	0.504
299.000	225.763	80.008	19.995	103.833	19.883	4.222	0.509
299.500	225.998	80.007	19.995	103.833	19.883	4.220	0.495
300.000	226.278	80.008	19.994	103.833	19.883	4.218	0.501
300.500	226.535	80.006	19.995	103.834	19.884	4.189	0.526
301.000	226.764	80.008	19.995	103.832	19.882	4.286	0.512
301.500	226.979	80.008	19.995	103.831	19.883	4.226	0.465
302.000	227.268	80.008	19.994	103.827	19.883	4.230	0.474
302.500	227.488	80.007	19.994	103.824	19.885	4.085	0.506
303.000	227.741	80.007	19.995	103.822	19.883	4.216	0.491
303.500	228.033	80.007	19.994	103.821	19.883	4.230	0.509
304.000	228.239	80.006	19.993	103.821	19.882	4.284	0.522
304.500	228.512	80.007	19.997	103.825	19.882	4.312	0.489
305.000	228.776	80.007	19.996	103.830	19.880	4.460	0.508
305.500	229.027	80.008	19.994	103.832	19.878	4.611	0.526
306.000	229.276	80.006	19.996	103.834	19.885	4.062	0.508
306.500	229.550	80.006	19.994	103.834	19.885	4.095	0.511
307.000	229.795	80.007	19.994	103.835	19.881	4.380	0.521
307.500	230.037	80.008	19.994	103.832	19.880	4.464	0.503
308.000	230.245	80.009	19.995	103.830	19.882	4.281	0.469
308.500	230.524	80.007	19.994	103.829	19.880	4.415	0.469
309.000	230.778	80.007	19.994	103.829	19.882	4.304	0.510
309.500	231.063	80.006	19.994	103.829	19.884	4.142	0.536
310.000	231.262	80.007	19.994	103.831	19.884	4.159	0.512
310.500	231.507	80.008	19.994	103.831	19.884	4.142	0.464
311.000	231.766	80.007	19.993	103.831	19.883	4.218	0.474
311.500	232.017	80.008	19.993	103.831	19.883	4.255	0.507
312.000	232.245	80.010	19.993	103.831	19.883	4.240	0.494
312.500	232.490	80.011	19.993	103.829	19.884	4.197	0.476
313.000	232.722	80.007	19.993	103.830	19.884	4.187	0.475
313.500	232.963	80.006	19.994	103.830	19.880	4.421	0.475
314.000	233.234	80.007	19.994	103.830	19.882	4.279	0.492
314.500	233.490	80.006	19.995	103.830	19.881	4.396	0.520
315.000	233.731	80.008	19.994	103.831	19.881	4.363	0.512
315.500	233.968	80.009	19.993	103.830	19.884	4.187	0.487
316.000	234.219	80.007	19.994	103.830	19.882	4.329	0.483
316.500	234.511	80.008	19.994	103.830	19.879	4.529	0.515
317.000	234.722	80.009	19.994	103.831	19.878	4.579	0.523
317.500	234.983	80.007	19.994	103.832	19.880	4.421	0.488
318.000	235.185	80.009	19.994	103.831	19.882	4.310	0.467
318.500	235.469	80.010	19.994	103.832	19.882	4.337	0.474
319.000	235.703	80.012	19.993	103.832	19.886	3.986	0.502
319.500	235.948	80.006	19.994	103.832	19.881	4.388	0.499
320.000	236.190	80.006	19.994	103.832	19.882	4.294	0.483
320.500	236.421	80.014	19.993	103.832	19.885	4.099	0.480
321.000	236.680	80.009	19.994	103.830	19.885	4.093	0.481
321.500	236.956	80.008	19.993	103.830	19.884	4.195	0.513
322.000	237.166	80.010	19.993	103.829	19.882	4.326	0.510
322.500	237.408	80.011	19.994	103.828	19.884	4.187	0.469
323.000	237.659	80.010	19.994	103.829	19.881	4.376	0.472
323.500	237.913	80.010	19.994	103.829	19.883	4.250	0.499
324.000	238.147	80.010	19.994	103.831	19.881	4.380	0.497
324.500	238.383	80.010	19.994	103.832	19.884	4.162	0.479
325.000	238.663	80.009	19.993	103.832	19.882	4.316	0.493
325.500	238.900	80.008	19.993	103.831	19.880	4.416	0.516
326.000	239.116	80.009	19.994	103.831	19.882	4.296	0.485
326.500	239.399	80.008	19.994	103.830	19.884	4.177	0.476
327.000	239.620	80.008	19.994	103.830	19.881	4.345	0.501
327.500	239.866	80.009	19.993	103.830	19.882	4.296	0.486
328.000	240.081	80.010	19.994	103.829	19.880	4.449	0.464
328.500	240.348	80.008	19.993	103.830	19.883	4.265	0.471
329.000	240.589	80.009	19.993	103.830	19.882	4.322	0.495
329.500	240.837	80.008	19.993	103.830	19.881	4.386	0.499
330.000	241.088	80.009	19.994	103.832	19.882	4.335	0.494
330.500	241.329	80.005	19.992	103.832	19.885	4.101	0.496
331.000	241.580	80.008	19.992	103.832	19.883	4.232	0.492
331.500	241.813	80.008	19.993	103.832	19.883	4.216	0.488
332.000	242.061	80.006	19.993	103.832	19.881	4.406	0.482
332.500	242.348	80.006	19.993	103.831	19.881	4.343	0.508
333.000	242.602	80.010	19.992	103.832	19.883	4.269	0.538
333.500	242.844	80.006	19.994	103.833	19.883	4.220	0.519
334.000	243.073	80.006	19.993	103.834	19.884	4.179	0.484
334.500	243.310	80.005	19.993	103.835	19.881	4.373	0.468
335.000	243.593	80.006	19.993	103.835	19.882	4.310	0.493
335.500	243.848	80.006	19.994	103.835	19.881	4.390	0.529
336.000	244.088	80.007	19.992	103.833	19.880	4.437	0.517
336.500	244.313	80.006	19.993	103.835	19.881	4.365	0.480
337.000	244.573	80.005	19.994	103.837	19.884	4.148	0.475
337.500	244.790	80.008	19.993	103.836	19.881	4.402	0.481
338.000	245.037	80.006	19.993	103.836	19.883	4.238	0.470
338.500	245.279	80.007	19.994	103.836	19.883	4.234	0.476
339.000	245.526	80.010	19.994	103.835	19.883	4.226	0.489
339.500	245.808	79.998	19.994	103.833	19.882	4.304	0.509
340.000	246.061	80.004	19.994	103.832	19.884	4.156	0.532
340.500	246.281	80.007	19.994	103.831	19.884	4.183	0.504
341.000	246.530	80.008	19.995	103.832	19.881	4.398	0.471
341.500	246.765	80.007	19.993	103.831	19.881	4.382	0.476
342.000	247.037	80.005	19.993	103.832	19.882	4.300	0.495
342.500	247.278	80.006	19.993	103.831	19.882	4.281	0.510
343.000	247.553	80.003	19.992	103.831	19.883	4.263	0.514
343.500	247.749	80.007	19.993	103.834	19.884	4.152	0.493
344.000	248.006	80.004	19.993	103.834	19.882	4.310	0.462
344.500	248.276	80.005	19.993	103.835	19.885	4.080	0.490
345.000	248.510	80.005	19.994	103.837	19.884	4.195	0.516
345.500	248.785	80.006	19.993	103.838	19.888	3.839	0.506
346.000	248.998	80.013	19.993	103.835	19.882	4.333	0.499
346.500	249.236	80.002	19.996	103.835	19.884	4.189	0.469
347.000	249.515	80.008	19.994	103.833	19.882	4.285	0.484
347.500	249.792	80.009	19.993	103.832	19.884	4.136	0.537
348.000	250.024	80.007	19.994	103.832	19.882	4.339	0.533
348.500	250.322	80.008	19.993	103.833	19.880	4.449	0.520
349.000	250.545	80.007	19.994	103.832	19.882	4.275	0.526
349.500	250.776	79.998	19.994	103.834	19.883	4.201	0.487
350.000	251.032	80.009	19.992	103.833	19.878	4.576	0.470
350.500	251.259	80.009	19.993	103.835	19.878	4.560	0.485
351.000	251.501	80.006	19.993	103.836	19.880	4.439	0.476
351.500	251.790	80.009	19.992	103.835	19.882	4.281	0.500
352.000	252.038	80.006	19.994	103.836	19.879	4.544	0.534
352.500	252.272	80.008	19.993	103.838	19.877	4.650	0.509
353.000	252.504	80.005	19.993	103.836	19.880	4.433	0.474
353.500	252.743	80.009	19.993	103.836	19.882	4.323	0.468
354.000	253.036	80.006	19.993	103.837	19.875	4.823	0.502
354.500	253.273	80.007	19.993	103.836	19.880	4.480	0.531
355.000	253.566	80.007	19.993	103.836	19.879	4.532	0.530
355.500	253.747	80.009	19.993	103.836	19.878	4.609	0.502
356.000	254.042	80.006	19.994	103.835	19.876	4.753	0.475
356.500	254.293	80.007	19.993	103.835	19.881	4.408	0.510
357.000	254.526	80.007	19.994	103.835	19.881	4.409	0.515
357.500	254.750	80.005	19.995	103.835	19.881	4.372	0.471
358.000	255.006	80.005	19.994	103.835	19.883	4.204	0.469
358.500	255.260	80.003	19.994	103.834	19.883	4.259	0.494
359.000	255.533	80.008	19.994	103.834	19.880	4.464	0.518
359.500	255.780	80.007	19.994	103.833	19.880	4.449	0.524
360.000	256.071	80.007	19.995	103.833	19.881	4.409	0.529
360.500	256.288	80.006	19.994	103.832	19.883	4.220	0.523
361.000	256.556	80.007	19.995	103.833	19.883	4.269	0.497
361.500	256.800	80.008	19.995	103.833	19.881	4.358	0.498
362.000	257.004	80.001	19.995	103.832	19.880	4.440	0.480
362.500	257.270	80.005	19.994	103.832	19.882	4.270	0.459
363.000	257.516	80.010	19.994	103.831	19.882	4.297	0.491
363.500	257.778	80.003	19.994	103.830	19.881	4.391	0.510
364.000	258.016	80.003	19.995	103.829	19.878	4.602	0.504
364.500	258.260	80.005	19.996	103.830	19.879	4.491	0.491
365.000	258.542	80.007	19.996	103.830	19.883	4.253	0.504
365.500	258.789	80.006	19.995	103.831	19.882	4.302	0.528
366.000	259.055	80.005	19.995	103.830	19.880	4.443	0.521
366.500	259.259	80.004	19.996	103.831	19.880	4.415	0.491
367.000	259.545	80.003	19.996	103.830	19.881	4.405	0.480
367.500	259.781	80.007	19.995	103.830	19.875	4.784	0.506
368.000	260.043	80.004	19.995	103.830	19.881	4.362	0.510
368.500	260.289	80.000	19.995	103.829	19.880	4.470	0.503
369.000	260.549	80.007	19.995	103.828	19.882	4.327	0.507
369.500	260.760	80.005	19.995	103.830	19.879	4.526	0.489
370.000	260.995	80.007	19.994	103.830	19.880	4.421	0.459
370.500	261.261	80.008	19.995	103.830	19.878	4.573	0.474
371.000	261.549	80.004	19.995	103.831	19.874	4.901	0.528
371.500	261.792	80.007	19.994	103.831	19.878	4.564	0.542
372.000	262.055	80.006	19.995	103.826	19.876	4.765	0.518
372.500	262.347	80.005	19.994	103.823	19.880	4.452	0.531
373.000	262.535	80.006	19.993	103.818	19.881	4.407	0.517
373.500	262.762	80.007	19.995	103.812	19.877	4.669	0.447
374.000	263.045	80.006	19.994	103.811	19.879	4.536	0.463
374.500	263.327	80.007	19.996	103.815	19.880	4.452	0.538
375.000	263.600	80.007	19.994	103.819	19.879	4.551	0.560
375.500	263.841	80.008	19.993	103.823	19.881	4.401	0.534
376.000	264.079	80.007	19.994	103.829	19.879	4.551	0.496
376.500	264.334	80.008	19.994	103.829	19.879	4.487	0.486
377.000	264.590	80.003	19.994	103.828	19.878	4.614	0.503
377.500	264.809	80.006	19.994	103.828	19.881	4.390	0.493
378.000	265.089	80.008	19.994	103.828	19.881	4.376	0.487
378.500	265.357	80.006	19.993	103.826	19.883	4.268	0.523
379.000	265.601	80.007	19.994	103.825	19.880	4.428	0.530
379.500	265.832	80.007	19.995	103.825	19.877	4.635	0.493
380.000	266.120	80.010	19.994	103.825	19.881	4.348	0.497
380.500	266.321	80.008	19.994	103.825	19.880	4.432	0.504
381.000	266.582	80.009	19.994	103.828	19.880	4.477	0.476
381.500	266.825	80.006	19.993	103.827	19.882	4.297	0.483
382.000	267.119	80.008	19.994	103.827	19.882	4.276	0.520
382.500	267.371	80.009	19.994	103.826	19.881	4.385	0.541
383.000	267.634	80.008	19.993	103.825	19.881	4.409	0.530
383.500	267.853	80.008	19.994	103.825	19.883	4.226	0.499
384.000	268.097	80.008	19.994	103.826	19.881	4.392	0.473
384.500	268.365	80.004	19.995	103.822	19.879	4.525	0.488
385.000	268.599	80.006	19.994	103.817	19.878	4.599	0.507
385.500	268.841	80.002	19.995	103.813	19.879	4.493	0.489
386.000	269.124	80.010	19.994	103.811	19.880	4.442	0.501
386.500	269.363	80.009	19.995	103.811	19.878	4.571	0.524
387.000	269.660	80.006	19.994	103.816	19.880	4.419	0.529
387.500	269.881	80.009	19.994	103.821	19.880	4.479	0.527
388.000	270.137	80.007	19.992	103.825	19.879	4.556	0.498
388.500	270.433	80.007	19.996	103.825	19.880	4.431	0.515
389.000	270.671	80.008	19.995	103.820	19.879	4.490	0.543
389.500	270.903	80.007	19.994	103.813	19.879	4.529	0.502
390.000	271.210	80.008	19.994	103.806	19.881	4.373	0.504
390.500	271.419	80.008	19.994	103.802	19.880	4.464	0.527
391.000	271.692	80.009	19.994	103.803	19.881	4.379	0.499
391.500	271.970	80.007	19.995	103.806	19.879	4.521	0.516
392.000	272.187	80.008	19.994	103.807	19.879	4.542	0.523
392.500	272.455	80.006	19.995	103.808	19.879	4.503	0.490
393.000	272.656	80.010	19.995	103.813	19.878	4.583	0.477
393.500	272.938	80.000	19.995	103.814	19.875	4.778	0.476
394.000	273.206	80.015	19.993	103.817	19.881	4.405	0.516
394.500	273.427	79.990	19.997	103.824	19.879	4.515	0.520
395.000	273.723	80.019	19.993	103.826	19.875	4.777	0.503
395.500	273.959	80.009	19.994	103.829	19.878	4.575	0.525
396.000	274.205	80.005	19.993	103.828	19.879	4.505	0.507
396.500	274.459	79.992	19.997	103.829	19.876	4.716	0.491
397.000	274.693	80.005	19.995	103.822	19.878	4.573	0.494
397.500	274.944	80.009	19.995	103.826	19.879	4.548	0.487
398.000	275.166	80.000	19.996	103.822	19.878	4.614	0.479
398.500	275.453	80.006	19.994	103.821	19.876	4.745	0.490
399.000	275.651	79.991	19.997	103.824	19.878	4.581	0.497
399.500	275.984	80.006	19.993	103.827	19.880	4.472	0.509
400.000	276.239	80.011	19.993	103.831	19.880	4.468	0.559
400.500	276.467	80.015	19.994	103.836	19.878	4.589	0.535
401.000	276.701	80.002	19.996	103.838	19.878	4.599	0.472
401.500	276.954	80.011	19.992	103.835	19.878	4.611	0.475
402.000	277.177	80.009	19.993	103.840	19.878	4.609	0.482
402.500	277.448	80.006	19.994	103.834	19.876	4.708	0.485
403.000	277.704	80.007	19.995	103.831	19.878	4.618	0.511
403.500	277.922	80.009	19.994	103.830	19.878	4.589	0.501
404.000	278.199	80.010	19.994	103.830	19.876	4.747	0.484
404.500	278.451	80.008	19.994	103.828	19.876	4.753	0.511
405.000	278.690	80.008	19.994	103.829	19.876	4.761	0.509
405.500	278.962	80.009	19.994	103.829	19.874	4.853	0.501
406.000	279.185	80.008	19.994	103.829	19.876	4.763	0.504
406.500	279.494	80.009	19.993	103.829	19.878	4.616	0.514
407.000	279.728	80.010	19.993	103.829	19.875	4.798	0.537
407.500	279.973	80.009	19.993	103.829	19.872	5.016	0.511
408.000	280.221	80.009	19.993	103.830	19.876	4.729	0.486
408.500	280.455	80.009	19.993	103.829	19.874	4.848	0.488
409.000	280.722	80.010	19.993	103.829	19.878	4.608	0.492
409.500	280.983	80.008	19.994	103.827	19.875	4.780	0.515
410.000	281.217	80.007	19.993	103.827	19.872	5.036	0.512
410.500	281.462	80.008	19.993	103.827	19.873	4.927	0.487
411.000	281.747	80.011	19.993	103.827	19.875	4.827	0.504
411.500	281.997	80.016	19.993	103.828	19.876	4.726	0.532
412.000	282.215	80.006	19.994	103.831	19.875	4.776	0.501
412.500	282.504	80.005	19.993	103.831	19.877	4.665	0.488
413.000	282.744	80.005	19.993	103.833	19.873	4.944	0.518
413.500	282.999	79.996	19.995	103.833	19.875	4.782	0.512
414.000	283.273	80.005	19.994	103.831	19.876	4.755	0.512
414.500	283.491	80.006	19.994	103.829	19.877	4.632	0.511
415.000	283.763	80.005	19.993	103.830	19.877	4.648	0.491
415.500	284.040	80.002	19.994	103.829	19.877	4.687	0.519
416.000	284.253	80.006	19.992	103.828	19.874	4.863	0.520
416.500	284.523	80.004	19.993	103.831	19.876	4.714	0.487
417.000	284.752	80.000	19.993	103.830	19.880	4.468	0.491
417.500	285.044	80.010	19.993	103.826	19.876	4.710	0.510
418.000	285.252	80.006	19.995	103.823	19.876	4.726	0.511
418.500	285.529	80.004	19.993	103.820	19.880	4.476	0.492
419.000	285.785	80.007	19.992	103.818	19.874	4.863	0.509
419.500	286.044	80.006	19.992	103.821	19.875	4.808	0.524
420.000	286.287	80.006	19.993	103.824	19.876	4.716	0.509
420.500	286.553	80.006	19.994	103.826	19.875	4.829	0.506
421.000	286.837	80.007	19.994	103.829	19.872	5.001	0.529
421.500	287.054	80.005	19.992	103.828	19.873	4.972	0.525
422.000	287.321	80.009	19.993	103.828	19.874	4.864	0.492
422.500	287.593	80.003	19.994	103.826	19.872	5.044	0.512
423.000	287.834	80.004	19.994	103.826	19.872	5.054	0.526
423.500	288.115	80.000	19.994	103.827	19.874	4.886	0.517
424.000	288.317	79.995	19.994	103.827	19.876	4.741	0.503
424.500	288.592	80.003	19.994	103.827	19.875	4.778	0.480
425.000	288.839	80.023	19.993	103.830	19.875	4.835	0.499
425.500	289.098	80.008	19.995	103.832	19.877	4.698	0.514
426.000	289.407	79.999	19.994	103.830	19.875	4.829	0.537
426.500	289.621	80.019	19.991	103.829	19.876	4.751	0.545
427.000	289.878	80.004	19.996	103.832	19.876	4.706	0.497
427.500	290.125	79.997	19.996	103.827	19.877	4.692	0.488
428.000	290.404	80.022	19.993	103.824	19.876	4.712	0.515
428.500	290.652	80.020	19.992	103.828	19.875	4.780	0.526
429.000	290.917	79.999	19.995	103.830	19.874	4.904	0.520
429.500	291.235	80.018	19.994	103.825	19.872	4.998	0.548
430.000	291.419	79.996	19.996	103.832	19.872	4.994	0.542
430.500	291.711	80.008	19.995	103.832	19.870	5.172	0.489
431.000	291.940	80.007	19.995	103.830	19.875	4.822	0.498
431.500	292.220	80.005	19.995	103.828	19.873	4.930	0.515
432.000	292.487	80.007	19.994	103.830	19.872	5.057	0.528
432.500	292.723	80.016	19.992	103.828	19.876	4.749	0.525
433.000	292.956	80.002	19.995	103.831	19.872	5.015	0.486
433.500	293.240	80.006	19.995	103.830	19.875	4.829	0.493
434.000	293.479	80.007	19.993	103.830	19.875	4.823	0.520
434.500	293.745	80.005	19.994	103.829	19.874	4.895	0.514
435.000	293.952	79.987	19.998	103.828	19.871	5.096	0.489
435.500	294.221	80.010	19.992	103.821	19.871	5.082	0.475
436.000	294.463	80.010	19.994	103.821	19.872	5.031	0.494
436.500	294.772	80.004	19.995	103.822	19.875	4.831	0.531
437.000	295.000	80.007	19.992	103.823	19.873	4.981	0.544
437.500	295.237	80.007	19.994	103.823	19.877	4.653	0.501
438.000	295.503	80.005	19.994	103.827	19.874	4.882	0.484
438.500	295.759	80.006	19.993	103.826	19.877	4.692	0.513
439.000	296.021	80.006	19.994	103.820	19.877	4.665	0.521
439.500	296.270	80.003	19.994	103.816	19.871	5.079	0.515
440.000	296.551	79.994	19.995	103.809	19.875	4.815	0.520
440.500	296.794	80.004	19.994	103.805	19.871	5.110	0.527
441.000	297.042	80.003	19.995	103.806	19.873	4.946	0.508
441.500	297.294	80.011	19.994	103.805	19.875	4.828	0.496
442.000	297.525	79.997	19.994	103.809	19.872	4.998	0.491
442.500	297.853	80.007	19.993	103.816	19.878	4.627	0.521
443.000	298.065	79.999	19.994	103.819	19.877	4.668	0.550
443.500	298.299	80.003	19.992	103.821	19.876	4.717	0.493
444.000	298.599	80.000	19.993	103.825	19.874	4.912	0.490
444.500	298.810	79.998	19.994	103.820	19.876	4.735	0.522
445.000	299.043	79.998	19.994	103.812	19.877	4.699	0.478
445.500	299.298	80.004	19.994	103.811	19.875	4.832	0.466
446.000	299.542	80.004	19.995	103.807	19.875	4.836	0.493
446.500	299.851	80.009	19.994	103.801	19.874	4.884	0.526
447.000	300.086	80.013	19.992	103.805	19.877	4.662	0.548
447.500	300.333	79.995	19.995	103.815	19.873	4.982	0.513
448.000	300.568	80.007	19.993	103.817	19.874	4.874	0.483
448.500	300.822	80.005	19.996	103.820	19.878	4.602	0.486
449.000	301.107	80.006	19.994	103.823	19.879	4.554	0.514
449.500	301.336	80.007	19.994	103.822	19.875	4.823	0.527
450.000	301.586	80.007	19.993	103.819	19.877	4.683	0.497
450.500	301.827	80.009	19.993	103.819	19.877	4.694	0.485
451.000	302.109	80.009	19.993	103.815	19.874	4.884	0.507
451.500	302.340	80.020	19.992	103.813	19.879	4.532	0.518
452.000	302.619	80.000	19.995	103.810	19.877	4.635	0.512
452.500	302.864	80.005	19.994	103.805	19.874	4.887	0.517
453.000	303.133	80.002	19.993	103.801	19.873	4.988	0.519
453.500	303.357	80.012	19.993	103.805	19.875	4.826	0.504
454.000	303.617	79.997	19.996	103.811	19.873	4.946	0.488
454.500	303.868	80.003	19.994	103.811	19.874	4.860	0.497
455.000	304.147	80.004	19.993	103.813	19.875	4.805	0.520
455.500	304.384	79.999	19.994	103.812	19.872	5.018	0.523
456.000	304.672	79.998	19.994	103.806	19.875	4.776	0.521
456.500	304.908	80.005	19.995	103.797	19.879	4.557	0.524
457.000	305.126	80.005	19.995	103.798	19.878	4.608	0.489
457.500	305.384	80.007	19.995	103.800	19.877	4.698	0.465
458.000	305.645	80.006	19.994	103.803	19.873	4.985	0.498
458.500	305.908	80.012	19.993	103.808	19.875	4.782	0.522
459.000	306.153	80.001	19.995	103.817	19.871	5.101	0.516
459.500	306.384	80.006	19.995	103.821	19.874	4.878	0.492
460.000	306.660	80.005	19.993	103.825	19.877	4.696	0.491
460.500	306.908	80.015	19.993	103.829	19.874	4.862	0.515
461.000	307.153	80.012	19.992	103.833	19.876	4.725	0.508
461.500	307.422	80.018	19.994	103.828	19.878	4.595	0.503
462.000	307.658	80.010	19.993	103.823	19.875	4.815	0.510
462.500	307.899	80.011	19.993	103.820	19.871	5.095	0.491
463.000	308.153	80.003	19.996	103.813	19.874	4.855	0.486
463.500	308.442	80.013	19.994	103.806	19.872	5.043	0.519
464.000	308.640	80.007	19.994	103.811	19.867	5.386	0.515
464.500	308.928	80.009	19.994	103.812	19.869	5.267	0.487
465.000	309.160	80.007	19.994	103.815	19.874	4.858	0.503
465.500	309.425	80.014	19.993	103.819	19.871	5.124	0.508
466.000	309.665	80.009	19.995	103.820	19.870	5.151	0.501
466.500	309.918	80.006	19.996	103.813	19.871	5.090	0.499
467.000	310.174	80.001	19.994	103.815	19.871	5.113	0.501
467.500	310.404	80.002	19.995	103.815	19.873	4.988	0.497
468.000	310.636	80.011	19.995	103.816	19.874	4.895	0.473
468.500	310.891	79.999	19.995	103.822	19.872	5.002	0.474
469.000	311.162	80.013	19.994	103.825	19.870	5.158	0.507
469.500	311.396	80.002	19.997	103.829	19.870	5.152	0.516
470.000	311.665	80.005	19.994	103.827	19.873	4.974	0.504
470.500	311.913	80.017	19.993	103.828	19.868	5.302	0.510
471.000	312.177	80.003	19.994	103.824	19.874	4.871	0.515
471.500	312.465	80.010	19.994	103.822	19.873	4.933	0.532
472.000	312.706	80.005	19.994	103.820	19.873	4.922	0.541
472.500	312.960	80.013	19.993	103.822	19.871	5.089	0.512
473.000	313.238	80.000	19.994	103.825	19.872	5.015	0.513
473.500	313.465	80.011	19.993	103.831	19.871	5.134	0.519
474.000	313.724	80.010	19.993	103.835	19.869	5.223	0.495
474.500	313.965	79.997	19.995	103.840	19.874	4.909	0.493
475.000	314.238	80.022	19.991	103.837	19.871	5.116	0.507
475.500	314.455	80.005	19.994	103.836	19.872	5.026	0.502
476.000	314.702	80.001	19.993	103.825	19.872	5.020	0.477
476.500	314.916	80.008	19.993	103.823	19.873	4.969	0.462
477.000	315.208	80.007	19.993	103.817	19.870	5.193	0.484
477.500	315.425	80.007	19.994	103.814	19.868	5.310	0.508
478.000	315.645	79.995	19.994	103.808	19.864	5.640	0.473
478.500	315.935	80.006	19.993	103.807	19.867	5.393	0.474
479.000	316.186	80.000	19.997	103.807	19.868	5.346	0.526
479.500	316.439	79.998	19.995	103.798	19.868	5.350	0.522
480.000	316.662	79.996	19.996	103.794	19.869	5.262	0.490
480.500	316.925	80.017	19.993	103.791	19.867	5.420	0.480
481.000	317.198	80.012	19.994	103.794	19.867	5.374	0.511
481.500	317.431	80.016	19.994	103.793	19.868	5.292	0.522
482.000	317.672	79.995	19.994	103.799	19.870	5.186	0.490
482.500	317.939	80.010	19.993	103.799	19.871	5.134	0.491
483.000	318.176	80.009	19.994	103.801	19.867	5.374	0.506
483.500	318.456	80.003	19.994	103.799	19.867	5.370	0.510
484.000	318.703	80.021	19.994	103.796	19.869	5.216	0.522
484.500	318.957	80.008	19.994	103.797	19.870	5.136	0.514
485.000	319.183	80.005	19.995	103.807	19.869	5.261	0.491
485.500	319.446	80.009	19.995	103.814	19.872	5.015	0.485
486.000	319.662	80.008	19.995	103.817	19.868	5.294	0.484
486.500	319.934	80.016	19.994	103.818	19.868	5.294	0.484
487.000	320.221	80.014	19.995	103.817	19.867	5.419	0.524
487.500	320.414	80.007	19.996	103.809	19.870	5.162	0.519
488.000	320.675	80.009	19.995	103.800	19.867	5.419	0.467
488.500	320.925	80.029	19.991	103.802	19.867	5.404	0.483
489.000	321.200	80.015	19.993	103.806	19.870	5.146	0.518
489.500	321.449	80.014	19.992	103.811	19.868	5.343	0.525
490.000	321.711	80.010	19.994	103.815	19.872	5.005	0.518
490.500	321.942	80.003	19.996	103.819	19.865	5.554	0.502
491.000	322.212	80.009	19.995	103.812	19.869	5.242	0.497
491.500	322.433	80.008	19.994	103.806	19.869	5.253	0.496
492.000	322.666	79.996	19.997	103.798	19.870	5.175	0.472
492.500	322.899	79.988	19.997	103.790	19.872	4.994	0.460
493.000	323.143	79.996	19.998	103.787	19.873	4.959	0.471
493.500	323.396	80.006	19.995	103.791	19.870	5.209	0.487
494.000	323.641	80.008	19.994	103.794	19.875	4.787	0.498
494.500	323.893	80.001	19.995	103.794	19.873	4.965	0.498
495.000	324.136	80.007	19.995	103.796	19.871	5.076	0.495
495.500	324.379	80.006	19.993	103.796	19.871	5.082	0.490
496.000	324.697	80.021	19.993	103.792	19.870	5.195	0.524
496.500	324.891	80.015	19.994	103.790	19.873	4.984	0.537
497.000	325.170	79.997	19.993	103.792	19.870	5.202	0.492
497.500	325.429	80.015	19.993	103.795	19.869	5.229	0.505
498.000	325.647	80.010	19.995	103.800	19.867	5.370	0.508
498.500	325.857	80.008	19.995	103.800	19.868	5.306	0.453
499.000	326.128	80.007	19.994	103.798	19.864	5.640	0.455
499.500	326.399	80.009	19.995	103.797	19.869	5.275	0.511
500.000	326.660	80.000	19.995	103.795	19.867	5.419	0.537
500.500	326.898	80.015	19.994	103.793	19.870	5.206	0.515
501.000	327.176	79.995	19.993	103.794	19.869	5.241	0.507
501.500	327.399	80.007	19.994	103.796	19.867	5.354	0.508
502.000	327.595	80.004	19.994	103.796	19.866	5.444	0.460
502.500	327.854	80.000	19.995	103.796	19.868	5.294	0.437
503.000	328.162	80.010	19.993	103.793	19.869	5.243	0.511
503.500	328.398	80.003	19.995	103.794	19.866	5.442	0.556
504.000	328.639	80.012	19.994	103.797	19.868	5.284	0.511
504.500	328.884	79.999	19.993	103.803	19.874	4.913	0.482
505.000	329.117	80.005	19.992	103.809	19.868	5.319	0.482
505.500	329.384	80.008	19.993	103.813	19.867	5.355	0.489
506.000	329.623	80.004	19.995	103.813	19.868	5.322	0.503
506.500	329.897	80.001	19.995	103.807	19.865	5.517	0.509
507.000	330.123	80.009	19.995	103.800	19.869	5.252	0.506
507.500	330.384	79.996	19.996	103.792	19.868	5.351	0.493
508.000	330.608	80.005	19.994	103.787	19.865	5.562	0.486
508.500	330.864	80.011	19.993	103.785	19.863	5.687	0.483
509.000	331.147	80.000	19.993	103.787	19.865	5.505	0.509
509.500	331.360	80.010	19.994	103.789	19.864	5.624	0.517
510.000	331.598	80.017	19.992	103.791	19.864	5.606	0.473
510.500	331.876	80.010	19.995	103.795	19.864	5.589	0.484
511.000	332.099	79.998	19.994	103.795	19.866	5.489	0.509
511.500	332.347	79.989	19.996	103.793	19.866	5.470	0.486
512.000	332.605	80.018	19.993	103.790	19.866	5.472	0.489
512.500	332.849	80.015	19.994	103.789	19.867	5.417	0.504
513.000	333.076	79.998	19.995	103.788	19.864	5.626	0.487
513.500	333.297	80.022	19.992	103.789	19.864	5.624	0.459
514.000	333.550	80.005	19.996	103.793	19.864	5.634	0.461
514.500	333.830	80.005	19.995	103.791	19.863	5.701	0.503
515.000	334.075	80.016	19.996	103.790	19.862	5.721	0.529
515.500	334.321	80.018	19.992	103.788	19.869	5.278	0.508
516.000	334.595	80.006	19.994	103.791	19.866	5.449	0.506
516.500	334.837	80.017	19.994	103.792	19.864	5.603	0.518
517.000	335.063	80.019	19.993	103.796	19.863	5.682	0.492
517.500	335.333	80.008	19.993	103.799	19.867	5.397	0.482
518.000	335.550	80.010	19.992	103.803	19.865	5.563	0.491
518.500	335.803	80.019	19.991	103.802	19.862	5.731	0.479
519.000	336.039	80.008	19.993	103.799	19.861	5.835	0.480
519.500	336.247	80.002	19.996	103.799	19.867	5.374	0.466
520.000	336.517	80.006	19.995	103.794	19.866	5.492	0.461
520.500	336.738	80.012	19.992	103.793	19.868	5.295	0.485
521.000	336.985	79.999	19.993	103.793	19.867	5.355	0.480
521.500	337.238	80.004	19.994	103.795	19.866	5.457	0.484
522.000	337.496	80.008	19.994	103.795	19.865	5.562	0.505
522.500	337.715	80.008	19.993	103.797	19.866	5.440	0.494
523.000	337.987	80.009	19.992	103.797	19.870	5.198	0.484
523.500	338.234	80.007	19.993	103.794	19.865	5.559	0.505
524.000	338.467	80.007	19.993	103.791	19.867	5.397	0.499
524.500	338.754	80.009	19.994	103.794	19.867	5.416	0.500
525.000	338.943	80.002	19.992	103.802	19.867	5.371	0.498
525.500	339.196	80.003	19.994	103.808	19.863	5.708	0.460
526.000	339.467	80.007	19.994	103.809	19.865	5.567	0.484
526.500	339.712	80.006	19.994	103.812	19.861	5.851	0.520
527.000	339.953	80.005	19.994	103.813	19.859	5.937	0.500
527.500	340.164	80.005	19.994	103.809	19.865	5.503	0.469
528.000	340.446	80.005	19.994	103.811	19.861	5.821	0.473
528.500	340.682	80.013	19.994	103.817	19.865	5.515	0.505
529.000	340.940	80.009	19.994	103.823	19.865	5.522	0.506
529.500	341.217	80.014	19.993	103.825	19.863	5.712	0.515
530.000	341.440	80.001	19.996	103.826	19.866	5.428	0.518
530.500	341.689	80.000	19.995	103.820	19.865	5.542	0.486
531.000	341.926	80.003	19.995	103.811	19.865	5.503	0.479
531.500	342.212	80.005	19.994	103.805	19.867	5.411	0.504
532.000	342.446	80.017	19.994	103.806	19.863	5.682	0.521
532.500	342.685	80.015	19.993	103.803	19.859	5.950	0.497
533.000	342.935	80.002	19.994	103.806	19.860	5.903	0.481
533.500	343.179	80.006	19.995	103.812	19.860	5.877	0.491
534.000	343.474	80.009	19.993	103.813	19.861	5.803	0.517
534.500	343.696	80.006	19.994	103.810	19.862	5.765	0.528
535.000	343.929	80.014	19.993	103.810	19.860	5.880	0.486
535.500	344.198	80.004	19.993	103.814	19.857	6.099	0.479
536.000	344.464	80.002	19.994	103.815	19.864	5.591	0.519
536.500	344.752	80.014	19.993	103.820	19.863	5.686	0.544
537.000	344.989	80.011	19.994	103.823	19.860	5.893	0.539
537.500	345.211	79.998	19.994	103.831	19.863	5.713	0.492
538.000	345.488	80.004	19.996	103.830	19.858	6.066	0.479
538.500	345.754	80.012	19.995	103.831	19.858	6.076	0.521
539.000	345.995	80.010	19.992	103.827	19.859	5.961	0.525
539.500	346.253	80.016	19.992	103.826	19.866	5.493	0.503
540.000	346.508	80.002	19.993	103.825	19.862	5.719	0.506
540.500	346.786	80.004	19.994	103.825	19.859	5.967	0.523
541.000	346.980	80.008	19.994	103.823	19.863	5.686	0.502
541.500	347.277	80.005	19.991	103.821	19.859	6.000	0.481
542.000	347.569	80.000	19.994	103.822	19.858	6.060	0.540
542.500	347.770	80.006	19.993	103.820	19.859	5.949	0.541
543.000	348.037	80.010	19.993	103.818	19.861	5.812	0.481
543.500	348.335	80.013	19.992	103.821	19.863	5.688	0.517
544.000	348.590	80.004	19.993	103.824	19.859	5.986	0.559
544.500	348.894	80.002	19.994	103.821	19.860	5.864	0.556
545.000	349.126	80.015	19.993	103.822	19.860	5.917	0.548
545.500	349.341	80.009	19.993	103.828	19.855	6.223	0.491
546.000	349.629	80.014	19.994	103.830	19.859	5.944	0.475
546.500	349.896	80.001	19.994	103.830	19.856	6.203	0.529
547.000	350.133	80.007	19.992	103.832	19.861	5.814	0.530
547.500	350.390	80.011	19.993	103.829	19.860	5.921	0.499
548.000	350.651	80.012	19.994	103.820	19.857	6.088	0.506
548.500	350.908	80.011	19.992	103.812	19.858	6.032	0.518
549.000	351.123	80.006	19.994	103.812	19.856	6.198	0.495
549.500	351.392	80.015	19.992	103.809	19.856	6.208	0.478
550.000	351.669	80.018	19.992	103.812	19.860	5.894	0.515
550.500	351.893	80.001	19.994	103.818	19.860	5.878	0.524
551.000	352.182	79.998	19.997	103.822	19.856	6.163	0.507
551.500	352.449	80.014	19.994	103.818	19.857	6.136	0.534
552.000	352.729	80.016	19.993	103.819	19.856	6.167	0.551
552.500	352.990	80.013	19.992	103.818	19.858	6.034	0.544
553.000	353.242	79.999	19.993	103.811	19.856	6.167	0.527
553.500	353.515	80.003	19.995	103.808	19.855	6.235	0.520
554.000	353.763	80.008	19.993	103.810	19.860	5.888	0.523
554.500	354.055	80.005	19.993	103.812	19.852	6.456	0.530
555.000	354.300	80.006	19.994	103.813	19.856	6.208	0.538
555.500	354.588	80.006	19.993	103.820	19.857	6.139	0.535
556.000	354.851	80.005	19.994	103.823	19.858	6.075	0.542
556.500	355.087	79.987	19.995	103.823	19.857	6.128	0.525
557.000	355.351	80.011	19.993	103.816	19.853	6.407	0.499
557.500	355.615	80.006	19.993	103.810	19.852	6.452	0.514
558.000	355.887	79.999	19.996	103.803	19.852	6.458	0.532
558.500	356.151	80.004	19.994	103.793	19.859	5.951	0.537
559.000	356.357	80.001	19.994	103.790	19.859	5.945	0.504
559.500	356.616	79.995	19.997	103.793	19.860	5.932	0.467
560.000	356.885	80.012	19.993	103.792	19.857	6.095	0.496
560.500	357.141	80.004	19.994	103.796	19.855	6.255	0.526
561.000	357.419	80.012	19.993	103.803	19.852	6.443	0.530
561.500	357.695	79.999	19.996	103.804	19.857	6.144	0.544
562.000	357.946	80.004	19.995	103.800	19.859	5.987	0.541
562.500	358.225	80.008	19.994	103.799	19.852	6.474	0.529
563.000	358.469	80.006	19.995	103.796	19.848	6.762	0.527
563.500	358.742	80.008	19.995	103.796	19.855	6.284	0.520
564.000	358.963	80.015	19.995	103.799	19.854	6.356	0.505
564.500	359.259	80.014	19.997	103.800	19.855	6.280	0.505
565.000	359.494	80.011	19.994	103.797	19.854	6.366	0.524
565.500	359.777	80.004	19.996	103.796	19.853	6.376	0.525
566.000	359.984	80.003	19.996	103.793	19.851	6.546	0.504
566.500	360.289	80.000	19.996	103.787	19.854	6.333	0.501
567.000	360.542	80.010	19.995	103.788	19.850	6.606	0.535
567.500	360.810	80.009	19.994	103.791	19.849	6.698	0.540
568.000	361.051	80.012	19.993	103.795	19.850	6.606	0.515
568.500	361.284	80.011	19.994	103.801	19.845	6.957	0.491
569.000	361.606	80.002	19.994	103.806	19.851	6.580	0.514
569.500	361.839	80.019	19.992	103.807	19.848	6.734	0.555
570.000	362.106	80.016	19.996	103.815	19.850	6.613	0.528
570.500	362.359	80.008	19.995	103.811	19.845	6.949	0.510
571.000	362.605	80.008	19.994	103.809	19.849	6.676	0.510
571.500	362.877	80.009	19.993	103.805	19.845	6.972	0.508
572.000	363.132	80.006	19.992	103.803	19.844	7.075	0.522
572.500	363.432	80.012	19.995	103.797	19.848	6.782	0.541
573.000	363.643	80.014	19.993	103.800	19.843	7.157	0.533
573.500	363.947	80.022	19.993	103.806	19.846	6.893	0.513
574.000	364.185	80.009	19.994	103.814	19.845	6.951	0.528
574.500	364.462	80.007	19.994	103.820	19.844	7.045	0.528
575.000	364.689	80.015	19.992	103.827	19.846	6.923	0.510
575.500	364.966	80.023	19.991	103.831	19.845	7.002	0.504
576.000	365.192	80.010	19.994	103.832	19.848	6.760	0.504
576.500	365.475	80.001	19.994	103.828	19.842	7.182	0.506
577.000	365.705	80.012	19.993	103.830	19.843	7.151	0.510
577.500	365.992	80.004	19.993	103.829	19.843	7.139	0.515
578.000	366.244	80.011	19.994	103.828	19.845	7.005	0.529
578.500	366.485	80.000	19.994	103.826	19.842	7.231	0.516
579.000	366.748	79.989	19.996	103.828	19.846	6.883	0.498
579.500	367.032	80.011	19.994	103.824	19.840	7.325	0.525
580.000	367.232	80.001	19.997	103.822	19.841	7.289	0.515
580.500	367.533	80.010	19.995	103.813	19.844	7.027	0.493
581.000	367.771	80.011	19.994	103.812	19.840	7.362	0.520
581.500	368.049	80.009	19.994	103.812	19.840	7.331	0.527
582.000	368.272	80.004	19.995	103.815	19.841	7.287	0.509
582.500	368.550	79.994	19.993	103.813	19.837	7.587	0.501
583.000	368.826	80.004	19.994	103.822	19.838	7.465	0.527
583.500	369.035	80.002	19.995	103.824	19.840	7.340	0.519
584.000	369.323	80.000	19.995	103.823	19.833	7.820	0.491
584.500	369.592	80.008	19.993	103.821	19.832	7.897	0.527
585.000	369.830	80.006	19.994	103.819	19.831	8.009	0.532
585.500	370.055	80.003	19.996	103.816	19.829	8.120	0.485
586.000	370.408	80.009	19.995	103.812	19.833	7.841	0.521
586.500	370.633	80.022	19.995	103.813	19.832	7.908	0.578
587.000	370.871	80.017	19.996	103.817	19.827	8.273	0.520
587.500	371.148	80.003	19.997	103.820	19.831	7.992	0.489
588.000	371.367	80.004	19.996	103.823	19.826	8.361	0.506
588.500	371.628	80.011	19.995	103.829	19.824	8.511	0.488
589.000	371.918	80.013	19.996	103.830	19.823	8.586	0.515
589.500	372.125	80.014	19.997	103.829	19.825	8.437	0.523
590.000	372.431	80.009	19.995	103.827	19.823	8.571	0.505
590.500	372.718	80.012	19.994	103.827	19.824	8.479	0.553
591.000	372.921	80.008	19.995	103.822	19.817	9.039	0.542
591.500	373.191	80.010	19.995	103.815	19.822	8.660	0.482
592.000	373.454	80.015	19.996	103.805	19.815	9.143	0.503
592.500	373.742	80.012	19.996	103.799	19.817	8.982	0.542
593.000	374.007	80.008	19.996	103.789	19.819	8.833	0.552
593.500	374.237	80.007	19.993	103.786	19.815	9.154	0.524
594.000	374.531	80.002	19.994	103.791	19.815	9.162	0.510
594.500	374.754	80.004	19.995	103.796	19.815	9.159	0.520
595.000	375.024	80.007	19.994	103.798	19.815	9.120	0.505
595.500	375.303	80.008	19.993	103.804	19.813	9.262	0.521
596.000	375.529	80.003	19.995	103.811	19.812	9.368	0.527
596.500	375.783	80.007	19.994	103.813	19.814	9.203	0.492
597.000	376.049	80.004	19.997	103.816	19.815	9.143	0.500
597.500	376.343	80.006	19.993	103.815	19.807	9.695	0.540
598.000	376.572	80.006	19.994	103.815	19.810	9.510	0.542
598.500	376.816	80.002	19.994	103.813	19.806	9.775	0.498
599.000	377.097	80.021	19.992	103.814	19.808	9.681	0.499
599.500	377.305	79.996	19.996	103.816	19.806	9.769	0.507
600.000	377.580	80.001	19.994	103.820	19.806	9.814	0.486
600.500	377.843	80.009	19.995	103.816	19.803	9.986	0.511
601.000	378.113	80.011	19.993	103.810	19.793	10.761	0.535
601.500	378.363	80.018	19.993	103.804	19.802	10.121	0.526
602.000	378.583	80.009	19.994	103.802	19.798	10.362	0.495
602.500	378.803	80.003	19.996	103.804	19.794	10.696	0.455
603.000	379.084	80.017	19.991	103.805	19.795	10.631	0.471
603.500	379.380	80.002	19.997	103.815	19.794	10.684	0.539
604.000	379.641	80.006	19.992	103.817	19.790	10.979	0.567
604.500	379.915	80.017	19.994	103.822	19.791	10.915	0.546
605.000	380.137	80.005	19.996	103.827	19.791	10.923	0.516
605.500	380.442	80.005	19.994	103.833	19.787	11.148	0.512
606.000	380.665	80.008	19.993	103.832	19.788	11.091	0.527
606.500	380.945	80.001	19.993	103.830	19.788	11.106	0.515
607.000	381.189	80.005	19.995	103.829	19.783	11.489	0.514
607.500	381.453	80.001	19.994	103.826	19.787	11.182	0.516
608.000	381.697	80.000	19.993	103.825	19.785	11.316	0.507
608.500	381.960	80.009	19.994	103.824	19.784	11.371	0.508
609.000	382.235	80.004	19.994	103.828	19.777	11.864	0.523
609.500	382.501	80.008	19.993	103.826	19.775	12.071	0.540
610.000	382.719	80.000	19.995	103.824	19.774	12.093	0.513
610.500	383.017	80.020	19.994	103.821	19.773	12.161	0.500
611.000	383.267	80.008	19.992	103.822	19.770	12.434	0.532
611.500	383.533	79.996	19.994	103.824	19.771	12.366	0.532
612.000	383.784	80.002	19.994	103.824	19.769	12.501	0.517
612.500	384.038	80.008	19.992	103.825	19.766	12.721	0.511
613.000	384.280	80.007	19.993	103.830	19.767	12.626	0.500
613.500	384.578	80.017	19.992	103.830	19.762	13.001	0.518
614.000	384.801	80.008	19.992	103.831	19.760	13.118	0.531
614.500	385.039	80.012	19.991	103.832	19.761	13.024	0.491
615.000	385.331	79.997	19.994	103.837	19.757	13.325	0.495
615.500	385.594	80.009	19.993	103.837	19.753	13.630	0.542
616.000	385.856	80.013	19.992	103.839	19.755	13.511	0.540
616.500	386.085	80.005	19.994	103.840	19.751	13.817	0.508
617.000	386.353	80.006	19.993	103.838	19.748	13.969	0.493
617.500	386.553	80.003	19.993	103.836	19.747	14.077	0.482
618.000	386.828	80.007	19.993	103.833	19.746	14.136	0.472
618.500	387.099	80.016	19.994	103.832	19.741	14.472	0.511
619.000	387.348	79.999	19.994	103.830	19.738	14.688	0.533
619.500	387.627	80.006	19.994	103.832	19.737	14.822	0.524
620.000	387.860	80.003	19.995	103.835	19.736	14.834	0.520
620.500	388.132	80.009	19.993	103.837	19.734	15.035	0.509
621.000	388.393	79.999	19.995	103.837	19.733	15.104	0.519
621.500	388.656	80.012	19.993	103.836	19.733	15.053	0.528
622.000	388.946	80.012	19.994	103.836	19.724	15.742	0.539
622.500	389.179	80.001	19.994	103.835	19.727	15.490	0.538
623.000	389.413	80.007	19.993	103.839	19.726	15.615	0.495
623.500	389.663	80.006	19.992	103.837	19.719	16.080	0.475
624.000	389.917	80.007	19.993	103.840	19.720	16.016	0.494
624.500	390.177	80.007	19.992	103.840	19.717	16.222	0.509
625.000	390.415	80.007	19.995	103.839	19.716	16.299	0.506
625.500	390.667	80.010	19.993	103.836	19.712	16.586	0.494
626.000	390.921	80.003	19.994	103.837	19.711	16.688	0.498
626.500	391.187	80.009	19.993	103.841	19.707	16.980	0.513
627.000	391.447	80.009	19.994	103.845	19.703	17.267	0.523
627.500	391.661	80.005	19.993	103.849	19.701	17.375	0.500
628.000	391.950	80.008	19.993	103.852	19.700	17.488	0.488
628.500	392.179	80.012	19.993	103.855	19.695	17.850	0.510
629.000	392.453	80.017	19.992	103.855	19.690	18.173	0.510
629.500	392.694	80.006	19.993	103.856	19.688	18.341	0.509
630.000	392.984	80.008	19.994	103.854	19.686	18.469	0.523
630.500	393.212	80.011	19.994	103.858	19.681	18.850	0.524
631.000	393.500	80.009	19.993	103.860	19.680	18.928	0.517
631.500	393.741	80.007	19.994	103.862	19.677	19.166	0.523
632.000	393.997	80.007	19.994	103.862	19.677	19.153	0.513
632.500	394.245	80.010	19.993	103.862	19.676	19.194	0.501
633.000	394.491	80.008	19.993	103.861	19.669	19.721	0.499
633.500	394.754	80.010	19.994	103.861	19.666	19.961	0.502
634.000	395.017	80.005	19.994	103.861	19.664	20.084	0.518
634.500	395.288	80.010	19.992	103.862	19.663	20.161	0.530
635.000	395.524	80.000	19.994	103.862	19.655	20.706	0.521
635.500	395.806	80.006	19.992	103.858	19.654	20.777	0.513
636.000	396.030	80.008	19.993	103.858	19.650	21.096	0.512
636.500	396.318	80.012	19.993	103.858	19.646	21.380	0.509
637.000	396.540	80.008	19.993	103.861	19.642	21.646	0.511
637.500	396.785	80.001	19.994	103.865	19.640	21.805	0.488
638.000	397.064	80.011	19.994	103.869	19.633	22.354	0.495
638.500	397.294	80.001	19.994	103.870	19.629	22.629	0.516
639.000	397.582	80.012	19.994	103.868	19.622	23.146	0.513
639.500	397.807	80.009	19.994	103.871	19.620	23.283	0.516
640.000	398.067	80.009	19.994	103.874	19.614	23.730	0.499
640.500	398.329	80.007	19.994	103.877	19.611	23.943	0.503
641.000	398.601	80.004	19.995	103.879	19.609	24.047	0.528
641.500	398.832	80.008	19.994	103.880	19.604	24.393	0.518
642.000	399.061	80.012	19.994	103.879	19.597	24.901	0.482
642.500	399.314	80.009	19.994	103.879	19.598	24.877	0.471
643.000	399.547	80.006	19.994	103.880	19.595	25.066	0.484
643.500	399.820	80.011	19.994	103.884	19.586	25.741	0.496
644.000	400.056	80.008	19.994	103.891	19.580	26.183	0.508
644.500	400.308	80.006	19.994	103.896	19.581	26.062	0.498
645.000	400.550	80.011	19.992	103.899	19.573	26.652	0.490
645.500	400.798	80.000	19.995	103.902	19.568	27.052	0.492
646.000	401.048	80.014	19.993	103.903	19.563	27.427	0.494
646.500	401.287	80.021	19.994	103.903	19.556	27.893	0.493
647.000	401.620	80.007	19.993	103.904	19.553	28.122	0.530
647.500	401.827	80.011	19.993	103.908	19.550	28.347	0.556
648.000	402.105	80.008	19.994	103.909	19.544	28.808	0.513
648.500	402.345	80.008	19.992	103.912	19.537	29.292	0.502
649.000	402.593	80.010	19.993	103.911	19.530	29.768	0.503
649.500	402.849	80.015	19.992	103.911	19.521	30.442	0.496
650.000	403.092	80.006	19.995	103.907	19.517	30.704	0.502
650.500	403.404	80.020	19.994	103.905	19.509	31.294	0.527
651.000	403.673	80.015	19.994	103.906	19.502	31.842	0.568
651.500	403.914	80.011	19.994	103.912	19.499	32.035	0.545
652.000	404.170	80.008	19.995	103.914	19.490	32.681	0.503
652.500	404.426	80.009	19.994	103.914	19.487	32.924	0.504
653.000	404.639	80.012	19.994	103.916	19.482	33.289	0.490
653.500	404.924	80.012	19.994	103.914	19.477	33.667	0.483
654.000	405.152	79.994	19.994	103.909	19.474	33.864	0.505
654.500	405.423	80.012	19.991	103.906	19.466	34.470	0.506
655.000	405.648	80.007	19.995	103.908	19.464	34.590	0.498
655.500	405.931	80.008	19.993	103.907	19.461	34.782	0.503
656.000	406.196	80.011	19.994	103.908	19.459	34.974	0.528
656.500	406.436	80.008	19.992	103.906	19.454	35.326	0.526
657.000	406.712	80.010	19.993	103.909	19.449	35.643	0.511
657.500	406.943	80.008	19.995	103.912	19.443	36.086	0.512
658.000	407.227	80.001	19.994	103.915	19.437	36.529	0.511
658.500	407.459	80.012	19.993	103.917	19.437	36.547	0.515
659.000	407.718	80.009	19.994	103.923	19.432	36.886	0.503
659.500	407.966	80.004	19.994	103.928	19.424	37.465	0.499
660.000	408.240	80.010	19.995	103.932	19.419	37.868	0.514
660.500	408.480	80.009	19.994	103.942	19.418	37.945	0.518
661.000	408.708	80.013	19.993	103.955	19.411	38.421	0.491
661.500	408.977	80.009	19.993	103.966	19.407	38.717	0.483
662.000	409.234	80.007	19.994	103.974	19.399	39.289	0.511
662.500	409.503	80.003	19.994	103.980	19.389	39.992	0.526
663.000	409.740	79.997	19.995	103.983	19.388	40.101	0.516
663.500	410.000	80.003	19.995	103.983	19.379	40.740	0.502
664.000	410.251	80.008	19.992	103.981	19.376	40.975	0.504
664.500	410.529	80.007	19.997	103.981	19.370	41.379	0.520
665.000	410.797	80.003	19.996	103.982	19.361	42.078	0.538
665.500	411.030	80.021	19.994	103.981	19.354	42.591	0.524
666.000	411.249	80.016	19.994	103.982	19.344	43.298	0.476
666.500	411.562	80.008	19.993	103.983	19.341	43.518	0.491
667.000	411.804	80.008	19.994	103.984	19.335	43.937	0.544
667.500	412.057	80.005	19.995	103.984	19.328	44.486	0.525
668.000	412.286	80.011	19.992	103.986	19.321	44.982	0.488
668.500	412.568	80.016	19.992	103.987	19.314	45.497	0.496
669.000	412.787	79.994	19.996	103.991	19.308	45.887	0.506
669.500	413.057	80.006	19.993	103.987	19.300	46.525	0.495
670.000	413.320	80.010	19.993	103.988	19.292	47.084	0.511
670.500	413.573	80.010	19.993	103.990	19.284	47.651	0.524
671.000	413.796	80.007	19.995	103.989	19.277	48.159	0.496
671.500	414.059	80.004	19.994	103.986	19.267	48.886	0.481
672.000	414.259	80.006	19.994	103.997	19.260	49.390	0.474
672.500	414.525	80.010	19.994	104.004	19.249	50.198	0.464
673.000	414.788	79.999	19.995	104.011	19.241	50.777	0.498
673.500	415.047	80.012	19.994	104.019	19.230	51.609	0.526
674.000	415.305	80.007	19.994	104.029	19.222	52.180	0.519
674.500	415.538	80.009	19.994	104.031	19.213	52.853	0.504
675.000	415.812	80.016	19.993	104.035	19.204	53.486	0.499
675.500	416.079	80.008	19.994	104.039	19.192	54.348	0.525
676.000	416.302	80.005	19.994	104.040	19.183	54.981	0.516
676.500	416.576	80.005	19.994	104.040	19.170	55.935	0.493
677.000	416.824	80.002	19.994	104.046	19.161	56.582	0.509
677.500	417.070	80.006	19.994	104.049	19.154	57.128	0.508
678.000	417.361	80.015	19.994	104.054	19.142	57.992	0.516
678.500	417.586	80.006	19.995	104.060	19.132	58.700	0.526
679.000	417.818	79.999	19.995	104.063	19.124	59.325	0.486
679.500	418.039	80.004	19.994	104.064	19.110	60.292	0.455
680.000	418.270	79.999	19.994	104.064	19.100	61.020	0.452
680.500	418.580	80.007	19.993	104.060	19.087	62.016	0.496
681.000	418.778	80.003	19.993	104.060	19.072	63.087	0.525
681.500	419.028	80.012	19.993	104.062	19.064	63.684	0.478
682.000	419.287	80.004	19.994	104.069	19.049	64.788	0.479
682.500	419.553	80.006	19.993	104.078	19.035	65.763	0.517
683.000	419.781	80.004	19.994	104.096	19.021	66.786	0.510
683.500	420.046	80.000	19.995	104.108	19.012	67.454	0.494
684.000	420.288	80.006	19.995	104.115	18.999	68.388	0.500
684.500	420.545	80.007	19.995	104.118	18.990	69.082	0.503
685.000	420.748	80.004	19.995	104.121	18.973	70.276	0.480
685.500	421.055	80.013	19.995	104.115	18.963	70.988	0.485
686.000	421.287	80.006	19.993	104.116	18.953	71.784	0.524
686.500	421.567	80.014	19.994	104.124	18.937	72.915	0.525
687.000	421.816	80.005	19.995	104.132	18.924	73.894	0.520
687.500	422.049	80.004	19.994	104.136	18.910	74.891	0.506
688.000	422.285	80.009	19.994	104.145	18.897	75.803	0.475
688.500	422.574	80.007	19.994	104.148	18.882	76.893	0.497
689.000	422.803	80.005	19.994	104.148	18.866	78.101	0.522
689.500	423.031	80.006	19.995	104.147	18.854	78.948	0.488
690.000	423.280	80.008	19.994	104.147	18.841	79.905	0.467
690.500	423.523	80.006	19.995	104.149	18.825	81.069	0.485
691.000	423.795	80.008	19.994	104.155	18.813	82.003	0.504
691.500	424.045	80.009	19.994	104.162	18.799	82.993	0.519
692.000	424.340	80.008	19.994	104.171	18.778	84.507	0.533
692.500	424.549	80.008	19.995	104.177	18.769	85.181	0.524
693.000	424.790	80.006	19.995	104.181	18.750	86.587	0.477
693.500	425.057	80.008	19.994	104.186	18.735	87.678	0.479
694.000	425.340	80.008	19.996	104.193	18.719	88.866	0.529
694.500	425.574	80.011	19.994	104.198	18.709	89.585	0.534
695.000	425.830	80.007	19.994	104.207	18.693	90.723	0.503
695.500	426.062	80.008	19.995	104.213	18.678	91.795	0.488
696.000	426.315	80.009	19.994	104.215	18.664	92.818	0.486
696.500	426.582	80.008	19.995	104.216	18.648	94.003	0.503
697.000	426.796	80.006	19.994	104.217	18.633	95.106	0.501
697.500	427.059	80.008	19.994	104.219	18.617	96.269	0.479
698.000	427.331	80.006	19.995	104.223	18.600	97.567	0.506
698.500	427.610	80.007	19.993	104.228	18.584	98.733	0.543
699.000	427.854	80.007	19.995	104.237	18.568	99.896	0.537
699.500	428.096	80.008	19.993	104.245	18.549	101.268	0.504
700.000	428.338	80.006	19.994	104.255	18.535	102.305	0.485
700.500	428.583	80.005	19.993	104.268	18.513	103.874	0.486
701.000	428.831	80.007	19.993	104.278	18.496	105.137	0.490
701.500	429.060	80.007	19.994	104.285	18.479	106.349	0.485
702.000	429.352	80.007	19.994	104.293	18.465	107.418	0.499
702.500	429.581	80.004	19.994	104.299	18.446	108.814	0.521
703.000	429.852	80.007	19.994	104.306	18.431	109.846	0.510
703.500	430.089	80.009	19.994	104.315	18.408	111.512	0.504
704.000	430.345	80.007	19.994	104.324	18.395	112.496	0.501
704.500	430.554	80.006	19.994	104.331	18.370	114.304	0.479
705.000	430.837	80.007	19.993	104.336	18.348	115.949	0.478
705.500	431.098	80.007	19.994	104.337	18.328	117.443	0.518
706.000	431.364	80.006	19.994	104.337	18.301	119.396	0.535
706.500	431.581	80.006	19.995	104.337	18.275	121.321	0.505
707.000	431.848	80.007	19.995	104.352	18.253	122.928	0.484
707.500	432.132	80.006	19.994	104.373	18.228	124.766	0.517
708.000	432.406	80.007	19.994	104.384	18.208	126.174	0.554
708.500	432.629	80.007	19.994	104.393	18.186	127.806	0.528
709.000	432.899	80.007	19.994	104.410	18.163	129.493	0.495
709.500	433.115	80.006	19.993	104.417	18.138	131.273	0.489
710.000	433.385	80.007	19.993	104.420	18.116	132.926	0.486
710.500	433.607	80.007	19.993	104.430	18.094	134.551	0.489
711.000	433.948	80.008	19.993	104.436	18.070	136.281	0.527
711.500	434.165	80.006	19.993	104.435	18.045	138.173	0.560
712.000	434.385	80.007	19.994	104.433	18.020	140.015	0.498
712.500	434.638	80.007	19.995	104.435	17.995	141.804	0.455
713.000	434.921	80.008	19.993	104.437	17.972	143.517	0.505
713.500	435.167	80.007	19.994	104.441	17.948	145.256	0.533
714.000	435.410	80.009	19.994	104.441	17.924	147.005	0.509
714.500	435.646	80.009	19.993	104.440	17.900	148.740	0.484
715.000	435.885	80.008	19.994	104.441	17.872	150.773	0.477
715.500	436.146	80.008	19.994	104.451	17.851	152.313	0.488
716.000	436.397	80.007	19.994	104.470	17.829	153.912	0.506
716.500	436.648	80.008	19.994	104.493	17.811	155.241	0.507
717.000	436.889	80.009	19.994	104.513	17.790	156.759	0.497
717.500	437.147	80.009	19.994	104.525	17.769	158.280	0.496
718.000	437.367	80.011	19.994	104.531	17.753	159.442	0.488
718.500	437.662	80.007	19.994	104.532	17.730	161.084	0.497
719.000	437.888	80.010	19.994	104.527	17.713	162.337	0.519
719.500	438.156	80.010	19.993	104.527	17.689	164.088	0.508
720.000	438.377	80.009	19.993	104.527	17.668	165.697	0.491
720.500	438.627	80.010	19.993	104.529	17.643	167.482	0.479
721.000	438.884	80.007	19.993	104.538	17.620	169.193	0.489
721.500	439.112	80.008	19.994	104.553	17.597	170.935	0.496
722.000	439.451	80.008	19.993	104.565	17.575	172.558	0.526
722.500	439.637	80.011	19.994	104.586	17.558	173.814	0.546
723.000	439.929	80.009	19.995	104.606	17.542	174.960	0.501
723.500	440.170	80.010	19.994	104.613	17.524	176.265	0.505
724.000	440.416	80.007	19.995	104.617	17.509	177.393	0.510
724.500	440.697	80.008	19.995	104.622	17.489	178.851	0.507
725.000	440.937	80.009	19.996	104.625	17.486	179.074	0.524
725.500	441.201	80.008	19.995	104.626	17.466	180.554	0.513
726.000	441.453	80.008	19.995	104.630	17.460	181.010	0.510
726.500	441.713	80.009	19.994	104.632	17.442	182.284	0.514
727.000	441.936	80.009	19.993	104.632	17.431	183.102	0.497
727.500	442.208	80.009	19.996	104.625	17.422	183.807	0.489
728.000	442.438	80.006	19.994	104.617	17.407	184.875	0.499
728.500	442.719	80.009	19.993	104.613	17.399	185.448	0.507
729.000	442.910	80.008	19.994	104.612	17.395	185.741	0.491
729.500	443.183	80.007	19.995	104.610	17.384	186.597	0.468
730.000	443.474	80.009	19.995	104.607	17.377	187.107	0.514
730.500	443.710	80.005	19.995	104.614	17.370	187.583	0.545
731.000	443.987	80.009	19.994	104.626	17.364	188.025	0.520
731.500	444.217	80.009	19.991	104.642	17.358	188.428	0.510
732.000	444.474	80.007	19.994	104.660	17.352	188.862	0.497
732.500	444.708	80.003	19.994	104.679	17.349	189.080	0.489
733.000	445.053	80.009	19.993	104.692	17.343	189.513	0.535
733.500	445.233	80.008	19.993	104.697	17.338	189.885	0.552
734.000	445.454	80.009	19.994	104.701	17.334	190.151	0.463
734.500	445.751	80.009	19.993	104.700	17.331	190.400	0.459
735.000	446.037	80.010	19.993	104.702	17.326	190.749	0.551
735.500	446.165	80.007	19.993	104.701	17.320	191.226	0.499
736.000	446.437	80.007	19.994	104.705	17.321	191.160	0.407
736.500	446.745	80.009	19.993	104.709	17.310	191.907	0.490
737.000	447.063	80.007	19.993	104.717	17.314	191.659	0.603
737.500	447.135	80.011	19.993	104.721	17.305	192.254	0.508
738.000	447.568	80.007	19.994	104.729	17.304	192.327	0.447
738.500	447.604	80.010	19.994	104.732	17.302	192.459	0.487
739.000	448.437	80.012	19.994	104.734	17.297	192.842	0.670
739.500	448.291	80.008	19.994	104.738	17.296	192.902	0.778
740.000	448.514	80.009	19.994	104.744	17.295	192.983	0.381
740.500	448.756	80.009	19.994	104.749	17.287	193.565	0.271
741.000	448.922	80.009	19.992	104.749	17.288	193.501	0.437
741.500	449.327	80.010	19.993	104.747	17.286	193.598	0.490
742.000	449.400	80.012	19.993	104.744	17.286	193.575	0.524
742.500	449.730	80.011	19.991	104.740	17.284	193.762	0.440
743.000	449.994	80.007	19.992	104.734	17.283	193.813	0.498
743.500	450.347	80.010	19.993	104.733	17.282	193.866	0.606
744.000	450.487	80.010	19.992	104.732	17.285	193.664	0.555
744.500	450.714	80.010	19.992	104.731	17.282	193.822	0.430
745.000	451.000	80.010	19.993	104.731	17.286	193.518	0.440
745.500	451.299	80.010	19.993	104.729	17.287	193.463	0.549
746.000	451.566	80.007	19.993	104.727	17.289	193.321	0.576
746.500	451.827	80.011	19.993	104.726	17.292	193.063	0.547
747.000	452.025	80.011	19.993	104.726	17.297	192.668	0.493
747.500	452.261	80.007	19.993	104.725	17.303	192.228	0.446
748.000	452.555	80.010	19.994	104.722	17.309	191.772	0.482
748.500	452.743	80.008	19.994	104.719	17.314	191.415	0.507
749.000	453.072	80.008	19.993	104.713	17.323	190.725	0.500
749.500	453.280	80.010	19.995	104.705	17.329	190.302	0.527
750.000	453.554	80.010	19.994	104.699	17.338	189.665	0.510
750.500	453.801	80.008	19.995	104.695	17.345	189.130	0.501
751.000	454.060	80.011	19.995	104.693	17.356	188.311	0.513
751.500	454.260	80.005	19.996	104.692	17.367	187.495	0.482
752.000	454.612	80.010	19.995	104.692	17.379	186.642	0.505
752.500	454.786	80.009	19.993	104.692	17.390	185.828	0.539
753.000	455.053	80.010	19.993	104.688	17.405	184.666	0.484
753.500	455.358	80.008	19.994	104.684	17.414	184.027	0.507
754.000	455.558	80.007	19.993	104.679	17.432	182.689	0.539
754.500	455.789	80.009	19.993	104.672	17.447	181.611	0.468
755.000	456.129	80.008	19.993	104.665	17.463	180.392	0.501
755.500	456.381	80.007	19.993	104.661	17.478	179.273	0.581
756.000	456.579	80.007	19.995	104.657	17.496	177.980	0.521
756.500	456.841	80.007	19.994	104.648	17.513	176.696	0.455
757.000	457.120	80.009	19.994	104.641	17.533	175.219	0.501
757.500	457.352	80.008	19.994	104.636	17.550	173.944	0.526
758.000	457.581	80.007	19.995	104.629	17.571	172.459	0.486
758.500	457.868	80.008	19.995	104.621	17.593	170.811	0.488
759.000	458.103	80.006	19.994	104.617	17.613	169.318	0.519
759.500	458.332	80.006	19.995	104.612	17.635	167.752	0.493
760.000	458.706	80.009	19.994	104.604	17.658	166.052	0.534
760.500	458.897	80.010	19.995	104.599	17.685	164.044	0.584
761.000	459.156	80.006	19.995	104.595	17.703	162.771	0.507
761.500	459.383	80.007	19.993	104.590	17.731	160.719	0.468
762.000	459.666	80.009	19.994	104.585	17.753	159.097	0.498
762.500	459.941	80.006	19.997	104.578	17.781	157.078	0.534
763.000	460.203	80.007	19.993	104.569	17.810	154.937	0.548
763.500	460.466	80.007	19.996	104.556	17.836	152.999	0.531
764.000	460.714	80.008	19.994	104.548	17.860	151.264	0.518
764.500	460.980	80.006	19.995	104.540	17.886	149.362	0.512
765.000	461.199	80.008	19.995	104.529	17.913	147.387	0.499
765.500	461.476	80.009	19.994	104.520	17.938	145.525	0.491
766.000	461.745	80.007	19.995	104.508	17.970	143.201	0.521
766.500	461.984	80.007	19.993	104.495	17.995	141.361	0.527
767.000	462.222	80.009	19.995	104.482	18.026	139.063	0.493
767.500	462.482	80.008	19.994	104.471	18.053	137.128	0.487
768.000	462.745	80.006	19.995	104.463	18.080	135.168	0.510
768.500	463.036	80.007	19.994	104.457	18.108	133.083	0.539
769.000	463.274	80.004	19.995	104.450	18.139	130.840	0.541
769.500	463.524	80.007	19.994	104.439	18.169	128.672	0.508
770.000	463.802	80.006	19.994	104.431	18.194	126.849	0.508
770.500	464.033	80.008	19.995	104.420	18.226	124.516	0.518
771.000	464.347	80.009	19.994	104.405	18.257	122.290	0.527
771.500	464.577	80.008	19.993	104.395	18.288	120.045	0.545
772.000	464.844	80.008	19.992	104.387	18.315	118.066	0.521
772.500	465.080	80.008	19.990	104.381	18.354	115.229	0.500
773.000	465.303	80.008	19.993	104.376	18.383	113.124	0.481
773.500	465.563	80.002	19.991	104.372	18.414	110.864	0.471
774.000	465.839	80.009	19.994	104.365	18.439	108.986	0.509
774.500	466.118	80.007	19.993	104.352	18.478	106.194	0.545
775.000	466.390	80.007	19.995	104.337	18.507	104.030	0.553
775.500	466.655	80.007	19.994	104.323	18.544	101.402	0.544
776.000	466.879	80.008	19.994	104.310	18.574	99.166	0.513
776.500	467.154	80.007	19.996	104.297	18.599	97.374	0.494
777.000	467.427	80.008	19.994	104.286	18.634	94.819	0.524
777.500	467.653	80.008	19.994	104.277	18.668	92.346	0.524
778.000	467.902	80.007	19.994	104.269	18.698	90.150	0.487
778.500	468.164	80.008	19.995	104.259	18.729	87.869	0.493
779.000	468.441	80.005	19.994	104.249	18.757	85.865	0.525
779.500	468.716	80.010	19.993	104.241	18.784	83.869	0.546
780.000	468.959	80.008	19.994	104.233	18.815	81.629	0.535
780.500	469.201	80.010	19.993	104.225	18.846	79.431	0.501
781.000	469.461	80.011	19.994	104.220	18.873	77.449	0.493
781.500	469.680	80.009	19.996	104.218	18.901	75.437	0.490
782.000	469.942	80.007	19.994	104.219	18.925	73.676	0.480
782.500	470.237	80.005	19.996	104.217	18.951	71.758	0.519
783.000	470.477	80.009	19.992	104.212	18.974	70.111	0.546
783.500	470.718	80.004	19.997	104.204	18.996	68.493	0.508
784.000	470.981	80.006	19.996	104.196	19.024	66.494	0.493
784.500	471.233	80.005	19.996	104.187	19.044	65.030	0.509
785.000	471.489	80.009	19.995	104.177	19.065	63.500	0.511
785.500	471.775	80.010	19.995	104.169	19.088	61.829	0.525
786.000	472.062	80.006	19.995	104.162	19.107	60.475	0.558
786.500	472.279	80.010	19.994	104.152	19.129	58.846	0.539
787.000	472.571	80.007	19.995	104.142	19.148	57.459	0.506
787.500	472.793	80.007	19.995	104.136	19.166	56.198	0.511
788.000	473.091	80.005	19.999	104.124	19.181	55.044	0.517
788.500	473.348	80.008	19.994	104.113	19.204	53.442	0.537
789.000	473.619	80.007	19.996	104.101	19.218	52.425	0.542
789.500	473.896	80.007	19.995	104.090	19.235	51.152	0.538
790.000	474.165	80.007	19.994	104.077	19.251	50.015	0.547
790.500	474.405	80.005	19.994	104.069	19.268	48.737	0.527
791.000	474.685	80.007	19.995	104.064	19.282	47.733	0.514
791.500	474.944	80.008	19.993	104.064	19.295	46.822	0.530
792.000	475.193	80.008	19.995	104.062	19.312	45.607	0.524
792.500	475.462	80.008	19.994	104.059	19.322	44.820	0.513
793.000	475.728	80.006	19.996	104.054	19.337	43.763	0.526
793.500	475.994	80.007	19.994	104.046	19.348	42.989	0.533
794.000	476.279	80.007	19.995	104.038	19.361	42.008	0.541
794.500	476.539	80.006	19.993	104.029	19.373	41.147	0.548
795.000	476.738	80.008	19.995	104.018	19.385	40.291	0.502
795.500	477.008	80.006	19.995	104.011	19.396	39.514	0.464
796.000	477.250	80.003	19.995	104.003	19.406	38.735	0.490
796.500	477.561	80.007	19.993	103.996	19.415	38.081	0.532
797.000	477.784	80.004	19.994	103.992	19.427	37.222	0.544
797.500	478.041	80.008	19.989	103.990	19.439	36.355	0.507
798.000	478.308	80.009	19.995	103.986	19.448	35.727	0.502
798.500	478.578	80.009	19.993	103.986	19.456	35.125	0.531
799.000	478.870	80.006	19.991	103.985	19.465	34.517	0.550
799.500	479.104	80.007	19.993	103.984	19.476	33.718	0.544
800.000	479.346	80.005	19.995	103.985	19.482	33.239	0.501
800.500	479.584	80.009	19.991	103.981	19.489	32.719	0.478
801.000	479.836	80.011	19.995	103.975	19.498	32.068	0.484
801.500	480.113	80.008	19.992	103.969	19.505	31.608	0.510
802.000	480.341	80.010	19.991	103.962	19.517	30.695	0.517
802.500	480.611	80.014	19.993	103.955	19.521	30.402	0.501
803.000	480.888	80.010	19.992	103.954	19.526	30.070	0.522
803.500	481.134	80.009	19.993	103.950	19.534	29.507	0.535
804.000	481.409	80.009	19.994	103.948	19.540	29.053	0.522
804.500	481.662	80.013	19.989	103.948	19.546	28.627	0.524
805.000	481.875	80.011	19.995	103.948	19.551	28.255	0.497
805.500	482.164	80.012	19.996	103.946	19.559	27.691	0.484
806.000	482.429	80.009	19.995	103.949	19.563	27.392	0.528
806.500	482.674	80.008	19.993	103.944	19.571	26.829	0.533
807.000	482.901	80.010	19.993	103.938	19.574	26.613	0.491
807.500	483.166	80.008	19.994	103.930	19.578	26.286	0.482
808.000	483.437	80.009	19.997	103.926	19.588	25.583	0.514
808.500	483.749	80.010	19.991	103.918	19.588	25.563	0.559
809.000	483.965	80.010	19.991	103.916	19.598	24.846	0.555
809.500	484.216	80.008	19.993	103.916	19.600	24.700	0.498
810.000	484.491	80.008	19.995	103.914	19.607	24.186	0.496
810.500	484.751	80.003	19.995	103.911	19.607	24.218	0.531
811.000	484.987	80.008	19.993	103.911	19.615	23.632	0.515
811.500	485.262	80.004	19.999	103.910	19.620	23.237	0.503
812.000	485.517	80.014	19.992	103.908	19.625	22.874	0.521
812.500	485.755	80.013	19.995	103.907	19.631	22.443	0.511
813.000	486.020	80.008	19.993	103.907	19.631	22.450	0.498
813.500	486.311	80.007	19.996	103.905	19.636	22.137	0.530
814.000	486.560	80.008	19.997	103.899	19.635	22.195	0.548
814.500	486.796	80.007	19.994	103.897	19.643	21.583	0.512
815.000	487.022	80.011	19.995	103.898	19.649	21.165	0.473
815.500	487.298	80.012	19.990	103.897	19.647	21.276	0.482
816.000	487.536	80.011	19.992	103.895	19.653	20.872	0.508
816.500	487.826	80.011	19.992	103.896	19.658	20.479	0.521
817.000	488.067	80.010	19.992	103.895	19.661	20.326	0.529
817.500	488.321	80.006	19.992	103.890	19.663	20.178	0.513
818.000	488.563	80.011	19.991	103.883	19.665	20.026	0.495
818.500	488.827	80.004	19.998	103.880	19.672	19.461	0.501
819.000	489.062	80.010	19.991	103.877	19.672	19.520	0.502
819.500	489.324	80.009	19.994	103.873	19.675	19.311	0.498
820.000	489.631	80.010	19.991	103.872	19.681	18.822	0.533
820.500	489.850	80.009	19.992	103.874	19.682	18.776	0.548
821.000	490.091	80.009	19.991	103.873	19.685	18.533	0.494
821.500	490.385	80.010	19.993	103.875	19.690	18.198	0.498
822.000	490.620	80.011	19.994	103.876	19.689	18.264	0.532
822.500	490.873	80.009	19.992	103.876	19.692	18.053	0.508
823.000	491.132	80.007	19.997	103.876	19.693	18.004	0.500
823.500	491.389	80.009	19.992	103.873	19.697	17.673	0.514
824.000	491.665	80.009	19.992	103.869	19.702	17.291	0.525
824.500	491.885	80.009	19.991	103.864	19.703	17.219	0.514
825.000	492.177	80.012	19.989	103.864	19.706	17.051	0.504
825.500	492.416	80.006	19.996	103.863	19.708	16.904	0.522
826.000	492.657	80.006	19.992	103.862	19.711	16.699	0.506
826.500	492.935	80.011	19.995	103.861	19.712	16.628	0.500
827.000	493.161	80.008	20.000	103.863	19.712	16.579	0.511
827.500	493.409	80.007	20.005	103.857	19.717	16.240	0.489
828.000	493.694	80.008	19.993	103.854	19.719	16.070	0.503
828.500	493.934	80.008	19.997	103.856	19.719	16.091	0.529
829.000	494.173	80.010	19.997	103.858	19.723	15.816	0.502
829.500	494.460	80.013	19.995	103.858	19.727	15.522	0.503
830.000	494.718	80.012	19.990	103.860	19.728	15.441	0.536
830.500	494.981	80.017	19.993	103.861	19.729	15.402	0.533
831.000	495.250	80.014	19.992	103.857	19.731	15.221	0.526
831.500	495.482	80.010	19.995	103.852	19.733	15.096	0.517
832.000	495.752	80.012	19.996	103.846	19.737	14.803	0.501
832.500	496.006	80.009	19.991	103.843	19.736	14.873	0.512
833.000	496.274	80.010	19.985	103.838	19.736	14.890	0.523
833.500	496.561	80.009	19.993	103.837	19.738	14.699	0.539
834.000	496.756	80.008	19.995	103.837	19.739	14.646	0.519
834.500	497.028	80.009	19.994	103.840	19.737	14.771	0.475
835.000	497.249	80.010	19.991	103.838	19.744	14.317	0.480
835.500	497.537	80.009	19.991	103.836	19.746	14.108	0.501
836.000	497.788	80.006	19.992	103.834	19.746	14.171	0.523
836.500	498.033	80.010	19.992	103.833	19.748	13.999	0.517
837.000	498.265	80.013	19.994	103.831	19.748	14.025	0.487
837.500	498.478	80.009	19.995	103.831	19.751	13.769	0.462
838.000	498.789	80.012	19.992	103.830	19.750	13.880	0.485
838.500	499.042	80.007	19.993	103.831	19.754	13.523	0.543
839.000	499.263	80.007	19.995	103.833	19.753	13.619	0.519
839.500	499.582	80.010	19.992	103.831	19.757	13.374	0.507
840.000	499.825	80.009	19.991	103.833	19.757	13.359	0.551
840.500	500.066	80.005	19.993	103.835	19.764	12.873	0.523
841.000	500.310	80.011	19.990	103.834	19.760	13.157	0.485
841.500	500.588	80.012	19.994	103.833	19.763	12.903	0.503
842.000	500.800	80.005	19.993	103.834	19.759	13.184	0.506
842.500	501.078	80.011	19.991	103.832	19.762	12.968	0.490
843.000	501.310	80.009	19.994	103.832	19.761	13.075	0.500
843.500	501.600	80.007	19.995	103.832	19.763	12.893	0.516
844.000	501.837	80.007	19.997	103.830	19.766	12.668	0.525
844.500	502.098	80.005	19.999	103.830	19.769	12.476	0.513
845.000	502.355	80.011	19.996	103.829	19.766	12.654	0.508
845.500	502.588	80.005	19.996	103.828	19.769	12.486	0.504
846.000	502.885	80.009	19.998	103.825	19.770	12.397	0.510
846.500	503.121	80.008	19.995	103.826	19.768	12.516	0.532
847.000	503.394	80.008	19.992	103.826	19.772	12.267	0.521
847.500	503.629	80.008	19.997	103.824	19.767	12.596	0.508
848.000	503.882	80.006	19.991	103.816	19.769	12.461	0.498
848.500	504.142	80.010	19.990	103.815	19.770	12.383	0.501
849.000	504.354	80.007	20.001	103.808	19.771	12.334	0.492
849.500	504.638	80.010	19.991	103.799	19.770	12.401	0.484
850.000	504.862	80.010	19.997	103.799	19.773	12.219	0.502
850.500	505.122	80.011	19.995	103.806	19.773	12.207	0.496
851.000	505.371	80.010	19.994	103.810	19.772	12.249	0.496
851.500	505.679	80.007	19.988	103.816	19.777	11.921	0.533
852.000	505.929	80.007	19.990	103.822	19.776	12.000	0.558
852.500	506.197	80.009	19.993	103.821	19.775	12.033	0.538
853.000	506.445	80.009	19.990	103.816	19.774	12.135	0.517
853.500	506.682	80.004	19.995	103.812	19.777	11.907	0.501
854.000	506.927	80.008	19.992	103.807	19.775	12.070	0.484
854.500	507.209	80.012	19.993	103.802	19.773	12.193	0.504
855.000	507.449	80.010	19.993	103.799	19.775	12.056	0.524
855.500	507.731	80.012	19.992	103.797	19.775	12.003	0.522
856.000	507.957	80.004	20.001	103.797	19.776	11.990	0.515
856.500	508.228	80.007	19.998	103.797	19.778	11.816	0.502
857.000	508.469	80.009	19.994	103.799	19.776	11.974	0.505
857.500	508.733	80.004	19.999	103.803	19.778	11.838	0.508
858.000	509.009	80.010	19.995	103.809	19.776	11.986	0.522
858.500	509.260	80.007	20.001	103.813	19.774	12.084	0.534
859.000	509.518	80.012	19.989	103.812	19.775	12.017	0.518
859.500	509.776	80.011	19.994	103.813	19.776	11.955	0.512
860.000	510.014	80.010	19.999	103.810	19.776	11.955	0.506
860.500	510.277	80.004	19.995	103.804	19.777	11.906	0.498
861.000	510.548	80.007	19.997	103.797	19.776	11.973	0.517
861.500	510.817	80.009	19.994	103.796	19.777	11.865	0.537
862.000	511.086	80.009	19.998	103.793	19.774	12.086	0.539
862.500	511.318	80.006	19.993	103.790	19.777	11.897	0.520
863.000	511.532	80.006	19.998	103.797	19.775	12.073	0.474
863.500	511.791	80.009	19.993	103.797	19.778	11.804	0.459
864.000	512.075	80.006	19.988	103.797	19.777	11.894	0.508
864.500	512.312	80.012	20.000	103.798	19.776	11.933	0.533
865.000	512.576	80.013	19.992	103.798	19.777	11.930	0.511
865.500	512.789	80.003	20.003	103.792	19.775	12.036	0.489
866.000	513.103	80.013	19.990	103.791	19.776	11.973	0.502
866.500	513.346	80.010	19.990	103.792	19.778	11.788	0.542
867.000	513.599	80.007	19.994	103.792	19.774	12.092	0.526
867.500	513.855	80.009	19.994	103.794	19.779	11.786	0.502
868.000	514.140	80.008	19.994	103.794	19.778	11.854	0.525
868.500	514.385	80.009	19.994	103.796	19.779	11.758	0.536
869.000	514.616	80.007	19.996	103.795	19.779	11.785	0.503
869.500	514.900	80.007	19.993	103.794	19.780	11.680	0.495
870.000	515.163	80.012	19.991	103.794	19.781	11.588	0.530
870.500	515.416	80.006	19.997	103.796	19.778	11.846	0.531
871.000	515.672	80.011	19.993	103.796	19.781	11.592	0.513
871.500	515.916	80.007	19.995	103.797	19.779	11.760	0.504
872.000	516.185	80.009	19.994	103.798	19.779	11.723	0.506
872.500	516.460	80.007	19.993	103.798	19.779	11.733	0.529
873.000	516.697	80.009	19.993	103.796	19.779	11.738	0.529
873.500	516.919	80.007	19.992	103.800	19.779	11.750	0.486
874.000	517.206	80.007	19.996	103.800	19.781	11.641	0.484
874.500	517.439	80.007	19.994	103.803	19.780	11.683	0.514
875.000	517.712	80.006	19.995	103.805	19.779	11.736	0.513
875.500	517.974	80.007	19.994	103.804	19.780	11.703	0.521
876.000	518.260	80.009	19.995	103.801	19.780	11.705	0.541
876.500	518.488	80.008	19.995	103.800	19.778	11.795	0.531
877.000	518.753	80.004	19.992	103.798	19.779	11.734	0.503
877.500	518.992	80.004	19.998	103.800	19.781	11.582	0.499
878.000	519.230	80.006	19.997	103.801	19.780	11.687	0.490
878.500	519.526	80.008	19.992	103.800	19.779	11.750	0.505
879.000	519.759	80.007	19.993	103.800	19.779	11.717	0.532
879.500	520.035	80.004	19.998	103.799	19.782	11.555	0.519
880.000	520.286	80.009	19.995	103.795	19.782	11.556	0.518
880.500	520.550	80.008	19.994	103.794	19.784	11.390	0.521
881.000	520.790	80.009	19.994	103.795	19.783	11.478	0.509
881.500	521.049	80.008	19.993	103.796	19.780	11.663	0.502
882.000	521.341	80.007	19.993	103.795	19.781	11.628	0.526
882.500	521.557	80.008	19.996	103.797	19.783	11.431	0.529
883.000	521.797	80.007	19.996	103.796	19.781	11.599	0.482
883.500	522.115	80.007	19.995	103.796	19.781	11.593	0.507
884.000	522.335	80.010	19.993	103.795	19.781	11.584	0.548
884.500	522.585	80.008	19.994	103.795	19.781	11.582	0.504
885.000	522.878	80.008	19.996	103.794	19.779	11.722	0.506
885.500	523.141	80.010	19.995	103.794	19.780	11.679	0.549
886.000	523.396	80.008	19.995	103.794	19.782	11.511	0.537
886.500	523.626	80.008	19.994	103.794	19.780	11.668	0.501
887.000	523.902	80.009	19.996	103.794	19.780	11.642	0.495
887.500	524.133	80.011	19.995	103.795	19.778	11.826	0.507
888.000	524.368	80.008	19.995	103.795	19.779	11.718	0.487
888.500	524.631	80.009	19.995	103.795	19.782	11.523	0.482
889.000	524.902	80.009	19.995	103.794	19.782	11.552	0.516
889.500	525.155	80.008	19.996	103.794	19.778	11.810	0.529
890.000	525.414	80.009	19.995	103.794	19.779	11.722	0.518
890.500	525.640	80.009	19.996	103.793	19.779	11.735	0.498
891.000	525.933	80.009	19.995	103.793	19.779	11.724	0.502
891.500	526.157	80.008	19.994	103.792	19.780	11.671	0.518
892.000	526.435	80.008	19.995	103.789	19.778	11.822	0.510
892.500	526.718	80.009	19.997	103.788	19.779	11.745	0.532
893.000	526.941	80.007	19.992	103.787	19.779	11.781	0.533
893.500	527.194	80.009	19.995	103.788	19.775	12.011	0.491
894.000	527.461	80.008	19.995	103.788	19.776	11.970	0.498
894.500	527.706	80.010	19.996	103.791	19.777	11.886	0.516
895.000	528.002	80.011	19.995	103.791	19.780	11.652	0.526
895.500	528.237	80.009	19.995	103.792	19.778	11.849	0.536
896.000	528.472	80.015	19.994	103.791	19.777	11.916	0.501
896.500	528.714	80.008	19.996	103.791	19.773	12.167	0.474
897.000	528.977	80.010	19.994	103.791	19.777	11.904	0.490
897.500	529.275	80.009	19.995	103.791	19.774	12.099	0.533
898.000	529.521	80.009	19.994	103.790	19.776	11.958	0.553
898.500	529.750	80.008	19.994	103.790	19.775	12.054	0.510
899.000	530.022	80.010	19.995	103.789	19.775	12.009	0.489
899.500	530.291	80.009	19.994	103.788	19.776	11.999	0.521
900.000	530.558	80.010	19.995	103.787	19.774	12.122	0.538
900.500	530.777	80.010	19.994	103.787	19.777	11.910	0.511
901.000	531.005	80.008	19.994	103.787	19.778	11.808	0.466
901.500	531.296	80.011	19.994	103.787	19.775	12.060	0.483
902.000	531.540	80.010	19.993	103.788	19.774	12.105	0.527
902.500	531.786	80.011	19.995	103.788	19.775	12.050	0.513
903.000	532.041	80.009	19.993	103.789	19.775	12.064	0.495
903.500	532.294	80.010	19.991	103.789	19.773	12.173	0.504
904.000	532.606	80.008	19.993	103.789	19.774	12.132	0.536
904.500	532.848	80.017	19.996	103.789	19.774	12.103	0.560
905.000	533.105	80.011	19.997	103.789	19.774	12.122	0.527
905.500	533.337	80.009	19.995	103.790	19.776	11.958	0.494
906.000	533.558	80.010	19.996	103.791	19.777	11.919	0.471
906.500	533.850	80.009	19.994	103.791	19.774	12.095	0.483
907.000	534.093	80.010	19.995	103.791	19.775	12.005	0.524
907.500	534.365	80.010	19.994	103.790	19.776	11.988	0.525
908.000	534.603	80.009	19.994	103.790	19.775	12.025	0.513
908.500	534.865	80.011	19.996	103.789	19.773	12.167	0.505
909.000	535.101	80.007	19.997	103.789	19.772	12.249	0.499
909.500	535.384	80.012	19.991	103.789	19.774	12.081	0.509
910.000	535.641	80.009	19.995	103.789	19.772	12.286	0.530
910.500	535.898	80.010	19.994	103.788	19.774	12.093	0.527
911.000	536.109	80.010	19.993	103.789	19.775	12.015	0.491
911.500	536.388	80.009	19.994	103.790	19.775	12.048	0.479
912.000	536.620	80.009	19.994	103.791	19.774	12.102	0.501
912.500	536.929	80.011	19.993	103.792	19.774	12.100	0.527
913.000	537.169	80.009	19.995	103.793	19.774	12.100	0.545
913.500	537.387	80.009	19.995	103.792	19.775	12.047	0.503
914.000	537.652	80.011	19.992	103.790	19.776	11.934	0.471
914.500	537.944	80.011	19.994	103.791	19.775	12.022	0.520
915.000	538.181	80.011	19.995	103.790	19.773	12.198	0.542
915.500	538.409	80.010	19.995	103.790	19.773	12.212	0.497
916.000	538.681	80.013	19.994	103.789	19.773	12.163	0.483
916.500	538.935	80.013	19.994	103.789	19.775	12.052	0.513
917.000	539.206	80.011	19.994	103.789	19.776	11.993	0.525
917.500	539.459	80.011	19.994	103.790	19.775	12.071	0.524
918.000	539.670	80.012	19.995	103.789	19.771	12.298	0.494
918.500	539.961	80.011	19.994	103.790	19.773	12.155	0.483
919.000	540.229	80.010	19.997	103.789	19.772	12.274	0.531
919.500	540.484	80.011	19.996	103.788	19.773	12.214	0.541
920.000	540.754	80.010	19.994	103.788	19.772	12.236	0.523
920.500	541.004	80.012	19.993	103.788	19.771	12.312	0.522
921.000	541.260	80.010	19.994	103.788	19.767	12.605	0.514
921.500	541.491	80.010	19.993	103.789	19.771	12.296	0.496
922.000	541.732	80.011	19.995	103.789	19.773	12.198	0.479
922.500	541.997	80.009	19.993	103.788	19.771	12.300	0.489
923.000	542.205	80.010	19.993	103.787	19.771	12.328	0.489
923.500	542.531	80.010	19.995	103.787	19.772	12.271	0.504
924.000	542.733	80.009	19.993	103.785	19.771	12.300	0.531
924.500	542.985	80.010	19.994	103.783	19.771	12.332	0.491
925.000	543.246	80.009	19.995	103.783	19.772	12.224	0.483
925.500	543.497	80.010	19.994	103.784	19.771	12.325	0.512
926.000	543.749	80.008	19.994	103.783	19.773	12.173	0.508
926.500	544.008	80.007	19.994	103.786	19.773	12.187	0.507
927.000	544.267	80.008	19.994	103.788	19.774	12.122	0.514
927.500	544.497	80.009	19.995	103.790	19.772	12.255	0.504
928.000	544.739	80.009	19.994	103.788	19.774	12.128	0.480
928.500	544.993	80.007	19.994	103.787	19.774	12.142	0.484
929.000	545.241	80.009	19.994	103.787	19.771	12.300	0.499
929.500	545.506	80.009	19.994	103.788	19.771	12.306	0.507
930.000	545.727	80.010	19.994	103.788	19.773	12.187	0.500
930.500	545.998	80.008	19.994	103.791	19.774	12.106	0.489
931.000	546.222	80.008	19.995	103.792	19.771	12.326	0.493
931.500	546.506	80.008	19.994	103.792	19.772	12.266	0.502
932.000	546.730	80.007	19.994	103.792	19.773	12.217	0.508
932.500	546.990	80.007	19.993	103.792	19.770	12.408	0.496
933.000	547.272	80.009	19.990	103.791	19.772	12.239	0.513
933.500	547.539	80.008	19.996	103.792	19.770	12.392	0.545
934.000	547.773	80.008	19.995	103.794	19.771	12.314	0.525
934.500	548.021	80.007	19.994	103.794	19.773	12.207	0.492
935.000	548.273	80.008	19.993	103.794	19.771	12.357	0.491
935.500	548.491	80.008	19.993	103.795	19.772	12.271	0.485
936.000	548.741	80.008	19.994	103.792	19.768	12.580	0.469
936.500	549.041	80.009	19.993	103.790	19.772	12.267	0.509
937.000	549.275	80.009	19.994	103.790	19.770	12.380	0.542
937.500	549.511	80.007	19.994	103.790	19.770	12.410	0.502
938.000	549.769	80.009	19.995	103.791	19.770	12.373	0.483
938.500	550.016	80.006	19.993	103.792	19.770	12.367	0.500
939.000	550.272	80.008	19.993	103.793	19.771	12.359	0.504
939.500	550.544	80.007	19.993	103.792	19.771	12.336	0.516
940.000	550.820	80.008	19.993	103.793	19.768	12.568	0.538
940.500	551.043	80.008	19.994	103.794	19.772	12.248	0.523
941.000	551.329	80.008	19.994	103.794	19.773	12.158	0.504
941.500	551.573	80.007	19.993	103.788	19.771	12.355	0.520
942.000	551.815	80.008	19.993	103.783	19.772	12.238	0.508
942.500	552.043	80.009	19.993	103.781	19.768	12.531	0.477
943.000	552.302	80.007	19.993	103.781	19.769	12.441	0.479
943.500	552.534	80.008	19.993	103.781	19.771	12.357	0.489
944.000	552.811	80.007	19.993	103.786	19.766	12.666	0.500
944.500	553.078	80.009	19.994	103.792	19.768	12.533	0.527
945.000	553.314	80.008	19.995	103.793	19.770	12.416	0.524
945.500	553.584	80.009	19.994	103.793	19.769	12.499	0.504
946.000	553.817	80.008	19.993	103.793	19.769	12.493	0.504
946.500	554.073	80.009	19.994	103.794	19.768	12.516	0.496
947.000	554.333	80.009	19.993	103.794	19.770	12.428	0.502
947.500	554.550	80.010	19.994	103.794	19.766	12.663	0.496
948.000	554.861	80.008	19.994	103.794	19.767	12.624	0.502
948.500	555.069	80.009	19.994	103.794	19.769	12.497	0.523
949.000	555.371	80.008	19.994	103.794	19.768	12.511	0.515
949.500	555.621	80.008	19.994	103.794	19.765	12.769	0.531
950.000	555.890	80.008	19.993	103.794	19.766	12.660	0.535
950.500	556.125	80.009	19.993	103.795	19.765	12.736	0.512
951.000	556.364	80.007	19.994	103.795	19.765	12.741	0.489
951.500	556.623	80.009	19.995	103.795	19.768	12.579	0.486
952.000	556.869	80.009	19.994	103.794	19.765	12.727	0.502
952.500	557.148	80.007	19.993	103.794	19.767	12.641	0.515
953.000	557.392	80.007	19.993	103.794	19.767	12.635	0.524
953.500	557.631	80.009	19.994	103.794	19.766	12.672	0.503
954.000	557.897	80.008	19.994	103.794	19.766	12.667	0.494
954.500	558.138	80.008	19.995	103.794	19.765	12.743	0.506
955.000	558.443	80.010	19.994	103.795	19.769	12.486	0.526
955.500	558.639	80.007	19.995	103.795	19.765	12.733	0.523
956.000	558.886	80.008	19.994	103.795	19.767	12.630	0.472
956.500	559.163	80.007	19.993	103.790	19.765	12.784	0.484
957.000	559.401	80.008	19.994	103.788	19.762	12.956	0.519
957.500	559.693	80.008	19.994	103.787	19.764	12.823	0.522
958.000	559.890	80.008	19.994	103.788	19.767	12.620	0.509
958.500	560.161	80.009	19.994	103.787	19.765	12.750	0.479
959.000	560.429	80.008	19.994	103.792	19.764	12.805	0.504
959.500	560.686	80.008	19.994	103.794	19.765	12.794	0.532
960.000	560.917	80.007	19.995	103.795	19.763	12.911	0.506
960.500	561.190	80.008	19.995	103.794	19.764	12.847	0.496
961.000	561.438	80.009	19.994	103.794	19.764	12.837	0.512
961.500	561.685	80.008	19.994	103.793	19.764	12.849	0.508
962.000	561.952	80.008	19.995	103.793	19.764	12.870	0.505
962.500	562.220	80.007	19.994	103.790	19.764	12.833	0.524
963.000	562.466	80.007	19.995	103.787	19.767	12.614	0.525
963.500	562.706	80.008	19.995	103.788	19.767	12.608	0.500
964.000	562.965	80.007	19.997	103.788	19.767	12.632	0.493
964.500	563.227	80.007	19.997	103.788	19.762	13.011	0.510
965.000	563.473	80.009	19.997	103.791	19.762	12.970	0.514
965.500	563.704	80.007	19.995	103.792	19.762	12.983	0.492
966.000	563.998	80.009	19.995	103.792	19.763	12.876	0.501
966.500	564.260	80.008	19.996	103.791	19.766	12.700	0.541
967.000	564.481	80.008	19.995	103.791	19.767	12.604	0.520
967.500	564.758	80.008	19.995	103.790	19.769	12.507	0.491
968.000	564.978	80.009	19.994	103.789	19.765	12.731	0.498
968.500	565.267	80.009	19.995	103.787	19.764	12.839	0.503
969.000	565.521	80.009	19.994	103.787	19.761	13.051	0.526
969.500	565.792	80.008	19.994	103.787	19.763	12.874	0.534
970.000	566.043	80.008	19.994	103.787	19.764	12.833	0.524
970.500	566.304	80.010	19.995	103.788	19.765	12.755	0.517
971.000	566.575	80.010	19.995	103.791	19.764	12.809	0.522
971.500	566.843	80.010	19.994	103.792	19.767	12.647	0.535
972.000	567.036	80.010	19.994	103.792	19.766	12.714	0.500
972.500	567.304	80.010	19.994	103.791	19.763	12.938	0.460
973.000	567.574	80.009	19.994	103.790	19.763	12.872	0.499
973.500	567.835	80.011	19.993	103.789	19.765	12.747	0.535
974.000	568.046	80.010	19.994	103.789	19.763	12.872	0.502
974.500	568.349	80.010	19.994	103.789	19.763	12.903	0.493
975.000	568.584	80.009	19.995	103.789	19.762	13.004	0.526
975.500	568.857	80.010	19.994	103.791	19.764	12.805	0.523
976.000	569.103	80.010	19.994	103.791	19.760	13.091	0.514
976.500	569.366	80.011	19.995	103.790	19.764	12.822	0.514
977.000	569.654	80.010	19.994	103.791	19.764	12.848	0.529
977.500	569.896	80.010	19.993	103.790	19.762	13.011	0.540
978.000	570.158	80.010	19.995	103.790	19.764	12.836	0.517
978.500	570.443	80.009	19.995	103.790	19.762	12.944	0.526
979.000	570.664	80.012	19.995	103.790	19.763	12.928	0.527
979.500	570.931	80.010	19.994	103.790	19.763	12.912	0.497
980.000	571.204	80.009	19.994	103.790	19.761	13.067	0.514
980.500	571.456	80.009	19.995	103.790	19.761	13.061	0.533
981.000	571.725	80.010	19.994	103.790	19.762	12.995	0.523
981.500	571.976	80.009	19.994	103.790	19.762	12.967	0.521
982.000	572.265	80.010	19.993	103.789	19.761	13.028	0.530
982.500	572.503	80.010	19.995	103.790	19.759	13.180	0.533
983.000	572.768	80.010	19.995	103.790	19.760	13.143	0.515
983.500	573.031	80.009	19.994	103.789	19.761	13.082	0.516
984.000	573.279	80.010	19.994	103.790	19.763	12.895	0.519
984.500	573.577	80.011	19.995	103.789	19.757	13.345	0.528
985.000	573.785	80.010	19.994	103.789	19.760	13.142	0.526
985.500	574.096	80.008	19.995	103.788	19.757	13.323	0.513
986.000	574.352	80.011	19.994	103.787	19.760	13.114	0.543
986.500	574.621	80.010	19.994	103.783	19.757	13.327	0.546
987.000	574.895	80.009	19.995	103.782	19.757	13.318	0.534
987.500	575.174	80.009	19.996	103.782	19.758	13.271	0.548
988.000	575.396	80.008	19.994	103.783	19.759	13.211	0.527
988.500	575.660	80.008	19.995	103.782	19.758	13.293	0.494
989.000	575.915	80.008	19.996	103.786	19.758	13.274	0.503
989.500	576.183	80.008	19.994	103.787	19.760	13.149	0.521
990.000	576.407	80.008	19.995	103.787	19.759	13.180	0.507
990.500	576.650	80.008	19.996	103.787	19.760	13.098	0.480
991.000	576.920	80.010	19.995	103.789	19.756	13.418	0.490
991.500	577.178	80.010	19.994	103.789	19.757	13.338	0.521
992.000	577.440	80.008	19.995	103.789	19.758	13.253	0.524
992.500	577.698	80.008	19.995	103.788	19.757	13.305	0.520
993.000	577.969	80.008	19.995	103.787	19.756	13.397	0.525
993.500	578.207	80.008	19.995	103.787	19.759	13.200	0.519
994.000	578.459	80.011	19.995	103.787	19.756	13.423	0.499
994.500	578.711	80.008	19.995	103.785	19.755	13.495	0.497
995.000	578.954	80.010	19.994	103.785	19.753	13.661	0.500
995.500	579.211	80.008	19.996	103.781	19.753	13.634	0.498
996.000	579.448	80.008	19.994	103.779	19.756	13.445	0.497
996.500	579.752	80.010	19.994	103.779	19.756	13.441	0.517
997.000	579.987	80.010	19.994	103.778	19.756	13.431	0.540
997.500	580.212	80.010	19.994	103.778	19.752	13.671	0.500
998.000	580.495	80.008	19.995	103.782	19.755	13.449	0.485
998.500	580.739	80.010	19.994	103.784	19.755	13.460	0.518
999.000	580.946	80.009	19.995	103.786	19.756	13.419	0.489
999.500	581.211	80.011	19.994	103.789	19.753	13.652	0.461
1000.000	581.461	80.009	19.994	103.789	19.756	13.399	0.494
1000.500	581.738	80.009	19.994	103.789	19.753	13.614	0.521
1001.000	582.000	80.010	19.994	103.789	19.755	13.501	0.533
1001.500	582.234	80.011	19.994	103.790	19.755	13.452	0.518
1002.000	582.520	80.011	19.994	103.790	19.755	13.514	0.508
1002.500	582.754	80.010	19.993	103.791	19.752	13.696	0.520
1003.000	583.000	80.010	19.993	103.791	19.756	13.413	0.500
1003.500	583.283	80.011	19.993	103.791	19.755	13.454	0.504
1004.000	583.525	80.011	19.993	103.791	19.756	13.448	0.527
1004.500	583.777	80.012	19.993	103.791	19.758	13.249	0.509
1005.000	584.039	80.011	19.994	103.792	19.759	13.218	0.504
1005.500	584.305	80.011	19.992	103.792	19.756	13.395	0.521
1006.000	584.546	80.010	19.992	103.791	19.757	13.372	0.518
1006.500	584.797	80.010	19.993	103.785	19.759	13.218	0.500
1007.000	585.057	80.010	19.992	103.785	19.757	13.348	0.501
1007.500	585.334	80.011	19.992	103.784	19.757	13.356	0.524
1008.000	585.569	80.011	19.992	103.782	19.754	13.522	0.525
1008.500	585.837	80.009	19.993	103.779	19.757	13.360	0.508
1009.000	586.073	80.010	19.994	103.784	19.756	13.429	0.503
1009.500	586.339	80.010	19.995	103.782	19.757	13.337	0.503
1010.000	586.581	80.010	19.993	103.782	19.756	13.432	0.505
1010.500	586.822	80.009	19.993	103.784	19.753	13.608	0.495
1011.000	587.095	80.010	19.994	103.788	19.756	13.438	0.499
1011.500	587.359	80.009	19.994	103.789	19.755	13.501	0.525
1012.000	587.624	80.009	19.994	103.791	19.754	13.571	0.533
1012.500	587.865	80.008	19.993	103.792	19.753	13.622	0.517
1013.000	588.121	80.008	19.993	103.792	19.756	13.398	0.502
1013.500	588.402	80.008	19.993	103.792	19.755	13.466	0.518
1014.000	588.651	80.009	19.994	103.792	19.757	13.375	0.534
1014.500	588.908	80.008	19.994	103.792	19.756	13.402	0.518
1015.000	589.175	80.008	19.994	103.793	19.756	13.445	0.515
1015.500	589.450	80.008	19.994	103.793	19.753	13.654	0.533
1016.000	589.679	80.009	19.993	103.793	19.752	13.728	0.523
1016.500	589.962	80.008	19.994	103.793	19.752	13.729	0.508
1017.000	590.223	80.009	19.994	103.793	19.751	13.741	0.528
1017.500	590.447	80.009	19.994	103.792	19.754	13.550	0.514
1018.000	590.726	80.009	19.993	103.792	19.751	13.799	0.494
1018.500	591.001	80.008	19.994	103.792	19.752	13.727	0.529
1019.000	591.234	80.008	19.993	103.793	19.750	13.833	0.531
1019.500	591.473	80.008	19.995	103.793	19.749	13.885	0.490
1020.000	591.782	80.008	19.994	103.794	19.751	13.770	0.510
1020.500	591.970	80.009	19.995	103.794	19.751	13.803	0.522
1021.000	592.280	80.008	19.995	103.793	19.750	13.876	0.497
1021.500	592.528	80.008	19.994	103.792	19.752	13.727	0.528
1022.000	592.776	80.008	19.995	103.792	19.747	14.045	0.527
1022.500	593.053	80.009	19.994	103.792	19.747	14.084	0.510
1023.000	593.289	80.006	19.994	103.792	19.749	13.892	0.519
1023.500	593.563	80.008	19.994	103.793	19.750	13.869	0.512
1024.000	593.814	80.008	19.995	103.794	19.749	13.887	0.517
1024.499	594.045	80.012	19.998	103.797	19.749	13.945	0.503
1024.999	594.320	80.012	19.997	103.802	19.749	13.920	0.494
1025.499	594.577	80.008	19.996	103.802	19.749	13.889	0.520
1025.999	594.837	80.008	19.996	103.802	19.747	14.055	0.524
1026.499	595.073	80.007	19.996	103.802	19.746	14.125	0.506
1026.999	595.328	80.008	19.994	103.800	19.747	14.068	0.493
1027.499	595.606	80.009	19.994	103.794	19.745	14.230	0.513
1027.999	595.864	80.007	19.996	103.794	19.746	14.160	0.535
1028.500	596.086	80.007	19.993	103.793	19.744	14.275	0.508
1029.000	596.370	80.008	19.994	103.793	19.744	14.262	0.493
1029.499	596.629	80.009	19.993	103.793	19.746	14.133	0.524
1029.999	596.877	80.009	19.993	103.793	19.745	14.191	0.525
1030.499	597.081	80.009	19.994	103.793	19.745	14.222	0.479
1030.999	597.350	80.009	19.993	103.794	19.746	14.134	0.462
1031.499	597.608	80.010	19.993	103.793	19.746	14.146	0.500
1031.999	597.844	80.008	19.993	103.793	19.745	14.230	0.511
1032.499	598.120	80.009	19.994	103.792	19.746	14.164	0.503
1032.999	598.363	80.009	19.994	103.791	19.746	14.156	0.516
1033.499	598.593	80.010	19.993	103.790	19.743	14.344	0.496
1033.999	598.848	80.008	19.994	103.788	19.744	14.280	0.479
1034.499	599.136	80.009	19.994	103.788	19.744	14.315	0.514
1034.999	599.393	80.008	19.994	103.788	19.744	14.291	0.544
1035.499	599.651	80.010	19.995	103.789	19.742	14.398	0.530
1035.999	599.855	80.008	19.994	103.789	19.742	14.402	0.489
1036.499	600.143	80.009	19.994	103.791	19.745	14.217	0.477
1036.999	600.377	80.009	19.994	103.791	19.742	14.418	0.507
1037.499	600.634	80.010	19.994	103.790	19.742	14.457	0.506
1037.999	600.891	80.009	19.993	103.790	19.742	14.414	0.502
1038.499	601.160	80.010	19.993	103.790	19.742	14.459	0.520
1038.999	601.401	80.009	19.993	103.790	19.742	14.410	0.519
1039.499	601.664	80.008	19.994	103.790	19.742	14.436	0.507
1039.999	601.910	80.010	19.993	103.789	19.743	14.340	0.506
1040.499	602.165	80.009	19.993	103.789	19.744	14.283	0.505
1040.999	602.425	80.009	19.993	103.787	19.742	14.435	0.508
1041.499	602.671	80.009	19.993	103.785	19.740	14.597	0.510
1041.999	602.920	80.009	19.994	103.783	19.745	14.197	0.501
1042.499	603.157	80.009	19.993	103.784	19.740	14.541	0.491
1042.999	603.421	80.009	19.994	103.785	19.742	14.455	0.493
1043.499	603.680	80.008	19.993	103.787	19.740	14.553	0.512
1043.999	603.912	80.009	19.992	103.790	19.741	14.469	0.507
1044.499	604.178	80.007	19.993	103.793	19.740	14.541	0.495
1044.999	604.461	80.009	19.994	103.793	19.739	14.654	0.524
1045.499	604.699	80.008	19.993	103.793	19.741	14.502	0.535
1045.999	604.957	80.010	19.994	103.792	19.742	14.449	0.509
1046.499	605.215	80.008	19.993	103.789	19.741	14.465	0.506
1046.999	605.481	80.007	19.994	103.788	19.741	14.460	0.520
1047.499	605.699	80.008	19.994	103.788	19.739	14.621	0.504
1047.999	605.990	80.007	19.994	103.788	19.740	14.564	0.497
1048.499	606.234	80.009	19.993	103.788	19.742	14.427	0.522
1048.999	606.479	80.008	19.994	103.791	19.743	14.369	0.512
1049.500	606.715	80.008	19.994	103.791	19.742	14.451	0.485
1050.000	606.991	80.008	19.995	103.791	19.744	14.291	0.497
1050.499	607.215	80.008	19.994	103.791	19.742	14.428	0.506
1050.999	607.476	80.008	19.994	103.791	19.741	14.484	0.492
1051.499	607.707	80.009	19.994	103.790	19.742	14.457	0.489
1051.999	607.978	80.009	19.994	103.789	19.739	14.636	0.497
1052.499	608.238	80.007	19.995	103.789	19.740	14.560	0.516
1052.999	608.497	80.008	19.994	103.790	19.741	14.513	0.525
1053.499	608.782	80.009	19.994	103.790	19.742	14.455	0.532
1053.999	609.028	80.008	19.995	103.790	19.745	14.227	0.538
1054.499	609.291	80.009	19.994	103.791	19.742	14.402	0.520
1054.999	609.559	80.009	19.995	103.791	19.744	14.297	0.520
1055.499	609.799	80.009	19.994	103.791	19.743	14.367	0.519
1055.999	610.057	80.009	19.995	103.790	19.743	14.383	0.503
1056.499	610.300	80.010	19.994	103.790	19.743	14.381	0.500
1056.999	610.574	80.008	19.995	103.790	19.742	14.412	0.509
1057.499	610.791	80.010	19.994	103.789	19.740	14.546	0.504
1057.999	611.067	80.010	19.995	103.787	19.740	14.545	0.491
1058.499	611.312	80.010	19.995	103.788	19.740	14.545	0.507
1058.999	611.562	80.011	19.994	103.788	19.739	14.650	0.508
1059.499	611.837	80.010	19.994	103.788	19.740	14.578	0.510
1059.999	612.080	80.010	19.994	103.788	19.739	14.656	0.522
1060.499	612.398	80.009	19.994	103.790	19.737	14.754	0.540
1060.999	612.610	80.011	19.994	103.790	19.737	14.781	0.545
1061.499	612.888	80.010	19.994	103.790	19.737	14.808	0.510
1061.999	613.155	80.010	19.995	103.789	19.738	14.726	0.517
1062.499	613.415	80.010	19.994	103.788	19.742	14.428	0.536
1062.999	613.643	80.010	19.994	103.788	19.738	14.695	0.507
1063.499	613.938	80.010	19.993	103.788	19.739	14.654	0.505
1063.999	614.202	80.010	19.994	103.788	19.740	14.603	0.541
1064.499	614.406	80.010	19.995	103.789	19.740	14.532	0.513
1064.999	614.691	80.009	19.995	103.791	19.738	14.724	0.478
1065.499	614.973	80.011	19.994	103.791	19.739	14.624	0.528
1065.999	615.230	80.010	19.994	103.791	19.738	14.714	0.553
1066.499	615.478	80.009	19.994	103.791	19.736	14.872	0.523
1066.999	615.747	80.010	19.995	103.790	19.735	14.956	0.511
1067.499	615.990	80.010	19.995	103.789	19.739	14.650	0.514
1067.999	616.271	80.010	19.994	103.789	19.737	14.795	0.518
1068.499	616.500	80.010	19.993	103.788	19.737	14.781	0.517
1068.999	616.771	80.009	19.994	103.788	19.736	14.844	0.505
1069.499	617.054	80.008	19.993	103.789	19.735	14.949	0.527
1069.999	617.268	80.010	19.993	103.790	19.736	14.879	0.526
1070.499	617.548	80.009	19.994	103.790	19.736	14.844	0.495
1070.999	617.762	80.009	19.994	103.790	19.736	14.881	0.494
1071.499	618.037	80.010	19.994	103.790	19.736	14.859	0.491
1071.999	618.282	80.009	19.994	103.790	19.736	14.887	0.504
1072.499	618.530	80.009	19.994	103.790	19.736	14.877	0.506
1072.999	618.799	80.009	19.994	103.791	19.735	14.904	0.505
1073.499	619.051	80.008	19.993	103.790	19.737	14.789	0.519
1073.999	619.289	80.009	19.994	103.790	19.736	14.885	0.506
1074.499	619.527	80.009	19.994	103.790	19.737	14.797	0.483
1074.999	619.768	80.009	19.993	103.787	19.736	14.826	0.477
1075.499	620.075	80.008	19.993	103.785	19.736	14.871	0.513
1075.999	620.302	80.008	19.994	103.785	19.739	14.672	0.542
1076.499	620.601	80.009	19.993	103.784	19.735	14.959	0.530
1076.999	620.818	80.008	19.994	103.785	19.740	14.588	0.521
1077.499	621.060	80.010	19.994	103.787	19.737	14.789	0.488
1077.999	621.298	80.008	19.995	103.789	19.735	14.908	0.470
1078.499	621.621	80.009	19.995	103.790	19.736	14.888	0.520
1078.999	621.839	80.010	19.995	103.792	19.735	14.925	0.550
1079.499	622.060	80.009	19.995	103.791	19.736	14.883	0.490
1079.999	622.365	80.009	19.995	103.791	19.737	14.754	0.482
1080.499	622.622	80.009	19.995	103.792	19.736	14.891	0.544
1080.999	622.867	80.009	19.995	103.792	19.737	14.822	0.532
1081.499	623.114	80.009	19.995	103.792	19.736	14.892	0.498
1081.999	623.362	80.009	19.995	103.792	19.736	14.823	0.494
1082.499	623.602	80.010	19.994	103.793	19.736	14.840	0.491
1082.999	623.886	80.010	19.993	103.792	19.733	15.082	0.506
1083.499	624.119	80.010	19.995	103.792	19.735	14.916	0.521
1083.999	624.360	80.008	19.994	103.792	19.736	14.842	0.495
1084.499	624.637	80.010	19.997	103.791	19.737	14.793	0.496
1084.999	624.858	80.009	19.996	103.792	19.733	15.078	0.508
1085.500	625.125	80.010	19.996	103.793	19.735	14.952	0.493
1086.000	625.419	80.010	19.994	103.792	19.732	15.132	0.525
1086.499	625.670	80.010	19.994	103.793	19.735	14.944	0.553
1086.999	625.963	80.009	19.995	103.792	19.736	14.862	0.544
1087.499	626.153	80.010	19.996	103.792	19.733	15.088	0.514
1087.999	626.430	80.011	19.994	103.791	19.735	14.960	0.475
1088.499	626.669	80.010	19.994	103.791	19.732	15.157	0.492
1088.999	626.917	80.012	19.994	103.791	19.733	15.101	0.502
1089.499	627.201	80.011	19.995	103.791	19.735	14.952	0.510
1089.999	627.490	80.012	19.993	103.790	19.735	14.905	0.553
1090.499	627.723	80.010	19.995	103.792	19.735	14.945	0.548
1090.999	627.987	80.010	19.993	103.796	19.731	15.183	0.509
1091.499	628.265	80.011	19.994	103.798	19.736	14.822	0.519
1091.999	628.492	80.009	19.995	103.801	19.735	14.945	0.523
1092.499	628.755	80.010	19.995	103.801	19.733	15.086	0.498
1092.999	629.010	80.010	19.995	103.799	19.733	15.107	0.504
1093.499	629.279	80.010	19.994	103.796	19.734	14.982	0.521
1093.999	629.543	80.009	19.993	103.794	19.732	15.152	0.528
1094.499	629.766	80.009	19.994	103.791	19.736	14.828	0.510
1094.999	630.058	80.009	19.996	103.791	19.735	14.951	0.501
1095.499	630.320	80.009	19.994	103.791	19.730	15.255	0.534
1095.999	630.559	80.008	19.994	103.791	19.733	15.103	0.527
1096.499	630.821	80.008	19.995	103.788	19.732	15.150	0.501
1096.999	631.082	80.008	19.995	103.785	19.731	15.253	0.512
1097.499	631.271	80.009	19.995	103.783	19.734	14.988	0.487
1097.999	631.543	80.007	19.994	103.782	19.731	15.224	0.455
1098.499	631.802	80.008	19.994	103.782	19.734	15.021	0.496
1098.999	632.039	80.007	19.994	103.784	19.730	15.325	0.513
1099.499	632.324	80.009	19.994	103.787	19.735	14.923	0.509
1099.999	632.588	80.006	19.995	103.788	19.733	15.064	0.536
1100.499	632.811	80.008	19.993	103.786	19.732	15.167	0.518
1100.999	633.062	80.009	19.994	103.782	19.734	15.005	0.481
1101.499	633.330	80.008	19.994	103.778	19.733	15.062	0.496
1101.999	633.598	80.009	19.993	103.777	19.731	15.245	0.527
1102.499	633.833	80.007	19.994	103.776	19.728	15.438	0.519
1102.999	634.064	80.009	19.994	103.779	19.733	15.077	0.484
1103.500	634.356	80.008	19.995	103.783	19.731	15.210	0.495
1104.000	634.635	80.010	19.992	103.788	19.733	15.068	0.547
1104.499	634.870	80.010	19.993	103.790	19.736	14.869	0.543
1104.999	635.142	80.008	19.995	103.790	19.734	15.021	0.510
1105.499	635.427	80.010	19.994	103.790	19.734	14.972	0.532
1105.999	635.665	80.010	19.994	103.789	19.734	15.013	0.540
1106.499	635.917	80.009	19.994	103.789	19.734	14.968	0.507
1106.999	636.162	80.009	19.994	103.788	19.733	15.073	0.494
1107.499	636.418	80.009	19.993	103.788	19.732	15.132	0.499
1108.000	636.677	80.009	19.993	103.787	19.733	15.065	0.508
1108.500	636.928	80.010	19.993	103.788	19.731	15.210	0.512
1108.999	637.185	80.008	19.993	103.788	19.730	15.327	0.509
1109.499	637.453	80.009	19.994	103.788	19.731	15.228	0.517
1109.999	637.723	80.009	19.993	103.789	19.730	15.255	0.531
1110.499	637.948	80.010	19.992	103.790	19.731	15.202	0.516
1110.999	638.212	80.009	19.994	103.790	19.729	15.372	0.492
1111.499	638.492	80.009	19.993	103.788	19.732	15.165	0.517
1111.999	638.732	80.009	19.993	103.787	19.733	15.081	0.532
1112.499	638.993	80.010	19.993	103.787	19.731	15.194	0.510
1112.999	639.259	80.008	19.993	103.787	19.731	15.196	0.514
1113.499	639.530	80.009	19.993	103.786	19.728	15.463	0.532
1113.999	639.766	80.009	19.993	103.787	19.731	15.182	0.522
1114.499	640.076	80.009	19.993	103.788	19.729	15.354	0.526
1114.999	640.326	80.010	19.993	103.789	19.731	15.196	0.553
1115.499	640.550	80.009	19.992	103.789	19.727	15.508	0.517
1115.999	640.831	80.009	19.994	103.790	19.731	15.241	0.490
1116.499	641.102	80.008	19.994	103.790	19.733	15.040	0.528
1117.000	641.368	80.008	19.995	103.788	19.731	15.225	0.544
1117.500	641.588	80.008	19.993	103.788	19.730	15.309	0.512
1117.999	641.867	80.010	19.993	103.787	19.732	15.170	0.492
1118.499	642.146	80.010	19.994	103.787	19.730	15.274	0.529
1118.999	642.413	80.008	19.994	103.787	19.735	14.942	0.552
1119.499	642.668	80.009	19.992	103.788	19.732	15.180	0.534
1119.999	642.903	80.009	19.994	103.789	19.729	15.377	0.506
1120.499	643.153	80.008	19.993	103.789	19.730	15.277	0.487
1120.999	643.454	80.008	19.994	103.789	19.734	14.978	0.517
1121.499	643.709	80.008	19.993	103.788	19.730	15.287	0.553
1121.999	643.922	80.009	19.995	103.786	19.730	15.264	0.512
1122.499	644.224	80.009	19.994	103.786	19.732	15.155	0.492
1122.999	644.432	80.009	19.994	103.787	19.732	15.138	0.513
1123.499	644.735	80.008	19.994	103.787	19.733	15.051	0.510
1123.999	644.964	80.007	19.995	103.787	19.729	15.347	0.521
1124.499	645.213	80.009	19.993	103.785	19.732	15.145	0.505
1125.000	645.456	80.007	19.994	103.784	19.734	14.965	0.485
1125.500	645.736	80.009	19.992	103.783	19.734	15.027	0.508
1125.999	646.053	80.009	19.994	103.784	19.732	15.172	0.560
1126.499	646.265	80.008	19.994	103.785	19.732	15.111	0.563
1126.999	646.534	80.008	19.993	103.788	19.732	15.166	0.505
1127.500	646.748	80.008	19.994	103.787	19.729	15.389	0.482
1128.000	647.080	80.009	19.994	103.785	19.729	15.356	0.514
1128.499	647.318	80.007	19.994	103.782	19.729	15.370	0.558
1128.999	647.572	80.008	19.994	103.781	19.731	15.206	0.531
1129.499	647.843	80.009	19.995	103.782	19.732	15.173	0.509
1129.999	648.105	80.008	19.994	103.784	19.730	15.309	0.529
1130.499	648.380	80.008	19.994	103.783	19.729	15.347	0.535
1130.999	648.612	80.009	19.995	103.783	19.728	15.407	0.522
1131.499	648.853	80.008	19.994	103.780	19.729	15.368	0.490
1132.000	649.153	80.007	19.994	103.778	19.728	15.426	0.508
1132.500	649.388	80.009	19.994	103.778	19.727	15.488	0.538
1132.999	649.691	80.010	19.993	103.780	19.729	15.383	0.536
1133.499	649.954	80.008	19.994	103.782	19.730	15.319	0.551
1133.999	650.174	80.008	19.994	103.786	19.729	15.341	0.524
1134.499	650.427	80.007	19.995	103.781	19.729	15.336	0.478
1134.999	650.689	80.008	19.993	103.776	19.730	15.273	0.494
1135.499	650.956	80.008	19.994	103.770	19.731	15.223	0.522
1135.999	651.237	80.006	19.994	103.768	19.729	15.369	0.538
1136.499	651.467	80.008	19.993	103.766	19.728	15.404	0.529
1136.999	651.711	80.007	19.995	103.769	19.733	15.084	0.493
1137.499	651.983	80.009	19.993	103.775	19.729	15.351	0.495
1137.999	652.262	80.008	19.993	103.781	19.729	15.384	0.533
1138.499	652.505	80.009	19.993	103.783	19.730	15.308	0.536
1138.999	652.753	80.008	19.993	103.782	19.727	15.491	0.506
1139.499	652.990	80.009	19.993	103.787	19.727	15.494	0.488
1139.999	653.269	80.007	19.994	103.786	19.726	15.580	0.501
1140.499	653.539	80.010	19.995	103.786	19.726	15.591	0.533
1140.999	653.797	80.010	19.993	103.786	19.728	15.429	0.538
1141.499	654.030	80.010	19.993	103.789	19.727	15.486	0.509
1142.000	654.283	80.008	19.993	103.789	19.725	15.618	0.489
1142.500	654.547	80.010	19.993	103.787	19.727	15.517	0.502
1142.999	654.841	80.009	19.993	103.784	19.727	15.533	0.537
1143.499	655.061	80.008	19.993	103.783	19.728	15.454	0.535
1143.999	655.340	80.010	19.991	103.783	19.727	15.499	0.507
1144.499	655.583	80.009	19.994	103.784	19.730	15.299	0.511
1145.000	655.808	80.009	19.994	103.787	19.730	15.322	0.495
1145.500	656.124	80.011	19.994	103.791	19.730	15.262	0.504
1145.999	656.355	80.011	19.994	103.793	19.729	15.334	0.544
1146.499	656.637	80.010	19.994	103.793	19.730	15.257	0.530
1146.999	656.885	80.011	19.993	103.791	19.727	15.504	0.522
1147.499	657.162	80.010	19.994	103.790	19.731	15.249	0.528
1147.999	657.379	80.010	19.994	103.790	19.732	15.178	0.509
1148.499	657.641	80.008	19.993	103.790	19.731	15.237	0.486
1148.999	657.905	80.010	19.994	103.791	19.732	15.132	0.503
1149.500	658.171	80.010	19.994	103.792	19.732	15.160	0.528
1150.000	658.392	80.009	19.994	103.789	19.731	15.248	0.509
1150.499	658.632	80.011	19.992	103.782	19.730	15.272	0.474
1150.999	658.940	80.011	19.992	103.779	19.731	15.221	0.504
1151.499	659.213	80.010	19.994	103.779	19.731	15.186	0.564
1151.999	659.445	80.010	19.993	103.779	19.732	15.133	0.543
1152.499	659.668	80.009	19.993	103.782	19.732	15.170	0.481
1152.999	659.912	80.009	19.994	103.789	19.730	15.266	0.461
1153.499	660.155	80.011	19.993	103.791	19.728	15.413	0.477
1153.999	660.434	80.010	19.992	103.790	19.730	15.312	0.504
1154.499	660.672	80.010	19.993	103.790	19.729	15.333	0.519
1154.999	660.899	80.011	19.993	103.787	19.725	15.618	0.491
1155.499	661.169	80.011	19.994	103.783	19.729	15.354	0.481
1155.999	661.430	80.010	19.993	103.782	19.727	15.489	0.515
1156.499	661.698	80.009	19.993	103.782	19.729	15.338	0.530
1156.999	661.926	80.009	19.994	103.782	19.731	15.238	0.512
1157.499	662.204	80.011	19.993	103.786	19.728	15.406	0.501
1157.999	662.453	80.009	19.995	103.784	19.731	15.233	0.517
1158.499	662.739	80.010	19.993	103.785	19.728	15.432	0.531
1158.999	662.999	80.007	19.994	103.785	19.729	15.372	0.540
1159.499	663.233	80.009	19.994	103.786	19.729	15.360	0.520
1159.999	663.481	80.009	19.993	103.787	19.730	15.266	0.488
1160.499	663.730	80.009	19.994	103.792	19.729	15.364	0.489
1160.999	663.984	80.008	19.995	103.792	19.729	15.364	0.500
1161.499	664.243	80.008	19.994	103.787	19.730	15.309	0.508
1161.999	664.554	80.008	19.994	103.784	19.729	15.384	0.541
1162.499	664.795	80.009	19.994	103.784	19.732	15.161	0.561
1162.999	665.038	80.010	19.994	103.782	19.730	15.263	0.518
1163.500	665.296	80.010	19.994	103.783	19.731	15.230	0.493
1164.000	665.566	80.009	19.994	103.786	19.732	15.154	0.515
1164.499	665.807	80.009	19.994	103.788	19.728	15.426	0.519
1164.999	666.121	80.009	19.994	103.788	19.728	15.458	0.533
1165.499	666.297	80.009	19.995	103.789	19.730	15.263	0.522
1165.999	666.571	80.010	19.994	103.788	19.729	15.355	0.470
1166.499	666.853	80.009	19.995	103.787	19.730	15.324	0.503
1166.999	667.086	80.010	19.995	103.785	19.731	15.243	0.536
1167.499	667.329	80.010	19.994	103.781	19.730	15.307	0.496
1167.999	667.593	80.010	19.995	103.779	19.729	15.373	0.491
1168.499	667.834	80.009	19.993	103.780	19.729	15.360	0.506
1168.999	668.092	80.009	19.993	103.782	19.731	15.188	0.502
1169.499	668.362	80.012	19.995	103.783	19.730	15.311	0.513
1169.999	668.646	80.010	19.994	103.786	19.732	15.138	0.541
1170.499	668.893	80.011	19.994	103.786	19.731	15.219	0.543
1170.999	669.134	80.011	19.995	103.786	19.731	15.240	0.510
1171.499	669.389	80.011	19.994	103.786	19.731	15.230	0.492
1171.999	669.680	80.010	19.994	103.786	19.731	15.214	0.521
1172.499	669.940	80.011	19.993	103.787	19.729	15.388	0.549
1172.999	670.193	80.011	19.993	103.788	19.731	15.195	0.532
1173.499	670.452	80.012	19.993	103.783	19.732	15.163	0.512
1173.999	670.763	80.011	19.994	103.778	19.733	15.108	0.541
1174.499	670.991	80.011	19.994	103.778	19.732	15.172	0.554
1174.999	671.202	80.011	19.993	103.777	19.734	15.000	0.489
1175.499	671.466	80.011	19.994	103.771	19.730	15.263	0.457
1175.999	671.722	80.012	19.993	103.774	19.731	15.240	0.498
1176.499	671.982	80.011	19.994	103.777	19.730	15.320	0.518
1176.999	672.268	80.013	19.993	103.777	19.728	15.424	0.531
1177.499	672.518	80.011	19.994	103.778	19.732	15.159	0.541
1177.999	672.751	80.011	19.994	103.784	19.729	15.335	0.510
1178.499	673.011	80.012	19.994	103.783	19.731	15.227	0.488
1178.999	673.278	80.011	19.992	103.782	19.729	15.347	0.510
1179.499	673.520	80.012	19.993	103.782	19.731	15.187	0.518
1179.999	673.799	80.010	19.994	103.782	19.730	15.302	0.515
1180.499	674.044	80.010	19.993	103.783	19.732	15.147	0.523
1181.000	674.322	80.012	19.994	103.786	19.731	15.194	0.524
1181.500	674.563	80.011	19.993	103.782	19.732	15.154	0.521
1182.000	674.842	80.012	19.993	103.779	19.733	15.080	0.519
1182.500	675.086	80.011	19.993	103.777	19.728	15.433	0.521
1182.999	675.360	80.011	19.994	103.776	19.731	15.227	0.520
1183.499	675.629	80.011	19.994	103.776	19.732	15.180	0.531
1183.999	675.857	80.011	19.995	103.781	19.729	15.328	0.520
1184.499	676.113	80.009	19.994	103.785	19.728	15.440	0.491
1184.999	676.358	80.009	19.994	103.786	19.728	15.416	0.492
1185.499	676.640	80.009	19.994	103.782	19.730	15.291	0.514
1185.999	676.879	80.009	19.994	103.778	19.729	15.355	0.524
1186.499	677.094	80.009	19.994	103.773	19.729	15.384	0.487
1186.999	677.409	80.010	19.995	103.766	19.728	15.407	0.492
1187.499	677.658	80.010	19.994	103.764	19.730	15.290	0.547
1187.999	677.919	80.009	19.995	103.769	19.729	15.389	0.537
1188.499	678.158	80.009	19.995	103.772	19.730	15.304	0.506
1188.999	678.421	80.008	19.994	103.777	19.730	15.317	0.501
1189.499	678.674	80.009	19.994	103.782	19.730	15.267	0.508
1189.999	678.919	80.009	19.995	103.779	19.728	15.400	0.507
1190.499	679.158	80.008	19.995	103.774	19.729	15.399	0.491
1190.999	679.365	80.008	19.995	103.775	19.729	15.335	0.465
1191.499	679.662	80.009	19.995	103.770	19.729	15.388	0.475
1191.999	679.875	80.009	19.994	103.769	19.728	15.403	0.507
1192.499	680.183	80.010	19.994	103.775	19.727	15.506	0.515
1192.999	680.408	80.008	19.995	103.779	19.728	15.416	0.527
1193.499	680.641	80.009	19.996	103.779	19.731	15.246	0.496
1193.999	680.910	80.008	19.995	103.783	19.725	15.677	0.480
1194.499	681.154	80.008	19.995	103.783	19.725	15.652	0.507
1194.999	681.413	80.008	19.996	103.778	19.730	15.313	0.508
1195.499	681.699	80.010	19.993	103.771	19.729	15.364	0.524
1195.999	681.943	80.009	19.996	103.769	19.728	15.425	0.538
1196.499	682.140	80.008	19.994	103.767	19.728	15.460	0.486
1196.999	682.396	80.008	19.995	103.763	19.726	15.573	0.447
1197.499	682.624	80.010	19.995	103.762	19.727	15.511	0.468
1197.999	682.867	80.010	19.995	103.762	19.728	15.426	0.477
1198.499	683.121	80.009	19.995	103.761	19.729	15.338	0.484
1198.999	683.374	80.008	19.994	103.758	19.728	15.451	0.502
1199.499	683.654	80.009	19.993	103.764	19.727	15.482	0.520
1199.999	683.862	80.008	19.994	103.771	19.726	15.588	0.511
1200.500	684.135	80.009	19.995	103.776	19.727	15.516	0.485
1201.000	684.363	80.010	19.994	103.780	19.727	15.512	0.492
1201.499	684.604	80.009	19.994	103.785	19.728	15.407	0.485
1201.999	684.838	80.009	19.994	103.787	19.727	15.483	0.472
1202.499	685.080	80.009	19.994	103.787	19.726	15.549	0.475
1202.999	685.356	80.010	19.993	103.785	19.727	15.503	0.497
1203.499	685.596	80.009	19.993	103.784	19.728	15.415	0.517
1203.999	685.862	80.010	19.993	103.781	19.728	15.408	0.511
1204.499	686.104	80.011	19.996	103.778	19.723	15.771	0.507
1204.999	686.321	80.009	19.996	103.778	19.725	15.628	0.484
1205.499	686.587	80.010	19.995	103.781	19.727	15.529	0.471
1205.999	686.830	80.009	19.994	103.782	19.727	15.514	0.496
1206.499	687.059	80.010	19.994	103.785	19.724	15.735	0.491
1206.999	687.315	80.009	19.994	103.789	19.724	15.719	0.478
1207.499	687.558	80.010	19.994	103.789	19.727	15.484	0.492
1207.999	687.810	80.009	19.994	103.788	19.723	15.808	0.497
1208.499	688.047	80.009	19.993	103.788	19.726	15.609	0.492
1208.999	688.302	80.010	19.993	103.785	19.722	15.838	0.490
1209.499	688.525	80.008	19.994	103.780	19.723	15.783	0.485
1209.999	688.804	80.010	19.993	103.779	19.728	15.452	0.490
1210.499	689.044	80.009	19.993	103.780	19.725	15.661	0.510
1210.999	689.332	80.010	19.993	103.780	19.726	15.612	0.524
1211.499	689.559	80.008	19.994	103.783	19.725	15.672	0.522
1211.999	689.801	80.009	19.993	103.783	19.725	15.620	0.492
1212.499	690.045	80.009	19.992	103.784	19.724	15.715	0.477
1213.000	690.320	80.009	19.994	103.783	19.724	15.706	0.502
1213.500	690.531	80.009	19.993	103.784	19.722	15.846	0.502
1213.999	690.777	80.011	19.993	103.785	19.722	15.862	0.471
1214.499	691.035	80.009	19.994	103.790	19.723	15.772	0.481
1214.999	691.266	80.009	19.993	103.791	19.721	15.942	0.497
1215.499	691.535	80.010	19.993	103.792	19.724	15.756	0.495
1215.999	691.774	80.010	19.994	103.792	19.720	16.026	0.504
1216.499	692.040	80.011	19.994	103.790	19.723	15.770	0.506
1216.999	692.275	80.008	19.994	103.785	19.721	15.962	0.503
1217.499	692.593	80.010	19.993	103.777	19.720	15.984	0.527
1218.000	692.780	80.008	19.994	103.770	19.721	15.964	0.529
1218.500	693.053	80.008	19.993	103.766	19.720	16.038	0.482
1218.999	693.317	80.009	19.994	103.768	19.720	16.009	0.498
1219.499	693.556	80.009	19.993	103.769	19.722	15.864	0.520
1219.999	693.807	80.009	19.994	103.770	19.721	15.929	0.496
1220.499	694.059	80.009	19.994	103.771	19.722	15.842	0.496
1220.999	694.308	80.009	19.993	103.773	19.724	15.731	0.502
1221.499	694.571	80.009	19.994	103.772	19.724	15.713	0.507
1221.999	694.790	80.009	19.994	103.776	19.720	16.036	0.497
1222.499	695.025	80.009	19.994	103.783	19.719	16.093	0.468
1222.999	695.312	80.008	19.993	103.786	19.721	15.946	0.488
1223.499	695.549	80.008	19.993	103.781	19.716	16.290	0.523
1223.999	695.858	80.007	19.994	103.777	19.717	16.250	0.536
1224.499	696.127	80.009	19.995	103.771	19.719	16.052	0.562
1224.999	696.341	80.008	19.993	103.764	19.716	16.290	0.530
1225.499	696.620	80.007	19.995	103.761	19.716	16.272	0.488
1225.999	696.859	80.008	19.994	103.765	19.719	16.102	0.506
1226.499	697.106	80.009	19.993	103.770	19.720	16.028	0.502
1226.999	697.361	80.009	19.994	103.775	19.720	16.048	0.494
1227.499	697.652	80.009	19.995	103.783	19.723	15.817	0.524
1227.999	697.895	80.008	19.993	103.788	19.726	15.585	0.540
1228.499	698.097	80.009	19.995	103.792	19.718	16.127	0.490
1228.999	698.361	80.009	19.992	103.791	19.718	16.125	0.455
1229.499	698.602	80.011	19.994	103.787	19.719	16.053	0.486
1229.999	698.879	80.008	19.994	103.779	19.720	16.028	0.512
1230.499	699.141	80.009	19.994	103.772	19.721	15.977	0.528
1230.999	699.412	80.010	19.993	103.765	19.720	15.990	0.536
1231.499	699.658	80.008	19.994	103.761	19.723	15.762	0.525
1231.999	699.880	80.010	19.994	103.760	19.717	16.260	0.492
1232.499	700.151	80.010	19.993	103.760	19.717	16.213	0.480
1232.999	700.426	80.011	19.993	103.763	19.717	16.242	0.519
1233.499	700.691	80.010	19.993	103.769	19.717	16.245	0.543
1233.999	700.938	80.011	19.994	103.773	19.717	16.237	0.526
1234.499	701.175	80.010	19.993	103.779	19.720	16.011	0.498
1234.999	701.489	80.012	19.994	103.784	19.719	16.096	0.517
1235.499	701.740	80.012	19.993	103.788	19.716	16.335	0.558
1235.999	701.949	80.011	19.993	103.788	19.719	16.071	0.513
1236.499	702.168	80.011	19.993	103.788	19.720	16.047	0.444
1236.999	702.449	80.012	19.993	103.788	19.719	16.088	0.464
1237.499	702.699	80.011	19.994	103.789	19.720	15.995	0.516
1237.999	702.972	80.012	19.993	103.789	19.719	16.085	0.527
1238.499	703.206	80.011	19.993	103.789	19.717	16.194	0.515
1238.999	703.474	80.012	19.994	103.787	19.715	16.340	0.504
1239.499	703.757	80.010	19.994	103.787	19.718	16.183	0.527
1239.999	704.010	80.011	19.993	103.787	19.717	16.219	0.544
1240.499	704.268	80.013	19.993	103.786	19.718	16.169	0.524
1241.000	704.533	80.011	19.992	103.787	19.718	16.141	0.517
1241.500	704.779	80.011	19.993	103.787	19.719	16.104	0.517
1241.999	705.009	80.012	19.994	103.785	19.721	15.972	0.493
1242.499	705.272	80.012	19.993	103.783	19.719	16.108	0.484
1242.999	705.494	80.011	19.993	103.783	19.720	15.981	0.489
1243.499	705.779	80.012	19.993	103.783	19.719	16.094	0.496
1243.999	706.027	80.012	19.992	103.785	19.718	16.121	0.520
1244.499	706.318	80.012	19.994	103.787	19.718	16.191	0.537
1244.999	706.476	80.010	19.993	103.789	19.719	16.054	0.494
1245.499	706.823	80.012	19.993	103.789	19.715	16.340	0.477
1245.999	707.048	80.011	19.992	103.783	19.718	16.122	0.538
1246.499	707.302	80.011	19.993	103.779	19.717	16.257	0.525
1246.999	707.519	80.010	19.993	103.777	19.717	16.264	0.475
1247.499	707.799	80.012	19.992	103.774	19.717	16.263	0.484
1247.999	708.045	80.011	19.994	103.773	19.715	16.368	0.511
1248.499	708.324	80.011	19.994	103.778	19.715	16.381	0.526
1249.000	708.572	80.010	19.993	103.776	19.719	16.092	0.526
1249.500	708.795	80.012	19.993	103.777	19.713	16.539	0.499
1249.999	709.095	80.012	19.993	103.775	19.715	16.340	0.497
1250.499	709.331	80.010	19.994	103.770	19.715	16.353	0.530
1250.999	709.591	80.010	19.994	103.772	19.714	16.432	0.517
1251.499	709.829	80.010	19.994	103.777	19.715	16.353	0.497
1251.999	710.075	80.012	19.994	103.774	19.713	16.545	0.491
1252.499	710.349	80.012	19.993	103.776	19.714	16.412	0.502
1252.999	710.590	80.011	19.995	103.777	19.716	16.276	0.518
1253.499	710.838	80.010	19.993	103.776	19.714	16.434	0.502
1253.999	711.115	80.011	19.993	103.772	19.713	16.518	0.507
1254.499	711.381	80.011	19.993	103.772	19.716	16.308	0.534
1254.999	711.620	80.011	19.994	103.768	19.716	16.310	0.524
1255.499	711.873	80.011	19.994	103.769	19.713	16.494	0.498
1255.999	712.165	80.011	19.995	103.769	19.715	16.383	0.518
1256.499	712.405	80.012	19.993	103.773	19.715	16.393	0.539
1256.999	712.675	80.012	19.994	103.777	19.715	16.375	0.521
1257.499	712.933	80.012	19.994	103.782	19.715	16.386	0.519
1257.999	713.163	80.011	19.993	103.784	19.711	16.651	0.508
1258.499	713.402	80.012	19.995	103.780	19.711	16.643	0.478
1258.999	713.635	80.011	19.994	103.777	19.714	16.473	0.470
1259.499	713.891	80.013	19.993	103.774	19.714	16.465	0.480
1259.999	714.190	80.012	19.994	103.775	19.713	16.550	0.522
1260.499	714.445	80.011	19.993	103.773	19.713	16.503	0.555
1260.999	714.699	80.012	19.994	103.774	19.714	16.448	0.532
1261.499	714.952	80.011	19.993	103.772	19.713	16.545	0.508
1261.999	715.196	80.013	19.993	103.773	19.714	16.478	0.502
1262.500	715.452	80.012	19.995	103.772	19.712	16.617	0.498
1263.000	715.677	80.013	19.994	103.771	19.714	16.469	0.490
1263.499	715.965	80.011	19.994	103.774	19.712	16.567	0.497
1263.999	716.210	80.012	19.993	103.776	19.716	16.308	0.523
1264.500	716.453	80.012	19.996	103.777	19.712	16.618	0.510
1265.000	716.736	80.012	19.997	103.778	19.711	16.631	0.507
1265.499	717.030	80.012	19.997	103.781	19.712	16.619	0.551
1265.999	717.266	80.014	19.996	103.784	19.711	16.665	0.553
1266.499	717.498	80.012	19.995	103.786	19.709	16.805	0.499
1266.999	717.778	80.012	19.994	103.787	19.710	16.722	0.490
1267.499	718.028	80.011	19.994	103.785	19.710	16.726	0.521
1268.000	718.266	80.012	19.994	103.785	19.713	16.500	0.509
1268.500	718.546	80.011	19.995	103.780	19.709	16.833	0.503
1268.999	718.790	80.011	19.994	103.778	19.710	16.751	0.521
1269.499	719.056	80.011	19.994	103.779	19.709	16.828	0.517
1269.999	719.309	80.011	19.995	103.777	19.708	16.897	0.515
1270.500	719.553	80.011	19.994	103.775	19.708	16.863	0.508
1271.000	719.839	80.010	19.994	103.780	19.710	16.713	0.513
1271.499	720.096	80.010	19.994	103.781	19.707	16.986	0.536
1271.999	720.331	80.010	19.994	103.775	19.710	16.736	0.518
1272.499	720.626	80.009	19.993	103.775	19.710	16.705	0.511
1272.999	720.843	80.011	19.994	103.773	19.711	16.696	0.521
1273.499	721.084	80.009	19.993	103.773	19.710	16.769	0.486
1273.999	721.339	80.010	19.994	103.774	19.709	16.773	0.477
1274.499	721.628	80.009	19.994	103.780	19.709	16.800	0.519
1274.999	721.895	80.011	19.994	103.783	19.709	16.835	0.549
1275.499	722.136	80.010	19.993	103.781	19.707	16.931	0.532
1275.999	722.410	80.010	19.992	103.777	19.709	16.798	0.512
1276.499	722.688	80.009	19.994	103.773	19.709	16.784	0.533
1276.999	722.917	80.010	19.993	103.769	19.709	16.789	0.530
1277.499	723.191	80.009	19.993	103.765	19.709	16.804	0.506
1277.999	723.466	80.009	19.994	103.770	19.707	16.932	0.526
1278.499	723.717	80.009	19.993	103.771	19.709	16.791	0.537
1278.999	723.991	80.010	19.993	103.775	19.712	16.574	0.525
1279.499	724.206	80.009	19.994	103.778	19.708	16.906	0.507
1279.999	724.490	80.009	19.994	103.783	19.711	16.673	0.494
1280.499	724.753	80.008	19.994	103.785	19.710	16.768	0.523
1280.999	725.007	80.009	19.994	103.788	19.709	16.774	0.532
1281.499	725.255	80.010	19.993	103.784	19.710	16.745	0.509
1282.000	725.565	80.009	19.993	103.777	19.710	16.721	0.530
1282.500	725.780	80.009	19.993	103.776	19.707	16.946	0.542
1282.999	725.981	80.010	19.993	103.773	19.711	16.657	0.471
1283.499	726.252	80.009	19.994	103.773	19.709	16.805	0.444
1283.999	726.508	80.010	19.994	103.778	19.709	16.831	0.499
1284.499	726.799	80.008	19.995	103.784	19.708	16.852	0.537
1284.999	727.033	80.009	19.993	103.785	19.710	16.733	0.536
1285.499	727.343	80.008	19.995	103.784	19.705	17.079	0.535
1285.999	727.600	80.009	19.994	103.778	19.698	17.615	0.555
1286.499	727.876	80.008	19.994	103.772	19.701	17.389	0.549
1286.999	728.096	80.008	19.995	103.770	19.702	17.325	0.514
1287.499	728.400	80.008	19.994	103.770	19.696	17.737	0.511
1287.999	728.689	80.009	19.994	103.774	19.697	17.651	0.559
1288.499	728.895	80.009	19.995	103.781	19.704	17.169	0.544
1288.999	729.181	80.009	19.994	103.786	19.702	17.280	0.493
1289.499	729.398	80.009	19.995	103.788	19.703	17.222	0.498
1289.999	729.670	80.009	19.994	103.784	19.704	17.202	0.496
1290.499	729.931	80.010	19.994	103.783	19.704	17.142	0.511
1290.999	730.190	80.009	19.994	103.780	19.702	17.301	0.526
1291.499	730.466	80.009	19.994	103.779	19.702	17.287	0.527
1291.999	730.738	80.010	19.994	103.776	19.702	17.308	0.542
1292.499	730.996	80.009	19.994	103.778	19.701	17.380	0.539
1292.999	731.228	80.009	19.994	103.779	19.702	17.336	0.510
1293.499	731.476	80.010	19.994	103.781	19.705	17.062	0.485
1293.999	731.761	80.010	19.993	103.779	19.703	17.255	0.507
1294.499	732.003	80.009	19.994	103.778	19.704	17.173	0.530
1294.999	732.255	80.009	19.994	103.778	19.701	17.357	0.510
1295.499	732.549	80.010	19.994	103.778	19.701	17.356	0.520
1295.999	732.794	80.010	19.995	103.779	19.704	17.146	0.542
1296.499	733.044	80.009	19.995	103.782	19.701	17.405	0.517
1296.999	733.293	80.009	19.994	103.788	19.706	17.019	0.497
1297.499	733.546	80.009	19.995	103.790	19.704	17.190	0.501
1297.999	733.788	80.009	19.994	103.791	19.703	17.222	0.499
1298.499	734.076	80.009	19.994	103.792	19.703	17.251	0.512
1298.999	734.254	80.009	19.994	103.794	19.701	17.412	0.498
1299.499	734.568	80.010	19.994	103.795	19.702	17.279	0.479
1300.000	734.777	80.010	19.994	103.795	19.705	17.107	0.508
1300.500	735.037	80.008	19.994	103.793	19.704	17.154	0.496
1300.999	735.294	80.010	19.995	103.790	19.704	17.140	0.493
1301.499	735.535	80.009	19.994	103.782	19.707	16.924	0.507
1301.999	735.778	80.010	19.994	103.776	19.706	17.024	0.491
1302.499	736.092	80.009	19.994	103.775	19.706	16.994	0.520
1302.999	736.383	80.010	19.994	103.776	19.705	17.095	0.581
1303.499	736.622	80.010	19.993	103.774	19.707	16.980	0.568
1303.999	736.831	80.008	19.994	103.775	19.703	17.260	0.489
1304.499	737.125	80.008	19.994	103.776	19.705	17.105	0.476
1305.000	737.375	80.008	19.994	103.774	19.707	16.935	0.524
1305.500	737.636	80.009	19.995	103.772	19.702	17.282	0.528
1305.999	737.906	80.010	19.994	103.775	19.703	17.246	0.521
1306.499	738.152	80.011	19.993	103.780	19.704	17.182	0.523
1306.999	738.418	80.010	19.994	103.782	19.703	17.272	0.514
1307.499	738.739	80.010	19.993	103.784	19.701	17.370	0.549
1307.999	738.955	80.011	19.994	103.783	19.701	17.378	0.562
1308.499	739.229	80.010	19.993	103.777	19.704	17.177	0.514
1308.999	739.476	80.009	19.994	103.775	19.700	17.446	0.505
1309.499	739.756	80.010	19.993	103.771	19.702	17.345	0.524
1309.999	739.999	80.009	19.994	103.766	19.698	17.583	0.525
1310.499	740.248	80.008	19.993	103.765	19.698	17.636	0.507
1310.999	740.510	80.009	19.993	103.771	19.699	17.563	0.502
1311.499	740.782	80.009	19.993	103.773	19.699	17.495	0.523
1311.999	741.015	80.008	19.993	103.774	19.699	17.528	0.519
1312.499	741.244	80.010	19.994	103.775	19.700	17.475	0.483
1312.999	741.536	80.010	19.995	103.777	19.699	17.510	0.492
1313.499	741.793	80.010	19.994	103.773	19.701	17.370	0.535
1313.999	742.046	80.009	19.995	103.772	19.702	17.320	0.530
1314.499	742.342	80.011	19.994	103.775	19.700	17.426	0.529
1314.999	742.522	80.010	19.994	103.780	19.699	17.541	0.512
1315.499	742.817	80.011	19.993	103.782	19.694	17.871	0.476
1315.999	743.059	80.011	19.993	103.784	19.699	17.515	0.506
1316.499	743.320	80.011	19.993	103.780	19.700	17.460	0.520
1316.999	743.545	80.010	19.994	103.778	19.699	17.496	0.495
