Sample ID:	C:\MCC\MCC Cal\Test\Bean_Bag_Chair_Inner_Lining_MCC_30K_min_220314_R3.txt
Sample Weight (mg):	4.66
Heating Rate (C/s):	0.5
Combustor Temp (C):	900
N2 Flow Rate (cc/min):	80
O2 Flow Rate (cc/min):	20
Calibration File:	C:\MCC\MCC Cal\Coeff1 JN10440_30_210304.txt.txt
T Correction Coefficients:	0	1.024463	0
Time Shift (s):	14
*
Time (s)	Temperature (C)	N2 flow rate (cc/min)	O2 flow rate (cc/min)	Flow Rate (cc/min)	Oxygen (%)	HRR (W/g)	Heating rate (C/s)
0.000	107.745	80.004	19.997	103.673	19.792	-0.255	-0.028
0.500	107.799	80.009	19.995	103.672	19.792	-0.262	0.002
1.000	107.752	80.007	19.993	103.673	19.790	-0.109	0.019
1.500	107.767	80.003	19.995	103.674	19.791	-0.146	-0.012
2.000	107.750	80.003	19.998	103.673	19.791	-0.187	-0.017
2.500	107.739	80.006	19.994	103.673	19.790	-0.103	-0.015
3.000	107.796	80.009	19.992	103.674	19.789	-0.058	0.009
3.500	107.748	80.007	19.995	103.674	19.794	-0.414	0.027
4.000	107.759	80.004	19.996	103.671	19.793	-0.341	-0.014
4.500	107.751	80.006	19.994	103.670	19.795	-0.463	-0.017
5.000	107.718	80.009	19.994	103.671	19.792	-0.214	-0.019
5.500	107.783	80.007	19.994	103.672	19.794	-0.381	-0.005
6.000	107.763	80.008	19.994	103.672	19.794	-0.373	0.038
6.500	107.750	80.005	19.994	103.675	19.796	-0.493	0.006
7.000	107.757	80.007	19.994	103.677	19.797	-0.566	-0.019
7.500	107.796	80.007	19.993	103.677	19.794	-0.411	0.020
8.000	107.740	80.005	19.996	103.677	19.798	-0.688	0.014
8.500	107.768	80.008	19.997	103.676	19.792	-0.219	-0.023
9.000	107.790	80.006	19.995	103.675	19.795	-0.446	0.011
9.500	107.764	80.007	19.990	103.675	19.795	-0.469	0.023
10.000	107.788	80.010	19.992	103.675	19.789	-0.049	-0.003
10.500	107.788	80.006	19.994	103.674	19.795	-0.461	0.012
11.000	107.759	80.006	19.993	103.674	19.795	-0.457	-0.002
11.500	107.789	80.008	19.994	103.674	19.796	-0.489	-0.014
12.000	107.742	80.007	19.993	103.675	19.794	-0.373	-0.008
12.500	107.766	80.009	19.994	103.673	19.794	-0.379	-0.020
13.000	107.778	80.009	19.993	103.673	19.793	-0.287	0.007
13.500	107.753	80.009	19.994	103.673	19.795	-0.465	0.012
14.000	107.796	80.010	19.994	103.672	19.795	-0.471	0.003
14.500	107.788	80.009	19.991	103.673	19.796	-0.493	0.027
15.000	107.768	80.011	19.989	103.674	19.794	-0.400	0.004
15.500	107.754	80.010	19.994	103.674	19.796	-0.525	-0.031
16.000	107.787	80.012	19.993	103.677	19.791	-0.178	-0.008
16.500	107.763	80.009	19.994	103.680	19.788	0.047	0.014
17.000	107.774	80.010	19.994	103.686	19.796	-0.501	-0.002
17.500	107.788	80.011	19.996	103.692	19.793	-0.289	0.006
18.000	107.796	80.009	19.995	103.700	19.792	-0.236	0.024
18.500	107.810	80.010	19.994	103.705	19.796	-0.514	0.023
19.000	107.808	80.009	19.994	103.708	19.787	0.083	0.017
19.500	107.762	80.009	19.994	103.708	19.789	-0.043	-0.019
20.000	107.791	80.010	19.993	103.702	19.789	-0.021	-0.033
20.500	107.819	80.008	19.994	103.696	19.788	0.068	0.021
21.000	107.822	80.011	19.993	103.692	19.789	-0.066	0.044
21.500	107.821	80.010	19.993	103.691	19.793	-0.282	0.017
22.000	107.814	80.006	19.994	103.692	19.789	-0.034	-0.003
22.500	107.859	80.013	19.994	103.699	19.787	0.103	0.014
23.000	107.854	80.013	19.993	103.709	19.787	0.109	0.038
23.500	107.853	80.018	19.988	103.721	19.786	0.205	0.017
24.000	107.872	80.008	19.990	103.731	19.788	0.009	0.007
24.500	107.871	80.006	19.994	103.739	19.785	0.276	0.018
25.000	107.884	80.009	19.994	103.747	19.786	0.203	0.015
25.500	107.894	80.007	19.993	103.748	19.785	0.259	0.017
26.000	107.890	80.009	19.994	103.748	19.783	0.376	0.014
26.500	107.923	80.010	19.994	103.748	19.781	0.533	0.018
27.000	107.912	80.009	19.994	103.747	19.781	0.541	0.026
27.500	107.951	80.011	19.994	103.747	19.779	0.631	0.025
28.000	107.970	80.006	19.992	103.751	19.778	0.717	0.043
28.500	107.972	80.009	19.994	103.758	19.778	0.759	0.040
29.000	107.990	80.008	19.997	103.767	19.778	0.744	0.020
29.500	108.026	80.006	19.994	103.782	19.777	0.811	0.037
30.000	108.022	80.008	19.992	103.797	19.771	1.202	0.043
30.500	108.055	80.008	19.992	103.811	19.771	1.185	0.031
31.000	108.084	80.005	19.997	103.818	19.772	1.125	0.046
31.500	108.103	80.009	19.991	103.824	19.772	1.113	0.055
32.000	108.161	80.011	19.993	103.826	19.773	1.080	0.063
32.500	108.193	80.007	19.992	103.829	19.769	1.331	0.083
33.000	108.180	80.008	19.996	103.833	19.766	1.585	0.054
33.500	108.224	80.008	19.993	103.836	19.766	1.534	0.025
34.000	108.280	80.012	19.990	103.839	19.767	1.478	0.066
34.500	108.316	80.008	19.994	103.844	19.765	1.643	0.097
35.000	108.383	80.006	19.999	103.846	19.766	1.564	0.097
35.500	108.404	80.009	19.994	103.841	19.764	1.702	0.095
36.000	108.451	80.013	19.995	103.838	19.762	1.822	0.078
36.500	108.520	80.014	19.993	103.840	19.764	1.709	0.093
37.001	108.544	80.004	19.994	103.838	19.768	1.418	0.105
37.501	108.647	80.009	19.993	103.835	19.761	1.931	0.110
38.000	108.702	80.009	19.994	103.837	19.764	1.674	0.142
38.500	108.733	80.008	19.997	103.838	19.761	1.906	0.122
39.000	108.813	80.006	19.993	103.835	19.759	2.053	0.098
39.501	108.875	80.010	19.995	103.836	19.764	1.717	0.126
40.001	108.925	80.013	19.995	103.839	19.764	1.735	0.127
40.500	108.986	80.002	19.994	103.840	19.761	1.936	0.112
41.000	109.048	80.006	19.999	103.842	19.766	1.570	0.117
41.500	109.089	80.014	19.990	103.846	19.765	1.628	0.113
42.000	109.117	80.003	19.997	103.848	19.766	1.533	0.086
42.500	109.206	80.008	20.001	103.849	19.761	1.884	0.093
43.000	109.291	80.010	19.993	103.851	19.760	1.976	0.146
43.500	109.379	80.009	19.996	103.856	19.760	1.997	0.174
44.000	109.408	80.013	19.993	103.857	19.759	2.048	0.145
44.500	109.537	80.014	19.992	103.858	19.763	1.753	0.137
45.000	109.589	80.011	19.994	103.862	19.759	2.057	0.169
45.501	109.656	80.014	19.994	103.867	19.755	2.315	0.150
46.001	109.741	80.010	19.997	103.869	19.760	1.993	0.136
46.500	109.805	80.008	19.991	103.870	19.761	1.929	0.151
47.000	109.886	80.006	19.992	103.872	19.758	2.112	0.147
47.500	109.992	80.010	19.991	103.873	19.756	2.241	0.166
48.000	110.085	80.009	19.993	103.878	19.757	2.213	0.193
48.500	110.165	80.014	19.994	103.881	19.758	2.123	0.187
49.000	110.198	80.008	19.996	103.883	19.755	2.350	0.143
49.500	110.308	80.009	19.990	103.881	19.758	2.114	0.128
50.000	110.457	80.008	19.989	103.884	19.759	2.040	0.201
50.500	110.534	80.011	19.995	103.883	19.755	2.350	0.242
51.000	110.621	80.005	19.993	103.878	19.755	2.360	0.195
51.500	110.668	80.011	19.993	103.877	19.757	2.213	0.149
52.000	110.788	80.013	19.992	103.876	19.752	2.574	0.151
52.500	110.874	80.006	19.996	103.879	19.754	2.375	0.186
53.000	111.000	80.007	19.998	103.881	19.757	2.225	0.209
53.500	111.102	80.013	19.998	103.888	19.753	2.496	0.220
54.000	111.228	80.004	19.993	103.892	19.756	2.272	0.228
54.500	111.315	80.014	19.994	103.900	19.758	2.155	0.220
55.000	111.442	80.010	19.995	103.900	19.754	2.368	0.213
55.500	111.531	80.003	19.992	103.902	19.753	2.495	0.215
56.000	111.631	80.009	19.997	103.904	19.752	2.535	0.203
56.500	111.733	80.007	19.995	103.907	19.754	2.405	0.195
57.000	111.891	80.008	19.992	103.907	19.754	2.416	0.231
57.500	111.968	80.012	19.990	103.906	19.753	2.495	0.247
58.000	112.099	80.009	19.990	103.907	19.750	2.695	0.221
58.500	112.169	80.010	19.998	103.908	19.753	2.484	0.205
59.000	112.306	80.010	19.994	103.907	19.751	2.599	0.204
59.500	112.434	80.004	19.992	103.908	19.751	2.603	0.236
60.000	112.573	80.009	19.997	103.909	19.753	2.501	0.266
60.500	112.677	80.012	19.992	103.908	19.748	2.804	0.255
61.000	112.797	80.007	19.996	103.909	19.751	2.599	0.234
61.500	112.926	80.011	19.996	103.912	19.752	2.554	0.237
62.000	113.089	80.004	19.993	103.913	19.751	2.588	0.270
62.500	113.204	80.009	19.992	103.917	19.749	2.766	0.285
63.000	113.310	80.005	19.997	103.920	19.750	2.669	0.250
63.500	113.464	80.009	19.995	103.925	19.751	2.580	0.241
64.000	113.577	80.010	19.994	103.930	19.749	2.766	0.263
64.500	113.722	80.003	19.992	103.936	19.753	2.483	0.262
65.000	113.835	80.007	19.998	103.937	19.749	2.721	0.259
65.500	114.001	80.008	19.992	103.933	19.752	2.539	0.268
66.000	114.126	80.004	19.997	103.928	19.746	2.958	0.284
66.500	114.274	80.010	19.993	103.923	19.746	2.930	0.282
67.000	114.389	80.007	19.999	103.917	19.746	2.962	0.269
67.500	114.553	80.013	19.993	103.914	19.753	2.500	0.271
68.000	114.670	80.006	19.999	103.920	19.750	2.648	0.279
68.500	114.822	80.007	19.997	103.925	19.750	2.691	0.275
69.000	114.959	80.007	19.994	103.929	19.748	2.791	0.280
69.500	115.151	80.008	19.992	103.934	19.746	2.990	0.309
70.000	115.255	80.006	19.993	103.940	19.745	3.020	0.312
70.500	115.406	80.004	19.998	103.940	19.748	2.787	0.276
71.000	115.570	80.008	19.991	103.939	19.747	2.875	0.285
71.500	115.725	80.006	19.991	103.939	19.743	3.146	0.317
72.000	115.902	80.009	19.991	103.941	19.743	3.182	0.325
72.500	116.037	80.005	20.001	103.941	19.746	2.984	0.322
73.001	116.204	80.005	19.992	103.940	19.745	3.016	0.307
73.501	116.373	80.007	19.995	103.943	19.742	3.263	0.319
74.001	116.510	80.006	19.998	103.943	19.743	3.195	0.321
74.500	116.640	80.008	19.993	103.940	19.738	3.543	0.286
75.000	116.807	80.011	19.993	103.941	19.739	3.479	0.282
75.500	117.009	80.009	19.994	103.944	19.742	3.261	0.334
76.000	117.153	80.010	19.993	103.943	19.737	3.601	0.358
76.500	117.301	80.009	19.997	103.944	19.743	3.173	0.319
77.001	117.463	80.009	19.996	103.946	19.742	3.223	0.300
77.501	117.684	80.006	20.000	103.946	19.743	3.191	0.347
78.000	117.836	80.012	19.995	103.943	19.745	3.041	0.378
78.500	118.008	80.007	19.996	103.944	19.744	3.077	0.349
79.000	118.151	80.006	19.995	103.943	19.746	2.990	0.319
79.500	118.344	80.006	19.997	103.942	19.738	3.503	0.325
80.000	118.469	80.007	20.000	103.940	19.742	3.203	0.327
80.500	118.651	80.012	19.996	103.942	19.744	3.069	0.312
81.000	118.850	80.007	19.994	103.941	19.746	2.962	0.344
81.500	119.067	80.006	19.995	103.941	19.743	3.144	0.399
82.000	119.206	80.007	19.993	103.941	19.744	3.131	0.386
82.501	119.427	80.005	19.996	103.943	19.740	3.381	0.358
83.001	119.569	80.005	19.994	103.943	19.740	3.364	0.362
83.500	119.747	80.003	20.000	103.941	19.738	3.507	0.341
84.000	119.948	80.004	19.989	103.940	19.740	3.375	0.349
84.500	120.137	80.005	20.001	103.941	19.746	2.947	0.385
85.000	120.287	80.008	19.995	103.940	19.740	3.406	0.365
85.500	120.496	80.006	19.993	103.940	19.743	3.146	0.349
86.000	120.636	80.008	19.996	103.942	19.740	3.392	0.354
86.500	120.864	80.012	19.993	103.943	19.741	3.323	0.358
87.001	121.023	80.009	19.993	103.944	19.740	3.349	0.378
87.501	121.222	80.005	19.996	103.945	19.743	3.197	0.372
88.000	121.416	80.007	19.994	103.945	19.736	3.644	0.375
88.500	121.606	80.007	19.992	103.945	19.739	3.471	0.389
89.000	121.778	80.005	19.994	103.947	19.739	3.426	0.374
89.500	121.998	80.008	19.992	103.945	19.740	3.349	0.377
90.000	122.175	80.005	19.991	103.946	19.737	3.614	0.394
90.500	122.413	80.006	19.994	103.946	19.740	3.374	0.405
91.000	122.582	80.012	19.992	103.946	19.743	3.135	0.411
91.500	122.804	80.007	19.997	103.946	19.738	3.546	0.400
92.000	123.033	80.006	19.991	103.945	19.736	3.622	0.421
92.500	123.188	80.010	19.994	103.945	19.739	3.456	0.417
93.000	123.419	80.007	19.994	103.945	19.740	3.357	0.385
93.500	123.639	80.012	19.993	103.945	19.738	3.520	0.419
94.000	123.823	80.008	19.992	103.944	19.736	3.642	0.428
94.500	124.011	80.008	19.994	103.945	19.737	3.577	0.388
95.000	124.220	80.008	19.993	103.943	19.741	3.287	0.384
95.500	124.428	80.008	19.995	103.943	19.739	3.458	0.407
96.000	124.575	80.011	19.995	103.943	19.738	3.535	0.386
96.500	124.864	80.009	19.994	103.943	19.739	3.417	0.396
97.000	125.052	80.004	19.998	103.943	19.739	3.456	0.457
97.500	125.213	80.007	19.996	103.943	19.738	3.541	0.413
98.000	125.452	80.011	19.986	103.943	19.739	3.447	0.374
98.500	125.680	80.015	19.992	103.944	19.741	3.325	0.434
99.000	125.910	80.012	19.993	103.945	19.737	3.556	0.463
99.500	126.098	80.009	19.995	103.946	19.739	3.449	0.438
100.000	126.322	80.008	19.995	103.946	19.742	3.255	0.415
100.500	126.531	80.013	19.990	103.946	19.735	3.689	0.423
101.000	126.725	80.011	19.994	103.944	19.737	3.552	0.418
101.500	126.914	80.010	19.994	103.943	19.742	3.268	0.393
102.000	127.198	80.011	19.994	103.942	19.738	3.522	0.428
102.500	127.383	80.009	19.990	103.943	19.738	3.507	0.471
103.000	127.577	80.010	19.996	103.944	19.736	3.635	0.424
103.500	127.819	80.010	19.994	103.945	19.735	3.735	0.408
104.000	128.020	80.011	19.992	103.946	19.738	3.543	0.439
104.500	128.262	80.011	19.991	103.947	19.738	3.518	0.442
105.000	128.457	80.011	19.997	103.947	19.731	4.009	0.440
105.500	128.681	80.005	19.999	103.948	19.737	3.614	0.428
106.000	128.901	80.008	19.991	103.948	19.736	3.671	0.432
106.500	129.174	80.009	19.995	103.948	19.737	3.611	0.468
107.000	129.347	80.006	19.994	103.949	19.736	3.675	0.469
107.500	129.553	80.008	19.996	103.950	19.737	3.588	0.413
108.001	129.802	80.011	19.994	103.949	19.742	3.252	0.417
108.501	130.065	80.008	19.996	103.948	19.739	3.456	0.483
109.000	130.252	80.012	19.994	103.948	19.737	3.580	0.481
109.500	130.480	80.008	19.997	103.945	19.736	3.665	0.432
110.000	130.725	80.015	19.986	103.943	19.737	3.599	0.444
110.500	130.901	80.010	19.994	103.945	19.733	3.866	0.447
111.000	131.171	80.009	19.994	103.946	19.736	3.639	0.434
111.500	131.403	80.007	19.995	103.947	19.740	3.348	0.474
112.000	131.590	80.007	19.996	103.947	19.739	3.474	0.460
112.500	131.866	80.015	19.994	103.947	19.737	3.558	0.441
113.000	132.058	80.010	19.994	103.946	19.735	3.750	0.466
113.500	132.309	80.009	19.994	103.946	19.733	3.855	0.456
114.000	132.520	80.010	19.994	103.946	19.737	3.601	0.452
114.500	132.777	80.007	19.993	103.947	19.738	3.533	0.465
115.001	132.981	80.009	19.993	103.947	19.733	3.887	0.465
115.501	133.257	80.010	19.992	103.947	19.738	3.511	0.471
116.000	133.490	80.008	19.991	103.949	19.736	3.637	0.494
116.500	133.703	80.010	19.992	103.953	19.736	3.629	0.478
117.000	133.941	80.009	19.991	103.955	19.740	3.366	0.449
117.500	134.164	80.010	19.991	103.956	19.737	3.556	0.456
118.000	134.384	80.008	19.991	103.957	19.741	3.317	0.452
118.500	134.634	80.007	19.997	103.956	19.741	3.323	0.456
119.000	134.887	80.012	19.992	103.952	19.737	3.550	0.486
119.500	135.154	80.011	19.993	103.950	19.741	3.295	0.512
120.000	135.386	80.012	19.992	103.948	19.740	3.355	0.510
120.500	135.581	80.010	19.993	103.947	19.738	3.500	0.463
121.000	135.868	80.010	19.993	103.946	19.740	3.409	0.455
121.500	136.067	80.013	19.994	103.950	19.739	3.421	0.484
122.000	136.336	80.013	19.991	103.951	19.741	3.302	0.477
122.500	136.537	80.012	19.990	103.953	19.740	3.391	0.469
123.000	136.793	80.010	19.994	103.954	19.739	3.439	0.463
123.500	137.092	80.013	19.995	103.952	19.734	3.812	0.506
124.000	137.258	80.008	19.994	103.949	19.735	3.744	0.510
124.500	137.547	80.013	19.993	103.948	19.737	3.616	0.460
125.000	137.816	80.011	19.993	103.948	19.736	3.635	0.506
125.500	138.028	80.010	19.994	103.947	19.737	3.550	0.520
126.000	138.274	80.011	19.996	103.947	19.738	3.498	0.470
126.500	138.510	80.012	19.996	103.945	19.739	3.424	0.470
127.000	138.744	80.007	19.997	103.945	19.737	3.578	0.476
127.500	139.028	80.014	19.992	103.942	19.738	3.511	0.494
128.000	139.288	80.006	19.998	103.943	19.744	3.099	0.531
128.500	139.538	80.010	19.996	103.943	19.738	3.535	0.527
129.000	139.752	80.009	19.996	103.943	19.737	3.574	0.487
129.500	140.008	80.009	19.992	103.942	19.743	3.172	0.467
130.000	140.258	80.011	19.995	103.944	19.736	3.638	0.488
130.500	140.507	80.012	19.991	103.943	19.737	3.565	0.503
131.000	140.782	80.008	19.992	103.943	19.739	3.460	0.512
131.500	141.025	80.009	19.992	103.944	19.738	3.513	0.521
132.000	141.307	80.009	19.994	103.946	19.738	3.484	0.522
132.500	141.506	80.011	19.993	103.945	19.741	3.310	0.503
133.000	141.809	80.007	19.994	103.946	19.737	3.560	0.491
133.500	142.047	80.006	19.994	103.946	19.737	3.597	0.521
134.000	142.297	80.006	19.993	103.947	19.739	3.467	0.515
134.500	142.547	80.005	19.994	103.947	19.740	3.349	0.494
135.000	142.783	80.006	19.994	103.947	19.740	3.394	0.493
135.500	143.021	80.007	19.993	103.947	19.741	3.319	0.479
136.000	143.285	80.007	19.995	103.947	19.744	3.127	0.488
136.500	143.470	80.007	19.993	103.946	19.742	3.202	0.476
137.000	143.790	80.009	19.995	103.945	19.743	3.169	0.478
137.500	144.039	80.006	19.997	103.946	19.740	3.398	0.537
138.000	144.249	80.007	19.997	103.945	19.744	3.099	0.514
138.500	144.537	80.007	19.994	103.940	19.743	3.178	0.478
139.000	144.812	80.007	19.995	103.939	19.741	3.302	0.530
139.500	145.050	80.008	19.993	103.937	19.742	3.208	0.538
140.000	145.264	80.008	19.994	103.932	19.745	3.059	0.482
140.500	145.567	80.008	19.994	103.931	19.746	2.986	0.485
141.000	145.839	80.009	19.993	103.936	19.745	3.001	0.546
141.500	146.076	80.008	19.995	103.937	19.739	3.414	0.542
142.000	146.297	80.009	19.993	103.938	19.740	3.345	0.484
142.500	146.569	80.008	19.995	103.943	19.744	3.123	0.475
143.000	146.791	80.008	19.993	103.944	19.745	3.012	0.493
143.500	147.081	80.008	19.995	103.944	19.742	3.236	0.503
144.000	147.328	80.009	19.994	103.943	19.739	3.420	0.525
144.500	147.603	80.008	19.994	103.943	19.740	3.405	0.529
145.000	147.813	80.008	19.994	103.942	19.744	3.078	0.504
145.500	148.091	80.008	19.993	103.942	19.740	3.371	0.487
146.000	148.328	80.009	19.994	103.942	19.745	3.025	0.501
146.500	148.593	80.007	19.995	103.943	19.743	3.136	0.509
147.000	148.852	80.009	19.994	103.941	19.746	2.950	0.513
147.500	149.130	80.006	19.995	103.940	19.743	3.132	0.530
148.000	149.373	80.009	19.994	103.938	19.742	3.234	0.529
148.500	149.683	80.008	19.995	103.934	19.744	3.113	0.537
149.000	149.895	80.007	19.993	103.932	19.740	3.363	0.538
149.500	150.178	80.008	19.996	103.932	19.742	3.247	0.509
150.000	150.429	80.009	19.994	103.932	19.743	3.149	0.514
150.500	150.707	80.008	19.993	103.932	19.744	3.113	0.532
151.000	150.951	80.008	19.995	103.932	19.744	3.119	0.526
151.500	151.191	80.007	19.996	103.928	19.742	3.267	0.503
152.000	151.459	80.006	19.995	103.930	19.740	3.408	0.496
152.500	151.723	80.008	19.994	103.929	19.744	3.111	0.520
153.000	151.957	80.008	19.996	103.927	19.746	2.967	0.515
153.500	152.224	80.006	19.994	103.928	19.746	2.935	0.499
154.000	152.502	80.007	19.994	103.930	19.742	3.221	0.523
154.500	152.720	80.008	19.994	103.931	19.742	3.230	0.521
155.000	153.012	80.008	19.993	103.931	19.743	3.157	0.503
155.500	153.236	80.008	19.995	103.931	19.743	3.171	0.513
156.000	153.527	80.008	19.993	103.931	19.740	3.378	0.515
156.500	153.782	80.008	19.996	103.931	19.748	2.799	0.531
157.000	154.026	80.006	19.998	103.927	19.743	3.200	0.523
157.500	154.278	80.007	19.994	103.926	19.744	3.077	0.498
158.000	154.482	80.009	19.993	103.925	19.743	3.143	0.476
158.500	154.706	80.007	19.993	103.924	19.744	3.077	0.442
159.000	154.985	80.007	19.993	103.918	19.749	2.756	0.465
159.500	155.232	80.009	19.993	103.917	19.745	3.060	0.515
160.000	155.488	80.007	19.996	103.911	19.750	2.670	0.515
160.500	155.749	80.006	19.995	103.907	19.751	2.602	0.510
161.000	156.022	80.010	19.994	103.907	19.749	2.781	0.525
161.500	156.252	80.008	19.995	103.908	19.751	2.610	0.518
162.000	156.482	80.008	19.995	103.907	19.748	2.816	0.482
162.500	156.759	80.007	19.995	103.909	19.747	2.882	0.484
163.000	157.003	80.010	19.996	103.909	19.748	2.797	0.514
163.500	157.265	80.006	19.996	103.911	19.746	2.974	0.513
164.000	157.517	80.008	19.997	103.913	19.744	3.102	0.510
164.500	157.780	80.008	19.994	103.914	19.747	2.920	0.515
165.000	157.998	80.009	19.998	103.917	19.748	2.846	0.498
165.500	158.270	80.005	19.994	103.917	19.749	2.743	0.485
166.000	158.529	80.004	19.997	103.915	19.745	3.051	0.510
166.500	158.795	80.007	19.996	103.910	19.748	2.786	0.528
167.000	159.037	80.011	19.996	103.910	19.748	2.820	0.517
167.500	159.302	80.003	20.000	103.908	19.748	2.799	0.508
168.000	159.565	80.006	19.990	103.906	19.745	3.040	0.518
168.500	159.786	80.003	19.998	103.905	19.746	2.952	0.505
169.000	160.040	80.004	19.995	103.904	19.745	3.036	0.479
169.500	160.318	80.011	19.990	103.903	19.748	2.822	0.504
170.000	160.564	80.004	19.998	103.903	19.752	2.565	0.528
170.500	160.848	80.010	19.993	103.903	19.751	2.619	0.527
171.000	161.089	80.005	19.994	103.904	19.749	2.724	0.527
171.500	161.334	80.006	20.001	103.906	19.749	2.721	0.506
172.000	161.609	80.008	19.990	103.905	19.750	2.653	0.504
172.500	161.861	80.008	19.993	103.904	19.752	2.570	0.524
173.000	162.112	80.009	19.994	103.905	19.751	2.613	0.515
173.500	162.375	80.007	19.992	103.905	19.751	2.621	0.509
174.000	162.655	80.007	19.995	103.904	19.749	2.752	0.529
174.500	162.848	80.009	19.995	103.906	19.750	2.713	0.508
175.000	163.138	80.008	19.994	103.906	19.751	2.640	0.478
175.500	163.357	80.007	19.993	103.907	19.751	2.587	0.496
176.000	163.621	80.008	19.995	103.907	19.751	2.630	0.496
176.500	163.867	80.003	19.998	103.907	19.749	2.717	0.497
177.000	164.162	80.009	19.991	103.906	19.754	2.435	0.525
177.500	164.399	80.009	19.994	103.907	19.753	2.495	0.536
178.000	164.636	80.010	19.993	103.908	19.753	2.446	0.503
178.500	164.904	80.008	19.991	103.909	19.749	2.760	0.490
179.000	165.123	80.009	19.995	103.913	19.756	2.247	0.496
179.500	165.413	80.014	19.996	103.914	19.754	2.395	0.498
180.000	165.648	80.009	19.995	103.913	19.752	2.536	0.517
180.500	165.895	80.010	19.995	103.910	19.754	2.410	0.504
181.000	166.127	80.009	19.995	103.910	19.751	2.611	0.481
181.500	166.405	80.012	19.993	103.908	19.752	2.523	0.494
182.000	166.647	80.009	19.996	103.909	19.758	2.095	0.515
182.500	166.868	80.010	19.994	103.910	19.754	2.379	0.491
183.000	167.138	80.010	19.994	103.911	19.753	2.457	0.477
183.500	167.428	80.010	19.995	103.911	19.752	2.565	0.526
184.001	167.662	80.011	19.992	103.910	19.754	2.401	0.542
184.500	167.907	80.011	19.995	103.908	19.751	2.587	0.501
185.000	168.162	80.008	19.995	103.908	19.753	2.448	0.490
185.500	168.429	80.010	19.995	103.906	19.754	2.420	0.511
186.000	168.655	80.010	19.994	103.905	19.754	2.407	0.508
186.500	168.902	80.011	19.993	103.905	19.755	2.309	0.483
187.000	169.190	80.010	19.992	103.905	19.753	2.495	0.504
187.500	169.413	80.011	19.994	103.905	19.756	2.296	0.523
188.000	169.667	80.008	19.994	103.905	19.755	2.300	0.494
188.500	169.934	80.011	19.993	103.905	19.754	2.410	0.499
189.000	170.186	80.012	19.997	103.905	19.757	2.181	0.520
189.500	170.392	80.006	19.995	103.904	19.753	2.448	0.489
190.000	170.667	80.011	19.994	103.904	19.756	2.288	0.469
190.500	170.922	80.013	19.992	103.905	19.759	2.087	0.505
191.000	171.193	80.009	19.995	103.905	19.754	2.425	0.528
191.500	171.405	80.007	19.993	103.906	19.757	2.213	0.504
192.000	171.679	80.012	19.993	103.905	19.753	2.440	0.485
192.500	171.885	80.009	19.994	103.907	19.753	2.470	0.484
193.000	172.153	80.010	19.994	103.907	19.751	2.636	0.477
193.500	172.406	80.011	19.991	103.907	19.754	2.384	0.497
194.000	172.618	80.011	19.993	103.908	19.752	2.536	0.493
194.500	172.892	80.008	19.996	103.908	19.754	2.367	0.476
195.000	173.131	80.008	19.995	103.907	19.754	2.388	0.500
195.500	173.402	80.010	19.995	103.907	19.753	2.467	0.511
196.000	173.659	80.008	19.993	103.906	19.755	2.365	0.519
196.500	173.888	80.006	19.995	103.905	19.754	2.420	0.507
197.000	174.125	80.010	19.994	103.904	19.755	2.333	0.476
197.500	174.364	80.006	19.996	103.905	19.752	2.555	0.471
198.000	174.639	80.014	19.991	103.904	19.750	2.677	0.495
198.500	174.914	80.010	19.990	103.904	19.753	2.450	0.532
199.000	175.136	80.006	19.995	103.906	19.753	2.472	0.524
199.500	175.363	80.009	19.993	103.905	19.751	2.638	0.473
200.000	175.629	80.010	19.991	103.905	19.751	2.615	0.470
200.500	175.869	80.009	19.993	103.906	19.750	2.664	0.499
201.000	176.115	80.010	19.993	103.906	19.749	2.741	0.496
201.500	176.365	80.009	19.993	103.905	19.755	2.327	0.491
202.000	176.608	80.011	19.994	103.905	19.754	2.374	0.494
202.500	176.862	80.010	19.995	103.902	19.751	2.602	0.495
203.000	177.098	80.009	19.994	103.902	19.752	2.542	0.493
203.500	177.337	80.011	19.996	103.897	19.750	2.688	0.482
204.000	177.609	80.006	19.998	103.893	19.755	2.341	0.493
204.500	177.825	80.011	19.999	103.893	19.753	2.468	0.500
205.000	178.090	80.009	19.992	103.894	19.754	2.373	0.485
205.500	178.299	80.011	19.992	103.889	19.754	2.376	0.477
206.000	178.538	80.011	19.993	103.892	19.755	2.356	0.461
206.500	178.805	80.011	19.993	103.895	19.753	2.438	0.477
207.000	179.033	80.011	19.993	103.895	19.752	2.568	0.501
207.500	179.278	80.011	19.993	103.896	19.754	2.431	0.484
208.000	179.511	80.011	19.993	103.898	19.753	2.467	0.476
208.500	179.769	80.011	19.995	103.895	19.755	2.356	0.485
209.000	180.016	80.012	19.993	103.894	19.755	2.333	0.498
209.500	180.225	80.011	19.994	103.894	19.757	2.198	0.481
210.000	180.471	80.010	19.994	103.894	19.753	2.504	0.455
210.500	180.707	80.012	19.992	103.897	19.755	2.341	0.468
211.000	180.953	80.010	19.995	103.895	19.754	2.373	0.482
211.500	181.203	80.010	19.997	103.894	19.756	2.296	0.489
212.000	181.433	80.012	19.992	103.894	19.755	2.307	0.488
212.500	181.713	80.007	19.994	103.893	19.757	2.179	0.495
213.000	181.945	80.013	19.992	103.893	19.755	2.300	0.511
213.500	182.171	80.011	19.993	103.897	19.754	2.435	0.486
214.000	182.434	80.010	19.992	103.899	19.758	2.112	0.474
214.500	182.674	80.011	19.990	103.897	19.754	2.425	0.496
215.000	182.934	80.005	19.989	103.898	19.754	2.392	0.501
215.500	183.160	80.007	19.992	103.898	19.752	2.546	0.493
216.000	183.398	80.013	19.994	103.899	19.754	2.375	0.475
216.500	183.674	80.008	19.988	103.899	19.755	2.331	0.489
217.000	183.890	80.010	19.995	103.901	19.750	2.677	0.503
217.500	184.101	80.009	19.991	103.901	19.753	2.442	0.459
218.000	184.371	80.010	19.993	103.902	19.754	2.433	0.454
218.500	184.606	80.008	19.992	103.902	19.753	2.455	0.493
219.000	184.846	80.008	19.994	103.903	19.752	2.527	0.490
219.500	185.091	80.009	19.993	103.903	19.755	2.356	0.480
220.000	185.351	80.007	19.993	103.903	19.751	2.600	0.496
220.500	185.611	80.008	19.993	103.902	19.750	2.692	0.512
221.000	185.880	80.007	19.994	103.900	19.754	2.408	0.524
221.500	186.159	80.009	19.994	103.897	19.757	2.217	0.538
222.000	186.346	80.009	19.995	103.896	19.750	2.666	0.508
222.500	186.625	80.009	19.992	103.897	19.749	2.767	0.466
223.000	186.898	80.009	19.993	103.898	19.752	2.549	0.509
223.500	187.158	80.008	19.994	103.900	19.756	2.252	0.542
224.000	187.356	80.008	19.993	103.903	19.756	2.256	0.496
224.500	187.624	80.008	19.993	103.903	19.753	2.476	0.462
225.000	187.868	80.007	19.997	103.903	19.755	2.343	0.489
225.500	188.114	80.009	19.994	103.902	19.753	2.438	0.501
226.000	188.371	80.008	19.995	103.902	19.754	2.388	0.496
226.500	188.584	80.006	19.995	103.902	19.753	2.444	0.487
227.000	188.877	80.010	19.994	103.901	19.753	2.437	0.488
227.500	189.102	80.013	19.990	103.899	19.756	2.260	0.512
228.000	189.306	80.008	19.995	103.899	19.757	2.220	0.474
228.500	189.555	80.008	19.991	103.894	19.756	2.260	0.441
229.000	189.813	80.008	19.997	103.892	19.754	2.378	0.480
229.500	190.056	80.008	19.992	103.893	19.756	2.290	0.504
230.000	190.323	80.008	19.994	103.893	19.755	2.333	0.505
230.500	190.511	80.008	19.994	103.892	19.752	2.508	0.483
231.000	190.816	80.010	19.993	103.895	19.756	2.292	0.475
231.500	191.031	80.008	19.997	103.898	19.756	2.245	0.507
232.000	191.277	80.008	19.995	103.897	19.754	2.371	0.490
232.500	191.524	80.008	19.993	103.897	19.755	2.313	0.477
233.000	191.774	80.009	19.994	103.894	19.753	2.461	0.495
233.500	192.005	80.008	19.994	103.895	19.755	2.303	0.489
234.000	192.258	80.009	19.993	103.894	19.754	2.416	0.483
234.500	192.475	80.009	19.993	103.895	19.753	2.438	0.477
235.000	192.699	80.010	19.994	103.896	19.751	2.581	0.456
235.500	192.970	80.010	19.995	103.894	19.756	2.258	0.468
236.000	193.191	80.009	19.994	103.894	19.757	2.177	0.493
236.500	193.434	80.009	19.993	103.893	19.757	2.174	0.478
237.000	193.725	80.011	19.990	103.893	19.755	2.322	0.499
237.500	193.936	80.009	19.998	103.895	19.755	2.357	0.518
238.000	194.200	80.009	19.993	103.897	19.755	2.320	0.489
238.500	194.465	80.006	19.995	103.896	19.756	2.284	0.502
239.000	194.702	80.008	19.996	103.893	19.756	2.280	0.515
239.500	194.940	80.011	19.994	103.890	19.756	2.279	0.488
240.000	195.191	80.009	19.994	103.886	19.755	2.299	0.482
240.500	195.413	80.008	19.996	103.890	19.756	2.245	0.481
241.000	195.660	80.009	19.996	103.891	19.755	2.354	0.470
241.500	195.893	80.009	19.993	103.895	19.753	2.470	0.475
242.000	196.170	80.009	19.995	103.899	19.755	2.329	0.496
242.500	196.404	80.005	19.994	103.903	19.753	2.440	0.511
243.000	196.636	80.011	19.991	103.902	19.751	2.600	0.488
243.500	196.891	80.008	19.991	103.903	19.756	2.269	0.476
244.000	197.139	80.008	19.994	103.904	19.756	2.277	0.495
244.500	197.359	80.008	19.996	103.903	19.753	2.478	0.486
245.000	197.631	80.007	19.998	103.902	19.758	2.149	0.480
245.500	197.855	80.008	19.995	103.901	19.753	2.479	0.494
246.000	198.075	80.003	19.996	103.900	19.754	2.387	0.470
246.500	198.369	80.006	20.000	103.899	19.754	2.393	0.479
247.000	198.587	80.010	19.992	103.896	19.758	2.093	0.513
247.500	198.800	80.005	19.996	103.898	19.753	2.474	0.472
248.000	199.076	80.007	19.994	103.894	19.758	2.128	0.460
248.500	199.323	80.010	19.994	103.889	19.757	2.202	0.506
249.000	199.577	80.007	19.994	103.889	19.757	2.166	0.512
249.500	199.809	80.008	19.994	103.892	19.756	2.251	0.493
250.000	200.040	80.006	19.997	103.892	19.757	2.170	0.475
250.500	200.286	80.008	19.996	103.896	19.757	2.170	0.470
251.000	200.582	80.008	19.996	103.900	19.754	2.421	0.509
251.500	200.814	80.007	19.997	103.899	19.753	2.466	0.535
252.000	201.009	80.007	19.993	103.896	19.754	2.430	0.477
252.500	201.282	80.007	19.996	103.895	19.754	2.374	0.447
253.000	201.506	80.005	19.995	103.890	19.754	2.404	0.483
253.500	201.797	80.009	19.995	103.885	19.754	2.370	0.507
254.000	202.028	80.006	19.995	103.884	19.753	2.468	0.519
254.500	202.273	80.007	19.996	103.884	19.752	2.519	0.499
255.000	202.535	80.008	19.995	103.882	19.756	2.290	0.491
255.500	202.769	80.008	19.996	103.882	19.754	2.413	0.501
256.000	203.029	80.007	19.995	103.880	19.754	2.376	0.495
256.500	203.280	80.007	19.995	103.878	19.755	2.329	0.502
257.000	203.508	80.008	19.995	103.878	19.755	2.314	0.495
257.500	203.757	80.009	19.996	103.881	19.760	1.952	0.478
258.000	204.002	80.009	19.997	103.887	19.754	2.367	0.485
258.500	204.236	80.007	19.996	103.895	19.754	2.384	0.487
259.000	204.516	80.008	19.996	103.900	19.756	2.288	0.497
259.500	204.760	80.008	19.995	103.905	19.753	2.487	0.519
260.000	205.011	80.008	19.995	103.904	19.756	2.263	0.509
260.500	205.259	80.008	19.996	103.902	19.753	2.474	0.497
261.000	205.483	80.007	19.997	103.898	19.756	2.277	0.486
261.500	205.720	80.010	19.991	103.891	19.755	2.323	0.467
262.000	205.993	80.007	19.995	103.884	19.755	2.305	0.485
262.500	206.249	80.011	19.994	103.883	19.756	2.246	0.519
263.000	206.493	80.008	19.996	103.880	19.755	2.325	0.515
263.500	206.706	80.008	19.994	103.878	19.758	2.130	0.479
264.000	206.987	80.009	19.994	103.883	19.755	2.346	0.475
264.500	207.222	80.009	19.995	103.885	19.756	2.290	0.505
265.000	207.496	80.009	19.995	103.880	19.756	2.284	0.512
265.500	207.707	80.009	19.992	103.879	19.756	2.248	0.497
266.000	207.962	80.010	19.995	103.877	19.758	2.150	0.475
266.500	208.204	80.010	19.994	103.874	19.757	2.201	0.481
267.000	208.457	80.009	19.995	103.874	19.756	2.239	0.496
267.500	208.662	80.009	19.993	103.877	19.754	2.391	0.476
268.000	208.919	80.008	19.993	103.879	19.757	2.224	0.459
268.500	209.181	80.008	19.994	103.881	19.757	2.190	0.490
269.000	209.403	80.010	19.994	103.881	19.762	1.837	0.502
269.500	209.660	80.009	19.994	103.880	19.756	2.231	0.482
270.000	209.914	80.009	19.993	103.880	19.756	2.256	0.495
270.500	210.161	80.011	19.993	103.879	19.760	1.991	0.506
271.000	210.459	80.008	19.994	103.879	19.759	2.038	0.523
271.501	210.694	80.010	19.993	103.882	19.757	2.173	0.539
272.000	210.936	80.011	19.993	103.884	19.758	2.128	0.505
272.500	211.138	80.009	19.994	103.882	19.757	2.194	0.461
273.000	211.394	80.010	19.992	103.879	19.756	2.254	0.451
273.500	211.665	80.010	19.993	103.878	19.759	2.068	0.492
274.000	211.891	80.011	19.993	103.876	19.757	2.182	0.512
274.500	212.132	80.010	19.994	103.878	19.759	2.087	0.482
275.000	212.347	80.008	19.997	103.878	19.760	1.949	0.461
275.500	212.657	80.008	19.994	103.877	19.757	2.216	0.490
276.000	212.901	80.010	19.993	103.878	19.760	1.955	0.539
276.500	213.141	80.010	19.992	103.877	19.760	1.979	0.520
277.000	213.363	80.011	19.993	103.872	19.756	2.276	0.474
277.500	213.652	80.008	19.994	103.871	19.756	2.240	0.487
278.000	213.892	80.010	19.995	103.874	19.760	1.994	0.520
278.500	214.119	80.011	19.994	103.872	19.759	2.047	0.498
279.000	214.399	80.010	19.994	103.870	19.761	1.910	0.487
279.500	214.665	80.010	19.993	103.872	19.760	1.976	0.527
280.000	214.897	80.011	19.994	103.877	19.759	2.077	0.522
280.500	215.123	80.010	19.992	103.876	19.759	2.066	0.478
281.000	215.382	80.011	19.995	103.876	19.759	2.053	0.472
281.500	215.626	80.010	19.992	103.880	19.759	2.064	0.494
282.000	215.914	80.011	19.993	103.878	19.761	1.889	0.518
282.500	216.128	80.011	19.993	103.872	19.759	2.043	0.517
283.000	216.382	80.011	19.994	103.870	19.763	1.741	0.485
283.500	216.625	80.012	19.994	103.870	19.763	1.773	0.482
284.000	216.860	80.010	19.994	103.865	19.761	1.931	0.488
284.500	217.113	80.010	19.993	103.866	19.761	1.882	0.484
285.000	217.391	80.012	19.993	103.867	19.761	1.908	0.509
285.500	217.636	80.009	19.993	103.867	19.761	1.886	0.527
286.000	217.865	80.010	19.994	103.866	19.765	1.621	0.499
286.500	218.112	80.013	19.990	103.866	19.763	1.795	0.475
287.000	218.369	80.012	19.995	103.865	19.764	1.685	0.490
287.500	218.597	80.011	19.993	103.863	19.759	2.064	0.495
288.000	218.864	80.011	19.994	103.863	19.761	1.921	0.490
288.500	219.109	80.012	19.993	103.865	19.759	2.019	0.503
289.000	219.391	80.012	19.993	103.868	19.759	2.030	0.519
289.500	219.563	80.012	19.993	103.870	19.758	2.105	0.490
290.000	219.894	80.013	19.992	103.870	19.761	1.919	0.479
290.500	220.075	80.011	19.994	103.869	19.762	1.812	0.508
291.000	220.355	80.012	19.994	103.869	19.760	2.006	0.486
291.500	220.577	80.013	19.992	103.866	19.760	1.972	0.482
292.000	220.847	80.012	19.993	103.864	19.761	1.882	0.497
292.500	221.078	80.013	19.994	103.865	19.758	2.124	0.496
293.000	221.313	80.013	19.995	103.865	19.763	1.780	0.484
293.500	221.583	80.010	19.994	103.865	19.761	1.936	0.486
294.000	221.830	80.010	19.995	103.869	19.759	2.047	0.511
294.500	222.091	80.011	19.993	103.869	19.763	1.801	0.513
295.000	222.322	80.012	19.993	103.869	19.761	1.934	0.500
295.500	222.561	80.011	19.995	103.869	19.763	1.769	0.481
296.000	222.857	80.011	19.993	103.868	19.757	2.190	0.503
296.500	223.093	80.009	19.994	103.865	19.759	2.040	0.533
297.000	223.349	80.008	19.995	103.865	19.759	2.081	0.512
297.500	223.608	80.010	19.994	103.864	19.757	2.212	0.504
298.000	223.867	80.010	19.994	103.865	19.757	2.163	0.517
298.500	224.125	80.010	19.994	103.864	19.758	2.098	0.518
299.000	224.335	80.011	19.994	103.865	19.757	2.197	0.492
299.500	224.600	80.009	19.994	103.867	19.761	1.882	0.472
300.000	224.859	80.009	19.995	103.868	19.759	2.045	0.500
300.500	225.111	80.009	19.994	103.867	19.762	1.827	0.517
301.000	225.354	80.008	19.994	103.868	19.763	1.788	0.503
301.500	225.570	80.011	19.995	103.867	19.762	1.829	0.477
302.000	225.855	80.009	19.992	103.864	19.758	2.147	0.480
302.500	226.104	80.007	19.994	103.864	19.759	2.060	0.517
303.000	226.340	80.010	19.995	103.866	19.761	1.933	0.509
303.500	226.564	80.009	19.994	103.867	19.760	2.008	0.473
304.000	226.872	80.010	19.994	103.867	19.761	1.884	0.496
304.500	227.080	80.009	19.994	103.867	19.761	1.944	0.524
305.000	227.334	80.009	19.994	103.866	19.760	2.002	0.489
305.500	227.575	80.008	19.993	103.866	19.762	1.852	0.479
306.000	227.873	80.010	19.993	103.864	19.758	2.117	0.517
306.500	228.111	80.007	19.994	103.864	19.760	1.953	0.538
307.000	228.362	80.010	19.993	103.864	19.759	2.036	0.513
307.500	228.603	80.009	19.993	103.865	19.759	2.062	0.490
308.000	228.893	80.010	19.993	103.865	19.758	2.126	0.511
308.500	229.125	80.009	19.992	103.865	19.759	2.056	0.526
309.000	229.353	80.009	19.992	103.866	19.760	1.991	0.491
309.500	229.613	80.009	19.993	103.866	19.758	2.133	0.475
310.000	229.863	80.008	19.993	103.866	19.760	1.972	0.499
310.500	230.072	80.008	19.993	103.866	19.762	1.872	0.484
311.000	230.324	80.008	19.993	103.866	19.764	1.728	0.460
311.500	230.572	80.007	19.993	103.866	19.761	1.884	0.481
312.000	230.842	80.009	19.992	103.866	19.760	1.959	0.509
312.500	231.114	80.008	19.993	103.866	19.761	1.908	0.530
313.000	231.331	80.008	19.994	103.867	19.760	1.987	0.515
313.500	231.593	80.008	19.993	103.867	19.762	1.844	0.484
314.000	231.832	80.009	19.994	103.867	19.761	1.947	0.490
314.500	232.097	80.010	19.993	103.866	19.760	2.011	0.503
315.000	232.332	80.009	19.994	103.865	19.761	1.899	0.502
315.500	232.581	80.009	19.995	103.865	19.761	1.942	0.492
316.000	232.815	80.008	19.993	103.865	19.763	1.741	0.483
316.500	233.065	80.007	19.993	103.865	19.763	1.786	0.484
317.000	233.313	80.008	19.996	103.866	19.759	2.028	0.492
317.500	233.568	80.009	19.994	103.867	19.761	1.904	0.500
318.000	233.855	80.010	19.994	103.868	19.764	1.722	0.522
318.500	234.106	80.009	19.994	103.869	19.759	2.028	0.540
319.000	234.369	80.008	19.994	103.868	19.762	1.810	0.526
319.500	234.601	80.009	19.994	103.868	19.760	2.002	0.504
320.000	234.851	80.006	19.993	103.867	19.762	1.846	0.488
320.500	235.073	80.008	19.995	103.866	19.761	1.925	0.477
321.000	235.372	80.009	19.994	103.866	19.761	1.940	0.497
321.500	235.593	80.008	19.993	103.866	19.760	1.989	0.521
322.000	235.786	80.007	19.994	103.867	19.761	1.887	0.468
322.500	236.053	80.009	19.994	103.866	19.764	1.735	0.437
323.000	236.298	80.008	19.994	103.866	19.761	1.919	0.486
323.500	236.559	80.008	19.994	103.867	19.760	1.966	0.509
324.000	236.800	80.008	19.994	103.866	19.761	1.902	0.504
324.500	237.056	80.007	19.993	103.866	19.762	1.825	0.499
325.000	237.348	80.008	19.995	103.865	19.764	1.722	0.522
325.500	237.550	80.008	19.993	103.865	19.763	1.758	0.521
326.000	237.828	80.009	19.994	103.865	19.764	1.713	0.487
326.500	238.116	80.007	19.994	103.865	19.765	1.604	0.523
327.000	238.328	80.008	19.994	103.866	19.763	1.756	0.534
327.500	238.577	80.008	19.995	103.866	19.764	1.671	0.481
328.000	238.827	80.007	19.995	103.866	19.764	1.685	0.480
328.500	239.059	80.009	19.994	103.867	19.766	1.598	0.490
329.000	239.260	80.008	19.995	103.867	19.765	1.602	0.457
329.500	239.566	80.007	19.993	103.865	19.765	1.654	0.470
330.000	239.815	80.009	19.994	103.866	19.764	1.726	0.531
330.500	240.057	80.007	19.993	103.866	19.764	1.688	0.523
331.000	240.344	80.008	19.995	103.865	19.762	1.839	0.510
331.500	240.550	80.007	19.994	103.865	19.765	1.617	0.511
332.000	240.821	80.007	19.994	103.866	19.766	1.562	0.485
332.500	241.039	80.007	19.994	103.866	19.765	1.623	0.483
333.000	241.295	80.008	19.993	103.866	19.764	1.731	0.481
333.500	241.552	80.007	19.995	103.867	19.766	1.546	0.493
334.000	241.818	80.007	19.994	103.867	19.766	1.589	0.518
334.500	242.048	80.007	19.994	103.867	19.765	1.609	0.510
335.000	242.295	80.007	19.994	103.867	19.762	1.844	0.487
335.500	242.569	80.008	19.993	103.865	19.763	1.743	0.499
336.000	242.807	80.007	19.993	103.866	19.760	1.968	0.517
336.500	243.044	80.006	19.994	103.866	19.761	1.912	0.493
337.000	243.346	80.008	19.992	103.865	19.763	1.756	0.507
337.500	243.585	80.008	19.993	103.865	19.764	1.673	0.540
338.000	243.816	80.007	19.995	103.867	19.765	1.621	0.505
338.500	244.085	80.007	19.994	103.866	19.763	1.780	0.485
339.000	244.342	80.008	19.994	103.865	19.762	1.852	0.513
339.500	244.576	80.010	19.994	103.864	19.764	1.715	0.509
340.000	244.832	80.008	19.995	103.863	19.762	1.857	0.491
340.500	245.101	80.008	19.995	103.861	19.765	1.604	0.507
341.000	245.345	80.009	19.994	103.862	19.766	1.546	0.519
341.500	245.617	80.009	19.995	103.863	19.763	1.801	0.514
342.000	245.857	80.010	19.994	103.864	19.764	1.735	0.514
342.501	246.145	80.010	19.994	103.864	19.764	1.679	0.521
343.000	246.352	80.010	19.996	103.864	19.765	1.656	0.512
343.500	246.645	80.008	19.995	103.864	19.766	1.587	0.497
344.000	246.842	80.010	19.994	103.863	19.766	1.559	0.495
344.500	247.121	80.010	19.995	103.862	19.766	1.577	0.483
345.000	247.348	80.011	19.994	103.862	19.767	1.469	0.491
345.500	247.593	80.010	19.994	103.862	19.767	1.472	0.489
346.000	247.862	80.008	19.994	103.862	19.765	1.632	0.493
346.500	248.071	80.010	19.995	103.863	19.766	1.534	0.496
347.000	248.329	80.010	19.995	103.863	19.764	1.694	0.473
347.500	248.591	80.008	19.995	103.864	19.763	1.777	0.494
348.000	248.842	80.009	19.994	103.863	19.766	1.555	0.517
348.500	249.112	80.011	19.994	103.863	19.764	1.675	0.517
349.000	249.326	80.010	19.995	103.863	19.766	1.577	0.502
349.500	249.594	80.010	19.995	103.863	19.763	1.786	0.483
350.000	249.858	80.011	19.993	103.863	19.766	1.570	0.507
350.500	250.125	80.008	19.995	103.862	19.764	1.711	0.531
351.000	250.364	80.009	19.994	103.863	19.764	1.728	0.518
351.500	250.638	80.009	19.994	103.862	19.765	1.611	0.509
352.000	250.879	80.009	19.994	103.862	19.767	1.508	0.514
352.500	251.129	80.009	19.995	103.861	19.767	1.504	0.504
353.000	251.394	80.009	19.995	103.862	19.766	1.549	0.503
353.500	251.592	80.008	19.995	103.862	19.769	1.337	0.489
354.000	251.841	80.009	19.994	103.860	19.767	1.506	0.455
354.500	252.130	80.008	19.996	103.859	19.766	1.572	0.492
355.000	252.348	80.008	19.995	103.859	19.765	1.636	0.522
355.500	252.611	80.008	19.995	103.859	19.765	1.630	0.494
356.000	252.885	80.010	19.995	103.859	19.769	1.388	0.509
356.500	253.110	80.007	19.995	103.861	19.767	1.482	0.519
357.000	253.362	80.009	19.995	103.861	19.767	1.502	0.488
357.500	253.605	80.007	19.994	103.862	19.767	1.484	0.486
358.000	253.876	80.007	19.994	103.861	19.764	1.705	0.505
358.500	254.101	80.009	19.995	103.860	19.765	1.602	0.505
359.000	254.337	80.007	19.994	103.860	19.765	1.651	0.479
359.500	254.618	80.009	19.994	103.861	19.766	1.568	0.489
360.000	254.834	80.008	19.995	103.861	19.768	1.457	0.507
360.500	255.134	80.008	19.995	103.860	19.765	1.662	0.506
361.000	255.366	80.009	19.995	103.860	19.764	1.709	0.523
361.500	255.597	80.009	19.994	103.859	19.762	1.833	0.497
362.000	255.840	80.010	19.994	103.858	19.762	1.810	0.468
362.500	256.094	80.009	19.995	103.858	19.763	1.778	0.486
363.000	256.310	80.009	19.994	103.856	19.765	1.609	0.484
363.500	256.575	80.008	19.994	103.853	19.767	1.523	0.476
364.000	256.820	80.010	19.994	103.853	19.763	1.748	0.495
364.500	257.044	80.010	19.993	103.853	19.768	1.405	0.490
365.000	257.295	80.010	19.994	103.853	19.767	1.467	0.472
365.500	257.582	80.009	19.994	103.856	19.766	1.557	0.506
366.000	257.814	80.009	19.994	103.860	19.767	1.527	0.529
366.500	258.063	80.010	19.994	103.860	19.767	1.487	0.501
367.000	258.336	80.009	19.994	103.862	19.764	1.726	0.502
367.500	258.605	80.009	19.994	103.862	19.765	1.658	0.532
368.000	258.851	80.011	19.992	103.862	19.767	1.499	0.529
368.500	259.121	80.011	19.993	103.862	19.766	1.532	0.515
369.000	259.353	80.010	19.993	103.862	19.766	1.577	0.509
369.500	259.553	80.011	19.992	103.861	19.765	1.658	0.468
370.000	259.803	80.010	19.993	103.860	19.769	1.367	0.441
370.500	260.070	80.011	19.993	103.859	19.771	1.239	0.483
371.000	260.328	80.011	19.993	103.860	19.768	1.416	0.521
371.500	260.553	80.011	19.993	103.860	19.770	1.283	0.504
372.000	260.778	80.010	19.994	103.861	19.766	1.536	0.466
372.500	261.043	80.010	19.993	103.863	19.768	1.401	0.470
373.000	261.279	80.011	19.995	103.863	19.766	1.540	0.496
373.500	261.538	80.011	19.994	103.862	19.769	1.373	0.498
374.000	261.796	80.011	19.994	103.862	19.768	1.446	0.506
374.500	262.009	80.011	19.994	103.863	19.765	1.602	0.494
375.000	262.278	80.011	19.993	103.863	19.767	1.470	0.476
375.500	262.536	80.011	19.992	103.863	19.764	1.677	0.504
376.000	262.793	80.012	19.992	103.864	19.769	1.388	0.521
376.500	263.027	80.010	19.993	103.864	19.769	1.352	0.504
377.000	263.270	80.010	19.996	103.864	19.770	1.309	0.485
377.500	263.511	80.010	19.995	103.864	19.768	1.459	0.480
378.000	263.780	80.009	19.994	103.864	19.771	1.193	0.497
378.500	264.043	80.009	19.995	103.864	19.770	1.311	0.521
379.000	264.275	80.010	19.993	103.864	19.772	1.127	0.513
379.500	264.544	80.009	19.994	103.864	19.772	1.176	0.498
380.000	264.788	80.009	19.993	103.863	19.770	1.309	0.507
380.500	265.038	80.008	19.993	103.863	19.769	1.326	0.503
381.000	265.251	80.009	19.994	103.862	19.768	1.399	0.478
381.500	265.505	80.009	19.994	103.861	19.772	1.138	0.465
382.000	265.771	80.009	19.994	103.857	19.767	1.467	0.494
382.500	266.027	80.008	19.993	103.855	19.768	1.431	0.521
383.000	266.255	80.008	19.994	103.854	19.771	1.211	0.503
383.500	266.552	80.008	19.994	103.853	19.769	1.363	0.504
384.000	266.791	80.009	19.993	103.854	19.769	1.380	0.530
384.500	267.037	80.008	19.994	103.856	19.768	1.410	0.511
385.000	267.304	80.008	19.994	103.858	19.768	1.406	0.499
385.500	267.556	80.009	19.993	103.859	19.769	1.382	0.516
386.000	267.786	80.008	19.994	103.860	19.768	1.452	0.501
386.500	268.025	80.010	19.994	103.859	19.767	1.521	0.476
387.000	268.285	80.007	19.994	103.861	19.770	1.285	0.484
387.500	268.524	80.009	19.994	103.863	19.769	1.322	0.499
388.000	268.759	80.008	19.993	103.862	19.769	1.331	0.486
388.500	269.045	80.009	19.994	103.863	19.769	1.384	0.497
389.000	269.268	80.008	19.993	103.863	19.769	1.376	0.515
389.500	269.546	80.009	19.993	103.863	19.767	1.491	0.505
390.000	269.783	80.008	19.994	103.861	19.768	1.446	0.508
390.500	270.049	80.008	19.994	103.861	19.771	1.202	0.510
391.000	270.285	80.008	19.993	103.860	19.765	1.615	0.502
391.500	270.562	80.009	19.994	103.857	19.770	1.296	0.507
392.000	270.805	80.008	19.994	103.855	19.766	1.532	0.516
392.500	271.075	80.009	19.993	103.854	19.767	1.480	0.517
393.000	271.318	80.008	19.994	103.853	19.769	1.354	0.513
393.500	271.562	80.009	19.994	103.854	19.767	1.478	0.500
394.000	271.813	80.009	19.995	103.854	19.769	1.371	0.491
394.500	272.078	80.009	19.993	103.854	19.770	1.254	0.505
395.000	272.354	80.009	19.994	103.855	19.768	1.403	0.529
395.500	272.542	80.010	19.994	103.854	19.768	1.429	0.503
396.000	272.799	80.009	19.993	103.854	19.767	1.487	0.455
396.500	273.074	80.009	19.993	103.858	19.767	1.482	0.488
397.000	273.323	80.009	19.993	103.861	19.772	1.170	0.528
397.500	273.568	80.009	19.993	103.862	19.765	1.628	0.509
398.001	273.790	80.008	19.993	103.864	19.767	1.495	0.481
398.500	274.017	80.007	19.993	103.863	19.767	1.498	0.458
399.000	274.315	80.009	19.995	103.861	19.768	1.399	0.487
399.500	274.562	80.009	19.994	103.858	19.767	1.467	0.535
400.000	274.796	80.009	19.993	103.856	19.771	1.228	0.513
400.500	275.037	80.009	19.993	103.853	19.768	1.455	0.478
401.000	275.329	80.008	19.994	103.854	19.768	1.459	0.504
401.500	275.568	80.010	19.993	103.852	19.767	1.480	0.532
402.000	275.836	80.008	19.994	103.850	19.768	1.450	0.519
402.500	276.045	80.008	19.993	103.848	19.767	1.495	0.492
403.000	276.316	80.008	19.993	103.848	19.767	1.463	0.478
403.500	276.542	80.009	19.993	103.847	19.768	1.450	0.489
404.000	276.796	80.008	19.993	103.849	19.768	1.391	0.489
404.500	277.054	80.010	19.993	103.853	19.767	1.476	0.496
405.000	277.280	80.009	19.994	103.854	19.767	1.470	0.498
405.500	277.548	80.009	19.993	103.856	19.769	1.371	0.489
406.000	277.738	80.009	19.994	103.858	19.765	1.605	0.476
406.500	278.046	80.009	19.993	103.858	19.767	1.485	0.478
407.000	278.287	80.009	19.993	103.857	19.769	1.365	0.524
407.500	278.557	80.009	19.993	103.852	19.768	1.459	0.530
408.000	278.813	80.008	19.993	103.847	19.772	1.160	0.518
408.500	279.065	80.008	19.993	103.845	19.769	1.371	0.517
409.000	279.331	80.010	19.993	103.846	19.769	1.328	0.513
409.500	279.556	80.010	19.993	103.846	19.770	1.309	0.504
410.000	279.795	80.009	19.996	103.852	19.770	1.292	0.477
410.500	280.036	80.009	19.994	103.858	19.771	1.196	0.473
411.000	280.311	80.008	19.993	103.858	19.772	1.166	0.498
411.500	280.559	80.010	19.994	103.855	19.769	1.380	0.519
412.000	280.793	80.007	19.995	103.857	19.768	1.450	0.503
412.500	281.074	80.009	19.994	103.856	19.771	1.241	0.498
413.000	281.322	80.008	19.994	103.855	19.772	1.140	0.522
413.500	281.544	80.009	19.994	103.856	19.768	1.399	0.499
414.000	281.802	80.007	19.993	103.858	19.766	1.534	0.475
414.500	282.054	80.008	19.993	103.857	19.770	1.299	0.495
415.000	282.306	80.007	19.994	103.856	19.767	1.493	0.507
415.500	282.563	80.008	19.995	103.856	19.772	1.170	0.507
416.000	282.819	80.008	19.995	103.854	19.769	1.346	0.512
416.500	283.089	80.007	19.994	103.850	19.773	1.057	0.520
417.000	283.328	80.008	19.995	103.849	19.769	1.389	0.517
417.500	283.552	80.009	19.994	103.848	19.770	1.318	0.485
418.000	283.834	80.008	19.994	103.849	19.772	1.170	0.484
418.500	284.079	80.006	19.994	103.850	19.771	1.194	0.517
419.000	284.329	80.008	19.994	103.854	19.771	1.211	0.511
419.500	284.581	80.007	19.996	103.856	19.773	1.110	0.499
420.000	284.819	80.007	19.995	103.856	19.769	1.339	0.496
420.500	285.039	80.007	19.995	103.857	19.774	1.031	0.474
421.000	285.320	80.007	19.994	103.853	19.772	1.142	0.479
421.500	285.584	80.006	19.994	103.848	19.772	1.136	0.523
422.000	285.827	80.006	19.997	103.846	19.773	1.085	0.526
422.500	286.095	80.008	19.996	103.846	19.774	0.988	0.509
423.000	286.314	80.008	19.995	103.842	19.771	1.213	0.499
423.500	286.578	80.009	19.995	103.843	19.771	1.185	0.484
424.000	286.821	80.007	19.995	103.844	19.772	1.119	0.495
424.500	287.105	80.009	19.995	103.845	19.771	1.196	0.517
425.000	287.342	80.009	19.994	103.843	19.771	1.245	0.524
425.500	287.618	80.008	19.995	103.840	19.772	1.158	0.517
426.000	287.846	80.009	19.994	103.840	19.769	1.369	0.509
426.500	288.090	80.009	19.994	103.839	19.771	1.218	0.488
427.000	288.333	80.009	19.994	103.834	19.770	1.305	0.479
427.500	288.564	80.010	19.994	103.830	19.770	1.309	0.481
428.000	288.827	80.009	19.995	103.830	19.775	0.960	0.484
428.500	289.095	80.009	19.994	103.831	19.771	1.207	0.513
429.000	289.319	80.009	19.996	103.833	19.771	1.209	0.511
429.500	289.561	80.009	19.994	103.837	19.771	1.190	0.479
430.000	289.845	80.009	19.994	103.842	19.773	1.078	0.496
430.500	290.145	80.010	19.995	103.845	19.770	1.297	0.555
431.000	290.346	80.010	19.994	103.845	19.770	1.282	0.543
431.500	290.565	80.011	19.994	103.843	19.768	1.391	0.460
432.000	290.861	80.011	19.994	103.842	19.773	1.076	0.467
432.500	291.127	80.010	19.994	103.841	19.770	1.256	0.539
433.000	291.350	80.009	19.995	103.841	19.771	1.243	0.526
433.500	291.614	80.008	19.997	103.838	19.771	1.194	0.488
434.000	291.868	80.008	19.992	103.836	19.771	1.224	0.502
434.500	292.135	80.009	19.991	103.833	19.771	1.220	0.520
435.000	292.362	80.011	19.993	103.831	19.770	1.294	0.507
435.500	292.636	80.008	19.992	103.827	19.772	1.115	0.497
436.000	292.922	80.008	19.993	103.828	19.770	1.256	0.530
436.500	293.145	80.007	19.994	103.829	19.769	1.378	0.535
437.000	293.395	80.009	19.996	103.829	19.768	1.395	0.491
437.500	293.675	80.009	19.994	103.836	19.771	1.200	0.501
438.000	293.898	80.008	19.994	103.842	19.770	1.312	0.516
438.500	294.125	80.008	19.994	103.848	19.771	1.217	0.476
439.000	294.388	80.010	19.995	103.850	19.768	1.397	0.470
439.500	294.646	80.009	19.995	103.850	19.771	1.215	0.505
440.000	294.891	80.009	19.994	103.843	19.770	1.307	0.512
440.500	295.148	80.008	19.995	103.839	19.770	1.303	0.503
441.000	295.382	80.008	19.994	103.834	19.769	1.339	0.496
441.500	295.658	80.008	19.995	103.832	19.768	1.406	0.500
442.000	295.893	80.009	19.995	103.835	19.768	1.412	0.510
442.500	296.169	80.009	19.994	103.835	19.771	1.235	0.511
443.000	296.415	80.009	19.994	103.833	19.769	1.341	0.517
443.500	296.641	80.007	19.995	103.833	19.768	1.391	0.497
444.000	296.919	80.009	19.994	103.832	19.770	1.301	0.488
444.500	297.099	80.009	19.994	103.830	19.770	1.299	0.481
445.000	297.363	80.007	19.995	103.829	19.770	1.258	0.451
445.500	297.639	80.007	19.995	103.830	19.773	1.108	0.492
446.000	297.934	80.009	19.994	103.830	19.769	1.346	0.555
446.500	298.152	80.007	19.993	103.832	19.771	1.200	0.542
447.000	298.407	80.008	19.994	103.832	19.771	1.243	0.493
447.500	298.651	80.012	19.995	103.833	19.769	1.348	0.486
448.000	298.914	80.009	19.992	103.838	19.771	1.207	0.503
448.500	299.133	80.006	19.996	103.840	19.771	1.215	0.495
449.000	299.379	80.006	19.994	103.844	19.774	1.023	0.473
449.500	299.628	80.010	19.994	103.846	19.771	1.243	0.480
450.000	299.890	80.009	19.995	103.851	19.772	1.128	0.503
450.500	300.153	80.008	19.995	103.850	19.771	1.186	0.518
451.000	300.379	80.009	19.996	103.850	19.769	1.344	0.507
451.500	300.642	80.010	19.993	103.845	19.772	1.162	0.489
452.000	300.888	80.009	19.996	103.847	19.773	1.049	0.499
452.500	301.174	80.009	19.994	103.843	19.774	1.006	0.520
453.000	301.372	80.010	19.995	103.841	19.773	1.068	0.508
453.500	301.674	80.010	19.994	103.840	19.771	1.243	0.492
454.000	301.932	80.010	19.994	103.839	19.771	1.209	0.530
454.500	302.157	80.010	19.995	103.835	19.772	1.149	0.522
455.000	302.417	80.011	19.994	103.836	19.770	1.280	0.484
455.500	302.639	80.009	19.994	103.840	19.770	1.310	0.484
456.000	302.914	80.011	19.994	103.846	19.771	1.205	0.490
456.500	303.174	80.012	19.994	103.850	19.769	1.365	0.516
457.000	303.431	80.011	19.995	103.855	19.772	1.168	0.526
457.500	303.653	80.009	19.995	103.856	19.773	1.106	0.498
458.000	303.923	80.009	19.995	103.849	19.769	1.380	0.485
458.500	304.187	80.012	19.991	103.843	19.769	1.346	0.513
459.000	304.430	80.010	19.994	103.840	19.768	1.414	0.520
459.500	304.650	80.009	19.993	103.834	19.769	1.380	0.485
460.000	304.927	80.010	19.993	103.832	19.770	1.258	0.480
460.500	305.166	80.009	19.995	103.832	19.770	1.256	0.506
461.000	305.452	80.009	19.995	103.831	19.772	1.171	0.521
461.500	305.690	80.009	19.993	103.830	19.773	1.070	0.525
462.000	305.934	80.009	19.994	103.830	19.772	1.115	0.503
462.500	306.188	80.008	19.993	103.829	19.775	0.952	0.490
463.000	306.399	80.007	19.998	103.830	19.771	1.233	0.482
463.500	306.687	80.007	19.993	103.830	19.771	1.186	0.482
464.000	306.934	80.009	19.994	103.830	19.773	1.111	0.517
464.500	307.203	80.006	19.994	103.829	19.771	1.188	0.526
465.000	307.432	80.007	19.994	103.830	19.770	1.305	0.507
465.500	307.690	80.008	19.992	103.831	19.771	1.185	0.492
466.000	307.945	80.007	19.995	103.831	19.773	1.089	0.500
466.500	308.215	80.007	19.996	103.832	19.772	1.138	0.519
467.000	308.448	80.006	19.997	103.832	19.773	1.081	0.514
467.500	308.732	80.006	19.994	103.830	19.773	1.066	0.510
468.000	308.946	80.009	19.994	103.828	19.773	1.072	0.507
468.500	309.206	80.010	19.994	103.827	19.772	1.132	0.486
469.000	309.447	80.007	19.993	103.826	19.772	1.171	0.488
469.500	309.675	80.007	19.993	103.826	19.773	1.081	0.485
470.000	309.925	80.007	19.993	103.827	19.776	0.882	0.473
470.500	310.160	80.009	19.994	103.827	19.774	1.031	0.482
471.000	310.434	80.005	19.992	103.827	19.773	1.048	0.497
471.500	310.710	80.007	19.994	103.827	19.771	1.226	0.529
472.000	310.948	80.008	19.993	103.826	19.772	1.149	0.532
472.500	311.176	80.008	19.994	103.825	19.771	1.220	0.490
473.000	311.436	80.008	19.996	103.825	19.771	1.209	0.477
473.500	311.704	80.008	19.994	103.824	19.770	1.286	0.508
474.000	311.983	80.008	19.993	103.825	19.772	1.119	0.538
474.500	312.230	80.007	19.994	103.825	19.774	0.993	0.537
475.000	312.473	80.007	19.995	103.825	19.771	1.198	0.508
475.500	312.766	80.008	19.994	103.825	19.776	0.841	0.512
476.000	312.995	80.009	19.993	103.825	19.775	0.910	0.529
476.500	313.259	80.009	19.993	103.827	19.777	0.785	0.508
477.000	313.513	80.009	19.994	103.827	19.775	0.967	0.506
477.500	313.733	80.007	19.994	103.829	19.772	1.132	0.496
478.000	313.979	80.011	19.993	103.831	19.773	1.087	0.470
478.500	314.229	80.010	19.994	103.831	19.775	0.965	0.481
479.000	314.458	80.006	19.995	103.829	19.775	0.965	0.487
479.500	314.753	80.007	19.995	103.829	19.775	0.967	0.502
480.000	315.011	80.009	19.994	103.828	19.774	1.008	0.538
480.500	315.263	80.009	19.993	103.827	19.777	0.817	0.532
481.000	315.500	80.010	19.994	103.831	19.773	1.064	0.500
481.500	315.738	80.009	19.994	103.834	19.774	1.042	0.482
482.000	316.037	80.007	19.994	103.839	19.774	1.014	0.506
482.500	316.283	80.009	19.994	103.839	19.775	0.920	0.541
483.000	316.522	80.008	19.995	103.837	19.774	0.995	0.515
483.500	316.798	80.009	19.994	103.835	19.773	1.085	0.500
484.000	317.046	80.010	19.994	103.832	19.774	1.006	0.519
484.500	317.277	80.009	19.995	103.827	19.775	0.924	0.502
485.000	317.508	80.008	19.994	103.827	19.774	0.984	0.471
485.500	317.810	80.007	19.995	103.828	19.776	0.867	0.497
486.000	318.069	80.010	19.993	103.826	19.773	1.111	0.547
486.500	318.305	80.008	19.994	103.826	19.776	0.854	0.528
487.000	318.556	80.009	19.995	103.826	19.774	1.034	0.491
487.500	318.847	80.008	19.995	103.826	19.774	1.001	0.515
488.000	319.075	80.009	19.994	103.825	19.772	1.136	0.530
488.500	319.321	80.009	19.994	103.825	19.772	1.115	0.496
489.000	319.600	80.009	19.995	103.825	19.775	0.948	0.499
489.500	319.838	80.009	19.993	103.827	19.777	0.783	0.521
490.000	320.117	80.009	19.994	103.828	19.780	0.623	0.517
490.500	320.349	80.008	19.993	103.828	19.774	1.027	0.515
491.000	320.632	80.010	19.993	103.829	19.776	0.835	0.513
491.500	320.907	80.010	19.994	103.830	19.777	0.803	0.536
492.000	321.129	80.007	19.993	103.829	19.774	0.999	0.527
492.500	321.390	80.009	19.993	103.828	19.774	1.038	0.490
493.000	321.633	80.009	19.994	103.827	19.776	0.860	0.494
493.500	321.921	80.009	19.994	103.827	19.776	0.880	0.518
494.000	322.167	80.008	19.992	103.826	19.773	1.104	0.532
494.500	322.449	80.009	19.994	103.824	19.773	1.061	0.531
495.000	322.663	80.009	19.993	103.825	19.771	1.220	0.512
495.500	322.913	80.009	19.995	103.826	19.774	1.018	0.480
496.000	323.162	80.008	19.993	103.826	19.775	0.961	0.481
496.500	323.430	80.008	19.993	103.826	19.771	1.237	0.508
497.000	323.682	80.009	19.994	103.827	19.772	1.147	0.518
497.500	323.979	80.008	19.995	103.828	19.773	1.064	0.535
498.000	324.189	80.009	19.995	103.830	19.773	1.070	0.528
498.500	324.497	80.008	19.995	103.835	19.776	0.896	0.513
499.000	324.743	80.007	19.994	103.836	19.772	1.134	0.536
499.500	324.995	80.008	19.993	103.837	19.771	1.185	0.525
500.000	325.238	80.008	19.992	103.835	19.771	1.187	0.496
500.500	325.490	80.009	19.995	103.833	19.773	1.048	0.495
501.000	325.749	80.008	19.993	103.828	19.774	0.987	0.503
501.500	326.013	80.008	19.993	103.827	19.772	1.140	0.517
502.000	326.257	80.008	19.993	103.826	19.773	1.074	0.516
502.500	326.467	80.008	19.994	103.827	19.772	1.168	0.482
503.000	326.774	80.007	19.994	103.826	19.770	1.252	0.485
503.500	327.027	80.009	19.995	103.827	19.774	1.012	0.538
504.000	327.305	80.009	19.994	103.828	19.772	1.171	0.545
504.500	327.544	80.008	19.995	103.829	19.772	1.113	0.524
505.000	327.822	80.009	19.995	103.829	19.770	1.271	0.517
505.500	328.034	80.011	19.993	103.831	19.774	1.003	0.504
506.000	328.295	80.008	19.997	103.831	19.770	1.260	0.481
506.500	328.563	80.010	19.993	103.831	19.771	1.230	0.500
507.000	328.841	80.007	19.997	103.831	19.772	1.138	0.537
507.500	329.077	80.010	19.996	103.830	19.773	1.081	0.530
508.000	329.308	80.009	19.993	103.831	19.773	1.102	0.490
508.500	329.572	80.010	19.994	103.832	19.772	1.168	0.481
509.000	329.837	80.009	19.994	103.833	19.773	1.064	0.512
509.500	330.121	80.009	19.993	103.832	19.770	1.280	0.540
510.000	330.319	80.008	19.995	103.833	19.774	1.004	0.515
510.500	330.639	80.010	19.994	103.831	19.770	1.265	0.499
511.000	330.856	80.010	19.994	103.830	19.773	1.057	0.527
511.500	331.108	80.010	19.994	103.830	19.771	1.245	0.503
512.000	331.396	80.010	19.994	103.830	19.771	1.215	0.505
512.500	331.623	80.010	19.995	103.831	19.768	1.401	0.528
513.000	331.878	80.009	19.995	103.831	19.774	1.008	0.498
513.500	332.088	80.010	19.993	103.830	19.771	1.211	0.474
514.000	332.392	80.010	19.992	103.828	19.770	1.292	0.490
514.500	332.659	80.009	19.993	103.829	19.770	1.299	0.542
515.000	332.920	80.010	19.993	103.827	19.771	1.190	0.550
515.500	333.184	80.009	19.994	103.828	19.771	1.200	0.527
516.000	333.409	80.009	19.994	103.828	19.771	1.198	0.507
516.500	333.686	80.009	19.994	103.828	19.772	1.121	0.495
517.000	333.943	80.010	19.994	103.828	19.772	1.145	0.518
517.500	334.216	80.011	19.994	103.828	19.770	1.277	0.532
518.000	334.493	80.009	19.995	103.828	19.772	1.177	0.540
518.500	334.777	80.009	19.993	103.828	19.773	1.085	0.555
519.000	334.986	80.007	19.991	103.828	19.771	1.205	0.527
519.500	335.288	80.010	19.994	103.827	19.770	1.303	0.502
520.000	335.490	80.008	19.996	103.827	19.772	1.125	0.508
520.500	335.737	80.012	19.994	103.827	19.773	1.087	0.477
521.000	336.033	80.010	19.996	103.828	19.772	1.115	0.496
521.500	336.285	80.008	19.994	103.827	19.773	1.074	0.546
522.000	336.545	80.009	19.993	103.827	19.770	1.299	0.530
522.500	336.777	80.010	19.993	103.827	19.773	1.081	0.502
523.000	337.018	80.010	19.994	103.828	19.772	1.164	0.482
523.500	337.265	80.010	19.994	103.829	19.771	1.207	0.480
524.001	337.538	80.009	19.993	103.830	19.770	1.308	0.504
524.500	337.788	80.007	19.994	103.830	19.772	1.158	0.522
525.000	338.084	80.010	19.993	103.829	19.770	1.305	0.535
525.500	338.339	80.010	19.994	103.830	19.770	1.263	0.549
526.000	338.586	80.009	19.993	103.829	19.774	1.032	0.527
526.500	338.798	80.010	19.994	103.829	19.770	1.293	0.481
527.000	339.054	80.009	19.993	103.829	19.772	1.130	0.463
527.500	339.341	80.009	19.993	103.830	19.769	1.348	0.505
528.000	339.597	80.010	19.993	103.830	19.771	1.241	0.543
528.500	339.844	80.009	19.994	103.830	19.774	1.029	0.523
529.000	340.080	80.009	19.993	103.829	19.773	1.083	0.493
529.500	340.363	80.011	19.994	103.830	19.771	1.185	0.501
530.000	340.609	80.008	19.993	103.830	19.771	1.196	0.525
530.500	340.881	80.008	19.995	103.829	19.772	1.179	0.523
531.000	341.110	80.011	19.992	103.829	19.770	1.305	0.509
531.500	341.351	80.008	19.994	103.829	19.775	0.956	0.486
532.000	341.608	80.011	19.992	103.829	19.772	1.170	0.484
532.501	341.900	80.011	19.993	103.829	19.771	1.190	0.523
533.000	342.161	80.011	19.992	103.828	19.771	1.245	0.551
533.500	342.396	80.011	19.994	103.828	19.772	1.156	0.524
534.000	342.638	80.011	19.993	103.828	19.771	1.201	0.486
534.500	342.904	80.009	19.994	103.828	19.769	1.389	0.493
535.000	343.148	80.010	19.993	103.827	19.768	1.408	0.509
535.500	343.417	80.011	19.995	103.826	19.771	1.215	0.511
536.000	343.646	80.011	19.993	103.826	19.772	1.154	0.505
536.500	343.926	80.011	19.993	103.825	19.772	1.175	0.504
537.000	344.150	80.011	19.993	103.823	19.771	1.185	0.507
537.500	344.397	80.011	19.993	103.823	19.769	1.374	0.488
538.000	344.677	80.010	19.995	103.823	19.765	1.616	0.499
538.500	344.944	80.011	19.994	103.823	19.771	1.243	0.537
539.000	345.216	80.010	19.994	103.822	19.768	1.393	0.543
539.500	345.462	80.011	19.994	103.823	19.770	1.277	0.528
540.000	345.694	80.011	19.995	103.823	19.771	1.222	0.498
540.500	345.972	80.008	19.994	103.824	19.771	1.233	0.494
541.000	346.236	80.009	19.994	103.823	19.773	1.070	0.526
541.500	346.428	80.010	19.994	103.823	19.768	1.417	0.499
542.000	346.692	80.009	19.995	103.822	19.775	0.971	0.456
542.500	346.943	80.007	19.994	103.822	19.769	1.335	0.486
543.000	347.177	80.011	19.995	103.822	19.769	1.331	0.500
543.500	347.458	80.007	19.994	103.821	19.767	1.462	0.500
544.000	347.708	80.010	19.995	103.822	19.771	1.194	0.523
544.500	347.980	80.006	19.994	103.822	19.771	1.201	0.527
545.000	348.232	80.008	19.995	103.822	19.768	1.404	0.523
545.500	348.529	80.007	19.994	103.822	19.768	1.410	0.536
546.000	348.738	80.007	19.995	103.821	19.771	1.243	0.527
546.500	348.988	80.009	19.994	103.820	19.769	1.374	0.483
547.000	349.278	80.006	19.995	103.820	19.770	1.310	0.500
547.500	349.506	80.007	19.994	103.820	19.771	1.196	0.529
548.000	349.755	80.008	19.995	103.821	19.771	1.245	0.498
548.500	350.016	80.007	19.995	103.821	19.770	1.282	0.494
549.000	350.260	80.007	19.995	103.822	19.769	1.389	0.507
549.500	350.507	80.007	19.995	103.823	19.768	1.423	0.498
550.000	350.783	80.008	19.994	103.822	19.769	1.342	0.507
550.500	350.993	80.006	19.994	103.822	19.767	1.517	0.505
551.000	351.237	80.009	19.995	103.822	19.768	1.412	0.470
551.500	351.485	80.008	19.995	103.823	19.765	1.629	0.473
552.000	351.782	80.007	19.995	103.823	19.767	1.474	0.518
552.500	352.015	80.006	19.994	103.822	19.767	1.476	0.537
553.000	352.281	80.009	19.994	103.822	19.765	1.618	0.515
553.500	352.546	80.008	19.994	103.821	19.766	1.541	0.515
554.000	352.794	80.008	19.994	103.821	19.765	1.654	0.522
554.500	353.093	80.007	19.994	103.820	19.767	1.528	0.530
555.000	353.322	80.007	19.994	103.822	19.763	1.778	0.538
555.500	353.557	80.008	19.995	103.821	19.767	1.498	0.496
556.000	353.795	80.007	19.994	103.820	19.766	1.569	0.468
556.500	354.060	80.008	19.993	103.820	19.765	1.658	0.488
557.000	354.340	80.007	19.995	103.821	19.766	1.581	0.524
557.500	354.562	80.009	19.995	103.824	19.768	1.440	0.523
558.000	354.791	80.010	19.993	103.826	19.765	1.622	0.477
558.500	355.053	80.008	19.993	103.829	19.763	1.800	0.471
559.000	355.340	80.008	19.995	103.829	19.761	1.922	0.520
559.500	355.518	80.008	19.995	103.828	19.763	1.746	0.507
560.000	355.793	80.009	19.994	103.825	19.762	1.859	0.459
560.500	356.047	80.008	19.996	103.824	19.764	1.708	0.491
561.000	356.301	80.009	19.995	103.824	19.766	1.575	0.519
561.500	356.585	80.008	19.993	103.824	19.764	1.737	0.523
562.000	356.807	80.009	19.993	103.825	19.765	1.631	0.522
562.500	357.094	80.009	19.994	103.825	19.765	1.641	0.507
563.000	357.346	80.008	19.993	103.825	19.761	1.909	0.524
563.500	357.609	80.009	19.991	103.825	19.763	1.772	0.527
564.000	357.839	80.007	19.995	103.825	19.762	1.838	0.504
564.500	358.082	80.008	19.995	103.824	19.763	1.765	0.483
565.000	358.331	80.010	19.994	103.824	19.760	2.011	0.483
565.500	358.603	80.006	19.994	103.824	19.760	1.971	0.506
566.000	358.887	80.008	19.992	103.824	19.759	2.022	0.538
566.500	359.079	80.007	19.994	103.824	19.760	1.984	0.516
567.000	359.347	80.007	19.994	103.824	19.759	2.020	0.468
567.500	359.566	80.006	19.993	103.824	19.760	2.011	0.473
568.000	359.861	80.007	19.994	103.824	19.758	2.105	0.501
568.500	360.092	80.007	19.994	103.824	19.756	2.257	0.520
569.000	360.374	80.007	19.994	103.825	19.758	2.116	0.520
569.500	360.632	80.007	19.992	103.825	19.756	2.232	0.526
570.000	360.888	80.006	19.993	103.825	19.760	2.007	0.527
570.500	361.132	80.010	19.992	103.825	19.755	2.296	0.507
571.000	361.366	80.008	19.994	103.826	19.756	2.227	0.489
571.500	361.661	80.008	19.993	103.825	19.755	2.320	0.503
572.000	361.864	80.007	19.994	103.826	19.760	2.011	0.514
572.500	362.114	80.009	19.994	103.827	19.753	2.435	0.476
573.000	362.402	80.007	19.993	103.828	19.756	2.279	0.495
573.500	362.618	80.008	19.996	103.827	19.755	2.343	0.520
574.000	362.881	80.009	19.993	103.830	19.753	2.448	0.492
574.500	363.147	80.007	19.995	103.830	19.753	2.442	0.504
575.000	363.398	80.008	19.994	103.830	19.754	2.388	0.523
575.500	363.674	80.008	19.993	103.830	19.751	2.602	0.522
576.000	363.918	80.007	19.993	103.830	19.752	2.527	0.523
576.500	364.178	80.008	19.995	103.830	19.751	2.636	0.512
577.000	364.457	80.006	19.993	103.829	19.751	2.636	0.521
577.500	364.711	80.008	19.994	103.829	19.750	2.703	0.536
578.000	364.920	80.007	19.995	103.830	19.750	2.700	0.498
578.500	365.165	80.009	19.994	103.830	19.747	2.910	0.459
579.000	365.397	80.006	19.994	103.830	19.746	2.959	0.466
579.500	365.671	80.008	19.994	103.832	19.747	2.857	0.491
580.000	365.953	80.007	19.994	103.832	19.749	2.728	0.531
580.500	366.193	80.007	19.995	103.832	19.749	2.775	0.539
581.000	366.452	80.007	19.994	103.831	19.749	2.749	0.511
581.500	366.695	80.009	19.993	103.831	19.746	2.931	0.500
582.000	366.935	80.008	19.994	103.829	19.749	2.779	0.492
582.500	367.224	80.008	19.995	103.829	19.746	2.944	0.506
583.000	367.451	80.007	19.993	103.828	19.745	3.008	0.523
583.500	367.714	80.008	19.993	103.828	19.744	3.075	0.503
584.000	367.952	80.008	19.993	103.830	19.743	3.171	0.495
584.500	368.226	80.008	19.993	103.830	19.741	3.316	0.506
585.000	368.466	80.009	19.994	103.830	19.741	3.282	0.513
585.500	368.732	80.008	19.994	103.831	19.739	3.453	0.510
586.000	369.029	80.007	19.994	103.831	19.739	3.419	0.535
586.500	369.233	80.006	19.993	103.829	19.739	3.466	0.532
587.000	369.507	80.009	19.994	103.830	19.737	3.603	0.489
587.500	369.754	80.010	19.993	103.830	19.738	3.518	0.499
588.000	370.002	80.008	19.992	103.831	19.739	3.438	0.508
588.500	370.242	80.009	19.993	103.831	19.733	3.851	0.492
589.000	370.493	80.008	19.993	103.831	19.735	3.725	0.489
589.500	370.773	80.009	19.994	103.830	19.733	3.841	0.511
590.000	371.036	80.010	19.993	103.830	19.734	3.802	0.537
590.500	371.285	80.009	19.993	103.829	19.731	4.009	0.527
591.000	371.522	80.009	19.993	103.833	19.729	4.140	0.499
591.500	371.766	80.008	19.995	103.834	19.725	4.410	0.484
592.000	372.029	80.011	19.993	103.836	19.727	4.249	0.494
592.500	372.310	80.009	19.993	103.836	19.725	4.419	0.526
593.000	372.561	80.008	19.994	103.836	19.724	4.487	0.538
593.500	372.824	80.010	19.992	103.832	19.720	4.753	0.523
594.000	373.059	80.010	19.994	103.835	19.722	4.650	0.506
594.500	373.373	80.008	19.993	103.835	19.720	4.746	0.524
595.000	373.595	80.010	19.992	103.838	19.717	4.973	0.543
595.500	373.860	80.010	19.993	103.843	19.716	5.061	0.511
596.000	374.133	80.010	19.992	103.844	19.715	5.099	0.512
596.500	374.377	80.009	19.993	103.841	19.712	5.301	0.527
597.000	374.636	80.010	19.994	103.842	19.713	5.277	0.510
597.500	374.880	80.010	19.993	103.840	19.712	5.300	0.503
598.000	375.170	80.010	19.993	103.836	19.711	5.384	0.518
598.500	375.411	80.010	19.994	103.835	19.709	5.529	0.532
599.000	375.645	80.010	19.993	103.834	19.707	5.668	0.503
599.500	375.883	80.010	19.993	103.834	19.705	5.833	0.474
600.000	376.124	80.010	19.994	103.834	19.705	5.831	0.476
600.500	376.418	80.011	19.993	103.837	19.700	6.158	0.507
601.000	376.674	80.009	19.993	103.842	19.701	6.098	0.542
601.500	376.907	80.009	19.993	103.843	19.699	6.236	0.520
602.000	377.143	80.011	19.993	103.840	19.701	6.062	0.479
602.500	377.424	80.010	19.993	103.837	19.693	6.623	0.493
603.000	377.712	80.010	19.994	103.832	19.691	6.800	0.543
603.500	377.921	80.008	19.994	103.826	19.688	6.999	0.533
604.000	378.195	80.009	19.993	103.824	19.687	7.039	0.490
604.500	378.443	80.009	19.994	103.825	19.687	7.046	0.502
605.000	378.688	80.009	19.994	103.826	19.685	7.227	0.508
605.500	378.948	80.009	19.993	103.826	19.685	7.215	0.499
606.000	379.210	80.009	19.994	103.826	19.679	7.628	0.513
606.500	379.433	80.010	19.994	103.826	19.680	7.561	0.503
607.000	379.702	80.009	19.994	103.826	19.677	7.738	0.488
607.500	379.962	80.009	19.994	103.825	19.678	7.657	0.511
608.000	380.231	80.009	19.993	103.825	19.674	7.943	0.529
608.500	380.490	80.008	19.995	103.826	19.675	7.911	0.528
609.000	380.713	80.009	19.994	103.826	19.672	8.099	0.505
609.500	380.985	80.009	19.994	103.828	19.669	8.335	0.489
610.000	381.264	80.010	19.994	103.832	19.668	8.412	0.523
610.500	381.461	80.009	19.995	103.830	19.665	8.581	0.514
611.000	381.738	80.009	19.994	103.829	19.667	8.418	0.476
611.500	382.009	80.011	19.993	103.832	19.663	8.709	0.511
612.000	382.226	80.010	19.994	103.830	19.664	8.634	0.517
612.500	382.531	80.011	19.993	103.826	19.659	8.984	0.504
613.000	382.764	80.009	19.995	103.826	19.662	8.774	0.530
613.500	383.018	80.010	19.995	103.827	19.657	9.142	0.513
614.000	383.248	80.010	19.994	103.829	19.660	8.956	0.486
614.500	383.518	80.009	19.995	103.836	19.656	9.183	0.492
615.000	383.752	80.009	19.994	103.840	19.656	9.191	0.502
615.500	384.018	80.011	19.994	103.840	19.656	9.236	0.502
616.000	384.272	80.011	19.993	103.841	19.656	9.236	0.510
616.500	384.524	80.008	19.994	103.839	19.654	9.353	0.513
617.000	384.808	80.011	19.995	103.837	19.651	9.539	0.521
617.500	385.047	80.010	19.995	103.840	19.653	9.437	0.530
618.000	385.294	80.013	19.995	103.845	19.650	9.625	0.504
618.500	385.567	80.011	19.994	103.848	19.650	9.608	0.503
619.000	385.825	80.013	19.995	103.850	19.645	9.993	0.525
619.500	386.084	80.012	19.993	103.850	19.650	9.662	0.524
620.000	386.308	80.011	19.995	103.851	19.647	9.861	0.500
620.500	386.546	80.010	19.994	103.852	19.642	10.188	0.473
621.000	386.851	80.010	19.993	103.850	19.644	10.075	0.503
621.500	387.079	80.012	19.994	103.853	19.641	10.224	0.538
622.000	387.371	80.011	19.995	103.854	19.640	10.333	0.526
622.500	387.607	80.011	19.993	103.854	19.635	10.660	0.524
623.000	387.851	80.011	19.994	103.856	19.636	10.619	0.504
623.500	388.122	80.011	19.994	103.859	19.634	10.773	0.498
624.000	388.396	80.012	19.994	103.860	19.633	10.782	0.530
624.500	388.629	80.010	19.994	103.861	19.626	11.288	0.526
625.001	388.877	80.012	19.994	103.861	19.626	11.279	0.494
625.500	389.139	80.010	19.993	103.862	19.622	11.551	0.495
626.000	389.391	80.011	19.995	103.862	19.620	11.730	0.512
626.500	389.640	80.010	19.994	103.863	19.616	12.009	0.508
627.000	389.882	80.011	19.994	103.863	19.611	12.361	0.496
627.500	390.172	80.010	19.995	103.866	19.611	12.341	0.511
628.000	390.432	80.010	19.992	103.867	19.607	12.619	0.540
628.500	390.648	80.006	19.995	103.867	19.603	12.920	0.513
629.000	390.954	80.008	19.993	103.869	19.603	12.929	0.499
629.500	391.222	80.009	19.994	103.869	19.601	13.031	0.548
630.000	391.478	80.008	19.995	103.866	19.598	13.258	0.550
630.500	391.713	80.008	19.992	103.865	19.598	13.232	0.508
631.000	392.015	80.008	19.995	103.864	19.590	13.783	0.514
631.500	392.285	80.007	19.994	103.862	19.589	13.856	0.554
632.000	392.501	80.008	19.993	103.863	19.591	13.745	0.529
632.500	392.781	80.007	19.995	103.863	19.588	13.942	0.491
633.000	393.062	80.008	19.995	103.862	19.583	14.290	0.529
633.500	393.331	80.007	19.994	103.866	19.581	14.424	0.556
634.000	393.584	80.008	19.995	103.870	19.582	14.355	0.536
634.500	393.855	80.008	19.993	103.870	19.577	14.742	0.523
635.000	394.142	80.007	19.994	103.871	19.575	14.857	0.541
635.500	394.376	80.006	19.995	103.876	19.574	14.895	0.540
636.000	394.653	80.007	19.993	103.876	19.572	15.042	0.516
636.500	394.902	80.007	19.993	103.876	19.570	15.209	0.518
637.000	395.197	80.007	19.994	103.884	19.565	15.537	0.535
637.500	395.436	80.007	19.994	103.890	19.563	15.675	0.539
638.000	395.711	80.007	19.993	103.893	19.561	15.816	0.523
638.500	395.950	80.008	19.996	103.899	19.557	16.122	0.514
639.000	396.225	80.008	19.994	103.904	19.555	16.263	0.515
639.500	396.471	80.007	19.995	103.904	19.547	16.783	0.518
640.000	396.724	80.007	19.994	103.904	19.543	17.086	0.510
640.500	397.011	80.007	19.994	103.905	19.538	17.400	0.520
641.000	397.243	80.007	19.994	103.904	19.539	17.370	0.530
641.500	397.519	80.008	19.994	103.905	19.532	17.869	0.514
642.000	397.745	80.008	19.996	103.906	19.527	18.182	0.505
642.500	398.024	80.008	19.994	103.907	19.523	18.456	0.503
643.000	398.311	80.007	19.995	103.907	19.518	18.835	0.535
643.500	398.524	80.008	19.994	103.908	19.512	19.239	0.533
644.000	398.792	80.008	19.995	103.910	19.510	19.355	0.491
644.500	399.045	80.009	19.994	103.912	19.502	19.924	0.501
645.000	399.312	80.010	19.994	103.916	19.501	20.010	0.521
645.500	399.596	80.009	19.994	103.917	19.492	20.651	0.536
646.000	399.829	80.008	19.994	103.917	19.486	21.020	0.534
646.500	400.140	80.008	19.993	103.918	19.483	21.245	0.530
647.000	400.414	80.008	19.995	103.922	19.473	21.937	0.564
647.500	400.650	80.007	19.995	103.926	19.468	22.322	0.547
648.000	400.910	80.008	19.995	103.932	19.460	22.843	0.503
648.500	401.170	80.008	19.994	103.938	19.457	23.108	0.508
649.001	401.441	80.007	19.994	103.933	19.447	23.797	0.526
649.500	401.708	80.008	19.994	103.931	19.441	24.202	0.535
650.000	401.980	80.008	19.994	103.931	19.431	24.869	0.539
650.500	402.257	80.008	19.994	103.928	19.432	24.795	0.544
651.000	402.500	80.009	19.995	103.923	19.422	25.550	0.534
651.500	402.793	80.008	19.993	103.924	19.413	26.138	0.528
652.000	403.052	80.009	19.992	103.921	19.411	26.294	0.544
652.500	403.292	80.008	19.994	103.915	19.405	26.682	0.525
653.000	403.577	80.009	19.994	103.911	19.405	26.671	0.512
653.500	403.852	80.009	19.993	103.910	19.398	27.159	0.542
654.000	404.109	80.007	19.993	103.909	19.396	27.362	0.546
654.500	404.362	80.008	19.993	103.908	19.391	27.642	0.521
655.000	404.628	80.008	19.993	103.909	19.390	27.770	0.514
655.500	404.919	80.007	19.994	103.915	19.381	28.405	0.538
656.000	405.131	80.008	19.993	103.923	19.380	28.451	0.530
656.500	405.407	80.006	19.993	103.931	19.376	28.752	0.496
657.000	405.667	80.007	19.994	103.938	19.372	29.002	0.512
657.500	405.918	80.007	19.993	103.943	19.365	29.499	0.523
658.000	406.244	80.006	19.993	103.947	19.361	29.756	0.544
658.500	406.440	80.007	19.993	103.954	19.354	30.289	0.550
659.000	406.711	80.007	19.993	103.962	19.350	30.541	0.494
659.500	407.031	80.006	19.995	103.971	19.343	31.037	0.529
660.000	407.283	80.007	19.994	103.981	19.340	31.248	0.582
660.500	407.542	80.006	19.993	103.994	19.331	31.874	0.541
661.000	407.782	80.008	19.993	103.999	19.327	32.149	0.505
661.500	408.062	80.006	19.993	104.005	19.322	32.511	0.510
662.000	408.302	80.007	19.994	104.008	19.316	32.884	0.520
662.500	408.601	80.008	19.994	104.007	19.307	33.527	0.529
663.000	408.834	80.006	19.993	103.999	19.300	33.999	0.535
663.500	409.077	80.007	19.993	103.995	19.296	34.335	0.504
664.000	409.369	80.008	19.994	103.989	19.288	34.841	0.506
664.500	409.650	80.008	19.993	103.985	19.283	35.195	0.554
665.000	409.859	80.009	19.995	103.990	19.272	35.978	0.531
665.500	410.140	80.008	19.993	103.991	19.266	36.430	0.490
666.000	410.389	80.008	19.994	103.990	19.257	37.046	0.510
666.500	410.627	80.007	19.996	103.990	19.250	37.495	0.508
667.000	410.905	80.008	19.992	103.994	19.245	37.848	0.501
667.500	411.155	80.008	19.994	103.993	19.237	38.416	0.522
668.000	411.422	80.009	19.994	103.994	19.230	38.913	0.523
668.500	411.663	80.008	19.994	104.000	19.226	39.226	0.512
669.000	411.905	80.008	19.994	104.006	19.218	39.781	0.495
669.500	412.178	80.008	19.995	104.003	19.210	40.322	0.499
670.000	412.444	80.009	19.994	104.001	19.200	41.005	0.527
670.500	412.686	80.008	19.995	104.006	19.195	41.366	0.523
671.000	412.906	80.008	19.993	104.007	19.185	42.084	0.485
671.500	413.199	80.010	19.993	104.008	19.177	42.578	0.488
672.000	413.425	80.009	19.994	104.015	19.167	43.290	0.516
672.500	413.670	80.009	19.994	104.018	19.154	44.191	0.495
673.000	413.902	80.010	19.994	104.021	19.149	44.584	0.474
673.500	414.171	80.009	19.993	104.029	19.138	45.351	0.489
674.000	414.419	80.009	19.994	104.037	19.127	46.131	0.509
674.500	414.670	80.010	19.994	104.045	19.116	46.917	0.508
675.000	414.909	80.010	19.994	104.057	19.103	47.826	0.495
675.500	415.172	80.009	19.995	104.063	19.092	48.556	0.496
676.000	415.410	80.010	19.993	104.063	19.084	49.147	0.501
676.500	415.641	80.008	19.993	104.063	19.072	49.978	0.485
677.000	415.882	80.011	19.996	104.066	19.061	50.709	0.471
677.500	416.150	80.010	19.996	104.069	19.051	51.455	0.491
678.000	416.408	80.009	19.993	104.072	19.043	52.026	0.517
678.500	416.644	80.010	19.993	104.073	19.029	52.983	0.510
679.000	416.896	80.008	19.994	104.072	19.018	53.741	0.491
679.500	417.131	80.010	19.992	104.070	19.007	54.474	0.488
680.000	417.370	80.010	19.994	104.069	18.994	55.429	0.481
680.500	417.639	80.010	19.993	104.072	18.984	56.148	0.491
681.000	417.868	80.009	19.994	104.072	18.975	56.775	0.502
681.500	418.093	80.010	19.995	104.076	18.961	57.727	0.476
682.000	418.345	80.010	19.993	104.079	18.950	58.490	0.466
682.500	418.595	80.010	19.993	104.080	18.939	59.285	0.489
683.000	418.854	80.010	19.994	104.082	18.924	60.329	0.505
683.500	419.087	80.010	19.994	104.091	18.912	61.150	0.501
684.000	419.364	80.010	19.993	104.102	18.900	62.013	0.501
684.500	419.565	80.009	19.993	104.114	18.888	62.856	0.494
685.000	419.776	80.009	19.993	104.123	18.872	63.973	0.445
685.500	420.048	80.010	19.993	104.130	18.855	65.153	0.448
686.000	420.308	80.009	19.994	104.136	18.842	66.091	0.508
686.500	420.529	80.008	19.995	104.139	18.827	67.129	0.506
687.000	420.806	80.009	19.992	104.138	18.812	68.191	0.489
687.500	421.071	80.009	19.993	104.148	18.797	69.263	0.520
688.000	421.307	80.009	19.993	104.159	18.782	70.281	0.522
688.500	421.538	80.010	19.992	104.161	18.771	71.098	0.484
689.000	421.761	80.010	19.993	104.165	18.754	72.253	0.461
689.500	421.998	80.008	19.993	104.173	18.740	73.297	0.457
690.000	422.261	80.008	19.993	104.171	18.726	74.265	0.480
690.500	422.465	80.010	19.992	104.168	18.714	75.137	0.484
691.000	422.739	80.011	19.993	104.175	18.699	76.210	0.472
691.500	422.943	80.009	19.994	104.177	18.689	76.940	0.478
692.000	423.184	80.010	19.994	104.178	18.678	77.762	0.461
692.500	423.451	80.010	19.994	104.178	18.664	78.714	0.476
693.000	423.682	80.009	19.994	104.185	18.651	79.629	0.503
693.500	423.925	80.009	19.993	104.191	18.638	80.548	0.486
694.000	424.168	80.008	19.993	104.199	18.621	81.636	0.480
694.500	424.423	80.010	19.994	104.207	18.608	82.511	0.492
695.000	424.623	80.010	19.992	104.213	18.594	83.448	0.476
695.500	424.873	80.010	19.993	104.219	18.579	84.465	0.453
696.000	425.111	80.010	19.993	104.227	18.565	85.442	0.469
696.500	425.366	80.011	19.994	104.242	18.549	86.486	0.490
697.000	425.654	80.010	19.993	104.259	18.530	87.787	0.518
697.500	425.857	80.010	19.994	104.279	18.512	89.039	0.517
698.000	426.133	80.012	19.993	104.297	18.489	90.645	0.485
698.500	426.364	80.009	19.995	104.318	18.463	92.401	0.493
699.000	426.609	80.010	19.993	104.333	18.430	94.733	0.492
699.500	426.840	80.010	19.993	104.348	18.395	97.180	0.476
700.000	427.087	80.011	19.994	104.362	18.342	100.971	0.477
700.500	427.344	80.011	19.994	104.379	18.293	104.462	0.491
701.000	427.587	80.009	19.994	104.397	18.240	108.338	0.502
701.500	427.856	80.010	19.993	104.424	18.188	112.014	0.506
702.000	428.119	80.010	19.994	104.486	18.144	115.222	0.522
702.500	428.368	80.011	19.993	104.549	18.101	118.293	0.522
703.000	428.645	80.010	19.994	104.574	18.064	120.859	0.519
703.500	428.860	80.010	19.994	104.580	18.037	122.829	0.509
704.000	429.135	80.010	19.993	104.572	18.009	124.764	0.491
704.500	429.393	80.010	19.994	104.525	17.986	126.378	0.512
705.000	429.589	80.010	19.994	104.465	17.963	127.907	0.493
705.500	429.899	80.010	19.994	104.424	17.950	128.830	0.479
706.000	430.133	80.010	19.993	104.377	17.934	129.962	0.525
706.500	430.384	80.010	19.993	104.326	17.918	131.086	0.515
707.000	430.661	80.009	19.995	104.273	17.907	131.906	0.506
707.500	430.915	80.009	19.994	104.229	17.895	132.756	0.530
708.000	431.132	80.010	19.993	104.196	17.888	133.242	0.501
708.500	431.412	80.008	19.994	104.171	17.878	133.991	0.484
709.000	431.656	80.007	19.995	104.144	17.866	134.833	0.510
709.500	431.887	80.009	19.994	104.131	17.855	135.593	0.499
710.000	432.172	80.008	19.994	104.142	17.844	136.357	0.495
710.500	432.369	80.008	19.994	104.186	17.827	137.488	0.499
711.000	432.671	80.009	19.994	104.261	17.818	138.115	0.491
711.500	432.875	80.009	19.994	104.361	17.798	139.467	0.503
712.000	433.112	80.008	19.993	104.467	17.786	140.258	0.473
712.500	433.336	80.008	19.994	104.559	17.775	140.980	0.451
713.000	433.623	80.009	19.994	104.628	17.762	141.864	0.486
713.500	433.898	80.009	19.993	104.674	17.750	142.661	0.537
714.000	434.159	80.008	19.993	104.704	17.736	143.655	0.549
714.500	434.408	80.007	19.994	104.716	17.716	144.963	0.523
715.000	434.658	80.009	19.994	104.710	17.700	146.101	0.504
715.500	434.921	80.008	19.993	104.695	17.679	147.541	0.506
716.000	435.200	80.009	19.993	104.677	17.650	149.644	0.528
716.500	435.438	80.008	19.995	104.666	17.623	151.646	0.530
717.000	435.718	80.009	19.993	104.665	17.587	154.189	0.518
717.501	435.984	80.008	19.994	104.676	17.552	156.788	0.532
718.000	436.227	80.009	19.993	104.691	17.522	158.951	0.527
718.500	436.485	80.008	19.993	104.715	17.491	161.171	0.504
719.000	436.763	80.008	19.994	104.737	17.466	162.970	0.518
719.500	437.033	80.009	19.993	104.746	17.443	164.581	0.543
720.000	437.295	80.008	19.995	104.743	17.420	166.196	0.540
720.500	437.540	80.009	19.993	104.736	17.406	167.215	0.519
721.000	437.797	80.008	19.993	104.718	17.389	168.342	0.505
721.500	438.038	80.007	19.993	104.692	17.379	169.092	0.500
722.000	438.336	80.007	19.994	104.665	17.365	170.019	0.518
722.500	438.594	80.009	19.994	104.644	17.355	170.705	0.548
723.000	438.858	80.009	19.993	104.622	17.348	171.209	0.539
723.500	439.099	80.008	19.994	104.598	17.339	171.798	0.513
724.000	439.360	80.008	19.995	104.572	17.329	172.521	0.503
724.500	439.605	80.008	19.994	104.545	17.323	172.930	0.504
725.000	439.917	80.008	19.992	104.516	17.309	173.903	0.532
725.500	440.129	80.008	19.993	104.491	17.305	174.194	0.540
726.000	440.381	80.008	19.993	104.481	17.298	174.673	0.494
726.500	440.675	80.008	19.994	104.488	17.288	175.355	0.505
727.000	440.955	80.008	19.994	104.519	17.280	175.975	0.560
727.500	441.244	80.008	19.994	104.570	17.275	176.307	0.572
728.000	441.469	80.008	19.994	104.630	17.266	176.958	0.542
728.500	441.731	80.008	19.995	104.691	17.255	177.713	0.501
729.000	441.962	80.007	19.993	104.745	17.248	178.207	0.490
729.500	442.257	80.008	19.995	104.783	17.240	178.729	0.510
730.000	442.506	80.008	19.996	104.805	17.231	179.414	0.535
730.500	442.802	80.008	19.995	104.814	17.225	179.820	0.544
731.000	443.032	80.008	19.995	104.815	17.214	180.582	0.536
731.500	443.306	80.006	19.994	104.811	17.205	181.198	0.515
732.000	443.559	80.009	19.995	104.805	17.200	181.575	0.515
732.500	443.805	80.008	19.995	104.801	17.190	182.281	0.513
733.000	444.073	80.009	19.995	104.793	17.182	182.817	0.507
733.500	444.322	80.009	19.995	104.785	17.176	183.251	0.515
734.000	444.628	80.007	19.995	104.776	17.167	183.848	0.536
734.500	444.872	80.008	19.995	104.768	17.164	184.099	0.552
735.000	445.124	80.008	19.995	104.761	17.155	184.667	0.523
735.500	445.397	80.007	19.995	104.758	17.150	185.038	0.511
736.000	445.656	80.006	19.994	104.758	17.145	185.402	0.528
736.500	445.928	80.008	19.995	104.757	17.138	185.915	0.531
737.000	446.151	80.008	19.997	104.757	17.137	185.978	0.513
737.500	446.419	80.008	19.996	104.757	17.128	186.558	0.493
738.000	446.693	80.007	19.995	104.758	17.122	186.978	0.516
738.500	446.935	80.007	19.996	104.758	17.124	186.841	0.529
739.000	447.176	80.007	19.995	104.760	17.115	187.476	0.500
739.500	447.470	80.007	19.994	104.761	17.113	187.564	0.509
740.000	447.702	80.009	19.995	104.761	17.112	187.681	0.530
740.500	447.961	80.007	19.995	104.761	17.110	187.774	0.508
741.000	448.211	80.008	19.994	104.762	17.111	187.706	0.500
741.500	448.478	80.007	19.994	104.763	17.110	187.757	0.513
742.000	448.718	80.006	19.995	104.762	17.114	187.509	0.513
742.500	449.019	80.008	19.994	104.762	17.114	187.443	0.524
743.000	449.267	80.007	19.996	104.758	17.115	187.363	0.544
743.500	449.531	80.008	19.995	104.757	17.119	187.132	0.531
744.000	449.800	80.008	19.995	104.757	17.122	186.871	0.523
744.500	450.026	80.009	19.995	104.757	17.126	186.614	0.514
745.000	450.298	80.007	19.994	104.754	17.133	186.115	0.496
745.500	450.525	80.008	19.995	104.754	17.136	185.859	0.499
746.000	450.836	80.009	19.993	104.749	17.143	185.375	0.519
746.500	451.042	80.008	19.994	104.745	17.153	184.651	0.528
747.000	451.320	80.009	19.994	104.744	17.159	184.203	0.501
747.500	451.601	80.009	19.994	104.748	17.166	183.707	0.521
748.000	451.842	80.009	19.994	104.747	17.178	182.817	0.540
748.500	452.112	80.008	19.994	104.747	17.185	182.345	0.517
749.000	452.363	80.009	19.994	104.743	17.197	181.471	0.516
749.500	452.620	80.009	19.995	104.738	17.209	180.599	0.514
750.000	452.856	80.009	19.994	104.730	17.221	179.760	0.500
750.500	453.119	80.009	19.993	104.727	17.236	178.726	0.497
751.000	453.388	80.010	19.993	104.725	17.247	177.914	0.516
751.500	453.638	80.009	19.994	104.722	17.263	176.801	0.525
752.000	453.879	80.010	19.995	104.714	17.280	175.624	0.505
752.500	454.143	80.010	19.994	104.706	17.294	174.565	0.498
753.000	454.420	80.010	19.993	104.698	17.314	173.185	0.523
753.500	454.640	80.009	19.993	104.690	17.330	172.047	0.519
754.000	454.935	80.009	19.994	104.684	17.347	170.814	0.506
754.500	455.204	80.010	19.994	104.682	17.367	169.393	0.540
755.000	455.431	80.011	19.993	104.678	17.386	168.105	0.530
755.500	455.685	80.010	19.994	104.672	17.406	166.615	0.488
756.000	455.956	80.010	19.995	104.663	17.428	165.079	0.503
756.500	456.198	80.010	19.994	104.655	17.451	163.497	0.520
757.000	456.434	80.009	19.993	104.646	17.471	162.035	0.496
757.500	456.695	80.011	19.993	104.639	17.495	160.341	0.487
758.000	456.957	80.010	19.994	104.631	17.518	158.728	0.510
758.500	457.214	80.011	19.994	104.624	17.544	156.884	0.521
759.000	457.456	80.009	19.994	104.617	17.568	155.194	0.510
759.500	457.700	80.010	19.994	104.609	17.592	153.553	0.493
760.000	457.937	80.011	19.994	104.597	17.619	151.604	0.483
760.500	458.255	80.011	19.993	104.588	17.644	149.861	0.518
761.000	458.483	80.011	19.993	104.580	17.672	147.883	0.550
761.500	458.727	80.011	19.994	104.571	17.700	145.937	0.509
762.000	458.968	80.010	19.994	104.562	17.729	143.923	0.479
762.500	459.269	80.010	19.993	104.558	17.758	141.829	0.513
763.000	459.493	80.009	19.994	104.550	17.786	139.867	0.534
763.500	459.741	80.010	19.994	104.542	17.815	137.838	0.499
764.000	460.002	80.010	19.994	104.534	17.845	135.758	0.491
764.500	460.217	80.009	19.993	104.524	17.873	133.740	0.493
765.000	460.498	80.008	19.994	104.513	17.904	131.601	0.486
765.500	460.727	80.009	19.994	104.501	17.931	129.715	0.503
766.000	460.977	80.010	19.993	104.486	17.963	127.448	0.495
766.500	461.254	80.008	19.993	104.472	17.994	125.239	0.503
767.000	461.465	80.009	19.994	104.463	18.024	123.136	0.507
767.500	461.727	80.009	19.993	104.450	18.053	121.088	0.480
768.000	461.981	80.008	19.994	104.439	18.085	118.903	0.494
768.500	462.245	80.010	19.994	104.431	18.115	116.776	0.517
769.000	462.475	80.009	19.994	104.421	18.144	114.735	0.506
769.500	462.714	80.008	19.994	104.413	18.175	112.609	0.481
770.000	462.957	80.009	19.995	104.403	18.206	110.411	0.475
770.500	463.222	80.008	19.994	104.394	18.235	108.392	0.495
771.000	463.473	80.008	19.995	104.385	18.270	105.909	0.512
771.500	463.706	80.008	19.994	104.376	18.298	103.953	0.500
772.000	463.939	80.010	19.994	104.367	18.331	101.664	0.475
772.500	464.179	80.010	19.994	104.361	18.362	99.471	0.470
773.000	464.450	80.010	19.995	104.354	18.394	97.218	0.492
773.500	464.696	80.008	19.993	104.346	18.426	95.036	0.514
774.000	464.961	80.009	19.994	104.335	18.457	92.856	0.514
774.500	465.209	80.009	19.994	104.322	18.492	90.367	0.512
775.000	465.462	80.009	19.992	104.310	18.521	88.360	0.507
775.500	465.721	80.010	19.994	104.296	18.557	85.844	0.506
776.000	465.961	80.010	19.994	104.284	18.588	83.658	0.505
776.500	466.258	80.009	19.993	104.275	18.622	81.334	0.518
777.000	466.485	80.010	19.993	104.267	18.648	79.461	0.531
777.500	466.742	80.010	19.993	104.257	18.678	77.391	0.505
778.000	466.970	80.011	19.993	104.247	18.712	75.028	0.485
778.500	467.266	80.011	19.994	104.238	18.739	73.125	0.504
779.000	467.487	80.010	19.992	104.229	18.768	71.072	0.520
779.500	467.723	80.010	19.992	104.221	18.799	68.918	0.486
780.000	468.010	80.011	19.992	104.217	18.824	67.169	0.490
780.500	468.265	80.011	19.992	104.214	18.853	65.178	0.533
781.000	468.500	80.011	19.993	104.206	18.878	63.437	0.516
781.500	468.732	80.010	19.992	104.198	18.902	61.731	0.479
782.000	469.018	80.011	19.993	104.190	18.927	60.004	0.492
782.500	469.271	80.010	19.992	104.183	18.951	58.332	0.528
783.000	469.503	80.011	19.993	104.175	18.976	56.563	0.512
783.500	469.774	80.011	19.992	104.168	19.001	54.865	0.494
784.000	470.009	80.010	19.992	104.160	19.022	53.373	0.504
784.500	470.284	80.011	19.993	104.152	19.043	51.887	0.508
785.000	470.521	80.010	19.993	104.145	19.063	50.493	0.511
785.500	470.786	80.010	19.993	104.137	19.084	49.036	0.507
786.000	471.041	80.010	19.992	104.128	19.104	47.670	0.511
786.500	471.322	80.011	19.993	104.120	19.122	46.434	0.528
787.000	471.551	80.009	19.992	104.113	19.144	44.853	0.523
787.500	471.792	80.009	19.993	104.105	19.163	43.548	0.490
788.000	472.057	80.010	19.993	104.094	19.178	42.503	0.488
788.500	472.302	80.011	19.992	104.087	19.193	41.474	0.508
789.000	472.551	80.010	19.993	104.078	19.213	40.082	0.502
789.500	472.802	80.010	19.993	104.070	19.228	39.026	0.497
790.000	473.093	80.009	19.993	104.061	19.239	38.219	0.521
790.500	473.376	80.010	19.993	104.053	19.255	37.152	0.558
791.000	473.603	80.008	19.994	104.046	19.272	35.973	0.542
791.500	473.862	80.009	19.993	104.039	19.280	35.371	0.499
792.000	474.131	80.009	19.994	104.032	19.291	34.610	0.508
792.500	474.365	80.008	19.993	104.022	19.304	33.691	0.515
793.000	474.627	80.008	19.993	104.015	19.316	32.857	0.499
793.500	474.909	80.008	19.992	104.011	19.328	32.025	0.519
794.000	475.136	80.009	19.994	104.006	19.343	31.001	0.527
794.500	475.415	80.009	19.994	103.999	19.354	30.247	0.508
795.000	475.656	80.008	19.993	103.996	19.365	29.463	0.513
795.500	475.937	80.008	19.994	103.992	19.373	28.925	0.521
796.000	476.151	80.008	19.994	103.987	19.384	28.147	0.508
796.501	476.393	80.006	19.993	103.983	19.394	27.471	0.475
797.000	476.665	80.008	19.996	103.981	19.402	26.912	0.485
797.500	476.921	80.007	19.995	103.980	19.413	26.101	0.521
798.000	477.184	80.009	19.995	103.976	19.422	25.500	0.524
798.500	477.473	80.008	19.995	103.969	19.431	24.856	0.536
799.000	477.699	80.009	19.994	103.965	19.442	24.107	0.534
799.500	477.937	80.008	19.995	103.959	19.449	23.615	0.489
800.000	478.223	80.008	19.995	103.952	19.458	22.996	0.494
800.500	478.435	80.008	19.994	103.947	19.469	22.199	0.511
801.000	478.730	80.008	19.994	103.946	19.476	21.754	0.503
801.500	479.003	80.008	19.994	103.943	19.485	21.130	0.538
802.000	479.255	80.009	19.995	103.940	19.494	20.478	0.546
802.500	479.515	80.008	19.995	103.939	19.501	20.018	0.518
803.000	479.763	80.009	19.994	103.935	19.505	19.747	0.510
803.500	480.011	80.010	19.994	103.928	19.513	19.145	0.502
804.000	480.278	80.009	19.994	103.923	19.519	18.732	0.505
804.500	480.521	80.008	19.994	103.918	19.524	18.430	0.513
805.000	480.771	80.008	19.994	103.912	19.530	17.973	0.502
805.500	481.024	80.008	19.993	103.908	19.534	17.718	0.498
806.000	481.266	80.006	19.994	103.908	19.538	17.406	0.499
806.500	481.506	80.009	19.993	103.905	19.546	16.871	0.489
807.000	481.745	80.008	19.995	103.904	19.552	16.441	0.480
807.500	482.051	80.009	19.994	103.904	19.560	15.879	0.512
808.000	482.289	80.009	19.994	103.903	19.564	15.629	0.544
808.500	482.517	80.009	19.994	103.902	19.568	15.341	0.505
809.000	482.777	80.008	19.994	103.898	19.574	14.943	0.477
809.500	483.023	80.008	19.994	103.892	19.579	14.571	0.497
810.000	483.257	80.010	19.994	103.887	19.581	14.402	0.493
810.500	483.555	80.008	19.994	103.887	19.587	14.047	0.506
811.000	483.782	80.009	19.993	103.887	19.592	13.630	0.529
811.500	484.028	80.008	19.993	103.888	19.597	13.289	0.499
812.000	484.296	80.008	19.993	103.889	19.601	13.014	0.493
812.500	484.575	80.009	19.995	103.888	19.605	12.768	0.531
813.000	484.824	80.008	19.994	103.884	19.609	12.490	0.538
813.500	485.086	80.008	19.994	103.884	19.614	12.149	0.519
814.000	485.320	80.008	19.994	103.885	19.616	11.989	0.503
814.500	485.607	80.009	19.994	103.888	19.622	11.572	0.508
815.000	485.833	80.008	19.993	103.893	19.620	11.690	0.517
815.500	486.146	80.008	19.994	103.893	19.628	11.161	0.526
816.000	486.388	80.009	19.993	103.887	19.630	11.020	0.547
816.500	486.630	80.008	19.993	103.882	19.640	10.355	0.519
817.000	486.914	80.009	19.993	103.878	19.643	10.127	0.505
817.500	487.131	80.008	19.993	103.873	19.645	9.967	0.514
818.000	487.371	80.008	19.993	103.869	19.641	10.222	0.480
818.500	487.583	80.008	19.993	103.868	19.650	9.630	0.455
819.000	487.891	80.008	19.994	103.866	19.646	9.876	0.486
819.500	488.116	80.006	19.994	103.865	19.654	9.378	0.526
820.000	488.384	80.007	19.994	103.863	19.654	9.367	0.513
820.500	488.600	80.006	19.994	103.864	19.658	9.080	0.488
821.000	488.882	80.007	19.994	103.863	19.660	8.910	0.491
821.500	489.153	80.008	19.994	103.863	19.661	8.886	0.526
822.000	489.387	80.007	19.994	103.863	19.664	8.670	0.529
822.500	489.649	80.007	19.994	103.864	19.664	8.628	0.501
823.000	489.887	80.008	19.994	103.863	19.669	8.318	0.499
823.500	490.203	80.007	19.994	103.863	19.675	7.923	0.527
824.000	490.437	80.008	19.994	103.863	19.676	7.829	0.551
824.500	490.625	80.007	19.995	103.862	19.674	7.955	0.486
825.000	490.899	80.008	19.994	103.862	19.677	7.750	0.442
825.500	491.170	80.007	19.995	103.862	19.678	7.656	0.504
826.000	491.461	80.008	19.994	103.862	19.683	7.342	0.553
826.500	491.689	80.007	19.994	103.861	19.683	7.335	0.540
827.000	491.954	80.008	19.995	103.860	19.687	7.023	0.506
827.500	492.188	80.006	19.994	103.859	19.685	7.177	0.496
828.000	492.437	80.007	19.994	103.854	19.689	6.886	0.491
828.500	492.666	80.007	19.995	103.851	19.691	6.762	0.481
829.000	492.906	80.008	19.995	103.844	19.690	6.839	0.474
829.500	493.154	80.008	19.995	103.840	19.692	6.734	0.478
830.000	493.499	80.007	19.994	103.835	19.696	6.438	0.541
830.500	493.723	80.007	19.996	103.835	19.698	6.276	0.581
831.000	494.018	80.008	19.994	103.836	19.696	6.434	0.544
831.500	494.292	80.009	19.996	103.843	19.698	6.274	0.544
832.000	494.545	80.008	19.995	103.847	19.698	6.313	0.548
832.500	494.816	80.007	19.995	103.853	19.704	5.908	0.526
833.000	495.020	80.008	19.994	103.853	19.704	5.857	0.500
833.500	495.280	80.009	19.993	103.852	19.707	5.698	0.469
834.000	495.507	80.009	19.994	103.846	19.707	5.668	0.475
834.500	495.778	80.009	19.994	103.840	19.711	5.380	0.492
835.000	496.020	80.009	19.995	103.835	19.709	5.549	0.506
835.500	496.248	80.009	19.993	103.833	19.713	5.251	0.492
836.000	496.541	80.009	19.994	103.830	19.713	5.253	0.496
836.500	496.786	80.009	19.994	103.829	19.714	5.183	0.529
837.000	497.046	80.010	19.993	103.830	19.719	4.800	0.522
837.500	497.245	80.010	19.995	103.830	19.722	4.646	0.482
838.000	497.576	80.010	19.994	103.830	19.726	4.359	0.494
838.500	497.774	80.010	19.994	103.830	19.720	4.733	0.529
839.000	498.029	80.010	19.994	103.832	19.720	4.785	0.491
839.500	498.270	80.009	19.995	103.831	19.718	4.896	0.474
840.000	498.554	80.010	19.993	103.831	19.721	4.704	0.510
840.500	498.802	80.009	19.993	103.835	19.726	4.333	0.529
841.000	499.054	80.010	19.994	103.834	19.724	4.505	0.516
841.500	499.318	80.009	19.992	103.833	19.728	4.207	0.508
842.000	499.553	80.010	19.994	103.832	19.731	4.027	0.507
842.500	499.829	80.010	19.994	103.831	19.728	4.203	0.505
843.000	500.099	80.009	19.993	103.826	19.728	4.192	0.528
843.500	500.312	80.009	19.993	103.826	19.727	4.250	0.515
844.000	500.596	80.010	19.993	103.826	19.733	3.862	0.490
844.500	500.887	80.009	19.993	103.827	19.735	3.738	0.536
845.000	501.093	80.009	19.993	103.827	19.731	3.983	0.536
845.500	501.365	80.009	19.993	103.828	19.733	3.850	0.487
846.000	501.594	80.009	19.994	103.828	19.731	4.002	0.490
846.500	501.887	80.010	19.993	103.828	19.735	3.749	0.512
847.000	502.155	80.010	19.992	103.828	19.732	3.908	0.542
847.500	502.393	80.009	19.994	103.828	19.735	3.719	0.534
848.000	502.635	80.009	19.994	103.827	19.733	3.826	0.493
848.500	502.904	80.009	19.993	103.828	19.736	3.646	0.495
849.000	503.152	80.010	19.993	103.828	19.735	3.739	0.514
849.500	503.422	80.008	19.993	103.828	19.735	3.745	0.518
850.000	503.738	80.011	19.993	103.827	19.735	3.715	0.552
850.500	503.921	80.009	19.993	103.826	19.736	3.651	0.542
851.000	504.217	80.010	19.993	103.825	19.734	3.765	0.489
851.500	504.518	80.009	19.994	103.825	19.740	3.364	0.538
852.000	504.714	80.010	19.993	103.825	19.737	3.600	0.547
852.500	505.029	80.008	19.994	103.825	19.737	3.585	0.504
853.000	505.243	80.010	19.992	103.825	19.737	3.583	0.520
853.500	505.476	80.009	19.993	103.825	19.740	3.397	0.488
854.000	505.708	80.008	19.993	103.824	19.739	3.418	0.457
854.500	505.949	80.009	19.994	103.825	19.738	3.491	0.469
855.000	506.220	80.009	19.992	103.824	19.740	3.391	0.492
855.500	506.450	80.008	19.992	103.824	19.742	3.198	0.507
856.000	506.762	80.009	19.992	103.821	19.743	3.196	0.522
856.500	506.998	80.009	19.993	103.822	19.740	3.344	0.545
857.000	507.274	80.009	19.995	103.820	19.743	3.177	0.530
857.500	507.519	80.009	19.995	103.820	19.742	3.200	0.517
858.000	507.782	80.009	19.995	103.821	19.745	3.016	0.514
858.500	508.012	80.010	19.994	103.822	19.745	3.031	0.500
859.000	508.352	80.011	19.994	103.819	19.744	3.080	0.531
859.500	508.573	80.010	19.995	103.821	19.745	3.029	0.566
860.000	508.800	80.010	19.993	103.820	19.748	2.847	0.504
860.500	509.036	80.011	19.994	103.817	19.745	3.016	0.455
861.000	509.308	80.011	19.994	103.819	19.746	2.973	0.486
861.500	509.558	80.011	19.994	103.817	19.749	2.750	0.515
862.000	509.823	80.011	19.994	103.812	19.750	2.708	0.519
862.500	510.067	80.011	19.994	103.808	19.748	2.828	0.512
863.000	510.298	80.010	19.994	103.806	19.748	2.843	0.492
863.500	510.523	80.011	19.993	103.802	19.746	2.980	0.465
864.000	510.794	80.011	19.993	103.801	19.747	2.905	0.476
864.500	511.035	80.012	19.993	103.803	19.748	2.802	0.504
865.000	511.315	80.011	19.994	103.799	19.748	2.847	0.516
865.500	511.563	80.011	19.994	103.797	19.748	2.822	0.524
866.000	511.796	80.011	19.992	103.797	19.751	2.614	0.504
866.500	512.036	80.011	19.995	103.798	19.754	2.430	0.477
867.000	512.300	80.011	19.993	103.798	19.750	2.648	0.488
867.500	512.544	80.011	19.992	103.798	19.751	2.614	0.506
868.000	512.803	80.011	19.993	103.799	19.752	2.504	0.506
868.500	513.041	80.011	19.994	103.800	19.752	2.554	0.500
869.000	513.312	80.011	19.993	103.797	19.750	2.658	0.503
869.500	513.573	80.012	19.994	103.793	19.752	2.511	0.521
870.000	513.880	80.010	19.994	103.795	19.751	2.584	0.550
870.500	514.128	80.012	19.993	103.794	19.753	2.494	0.562
871.000	514.382	80.011	19.993	103.794	19.753	2.470	0.528
871.500	514.626	80.010	19.993	103.798	19.750	2.657	0.500
872.000	514.916	80.012	19.994	103.800	19.753	2.470	0.516
872.500	515.188	80.009	19.995	103.801	19.754	2.380	0.548
873.000	515.470	80.011	19.993	103.803	19.753	2.485	0.558
873.500	515.673	80.009	19.994	103.801	19.754	2.428	0.519
874.000	515.939	80.009	19.994	103.797	19.751	2.588	0.477
874.500	516.224	80.009	19.994	103.795	19.751	2.616	0.510
875.000	516.469	80.009	19.993	103.791	19.755	2.355	0.541
875.500	516.727	80.010	19.994	103.789	19.753	2.496	0.517
876.000	516.999	80.008	19.995	103.788	19.751	2.616	0.516
876.500	517.220	80.009	19.994	103.789	19.753	2.473	0.511
877.000	517.524	80.009	19.994	103.789	19.755	2.346	0.509
877.500	517.720	80.008	19.993	103.790	19.756	2.293	0.513
878.000	517.990	80.008	19.994	103.793	19.754	2.380	0.483
878.500	518.286	80.010	19.993	103.793	19.753	2.451	0.516
879.000	518.496	80.009	19.994	103.796	19.755	2.350	0.536
879.500	518.773	80.009	19.993	103.796	19.753	2.453	0.497
880.000	519.041	80.009	19.993	103.799	19.754	2.397	0.516
880.500	519.341	80.008	19.993	103.797	19.753	2.453	0.556
881.000	519.556	80.010	19.994	103.797	19.755	2.353	0.542
881.500	519.831	80.008	19.993	103.793	19.752	2.513	0.503
882.000	520.093	80.010	19.993	103.792	19.752	2.503	0.513
882.500	520.340	80.009	19.993	103.788	19.753	2.464	0.523
883.000	520.646	80.009	19.993	103.789	19.754	2.425	0.531
883.500	520.883	80.009	19.994	103.789	19.751	2.624	0.548
884.000	521.139	80.009	19.993	103.791	19.754	2.368	0.518
884.500	521.413	80.009	19.993	103.792	19.757	2.181	0.511
885.000	521.691	80.009	19.993	103.793	19.755	2.306	0.540
885.500	521.896	80.008	19.994	103.792	19.753	2.455	0.517
886.000	522.153	80.009	19.993	103.791	19.754	2.400	0.473
886.500	522.411	80.008	19.994	103.790	19.757	2.215	0.489
887.000	522.687	80.010	19.993	103.789	19.754	2.425	0.524
887.500	522.929	80.010	19.994	103.789	19.756	2.252	0.526
888.000	523.204	80.011	19.994	103.787	19.757	2.207	0.517
888.500	523.460	80.009	19.993	103.787	19.758	2.136	0.524
889.000	523.749	80.011	19.993	103.788	19.755	2.303	0.538
889.500	523.973	80.010	19.993	103.790	19.755	2.327	0.529
890.000	524.242	80.011	19.995	103.791	19.756	2.226	0.503
890.500	524.509	80.010	19.994	103.791	19.756	2.239	0.514
891.000	524.744	80.010	19.993	103.791	19.753	2.442	0.519
891.500	525.020	80.009	19.994	103.790	19.754	2.372	0.507
892.000	525.276	80.010	19.994	103.789	19.757	2.194	0.522
892.500	525.551	80.010	19.993	103.788	19.755	2.297	0.531
893.000	525.805	80.009	19.993	103.788	19.753	2.464	0.530
893.500	526.063	80.010	19.994	103.788	19.753	2.496	0.520
894.000	526.328	80.010	19.994	103.788	19.755	2.355	0.517
894.500	526.576	80.009	19.994	103.788	19.756	2.258	0.518
895.000	526.834	80.009	19.994	103.787	19.757	2.173	0.510
895.500	527.084	80.008	19.994	103.788	19.756	2.276	0.507
896.000	527.326	80.009	19.994	103.788	19.756	2.282	0.500
896.500	527.582	80.008	19.994	103.790	19.756	2.250	0.495
897.000	527.861	80.009	19.994	103.792	19.754	2.419	0.517
897.500	528.121	80.009	19.994	103.794	19.754	2.387	0.537
898.000	528.367	80.008	19.994	103.795	19.756	2.273	0.522
898.500	528.609	80.008	19.994	103.794	19.755	2.335	0.497
899.000	528.858	80.008	19.995	103.793	19.756	2.252	0.489
899.500	529.162	80.010	19.995	103.791	19.757	2.175	0.522
900.000	529.395	80.008	19.994	103.789	19.756	2.282	0.545
900.500	529.649	80.009	19.995	103.789	19.755	2.308	0.512
901.000	529.901	80.009	19.994	103.790	19.752	2.543	0.496
901.500	530.201	80.009	19.995	103.791	19.755	2.336	0.529
902.000	530.417	80.009	19.994	103.792	19.756	2.280	0.534
902.500	530.699	80.008	19.995	103.794	19.751	2.618	0.507
903.000	530.954	80.008	19.995	103.795	19.756	2.252	0.518
903.500	531.222	80.008	19.995	103.795	19.753	2.447	0.530
904.000	531.452	80.008	19.994	103.795	19.757	2.175	0.510
904.500	531.709	80.008	19.994	103.794	19.751	2.590	0.492
905.000	531.939	80.009	19.994	103.791	19.754	2.376	0.487
905.500	532.188	80.008	19.994	103.790	19.755	2.325	0.484
906.000	532.482	80.008	19.994	103.789	19.754	2.432	0.511
906.500	532.688	80.008	19.994	103.789	19.753	2.436	0.522
907.000	532.937	80.007	19.994	103.789	19.755	2.297	0.477
907.500	533.248	80.008	19.994	103.789	19.753	2.464	0.507
908.000	533.472	80.007	19.993	103.791	19.757	2.201	0.548
908.500	533.742	80.008	19.994	103.792	19.757	2.214	0.515
909.000	534.009	80.009	19.994	103.792	19.754	2.365	0.515
909.500	534.277	80.007	19.994	103.794	19.755	2.306	0.536
910.000	534.504	80.009	19.994	103.794	19.757	2.205	0.515
910.500	534.772	80.008	19.994	103.793	19.756	2.261	0.495
911.000	535.015	80.009	19.994	103.792	19.757	2.214	0.503
911.500	535.294	80.007	19.994	103.792	19.756	2.286	0.516
912.000	535.544	80.009	19.995	103.791	19.758	2.139	0.526
912.500	535.811	80.009	19.995	103.791	19.757	2.190	0.523
913.000	536.082	80.007	19.993	103.791	19.757	2.197	0.527
913.500	536.322	80.008	19.994	103.792	19.758	2.149	0.525
914.000	536.571	80.009	19.993	103.792	19.755	2.295	0.500
914.500	536.825	80.008	19.993	103.791	19.753	2.468	0.496
915.000	537.061	80.008	19.993	103.791	19.755	2.355	0.496
915.500	537.343	80.007	19.994	103.791	19.756	2.276	0.504
916.001	537.573	80.008	19.993	103.790	19.754	2.396	0.515
916.500	537.830	80.006	19.992	103.789	19.758	2.098	0.500
917.000	538.119	80.009	19.995	103.790	19.755	2.301	0.516
917.500	538.387	80.009	19.995	103.793	19.754	2.425	0.551
918.000	538.617	80.008	19.994	103.793	19.754	2.426	0.527
918.500	538.893	80.009	19.995	103.793	19.752	2.541	0.502
919.000	539.130	80.008	19.995	103.793	19.754	2.398	0.510
919.500	539.388	80.008	19.994	103.792	19.754	2.430	0.504
920.000	539.661	80.008	19.994	103.790	19.756	2.288	0.513
920.500	539.898	80.009	19.995	103.790	19.752	2.545	0.521
921.000	540.163	80.009	19.994	103.789	19.754	2.432	0.506
921.500	540.426	80.008	19.994	103.790	19.752	2.528	0.515
922.000	540.670	80.009	19.995	103.790	19.755	2.331	0.518
922.500	540.930	80.009	19.994	103.787	19.753	2.464	0.505
923.000	541.220	80.009	19.995	103.787	19.751	2.595	0.527
923.500	541.485	80.008	19.995	103.787	19.757	2.197	0.553
924.000	541.700	80.009	19.995	103.784	19.754	2.395	0.517
924.500	541.960	80.008	19.995	103.784	19.753	2.464	0.478
925.000	542.220	80.008	19.994	103.784	19.755	2.299	0.497
925.500	542.483	80.010	19.994	103.784	19.751	2.599	0.521
926.000	542.728	80.008	19.994	103.784	19.749	2.715	0.516
926.500	542.989	80.010	19.995	103.786	19.752	2.552	0.507
927.000	543.228	80.009	19.995	103.787	19.757	2.222	0.503
927.500	543.508	80.010	19.995	103.787	19.754	2.402	0.510
928.000	543.743	80.009	19.995	103.787	19.753	2.464	0.517
928.500	543.969	80.009	19.994	103.787	19.753	2.481	0.487
929.000	544.276	80.008	19.995	103.786	19.753	2.481	0.497
929.500	544.505	80.009	19.994	103.785	19.751	2.640	0.535
930.000	544.792	80.009	19.994	103.786	19.754	2.419	0.526
930.500	545.045	80.007	19.995	103.786	19.753	2.488	0.528
931.000	545.241	80.009	19.994	103.786	19.754	2.423	0.495
931.500	545.515	80.008	19.994	103.786	19.753	2.436	0.460
932.000	545.766	80.010	19.994	103.786	19.754	2.413	0.497
932.500	546.010	80.008	19.995	103.785	19.756	2.259	0.510
933.000	546.277	80.010	19.994	103.784	19.752	2.509	0.503
933.500	546.522	80.009	19.994	103.785	19.752	2.533	0.512
934.000	546.800	80.009	19.994	103.785	19.750	2.667	0.518
934.500	547.042	80.009	19.995	103.785	19.751	2.601	0.522
935.000	547.305	80.009	19.993	103.786	19.749	2.759	0.512
935.500	547.574	80.010	19.994	103.786	19.750	2.668	0.518
936.000	547.812	80.010	19.994	103.786	19.749	2.721	0.519
936.500	548.126	80.010	19.994	103.786	19.751	2.605	0.529
937.000	548.339	80.010	19.993	103.786	19.753	2.455	0.539
937.500	548.597	80.009	19.993	103.785	19.751	2.573	0.499
938.000	548.859	80.010	19.993	103.786	19.754	2.425	0.496
938.500	549.090	80.009	19.992	103.786	19.752	2.503	0.507
939.000	549.348	80.010	19.993	103.786	19.752	2.533	0.491
939.500	549.619	80.010	19.994	103.786	19.754	2.366	0.509
940.000	549.868	80.011	19.993	103.786	19.756	2.259	0.524
940.500	550.134	80.011	19.994	103.785	19.750	2.668	0.517
941.000	550.399	80.010	19.992	103.785	19.750	2.655	0.523
941.500	550.651	80.011	19.994	103.785	19.751	2.592	0.524
942.000	550.892	80.010	19.994	103.786	19.751	2.590	0.505
942.500	551.145	80.011	19.993	103.785	19.751	2.592	0.493
943.000	551.436	80.011	19.992	103.785	19.753	2.434	0.519
943.500	551.653	80.011	19.993	103.785	19.752	2.563	0.526
944.000	551.912	80.011	19.993	103.785	19.755	2.334	0.492
944.500	552.169	80.011	19.993	103.785	19.754	2.406	0.496
945.000	552.402	80.012	19.992	103.785	19.751	2.584	0.503
945.500	552.649	80.011	19.993	103.785	19.750	2.663	0.485
946.000	552.937	80.012	19.993	103.785	19.753	2.479	0.508
946.500	553.171	80.011	19.993	103.785	19.753	2.456	0.529
947.000	553.418	80.012	19.992	103.785	19.752	2.515	0.501
947.500	553.667	80.011	19.992	103.785	19.751	2.637	0.488
948.000	553.920	80.011	19.992	103.785	19.750	2.689	0.499
948.500	554.220	80.012	19.993	103.785	19.753	2.483	0.527
949.000	554.466	80.011	19.993	103.784	19.749	2.738	0.550
949.500	554.712	80.010	19.994	103.785	19.751	2.601	0.519
950.000	554.965	80.010	19.993	103.786	19.752	2.520	0.495
950.500	555.214	80.012	19.993	103.785	19.750	2.697	0.500
951.000	555.466	80.012	19.994	103.786	19.751	2.629	0.501
951.500	555.750	80.012	19.993	103.785	19.753	2.447	0.518
952.000	556.042	80.011	19.993	103.784	19.750	2.661	0.556
952.500	556.239	80.011	19.992	103.784	19.751	2.578	0.533
953.000	556.498	80.010	19.993	103.784	19.751	2.622	0.473
953.500	556.773	80.010	19.993	103.785	19.752	2.563	0.495
954.000	557.035	80.010	19.993	103.785	19.749	2.761	0.535
954.500	557.263	80.009	19.993	103.785	19.753	2.490	0.513
955.000	557.524	80.009	19.995	103.785	19.750	2.695	0.489
955.500	557.772	80.009	19.994	103.784	19.750	2.687	0.499
956.000	558.029	80.009	19.992	103.784	19.753	2.479	0.507
956.500	558.255	80.010	19.993	103.784	19.749	2.757	0.494
957.000	558.545	80.009	19.993	103.785	19.751	2.618	0.500
957.500	558.802	80.010	19.994	103.785	19.750	2.646	0.532
958.000	559.053	80.009	19.994	103.786	19.749	2.747	0.527
958.500	559.282	80.008	19.994	103.786	19.752	2.569	0.494
959.000	559.556	80.009	19.994	103.787	19.751	2.605	0.492
959.500	559.781	80.008	19.993	103.786	19.751	2.575	0.501
960.000	560.040	80.009	19.994	103.787	19.754	2.376	0.491
960.500	560.304	80.009	19.994	103.786	19.750	2.706	0.504
961.000	560.601	80.008	19.993	103.787	19.753	2.458	0.543
961.500	560.803	80.008	19.994	103.788	19.754	2.423	0.530
962.000	561.081	80.009	19.994	103.788	19.751	2.631	0.489
962.500	561.317	80.008	19.993	103.788	19.749	2.776	0.497
963.000	561.571	80.008	19.994	103.788	19.750	2.686	0.502
963.500	561.823	80.008	19.994	103.789	19.750	2.699	0.498
964.000	562.148	80.009	19.994	103.788	19.750	2.682	0.541
964.500	562.372	80.009	19.995	103.788	19.747	2.894	0.563
965.000	562.580	80.008	19.993	103.788	19.747	2.873	0.490
965.500	562.849	80.008	19.993	103.788	19.746	2.969	0.454
966.000	563.079	80.009	19.993	103.788	19.749	2.716	0.488
966.500	563.369	80.009	19.993	103.788	19.749	2.766	0.509
967.000	563.644	80.009	19.993	103.788	19.750	2.663	0.543
967.500	563.849	80.008	19.993	103.788	19.746	2.935	0.522
968.000	564.111	80.009	19.993	103.787	19.747	2.903	0.473
968.500	564.383	80.008	19.993	103.788	19.747	2.907	0.501
969.000	564.627	80.009	19.993	103.788	19.750	2.676	0.526
969.500	564.857	80.008	19.993	103.788	19.748	2.792	0.495
970.000	565.138	80.009	19.992	103.788	19.748	2.806	0.492
970.500	565.364	80.009	19.993	103.789	19.749	2.749	0.509
971.000	565.620	80.009	19.994	103.790	19.747	2.868	0.495
971.500	565.925	80.009	19.994	103.790	19.747	2.875	0.522
972.000	566.171	80.010	19.993	103.790	19.748	2.849	0.555
972.500	566.420	80.009	19.993	103.792	19.750	2.678	0.523
973.000	566.641	80.011	19.993	103.794	19.748	2.830	0.483
973.500	566.941	80.009	19.992	103.793	19.750	2.678	0.495
974.000	567.188	80.009	19.993	103.794	19.747	2.879	0.534
974.500	567.442	80.009	19.993	103.794	19.747	2.871	0.524
975.000	567.680	80.010	19.992	103.792	19.750	2.646	0.496
975.500	567.926	80.010	19.994	103.790	19.750	2.706	0.488
976.000	568.172	80.008	19.993	103.789	19.749	2.716	0.488
976.500	568.422	80.008	19.994	103.789	19.746	2.973	0.494
977.000	568.709	80.010	19.995	103.791	19.750	2.691	0.516
977.500	568.948	80.008	19.994	103.795	19.749	2.738	0.532
978.000	569.181	80.008	19.994	103.795	19.745	2.995	0.499
978.500	569.440	80.008	19.994	103.795	19.750	2.655	0.481
979.000	569.709	80.009	19.994	103.794	19.746	2.976	0.510
979.500	569.939	80.010	19.994	103.792	19.751	2.595	0.514
980.000	570.178	80.007	19.994	103.789	19.750	2.665	0.484
980.500	570.443	80.009	19.994	103.789	19.753	2.485	0.486
981.000	570.676	80.009	19.993	103.789	19.752	2.552	0.501
981.500	570.988	80.007	19.993	103.790	19.750	2.708	0.521
982.000	571.186	80.008	19.993	103.790	19.749	2.768	0.527
982.500	571.467	80.008	19.992	103.790	19.749	2.755	0.494
983.000	571.681	80.009	19.993	103.790	19.750	2.674	0.487
983.500	571.989	80.008	19.993	103.790	19.751	2.631	0.508
984.000	572.205	80.008	19.993	103.789	19.750	2.685	0.523
984.500	572.418	80.009	19.994	103.790	19.747	2.907	0.477
985.000	572.713	80.009	19.994	103.790	19.747	2.914	0.469
985.500	572.981	80.007	19.993	103.790	19.745	3.038	0.535
986.000	573.196	80.008	19.993	103.790	19.747	2.907	0.523
986.500	573.471	80.008	19.994	103.790	19.746	2.920	0.487
987.000	573.772	80.009	19.993	103.790	19.746	2.974	0.533
987.500	573.982	80.008	19.993	103.790	19.751	2.599	0.544
988.000	574.249	80.008	19.994	103.789	19.751	2.635	0.494
988.500	574.546	80.008	19.994	103.789	19.746	2.950	0.521
989.000	574.810	80.008	19.993	103.789	19.747	2.914	0.562
989.500	575.055	80.007	19.994	103.790	19.746	2.956	0.534
990.000	575.345	80.009	19.994	103.789	19.749	2.745	0.522
990.500	575.595	80.009	19.995	103.789	19.747	2.894	0.538
991.000	575.836	80.009	19.994	103.788	19.746	2.922	0.516
991.500	576.118	80.008	19.994	103.788	19.747	2.873	0.507
992.000	576.346	80.009	19.994	103.787	19.745	3.017	0.516
992.500	576.611	80.009	19.994	103.786	19.749	2.740	0.502
993.000	576.855	80.010	19.994	103.786	19.748	2.817	0.501
993.500	577.126	80.009	19.995	103.785	19.747	2.890	0.512
994.000	577.328	80.008	19.994	103.785	19.747	2.882	0.494
994.500	577.655	80.008	19.994	103.784	19.746	2.926	0.500
995.000	577.906	80.009	19.994	103.784	19.748	2.834	0.553
995.500	578.154	80.009	19.994	103.784	19.747	2.882	0.538
996.000	578.384	80.009	19.993	103.784	19.747	2.867	0.488
996.500	578.649	80.007	19.994	103.785	19.746	2.948	0.487
997.000	578.922	80.009	19.993	103.785	19.744	3.115	0.517
997.500	579.134	80.009	19.994	103.785	19.747	2.854	0.512
998.000	579.406	80.009	19.994	103.785	19.748	2.847	0.484
998.500	579.646	80.011	19.994	103.785	19.747	2.867	0.498
999.000	579.925	80.009	19.994	103.785	19.746	2.941	0.515
999.500	580.188	80.010	19.995	103.785	19.744	3.115	0.531
1000.000	580.407	80.010	19.994	103.786	19.745	3.049	0.512
1000.500	580.721	80.010	19.994	103.786	19.747	2.882	0.507
1001.000	580.937	80.009	19.993	103.786	19.749	2.749	0.531
1001.500	581.235	80.010	19.993	103.786	19.746	2.976	0.522
1002.000	581.474	80.010	19.993	103.786	19.747	2.905	0.526
1002.500	581.735	80.011	19.994	103.785	19.747	2.877	0.518
1003.000	581.973	80.010	19.992	103.784	19.746	2.931	0.500
1003.500	582.214	80.010	19.993	103.783	19.747	2.909	0.489
1004.000	582.447	80.010	19.993	103.783	19.747	2.869	0.477
1004.500	582.757	80.010	19.994	103.783	19.746	2.969	0.509
1005.000	582.942	80.010	19.994	103.783	19.746	2.946	0.519
1005.500	583.251	80.012	19.992	103.784	19.744	3.121	0.495
1006.000	583.522	80.011	19.995	103.785	19.743	3.179	0.536
1006.500	583.765	80.011	19.993	103.785	19.743	3.162	0.546
1007.000	584.002	80.011	19.993	103.785	19.742	3.211	0.497
1007.500	584.292	80.011	19.994	103.786	19.746	2.948	0.504
1008.000	584.516	80.010	19.993	103.786	19.746	2.971	0.520
1008.500	584.743	80.011	19.995	103.785	19.745	3.006	0.483
1009.000	585.041	80.010	19.994	103.786	19.746	2.978	0.489
1009.500	585.297	80.011	19.994	103.786	19.745	3.034	0.540
1010.000	585.516	80.010	19.993	103.786	19.745	2.993	0.514
1010.500	585.792	80.009	19.995	103.786	19.740	3.382	0.484
1011.000	585.980	80.009	19.995	103.786	19.745	3.029	0.479
1011.500	586.306	80.010	19.994	103.785	19.741	3.327	0.489
1012.000	586.576	80.010	19.995	103.785	19.743	3.130	0.555
1012.500	586.789	80.010	19.994	103.784	19.740	3.342	0.540
1013.000	587.064	80.010	19.995	103.784	19.741	3.310	0.485
1013.500	587.306	80.010	19.994	103.785	19.741	3.312	0.503
1014.000	587.568	80.009	19.994	103.785	19.739	3.412	0.511
1014.500	587.794	80.010	19.994	103.785	19.740	3.387	0.495
1015.000	588.116	80.008	19.994	103.786	19.744	3.117	0.518
1015.500	588.347	80.009	19.995	103.785	19.753	2.481	0.551
1016.000	588.554	80.008	19.995	103.784	19.753	2.488	0.496
1016.500	588.848	80.009	19.994	103.784	19.752	2.533	0.469
1017.000	589.208	80.010	19.994	103.783	19.755	2.357	0.577
1017.500	589.311	80.009	19.995	103.783	19.755	2.304	0.558
1018.000	589.650	80.009	19.994	103.783	19.750	2.670	0.453
1018.500	589.899	80.010	19.995	103.784	19.733	3.824	0.515
1019.000	590.184	80.010	19.994	103.783	19.746	2.922	0.561
1019.500	590.398	80.009	19.994	103.783	19.743	3.181	0.517
1020.000	590.588	80.010	19.995	103.783	19.739	3.472	0.452
1020.500	590.870	80.010	19.994	103.783	19.739	3.436	0.438
1021.000	591.100	80.009	19.995	103.783	19.744	3.111	0.492
1021.500	591.362	80.009	19.994	103.785	19.744	3.089	0.502
1022.000	591.684	80.008	19.995	103.786	19.740	3.361	0.538
1022.500	591.917	80.010	19.994	103.787	19.743	3.145	0.569
1023.000	592.142	80.010	19.995	103.789	19.742	3.200	0.506
1023.500	592.461	80.011	19.994	103.790	19.743	3.145	0.501
1024.000	592.780	80.011	19.994	103.790	19.743	3.162	0.591
1024.500	592.897	80.011	19.994	103.790	19.742	3.202	0.537
1025.000	593.175	80.010	19.993	103.789	19.743	3.141	0.416
1025.500	593.575	80.010	19.994	103.787	19.742	3.262	0.536
1026.000	593.845	80.011	19.994	103.786	19.742	3.245	0.674
1026.500	593.956	80.010	19.993	103.785	19.743	3.172	0.526
1027.000	594.385	80.011	19.993	103.785	19.742	3.237	0.461
1027.500	594.458	80.011	19.993	103.785	19.744	3.091	0.521
1028.000	594.914	80.010	19.994	103.785	19.742	3.254	0.515
1028.500	594.723	80.011	19.995	103.785	19.738	3.541	0.396
1029.000	595.703	80.011	19.994	103.785	19.740	3.342	0.527
1029.500	595.716	80.010	19.994	103.785	19.743	3.155	0.892
1030.000	595.969	80.010	19.993	103.786	19.741	3.292	0.630
1030.500	596.404	80.013	19.992	103.787	19.741	3.269	0.476
1031.000	596.665	80.011	19.991	103.788	19.738	3.479	0.692
1031.500	596.924	80.011	19.992	103.788	19.738	3.509	0.608
1032.000	597.485	80.011	19.992	103.789	19.742	3.265	0.670
1032.500	596.712	80.010	19.993	103.788	19.743	3.156	0.305
1033.000	597.668	80.011	19.993	103.788	19.742	3.243	-0.014
1033.500	597.579	80.011	19.993	103.788	19.739	3.434	0.525
1034.000	597.700	80.010	19.992	103.788	19.740	3.352	0.450
1034.500	598.067	80.010	19.993	103.787	19.739	3.419	0.260
1035.000	598.455	80.009	19.993	103.789	19.743	3.132	0.621
1035.500	598.814	80.010	19.994	103.789	19.738	3.502	0.751
1036.000	598.838	80.008	19.992	103.789	19.741	3.280	0.565
1036.500	599.185	80.009	19.992	103.789	19.742	3.224	0.377
1037.000	599.589	80.010	19.995	103.791	19.742	3.237	0.561
1037.500	599.691	80.008	19.994	103.794	19.741	3.271	0.629
1038.000	599.990	80.008	19.993	103.796	19.742	3.250	0.454
1038.500	600.196	80.008	19.993	103.797	19.740	3.391	0.453
1039.000	600.481	80.008	19.993	103.797	19.742	3.222	0.498
1039.501	600.804	80.008	19.993	103.795	19.741	3.286	0.550
1040.001	600.956	80.009	19.993	103.793	19.741	3.301	0.541
1040.500	601.347	80.008	19.992	103.791	19.739	3.446	0.509
1041.000	601.507	80.008	19.993	103.791	19.741	3.325	0.547
1041.500	601.757	80.007	19.994	103.790	19.743	3.192	0.481
1042.000	602.063	80.008	19.993	103.790	19.740	3.350	0.483
1042.500	602.293	80.009	19.993	103.788	19.740	3.404	0.546
1043.001	602.487	80.008	19.993	103.788	19.741	3.280	0.480
1043.501	602.871	80.009	19.992	103.788	19.742	3.252	0.501
1044.000	603.060	80.009	19.994	103.788	19.741	3.301	0.575
1044.500	603.334	80.009	19.993	103.789	19.741	3.293	0.518
1045.000	603.611	80.008	19.992	103.790	19.740	3.365	0.507
1045.500	603.876	80.008	19.994	103.790	19.743	3.183	0.546
1046.000	604.104	80.009	19.993	103.790	19.742	3.239	0.518
1046.500	604.397	80.007	19.994	103.790	19.743	3.181	0.507
1047.000	604.649	80.009	19.994	103.789	19.744	3.102	0.533
1047.500	604.921	80.007	19.993	103.788	19.742	3.207	0.535
1048.000	605.132	80.007	19.993	103.788	19.742	3.239	0.504
1048.500	605.425	80.008	19.993	103.789	19.742	3.246	0.493
1049.000	605.728	80.008	19.994	103.790	19.741	3.316	0.550
1049.500	605.954	80.008	19.993	103.791	19.741	3.322	0.563
1050.000	606.248	80.009	19.993	103.791	19.741	3.310	0.524
1050.500	606.469	80.009	19.993	103.792	19.741	3.303	0.517
1051.000	606.695	80.009	19.993	103.792	19.741	3.295	0.481
1051.500	607.008	80.008	19.993	103.790	19.738	3.541	0.493
1052.000	607.234	80.009	19.993	103.790	19.739	3.468	0.539
1052.500	607.479	80.007	19.993	103.789	19.737	3.567	0.505
1053.000	607.767	80.008	19.994	103.789	19.739	3.455	0.502
1053.500	608.062	80.008	19.994	103.789	19.740	3.357	0.558
1054.001	608.296	80.009	19.994	103.786	19.741	3.310	0.556
1054.501	608.481	80.009	19.992	103.785	19.737	3.571	0.474
1055.000	608.832	80.009	19.993	103.786	19.737	3.549	0.478
1055.500	609.030	80.009	19.993	103.785	19.736	3.614	0.543
1056.000	609.327	80.009	19.994	103.784	19.736	3.618	0.522
1056.500	609.564	80.009	19.993	103.786	19.735	3.742	0.515
1057.000	609.866	80.008	19.993	103.785	19.736	3.624	0.537
1057.500	610.125	80.009	19.993	103.784	19.737	3.592	0.550
1058.000	610.374	80.009	19.993	103.784	19.738	3.500	0.534
1058.500	610.606	80.009	19.993	103.784	19.737	3.577	0.494
1059.001	610.853	80.010	19.992	103.783	19.740	3.382	0.480
1059.501	611.173	80.009	19.994	103.785	19.740	3.391	0.523
1060.000	611.405	80.009	19.994	103.785	19.740	3.387	0.560
1060.500	611.672	80.009	19.993	103.786	19.741	3.310	0.525
1061.000	611.931	80.009	19.993	103.786	19.741	3.316	0.512
1061.500	612.212	80.009	19.993	103.786	19.739	3.459	0.533
1062.000	612.462	80.009	19.994	103.786	19.741	3.269	0.536
1062.500	612.712	80.010	19.992	103.786	19.740	3.344	0.515
1063.000	612.887	80.009	19.992	103.787	19.738	3.485	0.462
1063.500	613.245	80.009	19.993	103.787	19.740	3.368	0.479
1064.000	613.433	80.010	19.994	103.787	19.739	3.436	0.540
1064.500	613.716	80.009	19.993	103.787	19.739	3.453	0.509
1065.000	613.991	80.009	19.992	103.787	19.737	3.545	0.515
1065.500	614.203	80.008	19.994	103.786	19.738	3.498	0.522
1066.000	614.505	80.008	19.994	103.786	19.738	3.534	0.500
1066.500	614.744	80.008	19.993	103.786	19.738	3.483	0.527
1067.000	615.058	80.011	19.992	103.786	19.740	3.380	0.547
1067.500	615.311	80.010	19.993	103.786	19.738	3.498	0.560
1068.000	615.531	80.009	19.993	103.786	19.736	3.667	0.520
1068.500	615.823	80.009	19.993	103.786	19.737	3.601	0.492
1069.000	616.102	80.008	19.992	103.787	19.736	3.616	0.541
1069.501	616.294	80.009	19.992	103.787	19.739	3.453	0.521
1070.001	616.553	80.008	19.993	103.787	19.738	3.507	0.461
1070.500	616.837	80.008	19.994	103.787	19.739	3.430	0.497
1071.000	617.087	80.008	19.994	103.787	19.740	3.378	0.538
1071.500	617.331	80.008	19.993	103.786	19.737	3.607	0.514
1072.000	617.611	80.008	19.992	103.786	19.741	3.331	0.509
1072.500	617.867	80.008	19.993	103.786	19.741	3.310	0.530
1073.000	618.127	80.009	19.993	103.786	19.739	3.419	0.526
1073.500	618.365	80.008	19.993	103.786	19.740	3.361	0.507
1074.000	618.643	80.008	19.993	103.786	19.741	3.333	0.507
1074.500	618.943	80.008	19.993	103.786	19.743	3.192	0.547
1075.000	619.183	80.008	19.994	103.786	19.741	3.312	0.559
1075.500	619.431	80.008	19.994	103.788	19.742	3.222	0.514
1076.000	619.761	80.009	19.994	103.788	19.740	3.400	0.533
1076.500	619.989	80.008	19.993	103.788	19.742	3.211	0.568
1077.000	620.208	80.007	19.993	103.788	19.741	3.335	0.503
1077.500	620.524	80.008	19.994	103.788	19.741	3.318	0.491
1078.000	620.773	80.008	19.994	103.787	19.739	3.473	0.550
1078.500	621.024	80.009	19.994	103.787	19.742	3.228	0.532
1079.000	621.303	80.009	19.993	103.786	19.740	3.376	0.515
1079.500	621.550	80.010	19.994	103.786	19.740	3.380	0.528
1080.000	621.797	80.009	19.993	103.785	19.740	3.385	0.509
1080.500	622.037	80.007	19.994	103.785	19.741	3.297	0.490
1081.000	622.351	80.008	19.993	103.784	19.740	3.395	0.521
1081.500	622.578	80.009	19.994	103.784	19.740	3.382	0.547
1082.000	622.824	80.010	19.994	103.784	19.739	3.453	0.507
1082.500	623.100	80.010	19.994	103.784	19.739	3.436	0.498
1083.000	623.354	80.008	19.993	103.784	19.738	3.515	0.526
1083.500	623.600	80.010	19.994	103.785	19.740	3.368	0.515
1084.000	623.927	80.010	19.993	103.785	19.741	3.320	0.537
1084.500	624.114	80.009	19.994	103.785	19.738	3.522	0.543
1085.000	624.418	80.010	19.995	103.784	19.738	3.483	0.502
1085.500	624.669	80.010	19.994	103.784	19.743	3.194	0.523
1086.000	624.921	80.009	19.993	103.782	19.740	3.400	0.529
1086.500	625.207	80.009	19.993	103.782	19.739	3.425	0.521
1087.000	625.453	80.010	19.993	103.780	19.742	3.218	0.535
1087.500	625.730	80.010	19.994	103.780	19.738	3.498	0.528
1088.000	625.993	80.010	19.993	103.781	19.740	3.370	0.531
1088.500	626.256	80.009	19.994	103.782	19.739	3.474	0.532
1089.000	626.518	80.010	19.994	103.782	19.742	3.232	0.525
1089.500	626.806	80.010	19.993	103.784	19.741	3.331	0.538
1090.000	627.013	80.009	19.993	103.785	19.741	3.327	0.523
1090.500	627.290	80.009	19.993	103.785	19.740	3.378	0.489
1091.001	627.548	80.009	19.993	103.786	19.740	3.368	0.509
1091.501	627.808	80.009	19.993	103.786	19.741	3.325	0.527
1092.000	628.073	80.010	19.994	103.787	19.742	3.256	0.522
1092.500	628.301	80.009	19.994	103.787	19.742	3.205	0.509
1093.000	628.610	80.009	19.994	103.787	19.742	3.200	0.515
1093.500	628.866	80.008	19.994	103.787	19.744	3.061	0.551
1094.000	629.135	80.009	19.994	103.787	19.743	3.164	0.545
1094.500	629.380	80.009	19.993	103.787	19.741	3.322	0.519
1095.000	629.637	80.010	19.994	103.787	19.740	3.354	0.507
1095.500	629.900	80.008	19.993	103.788	19.741	3.327	0.510
1096.000	630.146	80.009	19.993	103.787	19.746	2.920	0.515
1096.500	630.387	80.008	19.994	103.788	19.742	3.216	0.499
1097.000	630.667	80.008	19.996	103.788	19.744	3.109	0.504
1097.500	630.971	80.008	19.996	103.787	19.744	3.096	0.552
1098.000	631.179	80.008	19.995	103.787	19.744	3.083	0.548
1098.500	631.460	80.009	19.994	103.788	19.742	3.254	0.500
1099.000	631.727	80.008	19.994	103.788	19.741	3.267	0.519
1099.500	631.991	80.009	19.994	103.788	19.743	3.168	0.540
1100.000	632.257	80.007	19.993	103.787	19.743	3.143	0.530
1100.500	632.492	80.008	19.994	103.783	19.744	3.096	0.515
1101.000	632.754	80.008	19.994	103.781	19.747	2.916	0.499
1101.500	633.020	80.007	19.994	103.782	19.744	3.078	0.513
1102.000	633.266	80.010	19.994	103.782	19.743	3.162	0.520
1102.500	633.565	80.009	19.993	103.782	19.746	2.926	0.529
1103.000	633.804	80.009	19.994	103.787	19.742	3.222	0.542
1103.500	634.079	80.008	19.994	103.788	19.743	3.179	0.526
1104.000	634.312	80.010	19.994	103.788	19.743	3.158	0.511
1104.500	634.613	80.010	19.994	103.788	19.742	3.237	0.521
1105.000	634.908	80.010	19.994	103.788	19.744	3.109	0.565
1105.500	635.138	80.010	19.994	103.788	19.742	3.200	0.561
1106.000	635.399	80.010	19.994	103.788	19.742	3.261	0.508
1106.500	635.656	80.011	19.993	103.786	19.743	3.188	0.504
1107.000	635.962	80.011	19.993	103.786	19.739	3.447	0.540
1107.500	636.175	80.011	19.993	103.785	19.746	2.972	0.541
1108.000	636.453	80.010	19.993	103.786	19.741	3.281	0.505
1108.500	636.709	80.010	19.993	103.786	19.742	3.214	0.513
1109.000	636.947	80.010	19.994	103.787	19.743	3.171	0.514
1109.500	637.160	80.010	19.993	103.786	19.743	3.188	0.473
1110.000	637.484	80.010	19.995	103.785	19.742	3.205	0.494
1110.500	637.739	80.010	19.995	103.785	19.742	3.211	0.558
1111.000	637.983	80.009	19.995	103.785	19.743	3.162	0.539
1111.500	638.222	80.009	19.994	103.785	19.741	3.333	0.491
1112.001	638.494	80.010	19.995	103.786	19.741	3.329	0.497
1112.501	638.757	80.011	19.993	103.787	19.745	2.993	0.523
1113.000	639.019	80.009	19.994	103.786	19.741	3.284	0.530
1113.500	639.291	80.009	19.994	103.786	19.744	3.096	0.530
1114.000	639.525	80.009	19.993	103.786	19.742	3.252	0.520
1114.500	639.807	80.010	19.995	103.785	19.741	3.284	0.511
1115.000	640.030	80.008	19.993	103.785	19.741	3.301	0.510
1115.500	640.337	80.008	19.994	103.784	19.742	3.261	0.517
1116.000	640.563	80.009	19.994	103.784	19.743	3.186	0.531
1116.500	640.813	80.008	19.994	103.784	19.741	3.276	0.504
1117.000	641.085	80.009	19.993	103.783	19.742	3.203	0.499
1117.500	641.320	80.007	19.994	103.780	19.743	3.154	0.515
1118.000	641.577	80.008	19.995	103.778	19.741	3.289	0.499
1118.500	641.799	80.008	19.994	103.772	19.744	3.079	0.486
1119.001	642.065	80.007	19.994	103.765	19.745	3.010	0.484
1119.501	642.347	80.008	19.995	103.764	19.741	3.276	0.518
1120.000	642.596	80.008	19.994	103.765	19.744	3.064	0.539
1120.500	642.831	80.008	19.994	103.765	19.744	3.083	0.507
1121.000	643.108	80.008	19.993	103.770	19.748	2.845	0.498
1121.500	643.371	80.009	19.993	103.777	19.743	3.192	0.526
1122.000	643.609	80.008	19.995	103.778	19.739	3.451	0.520
1122.500	643.862	80.007	19.993	103.779	19.742	3.244	0.496
1123.000	644.125	80.009	19.994	103.783	19.743	3.184	0.504
1123.500	644.385	80.009	19.994	103.783	19.742	3.261	0.519
1124.000	644.626	80.009	19.993	103.782	19.742	3.201	0.512
1124.500	644.885	80.008	19.994	103.782	19.744	3.081	0.501
1125.000	645.103	80.010	19.993	103.781	19.742	3.205	0.488
1125.500	645.358	80.009	19.993	103.777	19.743	3.151	0.475
1126.000	645.597	80.008	19.994	103.776	19.745	3.055	0.484
1126.501	645.884	80.009	19.992	103.775	19.746	2.961	0.510
1127.001	646.129	80.009	19.993	103.774	19.742	3.220	0.529
1127.500	646.378	80.009	19.993	103.776	19.743	3.132	0.513
1128.000	646.626	80.009	19.993	103.780	19.746	2.925	0.496
1128.500	646.920	80.009	19.992	103.780	19.742	3.229	0.520
1129.000	647.127	80.009	19.993	103.781	19.742	3.220	0.522
1129.500	647.408	80.008	19.993	103.781	19.740	3.374	0.495
1130.000	647.690	80.009	19.993	103.782	19.744	3.123	0.525
1130.500	647.935	80.008	19.993	103.782	19.742	3.235	0.545
1131.000	648.179	80.008	19.994	103.782	19.740	3.385	0.508
1131.500	648.456	80.008	19.994	103.781	19.743	3.153	0.505
1132.000	648.675	80.008	19.993	103.783	19.743	3.168	0.508
1132.500	648.928	80.009	19.993	103.783	19.741	3.284	0.484
1133.000	649.156	80.008	19.993	103.782	19.741	3.267	0.477
1133.500	649.440	80.009	19.993	103.781	19.740	3.348	0.496
1134.000	649.691	80.010	19.992	103.782	19.743	3.194	0.523
1134.500	649.967	80.009	19.992	103.781	19.738	3.492	0.531
1135.000	650.200	80.010	19.993	103.781	19.744	3.092	0.518
1135.500	650.423	80.009	19.994	103.781	19.744	3.107	0.482
1136.001	650.688	80.009	19.993	103.782	19.744	3.126	0.472
1136.501	650.943	80.009	19.994	103.780	19.743	3.162	0.504
1137.000	651.202	80.009	19.993	103.780	19.742	3.209	0.517
1137.500	651.464	80.008	19.993	103.778	19.738	3.479	0.517
1138.000	651.767	80.009	19.993	103.778	19.748	2.841	0.543
1138.500	651.978	80.009	19.994	103.777	19.745	3.038	0.540
1139.000	652.208	80.009	19.993	103.778	19.744	3.072	0.478
1139.500	652.439	80.009	19.994	103.779	19.746	2.921	0.451
1140.000	652.746	80.010	19.993	103.781	19.744	3.107	0.499
1140.500	653.019	80.008	19.993	103.781	19.744	3.118	0.559
1141.000	653.225	80.008	19.992	103.782	19.744	3.073	0.530
1141.500	653.476	80.009	19.993	103.781	19.747	2.859	0.468
1142.000	653.730	80.008	19.994	103.782	19.746	2.942	0.481
1142.500	654.013	80.009	19.995	103.781	19.748	2.828	0.521
1143.000	654.235	80.008	19.992	103.782	19.745	3.028	0.521
1143.500	654.541	80.009	19.993	103.779	19.746	2.948	0.517
1144.000	654.723	80.009	19.993	103.780	19.744	3.070	0.508
1144.500	655.010	80.009	19.993	103.779	19.744	3.111	0.478
1145.000	655.211	80.010	19.993	103.779	19.746	2.959	0.479
1145.500	655.493	80.008	19.993	103.779	19.742	3.257	0.486
1146.000	655.760	80.009	19.993	103.782	19.747	2.876	0.516
1146.500	656.094	80.009	19.993	103.781	19.745	3.021	0.575
1147.000	656.201	80.008	19.993	103.781	19.746	2.968	0.521
1147.500	656.468	80.008	19.994	103.781	19.749	2.764	0.407
1148.000	656.751	80.008	19.993	103.781	19.747	2.884	0.462
1148.500	656.836	80.008	19.993	103.778	19.746	2.942	0.459
1149.000	657.236	80.008	19.994	103.777	19.750	2.644	0.426
1149.501	657.704	80.008	19.993	103.775	19.744	3.088	0.677
1150.001	657.749	80.008	19.993	103.775	19.747	2.916	0.691
1150.501	658.102	80.009	19.993	103.773	19.746	2.948	0.455
1151.000	658.320	80.008	19.993	103.773	19.746	2.987	0.484
1151.500	658.423	80.008	19.993	103.772	19.749	2.730	0.446
1152.000	658.938	80.008	19.994	103.770	19.747	2.850	0.469
1152.500	659.022	80.008	19.993	103.766	19.746	2.984	0.608
1153.000	659.323	80.007	19.994	103.764	19.747	2.860	0.492
1153.500	659.651	80.010	19.993	103.768	19.747	2.871	0.507
1154.000	659.849	80.008	19.994	103.771	19.748	2.809	0.578
1154.500	660.130	80.010	19.993	103.773	19.747	2.880	0.503
1155.000	660.349	80.008	19.994	103.776	19.750	2.651	0.489
1155.500	660.633	80.009	19.993	103.779	19.747	2.895	0.501
1156.000	660.846	80.008	19.992	103.775	19.746	2.968	0.500
1156.500	661.127	80.007	19.993	103.774	19.746	2.967	0.496
1157.000	661.319	80.007	19.995	103.773	19.748	2.786	0.484
1157.500	661.597	80.009	19.993	103.775	19.748	2.811	0.471
1158.000	661.847	80.008	19.993	103.776	19.749	2.747	0.499
1158.500	662.107	80.008	19.993	103.779	19.751	2.620	0.519
1159.000	662.393	80.008	19.993	103.778	19.749	2.749	0.528
1159.500	662.622	80.009	19.994	103.775	19.748	2.843	0.531
1160.000	662.859	80.008	19.992	103.769	19.745	3.004	0.490
1160.500	663.111	80.009	19.993	103.769	19.749	2.764	0.477
1161.000	663.366	80.008	19.993	103.769	19.747	2.854	0.498
1161.500	663.614	80.010	19.992	103.772	19.747	2.863	0.505
1162.000	663.809	80.009	19.993	103.775	19.748	2.846	0.473
1162.500	664.145	80.011	19.993	103.779	19.748	2.831	0.486
1163.000	664.369	80.009	19.993	103.781	19.749	2.711	0.545
1163.500	664.593	80.011	19.992	103.781	19.750	2.702	0.504
1164.000	664.891	80.010	19.993	103.780	19.749	2.735	0.485
1164.500	665.090	80.010	19.993	103.783	19.749	2.756	0.509
1165.000	665.315	80.010	19.993	103.782	19.748	2.837	0.461
1165.500	665.622	80.010	19.992	103.781	19.750	2.681	0.478
1166.000	665.863	80.009	19.993	103.777	19.749	2.728	0.540
1166.500	666.090	80.009	19.994	103.776	19.751	2.614	0.508
1167.000	666.399	80.009	19.993	103.772	19.751	2.593	0.502
1167.500	666.639	80.010	19.992	103.773	19.752	2.531	0.542
1168.000	666.874	80.011	19.993	103.774	19.750	2.687	0.512
1168.500	667.109	80.011	19.993	103.777	19.754	2.422	0.472
1169.000	667.372	80.009	19.992	103.779	19.753	2.467	0.484
1169.500	667.597	80.010	19.992	103.782	19.750	2.704	0.493
1170.000	667.873	80.009	19.992	103.782	19.751	2.632	0.494
1170.500	668.099	80.011	19.992	103.783	19.751	2.621	0.502
1171.000	668.399	80.009	19.992	103.785	19.753	2.446	0.515
1171.500	668.645	80.011	19.993	103.785	19.750	2.642	0.536
1172.000	668.885	80.009	19.993	103.781	19.749	2.777	0.516
1172.500	669.136	80.009	19.992	103.776	19.751	2.582	0.488
1173.001	669.376	80.010	19.994	103.770	19.751	2.599	0.490
1173.501	669.602	80.009	19.994	103.769	19.751	2.634	0.478
1174.000	669.870	80.009	19.993	103.766	19.753	2.445	0.480
1174.501	670.123	80.010	19.993	103.764	19.753	2.471	0.507
1175.001	670.377	80.007	19.993	103.765	19.753	2.467	0.514
1175.500	670.596	80.008	19.993	103.767	19.752	2.565	0.490
1176.000	670.865	80.008	19.993	103.766	19.753	2.465	0.481
1176.500	671.127	80.010	19.994	103.766	19.751	2.638	0.510
1177.000	671.399	80.009	19.994	103.771	19.753	2.475	0.532
1177.500	671.641	80.009	19.993	103.775	19.751	2.621	0.524
1178.000	671.869	80.008	19.994	103.780	19.753	2.492	0.491
1178.500	672.125	80.008	19.993	103.779	19.749	2.760	0.477
1179.000	672.361	80.008	19.994	103.782	19.752	2.548	0.489
1179.500	672.654	80.008	19.993	103.777	19.752	2.529	0.511
1180.000	672.888	80.009	19.995	103.772	19.750	2.706	0.528
1180.500	673.172	80.008	19.993	103.766	19.752	2.570	0.523
1181.001	673.394	80.009	19.993	103.764	19.754	2.416	0.512
1181.501	673.644	80.008	19.993	103.759	19.749	2.771	0.488
1182.001	673.948	80.008	19.994	103.758	19.753	2.454	0.513
1182.500	674.201	80.008	19.993	103.760	19.750	2.664	0.555
1183.000	674.415	80.009	19.993	103.765	19.752	2.529	0.512
1183.500	674.678	80.010	19.993	103.766	19.751	2.619	0.472
1184.000	674.966	80.009	19.993	103.767	19.749	2.773	0.514
1184.500	675.222	80.010	19.993	103.767	19.750	2.696	0.548
1185.000	675.471	80.010	19.993	103.767	19.751	2.606	0.525
1185.500	675.669	80.009	19.993	103.765	19.752	2.537	0.476
1186.000	675.941	80.010	19.993	103.762	19.752	2.552	0.459
1186.500	676.207	80.010	19.993	103.761	19.751	2.621	0.504
1187.000	676.460	80.010	19.993	103.759	19.754	2.426	0.528
1187.500	676.678	80.011	19.994	103.762	19.755	2.310	0.495
1188.000	676.956	80.010	19.992	103.763	19.753	2.495	0.484
1188.501	677.246	80.011	19.993	103.766	19.755	2.302	0.532
1189.001	677.445	80.011	19.993	103.772	19.754	2.418	0.529
1189.501	677.743	80.011	19.992	103.775	19.754	2.428	0.493
1190.000	677.973	80.011	19.994	103.774	19.753	2.458	0.512
1190.500	678.175	80.011	19.994	103.773	19.753	2.479	0.480
1191.001	678.462	80.012	19.994	103.772	19.756	2.270	0.461
1191.501	678.689	80.011	19.994	103.766	19.754	2.404	0.502
1192.000	678.651	80.010	19.993	103.761	19.754	2.385	0.351
1192.500	679.243	80.012	19.993	103.757	19.755	2.300	0.371
1193.000	679.561	80.011	19.993	103.754	19.751	2.608	0.732
1193.500	679.775	80.010	19.994	103.755	19.753	2.438	0.720
1194.000	679.960	80.011	19.994	103.760	19.754	2.404	0.466
1194.500	680.152	80.010	19.993	103.768	19.750	2.651	0.389
1195.000	680.485	80.010	19.992	103.774	19.750	2.644	0.451
1195.500	680.657	80.011	19.992	103.780	19.755	2.298	0.515
1196.000	680.938	80.010	19.993	103.779	19.755	2.302	0.479
1196.500	681.217	80.010	19.994	103.775	19.754	2.420	0.506
1197.000	681.475	80.010	19.993	103.775	19.756	2.250	0.548
1197.500	681.723	80.010	19.994	103.770	19.753	2.488	0.522
1198.000	681.956	80.009	19.993	103.764	19.751	2.632	0.494
1198.500	682.231	80.009	19.994	103.761	19.754	2.420	0.494
1199.000	682.487	80.009	19.994	103.761	19.754	2.383	0.519
1199.500	682.714	80.008	19.994	103.757	19.755	2.314	0.507
1200.000	682.970	80.008	19.995	103.759	19.756	2.284	0.483
1200.500	683.222	80.008	19.994	103.764	19.754	2.374	0.496
1201.000	683.478	80.009	19.994	103.767	19.754	2.409	0.508
1201.500	683.744	80.008	19.995	103.769	19.756	2.233	0.515
1202.000	683.978	80.008	19.994	103.770	19.754	2.370	0.511
1202.500	684.243	80.008	19.994	103.771	19.754	2.402	0.500
1203.000	684.505	80.008	19.994	103.771	19.753	2.478	0.513
1203.500	684.747	80.008	19.995	103.774	19.753	2.482	0.515
1204.000	684.987	80.006	19.994	103.776	19.754	2.409	0.493
1204.500	685.272	80.007	19.994	103.780	19.753	2.488	0.504
1205.000	685.541	80.009	19.994	103.778	19.753	2.492	0.540
1205.500	685.778	80.007	19.994	103.778	19.752	2.524	0.530
1206.000	686.023	80.008	19.994	103.772	19.754	2.404	0.494
1206.500	686.270	80.008	19.995	103.768	19.754	2.413	0.487
1207.000	686.502	80.007	19.995	103.767	19.756	2.289	0.486
1207.500	686.751	80.007	19.994	103.766	19.756	2.270	0.480
1208.000	687.049	80.006	19.995	103.764	19.756	2.272	0.514
1208.500	687.263	80.006	19.994	103.768	19.757	2.193	0.529
1209.000	687.524	80.007	19.995	103.771	19.755	2.328	0.493
1209.500	687.790	80.007	19.994	103.771	19.755	2.302	0.501
1210.001	688.009	80.007	19.995	103.774	19.754	2.403	0.506
1210.501	688.269	80.008	19.994	103.778	19.753	2.484	0.482
1211.000	688.541	80.008	19.995	103.781	19.754	2.397	0.506
1211.500	688.826	80.007	19.995	103.783	19.754	2.394	0.545
1212.000	689.053	80.008	19.995	103.782	19.755	2.360	0.534
1212.500	689.373	80.008	19.994	103.783	19.755	2.338	0.529
1213.000	689.536	80.007	19.994	103.775	19.754	2.426	0.515
1213.500	689.786	80.009	19.994	103.769	19.756	2.285	0.448
1214.000	690.046	80.008	19.993	103.764	19.755	2.336	0.462
1214.500	690.303	80.008	19.994	103.762	19.756	2.285	0.514
1215.000	690.561	80.009	19.994	103.762	19.753	2.447	0.516
1215.500	690.802	80.009	19.994	103.766	19.754	2.420	0.507
1216.000	691.045	80.007	19.994	103.772	19.754	2.368	0.491
1216.500	691.283	80.008	19.994	103.773	19.755	2.302	0.483
1217.000	691.510	80.009	19.996	103.775	19.756	2.285	0.473
1217.500	691.780	80.009	19.994	103.777	19.754	2.430	0.481
1218.000	692.063	80.008	19.993	103.779	19.755	2.317	0.524
1218.500	692.265	80.009	19.994	103.778	19.750	2.681	0.519
1219.000	692.533	80.008	19.993	103.776	19.751	2.600	0.478
1219.500	692.800	80.009	19.994	103.773	19.751	2.595	0.503
1220.000	693.034	80.009	19.993	103.765	19.752	2.527	0.518
1220.500	693.313	80.008	19.993	103.758	19.755	2.355	0.507
1221.000	693.526	80.009	19.994	103.753	19.754	2.422	0.502
1221.500	693.808	80.008	19.994	103.752	19.751	2.610	0.494
1222.000	694.040	80.009	19.994	103.750	19.751	2.625	0.505
1222.500	694.289	80.008	19.993	103.751	19.752	2.533	0.497
1223.000	694.511	80.008	19.994	103.755	19.754	2.388	0.476
1223.500	694.752	80.010	19.992	103.757	19.754	2.375	0.467
1224.000	695.007	80.008	19.994	103.759	19.754	2.407	0.480
1224.501	695.250	80.009	19.993	103.760	19.752	2.565	0.497
1225.001	695.514	80.008	19.993	103.764	19.751	2.638	0.503
1225.501	695.768	80.009	19.993	103.766	19.752	2.514	0.513
1226.001	696.027	80.008	19.993	103.765	19.753	2.492	0.515
1226.500	696.270	80.009	19.992	103.762	19.750	2.707	0.507
1227.000	696.496	80.009	19.993	103.766	19.752	2.559	0.485
1227.500	696.768	80.009	19.993	103.763	19.749	2.745	0.484
1228.000	696.986	80.009	19.993	103.760	19.752	2.550	0.494
1228.500	697.277	80.008	19.993	103.761	19.753	2.458	0.499
1229.000	697.512	80.009	19.995	103.761	19.753	2.456	0.517
1229.500	697.758	80.008	19.992	103.761	19.754	2.402	0.504
1230.000	697.971	80.008	19.993	103.764	19.753	2.492	0.470
1230.500	698.216	80.006	19.993	103.766	19.752	2.554	0.458
1231.000	698.503	80.007	19.994	103.768	19.749	2.749	0.495
1231.500	698.711	80.008	19.991	103.770	19.752	2.548	0.514
1232.000	698.988	80.008	19.993	103.772	19.751	2.612	0.490
1232.500	699.231	80.009	19.993	103.772	19.751	2.625	0.502
1233.000	699.472	80.008	19.993	103.770	19.752	2.559	0.502
1233.500	699.695	80.007	19.991	103.770	19.753	2.443	0.474
1234.000	699.960	80.008	19.993	103.769	19.757	2.188	0.476
1234.500	700.245	80.008	19.993	103.766	19.754	2.368	0.519
1235.000	700.483	80.008	19.993	103.765	19.757	2.214	0.537
1235.500	700.710	80.008	19.994	103.766	19.754	2.413	0.494
1236.000	700.959	80.008	19.993	103.771	19.753	2.481	0.470
1236.501	701.197	80.007	19.992	103.771	19.754	2.432	0.482
1237.001	701.451	80.007	19.993	103.768	19.752	2.530	0.489
1237.500	701.729	80.008	19.993	103.765	19.754	2.385	0.512
1238.000	701.947	80.008	19.992	103.764	19.754	2.415	0.514
1238.500	702.237	80.008	19.993	103.762	19.754	2.391	0.502
1239.000	702.479	80.007	19.993	103.767	19.753	2.482	0.520
1239.500	702.712	80.008	19.993	103.770	19.753	2.462	0.504
1240.000	702.985	80.007	19.994	103.774	19.754	2.411	0.491
1240.500	703.235	80.007	19.993	103.772	19.753	2.433	0.514
1241.000	703.506	80.008	19.994	103.769	19.755	2.334	0.522
1241.500	703.757	80.009	19.993	103.768	19.753	2.469	0.522
1242.000	703.971	80.009	19.993	103.765	19.751	2.625	0.494
1242.500	704.255	80.008	19.994	103.763	19.752	2.542	0.481
1243.000	704.509	80.009	19.993	103.765	19.752	2.519	0.517
1243.500	704.750	80.007	19.993	103.767	19.751	2.600	0.517
1244.000	705.023	80.009	19.993	103.766	19.754	2.413	0.505
1244.500	705.253	80.008	19.994	103.770	19.754	2.386	0.509
1245.000	705.517	80.008	19.992	103.772	19.757	2.216	0.498
1245.501	705.773	80.010	19.992	103.774	19.753	2.441	0.507
1246.001	706.028	80.009	19.993	103.777	19.751	2.591	0.516
1246.500	706.286	80.009	19.993	103.780	19.755	2.306	0.512
1247.000	706.533	80.009	19.993	103.780	19.754	2.398	0.509
1247.501	706.829	80.009	19.994	103.780	19.753	2.486	0.524
1248.001	707.045	80.009	19.992	103.782	19.754	2.428	0.527
1248.500	707.323	80.009	19.994	103.779	19.753	2.486	0.503
1249.000	707.564	80.010	19.993	103.777	19.750	2.653	0.507
1249.500	707.801	80.010	19.993	103.777	19.751	2.604	0.499
1250.001	708.097	80.011	19.993	103.777	19.752	2.514	0.505
1250.501	708.347	80.010	19.992	103.770	19.752	2.538	0.539
1251.000	708.591	80.011	19.993	103.765	19.753	2.491	0.520
1251.500	708.839	80.010	19.993	103.761	19.751	2.617	0.493
1252.000	709.149	80.009	19.993	103.759	19.751	2.630	0.525
1252.500	709.336	80.010	19.992	103.754	19.754	2.413	0.528
1253.000	709.600	80.010	19.993	103.753	19.753	2.441	0.474
1253.500	709.856	80.010	19.993	103.753	19.754	2.428	0.485
1254.001	710.101	80.010	19.992	103.754	19.755	2.298	0.511
1254.501	710.366	80.010	19.993	103.753	19.752	2.531	0.506
1255.000	710.645	80.009	19.992	103.757	19.751	2.604	0.527
1255.500	710.872	80.010	19.993	103.761	19.750	2.641	0.525
1256.000	711.150	80.009	19.993	103.765	19.751	2.576	0.506
1256.500	711.368	80.009	19.992	103.767	19.751	2.608	0.500
1257.000	711.662	80.009	19.994	103.770	19.752	2.514	0.503
1257.500	711.923	80.009	19.993	103.769	19.752	2.536	0.533
1258.000	712.124	80.010	19.993	103.768	19.752	2.542	0.508
1258.500	712.467	80.009	19.993	103.765	19.752	2.506	0.503
1259.000	712.660	80.010	19.993	103.764	19.755	2.317	0.540
1259.500	712.951	80.009	19.994	103.763	19.754	2.424	0.510
1260.000	713.192	80.008	19.992	103.763	19.754	2.429	0.508
1260.500	713.454	80.009	19.992	103.760	19.755	2.352	0.518
1261.000	713.718	80.009	19.993	103.760	19.755	2.313	0.514
1261.500	713.939	80.010	19.992	103.758	19.755	2.358	0.506
1262.000	714.220	80.009	19.993	103.754	19.754	2.377	0.494
1262.500	714.509	80.009	19.993	103.754	19.756	2.234	0.536
1263.000	714.707	80.009	19.993	103.759	19.752	2.523	0.528
1263.500	715.007	80.009	19.994	103.765	19.755	2.317	0.492
1264.000	715.263	80.010	19.993	103.768	19.757	2.195	0.527
1264.500	715.522	80.009	19.994	103.768	19.755	2.332	0.536
1265.000	715.809	80.009	19.994	103.766	19.756	2.291	0.531
1265.500	716.047	80.009	19.994	103.764	19.755	2.362	0.535
1266.000	716.321	80.009	19.993	103.759	19.756	2.229	0.518
1266.500	716.582	80.010	19.991	103.755	19.754	2.371	0.523
1267.000	716.875	80.010	19.993	103.755	19.754	2.396	0.545
1267.500	717.108	80.010	19.992	103.753	19.753	2.435	0.541
1268.000	717.379	80.009	19.994	103.750	19.755	2.330	0.516
1268.500	717.619	80.010	19.993	103.749	19.756	2.279	0.508
1269.000	717.861	80.009	19.992	103.748	19.754	2.403	0.496
1269.500	718.132	80.009	19.993	103.747	19.755	2.294	0.497
1270.000	718.371	80.011	19.993	103.747	19.755	2.349	0.511
1270.500	718.648	80.010	19.993	103.748	19.755	2.323	0.513
1271.000	718.887	80.011	19.993	103.749	19.754	2.396	0.516
1271.500	719.143	80.010	19.993	103.749	19.756	2.268	0.506
1272.001	719.407	80.010	19.994	103.749	19.757	2.161	0.508
1272.501	719.691	80.009	19.994	103.749	19.758	2.146	0.534
1273.000	719.953	80.010	19.993	103.748	19.752	2.504	0.547
1273.500	720.228	80.012	19.996	103.746	19.757	2.171	0.541
1274.000	720.455	80.010	19.994	103.745	19.758	2.114	0.520
1274.500	720.716	80.010	19.994	103.745	19.757	2.195	0.495
1275.000	720.966	80.010	19.993	103.744	19.757	2.221	0.500
1275.500	721.238	80.011	19.993	103.750	19.756	2.261	0.517
1276.000	721.504	80.011	19.994	103.755	19.759	2.052	0.531
1276.500	721.747	80.009	19.992	103.756	19.757	2.206	0.524
1277.000	722.017	80.011	19.996	103.756	19.757	2.199	0.511
1277.500	722.291	80.010	19.996	103.757	19.756	2.266	0.528
1278.000	722.557	80.011	19.994	103.752	19.753	2.443	0.542
1278.500	722.831	80.011	19.994	103.746	19.757	2.191	0.540
1279.000	723.077	80.010	19.994	103.745	19.756	2.225	0.530
1279.500	723.281	80.010	19.991	103.746	19.759	2.043	0.484
1280.000	723.592	80.009	19.994	103.749	19.759	2.077	0.482
1280.500	723.812	80.008	19.993	103.753	19.756	2.287	0.523
1281.000	724.087	80.009	19.995	103.754	19.761	1.910	0.514
1281.500	724.347	80.009	19.993	103.754	19.757	2.202	0.515
1282.000	724.624	80.009	19.996	103.754	19.757	2.185	0.536
1282.500	724.846	80.009	19.993	103.752	19.752	2.521	0.518
1283.000	725.137	80.008	19.994	103.749	19.753	2.473	0.506
1283.500	725.383	80.008	19.994	103.748	19.755	2.311	0.525
1284.000	725.619	80.008	19.992	103.752	19.755	2.317	0.510
1284.500	725.939	80.008	19.993	103.755	19.756	2.246	0.519
1285.000	726.195	80.008	19.993	103.756	19.753	2.454	0.566
1285.500	726.411	80.008	19.994	103.758	19.754	2.381	0.524
1286.000	726.693	80.009	19.992	103.760	19.755	2.317	0.484
1286.501	726.949	80.010	19.993	103.759	19.757	2.171	0.518
1287.001	727.207	80.008	19.995	103.758	19.757	2.188	0.526
1287.500	727.463	80.009	19.994	103.761	19.758	2.146	0.514
1288.000	727.713	80.008	19.993	103.759	19.755	2.326	0.510
1288.500	728.033	80.008	19.993	103.759	19.756	2.227	0.538
1289.000	728.247	80.007	19.993	103.757	19.755	2.311	0.552
1289.500	728.524	80.009	19.994	103.754	19.755	2.358	0.512
1290.000	728.775	80.008	19.995	103.753	19.757	2.191	0.509
1290.500	729.026	80.008	19.995	103.754	19.757	2.206	0.515
1291.000	729.301	80.009	19.994	103.754	19.755	2.311	0.514
1291.500	729.499	80.008	19.993	103.754	19.755	2.339	0.500
1292.000	729.798	80.007	19.994	103.754	19.754	2.429	0.485
1292.500	730.115	80.009	19.994	103.752	19.754	2.412	0.556
1293.000	730.317	80.009	19.993	103.751	19.757	2.199	0.567
1293.500	730.607	80.008	19.992	103.750	19.758	2.137	0.505
1294.000	730.808	80.008	19.993	103.751	19.756	2.255	0.491
1294.500	731.074	80.006	19.993	103.753	19.755	2.311	0.479
1295.000	731.407	80.008	19.994	103.754	19.754	2.403	0.533
1295.500	731.622	80.008	19.993	103.755	19.757	2.214	0.574
1296.000	731.895	80.007	19.994	103.757	19.755	2.325	0.518
1296.500	732.120	80.007	19.994	103.757	19.753	2.465	0.493
1297.000	732.374	80.007	19.993	103.757	19.758	2.154	0.489
1297.500	732.658	80.007	19.995	103.758	19.755	2.353	0.509
1298.000	732.924	80.007	19.995	103.759	19.754	2.383	0.544
1298.500	733.175	80.008	19.993	103.758	19.755	2.313	0.533
1299.000	733.448	80.007	19.994	103.759	19.757	2.191	0.521
1299.500	733.713	80.008	19.994	103.758	19.758	2.107	0.531
1300.001	733.920	80.007	19.995	103.755	19.760	2.004	0.505
1300.501	734.236	80.007	19.995	103.754	19.754	2.411	0.497
1301.000	734.467	80.007	19.994	103.753	19.755	2.315	0.535
1301.500	734.724	80.007	19.993	103.752	19.755	2.351	0.518
1302.000	734.952	80.009	19.994	103.751	19.753	2.444	0.487
1302.500	735.214	80.008	19.993	103.751	19.755	2.304	0.487
1303.000	735.486	80.008	19.995	103.750	19.758	2.135	0.512
1303.500	735.733	80.008	19.994	103.749	19.758	2.127	0.527
1304.000	735.968	80.007	19.995	103.749	19.757	2.180	0.500
1304.500	736.231	80.009	19.994	103.749	19.754	2.396	0.489
1305.000	736.459	80.008	19.994	103.750	19.757	2.193	0.494
1305.500	736.776	80.007	19.995	103.751	19.755	2.358	0.518
1306.000	736.997	80.006	19.994	103.756	19.756	2.255	0.541
1306.500	737.287	80.009	19.994	103.759	19.753	2.444	0.524
1307.000	737.499	80.007	19.994	103.763	19.754	2.384	0.507
1307.500	737.753	80.007	19.993	103.762	19.755	2.362	0.484
1308.001	738.008	80.006	19.992	103.761	19.756	2.229	0.487
1308.501	738.268	80.006	19.994	103.759	19.753	2.457	0.512
1309.000	738.499	80.008	19.993	103.757	19.752	2.519	0.503
1309.500	738.775	80.009	19.994	103.753	19.755	2.317	0.499
1310.000	739.032	80.008	19.993	103.753	19.751	2.579	0.520
1310.500	739.268	80.008	19.993	103.753	19.754	2.388	0.513
1311.000	739.560	80.008	19.993	103.751	19.758	2.122	0.510
1311.500	739.760	80.007	19.993	103.750	19.756	2.274	0.509
1312.000	740.008	80.007	19.994	103.750	19.757	2.201	0.470
1312.500	740.287	80.009	19.993	103.752	19.758	2.150	0.488
1313.000	740.538	80.007	19.993	103.752	19.756	2.266	0.529
1313.500	740.797	80.008	19.992	103.752	19.756	2.283	0.520
1314.000	741.030	80.009	19.993	103.752	19.759	2.077	0.501
1314.500	741.289	80.007	19.993	103.752	19.755	2.305	0.492
1315.000	741.551	80.008	19.993	103.752	19.756	2.234	0.507
1315.500	741.800	80.007	19.993	103.753	19.755	2.311	0.516
1316.000	742.030	80.009	19.993	103.753	19.754	2.429	0.495
1316.500	742.298	80.010	19.994	103.752	19.755	2.362	0.489
1317.000	742.549	80.007	19.993	103.751	19.755	2.317	0.508
1317.500	742.841	80.009	19.994	103.750	19.752	2.540	0.531
1318.000	743.102	80.008	19.994	103.748	19.753	2.480	0.548
1318.500	743.280	80.008	19.992	103.748	19.753	2.446	0.496
1319.000	743.569	80.009	19.994	103.748	19.754	2.373	0.453
