Sample ID:	C:\MCC\MCC Cal\Test\PlasticC_MCC_30K_min_211021_R2.txt
Sample Weight (mg):	4.94
Heating Rate (C/s):	0.5
Combustor Temp (C):	900
N2 Flow Rate (cc/min):	80
O2 Flow Rate (cc/min):	20
Calibration File:	C:\MCC\MCC Cal\Coeff1 JN10440_30_210304.txt.txt
T Correction Coefficients:	0	1.024463	0
Time Shift (s):	14
*
Time (s)	Temperature (C)	N2 flow rate (cc/min)	O2 flow rate (cc/min)	Flow Rate (cc/min)	Oxygen (%)	HRR (W/g)	Heating rate (C/s)
-0.001	108.500	80.001	19.997	102.990	20.275	-0.031	-0.015
0.500	108.516	79.999	19.997	102.991	20.277	-0.195	-0.026
1.000	108.537	80.001	19.996	102.991	20.276	-0.130	0.009
1.500	108.496	80.000	19.997	102.992	20.273	0.067	0.009
2.000	108.528	79.999	19.996	102.992	20.274	0.000	-0.014
2.500	108.519	80.000	19.996	102.992	20.278	-0.229	0.007
3.000	108.505	80.000	19.995	102.991	20.276	-0.117	0.000
3.500	108.512	80.000	19.995	102.991	20.276	-0.148	-0.016
3.999	108.472	80.000	19.996	102.991	20.276	-0.101	-0.020
4.499	108.499	80.000	19.996	102.991	20.272	0.106	-0.023
4.999	108.466	80.000	19.995	102.991	20.276	-0.132	-0.009
5.499	108.474	80.000	19.995	102.990	20.273	0.054	-0.015
5.999	108.458	80.000	19.996	102.990	20.271	0.198	-0.016
6.499	108.459	80.001	19.995	102.993	20.270	0.252	-0.012
6.999	108.474	80.001	19.995	103.000	20.274	0.031	0.000
7.499	108.469	80.000	19.995	103.008	20.273	0.081	0.013
7.999	108.464	80.001	19.994	103.018	20.270	0.265	0.000
8.499	108.462	80.001	19.994	103.028	20.271	0.177	-0.009
8.999	108.471	80.001	19.995	103.037	20.271	0.220	-0.000
9.499	108.468	80.001	19.995	103.044	20.272	0.164	0.006
9.999	108.478	80.001	19.995	103.049	20.268	0.413	0.007
10.499	108.551	80.002	19.995	103.055	20.266	0.503	0.045
11.000	108.541	80.001	19.994	103.060	20.270	0.294	0.073
11.500	108.546	80.001	19.995	103.065	20.269	0.314	0.029
11.999	108.546	80.001	19.994	103.067	20.266	0.501	0.000
12.499	108.537	80.001	19.996	103.070	20.266	0.553	-0.002
12.999	108.535	80.003	19.996	103.069	20.262	0.819	-0.010
13.499	108.548	80.003	19.995	103.068	20.260	0.909	0.001
13.999	108.594	80.001	19.995	103.068	20.261	0.862	0.035
14.499	108.572	80.003	19.995	103.070	20.260	0.948	0.041
14.999	108.583	80.002	19.995	103.077	20.259	0.950	0.006
15.500	108.622	80.001	19.995	103.088	20.260	0.894	0.020
16.000	108.677	80.002	19.995	103.098	20.257	1.091	0.072
16.500	108.665	80.002	19.996	103.106	20.257	1.123	0.068
17.000	108.679	80.002	19.996	103.112	20.255	1.253	0.023
17.500	108.685	80.001	19.997	103.114	20.256	1.183	0.011
18.000	108.762	80.001	19.997	103.115	20.255	1.250	0.051
18.500	108.734	80.003	19.996	103.114	20.255	1.269	0.066
19.000	108.777	80.002	19.996	103.115	20.252	1.461	0.032
19.500	108.835	80.001	19.997	103.119	20.252	1.407	0.059
20.000	108.838	80.002	19.996	103.121	20.251	1.517	0.081
20.500	108.865	80.001	19.995	103.128	20.253	1.387	0.045
21.000	108.910	80.002	19.996	103.134	20.254	1.302	0.051
21.500	108.929	80.002	19.995	103.135	20.250	1.538	0.068
22.000	108.964	80.000	19.995	103.134	20.252	1.437	0.059
22.500	108.995	80.001	19.995	103.133	20.253	1.378	0.060
23.000	109.043	80.002	19.995	103.126	20.251	1.529	0.072
23.500	109.083	80.001	19.996	103.120	20.255	1.237	0.083
24.000	109.140	80.001	19.994	103.119	20.255	1.261	0.092
24.500	109.154	80.002	19.994	103.117	20.254	1.335	0.084
25.000	109.176	80.000	19.995	103.115	20.254	1.291	0.054
25.500	109.250	80.002	19.994	103.111	20.257	1.091	0.066
26.000	109.278	80.001	19.995	103.105	20.254	1.333	0.098
26.500	109.301	80.002	19.995	103.104	20.254	1.333	0.077
27.000	109.328	80.001	19.994	103.106	20.250	1.551	0.051
27.500	109.418	80.000	19.995	103.110	20.252	1.439	0.083
28.000	109.454	80.001	19.995	103.115	20.254	1.340	0.121
28.500	109.509	80.000	19.994	103.125	20.252	1.416	0.109
29.000	109.544	80.000	19.995	103.134	20.250	1.571	0.091
29.500	109.607	80.002	19.994	103.138	20.247	1.741	0.094
30.000	109.644	80.000	19.995	103.141	20.248	1.708	0.099
30.500	109.706	80.002	19.994	103.148	20.249	1.662	0.100
31.000	109.765	80.001	19.995	103.151	20.250	1.550	0.110
31.500	109.855	80.001	19.995	103.151	20.245	1.871	0.135
32.000	109.896	80.001	19.994	103.152	20.244	1.949	0.140
32.499	109.916	80.001	19.995	103.154	20.246	1.828	0.096
32.999	109.968	80.002	19.994	103.155	20.242	2.075	0.067
33.499	110.051	80.002	19.995	103.157	20.245	1.900	0.104
34.000	110.140	80.002	19.995	103.158	20.247	1.785	0.153
34.501	110.188	80.001	19.995	103.159	20.242	2.115	0.155
35.000	110.266	80.004	19.995	103.162	20.244	1.947	0.132
35.499	110.317	80.002	19.994	103.165	20.244	1.972	0.128
35.999	110.395	80.003	19.994	103.166	20.246	1.839	0.129
36.499	110.466	80.002	19.994	103.165	20.244	1.945	0.139
36.999	110.495	80.003	19.994	103.165	20.240	2.198	0.124
37.499	110.599	80.003	19.995	103.163	20.238	2.384	0.116
37.999	110.698	80.004	19.995	103.163	20.240	2.247	0.168
38.499	110.770	80.002	19.995	103.166	20.240	2.242	0.187
38.999	110.850	80.003	19.995	103.173	20.241	2.186	0.162
39.499	110.907	80.004	19.995	103.179	20.238	2.319	0.144
39.999	110.988	80.004	19.995	103.183	20.237	2.390	0.137
40.499	111.066	80.003	19.996	103.185	20.238	2.326	0.149
40.999	111.123	80.004	19.995	103.186	20.238	2.323	0.147
41.500	111.251	80.004	19.996	103.186	20.238	2.344	0.160
42.001	111.336	80.003	19.995	103.186	20.236	2.483	0.199
42.500	111.401	80.003	19.995	103.189	20.237	2.437	0.181
42.999	111.465	80.005	19.994	103.196	20.234	2.617	0.140
43.499	111.575	80.003	19.995	103.200	20.233	2.657	0.151
43.999	111.650	80.003	19.995	103.207	20.234	2.639	0.179
44.499	111.748	80.002	19.994	103.212	20.232	2.763	0.179
44.999	111.854	80.003	19.995	103.213	20.234	2.621	0.189
45.499	111.942	80.002	19.995	103.214	20.231	2.807	0.199
45.999	112.023	80.003	19.996	103.213	20.233	2.655	0.181
46.499	112.101	80.002	19.996	103.214	20.231	2.778	0.164
46.999	112.235	80.001	19.995	103.215	20.233	2.695	0.185
47.499	112.333	80.001	19.995	103.218	20.231	2.810	0.222
47.999	112.443	80.001	19.996	103.219	20.231	2.809	0.220
48.499	112.540	80.000	19.996	103.224	20.228	2.994	0.208
48.999	112.656	80.001	19.996	103.224	20.231	2.839	0.210
49.500	112.767	80.001	19.996	103.225	20.232	2.774	0.220
50.001	112.857	80.001	19.995	103.225	20.231	2.818	0.214
50.501	112.969	80.002	19.997	103.226	20.230	2.892	0.202
51.000	113.111	80.001	19.995	103.226	20.228	3.006	0.228
51.500	113.199	80.002	19.997	103.225	20.231	2.793	0.242
52.000	113.302	80.001	19.997	103.225	20.228	2.986	0.211
52.499	113.421	80.000	19.996	103.226	20.229	2.959	0.207
52.999	113.562	80.000	19.997	103.229	20.227	3.053	0.241
53.499	113.662	80.002	19.996	103.230	20.227	3.100	0.251
53.999	113.799	80.001	19.997	103.231	20.227	3.048	0.239
54.499	113.931	80.000	19.996	103.233	20.225	3.174	0.253
54.999	114.056	80.001	19.996	103.232	20.225	3.178	0.263
55.499	114.202	79.999	19.996	103.230	20.226	3.138	0.264
55.999	114.305	80.000	19.996	103.230	20.225	3.210	0.260
56.499	114.422	80.000	19.996	103.230	20.225	3.203	0.234
56.999	114.562	80.000	19.996	103.229	20.223	3.329	0.238
57.499	114.685	80.001	19.995	103.228	20.224	3.235	0.260
57.999	114.834	80.001	19.995	103.233	20.224	3.268	0.267
58.500	114.941	80.001	19.996	103.235	20.225	3.228	0.264
59.000	115.096	80.001	19.996	103.236	20.225	3.168	0.259
59.499	115.237	79.999	19.996	103.237	20.226	3.131	0.279
59.999	115.381	80.001	19.997	103.241	20.222	3.400	0.291
60.500	115.527	80.000	19.997	103.239	20.224	3.235	0.288
61.001	115.676	80.000	19.996	103.245	20.224	3.266	0.292
61.500	115.815	80.000	19.995	103.245	20.219	3.582	0.291
61.999	115.932	80.000	19.995	103.248	20.224	3.269	0.272
62.499	116.098	80.001	19.996	103.251	20.221	3.471	0.269
62.999	116.214	80.002	19.997	103.254	20.223	3.361	0.282
63.499	116.356	80.000	19.996	103.254	20.224	3.291	0.270
63.999	116.515	80.002	19.996	103.260	20.222	3.387	0.280
64.499	116.703	80.001	19.995	103.264	20.221	3.470	0.324
64.999	116.867	80.001	19.995	103.265	20.222	3.389	0.350
65.499	116.999	80.001	19.997	103.265	20.223	3.344	0.324
65.999	117.171	80.001	19.997	103.265	20.221	3.473	0.300
66.499	117.287	80.001	19.996	103.262	20.220	3.533	0.296
66.999	117.484	80.001	19.996	103.261	20.224	3.262	0.301
67.499	117.632	80.001	19.995	103.261	20.219	3.589	0.329
67.999	117.820	80.001	19.997	103.260	20.220	3.497	0.340
68.499	117.944	80.001	19.996	103.261	20.220	3.521	0.324
68.999	118.126	80.001	19.996	103.265	20.224	3.295	0.309
69.499	118.295	80.001	19.996	103.264	20.220	3.504	0.329
69.999	118.457	80.001	19.996	103.262	20.216	3.811	0.341
70.500	118.624	80.000	19.997	103.262	20.219	3.624	0.329
71.000	118.820	80.000	19.996	103.261	20.220	3.515	0.346
71.499	118.965	80.000	19.995	103.260	20.220	3.532	0.352
71.999	119.146	80.000	19.996	103.261	20.219	3.613	0.334
72.499	119.305	79.999	19.995	103.260	20.219	3.580	0.334
72.999	119.484	79.999	19.996	103.253	20.221	3.450	0.339
73.499	119.651	80.001	19.997	103.252	20.219	3.596	0.342
73.999	119.868	80.000	19.996	103.252	20.222	3.367	0.365
74.499	120.053	79.999	19.996	103.254	20.219	3.622	0.393
74.999	120.173	80.000	19.996	103.257	20.221	3.492	0.354
75.500	120.339	79.999	19.996	103.265	20.222	3.414	0.296
76.001	120.558	79.999	19.996	103.267	20.219	3.620	0.336
76.500	120.731	80.000	19.996	103.264	20.221	3.456	0.388
76.999	120.921	79.998	19.996	103.259	20.221	3.470	0.377
77.499	121.160	79.999	19.996	103.259	20.220	3.499	0.396
77.999	121.329	79.999	19.996	103.259	20.219	3.596	0.418
78.499	121.484	79.999	19.996	103.258	20.222	3.425	0.366
78.999	121.686	79.998	19.997	103.261	20.223	3.356	0.341
79.499	121.877	79.999	19.995	103.266	20.222	3.396	0.375
79.999	122.087	79.999	19.997	103.267	20.220	3.537	0.397
80.500	122.248	79.998	19.997	103.267	20.219	3.564	0.386
81.000	122.480	79.999	19.996	103.268	20.224	3.262	0.382
81.499	122.649	79.999	19.997	103.268	20.223	3.360	0.397
82.000	122.851	79.998	19.996	103.268	20.220	3.522	0.385
82.500	123.046	80.000	19.996	103.267	20.220	3.519	0.384
82.999	123.252	80.000	19.996	103.265	20.221	3.454	0.399
83.499	123.436	79.998	19.996	103.261	20.221	3.466	0.396
83.999	123.635	79.999	19.997	103.260	20.218	3.651	0.386
84.500	123.842	79.999	19.997	103.259	20.220	3.501	0.394
85.000	124.049	80.000	19.997	103.260	20.224	3.241	0.410
85.499	124.224	79.999	19.996	103.261	20.222	3.376	0.398
86.000	124.406	80.000	19.996	103.265	20.222	3.405	0.370
86.501	124.662	80.001	19.996	103.265	20.220	3.542	0.397
87.000	124.857	80.000	19.996	103.265	20.221	3.430	0.445
87.499	125.035	79.999	19.996	103.266	20.222	3.427	0.412
87.999	125.257	80.001	19.997	103.265	20.223	3.358	0.387
88.499	125.494	80.000	19.997	103.265	20.223	3.313	0.429
88.999	125.680	80.001	19.996	103.265	20.222	3.367	0.441
89.499	125.899	80.001	19.995	103.265	20.224	3.252	0.414
89.999	126.087	80.000	19.996	103.265	20.224	3.284	0.406
90.499	126.325	80.001	19.996	103.266	20.225	3.196	0.416
90.999	126.542	80.002	19.996	103.267	20.222	3.407	0.440
91.499	126.744	80.002	19.995	103.266	20.227	3.087	0.437
91.999	126.971	80.001	19.996	103.265	20.221	3.461	0.424
92.499	127.169	80.002	19.996	103.263	20.224	3.273	0.427
93.000	127.373	80.002	19.994	103.263	20.223	3.308	0.414
93.500	127.571	80.002	19.994	103.263	20.223	3.338	0.403
93.999	127.795	80.001	19.994	103.264	20.224	3.279	0.412
94.499	128.053	80.002	19.995	103.266	20.224	3.248	0.452
94.999	128.233	80.002	19.993	103.269	20.225	3.197	0.460
95.499	128.452	80.002	19.994	103.269	20.222	3.401	0.418
95.999	128.680	80.003	19.995	103.268	20.225	3.199	0.423
96.499	128.870	80.002	19.994	103.268	20.222	3.396	0.432
96.999	129.114	80.002	19.995	103.268	20.225	3.203	0.426
97.499	129.329	80.002	19.994	103.268	20.222	3.407	0.446
97.999	129.526	80.003	19.995	103.268	20.219	3.600	0.436
98.499	129.776	80.001	19.996	103.269	20.222	3.407	0.429
98.999	130.017	80.002	19.995	103.269	20.221	3.477	0.469
99.499	130.231	80.003	19.995	103.269	20.222	3.369	0.473
99.999	130.424	80.003	19.995	103.269	20.218	3.685	0.431
100.499	130.655	80.003	19.994	103.269	20.221	3.483	0.416
100.999	130.889	80.002	19.995	103.269	20.219	3.584	0.444
101.499	131.096	80.002	19.995	103.268	20.221	3.490	0.453
101.999	131.330	80.002	19.994	103.268	20.219	3.613	0.441
102.499	131.551	80.003	19.994	103.267	20.218	3.656	0.448
102.999	131.766	80.003	19.994	103.267	20.217	3.712	0.445
103.499	131.989	80.002	19.996	103.267	20.216	3.761	0.437
103.999	132.235	80.002	19.996	103.267	20.220	3.542	0.453
104.499	132.461	80.002	19.996	103.267	20.220	3.531	0.470
104.999	132.697	80.002	19.996	103.267	20.220	3.506	0.467
105.499	132.921	80.003	19.994	103.266	20.219	3.569	0.462
105.999	133.170	80.001	19.994	103.266	20.219	3.571	0.467
106.499	133.385	80.003	19.995	103.265	20.219	3.562	0.468
106.999	133.623	80.002	19.996	103.265	20.217	3.703	0.459
107.499	133.876	80.002	19.994	103.264	20.217	3.734	0.472
107.999	134.080	80.003	19.995	103.265	20.217	3.714	0.474
108.499	134.302	80.001	19.995	103.265	20.222	3.387	0.441
108.999	134.537	80.002	19.995	103.265	20.220	3.508	0.441
109.499	134.807	80.002	19.995	103.265	20.221	3.484	0.481
109.999	135.019	80.001	19.995	103.266	20.219	3.566	0.494
110.499	135.264	80.003	19.995	103.266	20.224	3.259	0.470
110.999	135.487	80.003	19.995	103.266	20.222	3.371	0.463
111.499	135.714	80.003	19.995	103.266	20.223	3.356	0.459
111.999	135.940	80.002	19.996	103.265	20.219	3.560	0.452
112.499	136.162	80.001	19.994	103.265	20.221	3.488	0.451
112.999	136.399	80.003	19.995	103.265	20.220	3.522	0.453
113.499	136.645	80.003	19.995	103.265	20.221	3.463	0.471
113.999	136.894	80.002	19.995	103.265	20.221	3.488	0.489
114.500	137.151	80.002	19.995	103.264	20.217	3.710	0.501
115.000	137.399	80.002	19.995	103.264	20.219	3.562	0.505
115.499	137.598	80.002	19.995	103.263	20.220	3.544	0.476
115.999	137.830	80.004	19.994	103.263	20.219	3.623	0.439
116.499	138.084	80.003	19.995	103.264	20.218	3.634	0.458
116.999	138.315	80.005	19.996	103.264	20.221	3.488	0.486
117.499	138.552	80.004	19.995	103.264	20.219	3.578	0.477
117.999	138.801	80.004	19.995	103.265	20.221	3.450	0.477
118.499	139.079	80.004	19.994	103.263	20.221	3.490	0.507
118.999	139.285	80.003	19.995	103.262	20.222	3.383	0.505
119.499	139.567	80.003	19.994	103.262	20.217	3.714	0.486
119.999	139.782	80.004	19.993	103.259	20.220	3.557	0.492
120.500	140.046	80.005	19.994	103.259	20.222	3.423	0.488
121.000	140.257	80.005	19.995	103.260	20.221	3.437	0.478
121.500	140.496	80.005	19.994	103.259	20.223	3.338	0.463
122.000	140.766	80.004	19.994	103.259	20.222	3.389	0.479
122.499	141.003	80.004	19.995	103.262	20.222	3.376	0.508
122.999	141.274	80.003	19.995	103.261	20.222	3.426	0.507
123.499	141.537	80.004	19.995	103.262	20.221	3.441	0.521
123.999	141.742	80.004	19.995	103.263	20.221	3.493	0.501
124.499	141.999	80.003	19.994	103.263	20.222	3.388	0.465
124.999	142.250	80.004	19.995	103.261	20.219	3.569	0.485
125.500	142.495	80.004	19.994	103.262	20.224	3.287	0.502
126.000	142.746	80.003	19.995	103.262	20.221	3.473	0.496
126.500	142.989	80.004	19.995	103.262	20.222	3.378	0.495
127.000	143.229	80.003	19.994	103.262	20.225	3.201	0.488
127.499	143.483	80.003	19.994	103.261	20.221	3.457	0.489
128.000	143.736	80.004	19.995	103.258	20.222	3.412	0.501
128.500	143.983	80.001	19.995	103.257	20.223	3.338	0.503
129.000	144.218	80.001	19.996	103.256	20.223	3.345	0.491
129.500	144.459	80.002	19.994	103.256	20.223	3.341	0.479
130.000	144.763	80.002	19.995	103.257	20.219	3.572	0.510
130.500	145.000	80.003	19.994	103.260	20.221	3.443	0.543
131.000	145.249	80.001	19.995	103.261	20.223	3.356	0.514
131.500	145.480	80.002	19.995	103.261	20.224	3.296	0.483
132.000	145.704	80.003	19.995	103.262	20.225	3.228	0.467
132.500	146.002	80.002	19.995	103.264	20.223	3.325	0.488
133.000	146.226	80.001	19.994	103.264	20.227	3.101	0.522
133.500	146.509	80.001	19.996	103.261	20.223	3.321	0.514
134.000	146.756	80.001	19.995	103.256	20.225	3.218	0.518
134.500	146.994	80.001	19.995	103.254	20.223	3.321	0.508
135.000	147.217	80.001	19.994	103.252	20.222	3.383	0.473
135.500	147.524	80.002	19.995	103.253	20.226	3.152	0.496
136.000	147.757	80.001	19.995	103.252	20.227	3.070	0.535
136.500	148.023	80.000	19.995	103.253	20.223	3.338	0.519
137.000	148.236	80.000	19.995	103.256	20.222	3.412	0.489
137.500	148.469	80.000	19.996	103.255	20.224	3.290	0.462
138.000	148.778	80.000	19.995	103.250	20.223	3.312	0.494
138.500	148.985	80.001	19.997	103.250	20.223	3.341	0.529
139.000	149.261	80.001	19.995	103.249	20.222	3.365	0.499
139.500	149.534	80.000	19.994	103.245	20.222	3.366	0.516
140.000	149.765	80.002	19.995	103.245	20.220	3.538	0.526
140.500	150.045	80.001	19.995	103.249	20.222	3.415	0.508
141.000	150.320	80.000	19.996	103.248	20.221	3.440	0.533
141.500	150.566	80.001	19.995	103.251	20.222	3.415	0.538
142.000	150.811	80.000	19.996	103.248	20.224	3.274	0.506
142.500	151.057	80.000	19.995	103.245	20.222	3.377	0.491
143.000	151.319	80.000	19.995	103.246	20.222	3.413	0.499
143.500	151.559	80.002	19.997	103.246	20.223	3.339	0.505
144.000	151.811	80.001	19.996	103.242	20.222	3.364	0.497
144.500	152.033	80.000	19.997	103.242	20.223	3.334	0.483
145.000	152.299	80.002	19.996	103.243	20.217	3.709	0.482
145.500	152.564	80.001	19.994	103.241	20.223	3.325	0.510
146.000	152.855	80.002	19.996	103.243	20.221	3.462	0.543
146.500	153.073	80.000	19.998	103.244	20.221	3.473	0.532
147.000	153.357	80.002	19.995	103.245	20.223	3.325	0.505
147.500	153.617	80.002	19.995	103.243	20.222	3.372	0.523
148.000	153.854	80.000	19.996	103.241	20.223	3.325	0.521
148.500	154.048	80.000	19.995	103.238	20.222	3.413	0.464
149.000	154.331	80.002	19.996	103.242	20.221	3.444	0.454
149.500	154.566	80.000	19.996	103.245	20.222	3.419	0.498
150.000	154.852	80.001	19.995	103.244	20.222	3.390	0.519
150.500	155.074	80.000	19.995	103.241	20.224	3.265	0.514
151.000	155.320	80.001	19.996	103.240	20.226	3.153	0.488
151.500	155.574	80.001	19.995	103.234	20.224	3.240	0.484
152.000	155.805	79.999	19.995	103.230	20.222	3.370	0.493
152.500	156.081	80.001	19.996	103.230	20.224	3.296	0.496
153.000	156.300	80.002	19.995	103.231	20.222	3.397	0.501
153.500	156.565	79.999	19.995	103.233	20.223	3.335	0.489
154.000	156.820	80.000	19.995	103.234	20.221	3.433	0.502
154.500	157.041	80.000	19.995	103.237	20.223	3.353	0.498
155.000	157.332	80.000	19.995	103.237	20.223	3.352	0.494
155.500	157.570	79.999	19.995	103.235	20.221	3.451	0.520
156.000	157.839	80.000	19.996	103.234	20.220	3.545	0.518
156.500	158.129	80.000	19.996	103.234	20.223	3.319	0.534
157.000	158.302	80.000	19.995	103.233	20.223	3.357	0.511
157.500	158.577	80.000	19.995	103.235	20.225	3.222	0.455
158.000	158.876	80.000	19.995	103.236	20.222	3.373	0.511
158.500	159.095	80.000	19.996	103.235	20.227	3.079	0.546
159.000	159.337	80.000	19.996	103.234	20.222	3.422	0.489
159.500	159.588	80.000	19.996	103.234	20.226	3.149	0.477
160.000	159.835	80.000	19.996	103.233	20.223	3.352	0.496
160.500	160.076	80.000	19.996	103.235	20.225	3.218	0.493
161.000	160.311	79.998	19.996	103.237	20.223	3.303	0.482
161.500	160.604	79.999	19.996	103.239	20.224	3.232	0.502
162.000	160.866	80.001	19.995	103.238	20.225	3.214	0.541
162.500	161.086	79.998	19.994	103.236	20.224	3.249	0.519
163.000	161.342	79.998	19.995	103.235	20.223	3.308	0.479
163.500	161.597	79.999	19.996	103.233	20.223	3.348	0.493
164.000	161.844	80.000	19.995	103.231	20.224	3.277	0.507
164.500	162.121	80.001	19.996	103.231	20.226	3.140	0.513
165.000	162.371	79.999	19.996	103.230	20.223	3.319	0.525
165.500	162.632	80.000	19.996	103.230	20.224	3.252	0.519
166.000	162.859	80.001	19.996	103.230	20.222	3.409	0.499
166.500	163.116	80.000	19.996	103.229	20.226	3.164	0.486
167.000	163.391	80.001	19.996	103.228	20.223	3.337	0.508
167.500	163.626	80.000	19.995	103.227	20.222	3.368	0.521
168.000	163.869	79.999	19.995	103.226	20.224	3.234	0.494
168.500	164.135	80.000	19.994	103.226	20.225	3.230	0.494
169.000	164.384	79.999	19.997	103.226	20.225	3.207	0.512
169.500	164.626	80.001	19.997	103.226	20.224	3.279	0.503
170.000	164.839	79.999	19.997	103.227	20.224	3.243	0.473
170.500	165.188	80.001	19.997	103.228	20.224	3.241	0.508
171.000	165.375	80.001	19.996	103.228	20.223	3.315	0.549
171.500	165.653	80.000	19.996	103.228	20.223	3.353	0.501
172.000	165.951	80.001	19.996	103.227	20.223	3.315	0.521
172.500	166.179	80.000	19.998	103.225	20.226	3.155	0.551
173.000	166.412	80.002	19.996	103.225	20.224	3.243	0.493
173.500	166.690	80.001	19.996	103.225	20.222	3.378	0.486
174.000	166.909	80.001	19.996	103.225	20.224	3.232	0.504
174.500	167.176	80.001	19.998	103.223	20.226	3.147	0.491
175.000	167.440	80.002	19.996	103.223	20.224	3.274	0.509
175.500	167.667	80.002	19.995	103.223	20.226	3.124	0.511
176.000	167.935	80.002	19.997	103.223	20.226	3.110	0.493
176.500	168.205	80.002	19.996	103.223	20.228	2.994	0.516
177.000	168.421	80.002	19.996	103.224	20.227	3.039	0.512
177.500	168.677	80.002	19.996	103.224	20.227	3.079	0.479
178.000	168.933	80.003	19.996	103.224	20.225	3.182	0.492
178.500	169.212	80.001	19.997	103.224	20.226	3.142	0.523
179.000	169.466	80.002	19.998	103.223	20.225	3.187	0.533
179.500	169.706	80.002	19.996	103.223	20.225	3.214	0.513
180.000	169.962	80.002	19.997	103.223	20.226	3.162	0.495
180.500	170.209	80.002	19.995	103.223	20.224	3.274	0.500
181.000	170.467	80.002	19.996	103.222	20.220	3.525	0.504
181.500	170.714	80.001	19.995	103.222	20.223	3.297	0.505
182.000	170.939	80.001	19.996	103.222	20.226	3.126	0.489
182.500	171.206	80.001	19.996	103.223	20.228	3.007	0.482
183.000	171.446	80.001	19.995	103.223	20.225	3.228	0.500
183.500	171.730	80.003	19.996	103.222	20.223	3.349	0.516
184.000	171.938	80.001	19.994	103.221	20.224	3.232	0.508
184.500	172.234	80.002	19.995	103.221	20.225	3.230	0.498
185.000	172.452	80.003	19.995	103.220	20.223	3.303	0.509
185.500	172.711	80.002	19.995	103.220	20.222	3.402	0.495
186.000	172.955	80.002	19.994	103.222	20.222	3.366	0.490
186.500	173.203	80.002	19.995	103.223	20.228	3.016	0.498
187.000	173.469	80.002	19.997	103.224	20.229	2.967	0.503
187.500	173.704	80.001	19.996	103.224	20.224	3.248	0.507
188.000	173.971	80.003	19.995	103.223	20.227	3.041	0.502
188.500	174.247	80.002	19.995	103.222	20.225	3.198	0.522
189.000	174.465	80.001	19.996	103.222	20.225	3.212	0.518
189.500	174.700	80.001	19.996	103.222	20.226	3.122	0.473
190.000	174.977	80.002	19.996	103.222	20.228	3.023	0.483
190.500	175.223	80.001	19.996	103.223	20.224	3.236	0.518
191.000	175.433	80.002	19.994	103.225	20.228	2.996	0.489
191.500	175.686	80.002	19.995	103.226	20.228	2.987	0.460
192.000	175.932	80.002	19.996	103.222	20.226	3.137	0.481
192.500	176.219	80.002	19.996	103.218	20.228	3.005	0.516
193.000	176.419	80.003	19.994	103.218	20.228	3.003	0.510
193.500	176.673	80.002	19.995	103.217	20.227	3.061	0.470
194.000	176.905	80.002	19.995	103.215	20.226	3.156	0.470
194.500	177.134	80.001	19.995	103.218	20.226	3.140	0.473
195.000	177.431	80.003	19.995	103.222	20.223	3.317	0.493
195.500	177.619	80.002	19.995	103.222	20.226	3.131	0.505
196.000	177.903	80.003	19.995	103.222	20.226	3.135	0.478
196.500	178.115	80.003	19.995	103.224	20.221	3.441	0.484
197.000	178.407	80.003	19.994	103.223	20.226	3.125	0.500
197.500	178.644	80.004	19.995	103.223	20.225	3.187	0.517
198.000	178.879	80.003	19.994	103.223	20.224	3.286	0.501
198.500	179.130	80.003	19.994	103.223	20.222	3.418	0.479
199.000	179.371	80.003	19.994	103.222	20.229	2.969	0.489
199.500	179.627	80.003	19.995	103.223	20.226	3.165	0.494
200.000	179.871	80.002	19.995	103.225	20.224	3.252	0.498
200.500	180.166	80.002	19.995	103.225	20.226	3.122	0.519
201.000	180.405	80.003	19.994	103.226	20.226	3.108	0.536
201.500	180.644	80.003	19.995	103.227	20.224	3.240	0.506
202.000	180.891	80.003	19.994	103.226	20.224	3.259	0.482
202.500	181.117	80.003	19.994	103.223	20.227	3.084	0.479
203.000	181.426	80.002	19.995	103.222	20.225	3.214	0.504
203.500	181.639	80.003	19.994	103.221	20.225	3.216	0.529
204.000	181.888	80.003	19.994	103.222	20.220	3.497	0.492
204.500	182.142	80.002	19.995	103.223	20.224	3.261	0.482
205.000	182.326	80.003	19.993	103.223	20.222	3.411	0.470
205.500	182.626	80.003	19.995	103.225	20.227	3.066	0.461
206.000	182.871	80.002	19.994	103.221	20.222	3.364	0.515
206.500	183.114	80.003	19.995	103.216	20.226	3.162	0.516
207.000	183.370	80.002	19.995	103.213	20.223	3.332	0.494
207.500	183.586	80.003	19.995	103.212	20.224	3.250	0.486
208.000	183.819	80.002	19.994	103.214	20.227	3.089	0.461
208.500	184.076	80.002	19.995	103.218	20.226	3.145	0.469
209.000	184.326	80.002	19.995	103.224	20.226	3.149	0.498
209.500	184.535	80.000	19.995	103.223	20.223	3.356	0.483
210.000	184.816	80.002	19.994	103.219	20.227	3.073	0.474
210.500	185.062	80.000	19.995	103.218	20.226	3.161	0.509
211.000	185.335	80.001	19.995	103.216	20.225	3.201	0.523
211.500	185.559	80.000	19.995	103.216	20.224	3.266	0.508
212.000	185.824	80.001	19.995	103.219	20.226	3.140	0.493
212.500	186.052	80.001	19.995	103.224	20.224	3.275	0.491
213.000	186.311	80.000	19.995	103.225	20.223	3.353	0.490
213.500	186.577	80.001	19.995	103.225	20.223	3.347	0.506
214.000	186.796	80.001	19.995	103.223	20.220	3.539	0.505
214.500	187.092	80.001	19.994	103.222	20.225	3.218	0.500
215.000	187.346	80.002	19.995	103.217	20.222	3.425	0.533
215.500	187.536	80.001	19.994	103.217	20.223	3.353	0.497
216.000	187.766	80.000	19.994	103.218	20.221	3.438	0.432
216.500	188.063	80.001	19.994	103.221	20.224	3.295	0.474
217.000	188.247	80.001	19.995	103.219	20.221	3.475	0.504
217.500	188.478	80.001	19.993	103.223	20.220	3.497	0.448
218.000	188.735	80.002	19.994	103.224	20.222	3.378	0.452
218.500	189.003	80.001	19.995	103.219	20.222	3.362	0.506
219.000	189.244	80.002	19.994	103.213	20.223	3.315	0.517
219.500	189.482	80.001	19.994	103.213	20.223	3.326	0.494
220.000	189.722	80.001	19.995	103.214	20.223	3.326	0.479
220.500	189.947	80.002	19.994	103.206	20.223	3.336	0.472
221.000	190.208	80.001	19.995	103.205	20.223	3.308	0.476
221.500	190.493	80.002	19.994	103.205	20.224	3.280	0.516
222.000	190.732	80.001	19.995	103.206	20.222	3.381	0.535
222.500	190.994	80.001	19.995	103.201	20.221	3.457	0.512
223.000	191.250	80.002	19.995	103.205	20.222	3.412	0.509
223.500	191.477	80.001	19.994	103.206	20.221	3.457	0.500
224.000	191.701	80.000	19.994	103.206	20.222	3.397	0.467
224.500	191.893	80.000	19.995	103.207	20.221	3.448	0.434
225.000	192.177	80.000	19.994	103.212	20.219	3.619	0.446
225.500	192.444	80.001	19.994	103.215	20.219	3.580	0.513
226.000	192.679	80.002	19.995	103.213	20.221	3.452	0.527
226.500	192.936	80.001	19.994	103.213	20.220	3.506	0.497
227.000	193.181	80.001	19.994	103.209	20.220	3.546	0.496
227.500	193.399	80.001	19.994	103.206	20.220	3.524	0.482
228.000	193.627	80.001	19.995	103.205	20.220	3.522	0.455
228.500	193.878	80.001	19.994	103.205	20.219	3.571	0.463
229.000	194.116	80.001	19.994	103.208	20.219	3.601	0.484
229.500	194.365	80.002	19.995	103.208	20.220	3.522	0.488
230.000	194.611	80.001	19.995	103.207	20.220	3.553	0.491
230.500	194.815	80.002	19.996	103.207	20.221	3.439	0.473
231.000	195.081	80.001	19.995	103.209	20.220	3.515	0.460
231.500	195.310	80.001	19.996	103.207	20.222	3.396	0.482
232.000	195.564	80.000	19.995	103.207	20.220	3.520	0.489
232.500	195.826	80.001	19.996	103.204	20.221	3.451	0.500
233.000	196.051	80.001	19.995	103.201	20.220	3.507	0.501
233.500	196.320	80.000	19.996	103.197	20.220	3.525	0.491
234.000	196.551	80.002	19.995	103.195	20.222	3.403	0.498
234.500	196.819	80.001	19.995	103.196	20.222	3.423	0.500
235.000	197.048	80.002	19.995	103.195	20.223	3.320	0.498
235.500	197.265	80.001	19.996	103.197	20.220	3.529	0.471
236.000	197.514	79.999	19.996	103.201	20.218	3.630	0.456
236.500	197.769	80.001	19.995	103.206	20.222	3.376	0.485
237.000	198.003	80.001	19.995	103.208	20.221	3.439	0.496
237.500	198.225	80.000	19.996	103.211	20.222	3.408	0.472
238.000	198.514	80.000	19.996	103.207	20.223	3.345	0.484
238.500	198.737	80.000	19.995	103.203	20.221	3.428	0.512
239.000	198.999	79.999	19.996	103.201	20.224	3.294	0.499
239.500	199.204	80.000	19.996	103.199	20.220	3.506	0.476
240.000	199.450	80.001	19.995	103.198	20.223	3.311	0.459
240.500	199.684	80.001	19.995	103.200	20.222	3.424	0.466
241.000	199.949	80.001	19.996	103.200	20.223	3.305	0.490
241.500	200.196	80.001	19.996	103.197	20.221	3.430	0.505
242.000	200.435	80.001	19.996	103.194	20.222	3.425	0.499
242.500	200.664	80.001	19.995	103.194	20.222	3.383	0.477
243.000	200.921	80.001	19.995	103.194	20.223	3.331	0.477
243.500	201.168	80.001	19.995	103.193	20.220	3.556	0.494
244.000	201.378	79.999	19.995	103.194	20.218	3.683	0.480
244.500	201.620	80.000	19.996	103.196	20.218	3.644	0.455
245.000	201.862	80.001	19.995	103.192	20.220	3.502	0.468
245.500	202.146	80.000	19.997	103.192	20.218	3.681	0.505
246.000	202.375	80.000	19.995	103.196	20.223	3.350	0.519
246.500	202.594	80.000	19.996	103.199	20.216	3.755	0.480
247.000	202.841	80.000	19.997	103.198	20.217	3.715	0.457
247.500	203.054	79.999	19.996	103.203	20.220	3.531	0.464
248.000	203.323	80.000	19.996	103.203	20.221	3.490	0.471
248.500	203.598	80.000	19.995	103.201	20.222	3.418	0.513
249.000	203.831	80.000	19.996	103.198	20.221	3.428	0.526
249.500	204.069	80.000	19.996	103.198	20.220	3.542	0.489
250.000	204.282	80.002	19.996	103.194	20.219	3.562	0.461
250.500	204.575	80.002	19.996	103.192	20.220	3.504	0.479
251.000	204.805	80.001	19.995	103.189	20.220	3.504	0.514
251.500	205.061	80.001	19.995	103.190	20.220	3.513	0.504
252.000	205.275	80.000	19.996	103.191	20.218	3.655	0.478
252.500	205.543	80.001	19.996	103.196	20.220	3.517	0.476
253.000	205.752	80.001	19.996	103.202	20.219	3.567	0.480
253.500	205.997	80.001	19.995	103.204	20.216	3.778	0.466
254.000	206.239	80.001	19.996	103.203	20.219	3.614	0.470
254.500	206.503	80.002	19.996	103.203	20.221	3.443	0.496
255.000	206.716	80.002	19.995	103.200	20.220	3.555	0.491
255.500	206.934	80.002	19.995	103.193	20.218	3.672	0.454
256.000	207.222	80.002	19.996	103.193	20.219	3.566	0.468
256.500	207.418	80.002	19.996	103.192	20.220	3.542	0.495
257.000	207.670	80.003	19.995	103.191	20.219	3.576	0.466
257.500	207.928	80.002	19.995	103.193	20.219	3.620	0.479
258.000	208.166	80.002	19.997	103.194	20.218	3.676	0.503
258.500	208.437	80.002	19.996	103.194	20.221	3.452	0.502
259.000	208.652	80.002	19.996	103.200	20.219	3.612	0.498
259.500	208.845	80.003	19.996	103.205	20.218	3.650	0.447
260.000	209.114	80.002	19.995	103.202	20.219	3.567	0.435
260.500	209.318	80.002	19.996	103.203	20.218	3.650	0.468
261.000	209.588	80.001	19.995	103.205	20.217	3.695	0.474
261.500	209.831	80.001	19.996	103.202	20.218	3.661	0.494
262.000	210.083	80.002	19.996	103.197	20.217	3.713	0.504
262.500	210.337	80.001	19.995	103.198	20.217	3.717	0.500
263.000	210.571	80.000	19.996	103.198	20.219	3.596	0.497
263.500	210.790	80.000	19.997	103.199	20.216	3.800	0.470
264.000	211.061	80.001	19.996	103.196	20.218	3.661	0.471
264.500	211.315	80.002	19.995	103.199	20.220	3.509	0.508
265.000	211.547	79.999	19.997	103.200	20.219	3.576	0.506
265.500	211.759	80.000	19.996	103.205	20.219	3.603	0.465
266.000	212.027	80.001	19.997	103.206	20.218	3.668	0.462
266.500	212.251	80.001	19.996	103.207	20.218	3.659	0.485
267.000	212.503	80.001	19.997	103.209	20.217	3.750	0.484
267.500	212.769	80.001	19.996	103.211	20.218	3.656	0.498
268.000	212.993	80.000	19.996	103.206	20.212	4.026	0.504
268.500	213.245	80.001	19.996	103.203	20.213	3.990	0.483
269.000	213.493	80.001	19.995	103.206	20.217	3.751	0.488
269.500	213.737	79.999	19.995	103.205	20.216	3.793	0.496
270.000	213.966	80.001	19.996	103.200	20.215	3.831	0.482
270.500	214.244	80.000	19.996	103.197	20.215	3.879	0.490
271.000	214.479	80.002	19.996	103.196	20.215	3.841	0.510
271.500	214.726	80.001	19.996	103.193	20.213	3.960	0.498
272.000	214.936	80.001	19.996	103.192	20.218	3.654	0.470
272.500	215.205	80.002	19.995	103.198	20.217	3.751	0.468
273.000	215.425	80.001	19.996	103.204	20.214	3.901	0.484
273.500	215.668	80.001	19.995	103.209	20.215	3.825	0.476
274.000	215.932	80.001	19.995	103.212	20.214	3.910	0.485
274.500	216.144	80.001	19.996	103.212	20.212	4.018	0.492
275.000	216.444	80.000	19.995	103.205	20.216	3.800	0.494
275.500	216.656	80.002	19.995	103.199	20.211	4.102	0.512
276.000	216.910	80.003	19.996	103.194	20.213	3.976	0.489
276.500	217.140	80.002	19.995	103.195	20.212	4.048	0.475
277.000	217.419	80.002	19.996	103.201	20.216	3.783	0.497
277.500	217.623	80.002	19.994	103.207	20.215	3.819	0.496
278.000	217.911	80.003	19.995	103.211	20.217	3.717	0.487
278.500	218.127	80.002	19.994	103.216	20.216	3.782	0.498
279.000	218.376	80.002	19.996	103.216	20.214	3.895	0.485
279.500	218.588	80.003	19.995	103.209	20.211	4.108	0.463
280.000	218.841	80.002	19.995	103.205	20.213	3.984	0.463
280.500	219.085	80.002	19.994	103.201	20.212	4.070	0.481
281.000	219.357	80.003	19.996	103.200	20.210	4.179	0.506
281.500	219.555	80.004	19.995	103.200	20.209	4.213	0.493
282.000	219.814	80.003	19.994	103.199	20.209	4.244	0.464
282.500	220.076	80.003	19.995	103.200	20.207	4.366	0.489
283.000	220.328	80.003	19.994	103.201	20.210	4.180	0.517
283.500	220.562	80.002	19.994	103.197	20.210	4.173	0.500
284.000	220.829	80.002	19.994	103.196	20.209	4.213	0.494
284.500	221.029	80.004	19.996	103.196	20.212	4.078	0.484
285.000	221.284	80.003	19.995	103.196	20.212	4.067	0.461
285.500	221.546	80.003	19.996	103.198	20.209	4.251	0.486
286.000	221.800	80.004	19.995	103.203	20.210	4.145	0.516
286.500	222.037	80.002	19.995	103.210	20.208	4.285	0.503
287.000	222.256	80.004	19.994	103.216	20.211	4.112	0.473
287.500	222.539	80.002	19.994	103.222	20.211	4.123	0.479
288.000	222.781	80.002	19.994	103.222	20.213	4.007	0.514
288.500	223.002	80.001	19.994	103.217	20.209	4.234	0.494
289.000	223.250	80.001	19.994	103.211	20.211	4.130	0.466
289.500	223.504	80.002	19.995	103.205	20.209	4.243	0.486
290.000	223.721	80.002	19.995	103.198	20.212	4.039	0.487
290.500	224.006	80.002	19.995	103.196	20.208	4.310	0.487
291.000	224.253	79.999	19.994	103.198	20.210	4.205	0.517
291.500	224.474	80.001	19.995	103.197	20.208	4.310	0.500
292.000	224.754	80.001	19.994	103.195	20.210	4.166	0.484
292.500	224.988	79.999	19.996	103.194	20.211	4.115	0.508
293.000	225.209	80.001	19.996	103.194	20.212	4.072	0.485
293.500	225.497	80.001	19.994	103.193	20.209	4.227	0.482
294.000	225.768	80.001	19.996	103.193	20.209	4.243	0.533
294.500	225.995	80.001	19.996	103.197	20.206	4.465	0.528
295.000	226.228	80.000	19.996	103.202	20.206	4.409	0.480
295.500	226.455	80.001	19.996	103.204	20.208	4.280	0.460
296.000	226.685	80.002	19.995	103.205	20.209	4.233	0.458
296.500	226.973	80.001	19.995	103.205	20.213	3.982	0.488
297.000	227.198	80.001	19.996	103.203	20.210	4.150	0.516
297.500	227.442	79.999	19.995	103.198	20.208	4.316	0.491
298.000	227.674	80.000	19.995	103.195	20.207	4.355	0.472
298.500	227.950	80.000	19.995	103.195	20.207	4.359	0.492
299.000	228.196	80.000	19.995	103.195	20.207	4.343	0.515
299.500	228.447	80.000	19.995	103.192	20.208	4.334	0.510
300.000	228.714	80.001	19.995	103.191	20.208	4.279	0.507
300.500	228.993	80.001	19.996	103.190	20.207	4.386	0.532
301.000	229.203	80.001	19.995	103.189	20.209	4.265	0.518
301.500	229.492	80.002	19.995	103.191	20.206	4.424	0.494
302.000	229.745	80.001	19.995	103.191	20.207	4.368	0.520
302.500	230.005	80.002	19.995	103.192	20.204	4.575	0.528
303.000	230.217	80.001	19.996	103.192	20.205	4.500	0.493
303.500	230.494	80.001	19.995	103.192	20.206	4.469	0.480
304.000	230.771	80.001	19.994	103.189	20.205	4.510	0.522
304.500	230.994	80.000	19.995	103.189	20.208	4.337	0.527
305.000	231.244	80.000	19.995	103.190	20.203	4.624	0.487
305.500	231.495	80.000	19.994	103.191	20.203	4.626	0.487
306.000	231.729	80.001	19.996	103.190	20.203	4.664	0.493
306.500	231.993	80.002	19.995	103.194	20.202	4.714	0.491
307.000	232.237	80.001	19.996	103.196	20.206	4.456	0.503
307.500	232.473	80.003	19.995	103.195	20.202	4.718	0.494
308.000	232.704	80.002	19.995	103.195	20.204	4.573	0.474
308.500	232.942	80.002	19.995	103.195	20.204	4.552	0.469
309.000	233.209	80.001	19.996	103.192	20.207	4.393	0.487
309.500	233.438	80.002	19.995	103.190	20.203	4.644	0.500
310.000	233.745	80.002	19.995	103.191	20.201	4.736	0.516
310.500	233.974	80.001	19.995	103.190	20.203	4.619	0.536
311.000	234.211	80.001	19.994	103.191	20.201	4.745	0.501
311.500	234.502	80.002	19.995	103.190	20.204	4.568	0.497
312.000	234.717	80.002	19.994	103.191	20.202	4.683	0.517
312.500	234.973	80.002	19.995	103.193	20.201	4.730	0.489
313.000	235.217	80.002	19.996	103.193	20.202	4.698	0.485
313.500	235.441	80.001	19.995	103.193	20.203	4.602	0.484
314.000	235.725	80.002	19.995	103.193	20.203	4.644	0.488
314.500	235.945	80.001	19.995	103.192	20.202	4.673	0.506
315.000	236.222	80.000	19.995	103.192	20.201	4.754	0.500
315.500	236.461	80.002	19.994	103.191	20.201	4.761	0.507
316.000	236.675	80.002	19.994	103.191	20.204	4.595	0.485
316.500	236.909	80.002	19.995	103.191	20.201	4.761	0.451
317.000	237.164	80.002	19.995	103.189	20.198	4.936	0.468
317.500	237.429	80.001	19.995	103.188	20.201	4.781	0.504
318.000	237.668	80.001	19.994	103.188	20.197	4.994	0.512
318.500	237.937	80.002	19.995	103.188	20.199	4.907	0.506
319.000	238.174	80.002	19.996	103.188	20.204	4.581	0.507
319.500	238.457	80.001	19.996	103.188	20.198	4.976	0.513
320.000	238.667	80.001	19.996	103.188	20.201	4.790	0.506
320.500	238.929	80.001	19.995	103.188	20.201	4.738	0.482
321.000	239.200	80.000	19.995	103.188	20.200	4.824	0.503
321.500	239.390	80.001	19.996	103.188	20.198	4.990	0.497
322.000	239.634	80.000	19.995	103.187	20.201	4.774	0.447
322.500	239.867	80.001	19.997	103.187	20.199	4.907	0.455
323.000	240.140	80.001	19.994	103.187	20.200	4.833	0.492
323.500	240.368	80.001	19.995	103.187	20.194	5.239	0.503
324.000	240.640	80.001	19.995	103.187	20.195	5.154	0.500
324.500	240.904	80.000	19.996	103.187	20.200	4.803	0.518
325.000	241.147	80.001	19.995	103.188	20.198	4.940	0.521
325.500	241.368	80.001	19.996	103.188	20.202	4.718	0.486
326.000	241.639	80.000	19.996	103.188	20.194	5.192	0.478
326.500	241.917	80.001	19.996	103.188	20.199	4.907	0.520
327.000	242.154	80.000	19.995	103.189	20.196	5.079	0.532
327.500	242.392	80.001	19.995	103.188	20.197	5.017	0.495
328.000	242.670	80.001	19.996	103.188	20.198	4.987	0.496
328.500	242.881	80.000	19.995	103.188	20.197	5.006	0.503
329.000	243.126	80.001	19.995	103.188	20.195	5.169	0.473
329.500	243.387	80.001	19.996	103.188	20.195	5.158	0.481
330.000	243.637	80.000	19.996	103.188	20.195	5.125	0.508
330.500	243.899	80.001	19.997	103.188	20.195	5.163	0.511
331.000	244.192	80.000	19.996	103.187	20.194	5.228	0.534
331.500	244.438	80.000	19.995	103.187	20.195	5.162	0.547
332.000	244.620	80.001	19.996	103.188	20.198	4.987	0.483
332.500	244.846	80.001	19.995	103.189	20.195	5.138	0.418
333.000	245.079	80.000	19.995	103.189	20.197	5.032	0.433
333.500	245.416	80.001	19.995	103.190	20.195	5.171	0.515
334.000	245.580	80.001	19.995	103.190	20.192	5.329	0.536
334.500	245.893	80.002	19.996	103.190	20.197	5.037	0.489
335.000	246.112	80.001	19.995	103.190	20.194	5.196	0.504
335.500	246.359	80.002	19.996	103.190	20.194	5.203	0.499
336.000	246.604	80.001	19.995	103.190	20.194	5.241	0.479
336.500	246.849	80.002	19.996	103.190	20.195	5.153	0.491
337.000	247.093	80.002	19.995	103.189	20.194	5.239	0.490
337.500	247.351	80.002	19.995	103.188	20.196	5.089	0.495
338.000	247.550	80.004	19.995	103.188	20.195	5.142	0.479
338.500	247.865	80.003	19.996	103.188	20.195	5.154	0.486
339.000	248.075	80.002	19.995	103.188	20.192	5.340	0.519
339.500	248.320	80.003	19.995	103.188	20.193	5.279	0.489
340.000	248.532	80.002	19.995	103.188	20.194	5.243	0.456
340.500	248.825	80.002	19.995	103.188	20.194	5.196	0.481
341.000	249.082	80.003	19.994	103.188	20.193	5.254	0.527
341.500	249.374	80.004	19.995	103.188	20.192	5.339	0.549
342.000	249.615	80.002	19.995	103.187	20.191	5.434	0.541
342.500	249.851	80.002	19.995	103.188	20.189	5.521	0.505
343.000	250.082	80.002	19.995	103.188	20.192	5.324	0.472
343.500	250.333	80.002	19.995	103.189	20.195	5.180	0.475
344.000	250.608	80.003	19.995	103.189	20.191	5.387	0.504
344.500	250.845	80.002	19.995	103.190	20.190	5.506	0.519
345.000	251.087	80.002	19.995	103.189	20.191	5.432	0.495
345.500	251.333	80.002	19.995	103.190	20.195	5.142	0.484
346.000	251.620	80.001	19.995	103.190	20.194	5.214	0.511
346.500	251.845	80.003	19.994	103.190	20.194	5.208	0.522
347.000	252.113	80.002	19.995	103.190	20.192	5.374	0.502
347.500	252.374	80.002	19.995	103.191	20.194	5.241	0.511
348.000	252.648	80.002	19.995	103.190	20.194	5.221	0.532
348.500	252.838	80.000	19.995	103.190	20.194	5.205	0.499
349.000	253.121	80.001	19.995	103.189	20.192	5.358	0.468
349.500	253.345	80.002	19.997	103.189	20.191	5.428	0.490
350.000	253.615	80.002	19.996	103.189	20.192	5.331	0.501
350.500	253.837	80.001	19.998	103.189	20.189	5.556	0.492
351.000	254.064	80.003	19.996	103.189	20.188	5.583	0.470
351.500	254.343	80.000	19.996	103.191	20.191	5.399	0.478
352.000	254.560	80.001	19.996	103.191	20.189	5.570	0.501
352.500	254.784	80.001	19.997	103.191	20.191	5.419	0.468
353.000	255.038	80.002	19.997	103.191	20.189	5.574	0.460
353.500	255.303	80.001	19.996	103.190	20.190	5.479	0.499
354.000	255.550	80.002	19.996	103.187	20.189	5.518	0.516
354.500	255.787	80.003	19.997	103.188	20.190	5.484	0.498
355.000	255.998	80.002	19.996	103.187	20.191	5.435	0.466
355.500	256.268	80.002	19.996	103.188	20.188	5.594	0.464
356.000	256.505	80.001	19.997	103.190	20.188	5.607	0.494
356.500	256.722	80.002	19.997	103.190	20.190	5.504	0.480
357.000	256.965	80.002	19.996	103.189	20.184	5.847	0.457
357.500	257.236	80.002	19.996	103.189	20.186	5.753	0.488
358.000	257.449	80.001	19.996	103.187	20.190	5.493	0.499
358.500	257.695	80.002	19.996	103.187	20.187	5.675	0.471
359.000	257.971	80.002	19.996	103.185	20.184	5.841	0.491
359.500	258.233	80.002	19.996	103.186	20.192	5.348	0.530
360.000	258.453	80.002	19.996	103.183	20.189	5.532	0.510
360.500	258.701	80.003	19.996	103.184	20.188	5.610	0.475
361.000	258.919	80.004	19.997	103.183	20.190	5.452	0.467
361.500	259.168	80.004	19.997	103.178	20.188	5.611	0.467
362.000	259.415	80.004	19.997	103.173	20.187	5.688	0.482
362.500	259.651	80.004	19.997	103.174	20.186	5.744	0.489
363.000	259.903	80.004	19.997	103.173	20.184	5.842	0.486
363.500	260.101	80.004	19.996	103.173	20.186	5.749	0.469
364.000	260.348	80.002	19.997	103.179	20.188	5.603	0.447
364.500	260.591	80.003	19.996	103.183	20.184	5.859	0.467
365.000	260.835	80.004	19.996	103.181	20.188	5.634	0.488
365.500	261.034	80.003	19.996	103.181	20.187	5.697	0.465
366.000	261.320	80.003	19.996	103.181	20.185	5.818	0.464
366.500	261.567	80.003	19.995	103.181	20.186	5.722	0.509
367.000	261.774	80.002	19.996	103.179	20.187	5.704	0.494
367.500	262.026	80.004	19.995	103.179	20.184	5.872	0.457
368.000	262.243	80.003	19.996	103.180	20.183	5.924	0.464
368.500	262.517	80.004	19.995	103.180	20.186	5.724	0.480
369.000	262.720	80.003	19.995	103.180	20.185	5.836	0.484
369.500	262.966	80.002	19.994	103.176	20.185	5.802	0.463
370.000	263.177	80.003	19.994	103.175	20.183	5.935	0.453
370.500	263.443	80.002	19.995	103.175	20.184	5.852	0.466
371.000	263.665	80.001	19.995	103.174	20.187	5.666	0.482
371.500	263.914	80.003	19.996	103.173	20.181	6.081	0.480
372.000	264.143	80.002	19.995	103.179	20.180	6.121	0.475
372.500	264.394	80.003	19.995	103.183	20.185	5.802	0.479
373.000	264.683	80.003	19.994	103.184	20.183	5.939	0.510
373.500	264.871	80.000	19.995	103.184	20.181	6.090	0.509
374.000	265.129	80.002	19.995	103.185	20.181	6.087	0.461
374.500	265.404	80.000	19.996	103.183	20.183	5.955	0.489
375.000	265.663	80.002	19.995	103.183	20.179	6.224	0.533
375.500	265.869	80.003	19.995	103.183	20.180	6.118	0.500
376.000	266.113	80.002	19.996	103.183	20.179	6.206	0.458
376.500	266.317	80.001	19.995	103.182	20.180	6.118	0.449
377.000	266.575	80.002	19.995	103.185	20.180	6.137	0.455
377.500	266.857	80.002	19.994	103.185	20.178	6.231	0.501
378.000	267.066	80.001	19.995	103.185	20.177	6.343	0.516
378.500	267.313	80.001	19.995	103.183	20.177	6.354	0.473
379.000	267.573	80.002	19.995	103.183	20.178	6.280	0.481
379.500	267.823	80.001	19.994	103.182	20.179	6.164	0.509
380.000	268.056	80.002	19.995	103.181	20.177	6.318	0.497
380.500	268.310	80.003	19.996	103.181	20.180	6.119	0.485
381.000	268.559	80.001	19.995	103.183	20.179	6.199	0.495
381.500	268.783	80.001	19.995	103.182	20.182	6.015	0.488
382.000	269.016	80.001	19.995	103.183	20.177	6.309	0.465
382.500	269.224	80.002	19.995	103.183	20.177	6.314	0.449
383.000	269.515	80.001	19.994	103.183	20.176	6.403	0.470
383.500	269.749	80.003	19.994	103.183	20.174	6.493	0.512
384.000	269.995	80.002	19.995	103.185	20.175	6.444	0.503
384.500	270.236	80.001	19.995	103.185	20.179	6.191	0.483
385.000	270.498	80.001	19.995	103.185	20.178	6.258	0.495
385.500	270.745	80.002	19.995	103.186	20.177	6.306	0.506
386.000	271.008	80.002	19.994	103.187	20.178	6.279	0.510
386.500	271.219	80.001	19.995	103.187	20.178	6.233	0.492
387.000	271.508	80.001	19.995	103.187	20.181	6.083	0.487
387.500	271.764	80.001	19.994	103.186	20.179	6.179	0.522
388.000	271.962	80.001	19.995	103.186	20.179	6.204	0.500
388.500	272.251	80.002	19.994	103.186	20.176	6.405	0.471
389.000	272.468	80.002	19.995	103.185	20.179	6.184	0.496
389.500	272.746	80.002	19.994	103.185	20.178	6.239	0.500
390.000	272.969	80.001	19.995	103.182	20.179	6.165	0.498
390.500	273.230	80.002	19.996	103.182	20.179	6.173	0.493
391.000	273.453	80.002	19.995	103.182	20.178	6.271	0.484
391.500	273.657	80.002	19.995	103.182	20.178	6.280	0.456
392.000	273.979	80.002	19.995	103.183	20.178	6.275	0.476
392.500	274.179	80.001	19.995	103.186	20.179	6.216	0.523
393.000	274.429	80.001	19.994	103.187	20.181	6.094	0.485
393.500	274.693	80.002	19.994	103.187	20.176	6.370	0.482
394.000	274.944	80.001	19.995	103.187	20.177	6.295	0.515
394.500	275.196	80.002	19.995	103.186	20.178	6.249	0.509
395.000	275.424	80.001	19.995	103.183	20.176	6.379	0.492
395.500	275.681	80.002	19.995	103.179	20.175	6.463	0.483
396.000	275.944	80.002	19.995	103.177	20.173	6.557	0.503
396.500	276.149	80.001	19.994	103.176	20.176	6.373	0.494
397.000	276.425	80.000	19.994	103.178	20.177	6.346	0.474
397.500	276.612	80.001	19.994	103.181	20.178	6.245	0.472
398.000	276.874	80.001	19.995	103.186	20.177	6.337	0.457
398.500	277.151	80.001	19.995	103.188	20.175	6.424	0.494
399.000	277.406	80.002	19.995	103.190	20.174	6.506	0.535
399.500	277.646	79.999	19.994	103.189	20.174	6.543	0.513
400.000	277.880	80.000	19.994	103.188	20.174	6.500	0.484
400.500	278.145	80.002	19.994	103.187	20.172	6.637	0.486
401.000	278.391	80.001	19.994	103.187	20.175	6.480	0.505
401.500	278.662	80.001	19.995	103.185	20.171	6.709	0.514
402.000	278.886	80.002	19.995	103.184	20.176	6.359	0.506
402.500	279.119	80.001	19.994	103.185	20.173	6.613	0.476
403.000	279.358	80.001	19.994	103.185	20.174	6.535	0.465
403.500	279.639	80.001	19.994	103.180	20.171	6.707	0.496
404.000	279.868	80.001	19.994	103.179	20.174	6.494	0.515
404.500	280.116	80.001	19.995	103.175	20.172	6.669	0.493
405.000	280.356	80.000	19.995	103.174	20.172	6.622	0.482
405.500	280.601	80.000	19.995	103.173	20.177	6.296	0.487
406.000	280.828	80.000	19.995	103.176	20.176	6.388	0.479
406.500	281.093	80.001	19.995	103.176	20.173	6.579	0.482
407.000	281.372	80.001	19.993	103.175	20.172	6.673	0.518
407.500	281.623	80.001	19.994	103.175	20.175	6.465	0.537
408.000	281.836	80.000	19.995	103.177	20.172	6.650	0.497
408.500	282.090	79.999	19.995	103.178	20.173	6.581	0.465
409.000	282.322	80.000	19.995	103.182	20.173	6.619	0.477
409.500	282.590	80.001	19.995	103.188	20.173	6.557	0.493
410.000	282.826	79.999	19.995	103.188	20.172	6.640	0.502
410.500	283.065	80.000	19.995	103.187	20.176	6.405	0.489
411.000	283.382	80.000	19.995	103.183	20.174	6.495	0.515
411.500	283.615	80.001	19.995	103.182	20.176	6.391	0.553
412.000	283.835	80.001	19.995	103.181	20.172	6.660	0.502
412.500	284.074	80.001	19.995	103.178	20.173	6.557	0.456
413.000	284.362	80.002	19.995	103.173	20.171	6.728	0.493
413.500	284.575	80.000	19.995	103.175	20.171	6.703	0.514
414.000	284.775	79.999	19.994	103.175	20.174	6.534	0.457
414.500	285.057	80.001	19.995	103.175	20.172	6.671	0.447
415.000	285.303	80.001	19.995	103.179	20.171	6.746	0.505
415.500	285.559	80.002	19.995	103.182	20.175	6.477	0.515
416.000	285.831	80.002	19.996	103.179	20.172	6.661	0.515
416.500	286.062	80.001	19.995	103.177	20.171	6.744	0.516
417.000	286.313	80.001	19.995	103.177	20.171	6.685	0.493
417.500	286.567	80.002	19.996	103.174	20.171	6.737	0.493
418.000	286.808	80.002	19.995	103.177	20.170	6.759	0.499
418.500	287.046	80.002	19.995	103.181	20.174	6.492	0.487
419.000	287.317	80.001	19.996	103.183	20.170	6.762	0.494
419.500	287.627	80.002	19.995	103.184	20.172	6.632	0.545
420.000	287.847	80.002	19.994	103.181	20.172	6.630	0.556
420.500	288.106	80.000	19.995	103.175	20.170	6.751	0.505
421.000	288.321	80.001	19.994	103.170	20.170	6.753	0.477
421.500	288.571	80.002	19.996	103.170	20.170	6.760	0.469
422.000	288.810	80.002	19.995	103.166	20.172	6.666	0.477
422.500	289.094	80.003	19.995	103.168	20.168	6.919	0.506
423.000	289.329	80.002	19.995	103.172	20.166	7.032	0.521
423.500	289.605	80.002	19.996	103.174	20.167	6.973	0.515
424.000	289.846	80.003	19.995	103.173	20.166	7.029	0.514
424.500	290.060	80.001	19.995	103.176	20.169	6.834	0.486
425.000	290.328	80.002	19.996	103.175	20.171	6.719	0.468
425.500	290.590	80.002	19.996	103.171	20.170	6.777	0.506
426.000	290.857	80.002	19.996	103.170	20.169	6.840	0.529
426.500	291.095	80.001	19.996	103.169	20.168	6.880	0.517
427.000	291.337	80.002	19.996	103.169	20.170	6.800	0.492
427.500	291.619	80.003	19.995	103.166	20.167	6.988	0.502
428.000	291.866	80.001	19.995	103.167	20.166	7.038	0.527
428.500	292.118	80.001	19.996	103.168	20.170	6.794	0.514
429.000	292.372	80.002	19.995	103.168	20.168	6.904	0.503
429.500	292.616	80.002	19.994	103.169	20.168	6.880	0.502
430.000	292.830	80.001	19.996	103.170	20.167	6.976	0.478
430.500	293.074	80.002	19.996	103.168	20.166	7.057	0.458
431.000	293.326	80.001	19.995	103.164	20.167	6.973	0.477
431.500	293.617	80.003	19.997	103.163	20.166	7.018	0.519
432.000	293.822	80.002	19.995	103.161	20.167	6.980	0.520
432.500	294.101	80.002	19.995	103.162	20.166	7.067	0.490
433.000	294.372	80.003	19.995	103.163	20.168	6.899	0.517
433.500	294.616	80.001	19.994	103.162	20.167	6.961	0.532
434.000	294.847	80.003	19.996	103.161	20.168	6.910	0.495
434.500	295.107	80.003	19.995	103.161	20.167	6.948	0.483
435.000	295.370	80.003	19.995	103.163	20.164	7.166	0.508
435.500	295.602	80.002	19.995	103.165	20.168	6.926	0.509
436.000	295.873	80.002	19.996	103.167	20.168	6.882	0.499
436.500	296.091	80.003	19.995	103.170	20.168	6.906	0.496
437.000	296.329	80.002	19.995	103.171	20.166	7.064	0.472
437.500	296.595	80.002	19.995	103.170	20.166	7.032	0.480
438.000	296.869	80.002	19.996	103.167	20.167	6.978	0.522
438.500	297.104	80.003	19.995	103.165	20.170	6.787	0.524
439.000	297.377	80.002	19.994	103.159	20.166	7.036	0.508
439.500	297.612	80.004	19.994	103.153	20.168	6.917	0.508
440.000	297.886	80.002	19.995	103.151	20.169	6.863	0.508
440.500	298.132	80.003	19.995	103.154	20.165	7.132	0.514
441.000	298.398	80.004	19.994	103.155	20.167	6.961	0.516
441.500	298.611	80.003	19.996	103.157	20.164	7.156	0.496
442.000	298.849	80.005	19.995	103.159	20.162	7.309	0.465
442.500	299.133	80.003	19.996	103.163	20.164	7.150	0.487
443.000	299.368	80.004	19.995	103.164	20.166	7.074	0.521
443.500	299.603	80.004	19.996	103.167	20.165	7.079	0.494
444.000	299.843	80.004	19.996	103.169	20.163	7.262	0.472
444.500	300.120	80.003	19.997	103.170	20.166	7.063	0.496
445.000	300.363	80.003	19.995	103.168	20.166	7.041	0.519
445.500	300.608	80.004	19.996	103.167	20.164	7.166	0.504
446.000	300.871	80.004	19.995	103.163	20.169	6.865	0.498
446.500	301.095	80.003	19.995	103.159	20.166	7.029	0.497
447.000	301.362	80.003	19.995	103.154	20.165	7.137	0.489
447.500	301.611	80.003	19.996	103.153	20.166	7.023	0.504
448.000	301.855	80.003	19.997	103.149	20.166	7.030	0.504
448.500	302.120	80.002	19.996	103.150	20.167	7.003	0.501
449.000	302.364	80.003	19.996	103.151	20.166	7.054	0.509
449.500	302.622	80.002	19.996	103.155	20.165	7.113	0.506
450.000	302.869	80.003	19.996	103.159	20.166	7.023	0.503
450.500	303.130	80.003	19.996	103.163	20.168	6.931	0.506
451.000	303.393	80.002	19.996	103.163	20.166	7.072	0.516
451.500	303.656	80.001	19.995	103.163	20.166	7.037	0.525
452.000	303.874	80.001	19.996	103.166	20.166	7.025	0.504
452.500	304.132	80.001	19.996	103.169	20.169	6.865	0.478
453.000	304.404	80.001	19.996	103.165	20.170	6.766	0.503
453.500	304.618	80.001	19.997	103.163	20.165	7.123	0.508
454.000	304.864	80.002	19.996	103.161	20.168	6.922	0.473
454.500	305.145	80.000	19.996	103.154	20.167	6.991	0.493
455.000	305.372	80.001	19.996	103.149	20.166	7.029	0.517
455.500	305.623	80.000	19.996	103.154	20.169	6.877	0.493
456.000	305.866	80.002	19.996	103.156	20.169	6.874	0.486
456.500	306.132	80.000	19.996	103.157	20.167	6.969	0.501
457.000	306.382	80.002	19.996	103.159	20.172	6.657	0.513
457.500	306.640	80.000	19.995	103.161	20.164	7.167	0.512
458.000	306.869	80.001	19.995	103.158	20.168	6.898	0.497
458.500	307.154	80.001	19.996	103.158	20.167	6.958	0.500
459.000	307.408	80.002	19.996	103.157	20.170	6.803	0.526
459.500	307.675	80.001	19.995	103.156	20.166	7.029	0.530
460.000	307.871	80.000	19.995	103.155	20.171	6.747	0.493
460.500	308.115	80.001	19.995	103.153	20.168	6.903	0.452
461.000	308.404	80.001	19.995	103.153	20.168	6.886	0.486
461.500	308.652	80.001	19.995	103.154	20.173	6.567	0.535
462.000	308.889	80.000	19.994	103.155	20.170	6.812	0.511
462.500	309.138	80.001	19.994	103.156	20.171	6.707	0.485
463.000	309.386	80.001	19.995	103.161	20.169	6.837	0.491
463.500	309.624	80.001	19.995	103.164	20.167	6.980	0.492
464.000	309.895	80.000	19.994	103.163	20.169	6.828	0.498
464.500	310.149	80.001	19.994	103.162	20.169	6.846	0.517
465.000	310.395	80.001	19.995	103.159	20.168	6.904	0.513
465.500	310.651	80.000	19.994	103.157	20.171	6.725	0.501
466.000	310.913	80.001	19.994	103.158	20.169	6.873	0.510
466.500	311.167	80.002	19.995	103.159	20.168	6.902	0.516
467.000	311.431	80.002	19.995	103.159	20.170	6.788	0.517
467.500	311.640	80.001	19.994	103.159	20.170	6.774	0.495
468.000	311.934	80.002	19.994	103.156	20.170	6.804	0.488
468.500	312.181	80.002	19.995	103.154	20.169	6.877	0.522
469.000	312.433	80.002	19.995	103.153	20.171	6.691	0.520
469.500	312.697	80.002	19.995	103.157	20.171	6.734	0.507
470.000	312.940	80.002	19.994	103.159	20.168	6.931	0.511
470.500	313.178	80.001	19.995	103.161	20.168	6.900	0.494
471.000	313.461	80.002	19.996	103.160	20.169	6.849	0.501
471.500	313.668	80.002	19.995	103.161	20.168	6.936	0.506
472.000	313.975	80.001	19.995	103.157	20.167	6.981	0.502
472.500	314.181	80.002	19.995	103.154	20.166	7.019	0.513
473.000	314.460	80.002	19.995	103.153	20.171	6.729	0.499
473.500	314.709	80.001	19.995	103.154	20.168	6.891	0.506
474.000	314.915	80.002	19.995	103.153	20.169	6.857	0.492
474.500	315.178	80.001	19.997	103.158	20.170	6.774	0.462
475.000	315.456	80.001	19.994	103.158	20.166	7.034	0.505
475.500	315.695	80.001	19.995	103.159	20.169	6.864	0.529
476.000	315.920	80.001	19.994	103.158	20.167	6.956	0.490
476.500	316.203	80.001	19.995	103.156	20.169	6.843	0.485
477.000	316.438	80.001	19.995	103.152	20.170	6.805	0.513
477.500	316.678	80.001	19.994	103.152	20.171	6.745	0.497
478.000	316.926	80.001	19.994	103.151	20.171	6.689	0.482
478.500	317.155	80.000	19.995	103.150	20.170	6.754	0.482
479.000	317.436	80.001	19.996	103.151	20.172	6.680	0.494
479.500	317.702	80.001	19.995	103.151	20.170	6.772	0.529
480.000	317.938	80.001	19.994	103.151	20.167	6.958	0.524
480.500	318.161	80.001	19.994	103.151	20.168	6.879	0.480
481.000	318.394	80.001	19.994	103.149	20.168	6.936	0.457
481.500	318.710	80.000	19.994	103.149	20.168	6.938	0.502
482.000	318.949	80.000	19.994	103.149	20.164	7.174	0.552
482.500	319.173	80.000	19.995	103.150	20.167	6.987	0.509
483.000	319.414	80.001	19.995	103.150	20.169	6.870	0.464
483.500	319.665	80.000	19.995	103.153	20.166	7.038	0.478
484.000	319.884	79.999	19.994	103.153	20.168	6.933	0.481
484.500	320.159	79.999	19.994	103.153	20.169	6.834	0.483
485.000	320.388	80.000	19.994	103.153	20.166	7.065	0.499
485.500	320.634	80.001	19.995	103.153	20.166	7.014	0.489
486.000	320.902	80.001	19.995	103.152	20.168	6.918	0.495
486.500	321.157	80.001	19.996	103.152	20.166	7.041	0.518
487.000	321.403	80.001	19.994	103.152	20.167	6.958	0.511
487.500	321.668	80.002	19.995	103.154	20.165	7.091	0.506
488.000	321.897	80.000	19.995	103.154	20.169	6.870	0.503
488.500	322.152	80.000	19.996	103.154	20.165	7.098	0.490
489.000	322.363	80.001	19.995	103.154	20.166	7.046	0.475
489.500	322.646	80.001	19.995	103.153	20.167	6.954	0.480
490.000	322.887	80.001	19.995	103.155	20.165	7.077	0.509
490.500	323.151	80.000	19.995	103.154	20.167	7.000	0.515
491.000	323.385	80.000	19.995	103.157	20.165	7.097	0.502
491.500	323.654	80.001	19.995	103.156	20.167	6.944	0.500
492.000	323.901	80.001	19.995	103.156	20.165	7.095	0.509
492.500	324.167	80.002	19.995	103.153	20.167	6.985	0.515
493.000	324.398	80.001	19.994	103.153	20.164	7.154	0.505
493.500	324.627	80.002	19.995	103.154	20.168	6.905	0.478
494.000	324.887	80.001	19.996	103.156	20.167	7.003	0.475
494.500	325.102	80.003	19.996	103.161	20.167	6.999	0.482
495.000	325.403	80.002	19.995	103.163	20.167	6.947	0.495
495.500	325.583	80.002	19.995	103.162	20.166	7.051	0.498
496.000	325.846	80.001	19.995	103.160	20.165	7.095	0.462
496.500	326.099	80.003	19.995	103.159	20.166	7.023	0.480
497.000	326.405	80.002	19.995	103.157	20.165	7.119	0.537
497.500	326.633	80.004	19.995	103.155	20.168	6.900	0.547
498.000	326.878	80.004	19.995	103.154	20.167	6.978	0.504
498.500	327.113	80.004	19.995	103.155	20.170	6.783	0.476
499.000	327.392	80.004	19.994	103.154	20.167	6.987	0.497
499.500	327.627	80.002	19.995	103.151	20.166	7.046	0.514
500.000	327.900	80.003	19.995	103.151	20.169	6.868	0.511
500.500	328.120	80.003	19.995	103.154	20.167	6.965	0.501
501.000	328.403	80.003	19.994	103.157	20.168	6.907	0.498
501.500	328.646	80.003	19.995	103.158	20.168	6.914	0.514
502.000	328.905	80.003	19.995	103.161	20.166	7.067	0.513
502.500	329.151	80.003	19.995	103.162	20.165	7.105	0.503
503.000	329.447	80.003	19.994	103.158	20.165	7.093	0.524
503.500	329.662	80.004	19.995	103.153	20.164	7.149	0.527
504.000	329.902	80.003	19.995	103.151	20.167	6.988	0.483
504.500	330.192	80.003	19.995	103.148	20.166	7.046	0.492
505.000	330.449	80.004	19.995	103.148	20.164	7.187	0.538
505.500	330.705	80.003	19.995	103.148	20.168	6.905	0.530
506.000	330.957	80.003	19.995	103.149	20.164	7.203	0.511
506.500	331.212	80.002	19.995	103.150	20.165	7.104	0.508
507.000	331.468	80.003	19.995	103.151	20.163	7.221	0.509
507.500	331.718	80.002	19.995	103.156	20.167	6.988	0.509
508.000	331.961	80.001	19.995	103.157	20.169	6.873	0.500
508.500	332.235	80.002	19.996	103.156	20.164	7.149	0.505
509.000	332.491	80.002	19.996	103.156	20.166	7.033	0.523
509.500	332.773	80.003	19.995	103.156	20.166	7.042	0.534
510.000	333.050	80.001	19.996	103.152	20.165	7.122	0.548
510.500	333.296	80.002	19.996	103.152	20.164	7.183	0.541
511.000	333.522	80.003	19.995	103.151	20.163	7.228	0.498
511.500	333.821	80.003	19.995	103.151	20.162	7.284	0.498
512.000	334.090	80.003	19.995	103.150	20.168	6.907	0.547
512.500	334.367	80.002	19.996	103.147	20.166	7.055	0.557
513.000	334.572	80.002	19.996	103.146	20.162	7.313	0.514
513.500	334.850	80.004	19.996	103.146	20.165	7.114	0.482
514.000	335.118	80.003	19.996	103.146	20.164	7.172	0.515
514.500	335.352	80.001	19.996	103.146	20.167	7.001	0.524
515.000	335.623	80.003	19.997	103.146	20.164	7.176	0.504
515.500	335.885	80.001	19.995	103.146	20.167	6.994	0.519
516.000	336.138	80.002	19.996	103.147	20.165	7.113	0.524
516.500	336.396	80.001	19.996	103.146	20.164	7.192	0.513
517.000	336.630	80.002	19.996	103.147	20.165	7.125	0.502
517.500	336.891	80.002	19.996	103.147	20.165	7.080	0.494
518.000	337.184	80.002	19.995	103.146	20.165	7.084	0.525
518.500	337.387	80.002	19.996	103.146	20.164	7.163	0.525
519.000	337.651	80.004	19.996	103.146	20.165	7.079	0.481
519.500	337.930	80.002	19.995	103.147	20.165	7.138	0.505
520.000	338.210	80.003	19.995	103.147	20.169	6.869	0.551
520.500	338.427	80.003	19.995	103.148	20.169	6.866	0.528
521.000	338.702	80.002	19.995	103.149	20.168	6.893	0.495
521.500	338.962	80.004	19.995	103.149	20.165	7.113	0.513
522.000	339.214	80.003	19.994	103.149	20.165	7.091	0.523
522.500	339.476	80.004	19.996	103.148	20.164	7.154	0.513
523.000	339.730	80.004	19.995	103.147	20.167	6.965	0.515
523.500	339.999	80.004	19.995	103.147	20.166	7.062	0.519
524.000	340.242	80.002	19.995	103.148	20.166	7.073	0.518
524.500	340.483	80.004	19.994	103.148	20.167	7.005	0.498
525.000	340.783	80.004	19.994	103.148	20.162	7.275	0.512
525.500	340.999	80.004	19.995	103.148	20.168	6.915	0.528
526.000	341.267	80.005	19.995	103.149	20.167	6.943	0.500
526.500	341.535	80.004	19.995	103.149	20.166	7.008	0.510
527.000	341.739	80.003	19.994	103.149	20.166	7.071	0.504
527.500	342.027	80.004	19.996	103.149	20.170	6.788	0.482
528.000	342.312	80.003	19.995	103.149	20.166	7.044	0.533
528.500	342.546	80.002	19.995	103.148	20.167	7.003	0.546
529.000	342.795	80.003	19.994	103.148	20.165	7.104	0.501
529.500	343.065	80.003	19.995	103.150	20.166	7.026	0.501
530.000	343.305	80.003	19.995	103.151	20.166	7.040	0.514
530.500	343.538	80.003	19.995	103.152	20.163	7.242	0.492
531.000	343.799	80.003	19.995	103.152	20.162	7.269	0.484
531.500	344.052	80.002	19.995	103.153	20.164	7.143	0.504
532.000	344.315	80.003	19.994	103.152	20.165	7.108	0.515
532.500	344.538	80.002	19.995	103.151	20.164	7.182	0.501
533.000	344.830	80.001	19.996	103.151	20.165	7.127	0.500
533.500	345.102	80.001	19.994	103.151	20.162	7.274	0.540
534.000	345.353	80.001	19.995	103.150	20.164	7.160	0.544
534.500	345.572	80.001	19.996	103.150	20.165	7.135	0.497
535.000	345.820	80.001	19.995	103.150	20.163	7.233	0.468
535.500	346.090	80.002	19.995	103.152	20.166	7.060	0.492
536.000	346.357	80.001	19.995	103.152	20.162	7.316	0.528
536.500	346.571	80.001	19.995	103.152	20.162	7.291	0.509
537.000	346.876	80.001	19.995	103.152	20.163	7.246	0.500
537.500	347.141	80.001	19.996	103.152	20.165	7.075	0.544
538.000	347.351	80.001	19.996	103.150	20.162	7.270	0.522
538.500	347.627	80.001	19.996	103.149	20.165	7.097	0.480
539.000	347.873	80.000	19.994	103.149	20.166	7.043	0.505
539.500	348.151	80.000	19.996	103.150	20.163	7.248	0.523
540.000	348.401	80.000	19.995	103.150	20.163	7.244	0.526
540.500	348.639	80.000	19.996	103.148	20.160	7.455	0.508
541.000	348.870	80.000	19.997	103.147	20.164	7.183	0.479
541.500	349.149	79.999	19.996	103.141	20.160	7.430	0.489
542.000	349.394	80.000	19.997	103.141	20.162	7.293	0.517
542.500	349.620	80.001	19.996	103.140	20.160	7.423	0.498
543.000	349.890	80.000	19.995	103.139	20.159	7.498	0.484
543.500	350.137	80.001	19.997	103.138	20.159	7.471	0.506
544.000	350.379	80.000	19.995	103.140	20.159	7.486	0.503
544.500	350.607	80.000	19.996	103.135	20.158	7.567	0.480
545.000	350.890	80.000	19.996	103.132	20.161	7.370	0.491
545.500	351.109	79.999	19.996	103.134	20.160	7.451	0.506
546.000	351.363	80.000	19.996	103.135	20.161	7.338	0.487
546.500	351.612	80.000	19.996	103.139	20.160	7.437	0.488
547.000	351.873	80.000	19.996	103.145	20.162	7.333	0.507
547.500	352.137	80.001	19.995	103.149	20.159	7.482	0.518
548.000	352.354	80.001	19.997	103.149	20.158	7.556	0.503
548.500	352.596	80.002	19.996	103.150	20.158	7.587	0.470
549.000	352.855	80.001	19.996	103.151	20.159	7.524	0.480
549.500	353.125	80.000	19.995	103.151	20.158	7.553	0.514
550.000	353.369	80.000	19.996	103.151	20.160	7.403	0.522
550.500	353.586	80.001	19.996	103.150	20.159	7.506	0.488
551.000	353.836	80.002	19.995	103.149	20.157	7.628	0.464
551.500	354.094	80.002	19.995	103.147	20.156	7.711	0.487
552.000	354.388	80.001	19.996	103.146	20.159	7.511	0.530
552.500	354.611	80.003	19.996	103.143	20.161	7.388	0.534
553.000	354.814	80.003	19.996	103.144	20.157	7.601	0.471
553.500	355.060	80.002	19.995	103.144	20.157	7.601	0.438
554.000	355.307	80.002	19.995	103.142	20.159	7.472	0.471
554.500	355.579	80.003	19.995	103.143	20.158	7.581	0.506
555.000	355.829	80.001	19.997	103.144	20.157	7.604	0.521
555.500	355.994	80.002	19.995	103.142	20.157	7.638	0.469
556.000	356.294	80.001	19.995	103.141	20.156	7.703	0.440
556.500	356.527	80.002	19.996	103.143	20.158	7.541	0.499
557.000	356.773	80.002	19.995	103.143	20.157	7.633	0.506
557.500	356.969	80.002	19.995	103.144	20.158	7.594	0.460
558.000	357.252	80.002	19.995	103.146	20.157	7.621	0.461
558.500	357.501	80.002	19.995	103.147	20.153	7.875	0.506
559.000	357.707	80.002	19.995	103.147	20.153	7.872	0.494
559.500	357.971	80.002	19.995	103.147	20.153	7.891	0.462
560.000	358.208	80.001	19.995	103.147	20.156	7.690	0.486
560.500	358.507	80.002	19.994	103.146	20.150	8.083	0.519
561.000	358.710	80.001	19.996	103.145	20.154	7.832	0.519
561.500	358.928	80.002	19.995	103.145	20.150	8.093	0.461
562.000	359.179	80.002	19.994	103.142	20.152	7.946	0.445
562.500	359.456	80.001	19.994	103.140	20.149	8.149	0.499
563.000	359.670	80.002	19.996	103.141	20.154	7.828	0.509
563.500	359.880	80.001	19.995	103.142	20.154	7.808	0.457
564.000	360.123	80.002	19.995	103.143	20.144	8.462	0.438
564.500	360.367	80.001	19.996	103.145	20.143	8.545	0.471
565.000	360.590	80.000	19.994	103.148	20.140	8.717	0.477
565.500	360.936	80.001	19.996	103.144	20.144	8.495	0.518
566.000	361.088	80.001	19.996	103.139	20.155	7.761	0.533
566.500	361.389	80.000	19.995	103.136	20.147	8.295	0.475
567.000	361.598	80.001	19.995	103.136	20.142	8.575	0.482
567.500	361.804	80.001	19.996	103.136	20.149	8.144	0.463
568.000	362.127	80.001	19.996	103.138	20.143	8.541	0.472
568.500	362.303	80.002	19.995	103.140	20.146	8.351	0.514
569.000	362.615	79.999	19.995	103.142	20.143	8.535	0.494
569.500	362.862	80.001	19.995	103.142	20.145	8.411	0.524
570.000	363.010	80.000	19.995	103.143	20.141	8.654	0.477
570.500	363.335	80.000	19.995	103.145	20.140	8.730	0.434
571.000	363.577	80.000	19.996	103.148	20.142	8.595	0.520
571.500	363.775	80.001	19.995	103.149	20.145	8.404	0.504
572.000	364.069	80.001	19.995	103.146	20.139	8.811	0.466
572.500	364.232	80.001	19.995	103.145	20.143	8.539	0.474
573.000	364.452	80.001	19.995	103.145	20.137	8.936	0.419
573.500	364.756	80.002	19.996	103.143	20.134	9.104	0.453
574.000	365.025	80.001	19.995	103.143	20.134	9.123	0.549
574.500	365.365	80.003	19.995	103.141	20.130	9.365	0.591
575.000	365.487	80.001	19.996	103.136	20.131	9.350	0.536
575.500	365.736	80.001	19.996	103.133	20.133	9.189	0.417
576.000	365.888	80.002	19.996	103.135	20.134	9.133	0.386
576.500	366.396	80.000	19.995	103.133	20.132	9.254	0.531
577.000	366.652	80.001	19.996	103.136	20.129	9.467	0.712
577.500	366.513	80.002	19.995	103.141	20.129	9.439	0.441
578.000	366.684	80.002	19.995	103.143	20.126	9.666	0.075
578.500	367.006	80.003	19.995	103.143	20.124	9.805	0.262
579.000	367.140	80.002	19.995	103.145	20.125	9.704	0.474
579.500	367.345	80.001	19.996	103.147	20.125	9.733	0.398
580.000	367.952	80.003	19.995	103.146	20.121	9.942	0.576
580.500	368.495	80.003	19.995	103.146	20.118	10.155	0.981
581.000	368.325	80.003	19.995	103.145	20.116	10.269	0.761
581.500	368.650	80.002	19.996	103.145	20.115	10.348	0.264
582.000	368.852	80.003	19.995	103.146	20.115	10.344	0.341
582.500	369.227	80.003	19.995	103.147	20.116	10.326	0.552
583.000	369.413	80.002	19.994	103.147	20.112	10.554	0.570
583.500	369.650	80.003	19.995	103.147	20.111	10.595	0.492
584.000	369.952	80.003	19.995	103.147	20.110	10.691	0.481
584.500	370.098	80.003	19.996	103.147	20.112	10.586	0.493
585.000	370.413	80.003	19.995	103.146	20.110	10.664	0.455
585.500	370.698	80.002	19.995	103.146	20.112	10.564	0.530
586.000	370.817	80.003	19.994	103.141	20.105	10.984	0.501
586.500	371.197	80.003	19.996	103.139	20.106	10.931	0.451
587.000	371.355	80.003	19.994	103.137	20.104	11.048	0.519
587.500	371.578	80.003	19.995	103.138	20.104	11.050	0.460
588.000	371.795	80.003	19.995	103.138	20.102	11.238	0.410
588.500	372.061	80.001	19.994	103.143	20.100	11.346	0.462
589.000	372.336	80.003	19.995	103.142	20.098	11.471	0.512
589.500	372.590	80.003	19.995	103.144	20.097	11.556	0.535
590.000	372.801	80.002	19.995	103.145	20.095	11.660	0.497
590.500	373.100	80.003	19.995	103.145	20.095	11.666	0.487
591.000	373.333	80.001	19.995	103.146	20.092	11.854	0.521
591.500	373.620	80.002	19.994	103.149	20.088	12.117	0.526
592.000	373.814	80.002	19.994	103.149	20.086	12.245	0.500
592.500	374.059	80.002	19.995	103.149	20.086	12.245	0.460
593.000	374.337	80.003	19.996	103.149	20.083	12.445	0.481
593.500	374.606	80.002	19.995	103.149	20.082	12.503	0.534
594.000	374.810	80.002	19.995	103.151	20.075	12.974	0.510
594.500	375.055	80.002	19.996	103.151	20.075	12.982	0.462
595.000	375.333	80.001	19.995	103.150	20.074	13.019	0.486
595.500	375.524	80.001	19.995	103.151	20.069	13.359	0.495
596.000	375.802	80.002	19.994	103.148	20.067	13.492	0.469
596.500	376.071	80.002	19.995	103.145	20.064	13.694	0.508
597.000	376.302	80.002	19.996	103.142	20.061	13.903	0.524
597.500	376.532	80.002	19.995	103.138	20.058	14.066	0.481
598.000	376.772	80.002	19.995	103.137	20.060	13.957	0.466
598.500	377.022	80.003	19.995	103.136	20.060	13.974	0.480
599.000	377.284	80.003	19.995	103.136	20.060	13.946	0.501
599.500	377.502	80.003	19.995	103.134	20.058	14.109	0.496
600.000	377.757	80.002	19.996	103.132	20.056	14.186	0.476
600.500	378.052	80.003	19.995	103.125	20.057	14.136	0.512
601.000	378.249	80.002	19.995	103.122	20.055	14.268	0.521
601.500	378.523	80.002	19.995	103.118	20.056	14.217	0.482
602.000	378.738	80.003	19.995	103.115	20.057	14.118	0.480
602.500	379.049	80.003	19.995	103.115	20.055	14.296	0.508
603.000	379.238	80.002	19.996	103.118	20.054	14.334	0.513
603.500	379.512	80.004	19.995	103.117	20.051	14.525	0.481
604.000	379.693	80.004	19.996	103.117	20.052	14.455	0.459
604.500	379.997	80.003	19.995	103.117	20.049	14.674	0.471
605.000	380.218	80.004	19.995	103.122	20.050	14.565	0.505
605.500	380.479	80.003	19.995	103.127	20.048	14.696	0.503
606.000	380.680	80.003	19.995	103.134	20.045	14.938	0.472
606.500	380.937	80.004	19.995	103.142	20.041	15.163	0.460
607.000	381.204	80.003	19.995	103.150	20.043	15.067	0.491
607.500	381.446	80.005	19.995	103.153	20.037	15.448	0.517
608.000	381.733	80.003	19.994	103.154	20.038	15.348	0.519
608.500	381.923	80.003	19.995	103.153	20.034	15.644	0.503
609.000	382.219	80.004	19.996	103.154	20.029	15.939	0.481
609.500	382.433	80.003	19.995	103.153	20.027	16.069	0.498
610.000	382.682	80.003	19.995	103.151	20.023	16.368	0.486
610.500	382.991	80.003	19.995	103.151	20.020	16.520	0.511
611.000	383.173	80.001	19.995	103.152	20.011	17.147	0.525
611.500	383.454	80.003	19.994	103.155	20.009	17.294	0.477
612.000	383.681	80.003	19.995	103.154	20.005	17.532	0.485
612.500	383.973	80.002	19.995	103.154	19.999	17.923	0.514
613.000	384.207	80.002	19.995	103.154	19.997	18.027	0.523
613.500	384.484	80.001	19.995	103.154	19.993	18.281	0.518
614.000	384.738	80.002	19.995	103.151	19.989	18.553	0.521
614.500	384.962	80.001	19.995	103.151	19.987	18.730	0.504
615.000	385.216	80.000	19.995	103.150	19.984	18.903	0.478
615.500	385.478	80.001	19.995	103.148	19.981	19.062	0.497
616.000	385.736	80.001	19.995	103.142	19.976	19.408	0.518
616.500	385.967	80.001	19.994	103.135	19.973	19.627	0.505
617.000	386.226	80.001	19.995	103.127	19.969	19.890	0.490
617.500	386.493	80.002	19.996	103.121	19.966	20.051	0.508
618.000	386.662	80.000	19.994	103.122	19.966	20.061	0.481
618.500	387.002	80.000	19.995	103.127	19.960	20.481	0.472
619.000	387.247	80.002	19.995	103.130	19.957	20.654	0.547
619.500	387.484	80.002	19.995	103.135	19.952	20.999	0.534
620.000	387.738	80.001	19.995	103.138	19.948	21.228	0.487
620.500	388.028	80.001	19.995	103.139	19.944	21.532	0.518
621.000	388.254	80.001	19.995	103.140	19.938	21.926	0.530
621.500	388.496	80.001	19.996	103.144	19.931	22.383	0.492
622.000	388.774	80.001	19.995	103.150	19.928	22.555	0.494
622.500	389.030	80.000	19.995	103.154	19.923	22.874	0.527
623.000	389.275	80.001	19.995	103.155	19.921	23.000	0.517
623.500	389.542	80.002	19.995	103.161	19.918	23.229	0.506
624.000	389.817	80.001	19.996	103.161	19.917	23.296	0.526
624.500	390.050	80.000	19.995	103.157	19.917	23.276	0.525
625.000	390.303	80.000	19.995	103.155	19.916	23.301	0.497
625.500	390.579	80.000	19.995	103.149	19.916	23.312	0.508
626.000	390.808	80.000	19.995	103.135	19.914	23.439	0.517
626.500	391.067	80.001	19.995	103.126	19.916	23.337	0.497
627.000	391.291	80.001	19.996	103.118	19.911	23.649	0.485
627.500	391.614	80.001	19.996	103.111	19.911	23.649	0.515
628.000	391.821	80.001	19.995	103.110	19.904	24.119	0.538
628.500	392.072	80.001	19.995	103.113	19.897	24.586	0.494
629.000	392.348	80.001	19.995	103.120	19.889	25.078	0.493
629.500	392.561	80.001	19.996	103.128	19.882	25.544	0.508
630.000	392.842	80.001	19.996	103.136	19.876	25.929	0.492
630.500	393.123	80.001	19.995	103.146	19.872	26.226	0.528
631.000	393.376	80.001	19.996	103.158	19.866	26.570	0.548
631.500	393.631	80.001	19.997	103.171	19.861	26.884	0.521
632.000	393.907	80.000	19.996	103.174	19.856	27.253	0.519
632.500	394.159	80.001	19.995	103.177	19.854	27.368	0.529
633.000	394.441	80.000	19.996	103.174	19.846	27.907	0.531
633.500	394.669	80.000	19.997	103.168	19.836	28.552	0.522
634.000	394.904	80.001	19.996	103.159	19.826	29.191	0.487
634.500	395.174	80.000	19.997	103.162	19.819	29.665	0.484
635.000	395.426	80.002	19.996	103.164	19.812	30.105	0.513
635.500	395.674	80.000	19.996	103.163	19.804	30.600	0.511
636.000	395.958	80.001	19.996	103.166	19.799	30.969	0.516
636.500	396.194	80.001	19.996	103.161	19.794	31.273	0.526
637.000	396.431	80.000	19.996	103.147	19.790	31.557	0.497
637.500	396.686	80.001	19.996	103.134	19.784	31.967	0.483
638.000	396.977	80.001	19.996	103.127	19.777	32.364	0.519
638.500	397.192	80.001	19.996	103.114	19.769	32.882	0.525
639.000	397.490	80.002	19.998	103.109	19.767	33.054	0.509
639.500	397.725	80.001	19.996	103.116	19.760	33.468	0.523
640.000	397.939	80.001	19.996	103.130	19.750	34.156	0.491
640.500	398.232	80.001	19.996	103.142	19.740	34.817	0.478
641.000	398.454	80.001	19.996	103.151	19.734	35.206	0.511
641.500	398.712	80.002	19.996	103.158	19.727	35.643	0.497
642.000	398.950	80.001	19.997	103.158	19.713	36.573	0.488
642.500	399.204	79.999	19.997	103.158	19.702	37.244	0.495
643.000	399.448	80.001	19.996	103.152	19.692	37.947	0.495
643.500	399.708	80.001	19.996	103.145	19.682	38.541	0.501
644.000	399.974	80.000	19.997	103.144	19.674	39.121	0.515
644.500	400.215	80.000	19.996	103.157	19.663	39.794	0.517
645.000	400.460	80.001	19.997	103.166	19.656	40.238	0.497
645.500	400.713	80.002	19.996	103.169	19.643	41.126	0.492
646.000	400.978	80.001	19.996	103.174	19.625	42.271	0.508
646.500	401.202	80.002	19.995	103.176	19.614	43.038	0.503
647.000	401.485	80.001	19.995	103.168	19.599	44.005	0.498
647.500	401.751	80.000	19.996	103.167	19.585	44.932	0.528
648.000	401.984	80.001	19.994	103.174	19.568	46.028	0.524
648.500	402.226	80.002	19.994	103.176	19.550	47.191	0.487
649.000	402.480	80.002	19.995	103.176	19.531	48.439	0.485
649.500	402.741	80.002	19.995	103.178	19.519	49.218	0.505
650.000	403.009	80.001	19.995	103.180	19.501	50.374	0.522
650.500	403.246	80.000	19.995	103.178	19.486	51.351	0.517
651.000	403.520	80.002	19.995	103.183	19.473	52.251	0.508
651.500	403.769	80.001	19.995	103.192	19.460	53.069	0.517
652.000	404.066	80.000	19.996	103.186	19.448	53.813	0.535
652.500	404.292	80.001	19.996	103.166	19.432	54.859	0.535
653.000	404.535	80.000	19.995	103.164	19.417	55.847	0.496
653.500	404.830	80.001	19.995	103.167	19.399	57.044	0.503
654.000	405.059	80.000	19.996	103.155	19.378	58.375	0.531
654.500	405.295	80.000	19.995	103.150	19.360	59.556	0.495
655.000	405.574	80.001	19.995	103.161	19.339	60.911	0.490
655.500	405.806	80.002	19.996	103.161	19.318	62.314	0.513
656.000	406.072	80.000	19.994	103.159	19.300	63.506	0.504
656.500	406.307	80.001	19.996	103.178	19.282	64.642	0.499
657.000	406.585	80.002	19.994	103.189	19.262	65.987	0.507
657.500	406.851	80.002	19.995	103.181	19.248	66.892	0.529
658.000	407.102	80.002	19.995	103.177	19.228	68.146	0.531
658.500	407.381	80.002	19.994	103.185	19.205	69.683	0.523
659.000	407.620	80.002	19.994	103.180	19.180	71.315	0.524
659.500	407.891	80.002	19.996	103.181	19.157	72.810	0.514
660.000	408.109	80.003	19.995	103.193	19.133	74.363	0.499
660.500	408.378	80.003	19.995	103.200	19.106	76.177	0.488
661.000	408.668	80.002	19.996	103.199	19.082	77.699	0.523
661.500	408.906	80.003	19.994	103.211	19.055	79.489	0.543
662.000	409.172	80.003	19.994	103.215	19.031	81.022	0.516
662.500	409.410	80.002	19.995	103.207	19.003	82.882	0.504
663.000	409.690	80.002	19.995	103.195	18.979	84.422	0.511
663.500	409.935	80.002	19.995	103.194	18.953	86.125	0.521
664.000	410.217	80.002	19.995	103.183	18.929	87.686	0.526
664.500	410.434	80.002	19.995	103.179	18.902	89.481	0.513
665.000	410.722	80.003	19.995	103.187	18.878	91.060	0.502
665.500	410.992	80.003	19.995	103.194	18.849	92.906	0.531
666.000	411.251	80.003	19.995	103.193	18.825	94.462	0.543
666.500	411.502	80.002	19.994	103.191	18.795	96.411	0.519
667.000	411.788	80.002	19.995	103.192	18.770	98.090	0.524
667.500	412.008	80.003	19.995	103.184	18.742	99.898	0.522
668.000	412.284	80.001	19.994	103.186	18.708	102.062	0.501
668.500	412.548	80.001	19.995	103.190	18.678	104.055	0.518
669.000	412.821	80.001	19.995	103.189	18.648	105.997	0.539
669.500	413.029	80.002	19.996	103.195	18.616	108.101	0.509
670.000	413.259	80.002	19.994	103.204	18.581	110.373	0.460
670.500	413.533	80.002	19.994	103.205	18.550	112.394	0.471
671.000	413.815	80.001	19.995	103.207	18.522	114.239	0.530
671.500	414.050	80.001	19.995	103.222	18.483	116.764	0.536
672.000	414.289	80.002	19.994	103.226	18.447	119.127	0.495
672.500	414.549	80.002	19.995	103.226	18.411	121.447	0.486
673.000	414.805	80.002	19.994	103.228	18.367	124.325	0.508
673.500	415.033	80.001	19.994	103.226	18.332	126.638	0.500
674.000	415.319	80.001	19.995	103.235	18.296	129.033	0.499
674.500	415.555	80.002	19.995	103.251	18.254	131.765	0.518
675.000	415.841	80.001	19.995	103.248	18.216	134.241	0.522
675.500	416.055	80.001	19.994	103.245	18.178	136.691	0.511
676.000	416.305	80.001	19.994	103.253	18.137	139.396	0.482
676.500	416.537	80.001	19.994	103.240	18.099	141.823	0.473
677.000	416.825	80.002	19.994	103.216	18.062	144.258	0.501
677.501	417.028	80.002	19.995	103.222	18.022	146.885	0.506
678.000	417.343	80.003	19.995	103.236	17.983	149.392	0.504
678.500	417.571	80.002	19.994	103.223	17.942	152.116	0.531
679.000	417.854	80.003	19.994	103.208	17.900	154.850	0.527
679.500	418.104	80.002	19.994	103.217	17.859	157.548	0.522
680.000	418.335	80.003	19.994	103.226	17.816	160.307	0.507
680.500	418.580	80.003	19.994	103.216	17.773	163.125	0.478
681.000	418.882	80.003	19.995	103.228	17.731	165.904	0.512
681.500	419.116	80.002	19.994	103.239	17.687	168.808	0.542
682.000	419.355	80.002	19.995	103.228	17.645	171.529	0.505
682.500	419.601	80.002	19.996	103.217	17.599	174.555	0.478
683.000	419.882	80.002	19.994	103.237	17.553	177.569	0.506
683.500	420.131	80.002	19.995	103.237	17.510	180.331	0.529
684.000	420.402	80.002	19.994	103.239	17.460	183.623	0.525
684.500	420.623	80.005	19.995	103.247	17.413	186.684	0.506
685.000	420.883	80.003	19.993	103.260	17.366	189.741	0.486
685.500	421.169	80.004	19.994	103.259	17.320	192.706	0.513
686.000	421.396	80.005	19.994	103.263	17.271	195.923	0.530
686.500	421.655	80.004	19.995	103.266	17.223	199.018	0.499
687.000	421.901	80.005	19.994	103.272	17.176	202.027	0.495
687.500	422.157	80.003	19.995	103.262	17.123	205.445	0.503
688.000	422.445	80.005	19.993	103.246	17.067	209.080	0.523
688.500	422.647	80.004	19.994	103.255	17.011	212.711	0.517
689.000	422.911	80.005	19.994	103.256	16.959	216.110	0.478
689.500	423.164	80.004	19.995	103.259	16.901	219.893	0.492
690.000	423.411	80.005	19.994	103.270	16.844	223.627	0.509
690.500	423.669	80.004	19.995	103.276	16.783	227.580	0.502
691.000	423.919	80.004	19.995	103.266	16.719	231.755	0.506
691.500	424.128	80.001	19.995	103.279	16.651	236.299	0.484
692.000	424.396	80.004	19.994	103.288	16.590	240.329	0.468
692.500	424.654	80.004	19.994	103.295	16.522	244.747	0.501
693.000	424.886	80.003	19.995	103.311	16.457	249.113	0.508
693.500	425.156	80.003	19.996	103.316	16.394	253.255	0.496
694.000	425.408	80.002	19.994	103.312	16.335	257.105	0.512
694.500	425.710	80.003	19.995	103.309	16.274	261.092	0.539
695.000	425.921	80.003	19.996	103.305	16.217	264.813	0.534
695.500	426.204	80.002	19.995	103.311	16.156	268.803	0.503
696.000	426.414	80.002	19.995	103.312	16.102	272.283	0.493
696.500	426.687	80.002	19.995	103.303	16.048	275.803	0.488
697.000	426.908	80.000	19.995	103.286	15.993	279.343	0.489
697.500	427.209	80.002	19.996	103.263	15.944	282.542	0.508
698.000	427.414	80.002	19.997	103.236	15.889	286.023	0.514
698.500	427.709	80.002	19.996	103.231	15.834	289.609	0.503
699.000	427.903	80.001	19.995	103.230	15.780	293.046	0.495
699.500	428.178	80.002	19.995	103.222	15.728	296.438	0.479
700.000	428.424	80.002	19.995	103.221	15.674	299.895	0.495
700.500	428.676	80.001	19.996	103.230	15.615	303.715	0.510
701.000	428.918	80.001	19.996	103.226	15.556	307.493	0.496
701.500	429.152	79.999	19.996	103.219	15.495	311.531	0.485
702.000	429.403	80.001	19.996	103.232	15.436	315.316	0.480
702.500	429.657	80.001	19.996	103.275	15.372	319.538	0.495
703.000	429.896	80.002	19.996	103.283	15.311	323.510	0.499
703.500	430.164	80.001	19.995	103.292	15.250	327.543	0.500
704.000	430.395	80.000	19.996	103.336	15.189	331.596	0.503
704.500	430.636	80.000	19.996	103.342	15.126	335.677	0.486
705.000	430.905	80.001	19.995	103.338	15.064	339.747	0.491
705.500	431.141	80.002	19.995	103.351	15.004	343.676	0.508
706.000	431.368	80.002	19.996	103.344	14.944	347.625	0.484
706.500	431.630	80.001	19.996	103.343	14.885	351.463	0.476
707.000	431.890	80.002	19.995	103.335	14.826	355.375	0.505
707.500	432.130	80.001	19.995	103.336	14.770	358.956	0.511
708.000	432.381	80.002	19.994	103.307	14.721	362.216	0.495
708.500	432.644	80.001	19.995	103.315	14.664	365.885	0.503
709.000	432.851	80.001	19.995	103.273	14.617	368.921	0.493
709.500	433.080	80.000	19.995	103.284	14.566	372.324	0.453
710.000	433.338	80.001	19.996	103.244	14.515	375.671	0.461
710.500	433.603	80.002	19.996	103.247	14.470	378.590	0.505
711.000	433.824	80.002	19.995	103.214	14.422	381.859	0.504
711.500	434.114	80.002	19.995	103.221	14.377	384.847	0.498
712.000	434.361	80.003	19.996	103.186	14.332	387.732	0.524
712.500	434.601	80.002	19.995	103.208	14.288	390.688	0.512
713.000	434.847	80.002	19.995	103.188	14.247	393.456	0.487
713.500	435.100	80.001	19.995	103.216	14.202	396.377	0.492
714.000	435.301	80.001	19.996	103.214	14.165	398.688	0.476
714.500	435.601	80.002	19.995	103.234	14.129	401.140	0.477
715.000	435.824	80.000	19.995	103.240	14.096	403.208	0.512
715.500	436.066	80.001	19.996	103.245	14.060	405.453	0.494
716.000	436.308	80.001	19.995	103.249	14.029	407.384	0.475
716.500	436.578	80.002	19.995	103.256	13.998	409.451	0.498
717.000	436.772	80.001	19.996	103.256	13.965	411.529	0.487
717.500	437.023	80.001	19.995	103.262	13.937	413.267	0.454
718.000	437.280	80.001	19.996	103.276	13.903	415.492	0.477
718.500	437.544	80.000	19.994	103.266	13.869	417.788	0.514
719.000	437.750	80.001	19.996	103.274	13.840	419.646	0.495
719.500	437.979	80.001	19.995	103.272	13.805	421.970	0.453
720.000	438.216	80.001	19.995	103.261	13.776	424.020	0.451
720.500	438.490	80.001	19.996	103.282	13.750	425.747	0.489
721.000	438.694	80.000	19.995	103.290	13.722	427.568	0.495
721.500	438.962	80.000	19.996	103.286	13.694	429.512	0.475
722.000	439.149	80.002	19.997	103.320	13.669	431.280	0.463
722.500	439.439	80.001	19.996	103.335	13.644	432.895	0.466
723.000	439.703	80.001	19.996	103.324	13.624	434.311	0.515
723.500	439.928	80.001	19.995	103.342	13.606	435.582	0.522
724.000	440.176	80.000	19.995	103.363	13.592	436.500	0.481
724.500	440.442	80.000	19.996	103.353	13.582	437.166	0.493
725.000	440.651	80.001	19.997	103.336	13.576	437.646	0.494
725.500	440.896	80.000	19.997	103.352	13.576	437.649	0.465
726.000	441.131	80.000	19.996	103.341	13.573	437.749	0.468
726.500	441.375	79.999	19.996	103.311	13.576	437.627	0.480
727.000	441.590	80.000	19.996	103.293	13.584	437.141	0.469
727.500	441.863	80.000	19.996	103.300	13.591	436.606	0.473
728.000	442.079	79.999	19.996	103.280	13.602	435.944	0.489
728.500	442.344	80.000	19.995	103.252	13.611	435.331	0.485
729.000	442.550	79.999	19.995	103.262	13.624	434.412	0.476
729.500	442.829	80.000	19.996	103.278	13.639	433.503	0.477
730.000	443.042	80.000	19.996	103.270	13.652	432.644	0.488
730.500	443.321	80.001	19.996	103.274	13.667	431.716	0.492
731.000	443.539	80.001	19.997	103.312	13.687	430.395	0.494
731.500	443.798	79.999	19.996	103.322	13.707	429.101	0.487
732.000	444.025	80.000	19.996	103.320	13.726	427.878	0.482
732.500	444.279	79.999	19.995	103.353	13.749	426.396	0.484
733.000	444.512	80.000	19.995	103.386	13.773	424.820	0.484
733.500	444.786	80.000	19.996	103.387	13.798	423.185	0.496
734.000	445.022	79.999	19.996	103.402	13.826	421.386	0.508
734.500	445.310	79.999	19.995	103.436	13.855	419.436	0.517
735.000	445.538	80.000	19.995	103.434	13.882	417.699	0.520
735.500	445.781	80.000	19.996	103.429	13.915	415.498	0.494
736.000	446.011	80.001	19.996	103.453	13.945	413.631	0.472
736.500	446.256	80.000	19.996	103.452	13.977	411.425	0.474
737.000	446.513	80.002	19.996	103.437	14.012	409.219	0.488
737.500	446.741	80.000	19.995	103.453	14.047	406.869	0.493
738.000	447.010	80.000	19.996	103.453	14.084	404.454	0.491
738.500	447.251	80.000	19.995	103.436	14.125	401.811	0.503
739.000	447.538	80.001	19.994	103.448	14.165	399.174	0.519
739.500	447.767	80.001	19.994	103.443	14.206	396.503	0.522
740.000	448.045	80.002	19.994	103.439	14.248	393.773	0.511
740.500	448.287	80.002	19.996	103.452	14.288	391.106	0.513
741.000	448.530	80.002	19.995	103.448	14.333	388.199	0.503
741.500	448.790	80.001	19.995	103.455	14.381	385.072	0.494
742.000	449.041	80.001	19.994	103.460	14.425	382.108	0.507
742.500	449.297	80.003	19.995	103.462	14.471	379.187	0.509
743.000	449.563	80.002	19.996	103.460	14.522	375.834	0.515
743.500	449.834	80.003	19.993	103.470	14.571	372.529	0.529
744.000	450.068	80.003	19.994	103.466	14.623	369.209	0.521
744.500	450.337	80.002	19.994	103.465	14.675	365.820	0.504
745.000	450.621	80.002	19.995	103.470	14.730	362.104	0.528
745.500	450.856	80.003	19.995	103.456	14.785	358.525	0.536
746.000	451.113	80.002	19.995	103.473	14.838	355.064	0.506
746.500	451.426	80.003	19.995	103.455	14.898	351.090	0.531
747.000	451.666	80.003	19.994	103.479	14.954	347.462	0.561
747.500	451.917	80.001	19.995	103.457	15.012	343.635	0.522
748.000	452.215	80.002	19.994	103.474	15.069	339.901	0.520
748.500	452.463	80.002	19.995	103.460	15.126	336.125	0.548
749.000	452.697	80.003	19.994	103.463	15.186	332.247	0.514
749.500	452.989	80.003	19.996	103.460	15.248	328.157	0.504
750.000	453.232	80.002	19.995	103.458	15.306	324.328	0.531
750.500	453.493	80.001	19.996	103.461	15.367	320.291	0.520
751.000	453.803	80.003	19.995	103.456	15.425	316.517	0.537
751.500	454.049	80.002	19.995	103.453	15.489	312.309	0.563
752.000	454.317	80.003	19.996	103.451	15.549	308.380	0.535
752.500	454.595	80.002	19.995	103.454	15.610	304.413	0.531
753.000	454.866	80.002	19.994	103.439	15.672	300.332	0.548
753.500	455.121	80.002	19.995	103.451	15.730	296.585	0.537
754.000	455.414	80.003	19.994	103.452	15.792	292.524	0.537
754.500	455.685	80.002	19.994	103.433	15.852	288.571	0.556
755.000	455.954	80.002	19.995	103.446	15.912	284.664	0.552
755.500	456.219	80.002	19.995	103.441	15.971	280.792	0.537
756.000	456.455	80.001	19.994	103.419	16.030	276.896	0.517
756.500	456.721	80.002	19.994	103.426	16.089	273.047	0.502
757.000	457.002	80.002	19.995	103.420	16.149	269.107	0.525
757.500	457.242	80.001	19.994	103.398	16.209	265.242	0.534
758.000	457.513	80.002	19.995	103.403	16.267	261.453	0.516
758.500	457.773	80.002	19.993	103.401	16.321	257.875	0.521
759.000	458.065	80.003	19.994	103.390	16.382	253.947	0.541
759.500	458.319	80.003	19.995	103.387	16.435	250.461	0.549
760.000	458.624	80.003	19.996	103.390	16.492	246.697	0.552
760.500	458.875	80.004	19.995	103.374	16.552	242.806	0.557
761.000	459.140	80.004	19.994	103.367	16.605	239.335	0.536
761.500	459.402	80.004	19.996	103.355	16.662	235.608	0.522
762.000	459.680	80.005	19.995	103.348	16.719	231.855	0.533
762.500	459.928	80.003	19.994	103.337	16.772	228.420	0.533
763.000	460.207	80.003	19.995	103.336	16.828	224.785	0.526
763.500	460.468	80.002	19.995	103.335	16.881	221.298	0.533
764.000	460.709	80.003	19.995	103.335	16.934	217.855	0.521
764.500	460.976	80.004	19.995	103.333	16.990	214.202	0.505
765.000	461.240	80.005	19.994	103.335	17.046	210.551	0.519
765.500	461.512	80.004	19.994	103.329	17.096	207.262	0.533
766.000	461.793	80.005	19.995	103.323	17.150	203.751	0.544
766.500	462.055	80.004	19.995	103.315	17.203	200.255	0.548
767.000	462.317	80.004	19.995	103.312	17.251	197.105	0.534
767.500	462.586	80.004	19.996	103.305	17.303	193.718	0.527
768.000	462.850	80.004	19.996	103.302	17.353	190.473	0.532
768.500	463.092	80.004	19.994	103.301	17.400	187.417	0.519
769.000	463.346	80.004	19.995	103.297	17.446	184.394	0.501
769.500	463.608	80.004	19.995	103.297	17.495	181.223	0.506
770.000	463.873	80.004	19.995	103.297	17.540	178.265	0.522
770.500	464.072	80.003	19.995	103.294	17.584	175.387	0.495
771.000	464.394	80.004	19.995	103.289	17.628	172.517	0.492
771.500	464.615	80.004	19.995	103.291	17.673	169.604	0.531
772.000	464.840	80.003	19.996	103.287	17.715	166.824	0.495
772.500	465.113	80.004	19.996	103.280	17.756	164.149	0.473
773.000	465.373	80.003	19.996	103.276	17.798	161.408	0.516
773.500	465.599	80.003	19.995	103.274	17.841	158.636	0.509
774.000	465.837	80.003	19.995	103.269	17.881	156.022	0.475
774.500	466.136	80.003	19.994	103.265	17.920	153.468	0.501
775.000	466.340	80.004	19.995	103.264	17.956	151.064	0.521
775.500	466.598	80.002	19.995	103.263	17.991	148.787	0.482
776.000	466.904	80.002	19.995	103.263	18.033	146.095	0.512
776.500	467.131	80.002	19.996	103.263	18.066	143.909	0.548
777.000	467.345	80.001	19.995	103.261	18.100	141.683	0.487
777.500	467.566	80.003	19.995	103.255	18.131	139.646	0.438
778.000	467.886	80.002	19.994	103.251	18.168	137.256	0.488
778.500	468.119	80.001	19.995	103.246	18.203	134.967	0.547
779.000	468.401	80.001	19.995	103.243	18.237	132.731	0.534
779.500	468.642	80.001	19.995	103.245	18.271	130.520	0.520
780.000	468.890	80.001	19.995	103.245	18.299	128.744	0.506
780.500	469.150	80.002	19.996	103.243	18.334	126.410	0.498
781.000	469.397	80.001	19.995	103.241	18.366	124.315	0.507
781.500	469.650	80.001	19.994	103.237	18.393	122.547	0.504
782.000	469.932	80.001	19.995	103.230	18.425	120.492	0.517
782.500	470.173	80.001	19.995	103.229	18.454	118.566	0.529
783.000	470.424	79.999	19.995	103.229	18.483	116.727	0.508
783.500	470.662	80.000	19.996	103.228	18.512	114.791	0.490
784.000	470.926	80.001	19.995	103.225	18.540	112.988	0.495
784.500	471.174	80.001	19.994	103.220	18.567	111.213	0.506
785.000	471.413	79.999	19.996	103.212	18.591	109.650	0.499
785.500	471.668	80.000	19.995	103.208	18.620	107.795	0.490
786.000	471.963	79.999	19.995	103.204	18.646	106.072	0.522
786.500	472.180	80.000	19.995	103.200	18.672	104.364	0.531
787.000	472.454	80.001	19.996	103.198	18.694	102.929	0.501
787.500	472.683	80.000	19.995	103.198	18.720	101.286	0.497
788.000	472.949	80.001	19.996	103.194	18.745	99.624	0.499
788.500	473.179	80.001	19.995	103.194	18.769	98.077	0.496
789.000	473.463	80.000	19.995	103.193	18.797	96.242	0.505
789.500	473.706	80.000	19.995	103.189	18.820	94.756	0.521
790.000	473.958	80.001	19.994	103.189	18.844	93.209	0.511
790.500	474.198	80.002	19.996	103.188	18.866	91.720	0.493
791.000	474.447	80.002	19.995	103.186	18.889	90.240	0.490
791.500	474.720	80.000	19.996	103.182	18.912	88.742	0.506
792.000	474.965	80.002	19.996	103.180	18.933	87.368	0.520
792.500	475.214	80.001	19.996	103.174	18.954	86.032	0.506
793.000	475.479	80.001	19.996	103.167	18.974	84.716	0.504
793.500	475.717	80.001	19.995	103.164	18.996	83.314	0.509
794.000	475.960	80.001	19.996	103.166	19.017	81.946	0.492
794.500	476.204	80.001	19.996	103.172	19.033	80.894	0.484
795.000	476.452	80.000	19.995	103.175	19.055	79.430	0.490
795.500	476.720	80.001	19.996	103.179	19.073	78.248	0.504
796.000	476.930	80.001	19.995	103.179	19.092	77.009	0.497
796.500	477.146	80.002	19.995	103.179	19.110	75.864	0.452
797.000	477.416	80.001	19.996	103.177	19.130	74.570	0.455
797.500	477.658	80.002	19.995	103.175	19.147	73.410	0.499
798.000	477.885	80.002	19.995	103.172	19.166	72.176	0.491
798.500	478.140	80.001	19.996	103.171	19.183	71.091	0.476
799.000	478.393	80.002	19.997	103.172	19.202	69.863	0.495
799.500	478.653	80.003	19.995	103.173	19.218	68.804	0.510
800.000	478.865	80.001	19.995	103.176	19.236	67.621	0.492
800.500	479.092	80.001	19.995	103.177	19.255	66.413	0.456
801.000	479.341	80.001	19.996	103.173	19.273	65.238	0.458
801.500	479.594	80.001	19.995	103.166	19.288	64.231	0.489
802.000	479.839	80.001	19.995	103.164	19.305	63.114	0.500
802.500	480.060	80.002	19.995	103.165	19.323	61.988	0.482
803.000	480.325	80.001	19.994	103.169	19.339	60.895	0.476
803.500	480.596	80.001	19.995	103.176	19.356	59.807	0.511
804.000	480.802	80.002	19.995	103.182	19.372	58.780	0.506
804.500	481.032	80.002	19.995	103.181	19.389	57.670	0.456
805.000	481.277	80.000	19.994	103.178	19.404	56.703	0.456
805.500	481.525	80.003	19.995	103.173	19.417	55.871	0.484
806.000	481.753	80.003	19.995	103.165	19.433	54.832	0.484
806.500	481.998	80.001	19.995	103.162	19.452	53.559	0.474
807.000	482.271	80.001	19.995	103.160	19.466	52.653	0.495
807.500	482.480	80.001	19.995	103.159	19.482	51.631	0.500
808.000	482.719	80.001	19.994	103.161	19.498	50.580	0.465
808.500	482.957	80.001	19.994	103.164	19.510	49.750	0.463
809.000	483.179	80.000	19.995	103.161	19.525	48.790	0.468
809.500	483.442	80.001	19.995	103.164	19.541	47.776	0.473
810.000	483.648	80.001	19.995	103.166	19.556	46.802	0.477
810.500	483.922	80.001	19.996	103.170	19.564	46.277	0.474
811.000	484.122	80.001	19.995	103.170	19.582	45.070	0.477
811.500	484.369	80.002	19.995	103.172	19.596	44.167	0.461
812.000	484.592	80.000	19.996	103.167	19.608	43.389	0.458
812.500	484.854	80.001	19.996	103.163	19.621	42.517	0.478
813.000	485.099	80.002	19.996	103.157	19.634	41.723	0.497
813.500	485.324	80.001	19.995	103.157	19.649	40.736	0.489
814.000	485.576	80.001	19.996	103.159	19.658	40.140	0.473
814.500	485.818	80.002	19.996	103.165	19.671	39.298	0.485
815.000	486.056	80.001	19.995	103.173	19.684	38.427	0.487
815.500	486.277	80.001	19.996	103.178	19.695	37.698	0.469
816.000	486.508	80.001	19.996	103.182	19.709	36.799	0.455
816.500	486.754	80.001	19.996	103.180	19.719	36.152	0.465
817.000	487.014	80.001	19.995	103.178	19.732	35.343	0.492
817.500	487.258	80.001	19.997	103.171	19.742	34.684	0.505
818.000	487.456	80.001	19.996	103.164	19.756	33.776	0.473
818.500	487.724	80.001	19.996	103.158	19.764	33.205	0.454
819.000	487.935	80.000	19.996	103.155	19.776	32.446	0.472
819.500	488.200	80.002	19.997	103.151	19.788	31.680	0.477
820.000	488.425	80.001	19.997	103.149	19.799	30.931	0.483
820.500	488.656	80.002	19.995	103.149	19.808	30.387	0.473
821.000	488.897	80.001	19.996	103.147	19.819	29.659	0.464
821.500	489.161	80.002	19.996	103.147	19.830	28.898	0.489
822.000	489.394	80.002	19.996	103.147	19.841	28.206	0.501
822.500	489.597	80.002	19.996	103.147	19.851	27.551	0.466
823.000	489.871	80.003	19.995	103.146	19.858	27.098	0.456
823.500	490.105	80.003	19.996	103.146	19.870	26.301	0.492
824.000	490.328	80.003	19.996	103.146	19.881	25.620	0.482
824.500	490.574	80.002	19.995	103.144	19.894	24.750	0.463
825.000	490.810	80.003	19.997	103.142	19.904	24.105	0.476
825.500	491.039	80.003	19.995	103.142	19.908	23.846	0.473
826.000	491.293	80.002	19.995	103.142	19.920	23.046	0.474
826.500	491.543	80.002	19.995	103.142	19.928	22.545	0.494
827.000	491.778	80.003	19.996	103.145	19.938	21.919	0.495
827.500	492.004	80.003	19.995	103.146	19.947	21.332	0.473
828.000	492.231	80.002	19.995	103.143	19.953	20.885	0.457
828.500	492.485	80.002	19.995	103.141	19.967	19.997	0.467
829.000	492.715	80.002	19.995	103.138	19.974	19.562	0.482
829.500	492.943	80.003	19.996	103.132	19.986	18.738	0.471
830.000	493.189	80.003	19.995	103.128	19.993	18.332	0.466
830.500	493.453	80.003	19.995	103.130	20.005	17.496	0.492
831.000	493.679	80.003	19.996	103.132	20.011	17.124	0.500
831.500	493.957	80.003	19.996	103.129	20.014	16.924	0.497
832.000	494.175	80.003	19.995	103.128	20.026	16.190	0.500
832.500	494.438	80.002	19.995	103.128	20.034	15.664	0.489
833.000	494.673	80.002	19.995	103.123	20.037	15.411	0.489
833.500	494.911	80.003	19.996	103.117	20.047	14.771	0.485
834.000	495.186	80.002	19.995	103.122	20.056	14.205	0.493
834.500	495.380	80.002	19.995	103.127	20.061	13.879	0.491
835.000	495.660	80.002	19.994	103.131	20.070	13.261	0.472
835.500	495.902	80.003	19.995	103.134	20.078	12.751	0.498
836.000	496.135	80.001	19.995	103.135	20.085	12.320	0.498
836.500	496.379	80.002	19.994	103.131	20.092	11.855	0.476
837.000	496.588	80.001	19.995	103.127	20.095	11.644	0.465
837.500	496.833	80.002	19.995	103.126	20.104	11.103	0.453
838.000	497.089	80.001	19.995	103.126	20.106	10.922	0.477
838.500	497.330	80.002	19.994	103.129	20.114	10.406	0.499
839.000	497.579	80.002	19.995	103.129	20.119	10.107	0.494
839.500	497.788	80.003	19.995	103.133	20.122	9.885	0.474
840.000	498.042	80.002	19.995	103.131	20.131	9.315	0.460
840.500	498.303	80.003	19.996	103.129	20.130	9.404	0.489
841.000	498.520	80.003	19.995	103.129	20.136	9.018	0.496
841.500	498.743	80.002	19.994	103.133	20.142	8.581	0.459
842.000	499.002	80.002	19.996	103.129	20.148	8.230	0.461
842.500	499.243	80.002	19.994	103.131	20.153	7.898	0.491
843.000	499.527	80.004	19.994	103.133	20.159	7.480	0.512
843.500	499.729	80.003	19.994	103.131	20.159	7.462	0.506
844.000	499.991	80.004	19.995	103.129	20.163	7.240	0.475
844.500	500.245	80.003	19.995	103.131	20.166	7.022	0.490
845.000	500.479	80.003	19.995	103.132	20.169	6.816	0.502
845.500	500.715	80.003	19.995	103.131	20.172	6.677	0.479
846.000	500.981	80.004	19.994	103.128	20.176	6.391	0.486
846.500	501.191	80.003	19.996	103.130	20.178	6.254	0.489
847.000	501.463	80.003	19.995	103.129	20.183	5.933	0.479
847.500	501.719	80.004	19.995	103.127	20.185	5.798	0.505
848.000	501.962	80.003	19.995	103.124	20.185	5.796	0.513
848.500	502.201	80.004	19.995	103.124	20.191	5.435	0.490
849.000	502.452	80.004	19.995	103.118	20.190	5.470	0.486
849.500	502.693	80.003	19.994	103.115	20.192	5.315	0.491
850.000	502.972	80.003	19.995	103.114	20.195	5.152	0.506
850.500	503.191	80.003	19.994	103.115	20.197	5.021	0.509
851.000	503.442	80.003	19.994	103.116	20.200	4.803	0.484
851.500	503.674	80.003	19.993	103.116	20.202	4.675	0.476
852.000	503.938	80.002	19.994	103.114	20.204	4.566	0.489
852.500	504.183	80.004	19.994	103.112	20.204	4.595	0.502
853.000	504.425	80.004	19.994	103.111	20.207	4.341	0.498
853.500	504.638	80.004	19.994	103.109	20.205	4.502	0.471
854.000	504.926	80.003	19.994	103.109	20.209	4.238	0.478
854.500	505.176	80.002	19.994	103.110	20.209	4.260	0.519
855.000	505.392	80.002	19.995	103.110	20.212	4.042	0.502
855.500	505.674	80.002	19.994	103.110	20.213	4.002	0.482
856.000	505.934	80.003	19.996	103.111	20.213	3.952	0.521
856.500	506.154	80.001	19.995	103.111	20.213	3.950	0.511
857.000	506.395	80.001	19.994	103.111	20.213	4.000	0.470
857.500	506.630	80.002	19.994	103.111	20.217	3.699	0.468
858.000	506.873	80.002	19.994	103.111	20.215	3.824	0.477
858.500	507.155	80.001	19.994	103.112	20.216	3.790	0.502
859.000	507.391	80.002	19.994	103.112	20.217	3.708	0.521
859.500	507.618	80.000	19.994	103.112	20.219	3.611	0.490
860.000	507.886	80.000	19.995	103.112	20.220	3.517	0.479
860.500	508.135	80.001	19.994	103.112	20.218	3.629	0.506
861.000	508.384	80.000	19.995	103.113	20.220	3.505	0.507
861.500	508.614	80.001	19.994	103.111	20.219	3.589	0.489
862.000	508.881	80.001	19.994	103.111	20.220	3.515	0.488
862.500	509.140	80.001	19.995	103.111	20.218	3.629	0.512
863.000	509.397	80.002	19.996	103.111	20.219	3.602	0.522
863.500	509.623	80.002	19.997	103.111	20.221	3.472	0.500
864.000	509.846	80.000	19.995	103.113	20.221	3.452	0.466
864.500	510.167	80.002	19.994	103.113	20.222	3.422	0.497
865.000	510.381	80.001	19.994	103.113	20.222	3.373	0.540
865.500	510.649	80.002	19.995	103.113	20.221	3.468	0.509
866.000	510.863	80.001	19.995	103.113	20.221	3.463	0.482
866.500	511.117	80.002	19.995	103.113	20.218	3.620	0.475
867.000	511.359	80.001	19.994	103.114	20.222	3.418	0.481
867.500	511.578	80.001	19.996	103.114	20.221	3.439	0.478
868.000	511.862	80.002	19.994	103.114	20.221	3.437	0.482
868.500	512.058	80.002	19.995	103.114	20.221	3.470	0.492
869.000	512.333	80.002	19.995	103.114	20.220	3.495	0.476
869.500	512.555	80.001	19.996	103.114	20.221	3.457	0.484
870.000	512.836	80.002	19.994	103.113	20.222	3.394	0.500
870.500	513.065	80.001	19.994	103.113	20.219	3.582	0.506
871.000	513.342	80.002	19.995	103.114	20.220	3.528	0.508
871.500	513.586	80.003	19.994	103.114	20.218	3.620	0.514
872.000	513.837	80.001	19.995	103.114	20.217	3.737	0.508
872.500	514.107	80.002	19.995	103.114	20.218	3.638	0.508
873.000	514.327	80.001	19.995	103.113	20.220	3.517	0.506
873.500	514.608	80.002	19.995	103.113	20.222	3.414	0.495
874.000	514.873	80.002	19.994	103.113	20.219	3.593	0.524
874.500	515.117	80.002	19.995	103.113	20.219	3.560	0.528
875.000	515.362	80.002	19.993	103.112	20.221	3.454	0.499
875.500	515.606	80.002	19.995	103.111	20.218	3.645	0.489
876.000	515.877	80.002	19.995	103.109	20.221	3.474	0.502
876.500	516.099	80.002	19.995	103.108	20.224	3.286	0.504
877.000	516.373	80.001	19.995	103.106	20.220	3.548	0.495
877.500	516.627	80.003	19.996	103.101	20.219	3.605	0.512
878.000	516.891	80.002	19.996	103.097	20.221	3.454	0.523
878.500	517.125	80.002	19.995	103.096	20.222	3.359	0.508
879.000	517.426	80.004	19.995	103.096	20.219	3.598	0.516
879.500	517.677	80.003	19.995	103.097	20.220	3.543	0.544
880.000	517.912	80.002	19.996	103.097	20.218	3.629	0.519
880.500	518.158	80.002	19.996	103.100	20.221	3.467	0.483
881.000	518.415	80.002	19.996	103.102	20.221	3.454	0.492
881.500	518.647	80.003	19.996	103.102	20.219	3.564	0.496
882.000	518.909	80.002	19.996	103.102	20.222	3.380	0.491
882.500	519.153	80.003	19.995	103.107	20.220	3.508	0.500
883.000	519.409	80.002	19.996	103.109	20.219	3.618	0.503
883.500	519.670	80.001	19.996	103.109	20.220	3.506	0.509
884.000	519.922	80.004	19.997	103.110	20.221	3.456	0.515
884.500	520.177	80.001	19.996	103.110	20.219	3.606	0.510
885.000	520.432	80.002	19.996	103.110	20.222	3.387	0.508
885.500	520.669	80.004	19.996	103.110	20.218	3.636	0.500
886.000	520.920	80.001	19.995	103.110	20.221	3.431	0.490
886.500	521.189	80.003	19.997	103.110	20.220	3.494	0.504
887.000	521.440	80.001	19.996	103.110	20.218	3.658	0.520
887.500	521.680	80.001	19.996	103.110	20.218	3.638	0.506
888.000	521.939	80.002	19.997	103.110	20.221	3.481	0.496
888.500	522.207	80.002	19.996	103.110	20.220	3.541	0.513
889.000	522.480	80.001	19.996	103.110	20.219	3.564	0.534
889.500	522.705	80.002	19.996	103.110	20.223	3.348	0.520
890.000	522.967	80.002	19.995	103.114	20.219	3.609	0.493
890.500	523.256	80.002	19.996	103.118	20.225	3.223	0.519
891.000	523.490	80.002	19.996	103.118	20.220	3.514	0.537
891.500	523.727	80.001	19.996	103.119	20.220	3.508	0.496
892.000	524.028	80.000	19.995	103.119	20.223	3.335	0.504
892.500	524.285	80.001	19.997	103.115	20.224	3.232	0.548
893.000	524.545	80.002	19.997	103.111	20.221	3.488	0.538
893.500	524.758	80.001	19.995	103.111	20.219	3.559	0.495
894.000	525.036	80.001	19.995	103.110	20.224	3.272	0.482
894.500	525.336	80.001	19.996	103.110	20.220	3.544	0.534
895.000	525.558	80.001	19.996	103.110	20.225	3.189	0.550
895.500	525.815	80.001	19.997	103.111	20.222	3.411	0.500
896.000	526.077	80.001	19.995	103.112	20.221	3.467	0.499
896.500	526.316	80.001	19.996	103.116	20.222	3.400	0.510
897.000	526.616	80.001	19.996	103.116	20.222	3.396	0.520
897.500	526.874	80.001	19.996	103.115	20.224	3.230	0.548
898.000	527.131	80.001	19.996	103.115	20.224	3.279	0.537
898.500	527.361	80.004	19.996	103.114	20.224	3.270	0.501
899.000	527.651	80.003	19.996	103.111	20.222	3.396	0.503
899.500	527.935	80.002	19.995	103.112	20.223	3.342	0.547
900.000	528.156	80.002	19.996	103.113	20.219	3.588	0.540
900.500	528.428	80.002	19.996	103.112	20.221	3.481	0.499
901.000	528.667	80.002	19.996	103.112	20.221	3.480	0.502
901.500	528.924	80.002	19.995	103.113	20.221	3.460	0.503
902.000	529.204	80.002	19.996	103.112	20.223	3.321	0.517
902.500	529.440	80.003	19.996	103.111	20.221	3.442	0.527
903.000	529.703	80.002	19.995	103.110	20.223	3.328	0.508
903.500	529.979	80.002	19.995	103.111	20.223	3.342	0.519
904.000	530.215	80.002	19.995	103.111	20.224	3.270	0.526
904.500	530.489	80.003	19.996	103.110	20.221	3.438	0.511
905.000	530.779	80.001	19.996	103.111	20.221	3.460	0.537
905.500	531.038	80.003	19.996	103.110	20.222	3.397	0.556
906.000	531.296	80.001	19.995	103.110	20.221	3.458	0.533
906.500	531.551	80.002	19.996	103.109	20.222	3.368	0.515
907.000	531.803	80.003	19.996	103.109	20.221	3.427	0.510
907.500	532.062	80.003	19.996	103.109	20.220	3.503	0.509
908.000	532.305	80.002	19.997	103.109	20.222	3.382	0.507
908.500	532.566	80.002	19.997	103.109	20.223	3.341	0.504
909.000	532.830	80.002	19.997	103.109	20.222	3.373	0.514
909.500	533.081	80.002	19.996	103.109	20.220	3.512	0.520
910.000	533.367	80.002	19.997	103.111	20.222	3.386	0.527
910.500	533.627	80.002	19.995	103.113	20.221	3.432	0.541
911.000	533.869	80.002	19.997	103.114	20.223	3.308	0.524
911.500	534.179	80.002	19.996	103.116	20.222	3.424	0.527
912.000	534.441	80.002	19.996	103.116	20.223	3.328	0.562
912.500	534.687	80.001	19.995	103.114	20.222	3.395	0.540
913.000	534.930	80.002	19.996	103.113	20.223	3.298	0.498
913.500	535.204	80.002	19.997	103.112	20.223	3.346	0.502
914.000	535.494	80.002	19.994	103.111	20.221	3.429	0.540
914.500	535.713	80.002	19.995	103.112	20.225	3.182	0.537
915.000	536.003	80.001	19.996	103.113	20.219	3.581	0.510
915.500	536.277	80.001	19.996	103.115	20.222	3.371	0.537
916.000	536.499	80.002	19.997	103.115	20.225	3.180	0.530
916.500	536.767	80.002	19.996	103.115	20.225	3.191	0.492
917.000	537.068	80.002	19.995	103.113	20.224	3.238	0.530
917.500	537.312	80.003	19.996	103.113	20.225	3.186	0.557
918.000	537.543	80.002	19.996	103.111	20.221	3.487	0.510
918.500	537.830	80.001	19.997	103.111	20.222	3.413	0.496
919.000	538.063	80.002	19.996	103.111	20.223	3.296	0.519
919.500	538.339	80.001	19.995	103.111	20.226	3.151	0.515
920.000	538.621	80.002	19.996	103.111	20.226	3.160	0.533
920.500	538.879	80.002	19.995	103.111	20.223	3.343	0.549
921.000	539.098	80.003	19.995	103.111	20.225	3.171	0.509
921.500	539.400	80.001	19.994	103.111	20.223	3.314	0.499
922.000	539.631	80.003	19.995	103.113	20.223	3.303	0.527
922.500	539.905	80.002	19.996	103.118	20.224	3.260	0.519
923.000	540.139	80.004	19.996	103.122	20.219	3.564	0.507
923.500	540.401	80.002	19.995	103.124	20.223	3.299	0.502
924.000	540.670	80.003	19.995	103.127	20.221	3.479	0.513
924.500	540.950	80.002	19.995	103.128	20.226	3.106	0.540
925.000	541.222	80.003	19.995	103.124	20.225	3.173	0.550
925.500	541.473	80.003	19.994	103.122	20.226	3.162	0.537
926.000	541.771	80.003	19.994	103.120	20.225	3.168	0.536
926.500	542.034	80.004	19.995	103.117	20.227	3.092	0.555
927.000	542.279	80.003	19.994	103.115	20.222	3.409	0.535
927.500	542.537	80.003	19.995	103.114	20.224	3.249	0.506
928.000	542.817	80.004	19.994	103.115	20.223	3.341	0.520
928.500	543.064	80.003	19.994	103.116	20.222	3.386	0.532
929.000	543.323	80.003	19.993	103.116	20.222	3.380	0.516
929.500	543.609	80.003	19.994	103.116	20.225	3.175	0.525
930.000	543.872	80.004	19.994	103.116	20.224	3.245	0.547
930.500	544.114	80.003	19.995	103.115	20.225	3.209	0.527
931.000	544.381	80.003	19.994	103.113	20.226	3.133	0.507
931.500	544.640	80.005	19.994	103.120	20.225	3.173	0.518
932.000	544.918	80.003	19.994	103.124	20.224	3.280	0.532
932.500	545.177	80.005	19.994	103.125	20.227	3.047	0.537
933.000	545.410	80.002	19.995	103.125	20.227	3.067	0.514
933.500	545.676	80.004	19.994	103.125	20.226	3.101	0.495
934.000	545.937	80.004	19.995	103.119	20.226	3.130	0.513
934.500	546.171	80.002	19.994	103.115	20.225	3.190	0.512
935.000	546.441	80.004	19.995	103.114	20.223	3.343	0.499
935.500	546.722	80.003	19.995	103.114	20.223	3.325	0.527
936.000	546.970	80.004	19.995	103.114	20.224	3.290	0.540
936.500	547.266	80.004	19.994	103.113	20.224	3.279	0.537
937.000	547.529	80.003	19.996	103.114	20.223	3.321	0.551
937.500	547.759	80.002	19.994	103.114	20.221	3.449	0.526
938.000	548.052	80.002	19.994	103.116	20.223	3.355	0.508
938.500	548.337	80.002	19.995	103.115	20.224	3.268	0.550
939.000	548.572	80.002	19.995	103.116	20.223	3.355	0.549
939.500	548.831	80.003	19.995	103.117	20.222	3.422	0.507
940.000	549.071	80.003	19.994	103.118	20.222	3.417	0.496
940.500	549.321	80.002	19.995	103.116	20.224	3.276	0.494
941.000	549.601	79.999	19.995	103.117	20.221	3.460	0.510
941.500	549.861	80.001	19.995	103.116	20.222	3.359	0.535
942.000	550.114	80.003	19.996	103.114	20.225	3.164	0.527
942.500	550.381	80.003	19.995	103.116	20.222	3.368	0.517
943.000	550.633	80.002	19.994	103.120	20.222	3.360	0.519
943.500	550.906	80.002	19.994	103.120	20.223	3.344	0.522
944.000	551.186	80.001	19.996	103.123	20.223	3.299	0.539
944.500	551.449	80.002	19.995	103.125	20.224	3.250	0.548
945.000	551.713	80.003	19.995	103.126	20.220	3.512	0.535
945.500	551.943	80.002	19.996	103.125	20.224	3.272	0.510
946.000	552.210	80.001	19.996	103.126	20.223	3.321	0.495
946.500	552.474	80.001	19.995	103.125	20.221	3.431	0.514
947.000	552.728	80.001	19.996	103.122	20.223	3.336	0.525
947.500	552.974	80.001	19.994	103.118	20.222	3.406	0.509
948.000	553.232	80.003	19.994	103.115	20.222	3.368	0.502
948.500	553.491	80.002	19.995	103.114	20.222	3.393	0.510
949.000	553.737	80.001	19.995	103.111	20.220	3.494	0.511
949.500	553.979	80.001	19.994	103.111	20.220	3.539	0.497
950.000	554.285	80.001	19.995	103.116	20.221	3.447	0.518
950.500	554.532	80.002	19.995	103.120	20.220	3.496	0.550
951.000	554.797	80.001	19.995	103.120	20.222	3.407	0.533
951.500	555.033	80.002	19.995	103.120	20.223	3.337	0.507
952.000	555.321	80.002	19.996	103.120	20.224	3.270	0.512
952.500	555.571	80.001	19.996	103.114	20.221	3.429	0.531
953.000	555.849	80.002	19.995	103.109	20.222	3.422	0.533
953.500	556.097	80.002	19.994	103.111	20.221	3.441	0.527
954.000	556.380	80.002	19.994	103.113	20.223	3.299	0.528
954.500	556.600	80.001	19.995	103.113	20.222	3.373	0.517
955.000	556.873	80.002	19.995	103.114	20.221	3.467	0.498
955.500	557.147	80.002	19.994	103.113	20.222	3.404	0.520
956.000	557.405	80.003	19.994	103.111	20.223	3.343	0.539
956.500	557.675	80.001	19.994	103.116	20.225	3.228	0.530
957.000	557.929	80.002	19.995	103.124	20.224	3.258	0.526
957.500	558.188	80.002	19.995	103.126	20.223	3.301	0.518
958.000	558.453	80.003	19.995	103.128	20.222	3.392	0.519
958.500	558.668	80.003	19.995	103.131	20.224	3.233	0.502
959.000	558.949	80.002	19.995	103.127	20.225	3.166	0.488
959.500	559.191	80.004	19.996	103.123	20.226	3.163	0.510
960.000	559.428	80.002	19.993	103.121	20.222	3.424	0.501
960.500	559.648	80.003	19.996	103.120	20.221	3.467	0.468
961.000	559.949	80.003	19.995	103.117	20.221	3.429	0.489
961.500	560.243	80.002	19.995	103.119	20.221	3.440	0.558
962.000	560.490	80.002	19.994	103.116	20.221	3.467	0.568
962.500	560.732	80.003	19.994	103.115	20.223	3.357	0.515
963.000	561.047	80.004	19.996	103.114	20.222	3.390	0.523
963.500	561.263	80.004	19.994	103.114	20.221	3.483	0.544
964.000	561.515	80.002	19.994	103.111	20.224	3.240	0.499
964.500	561.792	80.003	19.995	103.111	20.223	3.312	0.498
965.000	562.031	80.002	19.995	103.112	20.226	3.108	0.523
965.500	562.321	80.002	19.994	103.117	20.223	3.310	0.523
966.000	562.576	80.004	19.995	103.121	20.223	3.294	0.537
966.500	562.801	80.003	19.995	103.128	20.224	3.267	0.513
967.000	563.053	80.003	19.995	103.131	20.223	3.353	0.478
967.500	563.344	80.004	19.995	103.131	20.226	3.157	0.510
968.000	563.611	80.001	19.995	103.128	20.221	3.436	0.551
968.500	563.867	80.002	19.996	103.129	20.225	3.169	0.540
969.000	564.127	80.001	19.995	103.127	20.225	3.205	0.519
969.500	564.381	80.001	19.995	103.123	20.225	3.193	0.515
970.000	564.647	80.002	19.996	103.126	20.221	3.444	0.517
970.500	564.879	80.001	19.995	103.127	20.225	3.209	0.509
971.000	565.145	80.002	19.996	103.123	20.219	3.559	0.498
971.500	565.413	80.001	19.995	103.121	20.222	3.399	0.516
972.000	565.674	80.001	19.994	103.124	20.224	3.269	0.531
972.500	565.912	80.002	19.996	103.127	20.225	3.204	0.514
973.000	566.193	80.000	19.996	103.124	20.223	3.296	0.509
973.500	566.446	80.000	19.996	103.124	20.224	3.272	0.526
974.000	566.672	80.002	19.996	103.125	20.223	3.339	0.506
974.500	566.952	80.001	19.996	103.123	20.222	3.381	0.493
975.000	567.214	80.001	19.995	103.118	20.222	3.424	0.524
975.500	567.445	80.001	19.996	103.118	20.222	3.399	0.517
976.000	567.709	80.000	19.996	103.118	20.222	3.363	0.494
976.500	567.959	80.000	19.996	103.115	20.223	3.328	0.505
977.000	568.228	80.000	19.995	103.116	20.222	3.390	0.516
977.500	568.475	80.002	19.995	103.115	20.225	3.171	0.517
978.000	568.739	80.002	19.997	103.116	20.226	3.161	0.514
978.500	568.989	80.000	19.996	103.116	20.224	3.282	0.512
979.000	569.279	80.000	19.995	103.117	20.220	3.516	0.526
979.500	569.497	80.001	19.996	103.114	20.221	3.487	0.524
980.000	569.745	80.002	19.996	103.114	20.221	3.473	0.488
980.500	570.026	80.003	19.996	103.120	20.223	3.346	0.498
981.000	570.316	80.001	19.996	103.126	20.225	3.200	0.550
981.500	570.565	80.002	19.995	103.128	20.222	3.399	0.555
982.000	570.800	80.003	19.996	103.130	20.223	3.343	0.511
982.500	571.065	80.002	19.995	103.130	20.222	3.418	0.492
983.000	571.307	80.003	19.996	103.124	20.221	3.487	0.504
983.500	571.535	80.002	19.995	103.117	20.223	3.314	0.489
984.000	571.844	80.002	19.996	103.116	20.222	3.386	0.504
984.500	572.120	80.003	19.996	103.117	20.222	3.404	0.561
985.000	572.301	80.003	19.994	103.123	20.225	3.184	0.521
985.500	572.546	80.004	19.995	103.127	20.224	3.260	0.441
986.000	572.827	80.003	19.996	103.129	20.221	3.452	0.476
986.500	573.093	80.003	19.995	103.129	20.223	3.294	0.537
987.000	573.368	80.004	19.994	103.126	20.224	3.252	0.544
987.500	573.634	80.003	19.994	103.121	20.224	3.267	0.541
988.000	573.883	80.003	19.996	103.121	20.221	3.465	0.528
988.500	574.126	80.003	19.996	103.119	20.224	3.252	0.504
989.000	574.391	80.003	19.994	103.122	20.224	3.249	0.499
989.500	574.646	80.003	19.996	103.127	20.221	3.474	0.514
990.000	574.965	80.002	19.995	103.128	20.222	3.414	0.547
990.500	575.181	80.002	19.996	103.125	20.223	3.312	0.555
991.000	575.454	80.003	19.996	103.127	20.223	3.322	0.512
991.500	575.721	80.002	19.995	103.126	20.220	3.497	0.515
992.000	575.939	80.004	19.995	103.124	20.223	3.335	0.513
992.500	576.190	80.002	19.994	103.124	20.222	3.406	0.477
993.000	576.457	80.002	19.994	103.125	20.222	3.368	0.493
993.500	576.728	80.002	19.995	103.124	20.223	3.327	0.528
994.000	576.959	80.001	19.995	103.124	20.221	3.466	0.520
994.500	577.214	80.003	19.995	103.125	20.219	3.577	0.494
995.000	577.488	80.001	19.995	103.123	20.220	3.500	0.507
995.500	577.739	80.002	19.995	103.123	20.222	3.393	0.527
996.000	577.990	80.002	19.995	103.120	20.221	3.436	0.513
996.500	578.247	80.001	19.996	103.119	20.223	3.343	0.505
997.000	578.507	80.002	19.995	103.114	20.222	3.411	0.513
997.500	578.778	80.002	19.995	103.116	20.219	3.593	0.524
998.000	579.000	80.001	19.994	103.115	20.220	3.492	0.511
998.500	579.284	80.000	19.996	103.115	20.221	3.460	0.500
999.000	579.549	80.000	19.996	103.115	20.218	3.623	0.528
999.500	579.792	80.000	19.995	103.116	20.222	3.363	0.528
1000.000	580.038	80.002	19.996	103.113	20.221	3.468	0.498
1000.500	580.307	80.001	19.995	103.113	20.224	3.285	0.502
1001.000	580.564	80.002	19.996	103.113	20.221	3.485	0.520
1001.500	580.820	80.002	19.995	103.111	20.222	3.393	0.520
1002.000	581.067	80.002	19.996	103.111	20.221	3.465	0.508
1002.500	581.332	80.002	19.997	103.111	20.221	3.474	0.508
1003.000	581.579	80.002	19.996	103.113	20.220	3.542	0.512
1003.500	581.839	80.003	19.995	103.114	20.221	3.472	0.509
1004.000	582.115	80.002	19.997	103.118	20.223	3.316	0.521
1004.500	582.360	80.003	19.996	103.125	20.222	3.375	0.529
1005.000	582.617	80.003	19.995	103.130	20.222	3.406	0.511
1005.500	582.870	80.003	19.995	103.130	20.222	3.384	0.506
1006.000	583.167	80.004	19.996	103.133	20.224	3.253	0.530
1006.500	583.384	80.004	19.996	103.131	20.222	3.393	0.532
1007.000	583.643	80.002	19.995	103.123	20.221	3.427	0.495
1007.500	583.899	80.002	19.997	103.117	20.225	3.225	0.496
1008.000	584.173	80.004	19.996	103.119	20.223	3.305	0.523
1008.500	584.439	80.003	19.995	103.117	20.224	3.252	0.535
1009.000	584.675	80.005	19.996	103.120	20.222	3.407	0.521
1009.500	584.977	80.004	19.997	103.127	20.223	3.348	0.520
1010.000	585.235	80.004	19.997	103.135	20.221	3.486	0.549
1010.500	585.500	80.004	19.997	103.138	20.223	3.346	0.541
1011.000	585.738	80.004	19.996	103.137	20.221	3.447	0.513
1011.500	586.018	80.003	19.995	103.136	20.219	3.555	0.511
1012.000	586.256	80.005	19.996	103.129	20.225	3.194	0.519
1012.500	586.549	80.004	19.996	103.124	20.222	3.364	0.525
1013.000	586.796	80.003	19.995	103.118	20.223	3.322	0.535
1013.500	587.054	80.004	19.996	103.116	20.224	3.283	0.522
1014.000	587.334	80.005	19.994	103.112	20.219	3.578	0.521
1014.500	587.600	80.004	19.996	103.114	20.219	3.600	0.542
1015.000	587.844	80.004	19.996	103.119	20.219	3.582	0.528
1015.500	588.104	80.004	19.995	103.121	20.224	3.230	0.507
1016.000	588.351	80.004	19.995	103.127	20.224	3.281	0.506
1016.500	588.614	80.003	19.995	103.128	20.223	3.324	0.509
1017.000	588.884	80.003	19.994	103.127	20.226	3.137	0.521
1017.500	589.127	80.003	19.996	103.121	20.221	3.450	0.523
1018.000	589.424	80.004	19.994	103.121	20.223	3.310	0.527
1018.500	589.695	80.003	19.995	103.116	20.225	3.176	0.554
1019.000	589.952	80.003	19.995	103.114	20.226	3.126	0.548
1019.500	590.205	80.003	19.994	103.112	20.228	3.023	0.519
1020.000	590.465	80.003	19.995	103.112	20.226	3.140	0.511
1020.500	590.754	80.001	19.995	103.109	20.223	3.324	0.531
1021.000	590.999	80.002	19.995	103.109	20.227	3.083	0.542
1021.500	591.224	80.002	19.994	103.110	20.225	3.198	0.502
1022.000	591.456	80.003	19.995	103.110	20.225	3.222	0.463
1022.500	591.765	80.002	19.994	103.110	20.223	3.308	0.499
1023.000	592.010	80.003	19.996	103.111	20.223	3.333	0.547
1023.500	592.263	80.001	19.996	103.110	20.224	3.252	0.526
1024.000	592.554	80.002	19.994	103.110	20.223	3.310	0.521
1024.499	592.769	80.002	19.996	103.110	20.222	3.404	0.525
1024.999	593.048	80.001	19.996	103.107	20.227	3.072	0.500
1025.500	593.281	80.001	19.996	103.107	20.221	3.461	0.503
1026.000	593.523	80.003	19.997	103.107	20.222	3.366	0.493
1026.499	593.812	80.001	19.995	103.108	20.223	3.294	0.503
1026.999	594.089	80.002	19.995	103.108	20.224	3.236	0.549
1027.499	594.345	80.001	19.994	103.109	20.224	3.272	0.550
1027.999	594.581	80.002	19.997	103.109	20.223	3.299	0.513
1028.499	594.837	80.002	19.997	103.109	20.226	3.126	0.491
1028.999	595.079	80.001	19.996	103.109	20.226	3.125	0.495
1029.499	595.334	80.002	19.995	103.108	20.224	3.271	0.498
1029.999	595.608	80.002	19.996	103.108	20.222	3.384	0.513
1030.499	595.882	80.001	19.994	103.109	20.225	3.187	0.538
1030.999	596.146	80.002	19.995	103.109	20.222	3.404	0.543
1031.499	596.391	80.002	19.995	103.110	20.221	3.432	0.523
1031.999	596.651	80.003	19.995	103.110	20.225	3.200	0.507
1032.499	596.880	80.001	19.995	103.110	20.220	3.497	0.498
1032.999	597.134	80.002	19.995	103.110	20.222	3.396	0.486
1033.499	597.386	80.002	19.996	103.110	20.220	3.492	0.495
1033.999	597.673	80.002	19.995	103.110	20.222	3.404	0.522
1034.499	597.870	80.002	19.996	103.110	20.222	3.373	0.511
1034.999	598.153	80.002	19.996	103.110	20.221	3.487	0.482
1035.499	598.399	80.001	19.995	103.111	20.223	3.342	0.504
1035.999	598.644	80.001	19.995	103.110	20.226	3.153	0.510
1036.499	598.877	80.001	19.995	103.110	20.221	3.456	0.484
1037.000	599.127	80.001	19.995	103.110	20.223	3.344	0.480
1037.500	599.348	80.003	19.996	103.110	20.221	3.478	0.477
1037.999	599.584	80.001	19.996	103.111	20.222	3.379	0.464
1038.499	599.820	80.001	19.994	103.115	20.223	3.352	0.465
1038.999	600.084	80.001	19.995	103.120	20.223	3.319	0.486
1039.499	600.351	80.002	19.995	103.121	20.223	3.332	0.515
1039.999	600.555	80.001	19.994	103.122	20.224	3.281	0.500
1040.499	600.820	80.003	19.996	103.121	20.221	3.469	0.470
1041.000	601.075	80.002	19.996	103.117	20.220	3.525	0.495
1041.500	601.331	80.002	19.995	103.112	20.224	3.267	0.516
1041.999	601.584	80.000	19.993	103.112	20.219	3.579	0.510
1042.499	601.829	80.001	19.995	103.111	20.220	3.508	0.503
1042.999	602.052	80.003	19.997	103.112	20.223	3.346	0.483
1043.499	602.338	80.001	19.995	103.112	20.224	3.236	0.489
1043.999	602.506	80.001	19.995	103.112	20.221	3.478	0.481
1044.499	602.753	80.001	19.996	103.112	20.221	3.487	0.435
1044.999	603.022	80.001	19.996	103.112	20.223	3.301	0.465
1045.499	603.266	80.001	19.994	103.112	20.222	3.407	0.514
1045.999	603.500	80.001	19.995	103.112	20.222	3.371	0.496
1046.499	603.697	80.000	19.995	103.112	20.222	3.382	0.455
1046.999	603.952	80.001	19.993	103.112	20.220	3.519	0.441
1047.499	604.256	80.001	19.995	103.113	20.225	3.209	0.505
1047.999	604.461	80.001	19.996	103.115	20.224	3.245	0.534
1048.499	604.718	80.003	19.994	103.117	20.223	3.319	0.485
1048.999	604.942	80.002	19.996	103.118	20.220	3.510	0.471
1049.499	605.187	80.001	19.996	103.118	20.222	3.399	0.475
1049.999	605.419	80.003	19.995	103.117	20.225	3.200	0.473
1050.499	605.647	80.002	19.995	103.121	20.221	3.426	0.468
1050.999	605.915	80.002	19.994	103.123	20.226	3.141	0.478
1051.499	606.167	80.002	19.995	103.121	20.222	3.395	0.508
1051.999	606.405	80.001	19.995	103.121	20.223	3.357	0.506
1052.499	606.627	80.003	19.993	103.123	20.224	3.281	0.475
1052.999	606.836	80.001	19.996	103.119	20.227	3.056	0.445
1053.499	607.094	80.002	19.996	103.119	20.225	3.218	0.449
1054.000	607.417	80.000	19.997	103.119	20.229	2.942	0.524
1054.500	607.571	80.000	19.994	103.119	20.225	3.193	0.529
1055.000	607.899	80.002	19.995	103.117	20.222	3.366	0.480
1055.500	608.109	79.999	19.994	103.116	20.223	3.305	0.510
1055.999	608.358	80.000	19.993	103.112	20.230	2.849	0.498
1056.499	608.598	80.000	19.995	103.111	20.228	3.004	0.474
1056.999	608.843	80.000	19.995	103.115	20.230	2.881	0.487
1057.499	609.134	80.002	19.995	103.117	20.228	2.970	0.511
1057.999	609.399	80.000	19.996	103.118	20.227	3.038	0.546
1058.499	609.635	80.000	19.994	103.120	20.226	3.114	0.528
1059.000	609.835	80.000	19.994	103.124	20.226	3.105	0.469
1059.500	610.115	80.000	19.995	103.121	20.222	3.385	0.458
1059.999	610.352	80.000	19.996	103.121	20.225	3.195	0.498
1060.499	610.567	80.001	19.994	103.122	20.225	3.175	0.485
1060.999	610.816	80.001	19.995	103.125	20.226	3.135	0.458
1061.499	611.082	80.001	19.996	103.124	20.224	3.229	0.489
1061.999	611.316	80.001	19.995	103.124	20.228	3.032	0.508
1062.499	611.664	80.002	19.995	103.123	20.226	3.128	0.541
1062.999	611.856	80.002	19.995	103.121	20.222	3.380	0.561
1063.499	612.133	80.001	19.996	103.119	20.224	3.283	0.504
1063.999	612.313	80.002	19.996	103.119	20.222	3.404	0.463
1064.500	612.615	80.001	19.996	103.118	20.226	3.137	0.470
1065.000	612.825	80.002	19.995	103.120	20.224	3.289	0.497
1065.500	613.031	80.001	19.995	103.119	20.220	3.537	0.464
1066.000	613.261	80.002	19.995	103.118	20.222	3.411	0.426
1066.499	613.567	80.003	19.996	103.115	20.224	3.292	0.486
1066.999	613.790	80.004	19.996	103.119	20.224	3.267	0.533
1067.499	614.064	80.003	19.995	103.118	20.225	3.224	0.513
1067.999	614.314	80.003	19.996	103.119	20.221	3.436	0.511
1068.500	614.562	80.002	19.996	103.125	20.223	3.344	0.511
1069.001	614.788	80.003	19.996	103.130	20.225	3.204	0.486
1069.501	615.039	80.002	19.996	103.130	20.224	3.263	0.476
1070.000	615.326	80.004	19.996	103.132	20.226	3.135	0.507
1070.499	615.658	80.002	19.996	103.134	20.221	3.431	0.578
1070.999	615.911	80.003	19.997	103.127	20.223	3.302	0.602
1071.499	616.142	80.003	19.995	103.123	20.222	3.383	0.534
1071.999	616.360	80.003	19.995	103.119	20.226	3.157	0.466
1072.499	616.587	80.003	19.996	103.115	20.226	3.163	0.447
1072.999	616.824	80.002	19.995	103.111	20.228	3.013	0.454
1073.500	617.084	80.003	19.995	103.116	20.224	3.269	0.481
1074.000	617.349	80.001	19.997	103.120	20.225	3.182	0.512
1074.499	617.610	80.002	19.996	103.125	20.222	3.359	0.525
1074.999	617.838	80.001	19.995	103.127	20.225	3.217	0.507
1075.499	618.096	80.002	19.995	103.128	20.226	3.105	0.488
1075.999	618.333	80.002	19.995	103.124	20.225	3.226	0.491
1076.500	618.562	80.002	19.994	103.121	20.224	3.263	0.480
1077.000	618.853	80.003	19.995	103.119	20.224	3.234	0.492
1077.499	619.091	80.002	19.995	103.121	20.224	3.245	0.524
1077.999	619.347	80.003	19.995	103.124	20.223	3.306	0.512
1078.499	619.580	80.003	19.996	103.126	20.226	3.117	0.492
1078.999	619.872	80.003	19.995	103.124	20.226	3.155	0.507
1079.499	620.119	80.001	19.996	103.122	20.224	3.278	0.532
1079.999	620.393	80.002	19.996	103.125	20.225	3.175	0.530
1080.499	620.636	80.003	19.996	103.125	20.226	3.159	0.519
1080.999	620.925	80.001	19.996	103.126	20.227	3.058	0.524
1081.499	621.154	80.003	19.995	103.131	20.223	3.307	0.525
1081.999	621.409	80.004	19.996	103.135	20.224	3.251	0.501
1082.499	621.680	80.002	19.996	103.132	20.220	3.546	0.505
1082.999	621.962	80.002	19.996	103.129	20.223	3.317	0.540
1083.499	622.206	80.002	19.995	103.130	20.222	3.424	0.540
1083.999	622.461	80.003	19.994	103.131	20.221	3.429	0.512
1084.499	622.698	80.002	19.994	103.130	20.224	3.283	0.496
1084.999	622.970	80.002	19.995	103.131	20.224	3.278	0.501
1085.499	623.246	80.003	19.995	103.134	20.224	3.265	0.528
1085.999	623.496	80.003	19.995	103.135	20.225	3.227	0.537
1086.499	623.773	80.003	19.994	103.131	20.225	3.220	0.526
1086.999	624.009	80.003	19.995	103.127	20.222	3.396	0.520
1087.499	624.308	80.003	19.995	103.122	20.218	3.620	0.525
1087.999	624.541	80.004	19.994	103.118	20.218	3.644	0.533
1088.499	624.816	80.002	19.996	103.112	20.219	3.611	0.519
1088.999	625.030	80.003	19.995	103.113	20.221	3.472	0.499
1089.499	625.316	80.004	19.996	103.115	20.219	3.571	0.495
1089.999	625.584	80.004	19.996	103.119	20.221	3.487	0.527
1090.499	625.814	80.004	19.996	103.122	20.220	3.541	0.525
1090.999	626.075	80.003	19.995	103.126	20.222	3.396	0.495
1091.499	626.361	80.003	19.996	103.130	20.218	3.681	0.519
1091.999	626.556	80.004	19.997	103.130	20.222	3.400	0.514
1092.500	626.885	80.003	19.995	103.125	20.218	3.656	0.503
1093.000	627.132	80.004	19.996	103.124	20.216	3.788	0.550
1093.499	627.388	80.003	19.996	103.122	20.220	3.505	0.539
1093.999	627.666	80.003	19.995	103.118	20.224	3.271	0.518
1094.499	627.925	80.004	19.996	103.122	20.225	3.193	0.536
1094.999	628.170	80.004	19.995	103.125	20.222	3.371	0.521
1095.499	628.410	80.004	19.995	103.124	20.222	3.362	0.495
1095.999	628.687	80.004	19.996	103.121	20.225	3.204	0.501
1096.500	628.905	80.003	19.996	103.118	20.220	3.552	0.506
1097.000	629.168	80.004	19.996	103.111	20.220	3.523	0.488
1097.499	629.435	80.003	19.998	103.108	20.222	3.424	0.505
1097.999	629.708	80.005	19.995	103.109	20.222	3.386	0.534
1098.499	630.002	80.003	19.997	103.112	20.221	3.467	0.553
1098.999	630.218	80.002	19.996	103.116	20.219	3.595	0.538
1099.499	630.486	80.003	19.997	103.117	20.218	3.654	0.497
1099.999	630.744	80.003	19.997	103.119	20.219	3.613	0.505
1100.499	631.014	80.001	19.996	103.117	20.220	3.541	0.527
1100.999	631.215	80.003	19.996	103.114	20.221	3.489	0.499
1101.499	631.503	80.001	19.996	103.111	20.223	3.330	0.480
1101.999	631.707	80.001	19.997	103.113	20.219	3.577	0.491
1102.499	631.970	80.001	19.995	103.115	20.222	3.368	0.479
1102.999	632.244	80.000	19.996	103.120	20.220	3.552	0.502
1103.500	632.476	80.002	19.996	103.124	20.217	3.726	0.521
1104.000	632.756	80.000	19.995	103.125	20.224	3.236	0.508
1104.499	632.985	80.002	19.997	103.125	20.218	3.636	0.510
1105.000	633.254	80.001	19.996	103.123	20.220	3.539	0.504
1105.500	633.529	80.001	19.996	103.122	20.220	3.552	0.521
1105.999	633.766	80.001	19.995	103.120	20.218	3.658	0.528
1106.499	634.046	80.001	19.996	103.118	20.220	3.530	0.515
1106.999	634.288	80.001	19.996	103.121	20.216	3.801	0.520
1107.499	634.573	80.003	19.997	103.123	20.214	3.939	0.524
1108.000	634.810	80.001	19.995	103.121	20.219	3.604	0.524
1108.501	635.077	80.001	19.995	103.124	20.218	3.636	0.513
1109.000	635.310	80.001	19.994	103.126	20.217	3.701	0.502
1109.499	635.602	80.001	19.995	103.122	20.218	3.682	0.513
1109.999	635.858	80.001	19.994	103.118	20.218	3.630	0.537
1110.499	636.091	80.002	19.996	103.116	20.217	3.686	0.518
1110.999	636.328	80.001	19.994	103.115	20.217	3.727	0.479
1111.499	636.581	80.001	19.994	103.117	20.216	3.774	0.480
1111.999	636.858	80.001	19.993	103.118	20.220	3.516	0.510
1112.499	637.105	80.002	19.995	103.119	20.220	3.519	0.527
1112.999	637.327	80.001	19.994	103.120	20.219	3.607	0.496
1113.499	637.604	80.001	19.994	103.118	20.221	3.485	0.484
1113.999	637.835	80.002	19.994	103.113	20.219	3.606	0.504
1114.499	638.104	80.003	19.996	103.113	20.218	3.655	0.504
1114.999	638.345	80.003	19.994	103.112	20.218	3.651	0.505
1115.499	638.606	80.001	19.996	103.112	20.216	3.766	0.506
1115.999	638.847	80.001	19.996	103.113	20.219	3.592	0.502
1116.499	639.117	80.001	19.993	103.117	20.215	3.851	0.506
1116.999	639.316	80.001	19.996	103.119	20.218	3.621	0.490
1117.499	639.626	80.002	19.995	103.121	20.218	3.643	0.490
1118.000	639.909	80.002	19.994	103.120	20.218	3.675	0.551
1118.500	640.125	80.001	19.994	103.120	20.217	3.700	0.546
1118.999	640.388	80.002	19.995	103.117	20.215	3.821	0.489
1119.499	640.676	80.001	19.995	103.114	20.214	3.940	0.515
1119.999	640.906	80.002	19.994	103.118	20.217	3.704	0.535
1120.499	641.140	80.002	19.995	103.127	20.219	3.598	0.491
1120.999	641.403	79.999	19.994	103.132	20.216	3.789	0.480
1121.499	641.680	80.002	19.995	103.135	20.217	3.735	0.519
1121.999	641.897	80.001	19.996	103.136	20.216	3.792	0.517
1122.499	642.194	80.002	19.994	103.130	20.215	3.832	0.504
1122.999	642.436	80.001	19.994	103.124	20.215	3.848	0.526
1123.499	642.719	80.001	19.995	103.118	20.216	3.761	0.532
1123.999	642.955	80.002	19.995	103.115	20.217	3.696	0.522
1124.499	643.231	80.001	19.995	103.117	20.218	3.680	0.515
1124.999	643.476	80.002	19.994	103.119	20.218	3.680	0.516
1125.499	643.681	80.003	19.995	103.120	20.215	3.840	0.486
1125.999	644.003	80.001	19.994	103.121	20.214	3.881	0.488
1126.499	644.267	80.002	19.994	103.124	20.212	4.017	0.557
1126.999	644.472	80.002	19.996	103.129	20.220	3.497	0.528
1127.499	644.757	80.000	19.995	103.131	20.213	4.002	0.479
1128.000	644.996	80.002	19.995	103.134	20.218	3.644	0.507
1128.501	645.255	80.002	19.994	103.137	20.217	3.748	0.511
1129.000	645.550	80.002	19.995	103.135	20.215	3.864	0.526
1129.499	645.789	80.003	19.996	103.134	20.213	3.954	0.544
1129.999	646.040	80.001	19.997	103.135	20.216	3.772	0.512
1130.499	646.290	80.000	19.996	103.136	20.218	3.658	0.496
1130.999	646.539	80.002	19.995	103.139	20.218	3.647	0.500
1131.499	646.850	80.001	19.993	103.143	20.215	3.873	0.529
1131.999	647.075	80.002	19.996	103.142	20.213	3.972	0.548
1132.499	647.348	80.001	19.996	103.140	20.214	3.909	0.517
1132.999	647.600	80.002	19.996	103.134	20.215	3.868	0.511
1133.499	647.851	80.001	19.995	103.129	20.211	4.082	0.514
1133.999	648.083	80.001	19.996	103.125	20.214	3.924	0.493
1134.499	648.365	80.002	19.995	103.120	20.212	4.015	0.499
1134.999	648.621	80.001	19.995	103.119	20.219	3.608	0.526
1135.499	648.887	80.001	19.995	103.118	20.219	3.590	0.530
1135.999	649.150	80.001	19.996	103.116	20.214	3.909	0.525
1136.499	649.381	80.001	19.995	103.115	20.215	3.828	0.511
1136.999	649.660	80.001	19.995	103.114	20.216	3.752	0.502
1137.499	649.921	80.001	19.997	103.110	20.217	3.745	0.525
1137.999	650.203	80.003	19.997	103.110	20.218	3.674	0.542
1138.499	650.474	80.002	19.995	103.110	20.217	3.690	0.548
1138.999	650.725	80.001	19.995	103.115	20.215	3.871	0.538
1139.499	650.968	80.002	19.996	103.119	20.218	3.624	0.508
1139.999	651.177	80.002	19.994	103.120	20.218	3.665	0.473
1140.499	651.472	80.004	19.995	103.121	20.217	3.693	0.478
1140.999	651.781	80.002	19.996	103.124	20.217	3.687	0.554
1141.499	652.010	80.001	19.994	103.121	20.217	3.685	0.571
1142.000	652.278	80.002	19.995	103.120	20.217	3.738	0.518
1142.501	652.500	80.003	19.995	103.121	20.218	3.676	0.494
1143.001	652.763	80.002	19.995	103.125	20.218	3.631	0.487
1143.500	653.013	80.003	19.994	103.124	20.218	3.629	0.499
1143.999	653.271	80.003	19.995	103.128	20.217	3.701	0.511
1144.499	653.545	80.002	19.995	103.132	20.217	3.689	0.520
1144.999	653.771	80.001	19.993	103.131	20.218	3.647	0.516
1145.499	654.023	80.003	19.995	103.127	20.215	3.831	0.489
1145.999	654.264	80.003	19.994	103.123	20.216	3.757	0.486
1146.499	654.548	80.003	19.996	103.120	20.215	3.865	0.509
1146.999	654.811	80.004	19.997	103.120	20.213	3.961	0.536
1147.499	655.101	80.004	19.994	103.125	20.214	3.880	0.550
1147.999	655.334	80.004	19.995	103.127	20.220	3.498	0.538
1148.499	655.580	80.004	19.995	103.127	20.220	3.534	0.501
1148.999	655.848	80.005	19.996	103.124	20.214	3.913	0.496
1149.499	656.133	80.004	19.996	103.117	20.218	3.682	0.533
1149.999	656.390	80.004	19.996	103.114	20.216	3.792	0.548
1150.499	656.589	80.003	19.996	103.115	20.219	3.594	0.500
1151.000	656.893	80.003	19.994	103.119	20.217	3.715	0.479
1151.500	657.125	80.003	19.995	103.124	20.214	3.886	0.519
1152.000	657.374	80.003	19.996	103.124	20.218	3.666	0.508
1152.500	657.628	80.003	19.994	103.122	20.213	3.952	0.492
1152.999	657.839	80.003	19.995	103.121	20.216	3.768	0.484
1153.499	658.147	80.003	19.995	103.116	20.214	3.882	0.492
1153.999	658.407	80.004	19.994	103.111	20.214	3.911	0.544
1154.499	658.636	80.003	19.994	103.112	20.216	3.762	0.529
1155.000	658.849	80.001	19.995	103.116	20.215	3.831	0.466
1155.500	659.138	80.002	19.995	103.114	20.215	3.878	0.472
1155.999	659.363	80.002	19.994	103.115	20.215	3.824	0.508
1156.500	659.642	80.002	19.996	103.115	20.216	3.772	0.508
1157.001	659.870	80.002	19.995	103.116	20.213	3.947	0.505
1157.501	660.132	80.003	19.996	103.115	20.216	3.781	0.498
1158.000	660.371	80.002	19.996	103.117	20.216	3.790	0.496
1158.499	660.614	80.002	19.996	103.117	20.213	3.958	0.492
1158.999	660.893	80.003	19.995	103.118	20.218	3.624	0.502
1159.499	661.096	80.001	19.996	103.122	20.216	3.778	0.502
1159.999	661.361	80.001	19.995	103.124	20.216	3.807	0.475
1160.499	661.658	80.002	19.996	103.129	20.214	3.922	0.515
1160.999	661.901	80.002	19.996	103.135	20.216	3.783	0.551
1161.499	662.140	80.003	19.996	103.140	20.213	3.989	0.511
1161.999	662.393	80.002	19.995	103.138	20.211	4.100	0.487
1162.499	662.655	80.002	19.996	103.137	20.216	3.754	0.504
1162.999	662.895	80.003	19.996	103.136	20.216	3.804	0.508
1163.499	663.145	80.004	19.997	103.130	20.215	3.876	0.496
1163.999	663.381	80.002	19.995	103.126	20.212	4.029	0.488
1164.499	663.651	80.002	19.997	103.123	20.214	3.885	0.496
1164.999	663.901	80.003	19.996	103.120	20.215	3.840	0.513
1165.500	664.136	80.002	19.995	103.114	20.216	3.777	0.503
1166.000	664.375	80.003	19.996	103.117	20.217	3.693	0.480
1166.499	664.608	80.003	19.995	103.123	20.214	3.913	0.473
1166.999	664.869	80.002	19.996	103.127	20.214	3.927	0.483
1167.499	665.092	80.002	19.995	103.130	20.211	4.084	0.489
1168.000	665.345	80.003	19.996	103.131	20.213	3.977	0.480
1168.500	665.608	80.002	19.995	103.134	20.215	3.842	0.496
1168.999	665.798	80.003	19.995	103.135	20.215	3.817	0.485
1169.499	666.059	80.002	19.995	103.134	20.217	3.705	0.452
1169.999	666.313	80.003	19.996	103.132	20.215	3.859	0.482
1170.499	666.553	80.003	19.996	103.135	20.214	3.920	0.504
1170.999	666.785	80.003	19.997	103.135	20.212	4.066	0.483
1171.499	667.051	80.003	19.995	103.133	20.213	3.965	0.485
1171.999	667.308	80.004	19.997	103.132	20.214	3.894	0.511
1172.499	667.525	80.004	19.995	103.134	20.213	3.979	0.499
1172.999	667.788	80.004	19.996	103.131	20.214	3.886	0.477
1173.499	668.015	80.005	19.996	103.125	20.215	3.815	0.485
1173.999	668.255	80.004	19.994	103.122	20.215	3.848	0.478
1174.499	668.467	80.004	19.996	103.119	20.211	4.089	0.459
1174.999	668.733	80.006	19.995	103.117	20.213	3.961	0.465
1175.499	668.994	80.004	19.994	103.123	20.212	4.032	0.502
1175.999	669.216	80.003	19.994	103.125	20.213	3.951	0.505
1176.499	669.475	80.004	19.996	103.124	20.213	3.967	0.482
1176.999	669.692	80.004	19.996	103.128	20.215	3.832	0.479
1177.499	669.983	80.004	19.995	103.130	20.209	4.252	0.492
1177.999	670.217	80.004	19.995	103.125	20.213	3.996	0.517
1178.500	670.480	80.003	19.996	103.121	20.211	4.086	0.512
1179.001	670.735	80.002	19.995	103.122	20.210	4.151	0.507
1179.500	670.926	80.003	19.995	103.125	20.207	4.340	0.481
1179.999	671.188	80.004	19.995	103.128	20.208	4.324	0.449
1180.499	671.469	80.004	19.995	103.132	20.212	4.037	0.498
1180.999	671.689	80.002	19.995	103.133	20.209	4.210	0.522
1181.500	671.933	80.002	19.995	103.132	20.210	4.172	0.483
1182.000	672.210	80.002	19.995	103.125	20.207	4.365	0.492
1182.499	672.407	80.002	19.995	103.119	20.214	3.934	0.498
1182.999	672.673	80.002	19.996	103.119	20.212	4.015	0.469
1183.499	672.927	80.002	19.995	103.125	20.205	4.475	0.492
1183.999	673.186	79.999	19.996	103.126	20.211	4.120	0.516
1184.499	673.434	80.001	19.995	103.128	20.210	4.196	0.510
1184.999	673.682	79.999	19.995	103.130	20.214	3.900	0.501
1185.499	673.916	80.000	19.995	103.130	20.212	4.055	0.489
1185.999	674.174	79.999	19.996	103.130	20.209	4.221	0.487
1186.499	674.444	80.000	19.996	103.132	20.215	3.843	0.510
1186.999	674.686	79.999	19.996	103.135	20.211	4.131	0.520
1187.499	674.979	80.000	19.996	103.134	20.209	4.260	0.523
1187.999	675.226	79.999	19.997	103.131	20.214	3.910	0.537
1188.499	675.488	79.999	19.996	103.128	20.209	4.208	0.525
1188.999	675.682	80.000	19.995	103.130	20.208	4.276	0.483
1189.499	675.938	80.000	19.996	103.132	20.213	3.988	0.453
1189.999	676.217	80.000	19.998	103.136	20.212	4.061	0.492
1190.499	676.434	80.000	19.997	103.137	20.213	3.975	0.516
1190.999	676.693	80.001	19.996	103.137	20.210	4.150	0.486
1191.499	676.911	80.000	19.996	103.131	20.210	4.172	0.476
1192.000	677.177	80.000	19.996	103.126	20.210	4.161	0.480
1192.500	677.416	80.000	19.997	103.122	20.207	4.352	0.494
1192.999	677.643	80.000	19.996	103.122	20.206	4.426	0.486
1193.499	677.944	80.000	19.995	103.124	20.211	4.111	0.497
1193.999	678.184	80.000	19.996	103.128	20.210	4.203	0.535
1194.499	678.413	80.000	19.996	103.132	20.213	3.987	0.505
1194.999	678.657	80.001	19.996	103.132	20.209	4.233	0.471
1195.499	678.899	80.001	19.996	103.135	20.213	3.997	0.479
1195.999	679.157	80.001	19.996	103.138	20.210	4.159	0.493
1196.499	679.404	80.001	19.996	103.137	20.216	3.809	0.503
1196.999	679.675	80.001	19.997	103.137	20.212	4.046	0.512
1197.499	679.903	80.001	19.995	103.137	20.216	3.777	0.508
1198.000	680.150	80.000	19.996	103.129	20.215	3.851	0.487
1198.500	680.399	80.001	19.996	103.122	20.213	3.974	0.485
1198.999	680.650	80.002	19.995	103.116	20.215	3.815	0.498
1199.499	680.935	80.002	19.995	103.110	20.213	3.988	0.519
1199.999	681.157	80.002	19.995	103.106	20.211	4.084	0.522
1200.499	681.440	80.001	19.995	103.107	20.212	4.073	0.505
1201.000	681.662	80.000	19.995	103.108	20.209	4.261	0.505
1201.500	681.919	80.001	19.995	103.111	20.213	3.958	0.493
1202.000	682.154	80.001	19.995	103.114	20.212	4.070	0.485
1202.501	682.415	80.003	19.995	103.115	20.210	4.187	0.493
1203.001	682.655	80.001	19.994	103.118	20.214	3.893	0.498
1203.500	682.912	80.002	19.996	103.119	20.214	3.900	0.500
1203.999	683.139	80.002	19.996	103.122	20.211	4.101	0.490
1204.500	683.395	80.001	19.995	103.126	20.210	4.172	0.483
1205.000	683.625	80.001	19.996	103.130	20.215	3.821	0.485
1205.499	683.887	80.002	19.995	103.127	20.210	4.143	0.489
1205.999	684.134	80.002	19.996	103.125	20.211	4.089	0.500
1206.499	684.387	80.003	19.994	103.121	20.212	4.051	0.504
1206.999	684.612	80.001	19.994	103.115	20.207	4.376	0.489
1207.500	684.867	80.002	19.996	103.115	20.213	3.951	0.479
1208.001	685.178	80.001	19.995	103.119	20.211	4.098	0.523
1208.500	685.411	80.002	19.995	103.121	20.211	4.108	0.555
1208.999	685.634	80.001	19.995	103.126	20.212	4.052	0.500
1209.499	685.894	80.001	19.996	103.132	20.212	4.039	0.470
1209.999	686.168	80.002	19.995	103.130	20.210	4.187	0.509
1210.499	686.413	80.001	19.994	103.128	20.212	4.032	0.526
1210.999	686.646	80.003	19.995	103.131	20.216	3.760	0.498
1211.499	686.958	80.003	19.995	103.131	20.212	4.014	0.511
1211.999	687.236	80.003	19.995	103.132	20.211	4.124	0.568
1212.499	687.408	80.002	19.996	103.135	20.214	3.900	0.520
1212.999	687.673	80.002	19.996	103.139	20.211	4.100	0.444
1213.499	687.906	80.001	19.995	103.138	20.212	4.050	0.467
1213.999	688.170	80.001	19.996	103.137	20.211	4.103	0.497
1214.499	688.440	80.000	19.995	103.137	20.210	4.184	0.515
1214.999	688.695	80.001	19.994	103.137	20.214	3.924	0.529
1215.499	688.946	80.002	19.995	103.133	20.212	4.059	0.516
1215.999	689.212	80.001	19.996	103.130	20.210	4.148	0.512
1216.499	689.476	80.002	19.995	103.128	20.209	4.269	0.523
1216.999	689.784	80.001	19.994	103.121	20.208	4.290	0.551
1217.499	689.995	80.000	19.995	103.121	20.208	4.288	0.545
1217.999	690.241	80.002	19.995	103.125	20.209	4.216	0.488
1218.499	690.505	80.000	19.994	103.129	20.211	4.137	0.484
1218.999	690.780	80.003	19.996	103.127	20.216	3.771	0.524
1219.499	691.050	80.001	19.995	103.132	20.208	4.278	0.542
1219.999	691.272	80.001	19.996	103.133	20.208	4.319	0.519
1220.500	691.561	80.002	19.996	103.133	20.211	4.086	0.502
1221.001	691.860	80.000	19.994	103.135	20.214	3.881	0.549
1221.500	692.118	80.002	19.994	103.138	20.212	4.025	0.573
1222.000	692.365	80.001	19.996	103.135	20.211	4.131	0.531
1222.500	692.639	80.002	19.995	103.132	20.209	4.245	0.513
1222.999	692.900	80.002	19.994	103.132	20.211	4.117	0.528
1223.499	693.186	80.003	19.997	103.133	20.210	4.189	0.541
1223.999	693.474	80.002	19.995	103.136	20.209	4.214	0.560
1224.499	693.738	80.003	19.995	103.139	20.206	4.431	0.563
1224.999	694.017	80.003	19.996	103.142	20.205	4.494	0.547
1225.499	694.304	80.002	19.995	103.144	20.207	4.386	0.554
1225.999	694.594	80.001	19.995	103.143	20.209	4.270	0.572
1226.499	694.862	80.004	19.996	103.143	20.204	4.546	0.568
1226.999	695.146	80.003	19.994	103.144	20.211	4.128	0.555
1227.499	695.429	80.002	19.994	103.146	20.206	4.463	0.560
1227.999	695.683	80.003	19.995	103.146	20.209	4.216	0.552
1228.499	695.978	80.002	19.994	103.146	20.211	4.118	0.543
1228.999	696.255	80.003	19.995	103.147	20.211	4.136	0.561
1229.499	696.554	80.004	19.995	103.147	20.211	4.077	0.574
1229.999	696.845	80.004	19.994	103.147	20.211	4.113	0.583
1230.499	697.112	80.004	19.995	103.147	20.210	4.198	0.574
1230.999	697.400	80.003	19.995	103.145	20.205	4.501	0.557
1231.499	697.679	80.004	19.994	103.144	20.205	4.528	0.561
1231.999	697.958	80.004	19.994	103.137	20.205	4.476	0.562
1232.499	698.236	80.004	19.994	103.134	20.210	4.178	0.558
1232.999	698.534	80.005	19.996	103.132	20.212	4.056	0.567
1233.499	698.778	80.004	19.994	103.134	20.205	4.492	0.559
1233.999	699.098	80.003	19.995	103.135	20.206	4.426	0.553
1234.499	699.433	80.004	19.995	103.140	20.208	4.305	0.610
1234.999	699.701	80.004	19.995	103.144	20.207	4.375	0.629
1235.499	699.949	80.004	19.996	103.146	20.205	4.503	0.559
1235.999	700.249	80.004	19.994	103.147	20.208	4.305	0.532
1236.499	700.513	80.003	19.994	103.147	20.205	4.508	0.556
1236.999	700.813	80.005	19.996	103.148	20.209	4.227	0.564
1237.499	701.107	80.004	19.995	103.148	20.204	4.552	0.580
1237.999	701.404	80.004	19.994	103.146	20.205	4.469	0.593
1238.499	701.668	80.003	19.995	103.140	20.210	4.169	0.576
1238.999	702.004	80.003	19.994	103.133	20.208	4.326	0.580
1239.499	702.310	80.003	19.993	103.132	20.204	4.546	0.621
1240.000	702.587	80.002	19.994	103.133	20.210	4.149	0.612
1240.500	702.850	80.002	19.994	103.136	20.205	4.532	0.562
1241.000	703.129	80.005	19.994	103.139	20.209	4.238	0.542
1241.500	703.464	80.003	19.994	103.144	20.205	4.521	0.578
1241.999	703.734	80.003	19.994	103.146	20.210	4.159	0.609
1242.499	704.027	80.004	19.995	103.145	20.208	4.308	0.584
1242.999	704.288	80.003	19.995	103.145	20.207	4.382	0.559
1243.499	704.588	80.004	19.995	103.147	20.209	4.263	0.558
1243.999	704.860	80.003	19.995	103.149	20.208	4.301	0.566
1244.499	705.114	80.004	19.995	103.149	20.208	4.319	0.549
1244.999	705.445	80.002	19.995	103.150	20.206	4.401	0.556
1245.499	705.732	80.002	19.995	103.148	20.209	4.234	0.601
1245.999	706.022	80.003	19.996	103.143	20.204	4.546	0.598
1246.500	706.326	80.003	19.995	103.143	20.205	4.488	0.586
1247.000	706.609	80.003	19.996	103.143	20.205	4.519	0.590
1247.499	706.908	80.004	19.994	103.142	20.204	4.543	0.584
1247.999	707.202	80.002	19.995	103.141	20.212	4.043	0.587
1248.499	707.492	80.002	19.995	103.144	20.206	4.425	0.588
1248.999	707.753	80.002	19.994	103.140	20.204	4.556	0.568
1249.499	708.075	80.003	19.995	103.137	20.203	4.600	0.567
1249.999	708.320	80.002	19.995	103.136	20.207	4.392	0.575
1250.499	708.622	80.004	19.996	103.140	20.203	4.650	0.557
1250.999	708.915	80.003	19.995	103.141	20.203	4.611	0.571
1251.499	709.202	80.004	19.995	103.145	20.204	4.580	0.587
1251.999	709.472	80.004	19.996	103.148	20.206	4.467	0.568
1252.499	709.793	80.003	19.996	103.148	20.208	4.329	0.573
1252.999	710.097	80.002	19.995	103.148	20.201	4.768	0.608
1253.499	710.373	80.003	19.995	103.148	20.202	4.688	0.603
1253.999	710.653	80.005	19.996	103.143	20.207	4.360	0.568
1254.499	710.935	80.002	19.994	103.142	20.203	4.629	0.559
1255.000	711.186	80.005	19.995	103.142	20.208	4.331	0.548
1255.500	711.525	80.004	19.994	103.139	20.206	4.409	0.561
1255.999	711.799	80.004	19.996	103.133	20.203	4.618	0.601
1256.499	712.096	80.005	19.995	103.137	20.206	4.420	0.592
1256.999	712.377	80.004	19.994	103.139	20.203	4.660	0.574
1257.499	712.644	80.005	19.994	103.138	20.200	4.816	0.563
1257.999	712.909	80.005	19.996	103.139	20.202	4.712	0.540
1258.499	713.226	80.006	19.997	103.141	20.201	4.777	0.557
1258.999	713.502	80.005	19.994	103.138	20.200	4.814	0.588
1259.499	713.780	80.005	19.996	103.133	20.202	4.715	0.574
1259.999	714.064	80.003	19.995	103.129	20.203	4.625	0.558
1260.499	714.328	80.005	19.996	103.128	20.205	4.517	0.555
1260.999	714.638	80.005	19.996	103.131	20.207	4.351	0.561
1261.499	714.897	80.005	19.996	103.134	20.204	4.583	0.571
1261.999	715.175	80.005	19.996	103.138	20.203	4.636	0.553
1262.499	715.466	80.004	19.997	103.139	20.202	4.706	0.553
1262.999	715.727	80.004	19.996	103.137	20.204	4.580	0.560
1263.500	716.029	80.003	19.996	103.135	20.201	4.759	0.558
1264.000	716.312	80.005	19.997	103.136	20.200	4.800	0.575
1264.499	716.614	80.004	19.995	103.133	20.201	4.754	0.585
1264.999	716.912	80.002	19.996	103.133	20.205	4.528	0.592
1265.500	717.200	80.003	19.995	103.136	20.203	4.652	0.593
1266.000	717.463	80.003	19.994	103.138	20.203	4.620	0.569
1266.499	717.738	80.004	19.996	103.135	20.205	4.468	0.545
1266.999	717.996	80.001	19.996	103.137	20.203	4.643	0.536
1267.499	718.291	80.002	19.996	103.141	20.205	4.473	0.543
1267.999	718.576	80.005	19.997	103.140	20.205	4.507	0.567
1268.500	718.882	80.002	19.995	103.138	20.203	4.614	0.585
1269.001	719.122	80.004	19.996	103.140	20.206	4.439	0.568
1269.500	719.429	80.003	19.996	103.136	20.203	4.607	0.547
1269.999	719.666	80.002	19.995	103.131	20.206	4.456	0.545
1270.499	719.971	80.003	19.996	103.128	20.203	4.604	0.543
1270.999	720.245	80.003	19.995	103.125	20.203	4.620	0.560
1271.499	720.518	80.003	19.996	103.125	20.199	4.897	0.563
1271.999	720.775	80.002	19.996	103.128	20.202	4.699	0.538
1272.499	721.085	80.002	19.995	103.128	20.199	4.865	0.549
1272.999	721.338	80.000	19.995	103.126	20.203	4.638	0.566
1273.499	721.620	80.001	19.996	103.130	20.200	4.800	0.549
1273.999	721.907	80.001	19.996	103.132	20.202	4.679	0.551
1274.499	722.187	80.002	19.995	103.135	20.204	4.580	0.568
1274.999	722.431	80.002	19.997	103.139	20.202	4.674	0.546
1275.499	722.741	80.002	19.996	103.145	20.203	4.614	0.539
1275.999	723.036	80.001	19.996	103.145	20.202	4.706	0.580
1276.499	723.296	80.002	19.996	103.141	20.204	4.593	0.581
1276.999	723.534	80.001	19.997	103.137	20.202	4.679	0.526
1277.499	723.846	80.001	19.997	103.132	20.204	4.549	0.524
1277.999	724.123	80.002	19.997	103.128	20.205	4.501	0.569
1278.499	724.357	80.001	19.995	103.120	20.203	4.612	0.550
1278.999	724.619	80.001	19.996	103.122	20.207	4.398	0.504
1279.499	724.900	80.001	19.996	103.126	20.204	4.594	0.520
1279.999	725.182	80.002	19.996	103.129	20.206	4.464	0.553
1280.499	725.448	80.002	19.997	103.134	20.201	4.782	0.555
1280.999	725.750	80.000	19.995	103.138	20.204	4.580	0.558
1281.499	726.001	80.001	19.996	103.136	20.203	4.632	0.561
1281.999	726.313	80.002	19.997	103.135	20.207	4.398	0.559
1282.499	726.533	80.001	19.997	103.135	20.207	4.396	0.548
1282.999	726.824	80.001	19.996	103.132	20.201	4.764	0.521
1283.499	727.089	80.002	19.996	103.134	20.202	4.676	0.534
1283.999	727.366	80.002	19.997	103.135	20.201	4.784	0.549
1284.499	727.626	80.002	19.996	103.133	20.202	4.663	0.539
1284.999	727.911	80.002	19.997	103.135	20.203	4.657	0.541
1285.499	728.187	80.002	19.996	103.139	20.201	4.774	0.553
1286.000	728.443	80.001	19.996	103.136	20.203	4.650	0.546
1286.500	728.706	80.001	19.997	103.134	20.203	4.647	0.526
1286.999	729.008	80.003	19.997	103.134	20.208	4.313	0.542
1287.499	729.290	80.003	19.996	103.134	20.205	4.472	0.575
1287.999	729.497	80.002	19.997	103.134	20.202	4.674	0.537
1288.499	729.786	80.002	19.997	103.132	20.204	4.548	0.493
1288.999	730.061	80.001	19.996	103.132	20.207	4.398	0.530
1289.499	730.325	80.003	19.998	103.129	20.205	4.490	0.551
1289.999	730.619	80.002	19.997	103.127	20.204	4.562	0.549
1290.500	730.869	80.004	19.997	103.125	20.204	4.566	0.551
1291.000	731.120	80.003	19.997	103.126	20.203	4.625	0.522
1291.499	731.384	80.002	19.997	103.127	20.203	4.598	0.508
1291.999	731.665	80.003	19.996	103.127	20.203	4.637	0.531
1292.499	731.910	80.004	19.996	103.124	20.206	4.417	0.536
1292.999	732.171	80.002	19.997	103.125	20.206	4.455	0.516
1293.499	732.442	80.002	19.996	103.128	20.202	4.668	0.519
1293.999	732.713	80.001	19.996	103.130	20.202	4.671	0.537
1294.499	732.966	80.002	19.996	103.132	20.205	4.504	0.532
1294.999	733.256	80.002	19.997	103.130	20.204	4.592	0.534
1295.500	733.525	80.002	19.995	103.126	20.204	4.555	0.551
1296.000	733.805	80.003	19.997	103.121	20.205	4.513	0.554
1296.499	734.072	80.002	19.995	103.119	20.202	4.692	0.548
1297.000	734.303	80.002	19.996	103.122	20.202	4.670	0.523
1297.501	734.603	80.002	19.995	103.128	20.206	4.416	0.515
1298.001	734.848	80.002	19.995	103.133	20.203	4.645	0.538
1298.500	735.090	80.002	19.996	103.138	20.203	4.601	0.516
1298.999	735.353	80.003	19.996	103.141	20.206	4.437	0.496
1299.499	735.629	80.001	19.995	103.142	20.205	4.511	0.522
1299.999	735.876	80.003	19.995	103.139	20.200	4.803	0.531
1300.499	736.161	80.002	19.995	103.134	20.200	4.809	0.528
1300.999	736.402	80.003	19.997	103.133	20.201	4.784	0.529
1301.499	736.646	80.002	19.996	103.132	20.203	4.631	0.505
1302.000	736.919	80.002	19.995	103.128	20.201	4.784	0.501
1302.500	737.177	80.002	19.996	103.129	20.202	4.683	0.524
1302.999	737.448	80.001	19.995	103.128	20.201	4.745	0.530
1303.500	737.682	80.003	19.996	103.125	20.203	4.620	0.517
1304.000	737.947	80.002	19.995	103.122	20.201	4.767	0.502
1304.499	738.223	80.001	19.996	103.124	20.198	4.984	0.520
1305.000	738.494	80.003	19.996	103.120	20.202	4.666	0.544
1305.500	738.755	80.002	19.995	103.123	20.198	4.940	0.539
1306.000	739.017	80.002	19.994	103.125	20.201	4.761	0.527
1306.500	739.286	80.003	19.996	103.129	20.200	4.843	0.527
1306.999	739.551	80.002	19.996	103.127	20.199	4.874	0.533
1307.499	739.774	80.003	19.996	103.132	20.202	4.700	0.511
1307.999	740.036	80.003	19.995	103.131	20.200	4.825	0.486
1308.499	740.305	80.002	19.994	103.129	20.201	4.755	0.508
1308.999	740.584	80.003	19.995	103.129	20.202	4.719	0.539
1309.499	740.806	80.002	19.996	103.127	20.202	4.690	0.524
1309.999	741.103	80.004	19.996	103.124	20.198	4.973	0.510
1310.499	741.348	80.004	19.994	103.124	20.195	5.130	0.530
1310.999	741.595	80.002	19.995	103.125	20.199	4.919	0.517
1311.499	741.840	80.003	19.995	103.128	20.197	5.047	0.493
1311.999	742.116	80.003	19.995	103.133	20.202	4.692	0.507
1312.499	742.358	80.003	19.994	103.138	20.199	4.917	0.519
1312.999	742.664	80.004	19.995	103.142	20.199	4.872	0.533
1313.499	742.866	80.005	19.996	103.146	20.199	4.874	0.528
1313.999	743.165	80.003	19.995	103.144	20.198	4.932	0.505
1314.499	743.380	80.003	19.994	103.139	20.203	4.636	0.508
1314.999	743.659	80.003	19.996	103.132	20.198	4.923	0.504
1315.499	743.888	80.002	19.995	103.126	20.200	4.802	0.501
1315.999	744.183	80.003	19.995	103.120	20.195	5.164	0.515
1316.500	744.437	80.002	19.996	103.118	20.194	5.189	0.536
1317.000	744.687	80.003	19.995	103.118	20.197	5.027	0.527
1317.499	744.964	80.002	19.996	103.122	20.199	4.884	0.516
1318.000	745.194	80.003	19.997	103.126	20.197	5.052	0.517
1318.501	745.443	80.002	19.995	103.125	20.199	4.859	0.493
