Sample ID:	C:\MCC\MCC Cal\Test\PlasticC_MCC_30K_min_211022_R3.txt
Sample Weight (mg):	4.6
Heating Rate (C/s):	0.5
Combustor Temp (C):	900
N2 Flow Rate (cc/min):	80
O2 Flow Rate (cc/min):	20
Calibration File:	C:\MCC\MCC Cal\Coeff1 JN10440_30_210304.txt.txt
T Correction Coefficients:	0	1.024463	0
Time Shift (s):	14
*
Time (s)	Temperature (C)	N2 flow rate (cc/min)	O2 flow rate (cc/min)	Flow Rate (cc/min)	Oxygen (%)	HRR (W/g)	Heating rate (C/s)
0.000	107.970	80.003	19.996	103.005	20.054	0.073	-0.018
0.500	107.996	80.004	19.997	103.009	20.050	0.335	0.006
1.000	107.995	80.003	19.997	103.012	20.051	0.249	0.021
1.501	107.957	80.004	19.996	103.013	20.056	-0.107	-0.007
2.000	108.000	80.003	19.995	103.015	20.053	0.090	-0.017
2.500	107.994	80.003	19.996	103.011	20.052	0.178	0.020
3.000	108.010	80.003	19.997	103.010	20.050	0.312	0.023
3.500	107.953	80.003	19.995	103.015	20.052	0.174	-0.015
4.000	107.912	80.002	19.998	103.018	20.054	0.050	-0.069
4.500	107.964	80.004	19.997	103.018	20.059	-0.300	-0.043
5.000	107.992	80.002	19.998	103.022	20.053	0.130	0.045
5.500	107.947	80.001	19.997	103.025	20.054	0.029	0.032
6.000	107.993	80.001	19.996	103.019	20.051	0.266	-0.007
6.500	107.923	80.001	19.995	103.014	20.057	-0.136	-0.011
7.000	107.935	80.002	19.995	103.015	20.055	-0.033	-0.041
7.500	107.959	80.001	19.995	103.012	20.053	0.128	-0.011
8.000	107.958	80.002	19.995	103.007	20.050	0.323	0.029
8.500	107.941	80.002	19.997	103.007	20.052	0.161	0.002
9.000	107.924	80.001	19.996	103.010	20.053	0.138	-0.026
9.500	107.959	80.015	19.999	103.014	20.053	0.084	-0.008
10.000	107.927	80.022	19.999	103.019	20.054	0.036	0.010
10.500	107.907	80.020	19.998	103.028	20.051	0.231	-0.024
11.000	107.919	80.013	19.996	103.035	20.057	-0.151	-0.030
11.500	107.931	80.016	19.999	103.039	20.054	0.034	0.008
12.000	107.913	80.012	19.996	103.035	20.051	0.239	0.009
12.500	107.903	80.002	19.996	103.029	20.058	-0.266	-0.017
13.000	107.962	80.002	19.998	103.024	20.052	0.153	0.010
13.500	107.934	80.002	19.997	103.018	20.054	0.067	0.040
14.000	107.927	80.003	19.997	103.010	20.049	0.369	-0.002
14.500	107.917	80.001	19.996	103.009	20.053	0.119	-0.026
15.000	107.931	80.001	19.994	103.013	20.048	0.459	-0.007
15.500	107.928	80.002	19.996	103.017	20.054	0.036	0.007
16.000	107.946	80.002	19.994	103.023	20.054	0.052	0.013
16.500	107.910	80.002	19.996	103.031	20.054	0.038	-0.001
17.000	107.950	80.002	19.996	103.034	20.052	0.197	-0.007
17.500	107.937	80.001	19.995	103.035	20.055	0.008	0.015
18.000	107.919	80.002	19.995	103.033	20.057	-0.132	-0.001
18.500	107.939	80.002	19.995	103.032	20.057	-0.159	-0.014
19.000	107.949	80.002	19.996	103.030	20.054	0.040	0.016
19.500	107.951	80.001	19.995	103.029	20.052	0.203	0.021
20.000	107.923	80.002	19.995	103.028	20.053	0.092	-0.007
20.500	107.948	80.003	19.995	103.028	20.056	-0.103	-0.015
21.000	107.907	80.003	19.996	103.022	20.053	0.132	-0.009
21.500	107.934	80.002	19.995	103.017	20.056	-0.121	-0.015
22.000	107.947	80.002	19.995	103.017	20.051	0.239	0.013
22.500	107.916	80.001	19.996	103.016	20.052	0.165	0.011
23.000	107.967	80.001	19.995	103.019	20.049	0.391	0.001
23.500	107.943	80.002	19.996	103.025	20.046	0.588	0.023
24.000	107.944	80.001	19.996	103.033	20.051	0.257	0.001
24.500	107.957	80.000	19.996	103.038	20.051	0.238	-0.005
25.000	108.001	80.002	19.995	103.041	20.053	0.082	0.036
25.500	107.950	80.002	19.995	103.046	20.044	0.770	0.025
26.000	107.916	80.002	19.995	103.053	20.044	0.751	-0.046
26.500	107.974	80.005	19.997	103.061	20.050	0.329	-0.030
27.000	107.952	80.003	19.995	103.068	20.047	0.561	0.030
27.500	108.000	80.003	19.995	103.074	20.048	0.481	0.031
28.000	107.960	80.002	19.995	103.078	20.045	0.701	0.016
28.500	107.962	80.003	19.996	103.085	20.043	0.818	-0.015
29.000	107.964	80.002	19.996	103.092	20.044	0.759	-0.017
29.500	108.008	80.003	19.995	103.096	20.040	1.002	0.025
30.000	108.049	80.002	19.995	103.102	20.037	1.221	0.065
30.500	108.029	80.003	19.996	103.109	20.037	1.232	0.053
31.000	108.069	80.003	19.995	103.110	20.036	1.320	0.020
31.500	108.114	80.002	19.994	103.110	20.036	1.338	0.053
32.000	108.124	80.002	19.996	103.114	20.035	1.391	0.070
32.500	108.142	80.003	19.995	103.117	20.038	1.179	0.042
33.000	108.165	80.003	19.996	103.125	20.035	1.389	0.034
33.500	108.129	80.002	19.995	103.133	20.035	1.399	0.014
34.000	108.166	80.002	19.997	103.140	20.030	1.711	-0.006
34.500	108.226	80.004	19.996	103.147	20.032	1.560	0.049
35.001	108.228	80.002	19.996	103.152	20.030	1.704	0.079
35.501	108.268	80.003	19.997	103.153	20.028	1.853	0.051
36.000	108.305	80.002	19.997	103.152	20.030	1.734	0.059
36.500	108.297	80.000	19.995	103.153	20.028	1.875	0.053
37.000	108.342	80.002	19.995	103.154	20.027	1.921	0.034
37.500	108.377	80.001	19.994	103.153	20.028	1.884	0.059
38.000	108.432	80.002	19.996	103.155	20.024	2.174	0.085
38.500	108.488	80.004	19.996	103.163	20.022	2.300	0.100
39.000	108.476	80.002	19.996	103.170	20.023	2.206	0.078
39.500	108.559	80.001	19.996	103.178	20.022	2.320	0.058
40.000	108.605	80.000	19.995	103.184	20.018	2.569	0.100
40.500	108.643	80.002	19.996	103.188	20.021	2.368	0.107
41.000	108.689	80.002	19.995	103.189	20.020	2.419	0.084
41.500	108.751	80.001	19.997	103.189	20.015	2.751	0.096
42.000	108.789	80.003	19.996	103.192	20.021	2.343	0.104
42.500	108.841	80.003	19.996	103.195	20.022	2.320	0.095
43.000	108.857	80.003	19.996	103.197	20.024	2.134	0.079
43.500	108.940	80.004	19.996	103.199	20.019	2.485	0.083
44.000	108.981	80.001	19.996	103.198	20.020	2.433	0.112
44.500	109.048	80.003	19.995	103.196	20.017	2.617	0.116
45.000	109.123	80.001	19.995	103.196	20.015	2.780	0.125
45.500	109.179	80.003	19.995	103.197	20.016	2.708	0.136
46.000	109.251	80.002	19.995	103.198	20.017	2.654	0.130
46.500	109.318	80.003	19.996	103.201	20.015	2.775	0.133
47.000	109.382	80.002	19.994	103.206	20.012	2.995	0.135
47.500	109.452	80.004	19.997	103.212	20.015	2.792	0.133
48.000	109.509	80.003	19.996	103.217	20.015	2.775	0.131
48.500	109.585	80.003	19.995	103.222	20.016	2.738	0.130
49.000	109.650	80.003	19.995	103.227	20.018	2.587	0.137
49.500	109.736	80.004	19.996	103.230	20.012	2.967	0.145
50.000	109.820	80.005	19.997	103.230	20.018	2.589	0.160
50.500	109.876	80.005	19.995	103.231	20.017	2.637	0.155
51.000	109.976	80.005	19.996	103.231	20.017	2.660	0.148
51.500	110.046	80.004	19.996	103.232	20.014	2.825	0.163
52.000	110.142	80.004	19.996	103.234	20.020	2.439	0.168
52.500	110.212	80.005	19.995	103.240	20.014	2.852	0.166
53.000	110.244	80.004	19.995	103.243	20.014	2.836	0.134
53.500	110.393	80.006	19.997	103.245	20.012	3.021	0.141
54.000	110.507	80.004	19.995	103.248	20.013	2.952	0.222
54.500	110.556	80.005	19.997	103.248	20.009	3.169	0.213
55.000	110.699	80.005	19.996	103.249	20.012	3.016	0.178
55.500	110.784	80.003	19.994	103.251	20.012	2.970	0.210
56.000	110.863	80.005	19.995	103.256	20.011	3.065	0.196
56.500	110.969	80.004	19.996	103.261	20.010	3.119	0.175
57.000	111.088	80.004	19.996	103.266	20.010	3.103	0.205
57.500	111.206	80.004	19.995	103.266	20.009	3.220	0.231
58.000	111.313	80.004	19.996	103.267	20.009	3.180	0.231
58.500	111.436	80.003	19.995	103.264	20.008	3.299	0.228
59.000	111.534	80.003	19.996	103.262	20.007	3.314	0.225
59.500	111.639	80.004	19.996	103.262	20.009	3.168	0.212
60.000	111.735	80.005	19.995	103.263	20.007	3.351	0.202
60.500	111.851	80.003	19.995	103.266	20.008	3.301	0.207
61.000	111.978	80.004	19.993	103.272	20.005	3.505	0.228
61.500	112.079	80.003	19.996	103.273	20.004	3.537	0.236
62.000	112.233	80.003	19.996	103.273	20.005	3.501	0.242
62.500	112.383	80.004	19.994	103.273	20.006	3.393	0.279
63.000	112.491	80.004	19.995	103.271	20.001	3.742	0.281
63.500	112.597	80.003	19.995	103.269	20.004	3.531	0.236
64.000	112.759	80.003	19.996	103.271	20.003	3.629	0.241
64.500	112.914	80.004	19.997	103.278	20.003	3.609	0.292
65.000	113.034	80.003	19.994	103.286	20.001	3.728	0.296
65.500	113.150	80.003	19.995	103.294	20.002	3.698	0.256
66.000	113.313	80.004	19.998	103.301	20.005	3.456	0.258
66.500	113.438	80.003	19.997	103.301	20.004	3.548	0.284
67.000	113.556	80.003	19.996	103.295	20.005	3.497	0.265
67.500	113.711	80.003	19.996	103.288	20.004	3.535	0.258
68.000	113.828	80.005	19.999	103.280	20.007	3.338	0.273
68.500	114.003	80.001	19.995	103.273	20.003	3.643	0.282
69.000	114.134	80.003	19.995	103.272	20.002	3.673	0.299
69.500	114.285	80.003	19.996	103.272	19.999	3.905	0.294
70.001	114.448	80.004	19.997	103.277	20.003	3.618	0.298
70.501	114.611	80.002	19.995	103.278	20.009	3.229	0.320
71.001	114.786	80.003	19.995	103.279	20.007	3.372	0.332
71.500	114.903	80.003	19.996	103.287	20.007	3.317	0.315
72.000	115.084	80.004	19.996	103.295	20.003	3.633	0.295
72.500	115.188	80.003	19.996	103.297	20.003	3.587	0.292
73.000	115.342	80.004	19.997	103.298	20.006	3.429	0.272
73.500	115.532	80.003	19.997	103.298	20.002	3.660	0.301
74.000	115.695	80.003	19.996	103.290	20.002	3.698	0.348
74.500	115.817	80.005	19.997	103.282	20.005	3.482	0.319
75.001	115.987	80.003	19.996	103.278	20.002	3.698	0.289
75.501	116.159	80.003	19.997	103.276	20.007	3.353	0.316
76.000	116.312	80.004	19.992	103.276	20.000	3.840	0.333
76.500	116.485	80.003	19.994	103.279	20.005	3.464	0.326
77.001	116.643	80.004	19.997	103.282	20.005	3.503	0.329
77.501	116.800	80.004	19.996	103.285	20.001	3.750	0.323
78.000	116.983	80.005	19.997	103.289	20.006	3.382	0.328
78.500	117.156	80.005	19.997	103.291	20.001	3.765	0.348
79.000	117.312	80.005	19.996	103.291	20.003	3.608	0.342
79.500	117.500	80.005	19.996	103.294	20.003	3.597	0.337
80.000	117.695	80.005	19.995	103.294	20.004	3.583	0.364
80.500	117.899	80.005	19.996	103.293	20.000	3.846	0.391
81.000	118.051	80.006	19.996	103.297	20.005	3.456	0.377
81.500	118.213	80.004	19.995	103.300	20.001	3.759	0.335
82.000	118.413	80.005	19.996	103.300	20.002	3.694	0.338
82.500	118.609	80.004	19.996	103.295	20.002	3.654	0.380
83.000	118.801	80.002	19.994	103.292	20.002	3.671	0.392
83.500	118.972	80.003	19.994	103.287	20.001	3.736	0.375
84.000	119.149	80.004	19.995	103.286	19.999	3.897	0.355
84.500	119.320	80.003	19.999	103.283	20.002	3.654	0.348
85.000	119.512	80.005	19.996	103.290	19.997	4.026	0.355
85.500	119.713	80.004	19.997	103.294	20.002	3.655	0.378
86.001	119.910	80.003	19.995	103.293	20.004	3.569	0.396
86.501	120.055	80.002	19.996	103.292	20.004	3.567	0.370
87.000	120.244	80.002	19.998	103.296	20.003	3.627	0.338
87.500	120.435	80.001	19.996	103.293	20.002	3.713	0.357
88.000	120.662	80.001	19.993	103.294	20.005	3.488	0.399
88.500	120.860	80.002	19.995	103.297	20.001	3.732	0.421
89.000	121.061	80.001	19.995	103.297	20.005	3.512	0.412
89.500	121.237	80.002	19.994	103.292	20.006	3.433	0.388
90.000	121.423	80.000	19.995	103.295	20.007	3.361	0.369
90.500	121.643	80.002	19.997	103.295	20.003	3.605	0.384
91.000	121.813	80.001	19.997	103.291	20.002	3.685	0.398
91.501	122.017	80.001	19.995	103.288	20.006	3.389	0.382
92.001	122.191	80.002	19.997	103.286	20.001	3.740	0.376
92.500	122.429	80.000	19.995	103.283	20.000	3.809	0.395
93.000	122.618	80.001	19.996	103.285	20.004	3.579	0.420
93.500	122.771	80.002	19.997	103.286	20.005	3.460	0.385
94.000	123.001	80.001	19.997	103.288	20.000	3.849	0.363
94.500	123.205	80.001	19.995	103.289	19.999	3.868	0.408
95.000	123.409	80.001	19.996	103.283	20.001	3.788	0.421
95.500	123.652	80.001	19.995	103.276	19.999	3.864	0.428
96.000	123.856	80.000	19.996	103.276	20.004	3.561	0.447
96.500	124.020	80.001	19.997	103.277	20.002	3.688	0.408
97.000	124.285	80.002	19.998	103.277	19.999	3.918	0.399
97.500	124.449	80.000	19.997	103.277	20.002	3.688	0.429
98.000	124.637	80.001	19.996	103.276	20.004	3.554	0.390
98.500	124.836	80.001	19.998	103.274	20.004	3.569	0.369
99.000	125.062	80.002	19.996	103.271	20.001	3.730	0.406
99.501	125.264	80.001	19.996	103.274	20.001	3.748	0.426
100.001	125.474	80.001	19.997	103.282	20.000	3.838	0.420
100.500	125.774	80.003	19.996	103.288	20.001	3.738	0.462
101.000	125.938	80.002	19.997	103.294	20.005	3.500	0.487
101.500	126.165	80.002	19.997	103.301	20.006	3.379	0.428
102.000	126.373	80.001	19.997	103.300	20.005	3.479	0.413
102.500	126.566	80.003	19.996	103.292	20.008	3.291	0.418
103.000	126.751	80.002	19.996	103.286	20.006	3.377	0.389
103.500	126.987	80.002	19.996	103.279	20.005	3.498	0.400
104.000	127.188	80.003	19.994	103.272	20.006	3.418	0.429
104.500	127.439	80.002	19.998	103.269	20.006	3.433	0.444
105.000	127.648	80.003	19.996	103.269	20.010	3.143	0.456
105.500	127.882	80.003	19.997	103.270	20.008	3.291	0.451
106.000	128.058	80.002	19.997	103.271	20.005	3.477	0.426
106.500	128.298	80.002	19.996	103.272	20.008	3.241	0.413
107.000	128.543	80.002	19.996	103.271	20.005	3.481	0.451
107.500	128.784	80.002	19.998	103.271	20.005	3.483	0.486
108.000	128.933	80.002	19.995	103.273	20.003	3.615	0.438
108.500	129.175	80.002	19.995	103.276	20.005	3.454	0.391
109.000	129.387	80.002	19.997	103.275	20.006	3.374	0.423
109.500	129.644	80.003	19.997	103.276	20.001	3.763	0.461
110.000	129.885	80.003	19.995	103.277	20.001	3.761	0.483
110.500	130.102	80.002	19.995	103.276	20.003	3.646	0.478
111.000	130.310	80.002	19.993	103.273	20.005	3.504	0.441
111.500	130.545	80.002	19.994	103.273	20.004	3.521	0.434
112.000	130.718	80.003	19.996	103.276	20.005	3.483	0.426
112.500	130.947	80.002	19.996	103.275	20.004	3.535	0.405
113.000	131.180	80.003	19.995	103.278	20.004	3.536	0.432
113.501	131.406	80.003	19.995	103.278	20.008	3.297	0.460
114.001	131.636	80.003	19.996	103.276	20.003	3.617	0.458
114.500	131.854	80.003	19.995	103.274	20.004	3.567	0.452
115.000	132.141	80.003	19.996	103.273	20.003	3.600	0.476
115.500	132.339	80.003	19.995	103.270	20.006	3.441	0.495
116.000	132.526	80.003	19.995	103.270	20.004	3.533	0.435
116.500	132.799	80.003	19.996	103.271	20.008	3.235	0.423
117.000	133.037	80.003	19.994	103.271	20.004	3.536	0.485
117.500	133.256	80.002	19.995	103.272	20.008	3.295	0.484
118.000	133.481	80.002	19.996	103.275	20.006	3.400	0.450
118.500	133.713	80.002	19.996	103.276	20.011	3.044	0.450
119.000	133.958	80.003	19.996	103.275	20.007	3.312	0.467
119.500	134.171	80.003	19.995	103.276	20.009	3.214	0.468
120.000	134.414	80.003	19.996	103.277	20.007	3.341	0.457
120.500	134.627	80.003	19.997	103.274	20.008	3.249	0.456
121.000	134.867	80.003	19.997	103.273	20.011	3.068	0.455
121.500	135.056	80.003	19.996	103.275	20.005	3.488	0.441
122.000	135.310	80.003	19.995	103.276	20.006	3.373	0.436
122.500	135.517	80.003	19.995	103.275	20.006	3.406	0.452
123.000	135.761	80.003	19.996	103.275	20.008	3.255	0.456
123.500	135.998	80.002	19.996	103.275	20.005	3.462	0.466
124.000	136.223	80.003	19.996	103.274	20.008	3.260	0.471
124.500	136.477	80.002	19.996	103.276	20.011	3.032	0.470
125.000	136.714	80.002	19.996	103.279	20.006	3.439	0.485
125.500	136.926	80.003	19.996	103.281	20.008	3.243	0.470
126.000	137.188	80.002	19.996	103.282	20.012	3.023	0.462
126.500	137.415	80.002	19.996	103.280	20.010	3.122	0.482
127.000	137.649	80.002	19.996	103.276	20.010	3.151	0.475
127.501	137.880	80.002	19.996	103.274	20.013	2.890	0.463
128.000	138.137	80.002	19.995	103.271	20.012	2.984	0.477
128.500	138.390	80.003	19.995	103.270	20.008	3.239	0.499
129.000	138.624	80.002	19.995	103.271	20.015	2.812	0.498
129.500	138.887	80.003	19.994	103.273	20.006	3.393	0.492
130.000	139.073	80.003	19.996	103.273	20.011	3.061	0.473
130.500	139.335	80.002	19.997	103.273	20.006	3.421	0.449
131.000	139.588	80.002	19.994	103.272	20.011	3.028	0.481
131.500	139.845	80.002	19.995	103.272	20.012	3.021	0.512
132.000	140.065	80.004	19.996	103.270	20.013	2.944	0.493
132.500	140.311	80.003	19.996	103.271	20.010	3.103	0.472
133.000	140.524	80.004	19.996	103.271	20.007	3.372	0.463
133.500	140.787	80.005	19.995	103.273	20.009	3.220	0.467
134.000	141.012	80.003	19.995	103.273	20.013	2.886	0.482
134.500	141.269	80.005	19.996	103.276	20.011	3.045	0.485
135.000	141.513	80.004	19.997	103.277	20.007	3.362	0.491
135.500	141.722	80.004	19.994	103.278	20.008	3.251	0.477
136.000	141.970	80.003	19.995	103.278	20.009	3.199	0.456
136.500	142.179	80.004	19.995	103.279	20.011	3.055	0.457
137.000	142.465	80.005	19.994	103.277	20.006	3.408	0.476
137.500	142.704	80.004	19.995	103.275	20.011	3.059	0.510
138.000	142.879	80.005	19.995	103.275	20.012	3.003	0.470
138.500	143.161	80.006	19.995	103.275	20.010	3.128	0.435
139.000	143.437	80.005	19.994	103.273	20.011	3.059	0.507
139.500	143.697	80.004	19.995	103.273	20.009	3.189	0.546
140.000	143.920	80.005	19.994	103.273	20.008	3.235	0.510
140.500	144.197	80.004	19.994	103.273	20.010	3.130	0.492
141.000	144.471	80.005	19.994	103.273	20.010	3.130	0.525
141.500	144.696	80.005	19.994	103.273	20.010	3.151	0.525
142.000	144.934	80.004	19.995	103.274	20.011	3.042	0.482
142.500	145.168	80.004	19.994	103.273	20.012	3.015	0.468
143.000	145.436	80.004	19.994	103.273	20.006	3.442	0.487
143.500	145.671	80.004	19.994	103.273	20.008	3.239	0.502
144.000	145.909	80.004	19.995	103.274	20.009	3.212	0.488
144.500	146.153	80.005	19.994	103.274	20.008	3.268	0.478
145.000	146.407	80.005	19.995	103.272	20.006	3.431	0.490
145.500	146.654	80.005	19.995	103.273	20.006	3.431	0.500
146.000	146.875	80.004	19.994	103.273	20.006	3.379	0.485
146.500	147.155	80.003	19.994	103.272	20.004	3.542	0.484
147.000	147.395	80.004	19.993	103.271	20.008	3.262	0.510
147.500	147.636	80.005	19.994	103.273	20.010	3.139	0.501
148.000	147.869	80.004	19.996	103.272	20.004	3.519	0.478
148.500	148.148	80.004	19.995	103.272	20.007	3.344	0.493
149.000	148.387	80.004	19.995	103.272	20.009	3.200	0.515
149.500	148.597	80.004	19.996	103.272	20.008	3.264	0.483
150.000	148.880	80.005	19.994	103.272	20.008	3.268	0.471
150.500	149.132	80.004	19.995	103.270	20.009	3.170	0.514
151.000	149.404	80.003	19.995	103.270	20.009	3.218	0.530
151.500	149.642	80.004	19.995	103.269	20.014	2.838	0.517
152.000	149.860	80.005	19.994	103.269	20.013	2.949	0.484
152.500	150.145	80.005	19.996	103.269	20.010	3.128	0.480
153.000	150.393	80.003	19.996	103.271	20.010	3.158	0.518
153.500	150.632	80.003	19.996	103.271	20.007	3.344	0.510
154.000	150.873	80.004	19.995	103.272	20.011	3.080	0.483
154.500	151.108	80.004	19.997	103.271	20.008	3.237	0.478
155.000	151.365	80.004	19.996	103.268	20.010	3.152	0.484
155.500	151.626	80.003	19.995	103.266	20.011	3.091	0.505
156.000	151.878	80.004	19.996	103.267	20.013	2.893	0.515
156.500	152.125	80.005	19.997	103.265	20.013	2.918	0.506
157.000	152.376	80.005	19.997	103.261	20.017	2.669	0.498
157.500	152.628	80.005	19.995	103.264	20.010	3.152	0.500
158.000	152.851	80.005	19.996	103.262	20.009	3.174	0.489
158.500	153.124	80.004	19.995	103.259	20.011	3.064	0.486
159.000	153.338	80.004	19.996	103.257	20.009	3.181	0.492
159.500	153.589	80.004	19.995	103.257	20.009	3.185	0.476
160.000	153.830	80.006	19.996	103.255	20.010	3.110	0.478
160.500	154.104	80.005	19.996	103.258	20.009	3.225	0.503
161.000	154.313	80.006	19.995	103.259	20.009	3.188	0.499
161.500	154.554	80.006	19.996	103.261	20.010	3.160	0.467
162.000	154.800	80.005	19.995	103.263	20.008	3.258	0.469
162.500	155.047	80.007	19.995	103.263	20.010	3.112	0.490
163.000	155.309	80.006	19.993	103.262	20.008	3.252	0.501
163.500	155.540	80.004	19.994	103.262	20.010	3.101	0.501
164.000	155.815	80.006	19.996	103.261	20.008	3.254	0.500
164.500	156.104	80.005	19.996	103.260	20.009	3.215	0.535
165.000	156.338	80.005	19.995	103.258	20.011	3.068	0.544
165.500	156.570	80.006	19.995	103.255	20.004	3.562	0.495
166.000	156.796	80.004	19.995	103.249	20.010	3.156	0.462
166.500	157.086	80.005	19.996	103.247	20.010	3.152	0.487
167.000	157.305	80.004	19.996	103.248	20.009	3.198	0.512
167.500	157.554	80.004	19.995	103.249	20.011	3.075	0.488
168.001	157.805	80.005	19.996	103.253	20.009	3.181	0.484
168.500	158.094	80.004	19.998	103.259	20.010	3.160	0.520
169.000	158.337	80.004	19.997	103.261	20.008	3.238	0.536
169.500	158.598	80.004	19.997	103.257	20.006	3.411	0.518
170.000	158.828	80.004	19.996	103.253	20.013	2.947	0.497
170.500	159.094	80.003	19.996	103.248	20.009	3.179	0.494
171.000	159.321	80.004	19.996	103.241	20.008	3.252	0.495
171.500	159.578	80.002	19.997	103.236	20.009	3.177	0.488
172.000	159.807	80.003	19.995	103.239	20.007	3.359	0.485
172.500	160.023	80.004	19.997	103.245	20.006	3.390	0.466
173.000	160.311	80.002	19.994	103.251	20.006	3.376	0.475
173.500	160.565	80.002	19.994	103.255	20.007	3.344	0.523
174.000	160.827	80.002	19.997	103.260	20.010	3.150	0.528
174.500	161.073	80.003	19.996	103.260	20.011	3.025	0.512
175.000	161.349	80.003	19.996	103.254	20.011	3.048	0.515
175.500	161.552	80.001	19.995	103.247	20.013	2.947	0.501
176.000	161.801	80.003	19.995	103.249	20.009	3.200	0.466
176.500	162.044	80.002	19.996	103.248	20.010	3.157	0.472
177.000	162.304	80.003	19.994	103.248	20.011	3.027	0.497
177.500	162.591	80.003	19.996	103.250	20.011	3.067	0.525
178.000	162.800	80.000	19.996	103.252	20.010	3.150	0.522
178.500	163.075	80.003	19.997	103.249	20.012	2.993	0.490
179.000	163.302	80.000	19.997	103.248	20.011	3.023	0.493
179.500	163.553	80.001	19.994	103.248	20.009	3.227	0.490
180.000	163.828	80.001	19.996	103.247	20.010	3.140	0.502
180.500	164.071	80.002	19.995	103.246	20.006	3.403	0.522
181.000	164.279	80.001	19.996	103.249	20.008	3.246	0.485
181.500	164.563	80.002	19.996	103.245	20.006	3.397	0.471
182.000	164.822	80.001	19.996	103.244	20.009	3.228	0.517
182.500	165.047	80.001	19.996	103.243	20.011	3.046	0.513
183.000	165.330	80.001	19.995	103.244	20.010	3.111	0.496
183.500	165.599	80.000	19.998	103.242	20.009	3.203	0.530
184.000	165.843	80.003	19.996	103.241	20.009	3.217	0.533
184.500	166.099	80.002	19.996	103.238	20.007	3.328	0.506
185.000	166.348	80.003	19.996	103.236	20.009	3.230	0.502
185.500	166.612	80.002	19.997	103.236	20.009	3.207	0.509
186.000	166.812	80.001	19.999	103.233	20.010	3.132	0.489
186.500	167.112	80.002	19.997	103.233	20.010	3.094	0.482
187.000	167.350	80.002	19.996	103.234	20.013	2.935	0.519
187.500	167.614	80.002	19.996	103.236	20.009	3.186	0.520
188.000	167.848	80.003	19.998	103.234	20.010	3.156	0.500
188.500	168.115	80.003	19.996	103.235	20.013	2.889	0.499
189.000	168.336	80.002	19.997	103.235	20.012	2.994	0.494
189.500	168.596	80.001	19.995	103.235	20.011	3.044	0.485
190.000	168.855	80.002	19.997	103.236	20.011	3.069	0.500
190.500	169.078	80.003	19.997	103.236	20.009	3.217	0.500
191.000	169.317	80.002	19.997	103.237	20.013	2.939	0.472
191.500	169.613	80.001	19.998	103.238	20.014	2.876	0.499
192.000	169.876	80.002	19.996	103.240	20.011	3.060	0.547
192.500	170.135	80.003	19.998	103.237	20.011	3.054	0.540
193.000	170.366	80.003	19.997	103.236	20.014	2.880	0.506
193.500	170.605	80.002	19.996	103.234	20.015	2.759	0.480
194.000	170.872	80.002	19.998	103.232	20.011	3.054	0.488
194.500	171.065	80.001	19.999	103.231	20.015	2.789	0.483
195.000	171.385	80.002	19.997	103.230	20.009	3.188	0.486
195.500	171.615	80.002	19.998	103.230	20.011	3.048	0.531
196.000	171.887	80.003	19.997	103.230	20.011	3.069	0.526
196.500	172.115	80.004	19.996	103.230	20.012	2.962	0.502
197.000	172.362	80.003	19.996	103.233	20.014	2.856	0.487
197.500	172.585	80.003	19.995	103.234	20.011	3.065	0.472
198.000	172.855	80.003	19.996	103.234	20.009	3.182	0.482
198.500	173.090	80.002	19.997	103.234	20.008	3.248	0.499
199.000	173.362	80.004	19.996	103.234	20.010	3.109	0.506
199.500	173.623	80.001	19.996	103.232	20.014	2.822	0.520
200.000	173.872	80.003	19.994	103.232	20.008	3.236	0.521
200.500	174.114	80.003	19.994	103.233	20.010	3.132	0.500
201.000	174.349	80.003	19.996	103.234	20.014	2.860	0.484
201.500	174.614	80.001	19.996	103.234	20.014	2.835	0.488
202.000	174.828	80.002	19.994	103.235	20.016	2.716	0.489
202.500	175.107	80.003	19.997	103.238	20.014	2.816	0.486
203.000	175.331	80.002	19.995	103.238	20.012	3.014	0.498
203.500	175.616	80.002	19.995	103.240	20.014	2.833	0.506
204.000	175.863	80.002	19.994	103.243	20.015	2.805	0.520
204.500	176.109	80.003	19.995	103.242	20.015	2.799	0.512
205.000	176.409	80.002	19.995	103.236	20.015	2.774	0.520
205.500	176.581	80.003	19.996	103.233	20.015	2.810	0.509
206.000	176.859	80.002	19.996	103.231	20.014	2.841	0.461
206.500	177.107	80.002	19.996	103.228	20.012	3.017	0.488
207.000	177.366	80.001	19.995	103.229	20.015	2.776	0.517
207.500	177.593	80.002	19.996	103.231	20.013	2.950	0.496
208.000	177.856	80.002	19.995	103.234	20.017	2.655	0.488
208.500	178.113	80.002	19.995	103.233	20.014	2.874	0.505
209.000	178.325	80.002	19.994	103.233	20.014	2.826	0.495
209.500	178.574	80.003	19.995	103.233	20.014	2.845	0.465
210.000	178.831	80.002	19.992	103.233	20.013	2.927	0.484
210.500	179.106	80.002	19.996	103.234	20.014	2.851	0.519
211.000	179.372	80.003	19.995	103.234	20.009	3.201	0.536
211.500	179.587	80.001	19.995	103.234	20.012	2.973	0.511
212.000	179.807	80.002	19.993	103.234	20.012	3.019	0.458
212.500	180.058	80.001	19.994	103.234	20.016	2.680	0.453
213.000	180.346	80.003	19.996	103.233	20.014	2.879	0.505
213.500	180.563	80.003	19.996	103.233	20.013	2.898	0.522
214.000	180.830	80.003	19.995	103.233	20.013	2.946	0.494
214.500	181.056	80.004	19.995	103.233	20.014	2.856	0.488
215.000	181.331	80.003	19.995	103.233	20.017	2.642	0.497
215.500	181.574	80.002	19.996	103.233	20.013	2.939	0.510
216.000	181.856	80.004	19.996	103.233	20.013	2.912	0.522
216.500	182.116	80.003	19.996	103.233	20.011	3.042	0.533
217.001	182.354	80.003	19.996	103.233	20.015	2.808	0.520
217.500	182.585	80.006	19.996	103.234	20.011	3.040	0.484
218.000	182.834	80.004	19.995	103.234	20.011	3.038	0.475
218.500	183.075	80.003	19.994	103.234	20.014	2.866	0.485
219.000	183.294	80.004	19.996	103.235	20.015	2.745	0.475
219.500	183.553	80.003	19.996	103.235	20.013	2.916	0.469
220.000	183.810	80.004	19.996	103.235	20.015	2.801	0.497
220.500	184.067	80.004	19.995	103.235	20.014	2.835	0.515
221.000	184.307	80.003	19.997	103.235	20.014	2.826	0.506
221.500	184.545	80.005	19.997	103.234	20.014	2.866	0.487
222.000	184.821	80.004	19.995	103.229	20.014	2.849	0.496
222.500	185.059	80.003	19.996	103.223	20.011	3.052	0.515
223.000	185.303	80.004	19.996	103.221	20.012	3.008	0.498
223.500	185.581	80.003	19.995	103.221	20.009	3.176	0.502
224.000	185.806	80.003	19.996	103.221	20.014	2.848	0.512
224.500	186.046	80.003	19.995	103.224	20.012	2.964	0.484
225.000	186.323	80.003	19.995	103.230	20.014	2.843	0.491
225.500	186.558	80.004	19.995	103.231	20.010	3.092	0.514
226.000	186.822	80.004	19.994	103.229	20.014	2.826	0.506
226.500	187.097	80.004	19.995	103.221	20.016	2.674	0.519
227.000	187.301	80.003	19.996	103.216	20.013	2.919	0.509
227.500	187.580	80.003	19.996	103.213	20.013	2.894	0.481
228.000	187.816	80.005	19.995	103.211	20.016	2.712	0.499
228.500	188.047	80.004	19.994	103.214	20.014	2.862	0.491
229.000	188.309	80.003	19.993	103.221	20.016	2.726	0.480
229.500	188.510	80.004	19.997	103.223	20.009	3.165	0.478
230.000	188.758	80.004	19.995	103.221	20.013	2.906	0.456
230.500	189.034	80.005	19.993	103.222	20.012	3.017	0.486
231.000	189.255	80.003	19.996	103.222	20.011	3.086	0.511
231.500	189.531	80.004	19.994	103.222	20.012	2.973	0.497
232.000	189.738	80.003	19.997	103.226	20.014	2.827	0.490
232.500	189.997	80.005	19.996	103.228	20.015	2.785	0.475
233.000	190.241	80.004	19.995	103.228	20.015	2.775	0.484
233.500	190.508	80.005	19.995	103.227	20.017	2.607	0.507
234.000	190.736	80.004	19.995	103.226	20.018	2.555	0.503
234.500	190.994	80.004	19.995	103.222	20.019	2.474	0.491
235.000	191.268	80.005	19.995	103.224	20.015	2.798	0.509
235.500	191.488	80.004	19.995	103.225	20.012	2.996	0.513
236.000	191.720	80.003	19.995	103.224	20.016	2.711	0.473
236.500	191.938	80.005	19.997	103.222	20.015	2.759	0.451
237.000	192.220	80.003	19.995	103.225	20.017	2.621	0.475
237.500	192.496	80.004	19.996	103.225	20.013	2.901	0.529
238.000	192.742	80.003	19.992	103.220	20.018	2.574	0.540
238.500	192.930	80.005	19.997	103.215	20.019	2.493	0.478
239.000	193.214	80.005	19.995	103.214	20.016	2.727	0.453
239.500	193.456	80.005	19.996	103.213	20.020	2.426	0.499
240.000	193.691	80.006	19.993	103.214	20.014	2.821	0.502
240.500	193.908	80.006	19.995	103.216	20.015	2.777	0.465
241.000	194.202	80.006	19.995	103.223	20.019	2.518	0.482
241.500	194.426	80.005	19.997	103.227	20.015	2.782	0.514
242.000	194.678	80.004	19.995	103.228	20.017	2.627	0.497
242.500	194.933	80.005	19.995	103.228	20.014	2.880	0.492
243.000	195.165	80.005	19.995	103.227	20.014	2.826	0.497
243.500	195.415	80.005	19.994	103.221	20.017	2.615	0.485
244.000	195.657	80.005	19.994	103.215	20.015	2.769	0.487
244.500	195.896	80.005	19.996	103.212	20.020	2.420	0.486
245.000	196.143	80.004	19.994	103.208	20.018	2.539	0.484
245.500	196.375	80.002	19.992	103.208	20.020	2.448	0.483
246.000	196.656	80.022	19.997	103.211	20.016	2.701	0.497
246.500	196.920	80.022	19.999	103.220	20.017	2.617	0.529
247.000	197.137	80.020	20.002	103.228	20.013	2.922	0.512
247.500	197.394	80.019	20.001	103.239	20.016	2.734	0.477
248.000	197.640	80.032	20.006	103.250	20.015	2.767	0.489
248.500	197.848	80.039	20.009	103.262	20.020	2.408	0.479
249.000	198.099	80.039	20.009	103.267	20.016	2.688	0.457
249.500	198.350	80.039	20.010	103.270	20.016	2.675	0.480
250.000	198.600	80.040	20.010	103.272	20.014	2.857	0.501
250.500	198.825	80.040	20.010	103.273	20.018	2.598	0.488
251.000	199.114	80.039	20.012	103.272	20.016	2.686	0.494
251.500	199.308	80.040	20.013	103.272	20.021	2.341	0.498
252.000	199.554	80.040	20.011	103.269	20.020	2.441	0.462
252.500	199.836	80.040	20.013	103.261	20.021	2.387	0.484
253.000	200.089	80.039	20.011	103.254	20.017	2.621	0.532
253.500	200.304	80.041	20.011	103.248	20.021	2.327	0.501
254.000	200.540	80.035	20.007	103.244	20.014	2.874	0.460
254.500	200.791	80.021	20.008	103.241	20.021	2.343	0.469
255.000	201.046	80.019	20.007	103.246	20.021	2.387	0.496
255.500	201.277	80.021	20.006	103.246	20.020	2.396	0.496
256.000	201.500	80.019	20.005	103.246	20.019	2.494	0.470
256.500	201.774	80.020	20.004	103.244	20.022	2.320	0.476
257.000	202.032	80.020	20.004	103.241	20.018	2.600	0.514
257.500	202.267	80.021	20.004	103.239	20.018	2.602	0.512
258.000	202.546	80.020	20.006	103.242	20.022	2.295	0.504
258.500	202.783	80.020	20.005	103.242	20.018	2.533	0.515
259.000	203.004	80.020	20.003	103.241	20.019	2.506	0.487
259.500	203.242	80.020	20.005	103.244	20.020	2.446	0.459
260.000	203.518	80.021	20.003	103.248	20.019	2.506	0.486
260.500	203.763	80.021	20.004	103.250	20.024	2.113	0.517
261.000	203.977	80.019	20.002	103.253	20.016	2.736	0.490
261.500	204.210	80.021	20.003	103.253	20.024	2.155	0.453
262.000	204.471	80.021	20.002	103.250	20.020	2.446	0.471
262.500	204.658	80.020	20.003	103.243	20.016	2.694	0.472
263.000	204.942	80.019	20.004	103.240	20.017	2.655	0.460
263.500	205.190	80.020	20.001	103.236	20.018	2.534	0.501
264.000	205.426	80.020	20.002	103.238	20.019	2.513	0.508
264.500	205.678	80.020	20.003	103.238	20.017	2.611	0.486
265.000	205.933	80.020	20.002	103.238	20.021	2.356	0.498
265.500	206.198	80.020	20.003	103.235	20.014	2.864	0.513
266.000	206.438	80.018	20.002	103.236	20.016	2.725	0.512
266.500	206.712	80.021	20.004	103.236	20.012	2.987	0.509
267.000	206.872	80.019	20.003	103.237	20.012	2.999	0.474
267.500	207.179	80.021	20.003	103.237	20.014	2.834	0.451
268.000	207.445	80.019	20.003	103.240	20.014	2.840	0.520
268.500	207.681	80.020	20.004	103.242	20.014	2.872	0.538
269.000	207.887	80.021	20.002	103.240	20.012	2.968	0.472
269.500	208.142	80.019	20.004	103.239	20.011	3.088	0.451
270.000	208.405	80.020	20.002	103.239	20.014	2.853	0.489
270.500	208.620	80.021	20.004	103.235	20.013	2.937	0.498
271.000	208.900	80.020	20.002	103.233	20.016	2.694	0.487
271.500	209.144	80.020	20.003	103.239	20.014	2.855	0.509
272.000	209.401	80.021	20.002	103.239	20.013	2.910	0.512
272.500	209.637	80.019	20.004	103.239	20.015	2.763	0.497
273.000	209.860	80.020	20.003	103.239	20.014	2.841	0.476
273.500	210.145	80.020	20.004	103.239	20.017	2.661	0.483
274.000	210.402	80.020	20.001	103.233	20.012	3.008	0.525
274.500	210.621	80.020	20.005	103.233	20.014	2.864	0.509
275.000	210.835	80.019	20.002	103.233	20.015	2.751	0.455
275.500	211.126	80.019	20.003	103.233	20.015	2.770	0.469
276.000	211.368	80.018	20.004	103.235	20.011	3.037	0.519
276.500	211.597	80.018	20.006	103.241	20.014	2.845	0.502
277.000	211.814	80.021	20.008	103.247	20.009	3.190	0.459
277.500	212.091	80.018	20.006	103.254	20.014	2.866	0.470
278.000	212.362	80.020	20.004	103.255	20.010	3.121	0.521
278.500	212.542	80.019	20.007	103.254	20.012	2.979	0.500
279.000	212.829	80.020	20.006	103.249	20.012	2.994	0.459
279.500	213.084	80.019	20.005	103.243	20.012	2.991	0.504
280.000	213.334	80.019	20.002	103.237	20.010	3.117	0.523
280.500	213.544	80.019	20.005	103.236	20.013	2.941	0.483
281.000	213.798	80.017	20.003	103.236	20.012	2.972	0.462
281.500	214.029	80.019	20.009	103.237	20.012	2.954	0.474
282.000	214.296	80.029	20.008	103.239	20.014	2.860	0.491
282.500	214.546	80.023	20.007	103.245	20.012	3.006	0.508
283.000	214.794	80.027	20.010	103.245	20.014	2.839	0.508
283.500	215.007	80.021	20.007	103.245	20.012	2.996	0.479
284.000	215.280	80.018	20.006	103.247	20.012	3.017	0.473
284.500	215.542	80.018	20.004	103.246	20.014	2.828	0.511
285.000	215.735	80.018	20.005	103.242	20.013	2.925	0.495
285.500	216.003	80.017	20.004	103.243	20.011	3.037	0.458
286.000	216.240	80.017	20.005	103.243	20.011	3.044	0.483
286.500	216.488	80.019	20.005	103.240	20.014	2.870	0.495
287.000	216.765	80.018	20.003	103.237	20.015	2.772	0.505
287.500	217.006	80.019	20.005	103.235	20.011	3.031	0.521
288.000	217.212	80.019	20.004	103.234	20.010	3.104	0.482
288.500	217.494	80.019	20.003	103.233	20.011	3.067	0.468
289.000	217.703	80.019	20.003	103.233	20.009	3.215	0.490
289.500	217.954	80.018	20.003	103.233	20.008	3.232	0.476
290.000	218.223	80.019	20.005	103.233	20.013	2.904	0.489
290.500	218.418	80.019	20.003	103.233	20.010	3.100	0.492
291.000	218.657	80.019	20.003	103.236	20.012	2.952	0.449
291.500	218.967	80.019	20.002	103.236	20.008	3.251	0.492
292.000	219.132	80.019	20.004	103.236	20.010	3.100	0.512
292.500	219.407	80.020	20.000	103.235	20.009	3.169	0.457
293.000	219.653	80.020	20.004	103.234	20.011	3.088	0.481
293.500	219.899	80.020	20.005	103.231	20.007	3.341	0.507
294.000	220.178	80.019	20.001	103.231	20.012	2.989	0.508
294.500	220.417	80.019	20.004	103.231	20.009	3.211	0.521
295.000	220.638	80.019	20.002	103.232	20.012	3.015	0.489
295.500	220.890	80.021	20.002	103.232	20.006	3.382	0.467
296.000	221.135	80.020	20.004	103.231	20.012	3.014	0.485
296.500	221.394	80.020	20.005	103.232	20.007	3.336	0.500
297.000	221.643	80.021	20.002	103.232	20.008	3.259	0.506
297.500	221.892	80.021	20.003	103.232	20.010	3.100	0.503
298.000	222.124	80.021	20.002	103.232	20.009	3.215	0.490
298.500	222.442	80.022	20.003	103.232	20.009	3.175	0.516
299.000	222.632	80.022	20.002	103.231	20.009	3.192	0.529
299.500	222.892	80.021	20.002	103.231	20.010	3.125	0.479
300.000	223.149	80.021	20.003	103.233	20.009	3.201	0.483
300.500	223.399	80.022	20.003	103.232	20.011	3.037	0.512
301.000	223.636	80.021	20.003	103.232	20.011	3.025	0.497
301.500	223.879	80.021	20.002	103.232	20.008	3.282	0.484
302.000	224.114	80.020	20.002	103.232	20.005	3.478	0.479
302.500	224.347	80.023	20.003	103.230	20.006	3.387	0.473
303.000	224.591	80.020	20.002	103.230	20.006	3.384	0.473
303.500	224.846	80.021	20.003	103.230	20.006	3.433	0.488
304.000	225.119	80.022	20.001	103.230	20.009	3.213	0.514
304.500	225.403	80.021	20.004	103.230	20.009	3.226	0.542
305.000	225.590	80.021	20.002	103.230	20.010	3.123	0.514
305.500	225.829	80.021	20.002	103.229	20.012	2.975	0.448
306.000	226.082	80.021	20.002	103.230	20.008	3.265	0.459
306.500	226.304	80.022	20.003	103.229	20.010	3.138	0.484
307.000	226.591	80.021	20.002	103.229	20.010	3.144	0.492
307.500	226.855	80.022	20.002	103.230	20.013	2.946	0.530
308.000	227.068	80.021	20.003	103.230	20.009	3.198	0.514
308.500	227.284	80.021	20.003	103.231	20.009	3.180	0.453
309.000	227.580	80.019	20.000	103.230	20.009	3.172	0.471
309.500	227.819	80.019	20.002	103.230	20.010	3.107	0.523
310.000	228.077	80.020	20.007	103.230	20.013	2.916	0.516
310.500	228.306	80.021	20.005	103.230	20.010	3.151	0.492
311.000	228.514	80.021	20.003	103.229	20.010	3.107	0.462
311.500	228.798	80.020	20.002	103.233	20.014	2.868	0.464
312.000	229.044	80.021	20.005	103.233	20.012	2.971	0.511
312.500	229.314	80.021	20.005	103.234	20.012	3.002	0.523
313.000	229.580	80.020	20.003	103.234	20.012	3.008	0.526
313.500	229.825	80.022	20.003	103.234	20.009	3.174	0.523
314.000	230.050	80.020	20.002	103.231	20.012	3.007	0.491
314.500	230.304	80.021	20.003	103.231	20.011	3.042	0.475
315.000	230.554	80.020	20.001	103.231	20.012	2.969	0.492
315.500	230.792	80.021	20.002	103.231	20.010	3.126	0.496
316.000	231.027	80.021	20.004	103.229	20.007	3.353	0.480
316.500	231.315	80.021	20.004	103.228	20.014	2.814	0.498
317.000	231.508	80.020	20.004	103.228	20.013	2.921	0.502
317.500	231.765	80.022	20.000	103.226	20.009	3.230	0.466
318.000	231.997	80.022	20.002	103.227	20.008	3.284	0.470
318.500	232.251	80.022	20.003	103.228	20.006	3.407	0.488
319.000	232.493	80.022	20.000	103.229	20.010	3.130	0.491
319.500	232.746	80.022	20.003	103.224	20.012	2.989	0.495
320.000	233.015	80.022	20.001	103.223	20.007	3.357	0.509
320.500	233.247	80.022	20.002	103.223	20.010	3.148	0.512
321.000	233.477	80.020	20.003	103.223	20.007	3.355	0.481
321.500	233.754	80.023	20.003	103.223	20.008	3.301	0.484
322.000	233.995	80.021	20.003	103.228	20.008	3.282	0.512
322.500	234.274	80.023	20.001	103.230	20.007	3.368	0.519
323.000	234.495	80.022	20.001	103.230	20.008	3.234	0.510
323.500	234.724	80.022	20.000	103.230	20.003	3.598	0.475
324.000	234.958	80.022	20.002	103.226	20.005	3.470	0.456
324.500	235.225	80.022	20.003	103.221	20.006	3.389	0.482
325.000	235.486	80.022	20.001	103.218	20.002	3.685	0.514
325.500	235.730	80.023	20.000	103.218	20.007	3.353	0.517
326.000	235.987	80.023	20.002	103.218	20.009	3.211	0.503
326.500	236.238	80.024	20.001	103.220	20.001	3.750	0.504
327.000	236.472	80.023	20.002	103.225	20.006	3.393	0.497
327.500	236.714	80.023	20.001	103.228	20.009	3.163	0.481
328.000	236.940	80.023	20.003	103.229	20.007	3.336	0.472
328.500	237.214	80.022	20.004	103.229	20.003	3.617	0.484
329.000	237.457	80.023	20.001	103.231	20.002	3.698	0.508
329.500	237.695	80.023	20.002	103.231	20.007	3.345	0.499
330.000	237.954	80.022	20.002	103.231	20.003	3.639	0.489
330.500	238.201	80.024	20.003	103.226	20.003	3.604	0.501
331.000	238.479	80.022	20.004	103.226	20.006	3.441	0.515
331.500	238.701	80.023	20.002	103.227	20.002	3.677	0.512
332.000	238.920	80.021	20.003	103.225	20.002	3.709	0.471
332.500	239.168	80.021	20.001	103.218	20.006	3.374	0.454
333.000	239.424	80.021	20.001	103.219	20.003	3.623	0.486
333.500	239.682	80.022	20.002	103.220	20.005	3.470	0.509
334.000	239.891	80.020	20.002	103.220	20.007	3.361	0.490
334.500	240.142	80.020	20.001	103.223	20.004	3.577	0.463
335.000	240.384	80.020	20.003	103.230	20.004	3.554	0.477
335.500	240.631	80.019	20.002	103.232	20.001	3.732	0.492
336.000	240.887	80.019	20.000	103.232	20.001	3.724	0.496
336.500	241.137	80.019	20.000	103.231	20.004	3.571	0.504
337.000	241.381	80.021	20.003	103.230	20.006	3.387	0.500
337.500	241.585	80.021	20.004	103.231	20.006	3.401	0.471
338.000	241.886	80.019	20.000	103.232	20.006	3.389	0.477
338.500	242.114	80.020	20.004	103.232	20.005	3.479	0.517
339.000	242.383	80.020	20.003	103.232	20.006	3.384	0.512
339.500	242.637	80.020	20.002	103.233	20.004	3.514	0.510
340.000	242.839	80.021	20.002	103.233	19.999	3.901	0.490
340.500	243.119	80.020	20.002	103.233	20.004	3.569	0.469
341.000	243.387	80.021	20.002	103.233	19.999	3.910	0.515
341.500	243.595	80.019	20.002	103.233	20.004	3.513	0.512
342.000	243.873	80.019	20.001	103.230	20.000	3.793	0.480
342.500	244.094	80.019	20.005	103.227	20.003	3.596	0.493
343.000	244.390	80.019	20.003	103.226	20.001	3.732	0.509
343.500	244.601	80.019	20.003	103.226	20.002	3.709	0.512
344.000	244.813	80.019	20.002	103.226	20.004	3.514	0.464
344.500	245.055	80.019	20.003	103.229	20.008	3.276	0.438
345.000	245.347	80.019	20.001	103.231	20.007	3.368	0.495
345.500	245.592	80.018	20.003	103.232	20.003	3.623	0.536
346.000	245.836	80.018	20.002	103.227	20.008	3.238	0.513
346.500	246.073	80.020	20.004	103.220	20.003	3.615	0.485
347.000	246.351	80.019	20.002	103.217	20.004	3.546	0.498
347.500	246.570	80.020	20.004	103.218	20.005	3.510	0.506
348.000	246.835	80.019	20.003	103.218	20.004	3.573	0.490
348.500	247.067	80.019	20.003	103.224	20.003	3.623	0.490
349.000	247.323	80.021	20.004	103.230	20.001	3.780	0.492
349.500	247.583	80.018	20.004	103.233	20.003	3.600	0.502
350.000	247.798	80.019	20.001	103.233	20.002	3.686	0.496
350.500	248.048	80.017	20.002	103.231	20.002	3.675	0.470
351.000	248.298	80.018	20.003	103.229	20.008	3.278	0.482
351.500	248.607	80.019	20.003	103.223	20.001	3.767	0.529
352.000	248.786	80.021	20.004	103.220	20.002	3.658	0.524
352.500	249.043	80.020	20.004	103.219	20.002	3.665	0.462
353.000	249.291	80.020	20.004	103.220	20.004	3.527	0.470
353.500	249.502	80.021	20.002	103.221	20.001	3.742	0.482
354.000	249.790	80.020	20.002	103.226	20.005	3.508	0.479
354.500	250.077	80.019	20.003	103.228	20.003	3.612	0.537
355.000	250.262	80.020	20.001	103.229	20.006	3.418	0.524
355.500	250.608	80.021	20.003	103.227	19.999	3.912	0.502
356.000	250.756	80.020	20.001	103.224	19.998	3.939	0.512
356.500	251.069	80.019	20.006	103.225	20.000	3.797	0.477
357.000	251.271	80.020	20.001	103.225	20.000	3.853	0.488
357.500	251.527	80.020	20.004	103.225	20.004	3.571	0.486
358.000	251.845	80.020	20.003	103.227	20.000	3.847	0.516
358.500	252.285	80.020	20.003	103.229	20.005	3.477	0.666
359.000	252.275	80.020	20.003	103.221	19.998	3.969	0.594
359.500	252.541	80.020	20.003	103.217	19.998	3.960	0.343
360.000	253.066	80.021	20.003	103.216	19.999	3.877	0.524
360.500	253.108	80.021	20.005	103.216	19.997	4.065	0.679
361.000	253.359	80.020	20.004	103.215	19.996	4.085	0.430
361.500	253.397	80.018	20.001	103.222	20.000	3.834	0.291
362.000	253.879	80.020	20.001	103.226	20.000	3.798	0.404
362.500	254.007	80.020	20.003	103.227	19.995	4.189	0.564
363.000	254.196	80.019	20.004	103.227	19.995	4.146	0.463
363.501	254.551	80.021	20.001	103.229	19.998	3.947	0.431
364.001	254.767	80.020	20.002	103.229	19.995	4.194	0.558
364.500	255.054	80.019	20.004	103.229	20.000	3.820	0.536
365.000	255.336	80.020	20.003	103.228	19.997	4.006	0.536
365.500	255.546	80.018	20.005	103.228	19.990	4.529	0.531
366.000	255.823	80.019	20.003	103.227	19.996	4.117	0.490
366.500	256.051	80.019	20.004	103.224	19.997	4.033	0.496
367.000	256.313	80.019	20.003	103.225	19.999	3.893	0.498
367.500	256.515	80.019	20.004	103.225	19.995	4.196	0.477
368.000	256.845	80.019	20.005	103.224	19.994	4.265	0.498
368.500	257.078	80.019	20.002	103.223	19.998	3.959	0.548
369.000	257.321	80.020	20.003	103.219	19.993	4.290	0.519
369.500	257.529	80.019	20.004	103.212	19.997	4.058	0.463
370.000	257.827	80.019	20.004	103.205	19.995	4.207	0.479
370.500	258.064	80.018	20.005	103.206	19.997	4.037	0.521
371.000	258.314	80.018	20.005	103.209	19.996	4.092	0.511
371.500	258.593	80.018	20.004	103.216	19.995	4.157	0.508
372.000	258.830	80.018	20.006	103.223	19.996	4.104	0.522
372.500	259.099	80.020	20.003	103.229	19.992	4.380	0.511
373.000	259.340	80.019	20.005	103.231	19.991	4.466	0.508
373.500	259.596	80.020	20.006	103.229	19.997	4.066	0.503
374.000	259.839	80.021	20.005	103.228	19.997	4.042	0.498
374.500	260.057	80.020	20.005	103.223	19.994	4.276	0.480
375.000	260.303	80.019	20.005	103.222	19.994	4.232	0.463
375.500	260.553	80.019	20.005	103.217	19.996	4.121	0.480
376.000	260.778	80.020	20.004	103.218	19.995	4.163	0.485
376.500	261.028	80.020	20.005	103.217	19.992	4.374	0.474
377.000	261.242	80.019	20.005	103.220	19.991	4.443	0.470
377.500	261.551	80.020	20.006	103.221	19.996	4.111	0.494
378.000	261.800	80.019	20.008	103.225	19.996	4.134	0.540
378.500	262.049	80.021	20.005	103.226	19.992	4.358	0.528
379.000	262.299	80.020	20.005	103.227	19.994	4.262	0.499
379.500	262.556	80.021	20.002	103.228	19.995	4.170	0.503
380.000	262.757	80.020	20.005	103.227	19.993	4.339	0.482
380.500	263.049	80.021	20.005	103.219	19.992	4.364	0.475
381.000	263.264	80.021	20.005	103.216	19.991	4.475	0.500
381.500	263.574	80.021	20.004	103.212	19.991	4.429	0.516
382.000	263.806	80.021	20.003	103.209	19.994	4.234	0.533
382.500	264.071	80.021	20.003	103.210	19.990	4.517	0.519
383.000	264.293	80.022	20.003	103.217	19.986	4.801	0.492
383.500	264.512	80.021	20.005	103.218	19.990	4.536	0.464
384.000	264.791	80.023	20.004	103.221	19.991	4.423	0.470
384.500	265.041	80.021	20.002	103.219	19.989	4.623	0.513
385.000	265.318	80.022	20.003	103.214	19.989	4.596	0.528
385.500	265.540	80.023	20.005	103.212	19.988	4.654	0.513
386.000	265.794	80.022	20.002	103.210	19.990	4.560	0.487
386.500	266.045	80.022	20.004	103.208	19.989	4.562	0.490
387.000	266.311	80.023	20.000	103.212	19.987	4.749	0.511
387.500	266.580	80.021	20.004	103.215	19.984	4.956	0.526
388.000	266.795	80.022	20.003	103.213	19.990	4.525	0.510
388.500	267.120	80.022	20.002	103.211	19.988	4.657	0.512
389.000	267.320	80.022	20.004	103.207	19.991	4.475	0.533
389.500	267.584	80.021	20.003	103.200	19.988	4.665	0.495
390.000	267.841	80.022	20.002	103.197	19.985	4.895	0.492
390.500	268.065	80.023	20.003	103.199	19.986	4.778	0.501
391.000	268.340	80.022	20.002	103.199	19.991	4.455	0.490
391.500	268.614	80.023	20.003	103.204	19.990	4.556	0.524
392.000	268.902	80.022	20.005	103.209	19.992	4.405	0.556
392.500	269.092	80.023	20.003	103.214	19.987	4.715	0.520
393.000	269.325	80.020	20.002	103.210	19.988	4.677	0.451
393.500	269.598	80.022	20.004	103.208	19.986	4.830	0.465
394.000	269.852	80.021	20.002	103.206	19.990	4.555	0.516
394.500	270.100	80.022	20.003	103.204	19.987	4.705	0.514
395.000	270.355	80.021	20.003	103.202	19.989	4.592	0.502
395.500	270.620	80.020	20.002	103.209	19.991	4.479	0.511
396.000	270.880	80.021	20.002	103.213	19.988	4.663	0.523
396.500	271.135	80.021	20.002	103.216	19.984	4.960	0.520
397.000	271.383	80.021	20.001	103.214	19.989	4.562	0.509
397.500	271.611	80.021	20.004	103.211	19.990	4.525	0.489
398.000	271.898	80.023	20.002	103.208	19.987	4.734	0.495
398.500	272.150	80.021	20.002	103.205	19.983	5.002	0.527
399.000	272.438	80.022	20.002	103.206	19.989	4.609	0.539
399.500	272.647	80.021	20.003	103.207	19.989	4.563	0.518
400.000	272.940	80.022	20.002	103.212	19.989	4.577	0.500
400.500	273.192	80.021	20.002	103.210	19.985	4.862	0.524
401.000	273.419	80.022	20.001	103.213	19.989	4.575	0.512
401.500	273.680	80.021	20.003	103.215	19.985	4.866	0.483
402.000	273.920	80.021	20.003	103.220	19.986	4.822	0.494
402.500	274.139	80.021	20.004	103.221	19.989	4.586	0.480
403.000	274.448	80.021	20.001	103.224	19.986	4.812	0.494
403.500	274.649	80.022	20.003	103.218	19.985	4.877	0.519
404.000	274.952	80.021	20.004	103.211	19.983	5.031	0.507
404.500	275.207	80.022	20.000	103.203	19.981	5.163	0.531
405.000	275.457	80.021	20.002	103.198	19.985	4.854	0.531
405.500	275.741	80.024	20.005	103.195	19.984	4.943	0.519
406.000	275.992	80.023	20.002	103.200	19.982	5.111	0.534
406.500	276.195	80.022	20.003	103.204	19.987	4.732	0.494
407.000	276.445	80.022	20.002	103.211	19.983	5.002	0.454
407.501	276.690	80.022	20.004	103.214	19.987	4.764	0.474
408.001	276.974	80.023	20.001	103.216	19.983	4.985	0.512
408.500	277.234	80.022	20.003	103.211	19.983	5.019	0.536
409.000	277.478	80.023	20.002	103.207	19.988	4.693	0.524
409.500	277.706	80.023	20.003	103.200	19.989	4.567	0.489
410.000	277.940	80.023	20.001	103.199	19.981	5.176	0.467
410.500	278.235	80.022	20.001	103.204	19.985	4.841	0.495
411.000	278.489	80.024	20.003	103.207	19.990	4.540	0.539
411.500	278.694	80.022	20.002	103.209	19.986	4.829	0.504
412.000	278.977	80.022	20.002	103.211	19.983	4.988	0.473
412.500	279.230	80.022	20.001	103.207	19.984	4.977	0.512
413.000	279.432	80.021	20.003	103.204	19.987	4.718	0.496
413.500	279.708	80.021	20.002	103.202	19.990	4.517	0.467
414.000	279.973	80.024	20.003	103.201	19.989	4.626	0.510
414.500	280.260	80.022	20.002	103.199	19.985	4.860	0.546
415.000	280.467	80.021	20.003	103.198	19.987	4.758	0.523
415.500	280.742	80.022	20.002	103.196	19.984	4.979	0.488
416.000	280.983	80.020	20.002	103.200	19.988	4.695	0.499
416.500	281.268	80.022	20.002	103.203	19.986	4.822	0.521
417.000	281.465	80.021	20.002	103.205	19.987	4.701	0.504
417.500	281.724	80.020	20.003	103.207	19.982	5.061	0.469
418.000	281.983	80.022	20.003	103.207	19.987	4.753	0.487
418.500	282.208	80.019	20.001	103.202	19.985	4.866	0.501
419.000	282.482	80.021	20.002	103.202	19.983	4.998	0.492
419.500	282.720	80.020	20.003	103.200	19.987	4.716	0.505
420.000	282.980	80.020	20.000	103.201	19.992	4.409	0.505
420.500	283.222	80.021	20.006	103.201	19.984	4.913	0.500
421.000	283.496	80.020	20.003	103.200	19.988	4.651	0.509
421.500	283.734	80.020	20.003	103.200	19.986	4.821	0.514
422.000	283.975	80.020	20.002	103.202	19.987	4.728	0.496
422.500	284.242	80.019	20.004	103.200	19.985	4.866	0.493
423.000	284.525	80.021	20.004	103.199	19.985	4.868	0.529
423.500	284.762	80.020	20.005	103.199	19.983	5.031	0.535
424.000	284.996	80.021	20.002	103.196	19.984	4.939	0.496
424.500	285.251	80.022	20.002	103.192	19.985	4.872	0.480
425.000	285.518	80.020	20.002	103.192	19.986	4.820	0.505
425.500	285.762	80.019	20.003	103.195	19.988	4.666	0.516
426.000	285.982	80.021	20.003	103.197	19.985	4.902	0.488
426.500	286.253	80.020	20.003	103.199	19.989	4.622	0.477
427.000	286.525	80.021	20.002	103.199	19.983	4.986	0.517
427.500	286.758	80.019	20.003	103.200	19.986	4.814	0.524
428.000	287.016	80.021	20.003	103.199	19.988	4.678	0.498
428.500	287.274	80.023	20.003	103.198	19.988	4.687	0.504
429.000	287.522	80.020	20.001	103.195	19.984	4.915	0.511
429.500	287.793	80.020	20.003	103.195	19.983	4.994	0.512
430.000	288.042	80.020	20.001	103.195	19.986	4.785	0.520
430.500	288.269	80.019	20.002	103.193	19.986	4.804	0.498
431.000	288.552	80.020	20.004	103.192	19.982	5.053	0.493
431.500	288.787	80.021	20.003	103.191	19.986	4.781	0.513
432.000	289.037	80.022	20.002	103.191	19.985	4.887	0.501
432.500	289.242	80.020	20.004	103.190	19.986	4.777	0.470
433.000	289.528	80.019	20.002	103.192	19.985	4.858	0.473
433.500	289.773	80.018	20.003	103.193	19.987	4.762	0.511
434.000	289.983	80.021	20.003	103.198	19.988	4.641	0.493
434.500	290.259	80.021	20.003	103.201	19.987	4.745	0.470
435.000	290.521	80.019	20.003	103.202	19.985	4.885	0.512
435.500	290.803	80.020	20.003	103.202	19.990	4.548	0.541
436.000	291.048	80.021	20.003	103.200	19.981	5.172	0.536
436.500	291.291	80.019	20.004	103.196	19.982	5.071	0.508
437.000	291.521	80.021	20.004	103.193	19.986	4.797	0.480
437.500	291.783	80.020	20.002	103.193	19.982	5.109	0.482
438.000	292.043	80.021	20.003	103.191	19.978	5.364	0.507
438.500	292.295	80.020	20.002	103.191	19.985	4.846	0.517
439.000	292.556	80.020	20.003	103.191	19.984	4.946	0.513
439.500	292.819	80.021	20.004	103.190	19.981	5.182	0.519
440.000	293.050	80.021	20.003	103.190	19.979	5.272	0.509
440.500	293.308	80.020	20.005	103.190	19.981	5.145	0.491
441.000	293.533	80.021	20.003	103.191	19.982	5.080	0.486
441.500	293.766	80.021	20.003	103.191	19.984	4.967	0.471
442.000	294.032	80.020	20.003	103.191	19.983	4.998	0.478
442.500	294.307	80.021	20.003	103.191	19.982	5.114	0.520
443.000	294.536	80.020	20.004	103.191	19.981	5.149	0.523
443.500	294.771	80.020	20.003	103.190	19.982	5.074	0.484
444.000	295.024	80.020	20.000	103.190	19.984	4.970	0.476
444.500	295.275	80.019	20.002	103.190	19.985	4.882	0.496
445.000	295.521	80.019	20.004	103.190	19.982	5.072	0.501
445.500	295.760	80.019	20.003	103.193	19.984	4.969	0.491
446.000	296.032	80.020	20.005	103.194	19.984	4.957	0.498
446.500	296.298	80.020	20.001	103.195	19.984	4.921	0.524
447.000	296.555	80.021	20.005	103.196	19.986	4.827	0.530
447.500	296.786	80.019	20.002	103.195	19.986	4.796	0.506
448.000	297.015	80.019	20.004	103.192	19.984	4.927	0.474
448.500	297.317	80.019	20.003	103.192	19.981	5.176	0.495
449.000	297.563	80.019	20.005	103.191	19.980	5.222	0.539
449.500	297.756	80.021	20.004	103.190	19.983	5.026	0.493
450.000	297.997	80.019	20.002	103.190	19.985	4.856	0.437
450.500	298.211	80.018	20.003	103.190	19.986	4.808	0.445
451.000	298.489	80.019	20.005	103.190	19.985	4.892	0.473
451.500	298.767	80.018	20.003	103.190	19.981	5.172	0.524
452.000	299.012	80.020	20.004	103.191	19.985	4.854	0.540
452.500	299.283	80.021	20.003	103.190	19.981	5.162	0.520
453.000	299.489	80.018	20.003	103.191	19.982	5.107	0.496
453.500	299.731	80.018	20.003	103.187	19.983	5.038	0.462
454.000	299.971	80.018	20.004	103.185	19.979	5.302	0.465
454.500	300.223	80.019	20.000	103.183	19.980	5.247	0.487
455.000	300.477	80.019	20.003	103.181	19.985	4.902	0.499
455.500	300.731	80.019	20.004	103.181	19.981	5.145	0.507
456.000	301.040	80.020	20.003	103.184	19.977	5.444	0.535
456.500	301.273	80.020	20.003	103.186	19.984	4.927	0.552
457.000	301.538	80.020	20.003	103.186	19.978	5.346	0.520
457.500	301.775	80.020	20.002	103.190	19.981	5.155	0.500
458.000	302.022	80.020	20.006	103.190	19.981	5.182	0.493
458.500	302.267	80.019	20.002	103.190	19.982	5.084	0.488
459.000	302.510	80.019	20.002	103.190	19.983	4.998	0.490
459.500	302.778	80.020	20.001	103.190	19.982	5.114	0.500
460.000	303.033	80.021	20.004	103.190	19.979	5.321	0.517
460.500	303.284	80.020	20.004	103.190	19.977	5.452	0.514
461.000	303.506	80.020	20.002	103.190	19.975	5.557	0.489
461.500	303.764	80.020	20.002	103.189	19.978	5.364	0.477
462.000	304.028	80.021	20.002	103.190	19.983	5.044	0.501
462.500	304.253	80.020	20.001	103.191	19.985	4.850	0.505
463.000	304.515	80.021	20.003	103.190	19.985	4.902	0.488
463.500	304.754	80.020	20.002	103.191	19.980	5.229	0.494
464.000	305.015	80.022	20.003	103.193	19.979	5.316	0.501
464.500	305.255	80.022	20.003	103.193	19.981	5.179	0.500
465.000	305.473	80.020	20.003	103.193	19.980	5.204	0.479
465.500	305.740	80.022	20.003	103.193	19.978	5.367	0.471
466.000	305.985	80.021	20.001	103.193	19.982	5.116	0.499
466.500	306.249	80.020	20.002	103.192	19.980	5.258	0.511
467.000	306.500	80.022	20.004	103.192	19.976	5.486	0.512
467.500	306.735	80.022	20.004	103.191	19.980	5.197	0.500
468.000	307.001	80.022	20.002	103.192	19.980	5.208	0.494
468.500	307.191	80.021	20.002	103.191	19.982	5.087	0.479
469.000	307.473	80.020	20.003	103.191	19.980	5.194	0.464
469.500	307.753	80.020	20.003	103.190	19.975	5.589	0.517
470.000	308.004	80.021	20.003	103.191	19.981	5.171	0.547
470.500	308.215	80.020	20.004	103.189	19.979	5.260	0.496
471.000	308.494	80.021	20.003	103.189	19.984	4.936	0.476
471.500	308.734	80.021	20.003	103.189	19.980	5.231	0.504
472.000	308.962	80.019	20.005	103.189	19.981	5.185	0.494
472.500	309.236	80.020	20.003	103.190	19.978	5.373	0.485
473.000	309.475	80.019	20.003	103.190	19.980	5.209	0.508
473.500	309.725	80.019	20.004	103.191	19.984	4.973	0.501
474.000	309.993	80.020	20.004	103.189	19.978	5.391	0.503
474.500	310.234	80.019	20.003	103.188	19.976	5.506	0.513
475.000	310.482	80.021	20.002	103.187	19.977	5.399	0.499
475.500	310.737	80.020	20.004	103.187	19.984	4.914	0.496
476.000	310.968	80.019	20.004	103.186	19.981	5.167	0.495
476.500	311.208	80.020	20.005	103.188	19.983	5.043	0.479
477.000	311.486	80.022	20.006	103.190	19.983	5.028	0.494
477.500	311.764	80.021	20.004	103.192	19.983	5.035	0.536
478.000	311.978	80.019	20.002	103.190	19.982	5.082	0.524
478.500	312.228	80.021	20.003	103.183	19.979	5.266	0.479
479.000	312.481	80.021	20.005	103.180	19.980	5.227	0.484
479.500	312.771	80.020	20.001	103.175	19.982	5.114	0.523
480.000	313.027	80.021	20.003	103.169	19.978	5.372	0.544
480.500	313.304	80.021	20.002	103.169	19.977	5.431	0.539
481.001	313.546	80.020	20.001	103.174	19.981	5.126	0.526
481.501	313.789	80.023	20.003	103.178	19.980	5.228	0.502
482.000	313.995	80.021	20.001	103.182	19.977	5.421	0.467
482.500	314.274	80.021	20.002	103.185	19.980	5.226	0.467
483.000	314.515	80.022	19.999	103.180	19.978	5.385	0.503
483.500	314.814	80.022	19.997	103.179	19.978	5.388	0.530
484.000	315.020	80.022	19.999	103.172	19.978	5.396	0.522
484.501	315.264	80.022	20.001	103.164	19.981	5.118	0.477
485.000	315.537	80.022	20.001	103.162	19.979	5.279	0.484
485.500	315.791	80.022	20.001	103.163	19.978	5.396	0.522
486.000	316.034	80.022	20.002	103.162	19.978	5.343	0.512
486.500	316.291	80.022	20.002	103.165	19.982	5.101	0.499
487.000	316.557	80.022	20.000	103.170	19.981	5.188	0.512
487.500	316.793	80.021	20.002	103.172	19.974	5.636	0.512
488.000	317.047	80.023	20.000	103.176	19.976	5.536	0.496
488.500	317.276	80.023	20.003	103.180	19.979	5.268	0.487
489.000	317.552	80.023	20.002	103.184	19.976	5.505	0.494
489.500	317.782	80.024	20.000	103.183	19.985	4.846	0.506
490.000	318.034	80.022	20.001	103.178	19.983	4.992	0.494
490.500	318.268	80.025	19.996	103.171	19.977	5.450	0.484
491.000	318.563	80.017	19.997	103.163	19.978	5.352	0.507
491.500	318.829	80.024	19.999	103.156	19.979	5.277	0.545
492.000	319.030	80.019	19.997	103.153	19.974	5.634	0.514
492.500	319.322	80.013	19.998	103.152	19.980	5.239	0.481
493.000	319.548	80.008	19.997	103.152	19.979	5.260	0.506
493.500	319.807	80.005	19.997	103.153	19.976	5.476	0.501
494.000	320.023	80.005	19.996	103.154	19.979	5.285	0.480
494.500	320.301	80.004	19.997	103.153	19.980	5.233	0.484
495.000	320.527	80.005	19.992	103.152	19.979	5.277	0.499
495.500	320.758	80.005	19.996	103.152	19.979	5.296	0.480
496.000	321.033	80.005	19.995	103.153	19.985	4.877	0.481
496.500	321.300	80.004	19.994	103.157	19.976	5.476	0.524
497.000	321.520	80.005	19.995	103.156	19.984	4.975	0.515
497.500	321.794	80.004	19.996	103.157	19.982	5.070	0.491
498.000	322.035	80.003	19.996	103.159	19.984	4.959	0.504
498.500	322.242	80.004	19.997	103.159	19.977	5.434	0.481
499.000	322.560	80.004	19.995	103.155	19.984	4.955	0.486
499.500	322.781	80.003	19.995	103.156	19.980	5.254	0.532
500.000	323.047	80.003	19.997	103.154	19.982	5.113	0.513
500.500	323.266	80.004	19.997	103.152	19.979	5.285	0.486
501.000	323.505	80.003	19.996	103.150	19.981	5.172	0.471
501.500	323.754	80.001	19.994	103.152	19.979	5.266	0.474
502.000	324.013	80.002	19.998	103.152	19.980	5.216	0.498
502.500	324.270	80.002	19.995	103.152	19.983	5.030	0.512
503.000	324.515	80.002	19.996	103.151	19.984	4.944	0.509
503.500	324.743	80.003	19.997	103.150	19.983	5.032	0.487
504.000	325.006	80.002	19.994	103.149	19.978	5.369	0.482
504.500	325.259	80.002	19.995	103.149	19.985	4.898	0.504
505.000	325.550	80.002	19.996	103.149	19.981	5.174	0.530
505.500	325.775	80.001	19.995	103.146	19.980	5.224	0.530
506.000	326.038	80.001	19.995	103.145	19.980	5.193	0.502
506.500	326.288	80.003	19.996	103.144	19.980	5.208	0.500
507.000	326.560	80.002	19.995	103.146	19.982	5.103	0.517
507.500	326.801	80.002	19.996	103.147	19.982	5.092	0.518
508.000	327.033	80.002	19.998	103.150	19.981	5.138	0.493
508.500	327.281	80.002	19.995	103.152	19.983	4.990	0.477
509.000	327.502	80.003	19.996	103.152	19.983	5.046	0.475
509.500	327.782	80.001	19.996	103.150	19.984	4.975	0.485
510.000	328.060	80.003	19.997	103.150	19.982	5.067	0.530
510.500	328.272	80.001	19.995	103.150	19.982	5.107	0.524
511.000	328.577	80.002	19.997	103.151	19.979	5.282	0.503
511.500	328.826	80.003	19.996	103.152	19.982	5.088	0.535
512.000	329.074	80.003	19.996	103.151	19.980	5.226	0.526
512.500	329.318	80.001	19.995	103.152	19.984	4.965	0.495
513.000	329.552	80.004	19.996	103.152	19.980	5.199	0.485
513.500	329.778	80.003	19.995	103.152	19.984	4.913	0.469
514.000	330.000	80.002	19.999	103.152	19.984	4.915	0.454
514.500	330.279	80.003	19.996	103.152	19.984	4.931	0.474
515.000	330.549	80.003	19.995	103.152	19.979	5.318	0.525
515.500	330.773	80.003	19.997	103.152	19.981	5.134	0.522
516.000	331.020	80.003	19.996	103.152	19.980	5.207	0.483
516.500	331.297	80.003	19.997	103.151	19.981	5.157	0.497
517.000	331.524	80.002	19.999	103.152	19.981	5.128	0.514
517.500	331.776	80.004	19.996	103.152	19.983	5.027	0.491
518.000	332.034	80.003	19.997	103.152	19.976	5.525	0.495
518.500	332.291	80.004	19.998	103.152	19.987	4.709	0.512
519.000	332.552	80.002	19.996	103.152	19.979	5.320	0.517
519.500	332.770	80.005	19.996	103.152	19.977	5.406	0.499
520.000	333.046	80.004	19.995	103.155	19.980	5.245	0.487
520.500	333.310	80.001	19.996	103.159	19.979	5.264	0.517
521.000	333.541	80.003	19.996	103.163	19.978	5.349	0.517
521.500	333.797	80.005	19.996	103.163	19.978	5.347	0.491
522.000	334.063	80.003	19.995	103.163	19.978	5.352	0.505
522.500	334.316	80.004	19.996	103.161	19.978	5.377	0.521
523.000	334.546	80.003	19.995	103.155	19.978	5.358	0.501
523.500	334.795	80.002	19.994	103.153	19.982	5.109	0.481
524.000	335.053	80.003	19.997	103.152	19.982	5.063	0.493
524.500	335.291	80.003	19.996	103.152	19.979	5.285	0.501
525.000	335.562	80.002	19.995	103.152	19.982	5.080	0.502
525.500	335.779	80.004	19.996	103.154	19.981	5.186	0.499
526.000	336.074	80.000	19.995	103.153	19.980	5.191	0.501
526.500	336.267	80.005	19.998	103.154	19.978	5.381	0.500
527.000	336.545	80.009	19.996	103.156	19.987	4.705	0.479
527.500	336.797	80.003	19.996	103.161	19.980	5.226	0.500
528.000	337.044	80.004	19.998	103.162	19.982	5.115	0.514
528.500	337.278	80.005	19.998	103.166	19.980	5.243	0.491
529.000	337.560	80.003	19.997	103.171	19.985	4.883	0.498
529.500	337.819	80.001	19.998	103.169	19.983	5.000	0.528
530.000	338.049	80.003	19.998	103.166	19.984	4.917	0.515
530.500	338.317	80.001	19.995	103.165	19.980	5.210	0.494
531.000	338.574	80.002	19.998	103.164	19.975	5.546	0.511
531.500	338.831	80.002	19.996	103.158	19.979	5.318	0.520
532.000	339.068	80.003	19.996	103.158	19.979	5.301	0.504
532.500	339.350	80.002	19.996	103.157	19.979	5.318	0.506
533.000	339.579	80.001	19.995	103.158	19.980	5.239	0.515
533.500	339.819	80.001	19.993	103.157	19.982	5.065	0.490
534.000	340.073	80.001	19.997	103.160	19.982	5.113	0.482
534.500	340.333	80.002	19.997	103.160	19.982	5.051	0.504
535.000	340.609	80.002	19.996	103.161	19.983	4.986	0.525
535.500	340.852	80.002	19.994	103.160	19.979	5.285	0.527
536.000	341.087	80.001	19.997	103.159	19.980	5.245	0.499
536.500	341.350	80.002	19.997	103.156	19.980	5.205	0.488
537.000	341.610	80.002	19.997	103.154	19.977	5.452	0.510
537.500	341.858	80.002	19.998	103.155	19.976	5.532	0.516
538.000	342.142	80.000	19.995	103.156	19.982	5.055	0.520
538.500	342.363	80.002	19.998	103.156	19.980	5.230	0.518
539.000	342.635	80.003	19.996	103.156	19.980	5.207	0.499
539.500	342.836	80.001	19.997	103.156	19.974	5.668	0.483
540.000	343.127	80.001	19.998	103.155	19.976	5.511	0.483
540.500	343.356	80.000	19.996	103.153	19.982	5.069	0.506
541.000	343.607	80.002	19.997	103.153	19.982	5.101	0.499
541.500	343.882	80.001	19.996	103.153	19.982	5.097	0.503
542.000	344.124	80.003	19.998	103.153	19.978	5.390	0.522
542.500	344.329	80.002	19.994	103.156	19.982	5.109	0.482
543.000	344.622	80.003	19.996	103.158	19.983	5.001	0.472
543.500	344.881	80.002	19.993	103.158	19.978	5.335	0.525
544.000	345.129	80.002	19.998	103.158	19.981	5.147	0.530
544.500	345.407	80.003	19.996	103.158	19.978	5.379	0.516
545.000	345.639	80.003	19.994	103.155	19.977	5.427	0.518
545.500	345.870	80.003	19.995	103.155	19.972	5.750	0.487
546.000	346.169	80.003	19.997	103.154	19.977	5.442	0.496
546.500	346.377	80.003	19.997	103.154	19.975	5.555	0.518
547.000	346.632	80.002	19.995	103.154	19.977	5.404	0.485
547.500	346.895	80.003	19.997	103.154	19.977	5.406	0.490
548.000	347.145	80.003	19.998	103.155	19.982	5.109	0.516
548.500	347.393	80.003	19.994	103.155	19.977	5.419	0.506
549.000	347.616	80.003	19.995	103.156	19.976	5.488	0.484
549.500	347.871	80.004	19.997	103.156	19.978	5.392	0.474
550.000	348.134	80.002	19.997	103.156	19.974	5.644	0.498
550.500	348.392	80.005	19.996	103.155	19.975	5.606	0.520
551.000	348.664	80.003	19.996	103.154	19.976	5.470	0.526
551.500	348.864	80.003	19.995	103.153	19.974	5.614	0.501
552.000	349.184	80.004	19.995	103.153	19.979	5.305	0.496
552.500	349.392	80.003	19.995	103.152	19.975	5.545	0.524
553.000	349.652	80.003	19.995	103.150	19.970	5.924	0.498
553.500	349.911	80.002	19.996	103.149	19.975	5.604	0.494
554.000	350.129	80.004	19.995	103.149	19.972	5.815	0.498
554.500	350.398	80.004	19.997	103.147	19.969	5.980	0.482
555.000	350.670	80.004	19.995	103.148	19.975	5.574	0.514
555.500	350.924	80.003	19.997	103.149	19.967	6.154	0.534
556.000	351.143	80.005	19.995	103.151	19.973	5.714	0.500
556.500	351.400	80.003	19.995	103.151	19.978	5.352	0.474
557.000	351.665	80.005	19.996	103.152	19.976	5.513	0.499
557.500	351.907	80.004	19.995	103.152	19.977	5.413	0.514
558.000	352.146	80.003	19.995	103.151	19.972	5.811	0.494
558.500	352.434	80.005	19.996	103.151	19.980	5.233	0.504
559.000	352.683	80.002	19.995	103.151	19.968	6.068	0.532
559.500	352.909	80.002	19.996	103.151	19.971	5.884	0.506
560.000	353.164	80.002	19.993	103.151	19.970	5.891	0.478
560.500	353.419	80.002	19.995	103.147	19.971	5.878	0.495
561.000	353.708	80.000	19.997	103.139	19.969	5.970	0.527
561.500	353.944	80.003	19.994	103.136	19.969	6.012	0.535
562.000	354.206	80.002	19.998	103.135	19.968	6.091	0.512
562.500	354.432	80.005	19.996	103.135	19.971	5.838	0.493
563.000	354.690	80.002	19.996	103.133	19.969	6.009	0.486
563.500	354.908	80.002	19.996	103.139	19.970	5.928	0.480
564.000	355.171	80.004	19.996	103.141	19.976	5.535	0.478
564.500	355.418	80.003	19.997	103.142	19.973	5.717	0.495
565.000	355.690	80.002	19.995	103.141	19.967	6.137	0.515
565.500	355.965	80.004	19.997	103.147	19.969	6.012	0.533
566.000	356.157	80.000	19.997	103.146	19.970	5.890	0.507
566.500	356.441	80.003	19.997	103.147	19.969	5.997	0.471
567.000	356.680	80.002	19.995	103.147	19.968	6.086	0.499
567.500	356.913	80.001	19.995	103.148	19.964	6.315	0.498
568.000	357.172	80.005	19.997	103.147	19.967	6.099	0.482
568.500	357.444	80.003	19.996	103.144	19.969	5.986	0.511
569.000	357.679	80.003	19.996	103.142	19.967	6.128	0.519
569.500	357.945	80.003	19.997	103.141	19.966	6.218	0.504
570.000	358.197	80.000	19.996	103.138	19.969	5.973	0.510
570.500	358.453	80.005	19.997	103.135	19.964	6.377	0.513
571.000	358.696	80.004	19.997	103.137	19.959	6.706	0.503
571.500	358.972	80.005	19.995	103.138	19.965	6.283	0.509
572.000	359.181	80.004	19.995	103.140	19.965	6.239	0.502
572.500	359.453	80.006	19.997	103.142	19.966	6.214	0.483
573.000	359.678	80.004	19.996	103.146	19.961	6.586	0.489
573.500	359.947	80.005	19.994	103.147	19.960	6.599	0.496
574.000	360.175	80.004	19.995	103.147	19.959	6.699	0.496
574.500	360.425	80.006	19.996	103.144	19.963	6.398	0.487
575.000	360.649	80.006	19.994	103.142	19.962	6.494	0.476
575.500	360.952	80.006	19.995	103.141	19.963	6.427	0.501
576.000	361.180	80.006	19.996	103.142	19.956	6.892	0.529
576.500	361.406	80.006	19.996	103.143	19.955	6.969	0.493
577.000	361.700	80.006	19.996	103.146	19.950	7.288	0.487
577.500	361.923	80.007	19.997	103.149	19.962	6.470	0.518
578.000	362.174	80.007	19.996	103.149	19.956	6.909	0.495
578.500	362.396	80.004	19.998	103.150	19.955	6.938	0.473
579.000	362.676	80.004	19.995	103.151	19.952	7.210	0.487
579.500	362.880	80.004	19.995	103.151	19.957	6.816	0.493
580.000	363.155	80.006	19.996	103.151	19.956	6.900	0.482
580.500	363.412	80.005	19.994	103.151	19.949	7.390	0.505
581.000	363.661	80.006	19.996	103.151	19.957	6.865	0.519
581.500	363.917	80.004	19.994	103.150	19.954	7.038	0.505
582.000	364.144	80.006	19.997	103.149	19.951	7.278	0.494
582.500	364.388	80.004	19.995	103.150	19.954	7.054	0.477
583.000	364.661	80.004	19.994	103.149	19.949	7.368	0.494
583.500	364.896	80.002	19.995	103.149	19.955	6.973	0.513
584.000	365.165	80.005	19.995	103.150	19.952	7.154	0.506
584.500	365.387	80.003	19.995	103.151	19.942	7.853	0.497
585.000	365.657	80.002	19.994	103.151	19.951	7.271	0.492
585.500	365.921	80.002	19.994	103.150	19.949	7.367	0.513
586.000	366.170	80.001	19.996	103.151	19.944	7.728	0.523
586.500	366.391	80.003	19.996	103.151	19.946	7.605	0.491
587.000	366.660	80.003	19.994	103.151	19.943	7.798	0.480
587.500	366.879	80.003	19.999	103.149	19.949	7.420	0.489
588.000	367.108	80.001	19.992	103.148	19.940	8.008	0.468
588.500	367.396	80.002	19.995	103.148	19.945	7.684	0.483
589.000	367.615	80.003	19.995	103.149	19.947	7.538	0.513
589.500	367.865	80.004	19.995	103.149	19.940	8.030	0.488
590.000	368.120	80.002	19.994	103.151	19.936	8.308	0.486
590.500	368.369	80.002	19.994	103.153	19.949	7.401	0.504
591.000	368.627	80.002	19.995	103.153	19.939	8.112	0.506
591.500	368.875	79.999	19.996	103.151	19.932	8.556	0.507
592.000	369.110	80.003	19.996	103.150	19.931	8.631	0.494
592.500	369.400	80.000	19.993	103.149	19.931	8.664	0.504
593.000	369.615	80.001	19.994	103.142	19.939	8.093	0.515
593.500	369.864	80.001	19.993	103.137	19.937	8.252	0.485
594.000	370.141	80.003	19.995	103.136	19.925	9.049	0.496
594.500	370.345	80.001	19.994	103.136	19.923	9.227	0.504
595.000	370.603	80.001	19.996	103.137	19.929	8.764	0.471
595.500	370.881	80.001	19.995	103.144	19.923	9.226	0.499
596.000	371.121	80.003	19.996	103.151	19.929	8.812	0.527
596.500	371.397	80.003	19.996	103.154	19.927	8.931	0.517
597.000	371.629	80.001	19.993	103.154	19.921	9.335	0.512
597.500	371.836	80.003	19.996	103.153	19.921	9.358	0.473
598.001	372.117	80.001	19.995	103.146	19.922	9.307	0.464
598.500	372.353	80.001	19.993	103.140	19.917	9.607	0.503
599.000	372.623	80.000	19.995	103.138	19.921	9.322	0.511
599.500	372.870	80.003	19.996	103.135	19.920	9.394	0.511
600.000	373.115	80.001	19.996	103.130	19.911	10.084	0.504
600.500	373.390	80.002	19.995	103.133	19.912	9.975	0.506
601.000	373.638	80.003	19.995	103.136	19.915	9.779	0.522
601.500	373.880	80.004	19.996	103.137	19.914	9.858	0.506
602.000	374.103	80.002	19.995	103.141	19.915	9.802	0.477
602.500	374.396	80.003	19.996	103.147	19.909	10.195	0.491
603.000	374.608	80.002	19.995	103.151	19.910	10.135	0.511
603.500	374.852	80.003	19.994	103.153	19.908	10.290	0.481
604.000	375.141	80.003	19.995	103.154	19.905	10.451	0.495
604.500	375.405	80.002	19.997	103.154	19.908	10.262	0.543
605.000	375.652	80.004	19.996	103.154	19.910	10.118	0.532
605.500	375.859	80.003	19.996	103.154	19.897	11.019	0.482
606.000	376.106	80.000	19.996	103.154	19.899	10.875	0.454
606.500	376.389	80.002	19.995	103.154	19.896	11.134	0.492
607.000	376.639	80.001	19.996	103.155	19.900	10.835	0.532
607.500	376.870	80.003	19.995	103.156	19.891	11.467	0.507
608.000	377.107	80.004	19.995	103.157	19.892	11.414	0.475
608.500	377.379	80.003	19.995	103.159	19.889	11.588	0.489
609.000	377.660	80.004	19.996	103.161	19.892	11.375	0.531
609.500	377.864	80.002	19.995	103.161	19.890	11.542	0.518
610.000	378.118	80.003	19.996	103.160	19.892	11.385	0.471
610.500	378.390	80.003	19.995	103.158	19.882	12.097	0.493
611.000	378.658	80.002	19.995	103.157	19.881	12.132	0.534
611.500	378.900	80.003	19.995	103.156	19.878	12.333	0.525
612.000	379.163	80.005	19.996	103.157	19.878	12.330	0.507
612.500	379.393	80.003	19.995	103.156	19.883	12.016	0.499
613.000	379.688	80.000	19.994	103.155	19.874	12.621	0.509
613.500	379.928	80.004	19.996	103.153	19.878	12.399	0.530
614.000	380.203	80.002	19.993	103.152	19.879	12.295	0.525
614.500	380.424	80.001	19.994	103.151	19.875	12.607	0.505
615.001	380.725	80.001	19.994	103.152	19.872	12.772	0.509
615.500	380.964	80.006	19.995	103.153	19.872	12.777	0.531
616.000	381.233	80.003	19.996	103.155	19.872	12.759	0.524
616.500	381.502	80.001	19.996	103.155	19.872	12.791	0.523
617.000	381.767	80.002	19.994	103.156	19.864	13.322	0.536
617.500	381.984	80.002	19.995	103.157	19.860	13.586	0.508
618.000	382.232	80.005	19.995	103.158	19.861	13.549	0.474
618.500	382.515	80.002	19.996	103.159	19.856	13.929	0.497
619.000	382.800	80.000	19.996	103.159	19.862	13.488	0.549
619.500	383.060	80.000	19.994	103.159	19.860	13.618	0.557
620.000	383.339	80.003	19.995	103.158	19.854	14.009	0.542
620.500	383.590	80.002	19.994	103.157	19.854	14.050	0.535
621.000	383.858	80.001	19.995	103.156	19.855	13.969	0.524
621.500	384.115	80.000	19.994	103.155	19.851	14.238	0.522
622.000	384.387	80.004	19.997	103.159	19.853	14.083	0.527
622.500	384.635	80.019	19.999	103.170	19.850	14.322	0.525
623.000	384.902	80.020	20.000	103.178	19.844	14.717	0.517
623.500	385.184	80.022	20.004	103.185	19.844	14.720	0.532
624.000	385.458	80.021	20.003	103.194	19.840	15.037	0.552
624.500	385.720	80.022	20.002	103.197	19.843	14.801	0.546
625.000	385.920	80.022	20.003	103.193	19.840	15.049	0.500
625.500	386.232	80.022	20.002	103.186	19.833	15.484	0.487
626.000	386.493	80.013	20.001	103.179	19.830	15.696	0.542
626.500	386.770	80.006	19.997	103.171	19.828	15.831	0.555
627.000	387.027	80.001	19.997	103.163	19.819	16.466	0.536
627.500	387.303	80.004	19.998	103.159	19.818	16.537	0.534
628.000	387.572	80.002	19.996	103.158	19.814	16.861	0.539
628.500	387.831	80.004	19.997	103.157	19.808	17.230	0.536
629.000	388.137	80.002	19.997	103.157	19.801	17.748	0.547
629.500	388.371	80.000	19.997	103.157	19.792	18.345	0.553
630.000	388.652	80.001	19.996	103.155	19.785	18.889	0.527
630.500	388.963	80.004	19.997	103.155	19.778	19.332	0.553
631.000	389.193	80.001	19.995	103.156	19.768	20.062	0.566
631.500	389.481	80.001	19.994	103.164	19.765	20.234	0.529
632.000	389.752	80.003	19.996	103.170	19.756	20.923	0.538
632.500	390.004	80.003	19.996	103.176	19.750	21.337	0.541
633.000	390.284	80.003	19.997	103.178	19.743	21.837	0.528
633.500	390.558	80.004	19.996	103.176	19.741	21.939	0.543
634.000	390.797	80.002	19.995	103.167	19.733	22.523	0.533
634.500	391.145	80.004	19.996	103.159	19.730	22.719	0.550
635.000	391.383	80.004	19.996	103.150	19.730	22.748	0.587
635.500	391.656	80.005	19.996	103.146	19.724	23.142	0.549
636.000	391.934	80.003	19.997	103.139	19.723	23.243	0.531
636.501	392.217	80.003	19.996	103.132	19.720	23.436	0.556
637.000	392.517	80.004	19.995	103.124	19.721	23.365	0.572
637.500	392.773	80.004	19.997	103.123	19.721	23.331	0.570
638.000	393.055	80.004	19.995	103.117	19.712	24.010	0.547
638.500	393.330	80.003	19.997	103.117	19.715	23.788	0.547
639.000	393.604	80.005	19.997	103.120	19.709	24.176	0.553
639.500	393.863	80.004	19.996	103.129	19.713	23.911	0.541
640.000	394.113	80.003	19.995	103.132	19.705	24.498	0.521
640.500	394.406	80.003	19.997	103.141	19.697	25.039	0.526
641.000	394.683	80.005	19.997	103.150	19.685	25.895	0.556
641.500	394.985	80.002	19.994	103.155	19.688	25.663	0.575
642.000	395.213	80.004	19.996	103.156	19.678	26.320	0.554
642.500	395.470	80.004	19.997	103.160	19.677	26.433	0.508
643.000	395.759	80.001	19.995	103.169	19.672	26.774	0.516
643.500	396.012	80.006	19.997	103.178	19.669	26.996	0.544
644.000	396.332	80.005	19.997	103.185	19.661	27.532	0.558
644.500	396.589	80.003	19.997	103.187	19.652	28.200	0.575
645.000	396.852	80.003	19.995	103.189	19.645	28.654	0.548
645.500	397.079	80.003	19.997	103.181	19.640	29.049	0.505
646.000	397.387	80.006	19.996	103.173	19.627	29.909	0.512
646.500	397.626	80.002	19.996	103.169	19.618	30.526	0.541
647.000	397.924	80.002	19.994	103.174	19.610	31.101	0.542
647.500	398.139	80.002	19.995	103.175	19.600	31.792	0.525
648.000	398.431	80.002	19.995	103.175	19.575	33.529	0.510
648.500	398.706	80.003	19.995	103.177	19.563	34.382	0.537
649.000	398.993	80.005	19.996	103.178	19.556	34.905	0.564
649.500	399.257	80.004	19.996	103.180	19.552	35.136	0.556
650.000	399.553	80.003	19.996	103.184	19.545	35.669	0.555
650.500	399.816	80.002	19.998	103.182	19.537	36.241	0.559
651.000	400.057	80.005	19.996	103.169	19.530	36.697	0.531
651.500	400.331	80.005	19.997	103.157	19.528	36.858	0.509
652.000	400.583	80.004	19.995	103.146	19.521	37.364	0.520
652.500	400.833	80.004	19.996	103.130	19.509	38.135	0.514
653.000	401.135	80.002	19.996	103.122	19.488	39.613	0.527
653.500	401.384	80.003	19.996	103.123	19.478	40.371	0.552
654.000	401.642	80.005	19.997	103.123	19.456	41.906	0.529
654.500	401.949	80.005	19.997	103.123	19.434	43.440	0.536
655.000	402.138	80.005	19.995	103.136	19.418	44.576	0.530
655.500	402.421	80.004	19.997	103.162	19.403	45.673	0.484
656.000	402.718	80.004	19.994	103.183	19.386	46.792	0.526
656.500	403.008	80.005	19.997	103.193	19.388	46.693	0.584
657.000	403.253	80.006	19.999	103.190	19.382	47.095	0.561
657.500	403.527	80.007	19.998	103.182	19.369	47.965	0.527
658.000	403.740	80.003	19.995	103.165	19.364	48.284	0.503
658.500	403.999	80.003	19.997	103.151	19.346	49.555	0.479
659.000	404.307	80.005	19.996	103.149	19.334	50.448	0.519
659.500	404.556	80.005	19.996	103.146	19.314	51.864	0.562
660.000	404.827	80.001	19.995	103.141	19.299	52.885	0.539
660.500	405.111	80.002	19.996	103.142	19.286	53.823	0.537
661.000	405.372	80.004	19.996	103.149	19.267	55.096	0.550
661.500	405.641	80.005	19.998	103.159	19.256	55.856	0.538
662.000	405.871	80.006	19.997	103.164	19.244	56.699	0.514
662.500	406.121	80.005	19.997	103.154	19.231	57.628	0.490
663.000	406.365	80.001	19.996	103.140	19.214	58.800	0.487
663.500	406.663	80.004	19.996	103.131	19.189	60.553	0.518
664.000	406.895	80.006	19.995	103.126	19.171	61.796	0.535
664.500	407.176	80.005	19.996	103.139	19.153	63.072	0.521
665.000	407.439	80.004	19.996	103.170	19.134	64.459	0.529
665.500	407.704	80.003	19.997	103.208	19.114	65.879	0.536
666.000	407.956	80.004	19.998	103.247	19.094	67.227	0.523
666.500	408.201	80.003	19.997	103.257	19.078	68.347	0.507
667.000	408.480	80.006	19.997	103.241	19.063	69.426	0.510
667.500	408.718	80.002	19.997	103.218	19.033	71.522	0.520
668.000	408.990	80.003	19.996	103.183	19.011	73.027	0.514
668.500	409.222	80.003	19.995	103.151	18.984	74.938	0.507
669.000	409.514	80.002	19.997	103.141	18.957	76.876	0.514
669.500	409.766	80.000	19.996	103.147	18.940	78.027	0.534
670.000	410.026	80.002	19.995	103.171	18.918	79.613	0.528
670.500	410.311	80.003	19.997	103.202	18.887	81.750	0.528
671.000	410.561	80.002	19.995	103.201	18.870	82.926	0.540
671.500	410.791	80.005	19.997	103.189	18.850	84.336	0.508
672.000	411.039	80.004	19.998	103.190	18.819	86.529	0.479
672.500	411.323	80.003	19.996	103.171	18.801	87.761	0.505
673.000	411.561	80.000	19.997	103.135	18.780	89.187	0.527
673.500	411.815	80.004	19.996	103.146	18.747	91.518	0.508
674.000	412.106	80.004	19.996	103.166	18.712	93.975	0.519
674.500	412.344	80.004	19.996	103.159	18.687	95.750	0.536
675.000	412.583	80.005	19.996	103.159	18.648	98.518	0.503
675.500	412.894	80.003	19.995	103.186	18.618	100.621	0.514
676.000	413.092	80.002	19.995	103.207	18.589	102.651	0.530
676.500	413.382	80.001	19.995	103.228	18.559	104.715	0.498
677.000	413.622	79.999	19.997	103.229	18.534	106.440	0.509
677.500	413.836	80.001	19.994	103.209	18.497	109.040	0.492
678.000	414.093	80.005	19.996	103.186	18.462	111.466	0.462
678.500	414.358	80.003	19.995	103.181	18.432	113.561	0.496
679.000	414.623	80.002	19.996	103.168	18.393	116.338	0.527
679.500	414.893	80.003	19.994	103.193	18.360	118.631	0.533
680.000	415.142	80.002	19.995	103.233	18.321	121.319	0.527
680.500	415.376	80.001	19.995	103.244	18.286	123.787	0.500
681.000	415.634	80.003	19.996	103.223	18.243	126.778	0.488
681.500	415.933	80.000	19.994	103.225	18.198	129.945	0.525
682.000	416.163	80.000	19.995	103.228	18.160	132.604	0.543
682.500	416.395	80.000	19.995	103.226	18.112	136.006	0.495
683.000	416.639	80.005	19.995	103.220	18.072	138.821	0.469
683.500	416.885	80.002	19.995	103.206	18.021	142.377	0.483
684.000	417.121	80.004	19.995	103.192	17.974	145.669	0.486
684.500	417.369	80.003	19.995	103.191	17.929	148.858	0.483
685.000	417.666	80.002	19.997	103.204	17.875	152.614	0.515
685.500	417.925	80.002	19.995	103.230	17.827	155.973	0.550
686.000	418.136	80.002	19.995	103.258	17.780	159.282	0.512
686.500	418.379	80.002	19.995	103.269	17.730	162.822	0.462
687.000	418.619	80.003	19.996	103.260	17.681	166.233	0.469
687.500	418.906	80.002	19.995	103.243	17.640	169.100	0.505
688.000	419.173	80.001	19.995	103.234	17.589	172.726	0.541
688.500	419.408	80.000	19.996	103.224	17.537	176.315	0.528
689.000	419.659	80.004	19.996	103.214	17.492	179.509	0.494
689.500	419.918	80.003	19.996	103.210	17.441	183.055	0.498
690.000	420.169	80.002	19.996	103.201	17.395	186.303	0.510
690.500	420.441	80.002	19.995	103.196	17.342	189.997	0.517
691.000	420.653	80.005	19.996	103.193	17.296	193.236	0.503
691.500	420.894	80.004	19.996	103.197	17.243	196.930	0.468
692.000	421.149	80.002	19.995	103.198	17.190	200.640	0.475
692.500	421.411	80.003	19.995	103.210	17.140	204.082	0.507
693.000	421.662	80.005	19.995	103.211	17.091	207.553	0.515
693.500	421.917	80.004	19.996	103.210	17.047	210.661	0.509
694.000	422.140	80.003	19.997	103.213	16.991	214.578	0.492
694.500	422.430	80.004	19.996	103.218	16.934	218.587	0.495
695.000	422.665	80.003	19.995	103.215	16.881	222.307	0.519
695.500	422.909	80.002	19.995	103.226	16.828	226.010	0.502
696.000	423.132	80.001	19.995	103.239	16.775	229.735	0.473
696.500	423.404	80.002	19.994	103.245	16.716	233.889	0.481
697.000	423.628	80.006	19.995	103.249	16.654	238.220	0.496
697.500	423.902	80.001	19.994	103.261	16.605	241.715	0.497
698.000	424.133	80.004	19.995	103.268	16.546	245.820	0.501
698.500	424.377	80.002	19.996	103.267	16.488	249.829	0.490
699.000	424.628	80.001	19.994	103.268	16.437	253.459	0.485
699.500	424.906	80.002	19.995	103.270	16.385	257.144	0.512
700.000	425.108	80.003	19.995	103.268	16.332	260.846	0.505
700.500	425.361	80.003	19.995	103.270	16.280	264.414	0.467
701.000	425.636	80.001	19.995	103.280	16.223	268.453	0.491
701.500	425.899	80.002	19.996	103.280	16.171	272.088	0.533
702.000	426.157	80.002	19.996	103.276	16.120	275.617	0.530
702.500	426.378	80.002	19.997	103.268	16.065	279.488	0.500
703.000	426.609	80.002	19.996	103.253	16.009	283.413	0.466
703.500	426.853	80.002	19.996	103.235	15.952	287.426	0.463
704.000	427.079	80.003	19.996	103.238	15.893	291.543	0.472
704.500	427.348	80.000	19.997	103.251	15.838	295.417	0.483
705.000	427.564	80.002	19.996	103.254	15.785	299.086	0.491
705.500	427.785	80.004	19.995	103.257	15.733	302.712	0.461
706.000	428.062	80.002	19.996	103.261	15.683	306.077	0.467
706.500	428.306	80.002	19.996	103.271	15.625	310.226	0.510
707.000	428.543	80.005	19.996	103.278	15.569	314.016	0.501
707.500	428.832	80.002	19.997	103.284	15.514	317.934	0.503
708.000	429.054	80.005	19.996	103.284	15.457	321.839	0.518
708.500	429.260	80.003	19.995	103.300	15.402	325.739	0.470
709.000	429.502	80.003	19.995	103.301	15.340	330.016	0.438
709.500	429.773	80.004	19.995	103.282	15.280	334.286	0.480
710.000	430.041	80.008	19.996	103.284	15.225	338.128	0.526
710.500	430.269	80.003	19.995	103.312	15.168	342.152	0.517
711.000	430.497	80.001	19.994	103.299	15.109	346.320	0.476
711.500	430.793	80.004	19.996	103.291	15.051	350.331	0.490
712.000	431.008	80.004	19.995	103.306	14.995	354.319	0.517
712.500	431.237	80.008	19.995	103.288	14.936	358.380	0.477
713.000	431.501	80.005	19.995	103.284	14.884	362.052	0.468
713.500	431.738	80.007	19.995	103.284	14.832	365.734	0.497
714.000	431.993	80.006	19.995	103.287	14.778	369.459	0.497
714.500	432.279	80.006	19.996	103.288	14.731	372.800	0.516
715.000	432.497	80.007	19.994	103.292	14.671	377.002	0.522
715.500	432.728	80.003	19.994	103.285	14.624	380.269	0.477
716.000	432.965	80.004	19.996	103.268	14.575	383.778	0.459
716.500	433.221	80.004	19.994	103.270	14.520	387.738	0.481
717.000	433.458	80.004	19.996	103.233	14.477	390.706	0.493
717.500	433.718	80.007	19.994	103.247	14.428	394.256	0.495
718.000	433.991	80.006	19.995	103.211	14.386	397.213	0.514
718.500	434.226	80.005	19.997	103.234	14.342	400.238	0.520
719.000	434.500	80.006	19.994	103.197	14.302	403.073	0.509
719.500	434.744	80.005	19.996	103.224	14.257	406.183	0.514
720.000	434.992	80.004	19.995	103.201	14.217	408.968	0.505
720.500	435.227	80.004	19.994	103.229	14.180	411.628	0.487
721.000	435.448	80.005	19.994	103.220	14.141	414.311	0.469
721.500	435.718	80.006	19.995	103.239	14.110	416.443	0.473
722.000	435.968	80.004	19.995	103.239	14.071	419.281	0.506
722.500	436.197	80.005	19.995	103.237	14.041	421.328	0.500
723.000	436.441	80.002	19.995	103.244	14.010	423.483	0.476
723.500	436.681	80.005	19.996	103.235	13.981	425.636	0.478
724.000	436.932	80.007	19.997	103.239	13.951	427.708	0.487
724.500	437.142	80.004	19.995	103.238	13.919	430.002	0.475
725.000	437.448	80.002	19.996	103.239	13.892	431.967	0.489
725.500	437.653	80.002	19.994	103.240	13.869	433.571	0.514
726.000	437.919	80.006	19.995	103.251	13.842	435.487	0.491
726.500	438.180	80.002	19.996	103.248	13.821	437.102	0.499
727.000	438.435	80.003	19.995	103.263	13.798	438.689	0.522
727.500	438.652	80.004	19.996	103.288	13.777	440.201	0.494
728.000	438.910	80.005	19.996	103.279	13.773	440.558	0.473
728.500	439.130	80.003	19.996	103.301	13.759	441.533	0.476
729.000	439.353	80.003	19.996	103.307	13.748	442.305	0.461
729.500	439.626	80.004	19.995	103.290	13.748	442.341	0.470
730.000	439.894	80.003	19.996	103.301	13.742	442.718	0.518
730.500	440.150	80.004	19.996	103.297	13.737	443.059	0.533
731.000	440.389	80.002	19.996	103.284	13.733	443.371	0.510
731.500	440.620	80.004	19.997	103.299	13.738	443.057	0.482
732.000	440.874	80.003	19.997	103.290	13.741	442.851	0.478
732.500	441.160	80.006	19.996	103.284	13.744	442.652	0.512
733.000	441.392	80.004	19.996	103.302	13.746	442.524	0.529
733.500	441.606	80.004	19.996	103.294	13.752	442.129	0.482
734.000	441.874	80.004	19.995	103.296	13.760	441.605	0.463
734.500	442.120	80.004	19.996	103.320	13.771	440.802	0.498
735.000	442.359	80.005	19.995	103.309	13.783	440.032	0.500
735.500	442.618	80.003	19.996	103.320	13.796	439.017	0.492
736.000	442.844	80.006	19.995	103.349	13.813	437.947	0.491
736.500	443.109	80.003	19.994	103.340	13.830	436.695	0.488
737.000	443.338	80.006	19.994	103.357	13.852	435.245	0.492
737.500	443.588	80.005	19.996	103.386	13.874	433.603	0.487
738.000	443.864	80.005	19.996	103.374	13.893	432.356	0.503
738.500	444.114	80.001	19.994	103.392	13.921	430.298	0.526
739.000	444.344	80.005	19.994	103.411	13.942	428.927	0.502
739.500	444.593	80.007	19.995	103.401	13.968	427.052	0.480
740.000	444.855	80.005	19.995	103.409	13.995	425.200	0.495
740.500	445.108	80.005	19.995	103.405	14.028	422.903	0.513
741.000	445.343	80.006	19.994	103.395	14.049	421.462	0.502
741.500	445.589	80.005	19.996	103.399	14.082	419.162	0.484
742.000	445.859	80.007	19.994	103.398	14.122	416.320	0.498
742.500	446.099	80.006	19.995	103.408	14.152	414.245	0.513
743.000	446.379	80.006	19.994	103.415	14.192	411.446	0.515
743.500	446.627	80.007	19.994	103.423	14.226	409.050	0.524
744.000	446.854	80.005	19.995	103.427	14.271	405.882	0.502
744.500	447.096	80.004	19.995	103.434	14.305	403.492	0.472
745.000	447.339	80.004	19.995	103.429	14.347	400.501	0.477
745.500	447.619	80.005	19.994	103.434	14.392	397.311	0.504
746.001	447.881	80.004	19.995	103.439	14.436	394.342	0.533
746.500	448.152	80.004	19.994	103.428	14.477	391.381	0.538
747.000	448.379	80.002	19.994	103.451	14.526	387.889	0.515
747.500	448.634	80.004	19.994	103.433	14.576	384.502	0.490
748.000	448.890	80.003	19.995	103.459	14.627	380.874	0.496
748.500	449.157	80.001	19.995	103.433	14.680	377.106	0.518
749.000	449.414	80.003	19.995	103.461	14.732	373.477	0.524
749.500	449.710	80.002	19.995	103.433	14.781	370.001	0.538
750.000	449.941	80.004	19.995	103.454	14.830	366.504	0.540
750.500	450.209	80.005	19.995	103.439	14.885	362.624	0.513
751.000	450.475	80.001	19.997	103.457	14.946	358.374	0.516
751.500	450.740	80.002	19.996	103.453	14.992	355.100	0.532
752.000	450.965	80.002	19.997	103.462	15.051	350.946	0.511
752.500	451.218	80.002	19.996	103.471	15.108	346.949	0.484
753.000	451.507	80.002	19.995	103.470	15.163	343.043	0.510
753.500	451.771	80.002	19.996	103.471	15.226	338.649	0.548
754.000	451.994	80.003	19.996	103.476	15.277	335.067	0.520
754.500	452.281	80.002	19.997	103.473	15.337	330.863	0.498
755.000	452.501	80.004	19.997	103.460	15.393	326.887	0.509
755.500	452.762	80.001	19.996	103.473	15.454	322.588	0.494
756.000	453.066	80.003	19.996	103.463	15.512	318.528	0.523
756.500	453.319	80.000	19.997	103.453	15.571	314.351	0.561
757.000	453.578	80.001	19.996	103.469	15.637	309.734	0.534
757.500	453.801	80.003	19.997	103.460	15.693	305.787	0.497
758.000	454.091	80.003	19.997	103.450	15.750	301.796	0.498
758.500	454.350	80.001	19.996	103.466	15.809	297.610	0.531
759.000	454.623	80.000	19.996	103.461	15.862	293.926	0.540
759.500	454.855	80.002	19.997	103.445	15.929	289.235	0.519
760.000	455.114	79.999	19.996	103.452	15.983	285.439	0.498
760.500	455.372	80.003	19.996	103.450	16.042	281.297	0.504
761.000	455.626	80.000	19.996	103.429	16.098	277.365	0.515
761.500	455.898	80.002	19.997	103.428	16.158	273.109	0.520
762.000	456.175	80.002	19.997	103.425	16.216	269.019	0.538
762.500	456.431	80.002	19.997	103.415	16.269	265.300	0.541
763.000	456.647	80.003	19.995	103.408	16.329	261.125	0.502
763.500	456.928	80.001	19.996	103.412	16.386	257.074	0.484
764.000	457.179	80.003	19.996	103.402	16.441	253.236	0.514
764.500	457.454	80.001	19.996	103.401	16.495	249.442	0.529
765.000	457.717	80.002	19.996	103.397	16.557	245.100	0.532
765.500	457.945	80.000	19.996	103.396	16.609	241.417	0.514
766.000	458.176	80.002	19.996	103.391	16.667	237.367	0.475
766.500	458.457	80.001	19.996	103.389	16.718	233.820	0.486
767.000	458.760	80.000	19.996	103.384	16.773	229.971	0.548
767.500	458.992	80.005	19.996	103.376	16.826	226.196	0.559
768.000	459.244	80.001	19.996	103.368	16.879	222.480	0.509
768.500	459.531	80.003	19.998	103.364	16.935	218.546	0.511
769.000	459.752	80.002	19.996	103.358	16.989	214.799	0.524
769.500	460.035	80.003	19.997	103.353	17.041	211.096	0.506
770.000	460.271	80.002	19.996	103.354	17.086	207.933	0.512
770.500	460.568	80.002	19.996	103.356	17.133	204.691	0.526
771.000	460.826	80.005	19.996	103.353	17.186	200.961	0.544
771.500	461.129	80.003	19.995	103.352	17.237	197.385	0.558
772.000	461.338	80.005	19.995	103.351	17.287	193.881	0.537
772.500	461.600	80.004	19.997	103.341	17.328	190.959	0.491
773.000	461.885	80.001	19.995	103.336	17.376	187.566	0.509
773.500	462.130	79.999	19.996	103.334	17.425	184.163	0.538
774.000	462.353	80.005	19.995	103.329	17.472	180.874	0.499
774.500	462.641	80.002	19.995	103.324	17.512	178.032	0.490
775.000	462.901	80.004	19.995	103.325	17.557	174.907	0.530
775.500	463.161	80.001	19.996	103.320	17.600	171.900	0.534
776.000	463.431	80.003	19.995	103.314	17.644	168.817	0.525
776.500	463.716	80.004	19.995	103.311	17.685	165.935	0.542
777.000	463.916	80.004	19.996	103.310	17.729	162.864	0.520
777.500	464.187	80.003	19.997	103.308	17.765	160.338	0.479
778.000	464.427	80.001	19.995	103.307	17.803	157.614	0.491
778.500	464.708	80.005	19.996	103.305	17.845	154.697	0.516
779.000	464.960	80.005	19.996	103.299	17.884	152.004	0.527
779.500	465.221	80.002	19.996	103.293	17.924	149.195	0.524
780.000	465.483	80.001	19.997	103.288	17.955	146.982	0.518
780.500	465.742	80.001	19.996	103.282	17.997	144.086	0.522
781.000	466.006	80.003	19.995	103.277	18.030	141.759	0.522
781.500	466.249	80.003	19.997	103.277	18.065	139.330	0.515
782.000	466.540	80.003	19.996	103.276	18.100	136.863	0.520
782.500	466.819	80.003	19.996	103.274	18.130	134.785	0.552
783.000	467.047	80.002	19.996	103.270	18.166	132.226	0.539
783.500	467.310	80.002	19.996	103.263	18.201	129.773	0.499
784.000	467.534	80.001	19.996	103.255	18.234	127.458	0.489
784.500	467.845	80.004	19.995	103.251	18.262	125.492	0.511
785.000	468.084	80.002	19.995	103.244	18.292	123.437	0.543
785.500	468.353	79.999	19.997	103.239	18.324	121.173	0.529
786.000	468.631	80.004	19.996	103.237	18.354	119.073	0.527
786.500	468.861	80.001	19.996	103.237	18.378	117.340	0.527
787.000	469.123	80.005	19.996	103.233	18.410	115.149	0.500
787.500	469.357	80.001	19.996	103.232	18.433	113.525	0.494
788.000	469.618	80.002	19.995	103.231	18.462	111.449	0.496
788.500	469.907	80.001	19.996	103.230	18.488	109.647	0.522
789.000	470.170	80.002	19.995	103.228	18.513	107.905	0.551
789.500	470.404	79.999	19.994	103.228	18.538	106.152	0.525
790.001	470.647	80.001	19.995	103.228	18.565	104.311	0.487
790.500	470.904	80.001	19.996	103.229	18.590	102.537	0.488
791.000	471.198	80.003	19.996	103.227	18.618	100.587	0.525
791.500	471.426	80.002	19.996	103.229	18.645	98.675	0.536
792.000	471.671	80.005	19.995	103.229	18.660	97.612	0.497
792.500	471.939	80.002	19.995	103.229	18.685	95.882	0.493
793.000	472.203	80.004	19.995	103.229	18.708	94.221	0.523
793.500	472.486	80.003	19.996	103.232	18.727	92.884	0.540
794.000	472.701	80.002	19.997	103.232	18.749	91.352	0.523
794.500	472.960	80.005	19.996	103.231	18.771	89.858	0.486
795.000	473.234	80.002	19.997	103.230	18.791	88.404	0.503
795.500	473.497	80.002	19.995	103.226	18.812	86.964	0.535
796.000	473.790	80.003	19.995	103.221	18.832	85.598	0.547
796.500	474.014	80.004	19.996	103.214	18.850	84.317	0.536
797.000	474.256	80.003	19.995	103.211	18.870	82.880	0.491
797.500	474.521	80.003	19.996	103.207	18.889	81.565	0.487
798.000	474.787	80.006	19.995	103.204	18.910	80.133	0.519
798.500	475.064	80.002	19.994	103.202	18.931	78.630	0.537
799.000	475.300	80.005	19.996	103.202	18.949	77.403	0.528
799.500	475.519	80.003	19.995	103.205	18.963	76.370	0.485
800.000	475.812	80.004	19.996	103.205	18.978	75.346	0.484
800.500	476.098	80.005	19.994	103.204	18.998	73.978	0.545
801.000	476.339	80.006	19.995	103.208	19.017	72.637	0.553
801.500	476.575	80.003	19.994	103.213	19.027	71.887	0.502
802.000	476.848	80.004	19.995	103.208	19.051	70.267	0.493
802.500	477.090	80.002	19.995	103.205	19.066	69.149	0.512
803.000	477.322	80.004	19.995	103.201	19.082	68.081	0.495
803.500	477.587	80.003	19.996	103.196	19.099	66.865	0.486
804.000	477.834	80.002	19.994	103.188	19.113	65.860	0.504
804.500	478.093	80.003	19.995	103.186	19.129	64.736	0.509
805.000	478.404	80.002	19.994	103.181	19.146	63.562	0.538
805.500	478.629	80.007	19.995	103.184	19.160	62.583	0.553
806.000	478.863	80.003	19.996	103.183	19.175	61.571	0.497
806.500	479.108	80.001	19.997	103.184	19.192	60.372	0.469
807.000	479.352	80.002	19.996	103.184	19.207	59.304	0.483
807.500	479.639	80.002	19.993	103.187	19.221	58.328	0.510
808.000	479.879	80.004	19.995	103.188	19.236	57.247	0.529
808.500	480.103	80.002	19.994	103.186	19.246	56.559	0.496
809.000	480.339	80.004	19.995	103.181	19.263	55.378	0.463
809.500	480.619	80.000	19.996	103.179	19.277	54.371	0.489
810.000	480.879	80.000	19.995	103.177	19.291	53.404	0.528
810.500	481.147	80.003	19.995	103.173	19.305	52.429	0.533
811.000	481.390	80.002	19.995	103.177	19.324	51.086	0.519
811.500	481.618	80.004	19.994	103.181	19.334	50.400	0.491
812.000	481.875	80.003	19.995	103.176	19.347	49.524	0.479
812.500	482.151	80.004	19.995	103.173	19.363	48.363	0.509
813.000	482.420	80.005	19.996	103.173	19.379	47.263	0.539
813.500	482.632	80.004	19.995	103.165	19.392	46.343	0.513
814.000	482.877	80.003	19.996	103.161	19.399	45.897	0.469
814.500	483.172	80.001	19.995	103.161	19.412	44.926	0.498
815.000	483.385	80.003	19.996	103.161	19.426	43.988	0.524
815.500	483.626	80.003	19.996	103.158	19.439	43.054	0.481
816.000	483.901	80.006	19.996	103.158	19.450	42.321	0.485
816.500	484.130	80.004	19.997	103.158	19.461	41.524	0.510
817.000	484.412	80.003	19.996	103.157	19.478	40.324	0.507
817.500	484.642	80.005	19.994	103.157	19.491	39.433	0.512
818.000	484.880	80.003	19.996	103.156	19.503	38.580	0.490
818.500	485.157	80.005	19.996	103.154	19.515	37.753	0.492
819.000	485.393	80.004	19.996	103.153	19.527	36.942	0.514
819.500	485.667	80.006	19.996	103.152	19.538	36.152	0.511
820.000	485.899	80.002	19.995	103.147	19.548	35.428	0.508
820.500	486.154	80.001	19.996	103.144	19.562	34.491	0.497
821.000	486.408	80.005	19.997	103.145	19.577	33.441	0.498
821.500	486.640	80.004	19.996	103.145	19.583	33.013	0.497
822.000	486.883	80.002	19.996	103.145	19.597	31.997	0.480
822.500	487.138	80.004	19.996	103.149	19.608	31.241	0.487
823.000	487.377	80.003	19.995	103.150	19.622	30.283	0.496
823.500	487.618	80.004	19.997	103.150	19.634	29.408	0.487
824.000	487.878	80.003	19.995	103.148	19.637	29.217	0.490
824.500	488.134	80.005	19.995	103.147	19.649	28.408	0.508
825.000	488.379	80.005	19.996	103.145	19.663	27.383	0.508
825.500	488.618	80.004	19.996	103.145	19.671	26.838	0.493
826.000	488.884	80.007	19.997	103.145	19.683	26.016	0.495
826.500	489.116	80.005	19.997	103.147	19.692	25.371	0.502
827.000	489.380	80.004	19.996	103.145	19.705	24.433	0.497
827.500	489.622	80.005	19.997	103.140	19.715	23.788	0.501
828.000	489.855	80.007	19.996	103.136	19.728	22.854	0.491
828.500	490.094	80.004	19.996	103.136	19.735	22.371	0.474
829.000	490.350	80.007	19.995	103.133	19.740	22.039	0.484
829.500	490.579	80.001	19.995	103.134	19.752	21.196	0.490
830.000	490.841	80.006	19.996	103.142	19.762	20.439	0.488
830.500	491.058	80.003	19.996	103.147	19.772	19.745	0.484
831.000	491.307	80.003	19.995	103.146	19.779	19.249	0.473
831.500	491.579	80.004	19.994	103.145	19.787	18.694	0.494
832.000	491.839	80.006	19.995	103.144	19.798	17.980	0.527
832.500	492.099	80.004	19.995	103.140	19.807	17.333	0.526
833.000	492.324	80.004	19.996	103.138	19.811	17.049	0.502
833.500	492.564	80.005	19.995	103.134	19.817	16.622	0.475
834.000	492.860	80.003	19.995	103.133	19.830	15.691	0.501
834.500	493.070	80.005	19.995	103.132	19.838	15.160	0.521
835.000	493.321	80.003	19.996	103.134	19.842	14.898	0.484
835.500	493.598	80.004	19.995	103.131	19.853	14.086	0.495
836.000	493.836	80.003	19.995	103.130	19.857	13.817	0.521
836.500	494.054	80.002	19.996	103.128	19.868	13.026	0.485
837.000	494.358	79.999	19.996	103.124	19.874	12.647	0.489
837.500	494.562	80.005	19.996	103.119	19.883	12.002	0.515
838.000	494.863	80.002	19.996	103.120	19.888	11.686	0.506
838.500	495.086	80.004	19.997	103.123	19.896	11.110	0.515
839.000	495.327	80.003	19.996	103.123	19.904	10.570	0.495
839.500	495.616	80.001	19.996	103.124	19.911	10.079	0.497
840.000	495.805	80.001	19.996	103.126	19.913	9.922	0.504
840.500	496.096	80.001	19.995	103.128	19.917	9.600	0.479
841.000	496.326	80.002	19.996	103.123	19.926	8.979	0.501
841.500	496.582	80.004	19.995	103.127	19.934	8.449	0.503
842.000	496.834	80.001	19.996	103.129	19.937	8.205	0.497
842.500	497.066	80.001	19.996	103.129	19.942	7.862	0.495
843.000	497.320	80.003	19.997	103.124	19.943	7.816	0.485
843.500	497.562	79.999	19.995	103.124	19.956	6.888	0.491
844.000	497.822	80.001	19.997	103.122	19.962	6.480	0.499
844.500	498.050	80.004	19.996	103.120	19.961	6.568	0.495
845.000	498.300	80.002	19.995	103.119	19.967	6.104	0.483
845.500	498.562	80.002	19.995	103.125	19.970	5.913	0.495
846.000	498.798	80.001	19.997	103.127	19.980	5.237	0.505
846.500	499.054	80.001	19.997	103.127	19.979	5.296	0.495
847.000	499.279	80.003	19.996	103.127	19.985	4.880	0.487
847.500	499.553	80.003	19.995	103.126	19.990	4.509	0.490
848.000	499.809	80.001	19.997	103.124	19.991	4.449	0.514
848.500	500.083	80.001	19.996	103.128	19.995	4.175	0.530
849.000	500.317	80.001	19.997	103.127	19.998	3.990	0.520
849.500	500.557	80.000	19.996	103.130	19.998	3.959	0.491
850.000	500.801	80.002	19.997	103.132	20.005	3.488	0.479
850.500	501.065	80.002	19.997	103.128	20.007	3.339	0.496
851.000	501.286	80.001	19.996	103.123	20.005	3.438	0.497
851.500	501.538	80.001	19.997	103.124	20.009	3.199	0.479
852.000	501.789	80.001	19.996	103.120	20.010	3.124	0.488
852.500	502.027	80.001	19.996	103.118	20.017	2.622	0.496
853.000	502.274	80.001	19.996	103.117	20.016	2.732	0.487
853.500	502.530	80.003	19.997	103.114	20.013	2.908	0.494
854.000	502.762	80.001	19.997	103.112	20.019	2.523	0.496
854.500	503.020	80.001	19.997	103.112	20.019	2.475	0.489
855.000	503.266	80.003	19.997	103.112	20.019	2.525	0.497
855.500	503.555	80.001	19.996	103.113	20.023	2.190	0.520
856.000	503.763	80.002	19.997	103.113	20.021	2.336	0.516
856.501	504.004	80.000	19.996	103.113	20.028	1.834	0.473
857.000	504.285	80.002	19.996	103.112	20.028	1.849	0.485
857.500	504.508	80.002	19.997	103.107	20.026	1.978	0.513
858.000	504.778	80.002	19.996	103.103	20.024	2.165	0.499
858.500	505.031	80.002	19.996	103.096	20.026	2.008	0.508
859.000	505.263	80.003	19.996	103.088	20.022	2.309	0.504
859.500	505.508	80.001	19.996	103.084	20.026	2.035	0.481
860.000	505.766	80.000	19.997	103.089	20.030	1.702	0.490
860.500	506.017	80.002	19.996	103.092	20.028	1.859	0.506
861.000	506.271	80.002	19.995	103.093	20.029	1.771	0.507
861.500	506.526	80.001	19.997	103.093	20.032	1.589	0.507
862.000	506.740	80.002	19.996	103.091	20.029	1.810	0.489
862.500	507.032	80.002	19.997	103.083	20.037	1.227	0.488
863.000	507.263	80.003	19.996	103.076	20.035	1.392	0.515
863.500	507.494	80.001	19.996	103.080	20.033	1.507	0.492
864.000	507.769	80.002	19.995	103.085	20.032	1.610	0.484
864.500	507.970	80.002	19.996	103.085	20.032	1.614	0.491
865.000	508.268	80.002	19.995	103.087	20.030	1.744	0.488
865.500	508.509	80.001	19.995	103.091	20.033	1.520	0.519
866.000	508.724	80.003	19.996	103.093	20.038	1.183	0.498
866.500	508.992	80.003	19.994	103.095	20.037	1.210	0.469
867.000	509.249	79.999	19.995	103.095	20.034	1.427	0.504
867.500	509.485	80.003	19.995	103.096	20.035	1.404	0.509
868.000	509.699	80.002	19.996	103.097	20.034	1.415	0.472
868.500	509.965	80.000	19.996	103.094	20.036	1.327	0.465
869.000	510.220	80.002	19.996	103.092	20.035	1.400	0.500
869.500	510.462	80.003	19.996	103.099	20.040	1.059	0.509
870.000	510.691	80.001	19.995	103.106	20.035	1.352	0.484
870.500	510.951	80.002	19.994	103.109	20.036	1.337	0.480
871.000	511.213	80.000	19.996	103.113	20.040	1.034	0.505
871.500	511.416	80.000	19.996	103.116	20.036	1.335	0.494
872.000	511.688	80.002	19.995	103.117	20.033	1.502	0.471
872.500	511.899	80.003	19.996	103.117	20.036	1.299	0.479
873.000	512.169	80.001	19.995	103.112	20.040	1.044	0.482
873.500	512.388	80.004	19.994	103.109	20.040	1.030	0.485
874.000	512.617	80.003	19.995	103.107	20.039	1.116	0.468
874.500	512.843	80.001	19.994	103.104	20.037	1.254	0.451
875.000	513.104	80.001	19.995	103.104	20.038	1.176	0.472
875.500	513.344	80.002	19.996	103.109	20.041	0.933	0.494
876.000	513.646	80.002	19.996	103.116	20.042	0.917	0.521
876.500	513.864	80.003	19.994	103.119	20.040	1.059	0.531
877.000	514.124	80.003	19.996	103.122	20.040	1.042	0.499
877.500	514.381	80.003	19.996	103.122	20.044	0.741	0.497
878.000	514.616	80.004	19.995	103.123	20.038	1.163	0.504
878.500	514.873	80.004	19.995	103.124	20.045	0.684	0.492
879.000	515.115	80.004	19.996	103.124	20.041	0.969	0.496
879.500	515.387	80.003	19.994	103.125	20.040	1.004	0.506
880.000	515.629	80.004	19.995	103.125	20.040	1.034	0.514
880.500	515.849	80.003	19.996	103.125	20.035	1.402	0.489
881.000	516.102	80.003	19.996	103.124	20.039	1.120	0.467
881.500	516.386	80.004	19.996	103.129	20.041	0.956	0.505
882.000	516.597	80.003	19.997	103.133	20.040	1.042	0.516
882.500	516.872	80.004	19.996	103.135	20.037	1.218	0.491
883.000	517.161	80.003	19.995	103.139	20.041	0.929	0.525
883.500	517.390	80.004	19.996	103.139	20.037	1.228	0.541
884.000	517.633	80.003	19.996	103.135	20.037	1.251	0.495
884.500	517.917	80.004	19.996	103.129	20.040	1.050	0.499
885.000	518.148	80.003	19.996	103.126	20.039	1.067	0.521
885.500	518.401	80.004	19.996	103.121	20.037	1.218	0.500
886.000	518.643	80.005	19.995	103.117	20.042	0.904	0.490
886.500	518.930	80.004	19.996	103.118	20.041	0.940	0.512
887.000	519.205	80.004	19.994	103.123	20.042	0.867	0.545
887.500	519.463	80.003	19.994	103.129	20.044	0.710	0.548
888.000	519.723	80.003	19.995	103.134	20.036	1.296	0.526
888.500	519.959	80.006	19.995	103.138	20.041	0.944	0.507
889.000	520.227	80.005	19.995	103.143	20.038	1.141	0.500
889.500	520.520	80.004	19.994	103.139	20.037	1.262	0.532
890.000	520.774	80.002	19.995	103.132	20.041	0.936	0.554
890.500	521.013	80.004	19.995	103.127	20.034	1.455	0.520
891.000	521.297	80.004	19.995	103.128	20.041	0.971	0.508
891.500	521.577	80.003	19.996	103.126	20.039	1.124	0.544
892.000	521.838	80.002	19.994	103.132	20.044	0.764	0.553
892.500	522.075	80.003	19.994	103.133	20.038	1.165	0.520
893.000	522.365	80.002	19.994	103.135	20.041	0.927	0.513
893.500	522.636	80.003	19.995	103.136	20.038	1.149	0.544
894.000	522.904	80.003	19.995	103.137	20.040	1.057	0.549
894.500	523.147	80.003	19.996	103.136	20.038	1.157	0.525
895.000	523.414	80.003	19.995	103.140	20.040	1.046	0.511
895.500	523.691	80.002	19.995	103.140	20.046	0.624	0.527
896.000	523.973	80.004	19.995	103.134	20.036	1.323	0.552
896.500	524.223	80.003	19.996	103.130	20.036	1.279	0.546
897.000	524.486	80.003	19.995	103.128	20.040	1.002	0.522
897.500	524.752	80.004	19.996	103.125	20.042	0.873	0.520
898.000	525.013	80.003	19.996	103.122	20.038	1.149	0.528
898.500	525.278	80.005	19.995	103.121	20.042	0.879	0.527
899.000	525.535	80.002	19.995	103.119	20.042	0.919	0.524
899.500	525.802	80.004	19.994	103.118	20.040	1.023	0.523
900.000	526.071	80.004	19.994	103.118	20.045	0.699	0.530
900.500	526.328	80.004	19.995	103.119	20.041	0.961	0.532
901.000	526.613	80.004	19.996	103.121	20.040	1.011	0.534
901.500	526.898	80.004	19.996	103.122	20.042	0.868	0.556
902.000	527.165	80.005	19.996	103.126	20.046	0.621	0.561
902.500	527.435	80.004	19.995	103.133	20.042	0.850	0.545
903.000	527.701	80.004	19.995	103.140	20.045	0.703	0.537
903.500	528.007	80.005	19.995	103.146	20.042	0.892	0.554
904.000	528.224	80.004	19.994	103.150	20.048	0.460	0.547
904.500	528.511	80.003	19.995	103.150	20.041	0.934	0.513
905.000	528.774	80.005	19.996	103.150	20.046	0.634	0.526
905.500	529.050	80.006	19.995	103.148	20.045	0.678	0.545
906.000	529.293	80.006	19.995	103.143	20.042	0.885	0.530
906.500	529.573	80.004	19.994	103.137	20.048	0.492	0.521
907.000	529.866	80.005	19.994	103.130	20.049	0.408	0.548
907.500	530.155	80.004	19.995	103.124	20.048	0.494	0.577
908.000	530.400	80.006	19.994	103.124	20.044	0.732	0.558
908.500	530.672	80.006	19.995	103.127	20.044	0.739	0.526
909.000	530.947	80.004	19.995	103.133	20.047	0.502	0.532
909.500	531.256	80.007	19.994	103.135	20.046	0.571	0.565
910.000	531.536	80.004	19.995	103.134	20.042	0.852	0.586
910.500	531.772	80.007	19.994	103.132	20.038	1.132	0.552
911.000	532.050	80.005	19.995	103.131	20.045	0.647	0.515
911.500	532.301	80.006	19.995	103.127	20.044	0.766	0.522
912.000	532.606	80.006	19.996	103.131	20.040	1.027	0.543
912.500	532.856	80.005	19.995	103.137	20.039	1.078	0.555
913.000	533.181	80.005	19.996	103.135	20.041	0.937	0.565
913.500	533.445	80.005	19.994	103.132	20.038	1.145	0.582
914.000	533.716	80.003	19.995	103.130	20.038	1.182	0.562
914.500	534.026	80.004	19.995	103.123	20.040	0.996	0.558
915.000	534.305	80.003	19.995	103.120	20.039	1.098	0.585
915.500	534.562	80.005	19.995	103.117	20.042	0.873	0.562
916.000	534.833	80.004	19.995	103.117	20.040	1.009	0.532
916.500	535.161	80.004	19.996	103.125	20.040	1.050	0.564
917.000	535.390	80.002	19.995	103.132	20.042	0.919	0.578
917.500	535.656	80.003	19.996	103.137	20.039	1.069	0.526
918.000	535.952	80.001	19.995	103.142	20.039	1.118	0.528
918.500	536.246	80.004	19.997	103.147	20.037	1.254	0.576
919.000	536.517	80.003	19.996	103.142	20.040	1.017	0.578
919.500	536.783	80.003	19.996	103.137	20.039	1.084	0.551
920.000	537.097	80.003	19.996	103.134	20.039	1.113	0.558
920.500	537.357	80.003	19.996	103.132	20.041	0.986	0.577
921.000	537.613	80.003	19.996	103.133	20.041	0.973	0.545
921.500	537.896	80.002	19.996	103.136	20.039	1.076	0.528
922.000	538.165	80.001	19.995	103.137	20.041	0.984	0.546
922.500	538.421	80.004	19.995	103.134	20.041	0.959	0.539
923.000	538.719	80.001	19.995	103.136	20.040	1.009	0.539
923.500	539.021	80.002	19.996	103.134	20.041	0.988	0.577
924.000	539.268	80.002	19.996	103.132	20.042	0.904	0.575
924.500	539.540	80.003	19.996	103.134	20.045	0.707	0.534
925.000	539.821	80.002	19.997	103.138	20.043	0.827	0.535
925.500	540.071	80.001	19.996	103.140	20.039	1.111	0.542
926.000	540.357	80.004	19.995	103.142	20.039	1.121	0.534
926.500	540.593	80.001	19.995	103.147	20.043	0.839	0.529
927.000	540.901	80.003	19.995	103.144	20.042	0.904	0.533
927.500	541.140	80.002	19.997	103.140	20.042	0.919	0.546
928.000	541.475	80.002	19.997	103.136	20.043	0.845	0.561
928.500	541.713	80.001	19.995	103.134	20.042	0.898	0.573
929.000	542.004	80.002	19.995	103.126	20.042	0.906	0.550
929.500	542.249	80.001	19.996	103.126	20.044	0.760	0.532
930.000	542.588	80.002	19.995	103.125	20.044	0.716	0.560
930.500	542.798	80.003	19.995	103.125	20.041	0.967	0.567
931.000	543.128	80.003	19.995	103.129	20.047	0.567	0.545
931.501	543.389	80.002	19.995	103.131	20.041	0.958	0.565
932.000	543.661	80.002	19.995	103.129	20.039	1.096	0.562
932.500	543.913	80.005	19.996	103.127	20.038	1.159	0.529
933.000	544.173	80.001	19.995	103.127	20.042	0.868	0.519
933.500	544.449	80.003	19.996	103.120	20.042	0.883	0.524
934.000	544.724	80.002	19.995	103.122	20.044	0.724	0.543
934.500	544.961	80.001	19.995	103.128	20.041	0.923	0.531
935.000	545.262	80.002	19.995	103.133	20.039	1.069	0.525
935.500	545.523	80.002	19.995	103.137	20.040	1.034	0.550
936.000	545.809	80.002	19.996	103.144	20.042	0.906	0.554
936.500	546.071	80.000	19.996	103.147	20.039	1.069	0.547
937.000	546.370	80.002	19.995	103.146	20.042	0.871	0.555
937.500	546.633	80.003	19.995	103.142	20.041	0.921	0.562
938.000	546.909	80.001	19.996	103.140	20.043	0.787	0.551
938.500	547.194	80.002	19.996	103.137	20.041	0.984	0.550
939.000	547.458	80.000	19.995	103.136	20.041	0.921	0.555
939.500	547.734	80.001	19.996	103.137	20.046	0.613	0.544
940.000	548.009	80.001	19.996	103.143	20.040	1.023	0.546
940.500	548.278	80.002	19.996	103.147	20.041	0.931	0.548
941.000	548.554	80.001	19.996	103.150	20.042	0.887	0.544
941.500	548.832	80.002	19.996	103.153	20.046	0.630	0.549
942.000	549.097	80.001	19.995	103.152	20.042	0.902	0.548
942.500	549.349	80.001	19.995	103.151	20.041	0.921	0.530
943.000	549.653	80.003	19.995	103.150	20.042	0.858	0.537
943.500	549.902	80.002	19.996	103.146	20.043	0.785	0.555
944.000	550.213	80.001	19.996	103.139	20.042	0.854	0.557
944.500	550.461	80.002	19.996	103.138	20.048	0.498	0.559
945.000	550.737	80.002	19.997	103.133	20.041	0.957	0.541
945.500	550.997	80.001	19.995	103.130	20.046	0.619	0.530
946.000	551.267	80.000	19.996	103.133	20.044	0.778	0.533
946.500	551.520	80.002	19.997	103.136	20.042	0.881	0.526
947.000	551.819	80.002	19.996	103.137	20.046	0.634	0.538
947.500	552.099	80.002	19.997	103.138	20.046	0.603	0.566
948.000	552.375	80.000	19.996	103.138	20.043	0.812	0.568
948.500	552.638	80.000	19.997	103.132	20.047	0.538	0.547
949.000	552.859	80.001	19.995	103.130	20.042	0.860	0.512
949.500	553.110	80.001	19.996	103.124	20.043	0.812	0.478
950.000	553.401	80.001	19.996	103.123	20.043	0.781	0.507
950.500	553.654	80.001	19.996	103.120	20.043	0.848	0.543
951.000	553.968	80.001	19.997	103.118	20.046	0.626	0.555
951.500	554.199	80.002	19.997	103.115	20.044	0.741	0.556
952.000	554.505	80.001	19.996	103.115	20.041	0.933	0.542
952.500	554.750	80.001	19.996	103.117	20.041	0.973	0.544
953.000	555.020	80.001	19.997	103.121	20.044	0.741	0.532
953.500	555.303	80.002	19.997	103.124	20.042	0.864	0.534
954.000	555.535	80.002	19.996	103.125	20.044	0.751	0.534
954.500	555.830	80.002	19.997	103.124	20.044	0.733	0.521
955.000	556.083	80.000	19.996	103.123	20.043	0.841	0.537
955.500	556.333	80.001	19.995	103.118	20.046	0.611	0.526
956.000	556.572	80.003	19.996	103.117	20.041	0.925	0.496
956.500	556.813	80.003	19.996	103.122	20.045	0.709	0.485
957.000	557.123	80.001	19.996	103.127	20.042	0.852	0.516
957.500	557.344	80.002	19.996	103.133	20.042	0.885	0.541
958.000	557.585	80.002	19.997	103.140	20.044	0.718	0.496
958.500	557.873	80.001	19.995	103.144	20.043	0.829	0.495
959.000	558.158	80.003	19.996	103.139	20.043	0.844	0.551
959.500	558.379	80.003	19.994	103.135	20.042	0.906	0.540
960.000	558.656	80.002	19.995	103.132	20.040	1.013	0.502
960.500	558.888	80.003	19.994	103.124	20.043	0.837	0.504
961.000	559.161	80.003	19.995	103.118	20.043	0.799	0.507
961.500	559.418	80.005	19.994	103.117	20.042	0.871	0.518
962.000	559.637	80.004	19.995	103.118	20.041	0.959	0.503
962.500	559.883	80.003	19.995	103.117	20.042	0.881	0.470
963.000	560.141	80.003	19.996	103.118	20.042	0.900	0.484
963.500	560.401	80.003	19.994	103.117	20.042	0.850	0.511
964.000	560.646	80.004	19.995	103.117	20.046	0.575	0.512
964.500	560.894	80.002	19.996	103.114	20.045	0.643	0.499
965.000	561.159	80.003	19.995	103.113	20.043	0.823	0.503
965.500	561.384	80.003	19.996	103.118	20.040	1.003	0.502
966.000	561.667	80.004	19.995	103.120	20.042	0.860	0.499
966.500	561.874	80.004	19.995	103.121	20.047	0.569	0.499
967.000	562.144	80.003	19.995	103.120	20.042	0.885	0.484
967.500	562.392	80.003	19.996	103.119	20.043	0.804	0.497
968.000	562.662	80.003	19.995	103.114	20.041	0.927	0.518
968.500	562.902	80.004	19.995	103.113	20.041	0.967	0.514
969.000	563.138	80.006	19.995	103.113	20.039	1.115	0.493
969.500	563.405	80.004	19.994	103.112	20.039	1.071	0.490
970.000	563.674	80.004	19.995	103.113	20.043	0.829	0.519
970.500	563.879	80.005	19.995	103.112	20.041	0.961	0.505
971.000	564.152	80.004	19.995	103.116	20.042	0.883	0.476
971.500	564.349	80.004	19.995	103.117	20.046	0.609	0.473
972.000	564.603	80.005	19.996	103.120	20.041	0.923	0.460
972.500	564.892	80.003	19.995	103.124	20.043	0.823	0.498
973.000	565.060	80.003	19.995	103.130	20.043	0.808	0.500
973.500	565.333	80.004	19.995	103.130	20.043	0.808	0.448
974.000	565.574	80.003	19.995	103.134	20.042	0.902	0.477
974.500	565.846	80.002	19.996	103.134	20.046	0.576	0.514
975.000	566.089	80.003	19.995	103.132	20.044	0.754	0.514
975.500	566.340	80.004	19.995	103.130	20.040	1.000	0.505
976.000	566.608	80.004	19.996	103.125	20.045	0.689	0.506
976.500	566.809	80.003	19.996	103.121	20.044	0.755	0.494
977.000	567.072	80.005	19.996	103.119	20.046	0.607	0.466
977.500	567.327	80.004	19.995	103.117	20.046	0.605	0.491
978.000	567.594	80.004	19.996	103.117	20.045	0.665	0.520
978.500	567.823	80.003	19.995	103.121	20.044	0.732	0.509
979.000	568.042	80.004	19.996	103.123	20.041	0.954	0.472
979.500	568.297	80.004	19.997	103.129	20.040	1.003	0.461
980.000	568.516	80.003	19.996	103.135	20.041	0.935	0.474
980.500	568.791	80.004	19.996	103.138	20.041	0.969	0.484
981.000	569.005	80.003	19.995	103.134	20.043	0.833	0.491
981.500	569.262	80.003	19.996	103.131	20.043	0.810	0.480
982.000	569.514	80.006	19.996	103.126	20.039	1.076	0.490
982.500	569.725	80.004	19.997	103.122	20.050	0.304	0.486
983.000	569.962	80.003	19.995	103.121	20.042	0.896	0.456
983.500	570.215	80.004	19.995	103.123	20.044	0.716	0.469
984.000	570.451	80.003	19.995	103.126	20.047	0.544	0.489
984.500	570.699	80.006	19.994	103.126	20.045	0.689	0.486
985.000	570.952	80.003	19.996	103.123	20.047	0.538	0.493
985.500	571.197	80.003	19.995	103.118	20.045	0.701	0.500
986.000	571.470	80.004	19.995	103.119	20.044	0.733	0.508
986.500	571.687	80.004	19.995	103.123	20.047	0.555	0.504
987.000	571.954	80.004	19.995	103.127	20.046	0.617	0.487
987.500	572.201	80.004	19.996	103.128	20.047	0.567	0.499
988.000	572.426	80.005	19.995	103.129	20.047	0.502	0.493
988.500	572.709	80.005	19.995	103.131	20.042	0.912	0.490
989.000	572.936	80.004	19.995	103.129	20.046	0.628	0.509
989.500	573.162	80.006	19.994	103.124	20.045	0.642	0.481
990.000	573.436	80.005	19.995	103.123	20.046	0.574	0.476
990.500	573.669	80.004	19.994	103.122	20.046	0.605	0.504
991.000	573.955	80.004	19.993	103.120	20.043	0.818	0.513
991.500	574.210	80.006	19.995	103.116	20.045	0.695	0.530
992.000	574.417	80.005	19.995	103.118	20.046	0.628	0.502
992.500	574.691	80.006	19.995	103.119	20.047	0.515	0.471
993.000	574.924	80.005	19.994	103.119	20.048	0.492	0.494
993.500	575.133	80.006	19.994	103.118	20.041	0.977	0.474
994.000	575.377	80.004	19.994	103.117	20.043	0.814	0.447
994.500	575.661	80.005	19.994	103.116	20.046	0.638	0.491
995.000	575.912	80.006	19.994	103.114	20.049	0.379	0.532
995.500	576.143	80.005	19.994	103.114	20.047	0.517	0.509
996.000	576.384	80.004	19.995	103.116	20.043	0.835	0.477
996.500	576.630	80.005	19.994	103.119	20.046	0.628	0.479
997.000	576.855	80.004	19.995	103.122	20.046	0.594	0.479
997.500	577.172	80.005	19.995	103.124	20.047	0.540	0.507
998.000	577.375	80.004	19.994	103.127	20.048	0.469	0.531
998.500	577.628	80.004	19.995	103.126	20.049	0.368	0.488
999.000	577.872	80.004	19.995	103.127	20.047	0.553	0.477
999.500	578.082	80.003	19.995	103.125	20.044	0.722	0.475
1000.000	578.345	80.003	19.994	103.123	20.049	0.406	0.463
1000.501	578.587	80.001	19.995	103.120	20.047	0.532	0.489
1001.000	578.846	80.003	19.995	103.118	20.045	0.686	0.503
1001.500	579.079	80.003	19.995	103.116	20.046	0.617	0.497
1002.000	579.332	80.003	19.996	103.121	20.047	0.511	0.489
1002.500	579.550	80.001	19.995	103.125	20.048	0.475	0.479
1003.000	579.796	80.003	19.996	103.125	20.052	0.180	0.467
1003.500	579.991	80.002	19.995	103.126	20.047	0.521	0.452
1004.000	580.278	80.003	19.995	103.125	20.050	0.299	0.461
1004.500	580.526	80.003	19.994	103.120	20.049	0.375	0.509
1005.000	580.789	80.001	19.995	103.119	20.050	0.335	0.523
1005.500	581.025	80.002	19.996	103.120	20.049	0.395	0.505
1006.000	581.290	80.002	19.997	103.120	20.047	0.509	0.500
1006.500	581.526	80.002	19.996	103.120	20.048	0.448	0.501
1007.000	581.772	80.001	19.997	103.123	20.048	0.435	0.492
1007.500	582.004	80.002	19.996	103.128	20.049	0.400	0.480
1008.000	582.260	80.002	19.996	103.133	20.048	0.460	0.483
1008.500	582.505	80.000	19.996	103.138	20.047	0.546	0.495
1009.000	582.749	80.001	19.996	103.142	20.052	0.155	0.495
1009.500	582.998	80.001	19.995	103.139	20.049	0.395	0.491
1010.000	583.263	80.002	19.996	103.132	20.049	0.417	0.503
1010.500	583.505	80.001	19.995	103.127	20.043	0.812	0.510
1011.000	583.732	80.000	19.996	103.126	20.045	0.642	0.488
1011.500	583.973	80.002	19.995	103.124	20.046	0.586	0.469
1012.000	584.240	80.001	19.995	103.124	20.047	0.567	0.488
1012.500	584.463	80.001	19.997	103.124	20.046	0.638	0.499
1013.000	584.699	80.002	19.995	103.124	20.047	0.515	0.474
1013.500	584.987	80.003	19.996	103.122	20.045	0.655	0.491
1014.000	585.213	80.000	19.996	103.127	20.046	0.605	0.519
1014.500	585.461	80.002	19.996	103.134	20.048	0.471	0.494
1015.000	585.707	80.002	19.997	103.141	20.048	0.464	0.484
1015.500	585.941	80.001	19.996	103.147	20.046	0.598	0.487
1016.000	586.226	80.003	19.997	103.146	20.048	0.469	0.500
1016.500	586.482	80.002	19.995	103.143	20.046	0.584	0.530
1017.000	586.744	80.002	19.996	103.136	20.046	0.580	0.530
1017.500	586.989	80.004	19.995	103.130	20.042	0.883	0.512
1018.000	587.209	80.004	19.997	103.123	20.046	0.607	0.486
1018.500	587.494	80.002	19.996	103.120	20.047	0.554	0.485
1019.000	587.718	80.003	19.997	103.118	20.047	0.542	0.507
1019.500	587.968	80.003	19.997	103.116	20.049	0.395	0.491
1020.000	588.237	80.005	19.997	103.121	20.053	0.111	0.496
1020.500	588.493	80.002	19.996	103.126	20.052	0.213	0.522
1021.000	588.720	80.003	19.998	103.128	20.046	0.571	0.504
1021.500	588.999	80.001	19.998	103.127	20.045	0.701	0.495
1022.000	589.255	80.002	19.996	103.131	20.047	0.532	0.521
1022.500	589.512	80.002	19.996	103.128	20.049	0.421	0.523
1023.000	589.781	80.001	19.996	103.124	20.049	0.387	0.519
1023.500	590.015	80.003	19.996	103.123	20.048	0.463	0.515
1024.000	590.263	80.004	19.996	103.129	20.047	0.561	0.492
1024.500	590.523	80.003	19.996	103.131	20.047	0.557	0.495
1025.000	590.774	80.002	19.997	103.137	20.051	0.278	0.510
1025.500	591.084	80.003	19.997	103.142	20.046	0.576	0.536
1026.000	591.310	80.004	19.996	103.146	20.046	0.611	0.548
1026.500	591.561	80.002	19.995	103.146	20.045	0.655	0.506
1027.001	591.831	80.003	19.995	103.141	20.051	0.236	0.499
1027.501	592.071	80.004	19.995	103.135	20.051	0.234	0.516
1028.000	592.320	80.003	19.996	103.130	20.050	0.341	0.499
1028.500	592.610	80.003	19.996	103.129	20.051	0.285	0.513
1029.000	592.870	80.002	19.995	103.129	20.045	0.668	0.545
1029.500	593.119	80.002	19.995	103.135	20.051	0.266	0.530
1030.000	593.377	80.002	19.996	103.139	20.048	0.431	0.508
1030.500	593.668	80.001	19.995	103.142	20.047	0.546	0.528
1031.000	593.922	80.001	19.995	103.142	20.047	0.525	0.547
1031.500	594.175	80.002	19.997	103.141	20.048	0.473	0.526
1032.000	594.462	80.001	19.995	103.141	20.045	0.657	0.524
1032.500	594.752	80.003	19.997	103.142	20.047	0.553	0.558
1033.000	595.031	80.000	19.996	103.140	20.045	0.686	0.573
1033.500	595.280	80.001	19.997	103.139	20.051	0.274	0.549
1034.000	595.542	80.001	19.996	103.136	20.047	0.519	0.520
1034.500	595.831	80.002	19.996	103.132	20.048	0.494	0.531
1035.000	596.092	80.002	19.997	103.131	20.043	0.795	0.551
1035.501	596.395	80.002	19.997	103.129	20.048	0.442	0.557
1036.001	596.636	80.002	19.995	103.126	20.047	0.552	0.554
1036.500	596.892	80.002	19.997	103.125	20.047	0.559	0.521
1037.000	597.173	80.002	19.996	103.127	20.046	0.638	0.517
1037.500	597.435	80.001	19.996	103.125	20.047	0.565	0.540
1038.000	597.753	80.002	19.998	103.126	20.046	0.622	0.561
1038.500	597.980	80.001	19.997	103.126	20.046	0.576	0.563
1039.000	598.285	80.003	19.997	103.126	20.049	0.404	0.539
1039.500	598.535	80.002	19.996	103.124	20.050	0.320	0.543
1040.000	598.785	80.001	19.997	103.127	20.047	0.519	0.528
1040.500	599.058	80.002	19.997	103.129	20.048	0.477	0.512
1041.000	599.367	80.003	19.997	103.129	20.048	0.496	0.553
1041.500	599.622	80.004	19.997	103.127	20.047	0.513	0.573
1042.000	599.926	80.002	19.998	103.128	20.044	0.768	0.561
1042.500	600.167	80.002	19.996	103.125	20.046	0.615	0.552
1043.000	600.438	80.003	19.997	103.121	20.048	0.471	0.529
1043.500	600.704	80.002	19.997	103.122	20.046	0.615	0.525
1044.000	601.001	80.003	19.997	103.123	20.047	0.502	0.550
1044.500	601.277	80.003	19.996	103.120	20.045	0.684	0.568
1045.000	601.523	80.003	19.997	103.120	20.046	0.613	0.548
1045.500	601.826	80.004	19.997	103.125	20.046	0.582	0.536
1046.000	602.057	80.003	19.996	103.123	20.044	0.737	0.541
1046.500	602.344	80.004	19.997	103.122	20.042	0.850	0.526
1047.000	602.615	80.003	19.996	103.121	20.046	0.596	0.538
1047.500	602.887	80.006	19.997	103.118	20.044	0.756	0.551
1048.000	603.153	80.002	19.997	103.116	20.047	0.513	0.541
1048.500	603.400	80.004	19.996	103.120	20.041	0.942	0.526
1049.000	603.672	80.002	19.995	103.127	20.045	0.653	0.516
1049.500	603.949	80.005	19.997	103.130	20.047	0.550	0.534
1050.000	604.244	80.004	19.997	103.129	20.043	0.818	0.561
1050.501	604.508	80.005	19.996	103.125	20.045	0.709	0.565
1051.001	604.790	80.003	19.995	103.120	20.043	0.839	0.552
1051.500	605.074	80.003	19.995	103.118	20.043	0.846	0.556
1052.001	605.332	80.004	19.995	103.120	20.040	0.992	0.554
1052.501	605.591	80.003	19.996	103.128	20.039	1.116	0.529
1053.000	605.878	80.003	19.995	103.132	20.039	1.088	0.531
1053.501	606.109	80.003	19.995	103.133	20.046	0.599	0.532
1054.001	606.445	80.004	19.995	103.130	20.043	0.814	0.543
1054.500	606.752	80.004	19.995	103.128	20.040	1.049	0.605
1055.000	606.987	80.004	19.995	103.121	20.041	0.942	0.592
1055.500	607.257	80.003	19.995	103.122	20.041	0.979	0.524
1056.000	607.558	80.004	19.996	103.125	20.043	0.835	0.538
1056.500	607.762	80.003	19.995	103.124	20.039	1.088	0.538
1057.000	608.086	80.002	19.995	103.122	20.037	1.203	0.517
1057.500	608.334	80.004	19.995	103.123	20.041	0.933	0.550
1058.000	608.589	80.002	19.996	103.122	20.044	0.776	0.537
1058.500	608.880	80.003	19.995	103.121	20.041	0.925	0.525
1059.001	609.157	80.004	19.994	103.126	20.046	0.620	0.557
1059.501	609.409	80.003	19.995	103.131	20.046	0.605	0.548
1060.000	609.642	80.004	19.995	103.133	20.043	0.785	0.507
1060.500	609.974	80.003	19.995	103.130	20.039	1.069	0.525
1061.000	610.214	80.004	19.994	103.129	20.043	0.785	0.568
1061.500	610.481	80.005	19.994	103.123	20.044	0.724	0.539
1062.000	610.785	80.002	19.995	103.118	20.041	0.948	0.539
1062.500	611.004	80.003	19.995	103.116	20.041	0.969	0.547
1063.000	611.260	80.003	19.995	103.116	20.042	0.906	0.499
1063.500	611.591	80.004	19.995	103.115	20.038	1.176	0.531
1064.000	611.835	80.002	19.997	103.115	20.045	0.655	0.581
1064.500	612.092	80.003	19.996	103.122	20.042	0.871	0.538
1065.000	612.319	80.003	19.996	103.123	20.042	0.896	0.492
1065.500	612.600	80.004	19.995	103.125	20.043	0.795	0.496
1066.000	612.872	80.004	19.996	103.132	20.042	0.917	0.531
1066.500	613.176	80.004	19.996	103.136	20.041	0.954	0.565
1067.000	613.450	80.004	19.996	103.136	20.044	0.774	0.577
1067.500	613.719	80.003	19.994	103.137	20.042	0.892	0.560
1068.000	613.957	80.005	19.995	103.135	20.044	0.779	0.525
1068.500	614.242	80.004	19.995	103.129	20.043	0.810	0.515
1069.000	614.534	80.003	19.995	103.126	20.043	0.795	0.550
1069.500	614.795	80.003	19.995	103.121	20.041	0.967	0.565
1070.000	615.050	80.004	19.995	103.120	20.041	0.931	0.534
1070.500	615.363	80.004	19.995	103.121	20.045	0.682	0.542
1071.000	615.642	80.004	19.994	103.121	20.042	0.908	0.580
1071.500	615.927	80.004	19.995	103.123	20.042	0.864	0.579
1072.000	616.181	80.003	19.995	103.124	20.045	0.667	0.551
1072.500	616.436	80.004	19.994	103.125	20.042	0.906	0.524
1073.000	616.709	80.004	19.994	103.128	20.047	0.542	0.519
1073.500	617.009	80.005	19.995	103.128	20.047	0.521	0.551
1074.000	617.236	80.005	19.995	103.125	20.045	0.663	0.550
1074.500	617.526	80.004	19.995	103.127	20.045	0.665	0.522
1075.000	617.806	80.005	19.995	103.128	20.044	0.733	0.543
1075.500	618.053	80.004	19.995	103.129	20.043	0.824	0.548
1076.000	618.351	80.005	19.995	103.136	20.042	0.881	0.536
1076.500	618.589	80.004	19.995	103.137	20.042	0.852	0.541
1077.000	618.850	80.004	19.995	103.137	20.044	0.772	0.518
1077.500	619.109	80.004	19.994	103.141	20.046	0.638	0.510
1078.000	619.418	80.003	19.996	103.136	20.045	0.672	0.544
1078.500	619.692	80.003	19.994	103.129	20.043	0.791	0.576
1079.000	619.942	80.004	19.995	103.127	20.045	0.672	0.554
1079.501	620.183	80.004	19.995	103.122	20.042	0.891	0.508
1080.001	620.509	80.003	19.995	103.117	20.043	0.797	0.529
1080.500	620.762	80.004	19.994	103.117	20.046	0.630	0.573
1081.000	621.029	80.003	19.996	103.117	20.043	0.835	0.549
1081.500	621.302	80.003	19.995	103.121	20.044	0.770	0.530
1082.000	621.579	80.003	19.994	103.126	20.046	0.613	0.545
1082.500	621.833	80.003	19.995	103.130	20.047	0.515	0.541
1083.000	622.120	80.003	19.994	103.136	20.047	0.563	0.536
1083.500	622.391	80.002	19.995	103.139	20.048	0.439	0.549
1084.000	622.660	80.003	19.995	103.136	20.045	0.643	0.549
1084.500	622.926	80.002	19.996	103.133	20.053	0.119	0.538
1085.000	623.183	80.004	19.994	103.130	20.049	0.400	0.529
1085.501	623.453	80.003	19.995	103.127	20.045	0.659	0.525
1086.001	623.683	80.002	19.994	103.129	20.048	0.500	0.513
1086.500	623.967	80.002	19.995	103.129	20.048	0.490	0.507
1087.000	624.258	80.002	19.995	103.128	20.045	0.649	0.545
1087.500	624.538	80.003	19.995	103.125	20.047	0.555	0.573
1088.000	624.786	80.003	19.996	103.121	20.043	0.822	0.550
1088.500	625.053	80.003	19.996	103.121	20.045	0.707	0.522
1089.000	625.298	80.002	19.993	103.124	20.046	0.580	0.513
1089.500	625.595	80.002	19.995	103.126	20.048	0.431	0.527
1090.000	625.804	80.002	19.994	103.126	20.050	0.293	0.524
1090.500	626.136	80.003	19.996	103.129	20.047	0.567	0.524
1091.000	626.357	80.003	19.993	103.132	20.049	0.383	0.547
1091.500	626.640	80.003	19.995	103.135	20.049	0.416	0.528
1092.000	626.941	80.002	19.996	103.140	20.047	0.506	0.544
1092.500	627.190	80.003	19.996	103.145	20.050	0.343	0.567
1093.000	627.503	80.002	19.995	103.142	20.047	0.544	0.556
1093.500	627.707	80.002	19.995	103.135	20.047	0.559	0.540
1094.000	627.991	80.004	19.995	103.128	20.045	0.657	0.503
1094.500	628.269	80.004	19.996	103.120	20.042	0.883	0.525
1095.000	628.516	80.004	19.996	103.115	20.047	0.519	0.543
1095.500	628.778	80.004	19.996	103.117	20.045	0.649	0.517
1096.000	629.032	80.003	19.995	103.120	20.047	0.521	0.513
1096.500	629.285	80.003	19.996	103.122	20.048	0.484	0.511
1097.000	629.578	80.003	19.995	103.126	20.044	0.747	0.526
1097.500	629.826	80.003	19.994	103.127	20.048	0.492	0.544
1098.000	630.121	80.003	19.994	103.126	20.044	0.714	0.542
1098.500	630.355	80.003	19.994	103.123	20.049	0.387	0.536
1099.000	630.673	80.004	19.995	103.123	20.044	0.714	0.541
1099.500	630.881	80.000	19.994	103.122	20.045	0.665	0.539
1100.000	631.162	80.003	19.994	103.121	20.046	0.575	0.507
1100.500	631.443	80.003	19.995	103.120	20.045	0.693	0.526
1101.000	631.710	80.000	19.995	103.122	20.047	0.517	0.555
1101.501	631.957	80.003	19.996	103.126	20.049	0.391	0.531
1102.001	632.227	80.002	19.996	103.127	20.045	0.641	0.516
1102.500	632.525	80.003	19.995	103.127	20.047	0.553	0.543
1103.001	632.729	80.003	19.996	103.128	20.045	0.647	0.535
1103.501	633.025	80.003	19.996	103.130	20.045	0.695	0.501
1104.000	633.280	80.003	19.996	103.127	20.045	0.691	0.526
1104.500	633.545	80.002	19.996	103.129	20.047	0.509	0.535
1105.000	633.833	80.003	19.996	103.130	20.047	0.532	0.536
1105.500	634.109	80.001	19.995	103.128	20.047	0.527	0.558
1106.000	634.372	80.003	19.996	103.124	20.044	0.768	0.551
1106.500	634.603	80.002	19.996	103.125	20.047	0.550	0.516
1107.000	634.885	80.003	19.997	103.118	20.047	0.536	0.504
1107.500	635.148	80.002	19.997	103.117	20.047	0.519	0.529
1108.000	635.362	80.003	19.997	103.117	20.047	0.534	0.511
1108.500	635.689	80.002	19.997	103.117	20.046	0.584	0.509
1109.000	635.955	80.002	19.996	103.118	20.043	0.816	0.567
1109.500	636.208	80.003	19.996	103.123	20.044	0.713	0.556
1110.000	636.484	80.001	19.996	103.127	20.046	0.626	0.524
1110.500	636.751	80.002	19.997	103.129	20.050	0.345	0.535
1111.000	637.030	80.002	19.996	103.128	20.048	0.448	0.544
1111.500	637.288	80.002	19.995	103.124	20.048	0.485	0.542
1112.000	637.502	80.002	19.997	103.119	20.046	0.575	0.505
1112.500	637.795	80.002	19.995	103.117	20.047	0.565	0.490
1113.000	638.077	80.002	19.996	103.117	20.048	0.483	0.541
1113.500	638.298	80.000	19.996	103.116	20.047	0.555	0.538
1114.000	638.531	80.002	19.997	103.117	20.047	0.515	0.478
1114.500	638.858	80.001	19.996	103.117	20.045	0.645	0.507
1115.000	639.115	80.001	19.995	103.115	20.045	0.668	0.572
1115.500	639.346	80.001	19.995	103.114	20.044	0.712	0.536
1116.000	639.630	80.002	19.996	103.115	20.051	0.272	0.502
1116.500	639.870	80.002	19.995	103.115	20.048	0.458	0.520
1117.001	640.127	80.002	19.996	103.115	20.050	0.354	0.511
1117.501	640.376	80.002	19.996	103.117	20.049	0.427	0.501
1118.000	640.680	80.002	19.996	103.123	20.050	0.354	0.529
1118.500	640.928	80.003	19.996	103.127	20.049	0.383	0.552
1119.000	641.166	80.003	19.996	103.133	20.051	0.245	0.519
1119.500	641.397	80.003	19.995	103.141	20.052	0.192	0.477
1120.000	641.649	80.003	19.996	103.146	20.051	0.281	0.476
1120.500	641.945	80.003	19.995	103.147	20.051	0.255	0.516
1121.000	642.213	80.001	19.996	103.149	20.049	0.391	0.556
1121.500	642.490	80.002	19.996	103.150	20.050	0.322	0.554
1122.000	642.755	80.003	19.996	103.144	20.048	0.469	0.544
1122.500	643.000	80.003	19.995	103.138	20.049	0.414	0.526
1123.000	643.253	80.003	19.995	103.132	20.048	0.488	0.504
1123.500	643.489	80.003	19.996	103.128	20.047	0.555	0.493
1124.000	643.765	80.003	19.996	103.128	20.050	0.349	0.501
1124.500	644.027	80.003	19.995	103.133	20.049	0.370	0.525
1125.000	644.294	80.003	19.996	103.137	20.049	0.379	0.534
1125.500	644.567	80.003	19.996	103.136	20.054	0.067	0.535
1126.000	644.784	80.003	19.996	103.132	20.046	0.622	0.515
1126.500	645.079	80.002	19.997	103.129	20.048	0.439	0.501
1127.000	645.314	80.003	19.997	103.126	20.050	0.360	0.521
1127.501	645.578	80.002	19.996	103.121	20.048	0.444	0.515
1128.001	645.848	80.003	19.996	103.124	20.046	0.601	0.516
1128.500	646.097	80.003	19.997	103.129	20.050	0.305	0.526
1129.000	646.359	80.004	19.996	103.129	20.048	0.494	0.515
1129.500	646.593	80.003	19.996	103.127	20.046	0.636	0.504
1130.000	646.863	80.004	19.996	103.127	20.045	0.668	0.500
1130.501	647.128	80.004	19.996	103.123	20.046	0.619	0.520
1131.001	647.398	80.004	19.996	103.118	20.044	0.766	0.535
1131.500	647.689	80.005	19.996	103.116	20.049	0.402	0.548
1132.000	647.917	80.003	19.996	103.117	20.043	0.829	0.540
1132.500	648.180	80.004	19.998	103.117	20.046	0.578	0.505
1133.000	648.404	80.003	19.997	103.124	20.042	0.889	0.489
1133.500	648.710	80.004	19.996	103.129	20.043	0.827	0.508
1134.000	648.939	80.002	19.997	103.131	20.043	0.799	0.533
1134.500	649.229	80.002	19.997	103.129	20.040	1.011	0.528
1135.000	649.481	80.003	19.996	103.131	20.045	0.680	0.531
1135.500	649.708	80.003	19.997	103.128	20.043	0.845	0.510
1136.000	649.982	80.004	19.996	103.125	20.047	0.519	0.490
1136.500	650.224	80.002	19.996	103.125	20.045	0.672	0.509
1137.000	650.511	80.003	19.997	103.128	20.045	0.653	0.523
1137.501	650.733	80.001	19.996	103.129	20.042	0.873	0.519
1138.001	651.042	80.003	19.997	103.132	20.045	0.699	0.520
1138.500	651.240	80.002	19.996	103.131	20.046	0.578	0.519
1139.000	651.540	80.002	19.996	103.129	20.043	0.785	0.503
1139.500	651.784	80.002	19.996	103.129	20.048	0.481	0.521
1140.000	652.073	80.002	19.997	103.129	20.044	0.772	0.539
1140.500	652.279	80.002	19.996	103.124	20.045	0.659	0.514
1141.001	652.522	80.002	19.996	103.123	20.045	0.686	0.472
1141.501	652.845	80.002	19.996	103.122	20.046	0.638	0.507
1142.000	653.063	80.001	19.996	103.124	20.042	0.871	0.553
1142.500	653.323	80.002	19.997	103.127	20.042	0.867	0.509
1143.000	653.555	80.003	19.995	103.131	20.045	0.680	0.485
1143.500	653.810	80.003	19.995	103.136	20.044	0.751	0.490
1144.000	654.078	80.002	19.996	103.138	20.046	0.603	0.505
1144.500	654.343	80.002	19.996	103.134	20.045	0.693	0.528
1145.000	654.587	80.003	19.996	103.128	20.045	0.699	0.521
1145.500	654.848	80.004	19.995	103.123	20.048	0.496	0.507
1146.001	655.108	80.004	19.997	103.119	20.047	0.529	0.513
1146.501	655.390	80.004	19.996	103.124	20.048	0.465	0.532
1147.001	655.583	80.004	19.995	103.129	20.047	0.563	0.508
1147.500	655.865	80.004	19.996	103.132	20.048	0.494	0.475
1148.000	656.156	80.005	19.996	103.136	20.045	0.670	0.524
1148.500	656.369	80.005	19.996	103.133	20.045	0.645	0.538
1149.000	656.635	80.004	19.994	103.127	20.045	0.703	0.491
1149.500	656.896	80.003	19.996	103.122	20.049	0.398	0.504
1150.000	657.171	80.004	19.995	103.120	20.044	0.731	0.532
1150.500	657.409	80.005	19.997	103.116	20.045	0.653	0.524
1151.000	657.669	80.003	19.995	103.116	20.044	0.737	0.505
1151.500	657.958	80.005	19.997	103.115	20.047	0.548	0.523
1152.000	658.193	80.006	19.995	103.114	20.043	0.781	0.536
1152.500	658.447	80.005	19.996	103.113	20.048	0.481	0.507
1153.000	658.682	80.005	19.995	103.113	20.046	0.640	0.489
1153.500	658.957	80.005	19.995	103.112	20.044	0.735	0.500
1154.000	659.220	80.004	19.996	103.112	20.042	0.862	0.524
1154.500	659.436	80.005	19.995	103.113	20.047	0.530	0.508
1155.000	659.716	80.006	19.996	103.116	20.045	0.647	0.487
1155.500	659.979	80.005	19.996	103.118	20.045	0.666	0.520
1156.000	660.211	80.006	19.995	103.118	20.046	0.582	0.520
1156.500	660.483	80.006	19.996	103.117	20.046	0.580	0.500
1157.000	660.723	80.006	19.995	103.116	20.045	0.647	0.508
1157.500	660.976	80.006	19.994	103.112	20.045	0.655	0.502
1158.001	661.243	80.006	19.995	103.111	20.049	0.414	0.506
1158.501	661.487	80.004	19.994	103.114	20.044	0.739	0.515
1159.000	661.782	80.006	19.994	103.115	20.047	0.550	0.525
1159.500	662.024	80.003	19.996	103.118	20.044	0.726	0.538
1160.000	662.273	80.004	19.995	103.118	20.046	0.619	0.515
1160.500	662.551	80.004	19.996	103.118	20.047	0.569	0.509
1161.000	662.771	80.004	19.995	103.115	20.045	0.678	0.512
1161.501	663.059	80.005	19.995	103.116	20.047	0.555	0.503
1162.001	663.311	80.006	19.996	103.115	20.046	0.624	0.525
1162.500	663.539	80.004	19.995	103.114	20.040	0.994	0.510
1163.000	663.785	80.003	19.994	103.115	20.042	0.852	0.476
1163.500	664.045	80.004	19.996	103.114	20.045	0.703	0.490
1164.000	664.267	80.005	19.995	103.112	20.045	0.691	0.494
1164.500	664.549	80.003	19.995	103.111	20.049	0.414	0.493
1165.000	664.811	80.003	19.995	103.112	20.047	0.517	0.524
1165.500	665.051	80.002	19.996	103.113	20.045	0.643	0.523
1166.000	665.325	80.003	19.996	103.113	20.049	0.406	0.508
1166.500	665.559	80.002	19.995	103.113	20.048	0.462	0.511
1167.000	665.815	80.004	19.996	103.113	20.046	0.620	0.499
1167.501	666.101	80.002	19.995	103.113	20.046	0.601	0.516
1168.001	666.342	80.003	19.996	103.120	20.046	0.622	0.534
1168.500	666.591	80.003	19.995	103.125	20.048	0.438	0.508
1169.000	666.834	80.004	19.995	103.127	20.050	0.322	0.491
1169.500	667.103	80.002	19.995	103.128	20.048	0.450	0.502
1170.000	667.365	80.003	19.996	103.128	20.047	0.550	0.522
1170.500	667.595	80.003	19.995	103.126	20.044	0.728	0.511
1171.000	667.859	80.003	19.995	103.124	20.043	0.800	0.493
1171.500	668.140	80.003	19.995	103.122	20.047	0.511	0.520
1172.000	668.380	80.002	19.995	103.122	20.052	0.180	0.533
1172.500	668.607	80.004	19.996	103.119	20.044	0.745	0.494
1173.000	668.868	80.004	19.995	103.115	20.045	0.680	0.477
1173.500	669.108	80.004	19.995	103.113	20.044	0.720	0.495
1174.001	669.371	80.003	19.995	103.116	20.041	0.933	0.502
1174.501	669.605	80.003	19.996	103.117	20.048	0.488	0.500
1175.000	669.920	80.005	19.995	103.119	20.047	0.544	0.523
1175.500	670.119	80.003	19.994	103.121	20.048	0.475	0.531
1176.000	670.352	80.004	19.996	103.123	20.047	0.536	0.473
1176.500	670.613	80.003	19.995	103.123	20.048	0.490	0.463
1177.000	670.897	80.003	19.996	103.122	20.048	0.484	0.520
1177.500	671.115	80.003	19.995	103.121	20.047	0.563	0.524
1178.000	671.380	80.004	19.996	103.118	20.046	0.609	0.493
1178.500	671.627	80.004	19.996	103.114	20.050	0.308	0.498
1179.000	671.895	80.003	19.995	103.112	20.045	0.687	0.513
1179.500	672.134	80.004	19.995	103.112	20.048	0.500	0.511
1180.000	672.399	80.004	19.995	103.113	20.047	0.532	0.506
1180.500	672.655	80.003	19.994	103.116	20.048	0.467	0.513
1181.000	672.910	80.003	19.995	103.118	20.045	0.670	0.516
1181.500	673.131	80.003	19.994	103.119	20.046	0.617	0.493
1182.000	673.392	80.004	19.995	103.119	20.045	0.649	0.479
1182.500	673.653	80.004	19.995	103.120	20.046	0.615	0.502
1183.000	673.910	80.002	19.995	103.118	20.049	0.410	0.520
1183.500	674.150	80.002	19.994	103.118	20.047	0.540	0.508
1184.000	674.406	80.003	19.994	103.118	20.051	0.260	0.497
1184.500	674.657	80.003	19.994	103.119	20.046	0.622	0.501
1185.000	674.907	80.003	19.995	103.118	20.048	0.454	0.503
1185.500	675.163	80.004	19.996	103.118	20.046	0.638	0.503
1186.000	675.433	80.004	19.994	103.118	20.043	0.829	0.517
1186.500	675.644	80.003	19.995	103.118	20.047	0.546	0.504
1187.000	675.940	80.003	19.995	103.119	20.046	0.605	0.493
1187.500	676.168	80.002	19.995	103.119	20.047	0.513	0.515
1188.000	676.324	80.003	19.994	103.119	20.045	0.653	0.455
1188.500	676.670	80.003	19.995	103.119	20.047	0.521	0.443
1189.000	676.902	80.004	19.995	103.118	20.044	0.718	0.540
1189.500	677.189	80.003	19.994	103.117	20.046	0.619	0.548
1190.000	677.449	80.003	19.995	103.118	20.046	0.571	0.533
1190.500	677.679	80.003	19.995	103.117	20.046	0.580	0.518
1191.000	677.906	80.003	19.995	103.120	20.047	0.530	0.474
1191.501	678.187	80.002	19.994	103.120	20.046	0.619	0.483
1192.001	678.452	80.003	19.994	103.120	20.047	0.525	0.527
1192.500	678.686	80.004	19.995	103.120	20.050	0.333	0.522
1193.000	678.932	80.003	19.995	103.121	20.046	0.613	0.489
1193.500	679.172	80.003	19.995	103.119	20.049	0.366	0.483
1194.000	679.435	80.002	19.995	103.121	20.047	0.552	0.495
1194.500	679.665	80.002	19.995	103.120	20.045	0.657	0.498
1195.000	679.917	80.002	19.995	103.120	20.046	0.580	0.487
1195.500	680.171	80.003	19.995	103.119	20.049	0.417	0.494
1196.000	680.432	80.002	19.995	103.118	20.041	0.982	0.511
1196.500	680.670	80.002	19.995	103.116	20.043	0.797	0.507
1197.000	680.920	80.002	19.995	103.116	20.047	0.517	0.494
1197.500	681.197	80.003	19.995	103.116	20.045	0.682	0.507
1198.000	681.459	80.003	19.995	103.116	20.048	0.456	0.533
1198.500	681.691	80.002	19.995	103.118	20.045	0.695	0.517
1199.000	681.932	80.002	19.996	103.118	20.046	0.640	0.484
1199.500	682.192	80.002	19.996	103.118	20.045	0.684	0.488
1200.000	682.427	80.002	19.997	103.118	20.044	0.764	0.498
1200.500	682.681	80.003	19.996	103.118	20.043	0.795	0.492
1201.000	682.976	80.003	19.996	103.116	20.047	0.550	0.519
1201.500	683.197	80.002	19.997	103.117	20.043	0.837	0.532
1202.000	683.466	80.003	19.996	103.117	20.045	0.666	0.503
1202.500	683.683	80.002	19.996	103.117	20.044	0.722	0.488
1203.001	683.926	80.002	19.995	103.117	20.043	0.827	0.473
1203.501	684.182	80.002	19.996	103.117	20.044	0.745	0.479
1204.001	684.436	80.003	19.995	103.117	20.043	0.802	0.505
1204.500	684.662	80.003	19.996	103.119	20.042	0.877	0.495
1205.000	684.971	80.003	19.996	103.122	20.044	0.743	0.507
1205.500	685.172	80.003	19.996	103.125	20.050	0.328	0.523
1206.000	685.483	80.004	19.995	103.128	20.045	0.657	0.511
1206.500	685.690	80.002	19.995	103.129	20.045	0.655	0.515
1207.000	685.987	80.004	19.996	103.127	20.045	0.709	0.511
1207.500	686.226	80.004	19.996	103.125	20.044	0.741	0.520
1208.000	686.475	80.003	19.996	103.120	20.043	0.800	0.512
1208.500	686.731	80.004	19.994	103.118	20.043	0.825	0.497
1209.000	686.981	80.004	19.996	103.118	20.043	0.789	0.506
1209.500	687.224	80.004	19.994	103.119	20.047	0.525	0.500
1210.000	687.473	80.005	19.995	103.118	20.046	0.586	0.493
1210.500	687.702	80.004	19.996	103.122	20.044	0.751	0.484
1211.001	687.959	80.004	19.994	103.126	20.046	0.628	0.482
1211.501	688.234	80.005	19.996	103.125	20.042	0.883	0.509
1212.000	688.491	80.005	19.996	103.127	20.045	0.703	0.532
1212.500	688.697	80.004	19.996	103.127	20.043	0.781	0.498
1213.000	688.997	80.003	19.996	103.122	20.044	0.722	0.485
1213.500	689.228	80.004	19.995	103.120	20.044	0.726	0.519
1214.000	689.501	80.005	19.995	103.120	20.047	0.536	0.517
1214.501	689.769	80.015	19.999	103.122	20.047	0.511	0.522
1215.001	690.003	80.024	20.002	103.129	20.044	0.716	0.522
1215.500	690.260	80.024	20.001	103.136	20.046	0.624	0.497
1216.000	690.501	80.024	20.000	103.142	20.046	0.596	0.495
1216.500	690.798	80.024	20.001	103.146	20.044	0.762	0.518
1217.000	691.009	80.014	19.998	103.141	20.042	0.892	0.523
1217.500	691.256	80.007	19.997	103.133	20.045	0.699	0.483
1218.000	691.517	80.007	19.996	103.124	20.044	0.743	0.483
1218.500	691.790	80.004	19.996	103.117	20.044	0.726	0.521
1219.000	692.009	80.005	19.997	103.111	20.047	0.548	0.513
1219.500	692.307	80.004	19.998	103.112	20.044	0.728	0.504
1220.000	692.531	80.004	19.997	103.112	20.043	0.781	0.519
1220.500	692.801	80.003	19.997	103.112	20.044	0.718	0.509
1221.000	693.031	80.005	19.995	103.112	20.045	0.653	0.497
1221.500	693.279	80.003	19.997	103.112	20.044	0.775	0.489
1222.000	693.559	80.004	19.997	103.112	20.045	0.701	0.503
1222.500	693.802	80.004	19.995	103.113	20.044	0.726	0.526
1223.000	694.056	80.004	19.997	103.117	20.047	0.546	0.510
1223.501	694.328	80.003	19.997	103.118	20.045	0.682	0.512
1224.001	694.607	80.003	19.997	103.118	20.044	0.751	0.539
1224.500	694.804	80.003	19.997	103.118	20.042	0.898	0.513
1225.000	695.072	80.004	19.997	103.116	20.044	0.762	0.470
1225.500	695.308	80.003	19.997	103.113	20.045	0.663	0.485
1226.000	695.582	80.004	19.996	103.112	20.046	0.580	0.507
1226.500	695.829	80.003	19.996	103.112	20.043	0.829	0.515
1227.000	696.106	80.004	19.997	103.112	20.043	0.823	0.522
1227.500	696.351	80.005	19.997	103.116	20.042	0.896	0.523
1228.000	696.645	80.003	19.997	103.116	20.043	0.808	0.531
1228.500	696.882	80.004	19.995	103.115	20.043	0.823	0.535
1229.000	697.118	80.004	19.996	103.116	20.044	0.779	0.502
1229.500	697.350	80.005	19.998	103.116	20.047	0.507	0.471
1230.000	697.634	80.003	19.995	103.113	20.041	0.923	0.492
1230.500	697.892	80.001	19.996	103.113	20.042	0.862	0.529
1231.000	698.127	80.003	19.996	103.113	20.046	0.638	0.518
1231.500	698.372	80.003	19.997	103.112	20.046	0.630	0.487
1232.000	698.626	80.004	19.996	103.111	20.046	0.617	0.489
1232.500	698.905	80.004	19.996	103.111	20.044	0.739	0.515
1233.000	699.161	80.004	19.997	103.113	20.044	0.762	0.534
1233.500	699.362	80.005	19.996	103.114	20.046	0.636	0.496
1234.000	699.622	80.004	19.996	103.114	20.042	0.881	0.459
1234.500	699.887	80.006	19.996	103.114	20.043	0.829	0.493
1235.000	700.149	80.004	19.996	103.115	20.042	0.904	0.526
1235.500	700.424	80.006	19.995	103.113	20.044	0.774	0.532
1236.000	700.680	80.005	19.998	103.113	20.045	0.701	0.533
1236.500	700.940	80.005	19.996	103.112	20.045	0.664	0.523
1237.000	701.198	80.005	19.995	103.112	20.046	0.601	0.517
1237.500	701.433	80.006	19.995	103.111	20.046	0.618	0.506
1238.000	701.680	80.006	19.996	103.110	20.042	0.864	0.487
1238.501	701.903	80.005	19.996	103.110	20.045	0.676	0.476
1239.001	702.191	80.005	19.995	103.114	20.045	0.701	0.491
1239.500	702.450	80.005	19.995	103.120	20.047	0.502	0.529
1240.000	702.680	80.006	19.995	103.123	20.045	0.659	0.518
1240.500	702.933	80.006	19.996	103.123	20.043	0.791	0.485
1241.000	703.192	80.006	19.995	103.122	20.043	0.841	0.497
1241.500	703.469	80.006	19.996	103.119	20.044	0.722	0.524
1242.000	703.713	80.005	19.995	103.114	20.044	0.730	0.529
1242.500	703.919	80.006	19.996	103.111	20.044	0.755	0.485
1243.000	704.199	80.005	19.994	103.112	20.043	0.816	0.467
1243.500	704.497	80.005	19.995	103.113	20.043	0.827	0.532
1244.000	704.707	80.006	19.995	103.114	20.042	0.856	0.543
1244.500	704.953	80.005	19.995	103.114	20.045	0.655	0.482
1245.000	705.204	80.005	19.995	103.114	20.043	0.822	0.476
1245.500	705.492	80.006	19.994	103.113	20.045	0.666	0.518
1246.000	705.669	80.004	19.995	103.113	20.046	0.630	0.502
1246.500	705.973	80.004	19.995	103.112	20.046	0.601	0.473
1247.000	706.200	80.004	19.995	103.113	20.045	0.699	0.506
1247.500	706.496	80.005	19.995	103.110	20.045	0.663	0.527
1248.000	706.736	80.002	19.995	103.105	20.044	0.749	0.529
1248.500	706.955	80.005	19.995	103.103	20.044	0.768	0.498
1249.000	707.241	80.004	19.996	103.102	20.041	0.952	0.482
1249.500	707.484	80.005	19.995	103.102	20.041	0.923	0.517
1250.000	707.765	80.004	19.996	103.105	20.040	1.013	0.526
1250.500	707.975	80.003	19.995	103.111	20.043	0.837	0.507
1251.000	708.243	80.003	19.995	103.114	20.041	0.927	0.484
1251.500	708.490	80.003	19.995	103.115	20.042	0.867	0.496
1252.000	708.718	80.003	19.995	103.116	20.045	0.668	0.495
1252.500	709.003	80.004	19.995	103.118	20.043	0.821	0.494
1253.000	709.275	80.004	19.994	103.121	20.044	0.720	0.535
1253.500	709.513	80.004	19.994	103.122	20.043	0.848	0.534
1254.000	709.750	80.003	19.996	103.122	20.041	0.953	0.493
1254.501	709.995	80.004	19.995	103.121	20.039	1.078	0.478
1255.001	710.252	80.002	19.994	103.119	20.042	0.860	0.492
1255.500	710.511	80.003	19.996	103.119	20.041	0.929	0.509
1256.000	710.752	80.001	19.995	103.122	20.039	1.090	0.508
1256.500	710.996	80.001	19.994	103.122	20.045	0.699	0.492
1257.000	711.266	80.003	19.995	103.122	20.042	0.906	0.500
1257.500	711.510	80.004	19.995	103.122	20.041	0.934	0.514
1258.000	711.742	80.003	19.995	103.119	20.041	0.977	0.495
1258.500	712.029	80.003	19.995	103.116	20.040	1.013	0.497
1259.000	712.235	80.003	19.995	103.116	20.045	0.653	0.506
1259.500	712.505	80.003	19.995	103.115	20.040	1.024	0.484
1260.001	712.738	80.003	19.994	103.115	20.043	0.839	0.489
1260.501	713.022	80.003	19.995	103.115	20.043	0.810	0.510
1261.000	713.282	80.004	19.997	103.115	20.040	1.003	0.531
1261.500	713.511	80.003	19.996	103.115	20.042	0.898	0.517
1262.000	713.769	80.003	19.996	103.115	20.044	0.758	0.488
1262.500	714.012	80.003	19.996	103.115	20.042	0.910	0.494
1263.001	714.266	80.002	19.995	103.115	20.042	0.883	0.498
1263.501	714.498	80.002	19.996	103.115	20.043	0.844	0.491
1264.001	714.761	80.002	19.995	103.110	20.041	0.954	0.491
1264.500	715.034	80.002	19.995	103.103	20.042	0.902	0.516
1265.000	715.292	80.002	19.995	103.102	20.041	0.980	0.533
1265.501	715.521	80.003	19.995	103.102	20.042	0.902	0.509
1266.001	715.783	80.003	19.996	103.101	20.042	0.873	0.488
1266.500	716.041	80.004	19.996	103.106	20.042	0.900	0.505
1267.000	716.295	80.002	19.996	103.114	20.044	0.774	0.516
1267.500	716.510	80.002	19.996	103.115	20.043	0.814	0.491
1268.000	716.802	80.003	19.996	103.114	20.044	0.753	0.488
1268.500	717.053	80.002	19.996	103.115	20.041	0.952	0.525
1269.000	717.292	80.003	19.996	103.115	20.044	0.776	0.516
1269.501	717.553	80.003	19.995	103.116	20.044	0.733	0.495
1270.001	717.785	80.003	19.995	103.116	20.043	0.804	0.497
1270.501	718.061	80.002	19.995	103.116	20.043	0.827	0.501
1271.000	718.305	80.002	19.995	103.117	20.043	0.827	0.513
1271.500	718.543	80.002	19.997	103.117	20.045	0.666	0.501
1272.000	718.812	80.002	19.996	103.116	20.044	0.731	0.495
1272.500	719.047	80.002	19.995	103.115	20.043	0.837	0.506
1273.000	719.288	80.003	19.996	103.116	20.041	0.956	0.490
1273.500	719.563	80.002	19.995	103.116	20.040	1.017	0.496
1274.000	719.799	80.003	19.995	103.116	20.040	1.053	0.514
1274.500	720.036	80.001	19.994	103.116	20.041	0.959	0.492
1275.001	720.268	80.003	19.995	103.116	20.038	1.151	0.471
1275.501	720.561	80.002	19.995	103.116	20.042	0.854	0.497
1276.000	720.829	80.003	19.994	103.116	20.041	0.969	0.543
1276.500	721.072	80.002	19.996	103.116	20.042	0.852	0.536
1277.001	721.302	80.003	19.995	103.117	20.042	0.862	0.492
1277.501	721.567	80.003	19.995	103.116	20.042	0.892	0.484
1278.000	721.792	80.002	19.994	103.116	20.042	0.892	0.493
1278.500	722.057	80.004	19.995	103.116	20.040	1.036	0.490
1279.000	722.286	80.003	19.995	103.115	20.042	0.906	0.492
1279.500	722.563	80.004	19.995	103.114	20.045	0.705	0.500
1280.000	722.798	80.003	19.995	103.114	20.039	1.074	0.509
1280.500	723.059	80.002	19.995	103.116	20.045	0.682	0.504
1281.000	723.340	80.003	19.995	103.116	20.041	0.948	0.519
1281.500	723.556	80.001	19.996	103.116	20.041	0.959	0.519
1282.000	723.816	80.004	19.995	103.116	20.040	1.000	0.487
1282.501	724.039	80.002	19.996	103.116	20.041	0.980	0.480
1283.001	724.295	80.003	19.994	103.114	20.041	0.944	0.481
1283.500	724.558	80.004	19.996	103.114	20.040	1.055	0.499
1284.000	724.819	80.004	19.995	103.114	20.042	0.906	0.522
1284.500	725.065	80.003	19.995	103.113	20.041	0.973	0.516
1285.000	725.328	80.003	19.995	103.113	20.041	0.938	0.508
1285.500	725.608	80.003	19.995	103.112	20.039	1.061	0.526
1286.000	725.822	80.004	19.996	103.112	20.042	0.883	0.519
1286.501	726.052	80.004	19.995	103.112	20.039	1.115	0.470
1287.001	726.307	80.005	19.995	103.113	20.039	1.080	0.465
1287.500	726.532	80.003	19.995	103.116	20.039	1.076	0.482
1288.000	726.819	80.003	19.995	103.117	20.044	0.754	0.496
1288.500	727.085	80.003	19.995	103.119	20.043	0.816	0.533
1289.000	727.333	80.005	19.996	103.118	20.041	0.955	0.533
1289.500	727.561	80.003	19.995	103.118	20.042	0.913	0.495
1290.000	727.837	80.003	19.996	103.115	20.041	0.952	0.490
1290.500	728.124	80.004	19.995	103.116	20.041	0.925	0.534
1291.000	728.329	80.004	19.996	103.114	20.037	1.237	0.528
1291.500	728.566	80.004	19.995	103.114	20.040	1.042	0.467
1292.000	728.856	80.004	19.995	103.113	20.039	1.113	0.484
1292.500	729.115	80.004	19.996	103.114	20.039	1.076	0.538
1293.000	729.342	80.005	19.996	103.113	20.044	0.774	0.518
1293.500	729.598	80.003	19.996	103.113	20.040	1.036	0.485
1294.000	729.854	80.005	19.997	103.113	20.041	0.957	0.497
1294.501	730.118	80.003	19.995	103.113	20.037	1.220	0.516
1295.001	730.385	80.004	19.996	103.113	20.040	0.994	0.526
1295.500	730.621	80.004	19.995	103.114	20.040	1.036	0.517
1296.000	730.850	80.004	19.996	103.119	20.038	1.157	0.484
1296.500	731.119	80.005	19.996	103.124	20.042	0.869	0.481
1297.000	731.377	80.004	19.996	103.128	20.038	1.162	0.512
1297.500	731.612	80.005	19.997	103.128	20.038	1.134	0.510
1298.000	731.859	80.002	19.996	103.127	20.041	0.963	0.488
1298.500	732.092	80.004	19.997	103.122	20.041	0.961	0.481
1299.000	732.341	80.005	19.996	103.117	20.042	0.881	0.481
1299.500	732.605	80.005	19.995	103.112	20.043	0.798	0.498
1300.000	732.894	80.005	19.995	103.112	20.044	0.745	0.533
1300.500	733.104	80.004	19.995	103.112	20.041	0.956	0.526
1301.000	733.410	80.005	19.995	103.112	20.043	0.795	0.507
1301.500	733.583	80.004	19.996	103.112	20.041	0.952	0.497
1302.000	733.877	80.004	19.996	103.111	20.043	0.837	0.473
1302.500	734.151	80.005	19.996	103.111	20.043	0.802	0.518
1303.000	734.380	80.004	19.996	103.113	20.041	0.948	0.535
1303.500	734.615	80.004	19.995	103.114	20.042	0.887	0.483
1304.000	734.877	80.003	19.995	103.115	20.040	1.017	0.481
1304.500	735.097	80.004	19.994	103.115	20.037	1.216	0.489
1305.000	735.351	80.005	19.995	103.116	20.041	0.973	0.478
1305.500	735.615	80.004	19.996	103.113	20.042	0.885	0.496
1306.000	735.866	80.003	19.995	103.111	20.040	0.994	0.516
1306.500	736.108	80.005	19.995	103.110	20.039	1.097	0.504
1307.000	736.328	80.003	19.996	103.110	20.040	1.017	0.477
1307.500	736.607	80.004	19.995	103.110	20.039	1.088	0.480
1308.000	736.864	80.005	19.995	103.111	20.039	1.086	0.518
1308.500	737.061	80.005	19.995	103.112	20.041	0.957	0.495
1309.000	737.371	80.005	19.996	103.112	20.040	1.005	0.480
1309.500	737.617	80.006	19.996	103.113	20.042	0.850	0.532
1310.000	737.842	80.005	19.994	103.113	20.040	1.032	0.514
1310.500	738.117	80.004	19.996	103.113	20.041	0.948	0.486
1311.001	738.357	80.005	19.996	103.115	20.043	0.831	0.508
1311.501	738.618	80.005	19.996	103.114	20.043	0.804	0.508
1312.000	738.901	80.005	19.995	103.117	20.040	1.011	0.523
1312.500	739.146	80.004	19.995	103.120	20.041	0.952	0.536
1313.000	739.420	80.004	19.995	103.122	20.040	1.017	0.523
1313.500	739.613	80.006	19.995	103.121	20.038	1.197	0.493
1314.000	739.925	80.004	19.994	103.121	20.042	0.904	0.486
1314.500	740.144	80.004	19.995	103.118	20.042	0.877	0.518
1315.000	740.410	80.004	19.995	103.117	20.043	0.795	0.508
1315.500	740.663	80.005	19.994	103.114	20.039	1.066	0.502
1316.000	740.904	80.004	19.995	103.114	20.041	0.929	0.506
1316.500	741.177	80.005	19.996	103.117	20.039	1.066	0.503
1317.000	741.437	80.005	19.996	103.116	20.036	1.291	0.524
1317.500	741.696	80.006	19.996	103.116	20.042	0.902	0.526
1318.000	741.932	80.005	19.995	103.116	20.038	1.153	0.507
1318.500	742.138	80.005	19.994	103.114	20.039	1.065	0.469
1319.000	742.426	80.004	19.996	103.112	20.041	0.948	0.468
1319.501	742.696	80.007	19.995	103.113	20.041	0.980	0.526
1320.001	742.952	80.005	19.995	103.113	20.040	0.992	0.542
1320.500	743.218	80.005	19.996	103.114	20.039	1.093	0.524
1321.000	743.449	80.005	19.996	103.115	20.038	1.170	0.509
1321.500	743.667	80.005	19.996	103.116	20.038	1.170	0.473
