Sample ID:	C:\MCC\MCC Cal\Test\Laminate_Flooring_MCC_30K_min_211105_R1.txt
Sample Weight (mg):	4.61
Heating Rate (C/s):	0.5
Combustor Temp (C):	900
N2 Flow Rate (cc/min):	80
O2 Flow Rate (cc/min):	20
Calibration File:	C:\MCC\MCC Cal\Coeff1 JN10440_30_210304.txt.txt
T Correction Coefficients:	0	1.024463	0
Time Shift (s):	14
*
Time (s)	Temperature (C)	N2 flow rate (cc/min)	O2 flow rate (cc/min)	Flow Rate (cc/min)	Oxygen (%)	HRR (W/g)	Heating rate (C/s)
0.000	107.448	80.002	19.994	102.999	20.004	-0.020	0.010
0.500	107.455	80.003	19.994	102.997	20.003	-0.007	-0.001
1.000	107.447	80.004	19.995	102.993	20.002	0.104	-0.008
1.500	107.451	80.004	19.994	102.992	20.000	0.222	-0.003
2.000	107.429	80.003	19.995	102.991	20.000	0.237	-0.011
2.500	107.418	80.003	19.994	102.997	20.000	0.198	-0.025
3.000	107.400	80.002	19.994	103.001	20.005	-0.122	-0.031
3.500	107.418	80.002	19.995	103.007	20.003	0.007	-0.015
4.000	107.417	80.002	19.994	103.011	20.004	-0.074	0.008
4.500	107.421	80.006	19.994	103.013	20.004	-0.046	0.010
5.000	107.440	80.004	19.996	103.014	20.005	-0.106	0.013
5.500	107.436	80.004	19.996	103.015	19.999	0.320	0.019
6.000	107.451	80.002	19.994	103.017	20.007	-0.228	0.013
6.500	107.381	80.005	19.995	103.019	20.006	-0.185	-0.022
7.000	107.412	80.003	19.995	103.021	20.002	0.117	-0.048
7.500	107.430	80.004	19.995	103.021	20.003	-0.011	0.005
8.000	107.396	80.003	19.995	103.021	20.001	0.146	0.017
8.500	107.404	80.001	19.995	103.020	20.003	0.035	-0.020
9.000	107.410	80.001	19.995	103.018	20.003	0.044	-0.006
9.500	107.419	80.002	19.995	103.019	20.004	-0.057	0.014
10.001	107.404	80.001	19.997	103.021	20.000	0.217	0.004
10.501	107.453	80.003	19.997	103.028	19.999	0.278	0.014
11.000	107.436	80.003	19.996	103.032	19.999	0.289	0.033
11.500	107.443	80.002	19.996	103.038	20.001	0.182	0.011
12.000	107.454	80.004	19.995	103.042	19.998	0.356	0.004
12.500	107.443	80.003	19.996	103.046	19.998	0.387	0.009
13.000	107.433	80.003	19.996	103.044	19.997	0.465	-0.010
13.500	107.445	80.001	19.996	103.041	19.993	0.730	-0.010
14.000	107.455	80.003	19.994	103.035	19.996	0.539	0.012
14.500	107.477	80.002	19.996	103.032	19.998	0.369	0.027
15.000	107.456	80.003	19.995	103.031	19.994	0.641	0.016
15.500	107.484	80.003	19.994	103.033	19.996	0.484	0.004
16.000	107.509	80.003	19.996	103.041	19.994	0.634	0.030
16.500	107.514	80.002	19.995	103.049	19.997	0.458	0.042
17.000	107.514	80.003	19.995	103.055	19.991	0.826	0.017
17.500	107.557	80.003	19.996	103.058	19.994	0.611	0.024
18.000	107.540	80.003	19.995	103.060	19.992	0.813	0.035
18.500	107.590	80.005	19.995	103.059	19.992	0.786	0.029
19.000	107.525	80.004	19.995	103.060	19.991	0.854	0.009
19.500	107.569	80.002	19.995	103.061	19.989	1.003	-0.018
20.000	107.602	80.006	19.994	103.061	19.986	1.186	0.029
20.500	107.607	80.003	19.994	103.060	19.987	1.149	0.058
21.000	107.618	80.004	19.995	103.066	19.987	1.116	0.027
21.500	107.614	80.003	19.995	103.073	19.986	1.229	0.011
22.000	107.659	80.004	19.995	103.084	19.982	1.488	0.024
22.500	107.714	80.003	19.994	103.099	19.983	1.429	0.071
23.000	107.727	80.004	19.994	103.114	19.983	1.383	0.084
23.500	107.721	80.002	19.995	103.125	19.983	1.388	0.037
24.000	107.753	80.004	19.993	103.133	19.980	1.624	0.016
24.500	107.755	80.003	19.994	103.136	19.981	1.587	0.030
25.000	107.801	80.002	19.994	103.137	19.977	1.807	0.041
25.500	107.799	80.006	19.995	103.136	19.978	1.730	0.046
26.000	107.838	80.006	19.994	103.132	19.982	1.468	0.041
26.500	107.863	80.000	19.994	103.130	19.981	1.537	0.050
27.000	107.868	80.000	19.995	103.129	19.979	1.704	0.047
27.500	107.931	80.002	19.994	103.126	19.979	1.667	0.049
28.000	107.928	80.002	19.994	103.122	19.976	1.893	0.064
28.500	107.969	80.004	19.994	103.126	19.977	1.824	0.049
29.000	107.972	80.003	19.995	103.126	19.978	1.778	0.041
29.500	108.055	80.004	19.993	103.128	19.974	2.075	0.065
30.001	108.056	80.001	19.994	103.134	19.975	1.941	0.085
30.501	108.127	80.004	19.994	103.141	19.976	1.911	0.078
31.001	108.142	80.003	19.994	103.143	19.976	1.900	0.079
31.500	108.155	80.004	19.994	103.147	19.974	2.013	0.057
32.000	108.206	80.002	19.993	103.149	19.976	1.893	0.046
32.500	108.293	80.001	19.995	103.153	19.976	1.906	0.101
33.000	108.332	80.003	19.994	103.153	19.975	1.973	0.132
33.500	108.385	80.001	19.994	103.153	19.972	2.169	0.110
34.000	108.415	80.004	19.995	103.158	19.968	2.430	0.088
34.500	108.506	80.001	19.994	103.164	19.975	2.000	0.102
35.000	108.523	80.001	19.993	103.164	19.969	2.369	0.114
35.500	108.578	80.002	19.995	103.171	19.973	2.104	0.090
36.000	108.606	80.003	19.994	103.178	19.969	2.364	0.077
36.500	108.661	80.002	19.995	103.178	19.969	2.377	0.083
37.000	108.740	80.003	19.994	103.179	19.969	2.375	0.109
37.500	108.807	80.004	19.994	103.179	19.969	2.364	0.139
38.000	108.833	80.003	19.996	103.180	19.969	2.368	0.119
38.500	108.895	80.002	19.994	103.179	19.967	2.551	0.091
39.000	108.974	80.001	19.995	103.180	19.966	2.603	0.115
39.500	109.052	80.003	19.995	103.181	19.967	2.524	0.149
40.000	109.173	80.006	19.993	103.184	19.966	2.607	0.178
40.500	109.191	80.004	19.994	103.185	19.968	2.470	0.169
41.000	109.253	80.005	19.994	103.186	19.968	2.435	0.110
41.500	109.335	80.003	19.994	103.186	19.965	2.652	0.112
42.000	109.413	80.004	19.994	103.186	19.967	2.548	0.152
42.500	109.477	80.002	19.994	103.183	19.965	2.657	0.151
43.000	109.548	80.007	19.995	103.182	19.964	2.774	0.138
43.500	109.607	80.003	19.994	103.182	19.965	2.672	0.133
44.000	109.717	80.007	19.994	103.182	19.965	2.693	0.149
44.500	109.807	80.005	19.994	103.181	19.963	2.822	0.184
45.000	109.895	80.004	19.994	103.182	19.964	2.771	0.189
45.500	109.974	80.003	19.994	103.184	19.961	2.971	0.173
46.000	110.059	80.003	19.994	103.190	19.962	2.867	0.166
46.500	110.157	80.005	19.994	103.197	19.962	2.869	0.173
47.000	110.201	80.004	19.995	103.199	19.960	3.006	0.162
47.501	110.282	80.005	19.993	103.204	19.965	2.663	0.133
48.001	110.346	80.004	19.994	103.206	19.960	3.000	0.135
48.500	110.451	80.008	19.994	103.206	19.960	3.010	0.157
49.000	110.564	80.002	19.994	103.201	19.962	2.873	0.194
49.501	110.701	80.004	19.994	103.201	19.962	2.884	0.234
50.001	110.752	80.002	19.994	103.203	19.963	2.808	0.219
50.500	110.865	80.004	19.994	103.207	19.961	2.967	0.176
51.000	110.960	80.006	19.994	103.208	19.960	3.049	0.186
51.500	111.044	80.003	19.994	103.212	19.963	2.830	0.194
52.000	111.148	80.003	19.994	103.215	19.960	3.051	0.184
52.501	111.264	80.007	19.995	103.215	19.959	3.117	0.204
53.001	111.335	80.007	19.995	103.212	19.960	2.993	0.203
53.500	111.450	80.002	19.994	103.211	19.961	2.971	0.186
54.000	111.539	80.007	19.993	103.210	19.960	3.015	0.195
54.500	111.668	80.005	19.994	103.211	19.961	2.982	0.211
55.000	111.747	80.003	19.994	103.211	19.959	3.097	0.213
55.500	111.857	80.003	19.993	103.213	19.956	3.290	0.198
56.000	111.973	80.004	19.994	103.213	19.962	2.878	0.207
56.500	112.068	80.003	19.993	103.214	19.958	3.156	0.218
57.000	112.208	80.003	19.994	103.214	19.961	2.950	0.223
57.500	112.317	80.007	19.993	103.214	19.959	3.058	0.242
58.000	112.403	80.004	19.995	103.214	19.963	2.798	0.222
58.500	112.519	80.002	19.994	103.214	19.960	3.056	0.199
59.000	112.661	80.002	19.993	103.214	19.958	3.140	0.230
59.500	112.758	80.004	19.993	103.214	19.962	2.910	0.248
60.000	112.881	80.003	19.993	103.215	19.959	3.082	0.229
60.500	112.987	80.004	19.994	103.214	19.959	3.069	0.224
61.000	113.121	80.006	19.994	103.215	19.960	3.030	0.235
61.500	113.264	80.005	19.994	103.215	19.962	2.867	0.259
62.000	113.389	80.003	19.993	103.215	19.961	2.936	0.273
62.501	113.479	80.005	19.994	103.214	19.961	2.986	0.242
63.001	113.577	80.001	19.995	103.215	19.961	2.952	0.202
63.500	113.737	80.004	19.994	103.214	19.960	2.997	0.223
64.000	113.826	80.001	19.994	103.214	19.958	3.138	0.253
64.500	113.994	80.008	19.994	103.214	19.961	2.969	0.253
65.000	114.128	80.004	19.993	103.215	19.959	3.088	0.280
65.500	114.250	80.009	19.994	103.216	19.959	3.077	0.279
66.000	114.384	80.006	19.995	103.217	19.960	3.016	0.256
66.500	114.522	80.004	19.994	103.218	19.961	2.965	0.264
67.000	114.668	80.006	19.996	103.219	19.960	3.043	0.278
67.500	114.764	80.006	19.994	103.218	19.960	3.034	0.263
68.000	114.934	80.007	19.995	103.216	19.958	3.140	0.254
68.500	115.020	80.009	19.994	103.216	19.958	3.156	0.261
69.000	115.138	80.007	19.994	103.216	19.958	3.190	0.230
69.500	115.325	80.007	19.994	103.215	19.960	2.999	0.255
70.000	115.436	80.007	19.994	103.216	19.959	3.108	0.302
70.501	115.592	80.005	19.995	103.215	19.958	3.147	0.282
71.001	115.731	80.002	19.996	103.215	19.955	3.348	0.280
71.500	115.862	80.005	19.994	103.214	19.957	3.227	0.282
72.000	115.998	80.006	19.995	103.215	19.956	3.296	0.269
72.500	116.179	80.004	19.994	103.215	19.954	3.439	0.292
73.000	116.323	80.006	19.994	103.215	19.954	3.421	0.321
73.500	116.460	80.005	19.995	103.215	19.954	3.411	0.303
74.001	116.585	80.005	19.995	103.215	19.957	3.231	0.272
74.501	116.731	80.006	19.995	103.216	19.953	3.506	0.267
75.000	116.880	80.003	19.995	103.219	19.954	3.415	0.283
75.500	117.050	80.005	19.994	103.218	19.951	3.617	0.307
76.000	117.183	80.005	19.995	103.218	19.954	3.465	0.311
76.500	117.345	80.004	19.994	103.220	19.954	3.463	0.299
77.000	117.515	80.005	19.994	103.222	19.953	3.495	0.314
77.500	117.637	80.003	19.995	103.222	19.952	3.564	0.312
78.000	117.789	80.004	19.995	103.222	19.950	3.701	0.283
78.500	117.933	80.004	19.994	103.223	19.954	3.447	0.285
79.000	118.078	80.003	19.995	103.222	19.953	3.490	0.293
79.500	118.225	80.003	19.996	103.218	19.954	3.466	0.291
80.000	118.368	80.004	19.995	103.215	19.955	3.369	0.291
80.501	118.517	80.002	19.995	103.216	19.951	3.686	0.291
81.001	118.693	80.002	19.996	103.216	19.952	3.564	0.309
81.500	118.846	80.005	19.994	103.219	19.951	3.642	0.327
82.000	119.006	80.001	19.994	103.224	19.951	3.653	0.320
82.500	119.164	80.006	19.995	103.228	19.952	3.616	0.315
83.000	119.306	80.003	19.995	103.233	19.955	3.362	0.310
83.500	119.440	80.005	19.994	103.238	19.951	3.658	0.288
84.000	119.611	80.004	19.993	103.243	19.955	3.399	0.290
84.500	119.789	80.001	19.994	103.244	19.953	3.490	0.327
85.000	119.908	80.004	19.994	103.245	19.951	3.640	0.323
85.500	120.092	80.006	19.995	103.248	19.955	3.347	0.300
86.001	120.271	80.003	19.994	103.247	19.950	3.718	0.333
86.501	120.419	80.004	19.995	103.247	19.951	3.634	0.345
87.000	120.590	80.001	19.994	103.249	19.954	3.458	0.323
87.500	120.747	80.002	19.995	103.251	19.953	3.493	0.323
88.000	120.917	80.001	19.996	103.252	19.952	3.582	0.327
88.500	121.081	80.001	19.993	103.255	19.952	3.579	0.330
89.000	121.231	80.004	19.993	103.256	19.952	3.606	0.324
89.500	121.400	80.002	19.994	103.255	19.949	3.764	0.317
90.000	121.595	80.006	19.994	103.256	19.950	3.708	0.341
90.501	121.738	80.001	19.994	103.256	19.952	3.556	0.350
91.001	121.916	80.003	19.995	103.255	19.950	3.701	0.329
91.500	122.075	80.001	19.994	103.255	19.947	3.909	0.329
92.000	122.234	80.001	19.995	103.254	19.949	3.783	0.328
92.500	122.459	80.003	19.993	103.255	19.950	3.738	0.351
93.000	122.627	80.002	19.994	103.255	19.949	3.814	0.389
93.500	122.787	80.002	19.995	103.256	19.950	3.753	0.361
94.001	122.977	80.003	19.994	103.256	19.949	3.807	0.339
94.501	123.169	80.004	19.995	103.257	19.950	3.749	0.366
95.000	123.369	80.002	19.994	103.256	19.946	3.992	0.386
95.500	123.522	80.003	19.995	103.256	19.948	3.831	0.372
96.000	123.706	80.004	19.996	103.257	19.948	3.861	0.346
96.500	123.880	80.001	19.996	103.257	19.949	3.803	0.348
97.000	124.084	80.004	19.995	103.257	19.948	3.831	0.368
97.500	124.255	79.999	19.996	103.254	19.949	3.774	0.376
98.000	124.429	80.003	19.995	103.254	19.951	3.653	0.360
98.500	124.634	79.999	19.997	103.253	19.950	3.744	0.362
99.000	124.833	80.000	19.996	103.253	19.948	3.870	0.391
99.500	124.965	80.005	19.995	103.252	19.951	3.670	0.368
100.000	125.187	80.001	19.994	103.254	19.948	3.840	0.343
100.501	125.371	80.002	19.995	103.254	19.947	3.901	0.380
101.002	125.574	80.005	19.994	103.255	19.951	3.640	0.396
101.501	125.746	80.003	19.995	103.256	19.949	3.770	0.381
102.000	125.961	80.002	19.996	103.257	19.947	3.952	0.381
102.500	126.134	80.003	19.995	103.257	19.941	4.352	0.388
103.000	126.339	80.001	19.996	103.257	19.950	3.755	0.383
103.500	126.517	80.000	19.995	103.257	19.949	3.786	0.381
104.000	126.700	80.002	19.995	103.256	19.948	3.861	0.372
104.500	126.919	80.002	19.995	103.257	19.948	3.846	0.381
105.000	127.121	80.000	19.995	103.257	19.948	3.829	0.411
105.500	127.286	80.000	19.995	103.257	19.949	3.796	0.394
106.000	127.490	80.001	19.995	103.257	19.950	3.703	0.368
106.500	127.677	80.001	19.995	103.261	19.946	4.016	0.380
107.000	127.897	79.999	19.995	103.262	19.946	4.011	0.399
107.500	128.069	80.001	19.996	103.262	19.946	3.989	0.399
108.000	128.249	80.000	19.994	103.263	19.946	3.981	0.372
108.500	128.468	80.001	19.996	103.263	19.942	4.249	0.375
109.000	128.680	80.005	19.996	103.260	19.949	3.814	0.415
109.500	128.864	80.000	19.996	103.259	19.949	3.801	0.414
110.000	129.097	80.001	19.995	103.258	19.949	3.807	0.407
110.500	129.272	80.003	19.996	103.256	19.945	4.089	0.412
111.000	129.454	80.001	19.995	103.255	19.947	3.905	0.382
111.501	129.680	80.004	19.995	103.254	19.948	3.883	0.382
112.001	129.873	80.004	19.995	103.254	19.945	4.048	0.413
112.500	130.109	80.003	19.994	103.255	19.948	3.892	0.425
113.000	130.285	80.004	19.996	103.257	19.945	4.069	0.421
113.500	130.493	80.002	19.994	103.257	19.947	3.918	0.398
114.001	130.711	80.002	19.995	103.257	19.947	3.950	0.405
114.501	130.937	80.003	19.994	103.256	19.947	3.928	0.435
115.000	131.112	80.003	19.994	103.255	19.947	3.956	0.422
115.500	131.299	80.001	19.995	103.256	19.946	3.974	0.382
116.001	131.519	80.000	19.995	103.254	19.945	4.043	0.385
116.501	131.702	80.000	19.995	103.253	19.945	4.081	0.405
117.000	131.942	80.004	19.994	103.252	19.943	4.176	0.413
117.500	132.150	80.008	19.995	103.253	19.946	4.031	0.435
118.000	132.358	80.004	19.995	103.253	19.945	4.083	0.432
118.500	132.564	80.004	19.995	103.256	19.944	4.148	0.415
119.001	132.779	80.004	19.995	103.258	19.943	4.189	0.417
119.501	132.965	80.004	19.994	103.261	19.948	3.870	0.411
120.001	133.174	80.005	19.994	103.261	19.946	3.978	0.398
120.501	133.392	80.003	19.993	103.261	19.946	3.994	0.410
121.000	133.585	80.003	19.994	103.262	19.949	3.794	0.419
121.500	133.841	80.003	19.994	103.261	19.946	4.022	0.430
122.000	134.039	80.005	19.993	103.259	19.947	3.957	0.451
122.500	134.259	80.006	19.996	103.258	19.946	3.968	0.436
123.001	134.449	80.008	19.995	103.260	19.946	4.020	0.414
123.501	134.681	80.007	19.994	103.261	19.945	4.083	0.416
124.000	134.898	80.002	19.997	103.262	19.945	4.039	0.436
124.500	135.101	80.006	19.995	103.264	19.948	3.876	0.435
125.000	135.306	80.008	19.995	103.270	19.947	3.927	0.414
125.501	135.571	80.004	19.995	103.271	19.949	3.818	0.439
126.001	135.786	80.007	19.994	103.268	19.948	3.874	0.475
126.501	136.011	80.007	19.994	103.267	19.948	3.840	0.460
127.000	136.222	80.003	19.994	103.264	19.948	3.835	0.438
127.500	136.429	80.005	19.995	103.257	19.950	3.727	0.427
128.000	136.658	80.004	19.995	103.253	19.947	3.902	0.427
128.500	136.900	80.002	19.994	103.256	19.949	3.820	0.453
129.000	137.127	80.004	19.995	103.256	19.948	3.883	0.470
129.500	137.294	80.004	19.994	103.257	19.947	3.911	0.432
130.000	137.553	80.003	19.995	103.259	19.946	4.000	0.410
130.500	137.753	80.004	19.995	103.263	19.945	4.095	0.442
131.000	137.982	80.000	19.993	103.260	19.948	3.856	0.444
131.500	138.198	80.004	19.994	103.262	19.946	4.013	0.437
132.000	138.455	80.005	19.994	103.265	19.945	4.085	0.460
132.500	138.624	80.005	19.994	103.264	19.946	4.022	0.449
133.000	138.890	80.004	19.995	103.260	19.946	3.985	0.430
133.500	139.103	80.005	19.994	103.259	19.946	4.035	0.457
134.000	139.335	80.003	19.994	103.257	19.948	3.870	0.462
134.500	139.589	79.999	19.995	103.255	19.946	3.998	0.465
135.000	139.798	80.008	19.995	103.254	19.947	3.907	0.475
135.500	140.039	80.004	19.995	103.256	19.944	4.161	0.456
136.000	140.274	80.003	19.996	103.257	19.944	4.134	0.463
136.500	140.496	80.003	19.994	103.257	19.947	3.952	0.467
137.000	140.721	80.002	19.995	103.257	19.944	4.128	0.452
137.500	140.947	80.004	19.994	103.256	19.944	4.156	0.449
138.000	141.153	80.004	19.995	103.255	19.945	4.038	0.442
138.500	141.408	80.002	19.994	103.256	19.944	4.126	0.447
139.000	141.610	80.005	19.996	103.257	19.942	4.277	0.459
139.500	141.854	80.007	19.994	103.259	19.940	4.399	0.451
140.000	142.097	80.005	19.995	103.266	19.944	4.167	0.466
140.500	142.358	80.001	19.994	103.269	19.946	4.013	0.495
141.000	142.545	80.003	19.994	103.271	19.941	4.358	0.476
141.500	142.790	80.005	19.994	103.270	19.944	4.163	0.440
142.000	143.037	80.006	19.995	103.268	19.943	4.184	0.462
142.500	143.263	80.005	19.995	103.261	19.944	4.132	0.483
143.000	143.508	80.006	19.995	103.260	19.943	4.212	0.472
143.500	143.748	80.004	19.995	103.257	19.946	3.984	0.478
144.000	143.958	80.007	19.994	103.261	19.947	3.941	0.468
144.500	144.185	80.004	19.995	103.262	19.947	3.934	0.443
145.000	144.449	80.007	19.994	103.262	19.944	4.113	0.464
145.500	144.660	80.006	19.993	103.260	19.947	3.959	0.483
146.000	144.934	80.005	19.993	103.258	19.944	4.127	0.480
146.500	145.157	80.004	19.994	103.256	19.943	4.199	0.492
147.000	145.420	80.005	19.993	103.260	19.945	4.039	0.492
147.500	145.633	80.000	19.993	103.264	19.946	4.013	0.481
148.000	145.848	80.012	19.993	103.269	19.946	3.974	0.452
148.500	146.096	80.006	19.994	103.273	19.944	4.175	0.445
149.000	146.368	80.005	19.993	103.272	19.947	3.904	0.491
149.500	146.562	80.005	19.993	103.269	19.944	4.138	0.493
150.000	146.820	80.006	19.993	103.267	19.944	4.145	0.459
150.500	147.022	80.007	19.995	103.266	19.945	4.095	0.456
151.000	147.302	80.009	19.992	103.264	19.944	4.154	0.471
151.500	147.482	80.006	19.993	103.264	19.944	4.113	0.471
152.000	147.741	80.003	19.994	103.262	19.945	4.061	0.450
152.500	148.006	80.006	19.993	103.262	19.947	3.961	0.482
153.000	148.214	80.006	19.993	103.264	19.945	4.056	0.498
153.500	148.468	80.002	19.994	103.267	19.944	4.119	0.467
154.000	148.706	80.005	19.994	103.269	19.947	3.937	0.477
154.500	148.924	80.004	19.993	103.269	19.943	4.200	0.474
155.000	149.229	80.005	19.994	103.271	19.946	4.020	0.490
155.500	149.462	80.005	19.993	103.269	19.944	4.174	0.531
156.000	149.723	80.003	19.994	103.267	19.946	4.035	0.515
156.500	149.946	80.004	19.993	103.267	19.944	4.159	0.489
157.000	150.202	80.003	19.994	103.270	19.943	4.228	0.482
157.500	150.460	80.001	19.993	103.269	19.943	4.215	0.496
158.001	150.693	80.004	19.993	103.268	19.943	4.187	0.502
158.501	150.932	80.002	19.994	103.270	19.944	4.107	0.482
159.000	151.144	80.003	19.994	103.273	19.944	4.113	0.462
159.500	151.385	80.004	19.994	103.276	19.943	4.226	0.452
160.000	151.654	80.005	19.993	103.275	19.945	4.063	0.482
160.500	151.893	80.001	19.994	103.274	19.942	4.278	0.509
161.000	152.149	80.001	19.994	103.272	19.941	4.339	0.501
161.500	152.425	80.002	19.994	103.267	19.944	4.159	0.514
162.000	152.646	80.001	19.994	103.261	19.943	4.180	0.514
162.500	152.891	80.003	19.994	103.260	19.944	4.158	0.482
163.000	153.124	80.002	19.993	103.259	19.944	4.137	0.472
163.500	153.378	80.001	19.994	103.257	19.946	3.978	0.483
164.000	153.577	80.003	19.994	103.259	19.941	4.362	0.470
164.500	153.821	80.002	19.994	103.259	19.946	3.998	0.448
165.000	154.078	80.002	19.993	103.260	19.948	3.862	0.472
165.500	154.327	80.002	19.994	103.259	19.946	4.002	0.503
166.000	154.580	80.002	19.994	103.259	19.945	4.098	0.504
166.500	154.788	80.002	19.994	103.257	19.942	4.308	0.481
167.000	155.020	80.003	19.994	103.259	19.944	4.169	0.451
167.500	155.289	80.006	19.995	103.260	19.944	4.148	0.471
168.001	155.545	80.004	19.994	103.259	19.940	4.389	0.513
168.500	155.835	79.999	19.994	103.259	19.945	4.091	0.535
169.000	156.044	80.004	19.993	103.259	19.943	4.198	0.522
169.500	156.261	80.002	19.994	103.258	19.943	4.181	0.463
170.000	156.547	80.006	19.994	103.255	19.945	4.068	0.465
170.500	156.738	80.003	19.994	103.256	19.942	4.248	0.490
171.000	156.996	80.003	19.994	103.257	19.941	4.321	0.462
171.500	157.275	80.001	19.994	103.257	19.944	4.141	0.493
172.000	157.545	80.002	19.994	103.257	19.944	4.157	0.543
172.500	157.765	80.002	19.995	103.258	19.944	4.153	0.520
173.000	158.016	80.003	19.994	103.259	19.943	4.244	0.481
173.500	158.247	80.002	19.994	103.259	19.942	4.263	0.477
174.000	158.480	80.004	19.993	103.258	19.944	4.139	0.473
174.500	158.713	80.001	19.995	103.259	19.945	4.096	0.465
175.000	158.965	80.004	19.994	103.258	19.943	4.228	0.475
175.500	159.234	80.001	19.995	103.257	19.942	4.295	0.503
176.000	159.456	80.005	19.994	103.255	19.940	4.387	0.506
176.500	159.702	80.006	19.995	103.255	19.941	4.330	0.480
177.000	159.969	80.004	19.994	103.255	19.941	4.317	0.490
177.500	160.192	80.002	19.994	103.254	19.941	4.382	0.501
178.000	160.461	80.003	19.993	103.254	19.946	3.996	0.491
178.500	160.706	80.005	19.994	103.254	19.943	4.235	0.503
179.000	160.964	80.003	19.994	103.255	19.943	4.200	0.509
179.500	161.190	80.003	19.995	103.254	19.940	4.404	0.494
180.000	161.420	80.001	19.994	103.254	19.943	4.211	0.471
180.500	161.685	80.000	19.994	103.253	19.939	4.456	0.475
181.000	161.947	80.004	19.994	103.253	19.943	4.235	0.510
181.500	162.195	80.001	19.995	103.253	19.943	4.244	0.518
182.000	162.424	80.002	19.994	103.252	19.940	4.391	0.494
182.500	162.650	80.002	19.995	103.250	19.939	4.467	0.466
183.000	162.907	80.004	19.995	103.249	19.942	4.281	0.469
183.500	163.207	80.005	19.994	103.249	19.943	4.230	0.520
184.000	163.463	80.003	19.994	103.248	19.939	4.465	0.557
184.500	163.703	80.004	19.996	103.249	19.944	4.130	0.526
185.000	163.906	80.005	19.995	103.251	19.939	4.502	0.469
185.500	164.173	80.000	19.995	103.254	19.941	4.365	0.456
186.000	164.429	79.999	19.995	103.254	19.942	4.304	0.496
186.500	164.665	80.004	19.996	103.253	19.940	4.419	0.508
187.000	164.930	80.001	19.995	103.253	19.942	4.306	0.497
187.500	165.170	80.001	19.995	103.252	19.938	4.565	0.503
188.000	165.429	80.002	19.996	103.251	19.943	4.206	0.501
188.500	165.677	80.002	19.996	103.250	19.940	4.445	0.503
189.001	165.924	80.002	19.995	103.251	19.940	4.408	0.501
189.501	166.178	80.003	19.996	103.251	19.940	4.413	0.498
190.000	166.415	80.002	19.996	103.252	19.942	4.315	0.496
190.500	166.644	80.004	19.995	103.251	19.942	4.291	0.478
191.000	166.912	80.002	19.996	103.253	19.943	4.224	0.481
191.500	167.158	80.002	19.995	103.252	19.942	4.248	0.505
192.000	167.390	80.003	19.996	103.251	19.943	4.233	0.496
192.500	167.679	80.001	19.995	103.248	19.944	4.161	0.500
193.000	167.897	80.001	19.995	103.248	19.944	4.120	0.514
193.500	168.155	80.001	19.996	103.247	19.944	4.129	0.491
194.000	168.399	80.002	19.995	103.248	19.943	4.220	0.489
194.500	168.663	80.003	19.995	103.248	19.943	4.203	0.505
195.000	168.899	80.000	19.996	103.252	19.942	4.296	0.504
195.500	169.187	79.999	19.996	103.253	19.940	4.418	0.512
196.000	169.407	80.002	19.995	103.252	19.943	4.201	0.516
196.500	169.669	80.002	19.996	103.251	19.944	4.110	0.495
197.000	169.939	80.004	19.995	103.251	19.941	4.336	0.507
197.500	170.178	80.003	19.995	103.250	19.943	4.210	0.520
198.000	170.413	80.000	19.996	103.251	19.940	4.422	0.491
198.500	170.697	80.003	19.995	103.251	19.942	4.314	0.497
199.000	170.926	80.003	19.995	103.251	19.943	4.179	0.516
199.500	171.172	80.004	19.995	103.251	19.943	4.200	0.494
200.000	171.417	80.004	19.995	103.249	19.943	4.229	0.483
200.500	171.654	80.002	19.996	103.248	19.941	4.367	0.487
201.000	171.916	80.004	19.995	103.248	19.942	4.300	0.491
201.500	172.202	80.003	19.995	103.249	19.940	4.394	0.524
202.000	172.449	80.004	19.996	103.248	19.940	4.405	0.541
202.500	172.675	80.002	19.995	103.246	19.942	4.279	0.503
203.000	172.950	80.004	19.994	103.246	19.941	4.381	0.487
203.500	173.200	80.004	19.995	103.246	19.942	4.279	0.513
204.000	173.416	80.004	19.995	103.245	19.942	4.284	0.495
204.500	173.714	80.004	19.994	103.244	19.940	4.438	0.490
205.000	173.950	80.007	19.994	103.243	19.940	4.451	0.524
205.500	174.237	80.004	19.995	103.238	19.938	4.542	0.529
206.000	174.461	80.008	19.994	103.232	19.939	4.508	0.517
206.500	174.699	80.005	19.995	103.227	19.941	4.334	0.487
207.000	174.972	80.001	19.994	103.224	19.941	4.353	0.487
207.500	175.178	80.003	19.994	103.224	19.942	4.298	0.495
208.000	175.458	80.005	19.994	103.227	19.942	4.274	0.482
208.500	175.688	80.006	19.993	103.228	19.938	4.582	0.498
209.000	175.959	80.005	19.994	103.232	19.939	4.489	0.506
209.500	176.211	80.005	19.994	103.237	19.944	4.136	0.512
210.000	176.428	80.002	19.996	103.241	19.944	4.135	0.496
210.500	176.699	80.003	19.995	103.243	19.939	4.500	0.478
211.000	176.969	80.003	19.994	103.242	19.941	4.324	0.515
211.500	177.210	80.006	19.994	103.243	19.940	4.409	0.526
212.000	177.426	80.002	19.994	103.239	19.943	4.233	0.484
212.500	177.663	80.006	19.995	103.234	19.943	4.184	0.455
213.000	177.925	80.003	19.994	103.233	19.943	4.194	0.476
213.500	178.171	80.005	19.993	103.239	19.940	4.385	0.503
214.000	178.414	80.004	19.994	103.234	19.941	4.333	0.498
214.500	178.693	80.008	19.994	103.232	19.942	4.300	0.506
215.000	178.918	79.999	19.994	103.231	19.940	4.442	0.513
215.500	179.138	79.995	19.995	103.227	19.942	4.308	0.475
216.000	179.393	80.006	19.996	103.219	19.938	4.555	0.461
216.500	179.643	80.004	19.994	103.219	19.941	4.368	0.490
217.000	179.915	80.005	19.994	103.222	19.938	4.525	0.514
217.500	180.143	80.005	19.994	103.226	19.941	4.349	0.511
218.000	180.369	80.004	19.994	103.233	19.942	4.288	0.477
218.500	180.605	80.007	19.995	103.237	19.942	4.271	0.458
219.000	180.847	80.005	19.994	103.241	19.943	4.218	0.470
219.500	181.084	80.003	19.993	103.242	19.939	4.503	0.479
220.000	181.352	80.005	19.994	103.243	19.943	4.220	0.492
220.500	181.611	80.004	19.994	103.238	19.942	4.299	0.516
221.000	181.844	80.002	19.995	103.240	19.942	4.283	0.509
221.500	182.100	80.005	19.993	103.239	19.940	4.398	0.491
222.000	182.379	80.004	19.994	103.235	19.941	4.337	0.512
222.500	182.592	80.004	19.994	103.230	19.945	4.046	0.513
223.000	182.823	80.005	19.995	103.231	19.941	4.380	0.468
223.500	183.102	80.004	19.995	103.233	19.942	4.276	0.477
224.000	183.345	80.005	19.994	103.236	19.940	4.419	0.516
224.500	183.588	80.004	19.995	103.237	19.940	4.406	0.504
225.000	183.788	80.003	19.994	103.239	19.941	4.354	0.464
225.500	184.079	80.005	19.994	103.236	19.939	4.476	0.467
226.000	184.326	80.007	19.994	103.232	19.942	4.313	0.515
226.500	184.609	80.004	19.995	103.227	19.941	4.325	0.534
227.000	184.824	80.006	19.993	103.227	19.942	4.285	0.514
227.500	185.055	80.007	19.994	103.225	19.941	4.379	0.472
228.000	185.316	80.007	19.993	103.223	19.941	4.377	0.469
228.500	185.539	80.007	19.994	103.222	19.940	4.453	0.488
229.000	185.798	79.998	19.994	103.225	19.940	4.405	0.483
229.500	186.093	79.994	19.993	103.226	19.941	4.336	0.518
230.000	186.267	80.005	19.993	103.229	19.938	4.542	0.512
230.500	186.591	80.010	19.993	103.233	19.941	4.351	0.484
231.000	186.789	80.005	19.993	103.236	19.939	4.464	0.510
231.500	187.068	80.006	19.992	103.234	19.941	4.382	0.500
232.000	187.325	80.002	19.993	103.235	19.939	4.456	0.507
232.500	187.539	80.009	19.993	103.236	19.942	4.282	0.503
233.000	187.823	80.002	19.993	103.237	19.938	4.568	0.484
233.500	188.069	80.005	19.993	103.240	19.934	4.809	0.514
234.000	188.310	80.012	19.992	103.245	19.934	4.804	0.509
234.500	188.570	80.005	19.993	103.249	19.937	4.661	0.494
235.000	188.787	80.007	19.993	103.247	19.938	4.546	0.489
235.500	189.075	79.998	19.994	103.246	19.938	4.549	0.491
236.000	189.285	79.998	19.993	103.244	19.940	4.416	0.501
236.500	189.552	80.004	19.993	103.239	19.940	4.421	0.487
237.000	189.793	80.004	19.993	103.237	19.938	4.525	0.492
237.500	190.037	80.004	19.993	103.236	19.936	4.670	0.496
238.000	190.287	80.000	19.994	103.234	19.937	4.653	0.489
238.500	190.534	80.001	19.994	103.231	19.936	4.699	0.496
239.000	190.782	80.001	19.993	103.232	19.936	4.733	0.496
239.500	191.036	80.005	19.993	103.229	19.935	4.740	0.499
240.000	191.263	80.002	19.993	103.229	19.939	4.510	0.492
240.500	191.512	80.003	19.994	103.232	19.938	4.553	0.478
241.000	191.757	80.003	19.993	103.231	19.938	4.534	0.484
241.500	192.002	79.998	19.993	103.227	19.936	4.677	0.492
242.000	192.224	79.998	19.994	103.223	19.939	4.460	0.479
242.500	192.484	80.003	19.994	103.220	19.939	4.501	0.475
243.000	192.761	79.999	19.994	103.219	19.936	4.720	0.510
243.500	192.995	79.997	19.995	103.221	19.937	4.614	0.524
244.000	193.215	80.000	19.996	103.218	19.939	4.497	0.483
244.500	193.516	80.002	19.995	103.221	19.936	4.682	0.487
245.000	193.715	80.004	19.994	103.227	19.940	4.402	0.511
245.500	193.962	80.000	19.995	103.224	19.940	4.421	0.473
246.000	194.206	80.005	19.994	103.221	19.939	4.491	0.468
246.500	194.441	80.003	19.995	103.225	19.938	4.538	0.485
247.000	194.672	80.006	19.993	103.226	19.939	4.491	0.473
247.500	194.969	80.003	19.995	103.222	19.937	4.658	0.497
248.000	195.206	80.001	19.995	103.221	19.936	4.725	0.531
248.500	195.438	79.997	19.995	103.222	19.939	4.521	0.501
249.000	195.689	80.006	19.993	103.219	19.940	4.386	0.476
249.500	195.956	80.002	19.995	103.219	19.937	4.621	0.501
250.000	196.191	80.005	19.995	103.218	19.940	4.390	0.510
250.500	196.416	80.004	19.994	103.218	19.937	4.634	0.481
251.000	196.696	80.002	19.995	103.218	19.937	4.636	0.483
251.500	196.918	80.004	19.995	103.220	19.936	4.684	0.503
252.000	197.167	80.002	19.995	103.218	19.936	4.686	0.486
252.500	197.406	80.002	19.995	103.218	19.934	4.866	0.480
253.000	197.637	80.003	19.994	103.217	19.935	4.779	0.479
253.500	197.889	80.000	19.994	103.217	19.936	4.688	0.476
254.000	198.155	80.005	19.995	103.215	19.936	4.681	0.501
254.500	198.401	80.001	19.996	103.214	19.937	4.658	0.515
255.000	198.621	80.004	19.994	103.214	19.934	4.859	0.489
255.500	198.901	80.003	19.995	103.214	19.934	4.809	0.483
256.000	199.148	80.005	19.995	103.213	19.935	4.751	0.514
256.500	199.414	80.003	19.995	103.214	19.937	4.629	0.520
257.000	199.652	80.003	19.994	103.214	19.934	4.851	0.508
257.500	199.884	80.002	19.994	103.214	19.937	4.644	0.487
258.000	200.185	80.005	19.995	103.214	19.933	4.935	0.502
258.500	200.371	80.002	19.995	103.215	19.936	4.690	0.510
259.000	200.642	80.004	19.996	103.215	19.935	4.783	0.472
259.500	200.884	80.004	19.995	103.216	19.934	4.844	0.485
260.000	201.125	80.002	19.995	103.219	19.931	5.031	0.498
260.500	201.384	80.004	19.993	103.219	19.934	4.816	0.491
261.000	201.636	80.003	19.995	103.219	19.934	4.812	0.506
261.500	201.889	80.001	19.994	103.218	19.935	4.771	0.508
262.000	202.100	80.004	19.996	103.218	19.934	4.835	0.485
262.500	202.378	80.005	19.995	103.215	19.936	4.679	0.476
263.000	202.625	80.004	19.995	103.215	19.935	4.760	0.506
263.500	202.868	80.005	19.994	103.214	19.932	4.946	0.507
264.000	203.090	80.005	19.995	103.214	19.933	4.931	0.478
264.500	203.368	79.998	19.995	103.214	19.933	4.894	0.483
265.000	203.568	80.003	19.995	103.213	19.933	4.938	0.489
265.500	203.831	80.003	19.996	103.213	19.934	4.857	0.470
266.000	204.079	80.006	19.994	103.214	19.931	5.066	0.487
266.500	204.290	79.999	19.995	103.214	19.928	5.233	0.485
267.000	204.563	80.005	19.994	103.214	19.933	4.925	0.472
267.500	204.878	80.004	19.994	103.215	19.931	5.042	0.536
268.000	205.074	80.004	19.994	103.216	19.930	5.104	0.550
268.500	205.304	80.004	19.995	103.218	19.934	4.855	0.469
269.000	205.587	80.004	19.995	103.218	19.931	5.079	0.470
269.500	205.834	80.004	19.994	103.218	19.934	4.842	0.522
270.000	206.068	80.001	19.994	103.217	19.930	5.096	0.505
270.500	206.318	80.002	19.994	103.216	19.931	5.074	0.482
271.000	206.553	80.002	19.993	103.215	19.930	5.094	0.484
271.500	206.784	80.004	19.993	103.214	19.932	4.946	0.476
272.000	207.063	80.002	19.995	103.214	19.932	5.003	0.488
272.500	207.288	80.001	19.993	103.214	19.932	4.963	0.507
273.000	207.567	80.002	19.994	103.214	19.930	5.092	0.503
273.500	207.808	80.004	19.995	103.214	19.930	5.111	0.512
274.000	208.074	80.004	19.994	103.212	19.929	5.178	0.514
274.500	208.293	80.001	19.994	103.212	19.931	5.024	0.496
275.000	208.533	80.002	19.994	103.212	19.934	4.860	0.472
275.500	208.782	80.003	19.993	103.213	19.932	4.957	0.474
276.000	209.020	80.003	19.995	103.214	19.932	4.972	0.488
276.500	209.274	80.001	19.994	103.216	19.933	4.912	0.490
277.000	209.523	79.999	19.995	103.216	19.934	4.859	0.498
277.500	209.797	80.003	19.994	103.216	19.933	4.940	0.513
278.000	209.992	80.000	19.994	103.216	19.928	5.228	0.496
278.500	210.272	80.005	19.995	103.216	19.926	5.380	0.472
279.000	210.508	79.993	19.996	103.216	19.928	5.252	0.495
279.500	210.765	80.004	19.994	103.217	19.929	5.176	0.505
280.000	211.000	80.001	19.996	103.217	19.928	5.261	0.493
280.500	211.220	80.004	19.994	103.216	19.927	5.295	0.473
281.000	211.482	80.002	19.996	103.216	19.926	5.402	0.469
281.500	211.739	80.003	19.995	103.216	19.926	5.398	0.500
282.000	211.979	80.004	19.995	103.214	19.925	5.460	0.508
282.500	212.230	80.002	19.996	103.215	19.927	5.343	0.494
283.000	212.459	80.005	19.995	103.215	19.927	5.354	0.485
283.500	212.680	80.005	19.995	103.215	19.930	5.141	0.464
284.000	212.954	80.004	19.996	103.216	19.929	5.166	0.472
284.500	213.218	80.003	19.995	103.216	19.927	5.350	0.517
285.000	213.484	80.004	19.995	103.214	19.928	5.287	0.534
285.500	213.704	80.002	19.996	103.214	19.928	5.256	0.508
286.000	213.963	80.001	19.996	103.212	19.929	5.165	0.482
286.500	214.202	80.003	19.995	103.211	19.926	5.410	0.488
287.000	214.434	80.002	19.995	103.211	19.926	5.413	0.485
287.500	214.670	80.006	19.995	103.212	19.924	5.530	0.470
288.000	214.951	80.003	19.996	103.212	19.925	5.463	0.493
288.500	215.148	80.004	19.995	103.213	19.926	5.430	0.497
289.000	215.446	80.005	19.996	103.214	19.922	5.691	0.486
289.500	215.670	80.015	19.994	103.214	19.927	5.326	0.509
290.000	215.909	80.010	19.995	103.216	19.922	5.650	0.493
290.500	216.183	80.006	19.995	103.217	19.924	5.504	0.488
291.000	216.417	80.003	19.995	103.218	19.924	5.502	0.511
291.500	216.652	80.002	19.994	103.217	19.923	5.609	0.489
292.000	216.925	80.005	19.995	103.218	19.923	5.602	0.488
292.500	217.143	80.002	19.994	103.216	19.924	5.526	0.499
293.000	217.367	80.001	19.996	103.216	19.921	5.769	0.466
293.500	217.623	80.004	19.994	103.216	19.924	5.561	0.461
294.000	217.873	80.003	19.994	103.215	19.921	5.738	0.493
294.500	218.106	80.002	19.995	103.215	19.925	5.481	0.494
295.000	218.370	79.999	19.995	103.214	19.924	5.533	0.490
295.500	218.633	80.002	19.995	103.214	19.927	5.314	0.512
296.000	218.878	80.006	19.995	103.214	19.922	5.710	0.518
296.500	219.107	80.007	19.994	103.215	19.923	5.619	0.491
297.000	219.356	80.001	19.993	103.215	19.922	5.682	0.476
297.500	219.608	80.013	19.992	103.216	19.923	5.611	0.489
298.000	219.871	79.999	19.994	103.218	19.924	5.537	0.507
298.500	220.125	80.009	19.994	103.217	19.921	5.721	0.516
299.000	220.341	80.000	19.994	103.217	19.922	5.670	0.494
299.500	220.593	80.003	19.994	103.217	19.921	5.759	0.470
300.000	220.833	80.002	19.994	103.216	19.922	5.667	0.480
300.500	221.067	80.005	19.994	103.212	19.922	5.707	0.483
301.000	221.331	80.004	19.994	103.211	19.919	5.909	0.486
301.500	221.568	80.004	19.994	103.210	19.921	5.752	0.500
302.000	221.811	80.007	19.994	103.210	19.920	5.790	0.491
302.500	222.051	80.002	19.995	103.210	19.917	6.031	0.481
303.000	222.296	80.010	19.993	103.213	19.921	5.757	0.484
303.500	222.531	80.006	19.995	103.216	19.915	6.146	0.483
304.000	222.788	80.005	19.996	103.215	19.920	5.790	0.486
304.500	223.028	80.006	19.996	103.213	19.916	6.082	0.494
305.000	223.271	80.005	19.995	103.213	19.917	6.010	0.490
305.500	223.556	80.008	19.994	103.210	19.921	5.717	0.506
306.000	223.761	80.005	19.994	103.209	19.917	6.030	0.509
306.500	224.040	80.004	19.995	103.208	19.918	5.952	0.487
307.000	224.249	80.009	19.994	103.211	19.915	6.145	0.486
307.500	224.520	80.006	19.994	103.211	19.915	6.152	0.484
308.000	224.740	80.001	19.995	103.213	19.919	5.893	0.486
308.500	225.019	80.005	19.993	103.211	19.917	6.024	0.495
309.000	225.265	80.004	19.995	103.212	19.915	6.184	0.512
309.500	225.518	80.024	19.994	103.209	19.916	6.080	0.512
310.000	225.789	80.000	19.995	103.207	19.915	6.156	0.511
310.500	225.995	80.000	19.994	103.204	19.917	6.052	0.500
311.000	226.244	80.007	19.995	103.204	19.914	6.210	0.466
311.500	226.487	79.998	19.995	103.204	19.917	6.051	0.474
312.000	226.741	80.006	19.993	103.203	19.914	6.245	0.495
312.500	226.981	80.004	19.994	103.198	19.912	6.342	0.495
313.000	227.218	80.003	19.994	103.195	19.915	6.164	0.485
313.500	227.456	80.003	19.995	103.190	19.916	6.099	0.476
314.000	227.750	80.007	19.995	103.189	19.914	6.221	0.503
314.500	227.972	80.002	19.995	103.192	19.912	6.397	0.524
315.000	228.200	80.000	19.995	103.196	19.914	6.248	0.483
315.500	228.444	80.008	19.994	103.202	19.915	6.195	0.461
316.000	228.661	79.999	19.994	103.205	19.913	6.280	0.467
316.500	228.931	80.001	19.994	103.204	19.911	6.432	0.474
317.000	229.193	80.007	19.994	103.200	19.914	6.251	0.509
317.500	229.459	80.005	19.994	103.198	19.913	6.284	0.530
318.000	229.661	80.002	19.995	103.197	19.911	6.429	0.498
318.500	229.929	80.004	19.994	103.198	19.908	6.631	0.469
319.000	230.180	80.005	19.994	103.199	19.909	6.590	0.495
319.500	230.433	80.003	19.994	103.199	19.911	6.431	0.512
320.000	230.683	80.003	19.994	103.204	19.909	6.581	0.503
320.500	230.914	80.002	19.994	103.203	19.909	6.549	0.492
321.000	231.138	80.003	19.994	103.201	19.910	6.540	0.468
321.500	231.379	80.002	19.993	103.204	19.909	6.592	0.460
322.000	231.630	80.001	19.994	103.207	19.908	6.677	0.479
322.500	231.904	80.003	19.995	103.207	19.910	6.494	0.508
323.000	232.104	80.001	19.994	103.209	19.909	6.553	0.499
323.500	232.364	80.003	19.995	103.212	19.908	6.661	0.467
324.000	232.631	80.006	19.994	103.208	19.909	6.583	0.494
324.500	232.869	80.000	19.995	103.203	19.907	6.741	0.516
325.000	233.106	80.005	19.992	103.199	19.904	6.908	0.490
325.500	233.340	80.003	19.995	103.194	19.905	6.887	0.473
326.000	233.590	80.002	19.993	103.194	19.906	6.791	0.478
326.501	233.845	80.005	19.995	103.197	19.906	6.815	0.495
327.000	234.063	80.005	19.993	103.201	19.905	6.870	0.489
327.500	234.357	80.002	19.995	103.205	19.905	6.846	0.492
328.000	234.557	79.998	19.995	103.206	19.902	7.063	0.503
328.500	234.818	80.005	19.994	103.203	19.906	6.818	0.478
329.000	235.069	80.003	19.994	103.205	19.903	7.017	0.487
329.500	235.300	80.007	19.994	103.204	19.903	7.028	0.497
330.000	235.550	80.004	19.994	103.204	19.902	7.044	0.481
330.500	235.820	80.002	19.995	103.207	19.901	7.109	0.501
331.000	236.024	80.013	19.993	103.206	19.903	7.031	0.497
331.500	236.272	80.003	19.993	103.204	19.904	6.920	0.463
332.000	236.505	80.005	19.994	103.203	19.904	6.933	0.466
332.500	236.782	80.003	19.994	103.202	19.901	7.109	0.495
333.000	237.018	80.006	19.995	103.203	19.901	7.176	0.512
333.500	237.275	80.003	19.993	103.205	19.901	7.158	0.503
334.000	237.518	80.004	19.994	103.206	19.898	7.319	0.497
334.500	237.762	80.005	19.995	103.207	19.898	7.368	0.494
335.000	238.015	80.006	19.994	103.209	19.901	7.158	0.492
335.500	238.256	80.003	19.994	103.209	19.900	7.179	0.495
336.000	238.519	80.005	19.993	103.211	19.900	7.238	0.499
336.501	238.726	80.004	19.994	103.213	19.898	7.353	0.488
337.001	238.944	80.003	19.994	103.212	19.899	7.277	0.447
337.501	239.212	80.003	19.993	103.208	19.902	7.097	0.455
338.000	239.453	80.004	19.994	103.205	19.899	7.298	0.498
338.500	239.682	80.003	19.994	103.204	19.897	7.398	0.489
339.000	239.974	80.009	19.994	103.202	19.901	7.122	0.496
339.500	240.185	80.003	19.995	103.201	19.898	7.362	0.512
340.000	240.417	80.002	19.994	103.205	19.897	7.397	0.473
340.500	240.674	80.002	19.994	103.207	19.896	7.469	0.466
341.000	240.938	80.006	19.994	103.203	19.898	7.382	0.505
341.500	241.188	80.005	19.995	103.202	19.896	7.489	0.517
342.000	241.439	80.003	19.995	103.204	19.896	7.511	0.507
342.500	241.692	80.002	19.995	103.204	19.895	7.564	0.503
343.000	241.909	80.003	19.994	103.201	19.897	7.397	0.487
343.500	242.202	80.002	19.994	103.202	19.894	7.598	0.490
344.000	242.394	80.004	19.994	103.199	19.895	7.574	0.497
344.500	242.680	80.001	19.994	103.193	19.896	7.485	0.481
345.000	242.932	80.003	19.995	103.187	19.898	7.336	0.508
345.500	243.182	80.003	19.993	103.187	19.898	7.351	0.520
346.000	243.417	80.004	19.994	103.187	19.896	7.475	0.494
346.500	243.679	80.002	19.994	103.189	19.898	7.382	0.491
347.000	243.906	80.001	19.995	103.191	19.897	7.406	0.493
347.500	244.173	80.002	19.994	103.190	19.898	7.376	0.491
348.000	244.405	80.004	19.994	103.189	19.898	7.345	0.496
348.500	244.666	80.002	19.995	103.192	19.897	7.416	0.496
349.000	244.905	80.003	19.994	103.195	19.900	7.183	0.497
349.500	245.180	80.003	19.995	103.197	19.898	7.341	0.507
350.000	245.375	80.003	19.994	103.202	19.895	7.541	0.492
350.501	245.647	80.003	19.994	103.209	19.899	7.305	0.468
351.000	245.864	80.003	19.993	103.208	19.895	7.579	0.478
351.500	246.160	80.006	19.994	103.202	19.896	7.499	0.501
352.000	246.410	80.002	19.995	103.201	19.897	7.452	0.530
352.500	246.667	80.001	19.995	103.200	19.893	7.686	0.526
353.000	246.881	80.003	19.994	103.195	19.895	7.579	0.489
353.500	247.118	80.004	19.996	103.190	19.893	7.681	0.461
354.000	247.348	80.003	19.994	103.190	19.897	7.425	0.459
354.500	247.617	80.004	19.994	103.192	19.896	7.485	0.484
355.000	247.823	80.004	19.995	103.191	19.896	7.507	0.487
355.500	248.088	80.001	19.995	103.190	19.895	7.531	0.472
356.000	248.338	80.003	19.994	103.190	19.894	7.651	0.493
356.500	248.595	80.003	19.996	103.189	19.893	7.714	0.511
357.000	248.872	80.003	19.995	103.183	19.891	7.866	0.520
357.500	249.102	80.002	19.995	103.181	19.893	7.729	0.521
358.000	249.378	80.004	19.995	103.179	19.891	7.820	0.507
358.500	249.615	80.002	19.994	103.179	19.891	7.876	0.510
359.000	249.871	80.003	19.994	103.180	19.892	7.776	0.503
359.500	250.107	80.005	19.994	103.188	19.893	7.716	0.493
360.000	250.406	80.004	19.994	103.193	19.890	7.910	0.513
360.500	250.658	80.005	19.994	103.200	19.891	7.860	0.543
361.000	250.918	80.005	19.995	103.207	19.889	7.982	0.532
361.500	251.156	80.003	19.994	103.213	19.890	7.882	0.505
362.000	251.373	80.003	19.994	103.210	19.889	8.012	0.476
362.500	251.645	80.005	19.994	103.208	19.889	7.968	0.472
363.000	251.890	80.002	19.994	103.207	19.890	7.942	0.503
363.500	252.145	80.003	19.993	103.207	19.890	7.883	0.509
364.000	252.399	80.001	19.993	103.207	19.891	7.837	0.504
364.500	252.611	80.008	19.994	103.209	19.888	8.069	0.487
365.000	252.889	80.008	19.994	103.214	19.890	7.889	0.478
365.500	253.133	80.004	19.994	103.214	19.888	8.083	0.506
366.000	253.363	80.006	19.994	103.214	19.889	7.990	0.497
366.500	253.644	80.006	19.995	103.213	19.889	8.010	0.492
367.000	253.836	80.006	19.994	103.213	19.890	7.888	0.492
367.500	254.142	80.006	19.996	103.211	19.890	7.886	0.486
368.001	254.348	80.006	19.993	103.212	19.888	8.029	0.505
368.500	254.581	80.003	19.995	103.212	19.891	7.846	0.475
369.000	254.856	80.006	19.993	103.212	19.892	7.786	0.473
369.500	255.133	80.005	19.994	103.213	19.889	7.996	0.530
370.000	255.341	80.006	19.994	103.215	19.890	7.935	0.519
370.500	255.579	80.002	19.994	103.213	19.888	8.035	0.466
371.000	255.808	80.003	19.996	103.207	19.886	8.200	0.456
371.500	256.051	80.005	19.996	103.201	19.891	7.844	0.470
372.000	256.364	80.005	19.994	103.199	19.889	8.014	0.514
372.500	256.597	80.004	19.994	103.198	19.888	8.020	0.551
373.000	256.824	80.005	19.995	103.199	19.887	8.090	0.503
373.500	257.097	80.003	19.994	103.205	19.888	8.023	0.480
374.000	257.332	80.002	19.995	103.210	19.888	8.081	0.504
374.500	257.615	80.004	19.995	103.212	19.886	8.187	0.513
375.000	257.847	80.006	19.995	103.212	19.887	8.107	0.517
375.500	258.118	80.005	19.995	103.213	19.888	8.040	0.509
376.000	258.333	80.004	19.995	103.212	19.887	8.101	0.494
376.500	258.629	80.004	19.995	103.206	19.887	8.134	0.499
377.000	258.847	80.002	19.995	103.204	19.889	7.984	0.513
377.500	259.143	80.004	19.996	103.202	19.892	7.783	0.514
378.000	259.405	80.004	19.995	103.201	19.891	7.865	0.536
378.500	259.676	80.003	19.995	103.202	19.895	7.592	0.545
379.000	259.868	80.001	19.997	103.206	19.892	7.758	0.498
379.500	260.138	80.002	19.996	103.208	19.890	7.936	0.463
380.000	260.332	80.004	19.996	103.210	19.893	7.690	0.463
380.500	260.612	80.003	19.997	103.210	19.894	7.633	0.469
381.000	260.883	80.002	19.996	103.209	19.893	7.689	0.512
381.500	261.175	80.004	19.996	103.208	19.895	7.550	0.557
382.000	261.427	80.002	19.995	103.207	19.894	7.648	0.553
382.500	261.630	80.004	19.995	103.205	19.891	7.810	0.500
383.000	261.910	80.004	19.995	103.205	19.893	7.682	0.469
383.500	262.165	80.004	19.995	103.205	19.895	7.556	0.509
384.000	262.415	80.004	19.994	103.207	19.895	7.590	0.520
384.500	262.650	80.004	19.995	103.205	19.896	7.479	0.495
385.000	262.897	80.005	19.994	103.207	19.895	7.538	0.483
385.500	263.190	80.003	19.995	103.207	19.899	7.315	0.511
386.000	263.456	80.005	19.995	103.206	19.897	7.453	0.549
386.500	263.726	80.005	19.994	103.202	19.899	7.248	0.547
387.000	263.912	80.006	19.994	103.202	19.895	7.588	0.495
387.500	264.199	80.006	19.994	103.199	19.898	7.362	0.465
388.000	264.420	80.006	19.994	103.193	19.898	7.334	0.491
388.500	264.680	80.006	19.994	103.191	19.896	7.475	0.494
389.000	264.917	80.005	19.994	103.189	19.899	7.260	0.489
389.500	265.195	80.007	19.995	103.187	19.898	7.382	0.506
390.000	265.454	80.005	19.995	103.183	19.896	7.521	0.526
390.500	265.672	80.006	19.993	103.182	19.897	7.423	0.507
391.000	265.963	80.006	19.994	103.186	19.897	7.414	0.493
391.500	266.184	80.006	19.994	103.192	19.900	7.191	0.510
392.000	266.441	80.006	19.994	103.192	19.900	7.178	0.495
392.500	266.695	80.006	19.995	103.194	19.897	7.419	0.495
393.000	266.987	80.006	19.994	103.199	19.896	7.470	0.528
393.501	267.185	80.005	19.994	103.199	19.902	7.043	0.518
394.000	267.437	80.007	19.994	103.199	19.901	7.173	0.470
394.500	267.690	80.006	19.994	103.204	19.902	7.069	0.478
395.000	267.982	80.006	19.994	103.209	19.901	7.120	0.525
395.500	268.214	80.007	19.994	103.211	19.904	6.910	0.534
396.000	268.470	80.006	19.994	103.212	19.900	7.231	0.506
396.500	268.698	80.005	19.994	103.209	19.899	7.307	0.486
397.000	268.951	80.004	19.993	103.208	19.900	7.180	0.482
397.500	269.190	80.004	19.995	103.207	19.902	7.071	0.486
398.000	269.457	80.005	19.994	103.206	19.900	7.197	0.499
398.500	269.706	80.004	19.994	103.206	19.903	7.033	0.511
399.000	269.952	80.005	19.994	103.209	19.906	6.774	0.505
399.500	270.258	80.006	19.994	103.210	19.904	6.954	0.523
400.000	270.509	80.003	19.994	103.212	19.905	6.898	0.555
400.500	270.729	80.001	19.993	103.212	19.904	6.900	0.514
401.000	270.952	80.003	19.994	103.212	19.907	6.743	0.457
401.500	271.249	80.003	19.993	103.212	19.903	7.018	0.481
402.000	271.477	80.002	19.994	103.212	19.905	6.882	0.522
402.500	271.710	80.003	19.993	103.212	19.904	6.929	0.493
403.000	272.019	80.002	19.995	103.213	19.905	6.847	0.501
403.500	272.221	80.004	19.994	103.212	19.906	6.799	0.526
404.000	272.470	80.003	19.994	103.215	19.905	6.890	0.481
404.500	272.713	80.004	19.993	103.218	19.905	6.884	0.472
405.000	272.966	80.003	19.994	103.218	19.905	6.871	0.494
405.500	273.239	80.003	19.993	103.219	19.908	6.634	0.510
406.000	273.507	80.004	19.994	103.221	19.905	6.842	0.534
406.500	273.721	80.003	19.993	103.219	19.907	6.695	0.512
407.000	273.994	80.003	19.995	103.221	19.907	6.732	0.485
407.500	274.223	80.004	19.995	103.227	19.905	6.851	0.494
408.000	274.475	80.004	19.995	103.229	19.905	6.834	0.491
408.500	274.716	80.002	19.994	103.235	19.908	6.634	0.487
409.000	275.015	80.003	19.994	103.237	19.908	6.673	0.517
409.500	275.250	80.004	19.993	103.235	19.907	6.751	0.537
410.000	275.452	80.003	19.994	103.233	19.904	6.949	0.485
410.500	275.716	80.004	19.994	103.235	19.904	6.939	0.451
411.000	275.947	80.003	19.993	103.234	19.904	6.902	0.480
411.500	276.244	80.002	19.994	103.238	19.908	6.670	0.512
412.000	276.454	80.002	19.994	103.244	19.911	6.463	0.518
412.500	276.708	80.003	19.994	103.247	19.907	6.725	0.486
413.000	276.970	80.003	19.995	103.250	19.906	6.809	0.490
413.500	277.217	80.003	19.994	103.249	19.910	6.551	0.513
414.000	277.457	80.004	19.994	103.251	19.907	6.709	0.498
414.500	277.707	80.004	19.995	103.250	19.909	6.557	0.489
415.000	277.972	80.004	19.995	103.251	19.908	6.668	0.502
415.500	278.202	80.004	19.994	103.251	19.909	6.601	0.505
416.000	278.439	80.004	19.994	103.253	19.908	6.638	0.481
416.501	278.717	80.006	19.995	103.251	19.906	6.768	0.491
417.001	278.959	80.005	19.994	103.251	19.905	6.843	0.517
417.501	279.163	80.004	19.994	103.252	19.904	6.915	0.483
418.000	279.471	80.004	19.994	103.252	19.905	6.839	0.479
418.500	279.701	80.003	19.994	103.252	19.907	6.755	0.525
419.000	279.936	80.004	19.994	103.254	19.908	6.655	0.501
419.500	280.210	80.003	19.993	103.254	19.904	6.947	0.487
420.000	280.434	80.005	19.994	103.254	19.907	6.705	0.504
420.500	280.715	80.003	19.993	103.254	19.903	6.988	0.501
421.000	280.925	80.004	19.993	103.254	19.906	6.815	0.498
421.500	281.194	80.003	19.993	103.259	19.903	7.003	0.485
422.000	281.444	80.004	19.993	103.266	19.903	6.999	0.499
422.500	281.662	80.004	19.993	103.270	19.902	7.070	0.494
423.000	281.949	80.004	19.994	103.275	19.904	6.965	0.487
423.500	282.196	80.003	19.993	103.282	19.901	7.181	0.520
424.000	282.428	80.003	19.994	103.284	19.901	7.155	0.507
424.500	282.680	80.003	19.994	103.284	19.900	7.250	0.481
425.000	282.930	80.005	19.994	103.288	19.899	7.289	0.493
425.500	283.189	80.005	19.993	103.290	19.899	7.308	0.506
426.000	283.456	80.004	19.994	103.289	19.900	7.210	0.517
426.500	283.649	80.004	19.994	103.291	19.900	7.224	0.493
427.000	283.934	80.005	19.994	103.292	19.898	7.382	0.469
427.500	284.174	80.004	19.993	103.292	19.897	7.440	0.501
428.000	284.437	80.003	19.994	103.293	19.897	7.425	0.514
428.500	284.690	80.004	19.993	103.295	19.894	7.612	0.510
429.000	284.913	80.002	19.993	103.295	19.896	7.481	0.496
429.501	285.173	80.004	19.994	103.295	19.894	7.672	0.480
430.001	285.432	80.003	19.994	103.295	19.888	8.042	0.501
430.500	285.695	80.003	19.993	103.295	19.891	7.847	0.520
431.000	285.904	80.004	19.994	103.295	19.891	7.821	0.497
431.500	286.175	80.005	19.993	103.299	19.885	8.261	0.476
432.000	286.416	80.002	19.994	103.301	19.883	8.383	0.497
432.500	286.692	80.004	19.994	103.302	19.883	8.443	0.514
433.000	286.894	80.004	19.995	103.303	19.881	8.569	0.497
433.500	287.189	80.002	19.994	103.302	19.879	8.662	0.488
434.000	287.416	80.004	19.994	103.299	19.878	8.749	0.510
434.500	287.677	80.004	19.994	103.301	19.877	8.862	0.505
435.000	287.926	80.004	19.993	103.307	19.874	9.059	0.499
435.500	288.178	80.003	19.994	103.308	19.872	9.200	0.505
436.000	288.397	80.002	19.994	103.311	19.869	9.356	0.485
436.500	288.643	80.004	19.995	103.314	19.868	9.441	0.468
437.000	288.871	80.004	19.996	103.314	19.867	9.538	0.470
437.500	289.136	80.003	19.994	103.311	19.865	9.663	0.484
438.000	289.369	80.003	19.994	103.313	19.862	9.846	0.496
438.500	289.604	80.003	19.994	103.316	19.862	9.881	0.483
439.000	289.886	80.002	19.995	103.313	19.861	9.974	0.492
439.500	290.138	80.005	19.995	103.314	19.859	10.074	0.525
440.000	290.424	80.003	19.993	103.314	19.854	10.460	0.536
440.500	290.677	80.003	19.995	103.317	19.852	10.591	0.538
441.000	290.907	80.004	19.995	103.318	19.851	10.610	0.511
441.501	291.199	80.002	19.995	103.322	19.849	10.805	0.503
442.000	291.408	80.005	19.994	103.322	19.846	10.992	0.512
442.500	291.666	80.003	19.995	103.326	19.844	11.161	0.484
443.000	291.906	80.004	19.995	103.322	19.844	11.098	0.483
443.500	292.167	80.005	19.995	103.321	19.842	11.270	0.499
444.000	292.421	80.004	19.995	103.324	19.840	11.407	0.507
444.500	292.659	80.004	19.995	103.322	19.836	11.718	0.503
445.000	292.925	80.005	19.995	103.318	19.835	11.775	0.498
445.500	293.159	80.007	19.995	103.321	19.835	11.746	0.502
446.000	293.425	80.005	19.995	103.321	19.835	11.761	0.500
446.500	293.665	80.004	19.995	103.317	19.837	11.631	0.503
447.000	293.906	80.006	19.996	103.316	19.834	11.857	0.493
447.500	294.135	80.006	19.995	103.312	19.833	11.874	0.476
448.000	294.410	80.006	19.994	103.305	19.833	11.872	0.487
448.500	294.637	80.005	19.994	103.303	19.832	11.959	0.503
449.000	294.891	80.005	19.994	103.301	19.831	12.011	0.491
449.500	295.141	80.004	19.994	103.299	19.836	11.658	0.492
450.000	295.368	80.004	19.995	103.299	19.832	11.973	0.491
450.500	295.623	80.007	19.995	103.298	19.832	11.970	0.480
451.000	295.875	80.006	19.995	103.295	19.833	11.930	0.494
451.500	296.128	80.005	19.996	103.293	19.833	11.908	0.506
452.000	296.405	80.007	19.996	103.290	19.837	11.613	0.518
452.500	296.658	80.004	19.995	103.290	19.836	11.694	0.530
453.000	296.919	80.006	19.994	103.290	19.839	11.460	0.522
453.500	297.118	80.005	19.995	103.289	19.836	11.699	0.487
454.000	297.361	80.005	19.994	103.289	19.843	11.215	0.451
454.500	297.610	80.002	19.994	103.288	19.841	11.320	0.467
455.000	297.874	80.004	19.995	103.282	19.843	11.169	0.502
455.500	298.126	80.004	19.995	103.275	19.847	10.924	0.515
456.000	298.371	80.004	19.995	103.269	19.849	10.744	0.506
456.501	298.625	80.005	19.995	103.263	19.848	10.877	0.498
457.000	298.857	80.003	19.995	103.260	19.850	10.679	0.493
457.500	299.089	80.004	19.994	103.262	19.852	10.601	0.475
458.000	299.350	80.005	19.996	103.263	19.855	10.359	0.478
458.500	299.610	80.005	19.994	103.263	19.854	10.444	0.507
459.000	299.825	80.004	19.995	103.263	19.858	10.146	0.498
459.500	300.072	80.006	19.994	103.261	19.858	10.153	0.469
460.000	300.318	80.004	19.994	103.260	19.859	10.095	0.478
460.500	300.579	80.004	19.994	103.259	19.860	10.025	0.500
461.000	300.817	80.005	19.995	103.257	19.860	9.988	0.503
461.501	301.085	80.004	19.995	103.256	19.862	9.839	0.503
462.000	301.279	80.005	19.996	103.252	19.861	9.919	0.484
462.500	301.566	80.005	19.995	103.249	19.866	9.589	0.472
463.000	301.826	80.005	19.996	103.248	19.869	9.359	0.514
463.500	302.089	80.005	19.995	103.247	19.869	9.360	0.535
464.000	302.298	80.003	19.995	103.246	19.871	9.250	0.498
464.500	302.557	80.005	19.994	103.244	19.872	9.159	0.470
465.000	302.763	80.003	19.995	103.240	19.875	8.951	0.466
465.500	303.033	80.005	19.995	103.235	19.873	9.067	0.470
466.000	303.292	80.005	19.995	103.231	19.876	8.917	0.502
466.500	303.539	80.003	19.994	103.229	19.879	8.670	0.518
467.000	303.802	80.004	19.996	103.225	19.879	8.685	0.508
467.500	303.998	80.005	19.995	103.225	19.881	8.550	0.484
468.000	304.268	80.006	19.995	103.226	19.882	8.470	0.463
468.500	304.541	80.005	19.996	103.223	19.883	8.383	0.505
469.000	304.783	80.003	19.995	103.219	19.884	8.325	0.529
469.500	305.047	80.003	19.995	103.217	19.886	8.220	0.511
470.000	305.270	80.005	19.994	103.214	19.887	8.125	0.497
470.500	305.526	80.005	19.995	103.212	19.888	8.058	0.483
471.000	305.790	80.005	19.994	103.211	19.890	7.941	0.499
471.500	306.064	80.005	19.995	103.210	19.889	7.956	0.528
472.000	306.257	80.006	19.996	103.210	19.892	7.776	0.502
472.500	306.531	80.004	19.995	103.209	19.894	7.658	0.467
473.000	306.754	80.005	19.995	103.207	19.894	7.628	0.482
473.500	306.998	80.006	19.996	103.208	19.896	7.498	0.482
474.000	307.257	80.006	19.995	103.209	19.896	7.500	0.485
474.500	307.513	80.006	19.995	103.204	19.896	7.480	0.509
475.000	307.770	80.006	19.995	103.198	19.896	7.473	0.514
475.500	307.980	80.005	19.995	103.193	19.894	7.647	0.490
476.000	308.212	80.005	19.995	103.187	19.896	7.460	0.455
476.501	308.471	80.006	19.994	103.180	19.896	7.482	0.467
477.000	308.701	80.005	19.995	103.177	19.899	7.308	0.490
477.500	308.977	80.006	19.995	103.176	19.903	7.002	0.497
478.000	309.202	80.004	19.995	103.175	19.903	7.002	0.503
478.500	309.459	80.005	19.996	103.177	19.903	6.994	0.492
479.000	309.717	80.005	19.995	103.176	19.904	6.950	0.499
479.500	309.947	80.005	19.993	103.177	19.902	7.063	0.502
480.000	310.215	80.004	19.995	103.178	19.904	6.900	0.493
480.500	310.450	80.002	19.994	103.178	19.905	6.874	0.501
481.000	310.690	80.004	19.994	103.175	19.903	7.031	0.489
481.500	310.959	80.004	19.994	103.175	19.905	6.864	0.492
482.000	311.171	80.004	19.994	103.174	19.906	6.814	0.495
482.500	311.451	80.004	19.993	103.174	19.907	6.743	0.486
483.000	311.692	80.003	19.994	103.174	19.906	6.759	0.506
483.500	311.976	80.004	19.994	103.175	19.907	6.704	0.523
484.000	312.216	80.002	19.995	103.175	19.910	6.530	0.525
484.500	312.422	80.004	19.994	103.176	19.911	6.437	0.485
485.000	312.723	80.004	19.995	103.179	19.907	6.689	0.476
485.500	312.943	80.004	19.994	103.181	19.911	6.435	0.514
486.000	313.248	80.003	19.994	103.182	19.909	6.560	0.523
486.500	313.502	80.005	19.994	103.182	19.914	6.233	0.542
487.000	313.740	80.004	19.994	103.181	19.909	6.606	0.525
487.500	314.018	80.003	19.993	103.178	19.914	6.208	0.504
488.000	314.241	80.003	19.994	103.176	19.913	6.317	0.508
488.500	314.500	80.004	19.993	103.176	19.911	6.443	0.491
489.000	314.737	80.003	19.994	103.176	19.912	6.380	0.489
489.500	315.016	80.004	19.994	103.176	19.911	6.468	0.506
490.000	315.277	80.003	19.993	103.176	19.911	6.414	0.528
490.500	315.527	80.003	19.994	103.176	19.910	6.512	0.526
491.000	315.752	80.005	19.993	103.175	19.911	6.466	0.493
491.500	316.007	80.003	19.994	103.174	19.911	6.430	0.477
492.000	316.294	80.004	19.994	103.171	19.912	6.341	0.511
492.500	316.498	80.005	19.993	103.168	19.915	6.178	0.516
493.000	316.797	80.004	19.995	103.167	19.914	6.228	0.497
493.500	317.024	80.004	19.994	103.163	19.913	6.286	0.515
494.000	317.305	80.003	19.994	103.157	19.916	6.087	0.517
494.500	317.560	80.004	19.994	103.157	19.916	6.080	0.522
495.000	317.799	80.004	19.994	103.158	19.918	5.921	0.515
495.500	318.009	80.004	19.994	103.156	19.915	6.136	0.472
496.000	318.283	80.003	19.994	103.156	19.916	6.074	0.467
496.500	318.572	80.004	19.994	103.159	19.915	6.137	0.523
497.000	318.821	80.004	19.994	103.162	19.915	6.150	0.550
497.500	319.074	80.005	19.994	103.161	19.918	5.980	0.520
498.000	319.324	80.002	19.994	103.163	19.918	5.965	0.503
498.500	319.558	80.003	19.994	103.169	19.917	6.038	0.494
499.000	319.807	80.004	19.994	103.171	19.916	6.075	0.483
499.500	320.087	80.003	19.994	103.171	19.917	6.019	0.506
500.000	320.300	80.003	19.994	103.173	19.916	6.073	0.511
500.500	320.574	80.002	19.994	103.173	19.918	5.932	0.490
501.000	320.832	80.005	19.993	103.173	19.916	6.112	0.509
501.500	321.076	80.004	19.994	103.171	19.917	6.004	0.518
502.000	321.321	80.005	19.994	103.170	19.919	5.869	0.496
502.500	321.577	80.004	19.995	103.170	19.918	5.980	0.495
503.000	321.826	80.004	19.994	103.170	19.918	5.952	0.503
503.500	322.102	80.006	19.994	103.168	19.918	5.954	0.515
504.000	322.347	80.004	19.994	103.169	19.920	5.835	0.523
504.500	322.564	80.003	19.995	103.170	19.916	6.075	0.492
505.000	322.856	80.004	19.994	103.170	19.918	5.943	0.485
505.501	323.081	80.004	19.994	103.171	19.919	5.904	0.513
506.001	323.343	80.005	19.994	103.171	19.921	5.747	0.502
506.501	323.620	80.003	19.994	103.170	19.919	5.867	0.513
507.000	323.877	80.003	19.994	103.170	19.916	6.060	0.536
507.500	324.099	80.004	19.994	103.170	19.916	6.071	0.506
508.000	324.371	80.005	19.995	103.170	19.914	6.238	0.486
508.500	324.644	80.004	19.993	103.171	19.919	5.897	0.519
509.000	324.913	80.004	19.994	103.174	19.918	5.984	0.544
509.500	325.145	80.004	19.995	103.175	19.916	6.110	0.522
510.000	325.417	80.004	19.993	103.174	19.918	5.930	0.502
510.500	325.655	80.005	19.995	103.174	19.917	6.018	0.507
511.000	325.921	80.004	19.994	103.174	19.917	6.005	0.507
511.501	326.210	80.004	19.994	103.173	19.919	5.917	0.530
512.001	326.494	80.005	19.994	103.173	19.917	6.051	0.564
512.500	326.689	80.003	19.995	103.173	19.918	5.962	0.526
513.000	326.972	80.005	19.994	103.172	19.917	6.019	0.479
513.500	327.232	80.004	19.994	103.171	19.917	6.054	0.511
514.000	327.512	80.003	19.993	103.171	19.915	6.171	0.542
514.500	327.710	80.004	19.994	103.172	19.919	5.908	0.509
515.000	327.999	80.003	19.994	103.172	19.918	5.924	0.482
515.501	328.295	80.002	19.994	103.175	19.917	5.995	0.536
516.000	328.513	80.003	19.995	103.175	19.916	6.062	0.550
516.500	328.761	80.003	19.993	103.175	19.919	5.895	0.490
517.000	329.021	80.003	19.995	103.174	19.917	6.043	0.487
517.500	329.332	80.003	19.994	103.175	19.915	6.138	0.539
518.000	329.594	80.003	19.994	103.175	19.918	5.952	0.572
518.500	329.864	80.004	19.994	103.176	19.917	6.037	0.552
519.000	330.081	80.004	19.994	103.177	19.917	6.039	0.510
519.500	330.358	80.004	19.993	103.176	19.915	6.186	0.491
520.000	330.626	80.005	19.994	103.176	19.917	6.017	0.519
520.500	330.892	80.005	19.994	103.175	19.917	6.017	0.540
521.000	331.119	80.005	19.994	103.179	19.917	6.056	0.513
521.500	331.378	80.004	19.995	103.181	19.917	6.047	0.489
522.000	331.674	80.004	19.994	103.181	19.916	6.119	0.521
522.500	331.888	80.006	19.994	103.181	19.920	5.806	0.533
523.000	332.194	80.005	19.994	103.180	19.918	5.943	0.515
523.500	332.458	80.004	19.993	103.175	19.918	5.941	0.545
524.000	332.743	80.006	19.994	103.173	19.917	6.034	0.559
524.500	332.963	80.005	19.994	103.173	19.921	5.746	0.527
525.000	333.253	80.005	19.993	103.173	19.920	5.793	0.508
525.500	333.490	80.005	19.994	103.173	19.920	5.846	0.519
526.000	333.749	80.005	19.994	103.173	19.920	5.826	0.511
526.500	334.032	80.006	19.993	103.173	19.921	5.737	0.519
527.000	334.289	80.006	19.994	103.173	19.919	5.852	0.541
527.500	334.533	80.007	19.994	103.172	19.920	5.783	0.520
528.000	334.806	80.005	19.994	103.172	19.919	5.850	0.509
528.500	335.085	80.005	19.994	103.172	19.919	5.859	0.535
529.000	335.367	80.006	19.994	103.172	19.920	5.821	0.557
529.500	335.628	80.006	19.993	103.172	19.917	6.051	0.552
530.000	335.888	80.005	19.993	103.172	19.919	5.882	0.532
530.500	336.117	80.007	19.993	103.173	19.921	5.741	0.505
531.000	336.397	80.006	19.994	103.174	19.920	5.824	0.499
531.500	336.625	80.006	19.993	103.174	19.920	5.784	0.509
532.000	336.920	80.005	19.995	103.174	19.922	5.691	0.516
532.500	337.204	80.005	19.994	103.173	19.918	5.949	0.551
533.000	337.457	80.004	19.994	103.171	19.916	6.084	0.558
533.500	337.665	80.004	19.994	103.170	19.916	6.060	0.499
534.000	337.986	80.006	19.993	103.170	19.914	6.225	0.495
534.500	338.219	80.005	19.994	103.169	19.918	5.969	0.542
535.000	338.510	80.005	19.994	103.169	19.917	6.045	0.539
535.500	338.747	80.005	19.994	103.171	19.917	6.012	0.526
536.000	338.992	80.005	19.994	103.170	19.913	6.293	0.505
536.500	339.276	80.004	19.994	103.171	19.918	5.936	0.505
537.000	339.542	80.005	19.994	103.172	19.919	5.913	0.540
537.500	339.794	80.003	19.995	103.172	19.920	5.780	0.534
538.000	340.043	80.004	19.993	103.171	19.919	5.862	0.509
538.501	340.312	80.006	19.994	103.171	19.916	6.115	0.509
539.000	340.553	80.005	19.995	103.171	19.915	6.130	0.514
539.500	340.828	80.003	19.995	103.171	19.914	6.230	0.513
540.000	341.107	80.006	19.994	103.172	19.915	6.191	0.535
540.500	341.377	80.004	19.995	103.174	19.915	6.191	0.551
541.001	341.616	80.006	19.994	103.176	19.916	6.091	0.529
541.500	341.906	80.005	19.995	103.176	19.913	6.336	0.519
542.000	342.164	80.006	19.994	103.175	19.914	6.232	0.538
542.500	342.416	80.005	19.995	103.175	19.915	6.173	0.528
543.000	342.694	80.004	19.996	103.175	19.914	6.256	0.520
543.500	342.912	80.005	19.993	103.174	19.913	6.325	0.513
544.000	343.155	80.003	19.995	103.174	19.913	6.328	0.478
544.500	343.435	80.006	19.995	103.174	19.914	6.232	0.492
545.000	343.698	80.005	19.995	103.174	19.915	6.141	0.533
545.500	343.955	80.006	19.994	103.172	19.913	6.267	0.532
546.000	344.212	80.004	19.994	103.173	19.916	6.091	0.517
546.500	344.474	80.004	19.994	103.174	19.913	6.321	0.517
547.000	344.679	80.006	19.994	103.174	19.914	6.239	0.493
547.500	344.955	80.004	19.994	103.175	19.911	6.426	0.474
548.000	345.189	80.003	19.995	103.176	19.912	6.371	0.496
548.500	345.474	80.006	19.994	103.176	19.912	6.363	0.515
549.000	345.687	80.005	19.994	103.175	19.914	6.265	0.508
549.500	345.963	80.007	19.994	103.175	19.913	6.315	0.493
550.000	346.243	80.004	19.994	103.175	19.912	6.400	0.522
550.500	346.506	80.006	19.993	103.174	19.914	6.233	0.550
551.000	346.716	80.005	19.994	103.174	19.913	6.330	0.508
551.500	347.002	80.006	19.994	103.173	19.915	6.187	0.484
552.000	347.261	80.004	19.994	103.173	19.912	6.372	0.520
552.500	347.487	80.004	19.993	103.173	19.913	6.276	0.515
553.000	347.728	80.005	19.994	103.173	19.912	6.339	0.476
553.500	347.979	80.005	19.994	103.173	19.912	6.339	0.480
554.000	348.265	80.006	19.993	103.171	19.914	6.228	0.515
554.500	348.476	80.006	19.994	103.168	19.917	6.046	0.517
555.000	348.736	80.006	19.994	103.169	19.913	6.284	0.484
555.501	348.974	80.005	19.995	103.168	19.915	6.156	0.484
556.000	349.256	80.006	19.994	103.168	19.913	6.291	0.509
556.500	349.522	80.006	19.994	103.171	19.915	6.155	0.534
557.000	349.737	80.005	19.994	103.171	19.914	6.246	0.514
557.500	350.021	80.005	19.995	103.167	19.917	6.036	0.490
558.000	350.242	80.006	19.994	103.165	19.913	6.268	0.502
558.500	350.484	80.005	19.995	103.166	19.915	6.184	0.484
559.000	350.799	80.006	19.993	103.163	19.917	5.992	0.510
559.500	351.028	80.004	19.994	103.164	19.915	6.146	0.550
560.000	351.252	80.005	19.994	103.168	19.916	6.120	0.498
560.500	351.513	80.003	19.993	103.168	19.917	6.020	0.469
561.000	351.764	80.004	19.996	103.164	19.914	6.235	0.499
561.500	352.005	80.005	19.994	103.162	19.916	6.094	0.502
562.000	352.248	80.004	19.995	103.162	19.914	6.231	0.488
562.500	352.522	80.006	19.995	103.162	19.917	6.044	0.501
563.000	352.794	80.003	19.995	103.161	19.912	6.349	0.531
563.500	353.027	80.004	19.994	103.163	19.916	6.108	0.526
564.000	353.273	80.004	19.994	103.162	19.915	6.177	0.492
564.500	353.558	80.003	19.995	103.163	19.912	6.367	0.505
565.000	353.780	80.002	19.995	103.162	19.914	6.218	0.519
565.500	354.025	80.003	19.995	103.163	19.915	6.158	0.486
566.000	354.250	80.003	19.995	103.164	19.917	6.038	0.469
566.500	354.523	80.003	19.995	103.165	19.915	6.159	0.485
567.000	354.720	80.004	19.995	103.159	19.916	6.061	0.484
567.500	354.977	80.004	19.995	103.155	19.912	6.341	0.461
568.000	355.247	80.003	19.995	103.150	19.915	6.173	0.490
568.500	355.520	80.003	19.995	103.148	19.914	6.230	0.535
569.000	355.729	80.003	19.995	103.148	19.911	6.423	0.513
569.500	356.013	80.003	19.994	103.151	19.915	6.183	0.487
570.000	356.251	80.003	19.995	103.154	19.914	6.198	0.507
570.500	356.480	80.004	19.995	103.160	19.913	6.272	0.494
571.000	356.732	80.003	19.995	103.157	19.915	6.165	0.474
571.500	356.970	80.004	19.995	103.157	19.914	6.215	0.485
572.000	357.218	80.004	19.994	103.155	19.913	6.300	0.488
572.500	357.463	80.003	19.996	103.152	19.913	6.310	0.490
573.000	357.704	80.004	19.994	103.150	19.916	6.089	0.490
573.500	357.946	80.003	19.995	103.149	19.913	6.322	0.485
574.000	358.217	80.005	19.994	103.146	19.913	6.311	0.498
574.500	358.429	80.003	19.995	103.147	19.913	6.316	0.498
575.000	358.707	80.004	19.994	103.145	19.912	6.342	0.486
575.500	358.921	80.005	19.994	103.143	19.910	6.537	0.491
576.000	359.175	80.003	19.994	103.146	19.913	6.276	0.480
576.500	359.423	80.005	19.994	103.149	19.911	6.421	0.486
577.001	359.652	80.003	19.994	103.153	19.908	6.634	0.490
577.500	359.890	80.006	19.994	103.159	19.910	6.492	0.472
578.000	360.142	80.004	19.994	103.164	19.913	6.273	0.478
578.500	360.389	80.005	19.994	103.166	19.909	6.564	0.494
579.000	360.643	80.007	19.993	103.168	19.914	6.208	0.500
579.500	360.903	80.003	19.994	103.169	19.913	6.266	0.507
580.000	361.162	80.005	19.993	103.168	19.913	6.281	0.516
580.500	361.382	80.004	19.994	103.165	19.910	6.496	0.499
581.000	361.629	80.003	19.994	103.162	19.914	6.242	0.473
581.500	361.853	80.004	19.994	103.162	19.909	6.561	0.469
582.000	362.119	80.004	19.994	103.161	19.911	6.464	0.480
582.500	362.327	80.004	19.993	103.161	19.911	6.453	0.482
583.000	362.564	80.005	19.994	103.164	19.909	6.551	0.460
583.500	362.816	80.006	19.994	103.167	19.913	6.304	0.467
584.000	363.065	80.005	19.994	103.164	19.911	6.406	0.495
584.500	363.341	80.005	19.995	103.164	19.911	6.421	0.513
585.000	363.561	80.006	19.994	103.159	19.911	6.425	0.511
585.500	363.802	80.003	19.993	103.155	19.910	6.499	0.479
586.000	364.051	80.004	19.994	103.156	19.911	6.414	0.476
586.500	364.312	80.004	19.993	103.158	19.912	6.363	0.500
587.000	364.532	80.005	19.994	103.159	19.912	6.364	0.495
587.500	364.792	80.004	19.993	103.163	19.912	6.364	0.480
588.000	365.026	80.004	19.994	103.162	19.912	6.377	0.487
588.500	365.261	80.004	19.994	103.156	19.911	6.458	0.482
589.000	365.486	80.002	19.994	103.151	19.913	6.312	0.465
589.500	365.757	80.004	19.994	103.150	19.912	6.389	0.478
590.000	365.990	80.005	19.994	103.146	19.912	6.393	0.500
590.500	366.255	80.005	19.994	103.147	19.914	6.232	0.502
591.000	366.475	80.004	19.994	103.146	19.912	6.338	0.492
591.500	366.679	80.005	19.994	103.150	19.909	6.553	0.454
592.000	366.952	80.004	19.993	103.152	19.909	6.558	0.450
592.500	367.195	80.004	19.994	103.153	19.909	6.560	0.496
593.000	367.445	80.004	19.995	103.151	19.910	6.508	0.505
593.500	367.681	80.005	19.994	103.152	19.908	6.633	0.490
594.000	367.916	80.003	19.994	103.150	19.913	6.271	0.479
594.500	368.166	80.002	19.994	103.144	19.910	6.512	0.478
595.000	368.416	80.004	19.995	103.142	19.912	6.390	0.492
595.500	368.646	80.003	19.994	103.148	19.912	6.375	0.490
596.000	368.885	80.004	19.994	103.150	19.911	6.407	0.474
596.500	369.140	80.004	19.994	103.148	19.908	6.631	0.482
597.000	369.356	80.003	19.994	103.151	19.912	6.370	0.483
597.500	369.632	80.005	19.994	103.154	19.909	6.557	0.482
598.000	369.870	80.003	19.995	103.151	19.907	6.717	0.503
598.501	370.127	80.005	19.994	103.148	19.908	6.663	0.505
599.001	370.357	80.004	19.994	103.148	19.910	6.488	0.491
599.501	370.631	80.004	19.994	103.145	19.910	6.516	0.496
600.001	370.866	80.004	19.994	103.140	19.910	6.484	0.506
600.500	371.126	80.002	19.994	103.139	19.909	6.599	0.502
601.000	371.320	80.003	19.994	103.139	19.909	6.606	0.475
601.500	371.597	80.005	19.993	103.139	19.910	6.508	0.463
602.000	371.837	80.003	19.994	103.139	19.910	6.527	0.494
602.500	372.091	80.004	19.994	103.140	19.906	6.770	0.506
603.000	372.352	80.004	19.993	103.138	19.907	6.698	0.504
603.501	372.580	80.003	19.993	103.141	19.903	6.978	0.502
604.000	372.843	80.004	19.995	103.144	19.908	6.643	0.490
604.500	373.081	80.005	19.995	103.145	19.907	6.721	0.496
605.000	373.315	80.004	19.994	103.147	19.905	6.852	0.487
605.500	373.566	80.005	19.994	103.150	19.904	6.919	0.478
606.000	373.796	80.004	19.994	103.150	19.906	6.776	0.482
606.500	374.063	80.005	19.994	103.148	19.906	6.820	0.489
607.000	374.304	80.004	19.994	103.150	19.905	6.878	0.503
607.500	374.514	80.005	19.993	103.153	19.906	6.784	0.480
608.000	374.777	80.006	19.993	103.156	19.907	6.747	0.462
608.500	375.048	80.006	19.994	103.158	19.907	6.717	0.503
609.000	375.294	80.005	19.994	103.158	19.902	7.083	0.525
609.500	375.536	80.005	19.994	103.153	19.903	6.984	0.503
610.000	375.762	80.005	19.994	103.148	19.904	6.953	0.478
610.500	375.988	80.006	19.994	103.142	19.904	6.929	0.460
611.000	376.239	80.006	19.994	103.138	19.903	6.986	0.464
611.500	376.500	80.005	19.993	103.138	19.903	6.971	0.494
612.000	376.769	80.007	19.994	103.141	19.902	7.036	0.521
612.500	377.002	80.006	19.994	103.145	19.902	7.052	0.516
613.000	377.234	80.007	19.993	103.151	19.905	6.845	0.484
613.500	377.484	80.004	19.993	103.154	19.899	7.287	0.474
614.000	377.738	80.006	19.992	103.157	19.900	7.207	0.493
614.500	377.973	80.006	19.993	103.161	19.903	7.002	0.497
615.000	378.202	80.006	19.994	103.163	19.903	7.002	0.477
615.500	378.474	80.007	19.993	103.161	19.903	6.998	0.483
616.000	378.702	80.005	19.994	103.159	19.904	6.937	0.500
616.500	378.976	80.005	19.993	103.158	19.902	7.080	0.501
617.000	379.188	80.006	19.994	103.153	19.904	6.922	0.494
617.501	379.438	80.005	19.994	103.154	19.902	7.093	0.474
618.000	379.658	80.004	19.994	103.153	19.905	6.859	0.466
618.500	379.941	80.004	19.994	103.158	19.904	6.940	0.486
619.000	380.175	80.006	19.994	103.162	19.904	6.950	0.510
619.500	380.412	80.004	19.992	103.167	19.902	7.074	0.494
620.000	380.699	80.005	19.994	103.167	19.901	7.104	0.497
620.500	380.954	80.003	19.994	103.167	19.901	7.122	0.533
621.001	381.192	80.005	19.993	103.165	19.899	7.269	0.518
621.500	381.480	80.004	19.993	103.164	19.902	7.085	0.509
622.000	381.737	80.005	19.994	103.161	19.902	7.037	0.536
622.500	381.943	80.005	19.994	103.160	19.901	7.122	0.504
623.000	382.190	80.005	19.993	103.162	19.907	6.727	0.458
623.500	382.475	80.003	19.995	103.158	19.905	6.879	0.493
624.000	382.719	80.005	19.994	103.156	19.904	6.945	0.531
624.500	382.947	80.005	19.994	103.153	19.903	7.024	0.500
625.000	383.216	80.003	19.994	103.149	19.901	7.148	0.484
625.500	383.463	80.004	19.994	103.149	19.903	6.994	0.507
626.000	383.723	80.006	19.994	103.150	19.902	7.038	0.512
626.500	383.935	80.005	19.995	103.148	19.905	6.879	0.489
627.000	384.210	80.005	19.994	103.150	19.903	6.977	0.480
627.500	384.469	80.004	19.994	103.150	19.902	7.077	0.511
628.000	384.710	80.005	19.994	103.151	19.900	7.240	0.517
628.500	384.968	80.005	19.994	103.152	19.900	7.175	0.499
629.000	385.254	80.006	19.994	103.152	19.901	7.138	0.522
629.500	385.483	80.006	19.994	103.149	19.898	7.329	0.530
630.000	385.749	80.006	19.994	103.147	19.898	7.342	0.505
630.500	385.992	80.006	19.994	103.146	19.900	7.227	0.502
631.000	386.252	80.005	19.995	103.148	19.900	7.214	0.506
631.500	386.496	80.006	19.995	103.152	19.896	7.507	0.504
632.000	386.768	80.007	19.995	103.156	19.900	7.196	0.510
632.500	387.040	80.005	19.994	103.155	19.898	7.320	0.530
633.000	387.247	80.004	19.994	103.151	19.898	7.325	0.511
633.500	387.533	80.007	19.994	103.146	19.899	7.256	0.486
634.000	387.771	80.006	19.994	103.141	19.894	7.656	0.509
634.500	388.039	80.007	19.994	103.137	19.897	7.399	0.515
635.000	388.297	80.006	19.995	103.141	19.898	7.336	0.516
635.500	388.534	80.007	19.994	103.144	19.895	7.540	0.511
636.000	388.803	80.007	19.994	103.144	19.894	7.633	0.501
636.500	389.061	80.006	19.994	103.144	19.895	7.522	0.517
637.000	389.325	80.006	19.993	103.143	19.896	7.475	0.525
637.500	389.574	80.005	19.994	103.139	19.897	7.414	0.517
638.000	389.799	80.006	19.994	103.134	19.898	7.377	0.493
638.500	390.073	80.007	19.995	103.134	19.894	7.629	0.487
639.000	390.317	80.008	19.994	103.134	19.895	7.538	0.508
639.500	390.541	80.008	19.996	103.134	19.893	7.692	0.493
640.000	390.853	80.007	19.995	103.135	19.894	7.593	0.502
640.500	391.114	80.006	19.994	103.135	19.897	7.394	0.555
641.000	391.363	80.007	19.993	103.135	19.895	7.589	0.542
641.500	391.582	80.007	19.994	103.135	19.894	7.623	0.489
642.000	391.894	80.006	19.994	103.138	19.893	7.715	0.499
642.500	392.108	80.004	19.993	103.139	19.892	7.799	0.528
643.000	392.360	80.006	19.995	103.140	19.893	7.701	0.496
643.500	392.625	80.006	19.994	103.139	19.892	7.738	0.492
644.000	392.890	80.005	19.994	103.138	19.892	7.789	0.523
644.500	393.146	80.005	19.994	103.135	19.890	7.926	0.525
645.000	393.378	80.006	19.994	103.133	19.888	8.065	0.505
645.500	393.593	80.006	19.994	103.133	19.891	7.828	0.468
646.000	393.874	80.006	19.994	103.134	19.889	7.943	0.471
646.500	394.141	80.004	19.994	103.135	19.892	7.778	0.522
647.000	394.445	80.004	19.994	103.137	19.891	7.853	0.559
647.500	394.663	80.003	19.994	103.140	19.890	7.917	0.547
648.000	394.972	80.005	19.995	103.141	19.890	7.923	0.525
648.500	395.154	80.005	19.995	103.141	19.891	7.826	0.509
649.000	395.435	80.005	19.994	103.140	19.890	7.926	0.477
649.500	395.711	80.004	19.995	103.140	19.889	8.006	0.509
650.000	395.939	80.004	19.994	103.137	19.888	8.022	0.531
650.500	396.201	80.004	19.994	103.140	19.888	8.061	0.497
651.000	396.479	80.003	19.994	103.146	19.885	8.248	0.515
651.500	396.721	80.004	19.994	103.146	19.887	8.146	0.530
652.000	396.977	80.005	19.994	103.149	19.887	8.103	0.509
652.500	397.205	80.003	19.994	103.152	19.886	8.181	0.491
653.000	397.448	80.005	19.994	103.151	19.887	8.111	0.478
653.500	397.708	80.003	19.994	103.150	19.884	8.331	0.487
654.000	397.986	80.004	19.994	103.153	19.886	8.209	0.520
654.501	398.249	80.003	19.994	103.152	19.884	8.293	0.540
655.000	398.511	80.004	19.995	103.151	19.885	8.224	0.533
655.500	398.766	80.004	19.994	103.149	19.884	8.346	0.521
656.001	398.997	80.004	19.995	103.147	19.884	8.344	0.502
656.500	399.299	80.004	19.994	103.149	19.883	8.368	0.510
657.000	399.541	80.003	19.994	103.151	19.882	8.472	0.539
657.500	399.824	80.003	19.994	103.151	19.882	8.442	0.534
658.000	400.009	80.003	19.994	103.152	19.881	8.555	0.496
658.500	400.296	80.004	19.995	103.152	19.882	8.452	0.470
659.000	400.529	80.004	19.995	103.148	19.883	8.381	0.496
659.500	400.780	80.002	19.993	103.145	19.881	8.518	0.502
660.000	401.060	80.004	19.995	103.142	19.883	8.416	0.507
660.500	401.333	80.004	19.994	103.142	19.877	8.783	0.542
661.000	401.597	80.004	19.994	103.142	19.877	8.806	0.546
661.500	401.838	80.003	19.995	103.140	19.879	8.705	0.521
662.000	402.145	80.003	19.995	103.138	19.880	8.596	0.526
662.500	402.399	80.005	19.995	103.139	19.878	8.726	0.554
663.000	402.654	80.003	19.995	103.137	19.877	8.830	0.535
663.500	402.855	80.004	19.994	103.135	19.877	8.813	0.482
664.000	403.179	80.003	19.995	103.136	19.880	8.622	0.490
664.500	403.394	80.004	19.996	103.137	19.880	8.600	0.532
665.000	403.657	80.003	19.996	103.139	19.877	8.802	0.509
665.500	403.916	80.004	19.996	103.140	19.876	8.885	0.500
666.000	404.164	80.004	19.996	103.139	19.875	8.930	0.515
666.500	404.423	80.004	19.995	103.138	19.874	9.005	0.507
667.000	404.655	80.003	19.995	103.136	19.877	8.817	0.499
667.500	404.920	80.004	19.994	103.134	19.876	8.901	0.494
668.001	405.208	80.004	19.994	103.133	19.874	9.031	0.525
668.501	405.425	80.005	19.994	103.135	19.874	9.034	0.529
669.001	405.694	80.003	19.995	103.135	19.873	9.060	0.495
669.500	405.915	80.004	19.995	103.135	19.871	9.217	0.487
670.000	406.206	80.004	19.994	103.135	19.872	9.171	0.501
670.500	406.470	80.004	19.994	103.136	19.872	9.195	0.534
671.000	406.706	80.004	19.993	103.135	19.871	9.258	0.528
671.500	406.948	80.005	19.994	103.135	19.868	9.449	0.489
672.000	407.236	80.004	19.993	103.135	19.870	9.316	0.504
672.500	407.461	80.005	19.994	103.135	19.870	9.327	0.521
673.000	407.755	80.004	19.994	103.137	19.867	9.486	0.516
673.500	407.985	80.004	19.994	103.138	19.865	9.661	0.521
674.000	408.270	80.006	19.995	103.138	19.866	9.553	0.520
674.500	408.516	80.004	19.994	103.139	19.867	9.486	0.523
675.000	408.737	80.004	19.994	103.139	19.863	9.766	0.499
675.500	408.991	80.005	19.994	103.137	19.863	9.783	0.471
676.000	409.263	80.006	19.994	103.136	19.864	9.753	0.501
676.500	409.505	80.005	19.994	103.136	19.864	9.711	0.520
677.000	409.782	80.004	19.993	103.143	19.866	9.601	0.517
677.500	410.020	80.004	19.994	103.144	19.867	9.546	0.517
678.000	410.276	80.004	19.995	103.145	19.867	9.545	0.504
678.500	410.548	80.004	19.993	103.145	19.865	9.673	0.510
679.000	410.786	80.004	19.993	103.145	19.862	9.860	0.519
679.500	411.076	80.005	19.994	103.138	19.864	9.751	0.520
680.000	411.304	80.004	19.993	103.137	19.858	10.125	0.523
680.500	411.578	80.003	19.994	103.137	19.860	10.003	0.510
681.000	411.841	80.002	19.993	103.137	19.858	10.159	0.519
681.500	412.068	80.003	19.995	103.139	19.859	10.036	0.513
682.000	412.329	80.003	19.994	103.140	19.861	9.964	0.489
682.500	412.600	80.003	19.993	103.142	19.859	10.093	0.510
683.000	412.846	80.004	19.994	103.144	19.856	10.260	0.525
683.500	413.057	80.003	19.994	103.145	19.854	10.427	0.487
684.000	413.344	80.003	19.994	103.145	19.857	10.186	0.478
684.500	413.565	80.002	19.994	103.144	19.855	10.325	0.504
685.000	413.813	80.003	19.994	103.143	19.852	10.577	0.489
685.500	414.080	80.003	19.995	103.141	19.851	10.608	0.492
686.000	414.356	80.004	19.994	103.140	19.855	10.351	0.529
686.500	414.566	80.004	19.994	103.143	19.852	10.592	0.514
687.000	414.845	80.004	19.995	103.143	19.851	10.638	0.487
687.500	415.063	80.004	19.993	103.143	19.852	10.531	0.493
688.000	415.348	80.003	19.994	103.142	19.849	10.790	0.500
688.500	415.586	80.002	19.994	103.142	19.850	10.679	0.513
689.000	415.869	80.003	19.994	103.138	19.849	10.777	0.522
689.500	416.099	80.003	19.994	103.138	19.848	10.835	0.517
690.000	416.342	80.004	19.994	103.138	19.846	10.965	0.493
690.500	416.577	80.005	19.993	103.139	19.847	10.915	0.475
691.000	416.856	80.004	19.994	103.139	19.844	11.084	0.496
691.500	417.126	80.006	19.995	103.138	19.845	11.017	0.531
692.000	417.387	80.005	19.993	103.138	19.845	11.054	0.540
692.500	417.630	80.005	19.994	103.138	19.848	10.850	0.518
693.000	417.924	80.005	19.994	103.137	19.846	10.977	0.521
693.500	418.182	80.005	19.994	103.136	19.842	11.239	0.545
694.000	418.380	80.006	19.993	103.136	19.843	11.183	0.504
694.500	418.650	80.007	19.994	103.135	19.842	11.240	0.462
695.000	418.874	80.006	19.994	103.133	19.843	11.181	0.481
695.500	419.135	80.005	19.994	103.133	19.842	11.244	0.490
696.000	419.398	80.006	19.994	103.133	19.841	11.329	0.505
696.500	419.664	80.005	19.994	103.133	19.841	11.294	0.526
697.000	419.904	80.005	19.994	103.134	19.836	11.643	0.517
697.500	420.159	80.003	19.995	103.134	19.837	11.600	0.501
698.000	420.392	80.005	19.994	103.134	19.840	11.428	0.492
698.500	420.678	80.006	19.994	103.135	19.839	11.495	0.503
699.000	420.916	80.006	19.994	103.137	19.837	11.578	0.522
699.500	421.176	80.005	19.993	103.136	19.838	11.524	0.511
700.000	421.431	80.006	19.993	103.137	19.836	11.692	0.506
700.501	421.716	80.005	19.994	103.140	19.832	11.935	0.528
701.000	421.929	80.005	19.995	103.141	19.837	11.629	0.519
701.500	422.204	80.006	19.994	103.141	19.834	11.830	0.493
702.000	422.408	80.006	19.994	103.141	19.832	11.980	0.484
702.500	422.701	80.005	19.993	103.142	19.834	11.804	0.488
703.000	422.931	80.005	19.994	103.138	19.831	11.992	0.510
703.500	423.196	80.005	19.994	103.137	19.831	12.016	0.509
704.000	423.428	80.005	19.995	103.135	19.828	12.246	0.496
704.500	423.711	80.006	19.994	103.135	19.827	12.283	0.506
705.000	423.980	80.005	19.994	103.134	19.825	12.447	0.534
705.500	424.177	80.006	19.993	103.134	19.824	12.523	0.509
706.000	424.466	80.005	19.994	103.135	19.824	12.503	0.476
706.500	424.758	80.006	19.994	103.135	19.822	12.673	0.534
707.000	425.024	80.006	19.993	103.135	19.820	12.767	0.569
707.500	425.278	80.005	19.994	103.136	19.821	12.726	0.539
708.000	425.534	80.005	19.994	103.137	19.822	12.662	0.515
708.500	425.751	80.004	19.994	103.137	19.817	13.003	0.492
709.000	426.035	80.006	19.994	103.137	19.814	13.190	0.487
709.500	426.266	80.005	19.994	103.137	19.814	13.230	0.508
710.000	426.566	80.006	19.994	103.136	19.817	13.018	0.523
710.500	426.784	80.005	19.994	103.135	19.813	13.281	0.524
711.000	427.052	80.005	19.994	103.135	19.812	13.365	0.502
711.500	427.306	80.006	19.994	103.135	19.811	13.432	0.504
712.000	427.566	80.006	19.994	103.135	19.809	13.588	0.518
712.500	427.821	80.007	19.994	103.136	19.810	13.510	0.514
713.000	428.095	80.006	19.994	103.138	19.807	13.672	0.522
713.500	428.376	80.007	19.995	103.140	19.807	13.686	0.542
714.000	428.577	80.007	19.994	103.144	19.805	13.872	0.518
714.500	428.869	80.007	19.994	103.143	19.801	14.136	0.488
715.000	429.126	80.007	19.994	103.143	19.804	13.942	0.521
715.500	429.396	80.007	19.995	103.142	19.802	14.016	0.538
716.000	429.609	80.007	19.994	103.141	19.800	14.159	0.505
716.500	429.903	80.006	19.995	103.138	19.798	14.319	0.495
717.000	430.132	80.007	19.994	103.138	19.798	14.344	0.515
717.500	430.415	80.007	19.994	103.137	19.794	14.572	0.518
718.000	430.651	80.007	19.994	103.135	19.795	14.540	0.516
718.500	430.879	80.008	19.994	103.135	19.795	14.544	0.492
719.000	431.149	80.008	19.994	103.135	19.794	14.596	0.481
719.500	431.396	80.007	19.995	103.134	19.791	14.808	0.508
720.000	431.649	80.007	19.994	103.134	19.790	14.891	0.509
720.500	431.913	80.007	19.995	103.134	19.790	14.854	0.509
721.000	432.160	80.007	19.994	103.136	19.792	14.758	0.514
721.500	432.377	80.006	19.994	103.139	19.783	15.362	0.487
722.000	432.675	80.006	19.994	103.145	19.787	15.074	0.490
722.500	432.942	80.006	19.994	103.146	19.784	15.299	0.540
723.000	433.159	80.006	19.994	103.145	19.777	15.805	0.524
723.501	433.419	80.006	19.995	103.144	19.787	15.085	0.481
724.001	433.692	80.005	19.995	103.139	19.788	14.994	0.505
724.501	433.950	80.007	19.995	103.133	19.780	15.604	0.532
725.000	434.219	80.005	19.995	103.136	19.779	15.622	0.529
725.500	434.469	80.004	19.995	103.144	19.785	15.221	0.523
726.000	434.761	80.006	19.995	103.145	19.781	15.508	0.531
726.500	434.976	80.006	19.994	103.146	19.770	16.288	0.525
727.000	435.173	80.006	19.995	103.146	19.775	15.940	0.459
727.500	435.489	80.005	19.995	103.143	19.759	17.072	0.462
728.000	435.707	80.005	19.995	103.135	19.757	17.196	0.523
728.500	435.980	80.004	19.994	103.134	19.761	16.881	0.513
729.000	436.274	80.004	19.994	103.134	19.766	16.579	0.529
729.500	436.487	80.004	19.995	103.135	19.760	16.968	0.537
730.000	436.803	80.004	19.995	103.136	19.757	17.213	0.518
730.500	437.011	80.003	19.994	103.136	19.756	17.246	0.527
731.000	437.287	80.003	19.996	103.137	19.757	17.217	0.504
731.500	437.473	80.004	19.996	103.138	19.754	17.369	0.473
732.000	437.771	80.003	19.995	103.137	19.754	17.407	0.473
732.500	437.996	80.002	19.993	103.136	19.748	17.839	0.503
733.000	438.325	80.002	19.996	103.136	19.747	17.895	0.539
733.501	438.657	80.004	19.994	103.136	19.743	18.180	0.608
734.000	438.714	80.004	19.994	103.139	19.747	17.897	0.524
734.500	439.158	80.004	19.994	103.142	19.746	17.956	0.445
735.000	439.355	80.003	19.994	103.142	19.741	18.338	0.572
735.500	439.588	80.003	19.994	103.142	19.742	18.223	0.536
736.000	439.748	80.004	19.994	103.142	19.740	18.368	0.411
736.500	440.071	80.003	19.994	103.140	19.740	18.396	0.438
737.000	440.327	80.003	19.994	103.137	19.736	18.634	0.531
737.500	440.996	80.004	19.995	103.137	19.736	18.654	0.752
738.000	441.235	80.004	19.994	103.137	19.732	18.908	0.916
738.500	441.601	80.003	19.995	103.136	19.731	19.003	0.757
739.000	441.805	80.004	19.995	103.135	19.728	19.189	0.588
739.500	441.897	80.005	19.994	103.136	19.727	19.299	0.433
740.000	442.031	80.004	19.994	103.135	19.725	19.395	0.261
740.500	442.272	80.005	19.995	103.136	19.723	19.530	0.301
741.000	442.431	80.002	19.995	103.136	19.722	19.650	0.388
741.500	442.671	80.003	19.994	103.136	19.718	19.900	0.399
742.000	442.557	80.004	19.994	103.136	19.717	19.959	0.263
742.500	442.767	80.003	19.994	103.137	19.713	20.256	0.112
743.000	443.623	80.005	19.993	103.135	19.712	20.303	0.581
743.500	443.570	80.002	19.994	103.135	19.710	20.475	0.934
744.000	443.828	80.003	19.994	103.136	19.709	20.520	0.504
744.500	444.199	80.003	19.994	103.136	19.706	20.721	0.417
745.000	444.301	80.002	19.994	103.136	19.707	20.685	0.551
745.500	444.744	80.002	19.994	103.137	19.703	20.941	0.509
746.000	444.911	80.002	19.995	103.138	19.700	21.148	0.577
746.500	445.136	80.004	19.995	103.137	19.698	21.328	0.501
747.000	445.446	80.003	19.995	103.139	19.697	21.362	0.464
747.500	445.662	80.002	19.994	103.144	19.696	21.474	0.530
748.000	445.935	80.002	19.995	103.144	19.695	21.534	0.507
748.500	446.234	80.003	19.995	103.146	19.690	21.834	0.531
749.000	446.453	80.004	19.994	103.146	19.688	22.038	0.546
749.500	446.708	80.004	19.994	103.148	19.688	22.036	0.496
750.000	446.978	80.003	19.993	103.142	19.684	22.251	0.500
750.500	447.284	80.003	19.995	103.142	19.685	22.197	0.550
751.000	447.443	80.002	19.996	103.140	19.679	22.659	0.520
751.500	447.787	80.002	19.996	103.140	19.675	22.892	0.484
752.000	448.016	80.003	19.996	103.137	19.675	22.887	0.538
752.500	448.251	80.003	19.995	103.137	19.671	23.187	0.518
753.000	448.540	80.002	19.996	103.138	19.670	23.272	0.494
753.500	448.800	80.003	19.995	103.141	19.668	23.370	0.537
754.000	449.039	80.002	19.996	103.142	19.662	23.819	0.525
754.500	449.330	80.003	19.995	103.141	19.662	23.809	0.515
755.000	449.589	80.003	19.995	103.141	19.660	23.980	0.540
755.500	449.823	80.002	19.996	103.140	19.657	24.177	0.522
756.000	450.102	80.004	19.995	103.141	19.654	24.404	0.503
756.500	450.368	80.002	19.996	103.143	19.652	24.551	0.529
757.000	450.626	80.003	19.995	103.144	19.649	24.740	0.535
757.500	450.866	80.003	19.994	103.144	19.649	24.737	0.511
758.001	451.156	80.003	19.995	103.144	19.646	24.942	0.514
758.501	451.385	80.003	19.995	103.141	19.640	25.343	0.525
759.000	451.668	80.003	19.995	103.136	19.640	25.359	0.516
759.500	451.935	80.003	19.995	103.135	19.643	25.171	0.531
760.000	452.217	80.002	19.995	103.134	19.633	25.873	0.550
760.500	452.457	80.004	19.996	103.133	19.633	25.854	0.535
761.000	452.700	80.004	19.995	103.133	19.629	26.145	0.502
761.500	452.987	80.004	19.994	103.133	19.628	26.171	0.507
762.000	453.258	80.002	19.994	103.134	19.625	26.431	0.544
762.500	453.474	80.004	19.994	103.135	19.623	26.552	0.522
763.000	453.788	80.003	19.995	103.138	19.621	26.709	0.509
763.501	454.006	80.003	19.995	103.143	19.619	26.837	0.531
764.001	454.313	80.003	19.994	103.144	19.618	26.907	0.528
764.500	454.599	80.004	19.995	103.143	19.615	27.085	0.559
765.000	454.805	80.003	19.994	103.143	19.618	26.878	0.542
765.500	455.065	80.003	19.994	103.142	19.614	27.189	0.479
766.000	455.376	80.005	19.995	103.144	19.612	27.320	0.519
766.500	455.604	80.002	19.993	103.148	19.609	27.493	0.555
767.000	455.850	80.006	19.993	103.151	19.606	27.730	0.507
767.500	456.169	80.004	19.993	103.153	19.606	27.758	0.520
768.000	456.385	80.003	19.994	103.153	19.607	27.687	0.550
768.500	456.676	80.004	19.994	103.148	19.603	27.928	0.520
769.000	456.910	80.003	19.993	103.143	19.604	27.872	0.515
769.500	457.192	80.005	19.994	103.139	19.599	28.200	0.521
770.000	457.432	80.004	19.994	103.137	19.601	28.063	0.519
770.500	457.682	80.004	19.995	103.135	19.595	28.471	0.506
771.000	457.919	80.005	19.993	103.133	19.595	28.486	0.488
771.500	458.215	80.004	19.995	103.132	19.594	28.593	0.511
772.000	458.471	80.006	19.994	103.132	19.593	28.636	0.543
772.500	458.722	80.005	19.993	103.133	19.589	28.910	0.529
773.000	458.980	80.004	19.995	103.133	19.592	28.730	0.508
773.500	459.246	80.004	19.994	103.135	19.587	29.064	0.517
774.000	459.481	80.006	19.994	103.134	19.585	29.177	0.513
774.500	459.751	80.005	19.994	103.135	19.585	29.216	0.503
775.000	460.025	80.006	19.993	103.134	19.584	29.277	0.524
775.500	460.268	80.006	19.993	103.134	19.582	29.401	0.530
776.000	460.530	80.005	19.994	103.134	19.582	29.413	0.511
776.500	460.835	80.006	19.992	103.134	19.582	29.389	0.536
777.000	461.030	80.005	19.993	103.133	19.583	29.337	0.534
777.500	461.284	80.005	19.994	103.133	19.580	29.561	0.475
778.000	461.571	80.005	19.994	103.133	19.578	29.681	0.495
778.500	461.854	80.005	19.994	103.133	19.580	29.509	0.556
779.000	462.089	80.006	19.994	103.133	19.576	29.803	0.544
779.500	462.353	80.006	19.994	103.132	19.578	29.690	0.508
780.000	462.605	80.005	19.995	103.132	19.576	29.848	0.508
780.500	462.858	80.006	19.993	103.132	19.577	29.766	0.511
781.000	463.144	80.005	19.994	103.131	19.577	29.742	0.522
781.500	463.368	80.006	19.993	103.132	19.575	29.916	0.524
782.000	463.644	80.005	19.993	103.132	19.575	29.898	0.505
782.500	463.871	80.005	19.994	103.132	19.574	29.985	0.501
783.000	464.152	80.005	19.992	103.133	19.574	29.955	0.505
783.500	464.425	80.006	19.994	103.133	19.572	30.119	0.531
784.000	464.618	80.006	19.994	103.133	19.569	30.338	0.511
784.500	464.887	80.007	19.993	103.134	19.571	30.138	0.464
785.000	465.127	80.005	19.996	103.134	19.571	30.205	0.485
785.500	465.379	80.006	19.996	103.134	19.571	30.177	0.500
786.000	465.618	80.006	19.994	103.134	19.571	30.186	0.492
786.500	465.892	80.005	19.994	103.134	19.570	30.245	0.502
787.000	466.190	80.005	19.994	103.134	19.570	30.260	0.542
787.500	466.422	80.004	19.994	103.135	19.572	30.121	0.551
788.000	466.661	80.006	19.994	103.134	19.571	30.201	0.500
788.500	466.961	80.004	19.996	103.134	19.571	30.186	0.505
789.000	467.172	80.005	19.994	103.133	19.571	30.142	0.525
789.500	467.426	80.005	19.994	103.132	19.572	30.103	0.488
790.000	467.675	80.005	19.994	103.132	19.572	30.112	0.484
790.500	467.948	80.005	19.994	103.132	19.571	30.160	0.513
791.000	468.198	80.005	19.995	103.133	19.570	30.220	0.523
791.500	468.403	80.005	19.992	103.134	19.572	30.082	0.489
792.000	468.718	80.004	19.996	103.132	19.574	29.962	0.487
792.500	468.973	80.005	19.995	103.132	19.574	29.938	0.545
793.000	469.220	80.005	19.993	103.132	19.575	29.914	0.536
793.500	469.477	80.005	19.995	103.132	19.577	29.754	0.504
794.000	469.757	80.005	19.993	103.132	19.574	29.956	0.521
794.501	469.988	80.005	19.993	103.135	19.575	29.888	0.524
795.000	470.216	80.005	19.995	103.136	19.579	29.643	0.485
795.500	470.494	80.005	19.994	103.137	19.578	29.654	0.483
796.000	470.719	80.005	19.994	103.136	19.581	29.463	0.505
796.500	470.998	80.005	19.995	103.136	19.582	29.417	0.504
797.000	471.265	80.007	19.994	103.136	19.583	29.363	0.525
797.500	471.525	80.006	19.993	103.136	19.582	29.437	0.537
798.000	471.740	80.007	19.993	103.135	19.584	29.265	0.501
798.500	472.010	80.006	19.994	103.136	19.584	29.232	0.480
799.000	472.227	80.007	19.993	103.136	19.585	29.182	0.486
799.500	472.502	80.005	19.993	103.136	19.585	29.193	0.490
800.000	472.755	80.006	19.992	103.137	19.583	29.343	0.510
800.500	473.003	80.006	19.992	103.137	19.585	29.180	0.514
801.000	473.239	80.007	19.993	103.137	19.588	28.954	0.492
801.500	473.564	80.007	19.993	103.137	19.589	28.943	0.522
802.000	473.827	80.007	19.994	103.137	19.590	28.844	0.574
802.500	474.063	80.006	19.993	103.136	19.591	28.774	0.544
803.000	474.358	80.007	19.994	103.136	19.593	28.659	0.516
803.500	474.603	80.007	19.994	103.137	19.594	28.555	0.536
804.000	474.846	80.009	19.994	103.137	19.595	28.468	0.514
804.500	475.131	80.007	19.994	103.137	19.595	28.520	0.508
805.000	475.377	80.006	19.994	103.137	19.600	28.141	0.529
805.500	475.644	80.007	19.994	103.137	19.600	28.135	0.522
806.000	475.955	80.007	19.994	103.136	19.600	28.148	0.546
806.500	476.162	80.006	19.994	103.136	19.598	28.309	0.548
807.000	476.419	80.006	19.993	103.135	19.601	28.113	0.491
807.500	476.659	80.007	19.993	103.135	19.602	27.977	0.481
808.000	476.928	80.006	19.992	103.136	19.602	27.994	0.503
808.500	477.182	80.005	19.993	103.136	19.604	27.872	0.516
809.000	477.443	80.006	19.993	103.136	19.607	27.626	0.519
809.500	477.726	80.006	19.993	103.137	19.610	27.478	0.530
810.000	477.933	80.007	19.992	103.136	19.609	27.515	0.517
810.500	478.232	80.006	19.993	103.135	19.613	27.241	0.498
811.000	478.520	80.006	19.993	103.135	19.616	27.031	0.546
811.500	478.802	80.004	19.993	103.135	19.619	26.854	0.579
812.000	479.045	80.005	19.993	103.136	19.622	26.632	0.547
812.500	479.328	80.005	19.993	103.136	19.621	26.708	0.525
813.000	479.564	80.004	19.993	103.136	19.622	26.607	0.523
813.500	479.781	80.005	19.994	103.136	19.625	26.372	0.486
814.000	480.104	80.002	19.994	103.137	19.624	26.481	0.496
814.500	480.326	80.003	19.994	103.136	19.627	26.246	0.543
815.000	480.578	80.002	19.993	103.136	19.628	26.183	0.510
815.500	480.847	80.004	19.992	103.136	19.631	25.986	0.497
816.000	481.106	80.003	19.994	103.138	19.635	25.715	0.524
816.500	481.392	80.004	19.994	103.138	19.633	25.838	0.536
817.000	481.605	80.003	19.994	103.139	19.635	25.693	0.522
817.500	481.908	80.004	19.994	103.139	19.635	25.723	0.507
818.000	482.177	80.002	19.995	103.139	19.638	25.499	0.544
818.500	482.412	80.002	19.995	103.137	19.641	25.267	0.538
819.000	482.647	80.003	19.992	103.138	19.642	25.191	0.487
819.500	482.925	80.003	19.996	103.138	19.644	25.049	0.492
820.000	483.142	80.003	19.995	103.141	19.647	24.841	0.504
820.500	483.376	80.003	19.995	103.141	19.645	25.023	0.473
821.000	483.688	80.003	19.995	103.141	19.647	24.895	0.499
821.500	483.933	80.003	19.995	103.140	19.651	24.604	0.552
822.000	484.169	80.005	19.994	103.140	19.652	24.496	0.518
822.500	484.465	80.004	19.995	103.137	19.657	24.183	0.506
823.000	484.719	80.005	19.995	103.136	19.656	24.207	0.541
823.500	484.995	80.004	19.995	103.135	19.658	24.068	0.540
824.000	485.245	80.003	19.995	103.135	19.662	23.851	0.528
824.500	485.533	80.004	19.994	103.134	19.662	23.841	0.532
825.000	485.749	80.005	19.994	103.134	19.663	23.718	0.521
825.500	486.066	80.005	19.994	103.133	19.665	23.578	0.518
826.000	486.288	80.003	19.994	103.133	19.669	23.315	0.536
826.500	486.573	80.002	19.995	103.133	19.670	23.292	0.523
827.000	486.822	80.005	19.994	103.132	19.672	23.136	0.521
827.500	487.076	80.003	19.994	103.132	19.671	23.157	0.519
828.000	487.349	80.005	19.995	103.132	19.674	23.014	0.515
828.500	487.596	80.003	19.994	103.132	19.677	22.775	0.523
829.000	487.827	80.002	19.995	103.132	19.680	22.575	0.499
829.500	488.094	80.004	19.994	103.132	19.681	22.493	0.488
830.000	488.352	80.003	19.995	103.132	19.682	22.399	0.512
830.500	488.616	80.004	19.995	103.133	19.685	22.221	0.523
831.000	488.902	80.005	19.995	103.133	19.686	22.121	0.535
831.500	489.140	80.002	19.996	103.133	19.689	21.958	0.537
832.000	489.363	80.003	19.996	103.133	19.693	21.652	0.493
832.500	489.661	80.003	19.995	103.133	19.695	21.537	0.491
833.000	489.926	80.002	19.994	103.133	19.693	21.663	0.542
833.500	490.163	80.004	19.994	103.133	19.698	21.296	0.532
834.000	490.432	80.003	19.995	103.133	19.700	21.165	0.504
834.501	490.673	80.002	19.996	103.133	19.701	21.109	0.508
835.001	490.941	80.004	19.995	103.132	19.703	20.950	0.509
835.500	491.221	80.005	19.995	103.129	19.704	20.872	0.528
836.000	491.478	80.005	19.995	103.125	19.706	20.751	0.543
836.500	491.703	80.004	19.994	103.126	19.708	20.627	0.510
837.000	491.944	80.004	19.994	103.127	19.706	20.759	0.474
837.500	492.214	80.004	19.994	103.126	19.712	20.315	0.488
838.000	492.477	80.004	19.996	103.129	19.712	20.313	0.522
838.500	492.707	80.003	19.995	103.133	19.713	20.291	0.513
839.000	493.020	80.003	19.996	103.133	19.714	20.155	0.518
839.500	493.278	80.003	19.995	103.133	19.716	20.044	0.557
840.000	493.501	80.003	19.994	103.133	19.720	19.769	0.526
840.500	493.790	80.003	19.997	103.133	19.723	19.591	0.496
841.000	494.043	80.002	19.996	103.134	19.723	19.526	0.527
841.500	494.308	80.004	19.996	103.133	19.727	19.311	0.530
842.001	494.571	80.002	19.996	103.132	19.729	19.124	0.523
842.500	494.825	80.003	19.994	103.132	19.730	19.086	0.522
843.000	495.066	80.004	19.995	103.132	19.731	18.992	0.506
843.500	495.338	80.003	19.995	103.132	19.735	18.708	0.504
844.000	495.570	80.002	19.995	103.132	19.738	18.523	0.508
844.500	495.846	80.002	19.997	103.132	19.737	18.556	0.506
845.000	496.078	80.003	19.996	103.132	19.740	18.356	0.508
845.500	496.370	80.003	19.996	103.133	19.739	18.469	0.516
846.000	496.603	80.002	19.996	103.133	19.743	18.148	0.525
846.500	496.856	80.003	19.996	103.133	19.746	17.952	0.506
847.000	497.113	80.002	19.998	103.132	19.749	17.761	0.498
847.500	497.368	80.003	19.995	103.133	19.749	17.776	0.510
848.000	497.641	80.002	19.995	103.133	19.748	17.845	0.520
848.500	497.878	80.001	19.997	103.136	19.751	17.621	0.519
849.000	498.151	80.001	19.995	103.136	19.751	17.608	0.510
849.500	498.365	80.002	19.995	103.137	19.755	17.353	0.499
850.000	498.648	80.001	19.996	103.136	19.753	17.458	0.493
850.500	498.894	80.003	19.995	103.135	19.755	17.300	0.513
851.000	499.141	80.003	19.997	103.132	19.758	17.131	0.511
851.501	499.401	80.003	19.995	103.132	19.758	17.127	0.500
852.000	499.646	80.003	19.996	103.131	19.761	16.912	0.506
852.500	499.881	80.003	19.996	103.132	19.764	16.682	0.493
853.001	500.176	80.003	19.995	103.131	19.762	16.828	0.505
853.501	500.417	80.002	19.996	103.134	19.768	16.391	0.533
854.000	500.669	80.002	19.993	103.135	19.766	16.547	0.515
854.500	500.954	80.003	19.996	103.135	19.771	16.224	0.515
855.000	501.209	80.003	19.995	103.135	19.771	16.224	0.538
855.500	501.487	80.004	19.996	103.135	19.772	16.127	0.537
856.000	501.741	80.004	19.995	103.134	19.773	16.105	0.533
856.500	502.012	80.004	19.996	103.133	19.779	15.666	0.528
857.000	502.290	80.005	19.997	103.134	19.776	15.848	0.537
857.500	502.523	80.004	19.994	103.136	19.777	15.759	0.530
858.000	502.777	80.004	19.997	103.136	19.780	15.588	0.499
858.500	503.053	80.006	19.994	103.137	19.779	15.625	0.509
859.000	503.346	80.007	19.995	103.137	19.780	15.551	0.550
859.500	503.583	80.007	19.996	103.138	19.784	15.327	0.550
860.000	503.871	80.006	19.994	103.139	19.785	15.236	0.527
860.500	504.084	80.005	19.994	103.141	19.787	15.097	0.512
861.000	504.398	80.005	19.994	103.142	19.787	15.078	0.514
861.500	504.654	80.005	19.993	103.145	19.785	15.224	0.549
862.000	504.906	80.005	19.994	103.146	19.790	14.895	0.539
862.500	505.198	80.005	19.994	103.143	19.792	14.760	0.526
863.000	505.422	80.007	19.993	103.141	19.792	14.780	0.530
863.500	505.701	80.005	19.994	103.144	19.793	14.647	0.509
864.000	505.984	80.006	19.994	103.143	19.796	14.438	0.532
864.500	506.247	80.005	19.993	103.141	19.796	14.473	0.554
865.000	506.540	80.005	19.995	103.141	19.799	14.274	0.551
865.500	506.766	80.006	19.995	103.142	19.797	14.413	0.537
866.000	507.044	80.005	19.994	103.137	19.801	14.102	0.511
866.500	507.326	80.004	19.993	103.135	19.805	13.857	0.532
867.000	507.606	80.004	19.992	103.136	19.803	13.989	0.561
867.500	507.866	80.004	19.994	103.138	19.803	13.993	0.551
868.000	508.156	80.004	19.995	103.139	19.803	13.950	0.545
868.500	508.430	80.005	19.994	103.141	19.805	13.845	0.557
869.000	508.698	80.004	19.995	103.140	19.804	13.916	0.553
869.500	508.954	80.004	19.993	103.140	19.808	13.610	0.533
870.000	509.239	80.006	19.995	103.138	19.807	13.685	0.532
870.500	509.512	80.006	19.994	103.137	19.810	13.460	0.549
871.000	509.790	80.006	19.993	103.135	19.812	13.340	0.554
871.500	510.078	80.007	19.994	103.136	19.814	13.233	0.559
872.000	510.349	80.005	19.992	103.135	19.812	13.322	0.563
872.500	510.603	80.005	19.995	103.136	19.816	13.068	0.542
873.000	510.896	80.004	19.994	103.136	19.815	13.171	0.536
873.500	511.155	80.005	19.995	103.139	19.818	12.932	0.550
874.000	511.425	80.005	19.994	103.140	19.820	12.778	0.540
874.500	511.715	80.004	19.995	103.141	19.820	12.817	0.544
875.000	511.954	80.004	19.993	103.140	19.820	12.786	0.544
875.500	512.257	80.004	19.994	103.140	19.822	12.656	0.536
876.000	512.544	80.005	19.995	103.138	19.824	12.515	0.566
876.500	512.794	80.005	19.994	103.137	19.826	12.352	0.564
877.000	513.086	80.004	19.994	103.136	19.827	12.272	0.540
877.500	513.345	80.004	19.995	103.139	19.826	12.384	0.546
878.000	513.658	80.005	19.994	103.141	19.826	12.354	0.561
878.500	513.911	80.005	19.995	103.141	19.829	12.187	0.569
879.000	514.168	80.005	19.993	103.141	19.828	12.226	0.538
879.500	514.486	80.005	19.993	103.140	19.831	12.044	0.543
880.000	514.792	80.005	19.993	103.137	19.830	12.070	0.600
880.500	515.074	80.005	19.993	103.135	19.831	11.994	0.606
881.000	515.319	80.005	19.994	103.135	19.833	11.879	0.557
881.500	515.629	80.004	19.994	103.135	19.833	11.871	0.541
882.000	515.891	80.005	19.994	103.136	19.834	11.825	0.564
882.501	516.184	80.005	19.994	103.137	19.833	11.906	0.564
883.001	516.485	80.004	19.993	103.137	19.837	11.577	0.575
883.500	516.758	80.006	19.993	103.137	19.835	11.764	0.584
884.000	517.036	80.007	19.994	103.136	19.836	11.664	0.562
884.500	517.301	80.004	19.995	103.136	19.842	11.271	0.547
885.000	517.621	80.006	19.994	103.136	19.840	11.418	0.564
885.500	517.881	80.005	19.994	103.136	19.839	11.462	0.583
886.000	518.170	80.007	19.992	103.136	19.836	11.659	0.565
886.500	518.442	80.007	19.994	103.136	19.843	11.197	0.555
887.000	518.758	80.005	19.995	103.136	19.840	11.362	0.574
887.500	519.025	80.007	19.995	103.136	19.842	11.266	0.586
888.000	519.294	80.007	19.993	103.134	19.842	11.240	0.560
888.500	519.562	80.008	19.993	103.133	19.846	10.997	0.536
889.000	519.834	80.008	19.994	103.132	19.842	11.242	0.538
889.500	520.152	80.007	19.993	103.132	19.845	11.057	0.565
890.000	520.437	80.007	19.994	103.131	19.847	10.936	0.597
890.500	520.697	80.006	19.994	103.132	19.848	10.846	0.574
891.000	520.987	80.007	19.993	103.132	19.844	11.101	0.547
891.500	521.265	80.005	19.993	103.132	19.841	11.316	0.559
892.000	521.531	80.006	19.993	103.131	19.845	11.025	0.556
892.500	521.824	80.006	19.995	103.128	19.844	11.133	0.551
893.000	522.069	80.005	19.993	103.128	19.846	10.981	0.549
893.500	522.408	80.006	19.993	103.126	19.844	11.109	0.561
894.000	522.653	80.006	19.993	103.126	19.847	10.926	0.584
894.500	522.957	80.004	19.994	103.127	19.845	11.041	0.567
895.000	523.223	80.004	19.993	103.129	19.849	10.789	0.559
895.500	523.510	80.005	19.994	103.130	19.847	10.898	0.561
896.000	523.771	80.005	19.994	103.131	19.851	10.642	0.551
896.500	524.056	80.004	19.994	103.129	19.849	10.735	0.548
897.000	524.322	80.006	19.993	103.129	19.849	10.733	0.548
897.500	524.621	80.004	19.993	103.130	19.850	10.720	0.557
898.000	524.886	80.004	19.993	103.129	19.849	10.784	0.564
898.500	525.145	80.004	19.993	103.131	19.849	10.749	0.544
899.000	525.457	80.005	19.993	103.132	19.849	10.783	0.548
899.500	525.720	80.004	19.994	103.132	19.850	10.718	0.574
900.000	525.987	80.005	19.994	103.133	19.849	10.786	0.553
900.500	526.241	80.006	19.994	103.134	19.849	10.744	0.525
901.000	526.523	80.004	19.993	103.134	19.850	10.720	0.528
901.500	526.820	80.004	19.993	103.134	19.851	10.605	0.557
902.000	527.086	80.004	19.993	103.134	19.851	10.629	0.571
902.500	527.349	80.005	19.994	103.134	19.850	10.694	0.546
903.000	527.632	80.004	19.994	103.134	19.853	10.455	0.537
903.500	527.922	80.004	19.994	103.136	19.855	10.340	0.559
904.001	528.170	80.003	19.994	103.138	19.855	10.325	0.556
904.500	528.470	80.005	19.993	103.138	19.855	10.341	0.543
905.000	528.722	80.005	19.993	103.139	19.856	10.260	0.550
905.500	528.970	80.003	19.994	103.141	19.854	10.405	0.526
906.000	529.354	80.003	19.994	103.140	19.854	10.384	0.566
906.500	529.557	80.004	19.994	103.138	19.856	10.306	0.610
907.000	529.843	80.005	19.995	103.137	19.852	10.558	0.538
907.500	530.128	80.003	19.994	103.137	19.852	10.525	0.530
908.000	530.359	80.005	19.994	103.135	19.856	10.262	0.543
908.500	530.642	80.003	19.995	103.134	19.854	10.425	0.515
909.001	530.942	80.004	19.995	103.134	19.857	10.202	0.549
909.501	531.211	80.004	19.995	103.134	19.858	10.140	0.576
910.001	531.507	80.004	19.995	103.134	19.861	9.960	0.567
910.501	531.759	80.004	19.993	103.135	19.858	10.169	0.556
911.001	531.988	80.004	19.994	103.135	19.859	10.049	0.515
911.500	532.275	80.006	19.995	103.135	19.855	10.349	0.499
912.000	532.579	80.004	19.995	103.134	19.857	10.195	0.553
912.500	532.831	80.006	19.994	103.134	19.854	10.405	0.573
913.000	533.095	80.004	19.995	103.133	19.857	10.201	0.536
913.500	533.393	80.004	19.995	103.133	19.854	10.421	0.539
914.000	533.649	80.005	19.996	103.133	19.856	10.312	0.558
914.500	533.956	80.005	19.994	103.134	19.857	10.242	0.559
915.000	534.182	80.004	19.995	103.133	19.856	10.260	0.548
915.500	534.491	80.004	19.995	103.133	19.856	10.270	0.534
916.000	534.774	80.004	19.995	103.133	19.856	10.309	0.564
916.500	535.039	80.005	19.995	103.134	19.854	10.424	0.570
917.000	535.334	80.005	19.995	103.134	19.857	10.183	0.554
917.500	535.610	80.005	19.995	103.134	19.858	10.112	0.565
918.000	535.880	80.003	19.995	103.133	19.859	10.073	0.559
918.500	536.173	80.004	19.995	103.133	19.855	10.363	0.554
919.000	536.406	80.006	19.995	103.132	19.858	10.115	0.545
919.500	536.685	80.005	19.994	103.132	19.857	10.193	0.519
920.000	536.924	80.005	19.994	103.132	19.856	10.245	0.515
920.500	537.192	80.004	19.994	103.134	19.857	10.204	0.512
921.000	537.480	80.004	19.995	103.134	19.858	10.139	0.532
921.500	537.744	80.005	19.995	103.134	19.857	10.227	0.555
922.000	538.029	80.005	19.994	103.134	19.858	10.148	0.550
922.500	538.294	80.003	19.994	103.134	19.858	10.105	0.549
923.000	538.572	80.005	19.995	103.134	19.860	9.981	0.546
923.500	538.817	80.003	19.994	103.134	19.863	9.807	0.533
924.000	539.111	80.004	19.993	103.134	19.859	10.066	0.531
924.500	539.372	80.004	19.995	103.135	19.858	10.107	0.547
925.000	539.613	80.003	19.994	103.135	19.856	10.270	0.529
925.500	539.909	80.004	19.994	103.135	19.858	10.149	0.520
926.000	540.141	80.005	19.994	103.138	19.861	9.945	0.533
926.500	540.420	80.003	19.995	103.138	19.861	9.958	0.520
927.000	540.646	80.002	19.994	103.139	19.855	10.372	0.508
927.500	540.928	80.004	19.995	103.140	19.858	10.127	0.506
928.000	541.214	80.003	19.995	103.140	19.856	10.249	0.537
928.500	541.466	80.004	19.994	103.138	19.859	10.055	0.553
929.000	541.715	80.002	19.994	103.138	19.859	10.092	0.520
929.500	542.001	80.004	19.994	103.142	19.859	10.085	0.518
930.000	542.267	80.002	19.994	103.147	19.858	10.149	0.543
930.500	542.516	80.003	19.996	103.148	19.861	9.946	0.533
931.000	542.803	80.004	19.994	103.148	19.859	10.059	0.526
931.500	543.026	80.004	19.993	103.149	19.863	9.824	0.523
932.000	543.303	80.003	19.995	103.145	19.861	9.935	0.505
932.500	543.575	80.003	19.995	103.140	19.861	9.911	0.525
933.000	543.867	80.003	19.995	103.139	19.863	9.794	0.557
933.500	544.096	80.003	19.994	103.140	19.862	9.826	0.543
934.000	544.344	80.002	19.995	103.141	19.863	9.824	0.499
934.500	544.649	80.004	19.995	103.142	19.859	10.040	0.515
935.000	544.884	80.003	19.994	103.142	19.858	10.141	0.546
935.500	545.172	80.004	19.995	103.141	19.859	10.058	0.531
936.000	545.392	80.004	19.995	103.141	19.861	9.924	0.516
936.500	545.679	80.003	19.995	103.140	19.861	9.916	0.508
937.000	545.924	80.002	19.995	103.138	19.859	10.076	0.519
937.500	546.192	80.004	19.996	103.139	19.858	10.154	0.522
938.000	546.460	80.004	19.995	103.139	19.859	10.054	0.524
938.500	546.716	80.003	19.995	103.139	19.860	9.973	0.530
939.000	546.998	80.005	19.994	103.139	19.861	9.951	0.531
939.500	547.211	80.004	19.994	103.139	19.860	9.990	0.517
940.000	547.505	80.004	19.996	103.139	19.862	9.836	0.501
940.500	547.746	80.005	19.994	103.139	19.857	10.183	0.521
941.000	548.033	80.005	19.994	103.140	19.863	9.777	0.531
941.500	548.277	80.004	19.994	103.146	19.862	9.860	0.529
942.000	548.537	80.004	19.995	103.148	19.862	9.845	0.517
942.500	548.807	80.005	19.995	103.147	19.860	9.969	0.517
943.000	549.071	80.005	19.995	103.145	19.862	9.834	0.532
943.500	549.374	80.003	19.994	103.146	19.861	9.947	0.550
944.000	549.608	80.005	19.994	103.145	19.862	9.873	0.552
944.500	549.882	80.005	19.996	103.147	19.862	9.840	0.522
945.000	550.127	80.005	19.995	103.152	19.862	9.840	0.514
945.500	550.412	80.005	19.996	103.153	19.860	10.024	0.525
946.000	550.690	80.004	19.995	103.152	19.864	9.744	0.546
946.500	550.946	80.005	19.996	103.150	19.865	9.670	0.548
947.000	551.179	80.005	19.995	103.145	19.864	9.700	0.512
947.500	551.437	80.004	19.995	103.141	19.861	9.910	0.490
948.000	551.716	80.006	19.996	103.143	19.862	9.861	0.514
948.500	551.945	80.004	19.995	103.148	19.863	9.776	0.522
949.000	552.204	80.004	19.995	103.149	19.861	9.904	0.497
949.500	552.483	80.005	19.994	103.150	19.863	9.789	0.513
950.000	552.716	80.004	19.994	103.155	19.863	9.787	0.525
950.500	552.998	80.005	19.994	103.160	19.861	9.965	0.514
951.000	553.247	80.005	19.993	103.161	19.862	9.857	0.524
951.500	553.502	80.004	19.995	103.160	19.862	9.857	0.518
952.000	553.753	80.004	19.994	103.159	19.859	10.094	0.505
952.500	553.998	80.004	19.994	103.155	19.860	10.029	0.501
953.000	554.294	80.005	19.995	103.152	19.862	9.880	0.518
953.500	554.582	80.005	19.994	103.151	19.861	9.936	0.562
954.000	554.792	80.004	19.994	103.153	19.859	10.068	0.541
954.500	555.096	80.005	19.994	103.157	19.861	9.964	0.506
955.000	555.352	80.005	19.995	103.159	19.861	9.907	0.537
955.500	555.588	80.005	19.994	103.162	19.860	10.030	0.526
956.000	555.881	80.006	19.994	103.159	19.862	9.884	0.511
956.500	556.142	80.005	19.993	103.160	19.862	9.882	0.542
957.000	556.404	80.006	19.994	103.163	19.858	10.108	0.539
957.500	556.648	80.004	19.993	103.166	19.860	10.021	0.515
958.000	556.895	80.004	19.994	103.167	19.861	9.923	0.499
958.500	557.166	80.006	19.994	103.170	19.860	10.002	0.504
959.000	557.384	80.005	19.993	103.169	19.862	9.848	0.503
959.500	557.677	80.005	19.993	103.168	19.861	9.945	0.500
960.000	557.922	80.006	19.994	103.167	19.860	10.002	0.524
960.500	558.171	80.005	19.994	103.167	19.858	10.160	0.516
961.000	558.445	80.005	19.993	103.168	19.862	9.891	0.509
961.500	558.657	80.005	19.994	103.170	19.860	9.999	0.504
962.000	558.940	80.005	19.994	103.166	19.864	9.746	0.490
962.500	559.220	80.004	19.995	103.163	19.862	9.868	0.529
963.000	559.495	80.006	19.994	103.160	19.862	9.879	0.559
963.501	559.729	80.006	19.994	103.155	19.860	10.000	0.532
964.000	559.979	80.005	19.993	103.150	19.862	9.831	0.496
964.500	560.198	80.006	19.995	103.153	19.862	9.887	0.476
965.000	560.495	80.006	19.995	103.156	19.861	9.962	0.493
965.500	560.781	80.007	19.993	103.159	19.865	9.676	0.549
966.000	560.996	80.006	19.995	103.164	19.861	9.908	0.542
966.500	561.266	80.007	19.995	103.169	19.860	9.969	0.493
967.000	561.525	80.006	19.994	103.171	19.861	9.923	0.507
967.500	561.778	80.007	19.995	103.171	19.860	10.019	0.521
968.000	562.033	80.008	19.993	103.172	19.859	10.091	0.510
968.500	562.316	80.008	19.994	103.172	19.860	10.032	0.523
969.000	562.571	80.009	19.994	103.171	19.858	10.134	0.538
969.500	562.804	80.007	19.994	103.171	19.860	9.999	0.513
970.000	563.056	80.007	19.994	103.170	19.859	10.051	0.486
970.500	563.346	80.007	19.993	103.170	19.862	9.854	0.514
971.000	563.581	80.007	19.994	103.171	19.860	9.973	0.534
971.500	563.821	80.008	19.993	103.171	19.863	9.819	0.500
972.000	564.057	80.007	19.993	103.171	19.861	9.949	0.475
972.500	564.310	80.005	19.994	103.171	19.862	9.849	0.482
973.000	564.570	80.005	19.994	103.165	19.860	10.005	0.501
973.500	564.810	80.007	19.994	103.163	19.863	9.786	0.507
974.000	565.078	80.005	19.995	103.163	19.860	10.016	0.504
974.500	565.329	80.007	19.994	103.165	19.859	10.045	0.513
975.000	565.609	80.006	19.994	103.166	19.859	10.079	0.525
975.500	565.844	80.004	19.994	103.171	19.863	9.825	0.523
976.000	566.113	80.006	19.995	103.173	19.862	9.893	0.510
976.500	566.335	80.005	19.995	103.173	19.859	10.086	0.497
977.000	566.602	80.007	19.994	103.171	19.856	10.253	0.490
977.500	566.907	80.005	19.994	103.170	19.859	10.066	0.531
978.000	567.134	80.005	19.994	103.170	19.862	9.868	0.552
978.500	567.386	80.004	19.995	103.169	19.858	10.144	0.505
979.000	567.672	80.004	19.994	103.170	19.859	10.057	0.508
979.500	567.865	80.005	19.994	103.169	19.859	10.095	0.509
980.000	568.149	80.004	19.994	103.171	19.858	10.170	0.478
980.500	568.393	80.006	19.995	103.171	19.856	10.273	0.502
981.000	568.657	80.006	19.995	103.172	19.857	10.227	0.519
981.500	568.920	80.004	19.993	103.173	19.858	10.118	0.518
982.000	569.130	80.004	19.994	103.173	19.858	10.164	0.500
982.500	569.400	80.004	19.994	103.174	19.857	10.181	0.476
983.000	569.687	80.004	19.995	103.174	19.857	10.179	0.519
983.500	569.944	80.003	19.994	103.174	19.856	10.262	0.551
984.000	570.195	80.004	19.994	103.174	19.857	10.199	0.526
984.500	570.423	80.004	19.994	103.174	19.858	10.173	0.493
985.000	570.695	80.005	19.994	103.173	19.857	10.205	0.490
985.501	570.969	80.004	19.995	103.173	19.858	10.135	0.523
986.000	571.263	80.005	19.995	103.173	19.857	10.186	0.557
986.500	571.469	80.004	19.994	103.173	19.858	10.157	0.534
987.001	571.702	80.004	19.995	103.174	19.859	10.090	0.470
987.500	571.977	80.004	19.994	103.174	19.859	10.062	0.473
988.000	572.242	80.003	19.995	103.176	19.856	10.296	0.524
988.500	572.514	80.004	19.994	103.177	19.858	10.144	0.538
989.000	572.794	80.006	19.994	103.177	19.858	10.168	0.545
989.500	573.027	80.005	19.995	103.176	19.859	10.079	0.533
990.000	573.288	80.004	19.994	103.176	19.857	10.231	0.504
990.500	573.528	80.004	19.994	103.175	19.858	10.157	0.497
991.000	573.797	80.004	19.994	103.175	19.857	10.184	0.505
991.500	574.082	80.004	19.994	103.175	19.857	10.244	0.532
992.000	574.341	80.005	19.994	103.175	19.855	10.322	0.549
992.500	574.587	80.005	19.994	103.176	19.858	10.109	0.524
993.000	574.843	80.005	19.994	103.176	19.858	10.111	0.504
993.500	575.116	80.006	19.995	103.176	19.856	10.252	0.516
994.000	575.360	80.005	19.994	103.175	19.857	10.228	0.523
994.500	575.617	80.005	19.995	103.176	19.859	10.104	0.509
995.000	575.867	80.005	19.994	103.176	19.857	10.205	0.504
995.500	576.128	80.004	19.994	103.176	19.859	10.038	0.509
996.000	576.367	80.004	19.995	103.176	19.859	10.082	0.506
996.500	576.633	80.005	19.994	103.177	19.859	10.041	0.503
997.000	576.866	80.004	19.994	103.177	19.861	9.920	0.502
997.500	577.132	80.005	19.994	103.177	19.860	10.013	0.499
998.000	577.397	80.006	19.994	103.175	19.860	9.969	0.515
998.500	577.686	80.004	19.993	103.175	19.863	9.798	0.542
999.000	577.950	80.004	19.994	103.175	19.862	9.853	0.553
999.500	578.165	80.006	19.993	103.175	19.861	9.920	0.516
1000.000	578.438	80.005	19.994	103.175	19.859	10.101	0.483
1000.500	578.715	80.005	19.995	103.175	19.862	9.892	0.519
1001.000	578.950	80.005	19.995	103.176	19.859	10.049	0.531
1001.500	579.217	80.005	19.995	103.175	19.859	10.036	0.507
1002.000	579.479	80.004	19.994	103.168	19.854	10.403	0.515
1002.500	579.719	80.005	19.995	103.163	19.858	10.127	0.516
1003.000	579.983	80.005	19.994	103.162	19.859	10.084	0.504
1003.500	580.245	80.005	19.994	103.162	19.857	10.231	0.515
1004.000	580.488	80.005	19.994	103.162	19.857	10.181	0.515
1004.500	580.719	80.004	19.995	103.166	19.857	10.207	0.489
1005.000	581.001	80.005	19.993	103.169	19.857	10.240	0.494
1005.500	581.230	80.002	19.995	103.164	19.861	9.912	0.512
1006.000	581.514	80.004	19.995	103.157	19.859	10.059	0.512
1006.501	581.771	80.005	19.995	103.151	19.858	10.111	0.527
1007.000	582.001	80.005	19.994	103.147	19.860	9.983	0.514
1007.500	582.282	80.005	19.993	103.144	19.860	10.026	0.499
1008.000	582.528	80.003	19.995	103.144	19.861	9.941	0.519
1008.500	582.783	80.004	19.994	103.149	19.861	9.929	0.514
1009.000	583.088	80.004	19.995	103.149	19.859	10.101	0.531
1009.500	583.308	80.003	19.996	103.148	19.858	10.125	0.543
1010.000	583.555	80.003	19.994	103.145	19.859	10.101	0.496
1010.500	583.817	80.003	19.995	103.145	19.859	10.099	0.488
1011.000	584.062	80.004	19.994	103.140	19.861	9.955	0.508
1011.500	584.351	80.004	19.994	103.140	19.858	10.105	0.521
1012.000	584.634	80.004	19.995	103.140	19.861	9.942	0.553
1012.500	584.834	80.003	19.995	103.140	19.859	10.045	0.527
1013.000	585.114	80.002	19.995	103.139	19.858	10.104	0.482
1013.500	585.331	80.003	19.995	103.138	19.861	9.947	0.488
1014.000	585.596	80.003	19.995	103.138	19.864	9.736	0.489
1014.500	585.838	80.003	19.994	103.138	19.860	9.984	0.495
1015.000	586.061	80.003	19.995	103.138	19.865	9.651	0.486
1015.500	586.318	80.003	19.995	103.138	19.863	9.760	0.473
1016.000	586.592	80.003	19.993	103.139	19.862	9.888	0.505
1016.500	586.843	80.003	19.995	103.139	19.863	9.769	0.528
1017.000	587.099	80.002	19.994	103.140	19.862	9.828	0.516
1017.500	587.331	80.004	19.994	103.142	19.861	9.932	0.497
1018.000	587.629	80.004	19.994	103.142	19.862	9.893	0.509
1018.500	587.851	80.004	19.995	103.146	19.860	9.971	0.525
1019.000	588.125	80.004	19.994	103.146	19.860	10.010	0.508
1019.500	588.353	80.006	19.994	103.145	19.861	9.949	0.499
1020.000	588.609	80.006	19.995	103.142	19.861	9.927	0.493
1020.500	588.886	80.004	19.995	103.141	19.863	9.812	0.509
1021.001	589.179	80.005	19.996	103.138	19.862	9.875	0.551
1021.500	589.399	80.005	19.994	103.137	19.866	9.571	0.541
1022.000	589.656	80.005	19.994	103.136	19.863	9.782	0.495
1022.500	589.892	80.005	19.994	103.136	19.866	9.576	0.485
1023.000	590.162	80.004	19.994	103.136	19.861	9.943	0.499
1023.500	590.370	80.006	19.993	103.134	19.863	9.799	0.492
1024.000	590.686	80.004	19.996	103.134	19.863	9.784	0.502
1024.501	590.930	80.005	19.996	103.133	19.862	9.865	0.542
1025.001	591.185	80.005	19.994	103.135	19.862	9.886	0.529
1025.500	591.426	80.004	19.995	103.135	19.866	9.608	0.497
1026.000	591.643	80.004	19.995	103.135	19.862	9.893	0.477
1026.500	591.941	80.005	19.995	103.135	19.859	10.088	0.486
1027.000	592.191	80.004	19.995	103.136	19.860	9.994	0.532
1027.500	592.428	80.006	19.994	103.135	19.859	10.036	0.518
1028.000	592.693	80.005	19.995	103.135	19.863	9.814	0.495
1028.500	592.922	80.005	19.995	103.135	19.862	9.878	0.498
1029.000	593.261	80.007	19.994	103.135	19.863	9.798	0.530
1029.500	593.483	80.006	19.995	103.134	19.864	9.704	0.564
1030.000	593.737	80.006	19.996	103.133	19.861	9.941	0.519
1030.500	593.953	80.004	19.998	103.133	19.864	9.721	0.473
1031.000	594.223	80.004	19.996	103.134	19.862	9.882	0.478
1031.500	594.479	80.004	19.995	103.134	19.863	9.793	0.506
1032.000	594.700	80.005	19.996	103.134	19.862	9.861	0.502
1032.500	594.983	80.005	19.994	103.134	19.864	9.747	0.491
1033.000	595.216	80.005	19.996	103.135	19.863	9.813	0.510
1033.500	595.513	80.005	19.996	103.134	19.861	9.911	0.523
1034.000	595.733	80.004	19.995	103.134	19.863	9.785	0.524
1034.500	596.021	80.003	19.994	103.133	19.864	9.732	0.513
1035.000	596.278	80.004	19.996	103.133	19.861	9.960	0.527
1035.500	596.517	80.005	19.996	103.133	19.865	9.672	0.521
1036.000	596.787	80.005	19.995	103.132	19.863	9.785	0.502
1036.500	597.025	80.005	19.995	103.132	19.863	9.815	0.509
1037.000	597.243	80.005	19.995	103.135	19.860	9.976	0.482
1037.500	597.543	80.004	19.995	103.137	19.860	9.989	0.487
1038.000	597.797	80.004	19.995	103.138	19.862	9.884	0.536
1038.500	598.036	80.004	19.995	103.139	19.863	9.821	0.524
1039.000	598.254	80.004	19.996	103.138	19.859	10.045	0.475
1039.500	598.530	80.004	19.995	103.136	19.861	9.945	0.476
1040.000	598.762	80.006	19.996	103.132	19.860	9.966	0.501
1040.500	599.001	80.004	19.994	103.131	19.859	10.054	0.489
1041.000	599.244	80.004	19.995	103.131	19.861	9.901	0.477
1041.500	599.515	80.006	19.995	103.131	19.859	10.071	0.498
1042.000	599.744	80.004	19.995	103.131	19.856	10.268	0.507
1042.500	600.028	80.003	19.996	103.131	19.859	10.086	0.507
1043.000	600.276	80.004	19.997	103.132	19.856	10.249	0.523
1043.500	600.539	80.006	19.996	103.132	19.858	10.116	0.522
1044.000	600.815	80.004	19.996	103.132	19.857	10.214	0.525
1044.501	601.014	80.004	19.994	103.132	19.858	10.125	0.507
1045.001	601.303	80.005	19.996	103.132	19.854	10.424	0.481
1045.500	601.575	80.006	19.995	103.131	19.858	10.124	0.524
1046.000	601.810	80.006	19.996	103.131	19.859	10.092	0.534
1046.500	602.033	80.006	19.995	103.132	19.859	10.070	0.482
1047.000	602.289	80.007	19.995	103.132	19.856	10.278	0.468
1047.500	602.554	80.005	19.994	103.132	19.858	10.129	0.500
1048.000	602.800	80.006	19.996	103.133	19.859	10.089	0.516
1048.500	603.064	80.007	19.995	103.133	19.858	10.161	0.511
1049.000	603.334	80.007	19.995	103.134	19.857	10.237	0.522
1049.500	603.571	80.006	19.995	103.134	19.858	10.111	0.521
1050.000	603.822	80.006	19.994	103.135	19.855	10.320	0.498
1050.500	604.063	80.007	19.994	103.135	19.856	10.311	0.490
1051.000	604.330	80.007	19.994	103.135	19.857	10.183	0.500
1051.500	604.526	80.006	19.994	103.134	19.858	10.159	0.486
1052.000	604.826	80.008	19.993	103.134	19.855	10.351	0.480
1052.500	605.050	80.007	19.994	103.134	19.859	10.088	0.510
1053.000	605.309	80.007	19.994	103.137	19.857	10.176	0.504
1053.500	605.584	80.007	19.994	103.138	19.858	10.140	0.509
1054.000	605.793	80.007	19.993	103.139	19.856	10.272	0.509
1054.500	606.061	80.006	19.993	103.139	19.856	10.257	0.481
1055.000	606.297	80.007	19.992	103.141	19.856	10.261	0.491
1055.500	606.549	80.006	19.994	103.140	19.856	10.304	0.496
1056.000	606.818	80.007	19.994	103.140	19.855	10.342	0.504
1056.500	607.084	80.005	19.993	103.141	19.855	10.346	0.528
1057.000	607.294	80.005	19.994	103.141	19.853	10.489	0.505
1057.500	607.555	80.006	19.993	103.141	19.857	10.201	0.473
1058.000	607.806	80.006	19.994	103.143	19.855	10.368	0.492
1058.500	608.073	80.006	19.993	103.143	19.854	10.418	0.515
1059.000	608.327	80.006	19.994	103.143	19.854	10.394	0.519
1059.500	608.559	80.005	19.994	103.143	19.854	10.436	0.504
1060.000	608.834	80.005	19.993	103.142	19.856	10.299	0.496
1060.500	609.094	80.005	19.994	103.140	19.853	10.477	0.521
1061.000	609.315	80.004	19.994	103.140	19.855	10.315	0.509
1061.500	609.542	80.004	19.994	103.139	19.851	10.632	0.465
1062.000	609.846	80.004	19.994	103.139	19.857	10.237	0.489
1062.500	610.100	80.003	19.994	103.138	19.855	10.367	0.544
1063.001	610.338	80.004	19.994	103.137	19.856	10.288	0.525
1063.501	610.589	80.004	19.994	103.138	19.855	10.324	0.491
1064.000	610.828	80.004	19.994	103.142	19.857	10.192	0.490
1064.500	611.057	80.004	19.995	103.142	19.857	10.216	0.479
1065.000	611.326	80.003	19.994	103.142	19.857	10.180	0.483
1065.500	611.558	80.004	19.993	103.145	19.856	10.306	0.500
1066.000	611.856	80.003	19.994	103.147	19.855	10.349	0.515
1066.500	612.081	80.005	19.994	103.148	19.856	10.256	0.526
1067.000	612.324	80.003	19.994	103.152	19.852	10.529	0.495
1067.500	612.597	80.004	19.994	103.157	19.856	10.271	0.492
1068.000	612.827	80.004	19.994	103.159	19.856	10.281	0.509
1068.500	613.093	80.003	19.995	103.159	19.853	10.478	0.499
1069.000	613.345	80.004	19.994	103.157	19.856	10.299	0.507
1069.500	613.617	80.004	19.994	103.157	19.855	10.382	0.522
1070.000	613.804	80.004	19.994	103.156	19.851	10.614	0.491
1070.500	614.069	80.003	19.994	103.155	19.851	10.637	0.455
1071.000	614.312	80.004	19.994	103.154	19.854	10.432	0.480
1071.501	614.607	80.005	19.993	103.151	19.850	10.670	0.523
1072.001	614.841	80.005	19.994	103.148	19.855	10.334	0.533
1072.500	615.089	80.004	19.994	103.149	19.855	10.363	0.506
1073.000	615.338	80.004	19.996	103.149	19.855	10.376	0.490
1073.500	615.660	80.003	19.995	103.151	19.856	10.259	0.534
1074.000	615.899	80.005	19.994	103.154	19.853	10.505	0.566
1074.500	616.082	80.005	19.994	103.159	19.855	10.370	0.492
1075.001	616.350	80.003	19.994	103.157	19.853	10.487	0.436
1075.501	616.652	80.003	19.994	103.156	19.855	10.384	0.510
1076.000	616.862	80.004	19.993	103.153	19.857	10.191	0.541
1076.501	617.074	80.003	19.993	103.152	19.854	10.415	0.467
1077.001	617.291	80.005	19.994	103.149	19.852	10.571	0.426
1077.501	617.590	80.004	19.994	103.146	19.849	10.752	0.472
1078.000	617.835	80.004	19.994	103.150	19.855	10.367	0.530
1078.500	618.107	80.004	19.994	103.154	19.851	10.611	0.531
1079.000	618.347	80.004	19.994	103.158	19.850	10.732	0.515
1079.500	618.577	80.004	19.994	103.164	19.854	10.415	0.491
1080.000	618.807	80.005	19.995	103.170	19.850	10.721	0.465
1080.500	619.019	80.004	19.993	103.172	19.851	10.618	0.451
1081.000	619.271	80.005	19.994	103.173	19.849	10.746	0.453
1081.500	619.526	80.005	19.993	103.173	19.852	10.528	0.485
1082.000	619.785	80.003	19.994	103.171	19.852	10.563	0.511
1082.500	620.018	80.004	19.994	103.170	19.853	10.513	0.503
1083.000	620.259	80.005	19.994	103.166	19.851	10.662	0.483
1083.500	620.494	80.005	19.993	103.164	19.853	10.511	0.475
1084.000	620.725	80.006	19.994	103.162	19.848	10.836	0.471
1084.500	620.992	80.006	19.994	103.161	19.851	10.641	0.482
1085.000	621.195	80.005	19.994	103.161	19.849	10.771	0.484
1085.501	621.486	80.005	19.994	103.161	19.852	10.526	0.482
1086.001	621.715	80.005	19.995	103.158	19.849	10.747	0.507
1086.500	621.964	80.004	19.995	103.154	19.852	10.571	0.500
1087.000	622.180	80.006	19.993	103.153	19.848	10.823	0.472
1087.500	622.439	80.004	19.993	103.150	19.852	10.559	0.470
1088.000	622.683	80.005	19.994	103.151	19.849	10.751	0.489
1088.500	622.901	80.005	19.994	103.156	19.851	10.653	0.482
1089.000	623.151	80.006	19.995	103.162	19.849	10.759	0.465
1089.500	623.389	80.005	19.994	103.163	19.850	10.668	0.478
1090.000	623.646	80.005	19.993	103.164	19.851	10.605	0.491
1090.500	623.905	80.004	19.994	103.165	19.848	10.857	0.505
1091.000	624.100	80.004	19.995	103.163	19.850	10.729	0.485
1091.501	624.319	80.004	19.994	103.157	19.848	10.859	0.434
1092.001	624.583	80.004	19.994	103.153	19.847	10.892	0.449
1092.501	624.804	80.004	19.994	103.149	19.846	11.005	0.484
1093.001	625.017	80.005	19.994	103.148	19.846	10.972	0.460
1093.501	625.292	80.004	19.995	103.147	19.849	10.783	0.461
1094.001	625.500	80.003	19.994	103.154	19.847	10.889	0.485
1094.501	625.759	80.003	19.994	103.162	19.846	10.961	0.475
1095.001	625.932	80.004	19.994	103.167	19.850	10.703	0.450
1095.500	626.198	80.003	19.994	103.166	19.848	10.835	0.435
1096.000	626.437	80.004	19.995	103.165	19.847	10.881	0.472
1096.500	626.643	80.003	19.994	103.166	19.848	10.820	0.475
1097.000	626.898	80.004	19.995	103.166	19.847	10.888	0.453
1097.500	627.141	80.004	19.995	103.167	19.846	10.968	0.479
1098.000	627.392	80.005	19.996	103.170	19.849	10.788	0.496
1098.500	627.605	80.003	19.995	103.173	19.847	10.912	0.479
1099.000	627.838	80.003	19.994	103.172	19.848	10.823	0.454
1099.500	628.087	80.004	19.994	103.173	19.846	10.959	0.464
1100.000	628.354	80.003	19.995	103.173	19.847	10.931	0.499
1100.500	628.549	80.004	19.995	103.174	19.845	11.074	0.489
1101.000	628.794	80.004	19.995	103.174	19.846	10.981	0.451
1101.500	629.022	80.005	19.995	103.174	19.849	10.788	0.456
1102.000	629.244	80.004	19.995	103.174	19.848	10.874	0.462
1102.500	629.488	80.005	19.995	103.174	19.848	10.866	0.459
1103.000	629.717	80.004	19.994	103.174	19.847	10.941	0.470
1103.500	629.959	80.005	19.995	103.174	19.845	11.020	0.472
1104.000	630.202	80.005	19.995	103.175	19.844	11.115	0.478
1104.500	630.425	80.005	19.995	103.175	19.845	11.061	0.475
1105.000	630.653	80.005	19.996	103.174	19.846	11.005	0.458
1105.500	630.918	80.004	19.994	103.174	19.844	11.113	0.472
1106.000	631.115	80.005	19.995	103.174	19.845	11.082	0.477
1106.500	631.375	80.006	19.995	103.173	19.845	11.070	0.460
1107.000	631.633	80.007	19.995	103.172	19.846	10.950	0.487
1107.500	631.851	80.005	19.995	103.172	19.845	11.021	0.497
1108.000	632.122	80.006	19.994	103.171	19.844	11.145	0.483
1108.500	632.320	80.005	19.994	103.170	19.845	11.084	0.480
1109.001	632.531	80.006	19.996	103.169	19.843	11.194	0.439
1109.501	632.800	80.006	19.995	103.169	19.842	11.274	0.445
1110.000	633.034	80.006	19.996	103.169	19.842	11.273	0.491
1110.500	633.286	80.006	19.994	103.170	19.838	11.567	0.494
1111.000	633.500	80.005	19.995	103.172	19.842	11.286	0.476
1111.500	633.767	80.007	19.994	103.172	19.842	11.295	0.474
1112.001	634.020	80.006	19.994	103.171	19.840	11.424	0.501
1112.501	634.246	80.007	19.996	103.171	19.841	11.352	0.499
1113.000	634.480	80.007	19.995	103.172	19.838	11.550	0.469
1113.500	634.696	80.006	19.995	103.173	19.839	11.476	0.455
1114.000	634.936	80.007	19.994	103.173	19.838	11.521	0.453
1114.500	635.175	80.006	19.994	103.174	19.840	11.406	0.468
1115.000	635.445	80.005	19.995	103.174	19.839	11.487	0.494
1115.501	635.694	80.005	19.994	103.173	19.839	11.498	0.514
1116.001	635.944	80.006	19.995	103.173	19.837	11.597	0.509
1116.500	636.144	80.006	19.994	103.173	19.839	11.467	0.474
1117.000	636.397	80.006	19.995	103.174	19.838	11.514	0.451
1117.500	636.631	80.006	19.997	103.175	19.841	11.353	0.470
1118.000	636.871	80.005	19.995	103.175	19.840	11.381	0.481
1118.500	637.105	80.005	19.996	103.179	19.841	11.302	0.474
1119.000	637.321	80.004	19.995	103.181	19.840	11.438	0.462
1119.500	637.571	80.005	19.995	103.182	19.842	11.267	0.458
1120.000	637.829	80.004	19.995	103.186	19.838	11.516	0.488
1120.500	638.090	80.003	19.995	103.191	19.836	11.681	0.514
1121.000	638.322	80.005	19.995	103.192	19.839	11.475	0.506
1121.500	638.538	80.004	19.994	103.192	19.840	11.408	0.470
1122.000	638.768	80.004	19.994	103.193	19.837	11.638	0.447
1122.500	639.056	80.005	19.995	103.190	19.838	11.545	0.482
1123.001	639.299	80.005	19.995	103.186	19.839	11.443	0.524
1123.501	639.485	80.005	19.995	103.185	19.838	11.538	0.480
1124.000	639.760	80.004	19.995	103.190	19.838	11.555	0.446
1124.500	639.960	80.006	19.995	103.190	19.837	11.647	0.468
1125.000	640.191	80.005	19.995	103.189	19.834	11.800	0.452
1125.500	640.448	80.005	19.994	103.190	19.835	11.772	0.460
1126.001	640.671	80.005	19.995	103.190	19.833	11.877	0.485
1126.501	640.898	80.005	19.994	103.189	19.834	11.844	0.465
1127.000	641.145	80.004	19.995	103.188	19.834	11.820	0.461
1127.500	641.402	80.006	19.995	103.192	19.835	11.783	0.489
1128.000	641.669	80.004	19.995	103.196	19.833	11.904	0.514
1128.500	641.927	80.004	19.995	103.200	19.833	11.868	0.525
1129.001	642.157	80.005	19.995	103.201	19.833	11.912	0.506
1129.501	642.384	80.005	19.995	103.208	19.832	11.980	0.473
1130.000	642.647	80.005	19.995	103.211	19.833	11.902	0.474
1130.500	642.884	80.006	19.996	103.213	19.829	12.160	0.495
1131.001	643.133	80.006	19.995	103.213	19.830	12.080	0.493
1131.501	643.443	80.005	19.995	103.211	19.830	12.076	0.522
1132.000	643.650	80.005	19.995	103.208	19.831	12.058	0.538
1132.500	643.890	80.006	19.996	103.208	19.829	12.166	0.482
1133.000	644.141	80.006	19.996	103.208	19.833	11.895	0.469
1133.500	644.402	80.007	19.995	103.208	19.829	12.140	0.502
1134.000	644.632	80.006	19.994	103.209	19.830	12.098	0.501
1134.500	644.897	80.007	19.995	103.212	19.830	12.105	0.493
1135.000	645.149	80.005	19.995	103.212	19.829	12.187	0.506
1135.500	645.425	80.006	19.995	103.212	19.827	12.315	0.523
1136.000	645.668	80.006	19.994	103.212	19.828	12.243	0.523
1136.500	645.913	80.006	19.996	103.212	19.831	12.055	0.503
1137.000	646.149	80.006	19.995	103.211	19.827	12.303	0.484
1137.500	646.442	80.006	19.996	103.211	19.828	12.254	0.505
1138.001	646.672	80.007	19.994	103.212	19.827	12.298	0.526
1138.501	646.932	80.005	19.996	103.214	19.831	12.022	0.507
1139.000	647.168	80.006	19.995	103.214	19.832	11.992	0.493
1139.501	647.453	80.006	19.995	103.215	19.828	12.220	0.508
1140.001	647.709	80.006	19.995	103.218	19.828	12.260	0.531
1140.501	647.963	80.004	19.995	103.218	19.832	11.972	0.525
1141.001	648.226	80.006	19.995	103.218	19.825	12.429	0.514
1141.501	648.507	80.005	19.995	103.218	19.829	12.208	0.531
1142.000	648.693	80.007	19.995	103.219	19.825	12.475	0.506
1142.500	648.972	80.005	19.994	103.217	19.825	12.448	0.466
1143.000	649.228	80.004	19.994	103.219	19.823	12.602	0.500
1143.500	649.552	80.004	19.993	103.219	19.825	12.470	0.557
1144.001	649.800	80.004	19.994	103.219	19.827	12.329	0.576
1144.501	650.060	80.004	19.994	103.222	19.825	12.426	0.540
1145.001	650.322	80.004	19.993	103.226	19.827	12.322	0.515
1145.500	650.584	80.004	19.994	103.226	19.824	12.545	0.523
1146.000	650.845	80.004	19.994	103.229	19.822	12.639	0.523
1146.500	651.150	80.004	19.995	103.229	19.828	12.252	0.544
1147.000	651.434	80.005	19.994	103.228	19.821	12.708	0.577
1147.501	651.631	80.004	19.993	103.227	19.826	12.385	0.535
1148.001	651.912	80.006	19.994	103.232	19.824	12.537	0.480
1148.500	652.188	80.005	19.995	103.231	19.821	12.706	0.518
1149.001	652.394	80.005	19.995	103.237	19.822	12.671	0.519
1149.501	652.704	80.005	19.994	103.240	19.822	12.678	0.499
1150.001	652.953	80.005	19.995	103.242	19.822	12.660	0.538
1150.500	653.214	80.004	19.995	103.240	19.822	12.673	0.535
1151.000	653.530	80.004	19.994	103.244	19.823	12.616	0.543
1151.500	653.776	80.006	19.994	103.245	19.823	12.606	0.569
1152.000	654.032	80.005	19.994	103.246	19.823	12.619	0.532
1152.501	654.327	80.006	19.994	103.247	19.823	12.610	0.526
1153.001	654.596	80.004	19.995	103.249	19.825	12.463	0.557
1153.500	654.843	80.006	19.994	103.249	19.822	12.671	0.540
1154.000	655.102	80.004	19.993	103.250	19.825	12.458	0.511
1154.500	655.377	80.004	19.994	103.251	19.821	12.768	0.520
1155.000	655.682	80.005	19.994	103.251	19.823	12.595	0.557
1155.500	655.894	80.005	19.994	103.251	19.821	12.710	0.549
1156.001	656.184	80.004	19.995	103.254	19.822	12.634	0.509
1156.501	656.443	80.006	19.993	103.255	19.824	12.558	0.525
1157.001	656.718	80.005	19.994	103.256	19.819	12.864	0.542
1157.501	656.975	80.005	19.995	103.256	19.823	12.564	0.533
1158.001	657.228	80.007	19.994	103.257	19.821	12.716	0.521
1158.501	657.513	80.006	19.995	103.256	19.824	12.515	0.524
1159.001	657.760	80.005	19.994	103.256	19.822	12.680	0.535
1159.501	658.012	80.006	19.994	103.255	19.823	12.603	0.515
1160.001	658.300	80.003	19.994	103.255	19.820	12.826	0.519
1160.500	658.574	80.005	19.994	103.255	19.821	12.768	0.551
1161.000	658.832	80.005	19.995	103.257	19.821	12.761	0.548
1161.500	659.118	80.006	19.994	103.258	19.818	12.958	0.538
1162.000	659.350	80.005	19.994	103.259	19.820	12.821	0.531
1162.500	659.621	80.005	19.994	103.258	19.820	12.789	0.511
1163.000	659.847	80.004	19.994	103.258	19.817	13.038	0.500
1163.500	660.158	80.005	19.996	103.255	19.814	13.211	0.517
1164.000	660.438	80.006	19.995	103.256	19.816	13.091	0.564
1164.501	660.686	80.004	19.996	103.255	19.815	13.174	0.560
1165.001	660.962	80.005	19.994	103.257	19.815	13.191	0.526
1165.500	661.226	80.005	19.994	103.257	19.818	12.975	0.532
1166.000	661.495	80.005	19.994	103.257	19.817	12.984	0.536
1166.500	661.770	80.005	19.994	103.256	19.814	13.229	0.539
1167.000	662.032	80.006	19.994	103.257	19.816	13.119	0.541
1167.500	662.266	80.005	19.994	103.258	19.814	13.255	0.517
1168.000	662.538	80.005	19.994	103.257	19.813	13.285	0.501
1168.500	662.815	80.005	19.994	103.257	19.814	13.213	0.528
1169.000	663.079	80.005	19.995	103.258	19.813	13.287	0.545
1169.500	663.311	80.005	19.994	103.257	19.811	13.423	0.519
1170.000	663.576	80.005	19.994	103.257	19.814	13.221	0.496
1170.500	663.842	80.005	19.995	103.260	19.814	13.214	0.514
1171.000	664.107	80.006	19.994	103.264	19.811	13.439	0.531
1171.500	664.351	80.006	19.995	103.263	19.813	13.330	0.519
1172.000	664.645	80.005	19.995	103.268	19.811	13.442	0.523
1172.500	664.871	80.006	19.995	103.269	19.812	13.366	0.529
1173.000	665.166	80.006	19.994	103.267	19.811	13.460	0.520
1173.500	665.394	80.005	19.994	103.268	19.811	13.427	0.522
1174.000	665.649	80.005	19.995	103.269	19.810	13.503	0.503
1174.500	665.907	80.004	19.993	103.270	19.812	13.340	0.498
1175.000	666.172	80.005	19.994	103.274	19.809	13.558	0.518
1175.500	666.413	80.004	19.994	103.275	19.813	13.328	0.514
1176.000	666.644	80.004	19.995	103.279	19.808	13.640	0.489
1176.500	666.921	80.004	19.995	103.284	19.808	13.646	0.491
1177.000	667.153	80.005	19.994	103.282	19.807	13.729	0.509
1177.500	667.382	80.005	19.994	103.281	19.811	13.474	0.485
1178.000	667.672	80.004	19.994	103.281	19.809	13.563	0.490
1178.500	667.900	80.005	19.995	103.279	19.812	13.364	0.519
1179.000	668.135	80.005	19.994	103.273	19.810	13.523	0.491
1179.500	668.442	80.004	19.995	103.270	19.808	13.633	0.502
1180.000	668.653	80.005	19.994	103.271	19.807	13.746	0.530
1180.500	668.914	80.005	19.994	103.275	19.809	13.577	0.495
1181.000	669.158	80.005	19.994	103.276	19.809	13.590	0.488
1181.500	669.410	80.006	19.994	103.282	19.807	13.691	0.500
1182.000	669.652	80.005	19.995	103.288	19.808	13.623	0.495
1182.500	669.917	80.005	19.994	103.290	19.807	13.703	0.501
1183.000	670.157	80.006	19.994	103.290	19.804	13.908	0.506
1183.500	670.358	80.005	19.994	103.291	19.804	13.935	0.473
1184.001	670.668	80.005	19.995	103.291	19.804	13.940	0.475
1184.501	670.913	80.006	19.994	103.291	19.805	13.881	0.533
1185.000	671.154	80.006	19.994	103.291	19.811	13.465	0.521
1185.500	671.415	80.005	19.994	103.292	19.805	13.870	0.494
1186.000	671.635	80.006	19.993	103.289	19.802	14.052	0.491
1186.500	671.846	80.005	19.994	103.290	19.803	13.990	0.456
1187.000	672.151	80.006	19.994	103.290	19.808	13.641	0.474
1187.500	672.347	80.005	19.994	103.291	19.808	13.637	0.509
1188.000	672.600	80.006	19.995	103.291	19.804	13.938	0.475
1188.500	672.829	80.005	19.995	103.295	19.806	13.773	0.465
1189.000	673.104	80.006	19.993	103.297	19.801	14.122	0.493
1189.500	673.361	80.006	19.994	103.297	19.804	13.903	0.518
1190.000	673.594	80.006	19.993	103.302	19.801	14.152	0.511
1190.500	673.811	80.006	19.994	103.303	19.800	14.194	0.470
1191.001	674.082	80.006	19.995	103.303	19.805	13.845	0.469
1191.501	674.291	80.006	19.994	103.302	19.799	14.264	0.484
1192.000	674.571	80.006	19.994	103.302	19.801	14.143	0.484
1192.500	674.801	80.006	19.994	103.298	19.806	13.787	0.500
1193.000	675.063	80.005	19.995	103.300	19.803	14.023	0.501
1193.500	675.262	80.004	19.995	103.306	19.805	13.888	0.477
1194.000	675.534	80.006	19.996	103.312	19.802	14.063	0.466
1194.500	675.834	80.007	19.994	103.318	19.802	14.054	0.522
1195.000	676.070	80.006	19.994	103.325	19.800	14.214	0.554
1195.500	676.277	80.005	19.995	103.328	19.802	14.067	0.489
1196.001	676.529	80.007	19.993	103.329	19.799	14.262	0.451
1196.501	676.795	80.006	19.995	103.330	19.801	14.127	0.488
1197.000	677.073	80.006	19.994	103.329	19.803	13.999	0.531
1197.500	677.305	80.006	19.993	103.325	19.802	14.088	0.527
1198.000	677.493	80.005	19.994	103.324	19.800	14.237	0.465
1198.500	677.816	80.004	19.994	103.324	19.801	14.132	0.466
1199.000	678.011	80.005	19.996	103.324	19.800	14.248	0.514
1199.500	678.238	80.007	19.995	103.326	19.798	14.351	0.470
1200.000	678.529	80.006	19.994	103.329	19.797	14.408	0.470
1200.501	678.800	80.006	19.995	103.328	19.797	14.409	0.541
1201.001	679.036	80.007	19.995	103.328	19.801	14.175	0.535
1201.501	679.258	80.005	19.996	103.325	19.795	14.562	0.482
1202.000	679.460	80.006	19.996	103.322	19.797	14.438	0.441
1202.500	679.710	80.005	19.995	103.319	19.796	14.489	0.438
1203.000	679.972	80.005	19.995	103.316	19.797	14.444	0.482
1203.500	680.239	80.004	19.995	103.316	19.796	14.524	0.520
1204.000	680.421	80.006	19.994	103.319	19.798	14.343	0.489
1204.501	680.642	80.004	19.996	103.323	19.797	14.405	0.426
1205.001	680.985	80.006	19.996	103.327	19.796	14.498	0.484
1205.501	681.209	80.004	19.996	103.334	19.798	14.379	0.565
1206.000	681.435	80.004	19.996	103.334	19.794	14.628	0.508
1206.500	681.728	80.006	19.996	103.333	19.797	14.449	0.484
1207.000	681.907	80.005	19.995	103.332	19.795	14.590	0.496
1207.500	682.208	80.005	19.994	103.333	19.795	14.586	0.476
1208.000	682.486	80.005	19.994	103.339	19.794	14.606	0.530
1208.501	682.644	80.005	19.994	103.346	19.795	14.562	0.508
1209.001	682.912	80.004	19.995	103.354	19.794	14.612	0.431
1209.500	683.101	80.004	19.995	103.361	19.793	14.702	0.441
1210.000	683.407	80.006	19.994	103.366	19.794	14.607	0.476
1210.500	683.623	80.006	19.995	103.360	19.796	14.508	0.509
1211.000	683.944	80.006	19.995	103.353	19.791	14.859	0.530
1211.500	684.133	80.006	19.994	103.347	19.793	14.716	0.524
1212.000	684.383	80.006	19.994	103.344	19.792	14.805	0.475
1212.500	684.621	80.007	19.994	103.339	19.795	14.588	0.464
1213.000	684.869	80.006	19.994	103.343	19.792	14.744	0.487
1213.500	685.122	80.007	19.995	103.346	19.789	14.968	0.493
1214.000	685.335	80.007	19.993	103.348	19.792	14.753	0.483
1214.500	685.602	80.007	19.995	103.349	19.789	14.955	0.472
1215.000	685.872	80.008	19.995	103.353	19.793	14.691	0.508
1215.500	686.094	80.006	19.994	103.355	19.790	14.944	0.514
1216.000	686.292	80.007	19.995	103.358	19.789	14.954	0.456
1216.500	686.618	80.007	19.995	103.360	19.792	14.794	0.473
1217.000	686.852	80.009	19.995	103.359	19.789	14.984	0.542
1217.500	687.081	80.006	19.996	103.356	19.790	14.913	0.511
1218.000	687.345	80.009	19.994	103.354	19.785	15.246	0.478
1218.500	687.627	80.007	19.994	103.353	19.788	15.088	0.520
1219.000	687.870	80.008	19.994	103.351	19.788	15.086	0.536
1219.500	688.094	80.009	19.993	103.351	19.789	14.981	0.496
1220.000	688.322	80.008	19.995	103.354	19.789	15.024	0.459
1220.500	688.570	80.008	19.994	103.356	19.790	14.933	0.464
1221.000	688.814	80.007	19.996	103.358	19.789	14.956	0.484
1221.500	689.103	80.006	19.996	103.362	19.788	15.048	0.512
1222.000	689.313	80.008	19.994	103.365	19.788	15.035	0.516
1222.500	689.597	80.007	19.994	103.366	19.786	15.192	0.497
1223.000	689.827	80.007	19.996	103.366	19.787	15.127	0.504
1223.500	690.080	80.008	19.995	103.366	19.790	14.936	0.499
1224.000	690.351	80.007	19.995	103.364	19.786	15.185	0.504
1224.500	690.576	80.008	19.994	103.364	19.786	15.224	0.510
1225.000	690.827	80.008	19.996	103.362	19.787	15.159	0.486
1225.500	691.041	80.006	19.996	103.362	19.783	15.389	0.471
1226.000	691.333	80.006	19.995	103.362	19.781	15.517	0.486
1226.500	691.537	80.005	19.994	103.365	19.782	15.462	0.501
1227.000	691.808	80.005	19.995	103.365	19.783	15.410	0.486
1227.500	692.053	80.005	19.994	103.366	19.781	15.567	0.496
1228.000	692.323	80.004	19.995	103.366	19.781	15.579	0.515
1228.500	692.550	80.005	19.995	103.367	19.783	15.398	0.506
1229.000	692.837	80.004	19.995	103.367	19.781	15.529	0.506
1229.500	693.059	80.004	19.996	103.367	19.781	15.549	0.511
1230.000	693.310	80.003	19.994	103.369	19.783	15.427	0.491
1230.500	693.594	80.005	19.995	103.370	19.783	15.388	0.504
1231.000	693.814	80.006	19.995	103.373	19.778	15.754	0.519
1231.500	694.079	80.005	19.995	103.376	19.781	15.576	0.494
1232.000	694.325	80.005	19.996	103.377	19.779	15.689	0.499
1232.500	694.565	80.007	19.995	103.375	19.779	15.656	0.499
1233.000	694.812	80.004	19.995	103.374	19.779	15.693	0.486
1233.500	695.074	80.005	19.996	103.371	19.779	15.722	0.497
1234.000	695.350	80.005	19.995	103.370	19.776	15.901	0.523
1234.500	695.583	80.005	19.996	103.369	19.778	15.787	0.524
1235.000	695.830	80.006	19.994	103.369	19.778	15.765	0.495
1235.500	696.085	80.005	19.996	103.368	19.779	15.667	0.491
1236.001	696.334	80.007	19.995	103.368	19.783	15.438	0.503
1236.501	696.626	80.003	19.995	103.367	19.779	15.683	0.523
1237.000	696.814	80.005	19.994	103.369	19.777	15.851	0.511
1237.500	697.081	80.005	19.995	103.370	19.778	15.742	0.468
1238.000	697.327	80.006	19.994	103.371	19.777	15.801	0.484
1238.500	697.553	80.004	19.995	103.370	19.778	15.770	0.492
1239.000	697.779	80.005	19.996	103.372	19.777	15.798	0.462
1239.501	698.048	80.004	19.995	103.370	19.779	15.727	0.473
1240.001	698.280	80.006	19.995	103.371	19.778	15.771	0.498
1240.501	698.517	80.005	19.995	103.374	19.778	15.756	0.485
1241.001	698.755	80.005	19.995	103.376	19.778	15.758	0.472
1241.501	698.980	80.005	19.994	103.375	19.775	15.967	0.469
1242.000	699.229	80.005	19.994	103.375	19.775	16.000	0.469
1242.500	699.485	80.005	19.995	103.376	19.775	16.006	0.490
1243.000	699.709	80.006	19.995	103.375	19.776	15.876	0.493
1243.501	699.928	80.005	19.996	103.376	19.775	16.004	0.461
1244.001	700.189	80.005	19.995	103.380	19.775	15.991	0.461
1244.500	700.421	80.005	19.995	103.388	19.776	15.904	0.487
1245.000	700.675	80.005	19.994	103.387	19.774	16.075	0.490
1245.500	700.904	80.005	19.995	103.387	19.775	15.982	0.484
1246.001	701.129	80.005	19.994	103.387	19.774	16.036	0.468
1246.501	701.376	80.005	19.995	103.388	19.771	16.255	0.463
1247.000	701.608	80.006	19.995	103.386	19.772	16.185	0.476
1247.500	701.864	80.006	19.994	103.388	19.772	16.199	0.484
1248.000	702.108	80.006	19.995	103.393	19.772	16.168	0.494
1248.500	702.342	80.006	19.994	103.394	19.770	16.314	0.489
1249.000	702.601	80.006	19.995	103.392	19.771	16.220	0.486
1249.500	702.824	80.006	19.994	103.395	19.772	16.199	0.488
1250.000	703.095	80.006	19.993	103.395	19.772	16.171	0.488
1250.500	703.319	80.005	19.994	103.397	19.774	16.073	0.494
1251.000	703.524	80.005	19.995	103.400	19.775	15.954	0.462
1251.500	703.795	80.006	19.994	103.404	19.771	16.253	0.453
1252.000	704.031	80.004	19.994	103.404	19.775	15.988	0.491
1252.500	704.292	80.005	19.995	103.406	19.769	16.425	0.502
1253.000	704.568	80.005	19.994	103.406	19.769	16.391	0.518
1253.500	704.769	80.004	19.994	103.406	19.770	16.348	0.507
1254.000	705.008	80.006	19.993	103.406	19.770	16.319	0.458
1254.501	705.250	80.005	19.994	103.406	19.772	16.160	0.461
1255.001	705.487	80.006	19.993	103.406	19.768	16.481	0.480
1255.500	705.767	80.003	19.994	103.406	19.769	16.419	0.498
1256.000	705.989	80.006	19.993	103.407	19.770	16.350	0.509
1256.501	706.186	80.003	19.994	103.407	19.768	16.467	0.460
1257.001	706.469	80.004	19.993	103.409	19.771	16.287	0.450
1257.500	706.696	80.005	19.995	103.409	19.771	16.265	0.495
1258.000	706.939	80.006	19.994	103.409	19.771	16.244	0.490
1258.500	707.152	80.004	19.994	103.409	19.768	16.469	0.463
1259.000	707.413	80.005	19.994	103.409	19.768	16.473	0.465
1259.500	707.655	80.005	19.994	103.408	19.770	16.324	0.488
1260.000	707.854	80.004	19.994	103.409	19.768	16.437	0.472
1260.500	708.082	80.004	19.994	103.409	19.767	16.530	0.434
1261.000	708.370	80.004	19.994	103.409	19.768	16.467	0.472
1261.501	708.574	80.005	19.994	103.408	19.768	16.465	0.504
1262.001	708.830	80.004	19.995	103.408	19.768	16.457	0.476
1262.500	709.051	80.006	19.994	103.405	19.769	16.379	0.468
1263.001	709.291	80.004	19.994	103.403	19.768	16.459	0.469
1263.501	709.527	80.004	19.993	103.401	19.768	16.490	0.468
1264.001	709.799	80.004	19.992	103.400	19.768	16.470	0.492
1264.501	710.010	80.005	19.995	103.400	19.768	16.460	0.495
1265.001	710.263	80.005	19.995	103.402	19.766	16.588	0.474
1265.500	710.442	80.005	19.995	103.405	19.767	16.518	0.449
1266.000	710.724	80.004	19.995	103.406	19.766	16.572	0.447
1266.500	710.963	80.005	19.994	103.410	19.765	16.668	0.491
1267.000	711.178	80.004	19.994	103.409	19.766	16.585	0.487
1267.500	711.389	80.004	19.995	103.410	19.770	16.346	0.440
1268.000	711.655	80.006	19.994	103.409	19.768	16.436	0.452
1268.500	711.921	80.004	19.993	103.410	19.764	16.732	0.505
1269.000	712.137	80.004	19.994	103.410	19.770	16.353	0.506
1269.500	712.390	80.004	19.993	103.411	19.768	16.494	0.475
1270.001	712.622	80.004	19.994	103.411	19.766	16.631	0.477
1270.501	712.844	80.006	19.993	103.411	19.768	16.492	0.470
1271.000	713.085	80.005	19.994	103.411	19.767	16.533	0.459
1271.500	713.360	80.006	19.994	103.410	19.766	16.592	0.490
1272.000	713.538	80.006	19.994	103.409	19.768	16.447	0.484
1272.500	713.835	80.005	19.995	103.407	19.767	16.558	0.464
1273.000	714.083	80.005	19.994	103.407	19.763	16.784	0.510
1273.500	714.328	80.007	19.994	103.406	19.764	16.742	0.519
1274.000	714.572	80.007	19.994	103.405	19.766	16.584	0.491
1274.500	714.798	80.006	19.995	103.405	19.765	16.644	0.479
1275.000	715.043	80.006	19.994	103.405	19.768	16.443	0.471
1275.500	715.294	80.006	19.993	103.401	19.767	16.516	0.484
1276.000	715.540	80.007	19.992	103.401	19.764	16.716	0.497
1276.500	715.769	80.007	19.992	103.403	19.766	16.606	0.486
1277.000	715.994	80.009	19.993	103.404	19.769	16.405	0.464
1277.500	716.251	80.006	19.993	103.403	19.768	16.483	0.468
1278.000	716.512	80.007	19.993	103.401	19.765	16.685	0.500
1278.500	716.742	80.007	19.993	103.396	19.766	16.607	0.504
1279.000	717.038	80.007	19.995	103.391	19.765	16.664	0.509
1279.500	717.192	80.007	19.993	103.384	19.766	16.578	0.488
1280.000	717.538	80.009	19.993	103.380	19.767	16.559	0.475
1280.501	717.713	80.007	19.993	103.379	19.765	16.638	0.511
1281.001	717.975	80.005	19.994	103.379	19.765	16.666	0.479
1281.501	718.281	80.007	19.993	103.377	19.768	16.467	0.502
1282.001	718.480	80.006	19.995	103.378	19.768	16.483	0.536
1282.501	718.698	80.007	19.994	103.377	19.767	16.509	0.461
1283.000	718.993	80.007	19.995	103.375	19.765	16.674	0.465
1283.501	719.242	80.006	19.993	103.376	19.766	16.598	0.529
1284.001	719.470	80.006	19.994	103.382	19.766	16.564	0.510
1284.501	719.719	80.006	19.994	103.385	19.763	16.799	0.477
1285.001	719.974	80.005	19.994	103.385	19.765	16.683	0.491
1285.500	720.233	80.007	19.993	103.387	19.767	16.553	0.509
1286.000	720.480	80.007	19.994	103.384	19.766	16.604	0.510
1286.501	720.735	80.005	19.994	103.378	19.765	16.638	0.505
1287.001	720.942	80.007	19.994	103.374	19.766	16.582	0.482
1287.500	721.267	80.005	19.994	103.373	19.766	16.599	0.497
1288.000	721.499	80.006	19.995	103.369	19.769	16.372	0.545
1288.500	721.742	80.007	19.995	103.368	19.768	16.481	0.516
1289.000	721.992	80.007	19.994	103.367	19.769	16.365	0.484
1289.500	722.276	80.006	19.995	103.367	19.766	16.605	0.514
1290.000	722.499	80.006	19.994	103.366	19.769	16.382	0.520
1290.500	722.764	80.006	19.994	103.360	19.770	16.330	0.497
1291.000	723.008	80.006	19.994	103.355	19.768	16.447	0.498
1291.500	723.235	80.005	19.995	103.354	19.769	16.367	0.490
1292.000	723.523	80.006	19.994	103.354	19.768	16.442	0.493
1292.500	723.748	80.006	19.994	103.354	19.769	16.394	0.514
1293.001	724.044	80.005	19.995	103.355	19.771	16.262	0.517
1293.501	724.287	80.007	19.995	103.358	19.771	16.230	0.530
1294.000	724.539	80.006	19.995	103.355	19.768	16.437	0.517
1294.500	724.788	80.005	19.996	103.349	19.769	16.343	0.498
1295.000	725.039	80.007	19.995	103.343	19.770	16.325	0.501
1295.500	725.300	80.007	19.994	103.339	19.770	16.332	0.506
1296.000	725.586	80.006	19.994	103.334	19.774	16.047	0.529
1296.500	725.823	80.007	19.996	103.330	19.773	16.085	0.535
1297.000	726.089	80.007	19.993	103.328	19.770	16.325	0.513
1297.500	726.319	80.007	19.995	103.329	19.770	16.280	0.499
1298.000	726.610	80.007	19.996	103.328	19.773	16.106	0.508
1298.500	726.842	80.008	19.994	103.326	19.772	16.172	0.522
1299.000	727.140	80.008	19.994	103.325	19.774	16.050	0.526
1299.500	727.389	80.007	19.993	103.322	19.773	16.081	0.538
1300.000	727.628	80.008	19.995	103.315	19.776	15.890	0.518
1300.500	727.883	80.007	19.994	103.310	19.773	16.087	0.491
1301.000	728.145	80.008	19.995	103.304	19.774	16.049	0.505
1301.500	728.462	80.009	19.994	103.298	19.776	15.890	0.548
1302.000	728.689	80.009	19.994	103.293	19.773	16.101	0.562
1302.500	728.923	80.009	19.994	103.292	19.773	16.109	0.503
1303.000	729.193	80.007	19.994	103.290	19.774	16.043	0.482
1303.500	729.454	80.008	19.994	103.289	19.776	15.851	0.517
1304.000	729.711	80.007	19.994	103.285	19.776	15.871	0.524
1304.500	730.005	80.007	19.995	103.283	19.776	15.870	0.535
1305.001	730.206	80.007	19.993	103.280	19.775	15.972	0.523
1305.501	730.508	80.007	19.994	103.272	19.774	16.035	0.499
1306.000	730.741	80.009	19.995	103.265	19.776	15.855	0.519
1306.500	731.023	80.007	19.995	103.261	19.773	16.062	0.525
1307.000	731.286	80.008	19.996	103.255	19.772	16.121	0.530
1307.500	731.514	80.006	19.995	103.250	19.777	15.771	0.519
1308.000	731.794	80.007	19.995	103.250	19.775	15.952	0.499
1308.501	732.028	80.007	19.994	103.250	19.777	15.790	0.510
1309.001	732.282	80.007	19.994	103.249	19.778	15.710	0.501
1309.501	732.580	80.006	19.995	103.248	19.780	15.587	0.520
1310.000	732.775	80.005	19.995	103.248	19.776	15.885	0.522
1310.500	733.026	80.007	19.994	103.248	19.780	15.605	0.470
1311.000	733.269	80.006	19.995	103.247	19.777	15.790	0.470
1311.500	733.567	80.005	19.995	103.246	19.779	15.677	0.517
1312.000	733.828	80.005	19.994	103.245	19.775	15.904	0.550
1312.500	734.070	80.006	19.996	103.244	19.779	15.659	0.531
1313.000	734.311	80.004	19.996	103.241	19.779	15.640	0.493
1313.500	734.573	80.005	19.995	103.234	19.782	15.477	0.493
1314.000	734.856	80.004	19.996	103.228	19.781	15.548	0.524
1314.500	735.067	80.006	19.995	103.222	19.783	15.405	0.519
1315.000	735.380	80.005	19.995	103.216	19.781	15.526	0.509
1315.500	735.592	80.006	19.995	103.212	19.785	15.245	0.524
1316.000	735.827	80.005	19.995	103.211	19.785	15.270	0.486
1316.500	736.076	80.005	19.994	103.211	19.786	15.172	0.466
1317.000	736.316	80.006	19.995	103.211	19.783	15.385	0.487
1317.500	736.614	80.006	19.994	103.206	19.784	15.314	0.513
1318.000	736.870	80.005	19.995	103.205	19.785	15.257	0.546
1318.500	737.092	80.005	19.994	103.198	19.786	15.173	0.516
1319.000	737.356	80.004	19.995	103.191	19.783	15.344	0.482
1319.500	737.580	80.005	19.995	103.186	19.788	15.005	0.487
1320.000	737.815	80.005	19.994	103.184	19.787	15.126	0.474
1320.500	738.134	80.005	19.995	103.179	19.788	14.996	0.507
1321.001	738.334	80.005	19.995	103.178	19.790	14.856	0.537
1321.501	738.643	80.005	19.995	103.177	19.786	15.162	0.514
1322.000	738.880	80.004	19.995	103.175	19.793	14.665	0.527
1322.500	739.128	80.004	19.994	103.172	19.790	14.884	0.515
1323.000	739.418	80.006	19.996	103.168	19.792	14.754	0.511
1323.500	739.657	80.004	19.995	103.167	19.791	14.819	0.534
1324.000	739.907	80.004	19.997	103.166	19.790	14.850	0.509
1324.500	740.146	80.004	19.997	103.166	19.793	14.672	0.489
1325.000	740.408	80.004	19.996	103.168	19.794	14.619	0.495
1325.500	740.688	80.006	19.995	103.168	19.794	14.609	0.521
1326.000	740.951	80.003	19.997	103.167	19.793	14.639	0.542
1326.500	741.195	80.004	19.996	103.161	19.793	14.701	0.526
1327.000	741.498	80.005	19.997	103.153	19.793	14.667	0.527
1327.500	741.727	80.004	19.997	103.145	19.793	14.672	0.539
1328.000	741.996	80.004	19.997	103.140	19.793	14.684	0.515
1328.500	742.236	80.006	19.996	103.141	19.792	14.750	0.504
1329.001	742.508	80.005	19.996	103.141	19.794	14.595	0.511
1329.501	742.737	80.004	19.996	103.141	19.792	14.769	0.506
1330.001	743.030	80.005	19.995	103.141	19.794	14.572	0.512
1330.501	743.275	80.005	19.995	103.141	19.795	14.564	0.531
