Sample ID:	C:\MCC\MCC Cal\Test\Laminate_Flooring_MCC_30K_min_211108_R2.txt
Sample Weight (mg):	4.93
Heating Rate (C/s):	0.5
Combustor Temp (C):	900
N2 Flow Rate (cc/min):	80
O2 Flow Rate (cc/min):	20
Calibration File:	C:\MCC\MCC Cal\Coeff1 JN10440_30_210304.txt.txt
T Correction Coefficients:	0	1.024463	0
Time Shift (s):	14
*
Time (s)	Temperature (C)	N2 flow rate (cc/min)	O2 flow rate (cc/min)	Flow Rate (cc/min)	Oxygen (%)	HRR (W/g)	Heating rate (C/s)
0.000	107.841	80.000	19.995	102.963	20.215	0.242	-0.015
0.500	107.843	80.011	19.993	102.967	20.218	0.084	-0.021
1.000	107.867	80.002	19.995	102.970	20.213	0.383	0.009
1.500	107.844	79.989	19.994	102.977	20.216	0.196	0.014
2.000	107.837	79.996	19.996	102.976	20.213	0.371	-0.014
2.500	107.812	80.002	19.995	102.977	20.215	0.244	-0.031
3.000	107.795	80.001	19.995	102.976	20.217	0.132	-0.037
3.500	107.823	80.001	19.994	102.973	20.215	0.242	-0.016
4.000	107.804	80.001	19.994	102.972	20.218	0.096	0.010
4.500	107.864	79.995	19.995	102.973	20.216	0.171	0.025
5.000	107.808	80.003	19.995	102.974	20.215	0.246	0.023
5.500	107.862	80.001	19.994	102.972	20.215	0.271	0.001
6.000	107.818	80.000	19.994	102.972	20.218	0.102	0.004
6.500	107.845	79.996	19.995	102.967	20.218	0.070	-0.004
7.000	107.855	79.998	19.993	102.969	20.216	0.212	0.010
7.500	107.822	80.000	19.995	102.971	20.213	0.369	0.007
8.000	107.806	80.000	19.995	102.974	20.215	0.259	-0.036
8.500	107.833	80.002	19.996	102.978	20.216	0.205	-0.019
9.000	107.800	80.001	19.994	102.985	20.217	0.144	0.003
9.501	107.805	80.000	19.995	102.988	20.215	0.280	-0.016
10.001	107.824	80.000	19.995	102.988	20.218	0.070	-0.002
10.501	107.773	80.001	19.994	102.987	20.217	0.152	-0.004
11.000	107.817	80.004	19.994	102.987	20.216	0.185	-0.020
11.500	107.809	80.004	19.994	102.988	20.217	0.164	0.014
12.000	107.839	80.002	19.995	102.984	20.218	0.054	0.030
12.500	107.806	80.001	19.994	102.985	20.216	0.178	0.010
13.000	107.810	80.003	19.994	102.988	20.218	0.075	-0.016
13.500	107.821	80.002	19.994	102.990	20.214	0.339	-0.007
14.000	107.826	80.004	19.994	102.987	20.215	0.264	0.015
14.500	107.809	80.001	19.995	102.990	20.214	0.316	0.002
15.000	107.807	79.993	19.996	102.989	20.212	0.451	-0.015
15.500	107.821	80.000	19.993	102.986	20.213	0.366	-0.004
16.000	107.791	80.004	19.994	102.986	20.215	0.275	-0.002
16.500	107.807	80.001	19.993	102.989	20.216	0.221	-0.015
17.000	107.788	80.002	19.993	102.990	20.215	0.275	-0.008
17.500	107.847	80.002	19.994	102.990	20.212	0.489	0.019
18.000	107.848	80.001	19.996	102.992	20.212	0.471	0.050
18.500	107.873	79.999	19.995	102.993	20.214	0.330	0.043
19.000	107.838	80.001	19.995	102.993	20.211	0.516	0.008
19.500	107.867	80.000	19.994	102.994	20.213	0.414	-0.008
20.000	107.851	80.002	19.994	102.994	20.211	0.530	0.003
20.500	107.828	80.000	19.996	102.997	20.211	0.543	-0.012
21.000	107.842	80.000	19.995	103.003	20.210	0.562	-0.024
21.500	107.838	79.996	19.994	103.005	20.211	0.528	0.000
22.000	107.847	80.003	19.994	103.009	20.209	0.636	0.007
22.500	107.853	79.999	19.994	103.017	20.211	0.521	0.010
23.000	107.865	80.000	19.994	103.024	20.212	0.486	0.016
23.500	107.850	80.001	19.994	103.027	20.206	0.845	0.007
24.000	107.888	80.002	19.994	103.032	20.207	0.764	0.010
24.500	107.941	80.003	19.995	103.037	20.204	0.959	0.057
25.000	107.917	79.999	19.998	103.045	20.207	0.795	0.060
25.500	107.913	79.998	19.994	103.050	20.205	0.932	0.001
26.000	107.942	80.001	19.993	103.056	20.201	1.180	-0.001
26.500	107.943	80.001	19.996	103.063	20.204	1.016	0.027
27.000	107.921	80.001	19.995	103.072	20.204	0.996	0.004
27.500	107.961	80.002	19.994	103.078	20.201	1.175	-0.001
28.000	107.968	80.000	19.995	103.087	20.200	1.261	0.033
28.500	107.989	80.000	19.995	103.095	20.199	1.320	0.037
29.000	108.038	79.999	19.995	103.102	20.196	1.511	0.049
29.500	108.045	80.002	19.994	103.108	20.198	1.350	0.063
30.000	108.065	80.004	19.995	103.109	20.195	1.580	0.042
30.500	108.088	80.005	19.994	103.108	20.199	1.320	0.035
31.000	108.166	80.001	19.993	103.110	20.192	1.759	0.072
31.500	108.161	80.003	19.994	103.111	20.191	1.839	0.087
32.000	108.205	80.002	19.994	103.112	20.196	1.512	0.056
32.500	108.250	80.012	19.993	103.120	20.193	1.723	0.064
33.000	108.270	79.999	19.994	103.130	20.190	1.880	0.077
33.500	108.301	80.004	19.994	103.136	20.194	1.625	0.058
34.000	108.334	80.002	19.994	103.141	20.188	2.006	0.057
34.500	108.383	80.006	19.994	103.147	20.192	1.793	0.073
35.000	108.424	79.991	19.995	103.146	20.189	1.964	0.086
35.500	108.471	80.000	19.994	103.139	20.188	2.009	0.088
36.000	108.505	80.008	19.993	103.137	20.187	2.102	0.085
36.500	108.550	80.004	19.994	103.135	20.188	2.061	0.081
37.000	108.660	80.003	19.995	103.131	20.186	2.192	0.117
37.500	108.693	80.000	19.995	103.132	20.185	2.229	0.149
38.000	108.716	80.003	19.994	103.136	20.188	2.036	0.099
38.500	108.801	79.995	19.993	103.134	20.188	2.013	0.082
39.000	108.840	80.006	19.993	103.136	20.186	2.163	0.116
39.501	108.908	79.997	19.994	103.141	20.187	2.078	0.116
40.001	108.958	80.001	19.994	103.141	20.188	2.053	0.113
40.500	109.009	79.998	19.995	103.141	20.183	2.330	0.109
41.000	109.082	80.006	19.994	103.142	20.184	2.262	0.112
41.500	109.157	80.006	19.994	103.140	20.183	2.332	0.137
42.000	109.201	80.000	19.994	103.139	20.186	2.189	0.134
42.500	109.240	80.010	19.994	103.141	20.182	2.435	0.101
43.000	109.345	80.002	19.994	103.142	20.185	2.255	0.113
43.500	109.401	79.989	19.996	103.145	20.183	2.387	0.153
44.000	109.461	79.988	19.995	103.147	20.184	2.294	0.139
44.500	109.547	80.017	19.993	103.148	20.181	2.461	0.131
45.000	109.592	79.997	19.996	103.150	20.176	2.811	0.138
45.500	109.692	80.000	19.995	103.149	20.178	2.675	0.138
46.000	109.793	79.995	19.994	103.147	20.180	2.538	0.173
46.500	109.859	79.999	19.996	103.154	20.179	2.616	0.184
47.000	109.931	79.990	19.995	103.162	20.178	2.674	0.153
47.500	109.980	80.000	19.998	103.165	20.176	2.797	0.130
48.000	110.040	80.005	19.993	103.169	20.176	2.804	0.115
48.500	110.162	79.998	19.995	103.180	20.176	2.843	0.145
49.000	110.217	79.997	19.995	103.182	20.178	2.702	0.180
49.500	110.328	79.997	19.997	103.183	20.177	2.777	0.172
50.000	110.415	80.001	19.995	103.183	20.175	2.854	0.182
50.500	110.528	80.003	19.994	103.191	20.175	2.908	0.198
51.001	110.618	79.995	19.997	103.192	20.177	2.754	0.201
51.501	110.673	80.001	19.995	103.195	20.175	2.867	0.174
52.000	110.813	80.000	19.996	103.200	20.175	2.863	0.170
52.501	110.902	79.995	19.995	103.204	20.174	2.933	0.212
53.001	110.980	79.997	19.996	103.205	20.178	2.702	0.198
53.500	111.073	79.992	19.997	103.205	20.171	3.167	0.169
54.000	111.168	80.010	19.997	103.209	20.174	2.956	0.180
54.501	111.248	79.980	19.996	103.213	20.174	2.947	0.182
55.001	111.384	79.995	19.996	103.214	20.172	3.049	0.195
55.500	111.487	79.992	19.996	103.217	20.174	2.977	0.227
56.000	111.613	80.010	19.994	103.220	20.175	2.904	0.234
56.500	111.732	80.008	19.991	103.223	20.173	3.022	0.237
57.000	111.821	79.998	19.993	103.221	20.171	3.147	0.226
57.501	111.917	79.996	19.996	103.227	20.171	3.130	0.197
58.001	112.049	80.000	19.997	103.226	20.172	3.072	0.207
58.501	112.184	79.998	19.991	103.224	20.171	3.116	0.248
59.001	112.286	79.998	19.992	103.223	20.170	3.211	0.252
59.500	112.404	79.997	19.996	103.222	20.175	2.909	0.228
60.000	112.550	79.995	19.999	103.220	20.174	2.973	0.242
60.500	112.661	80.000	19.993	103.222	20.172	3.057	0.261
61.001	112.769	79.999	19.996	103.228	20.172	3.059	0.238
61.501	112.866	79.999	19.997	103.225	20.171	3.131	0.212
62.000	113.011	79.998	19.996	103.225	20.172	3.051	0.223
62.500	113.169	80.002	19.996	103.224	20.169	3.301	0.272
63.000	113.286	80.001	19.992	103.226	20.166	3.437	0.289
63.500	113.440	79.999	19.991	103.226	20.170	3.233	0.273
64.000	113.567	79.995	19.997	103.230	20.170	3.205	0.276
64.500	113.714	80.006	19.995	103.230	20.170	3.178	0.277
65.000	113.830	79.991	19.994	103.230	20.172	3.101	0.268
65.500	113.992	79.999	19.994	103.224	20.171	3.121	0.271
66.000	114.117	79.997	19.997	103.223	20.167	3.432	0.283
66.500	114.271	80.006	19.995	103.215	20.167	3.408	0.283
67.000	114.429	80.005	19.996	103.212	20.170	3.192	0.295
67.500	114.574	79.987	19.996	103.210	20.166	3.483	0.308
68.000	114.712	80.000	19.995	103.209	20.169	3.288	0.293
68.500	114.862	80.003	19.994	103.204	20.168	3.349	0.285
69.001	115.005	80.004	19.991	103.211	20.167	3.433	0.291
69.501	115.118	79.994	19.994	103.213	20.169	3.251	0.274
70.000	115.300	80.014	19.992	103.210	20.169	3.269	0.276
70.500	115.427	79.998	19.996	103.212	20.166	3.446	0.302
71.001	115.580	80.009	19.993	103.213	20.166	3.476	0.294
71.501	115.757	79.997	19.994	103.212	20.165	3.501	0.305
72.000	115.906	79.996	19.994	103.212	20.167	3.394	0.328
72.500	116.053	79.994	19.994	103.218	20.166	3.475	0.311
73.000	116.173	79.999	19.996	103.222	20.166	3.478	0.281
73.500	116.373	80.005	19.995	103.226	20.166	3.451	0.294
74.001	116.514	80.001	19.993	103.227	20.165	3.514	0.331
74.501	116.685	80.001	19.995	103.231	20.168	3.355	0.327
75.000	116.840	80.002	19.993	103.233	20.168	3.312	0.319
75.500	116.984	80.000	19.995	103.235	20.166	3.478	0.312
76.000	117.147	80.010	19.993	103.235	20.171	3.150	0.303
76.500	117.300	79.996	19.994	103.238	20.166	3.439	0.311
77.000	117.450	79.990	19.994	103.237	20.167	3.389	0.309
77.500	117.651	80.002	19.996	103.236	20.169	3.298	0.327
78.000	117.806	79.998	19.994	103.233	20.168	3.350	0.354
78.500	117.959	79.991	19.995	103.234	20.165	3.545	0.332
79.001	118.136	79.994	19.996	103.229	20.167	3.380	0.319
79.501	118.291	80.015	19.992	103.229	20.165	3.516	0.331
80.000	118.488	80.004	19.995	103.232	20.170	3.239	0.342
80.500	118.604	79.997	19.995	103.232	20.166	3.436	0.332
81.000	118.813	80.004	19.995	103.231	20.164	3.616	0.319
81.500	119.006	79.992	19.997	103.232	20.168	3.341	0.364
82.000	119.145	80.005	19.995	103.232	20.165	3.527	0.367
82.500	119.323	79.994	19.997	103.234	20.165	3.512	0.325
83.000	119.458	80.008	19.996	103.234	20.167	3.407	0.316
83.500	119.675	79.997	19.997	103.236	20.165	3.512	0.333
84.000	119.869	80.004	19.996	103.240	20.164	3.584	0.381
84.500	120.032	80.004	19.995	103.240	20.164	3.628	0.384
85.000	120.220	79.999	19.995	103.238	20.165	3.526	0.354
85.500	120.420	80.007	19.995	103.239	20.165	3.501	0.370
86.000	120.566	79.992	19.995	103.243	20.165	3.501	0.367
86.500	120.784	79.999	19.995	103.245	20.164	3.571	0.355
87.000	120.932	79.997	19.996	103.247	20.163	3.646	0.365
87.500	121.155	79.996	19.995	103.248	20.163	3.677	0.368
88.000	121.343	79.997	19.997	103.253	20.165	3.507	0.391
88.500	121.558	79.998	19.995	103.250	20.161	3.799	0.407
89.000	121.730	79.993	19.996	103.249	20.165	3.557	0.395
89.500	121.986	80.003	19.991	103.246	20.163	3.695	0.408
90.000	122.146	80.003	19.995	103.245	20.163	3.691	0.422
90.500	122.286	79.999	19.994	103.245	20.162	3.714	0.358
91.000	122.540	80.022	19.993	103.247	20.162	3.714	0.347
91.501	122.723	80.008	19.993	103.250	20.163	3.654	0.415
92.001	122.936	80.011	19.991	103.252	20.162	3.703	0.416
92.501	123.119	79.979	19.996	103.253	20.166	3.485	0.396
93.001	123.324	79.993	19.997	103.245	20.164	3.628	0.392
93.500	123.508	79.994	19.994	103.239	20.164	3.567	0.389
94.000	123.733	80.000	19.994	103.238	20.165	3.535	0.399
94.500	123.931	79.999	19.995	103.238	20.166	3.462	0.416
95.000	124.112	80.001	19.994	103.238	20.165	3.505	0.401
95.501	124.273	80.007	19.997	103.241	20.161	3.764	0.360
96.001	124.539	79.999	19.994	103.238	20.166	3.498	0.384
96.501	124.688	79.995	19.995	103.236	20.166	3.456	0.421
97.000	124.900	80.004	19.995	103.236	20.166	3.485	0.388
97.500	125.129	80.003	19.994	103.238	20.165	3.558	0.401
98.000	125.304	79.999	19.995	103.244	20.165	3.551	0.423
98.500	125.526	79.998	19.993	103.253	20.168	3.328	0.401
99.000	125.733	80.001	19.993	103.253	20.167	3.424	0.413
99.501	125.942	80.007	19.994	103.255	20.168	3.344	0.422
100.001	126.171	80.002	19.994	103.252	20.167	3.376	0.427
100.501	126.377	79.998	19.994	103.250	20.168	3.331	0.436
101.001	126.589	80.002	19.994	103.247	20.167	3.419	0.426
101.500	126.782	80.004	19.994	103.242	20.167	3.373	0.412
102.000	127.012	79.999	19.995	103.241	20.167	3.376	0.414
102.500	127.209	79.998	19.995	103.244	20.166	3.439	0.425
103.000	127.413	79.999	19.994	103.239	20.171	3.146	0.414
103.500	127.632	79.997	19.996	103.236	20.167	3.403	0.412
104.000	127.854	80.002	19.996	103.236	20.170	3.213	0.432
104.500	128.063	79.998	19.997	103.234	20.170	3.205	0.436
105.000	128.273	80.008	19.995	103.232	20.168	3.344	0.425
105.500	128.513	80.000	19.995	103.233	20.169	3.295	0.434
106.000	128.694	80.004	19.995	103.234	20.170	3.195	0.436
106.500	128.947	79.996	19.996	103.234	20.168	3.335	0.428
107.000	129.144	80.001	19.994	103.231	20.169	3.280	0.442
107.500	129.394	80.003	19.995	103.228	20.170	3.219	0.449
108.000	129.616	79.994	19.995	103.227	20.169	3.256	0.460
108.500	129.817	80.000	19.995	103.226	20.170	3.221	0.448
109.000	130.080	80.002	19.994	103.225	20.168	3.344	0.444
109.500	130.286	80.007	19.993	103.226	20.167	3.387	0.466
110.000	130.495	79.983	19.997	103.228	20.170	3.205	0.442
110.500	130.697	79.998	19.995	103.227	20.171	3.147	0.413
111.000	130.924	80.008	19.992	103.228	20.169	3.258	0.420
111.500	131.118	80.013	19.995	103.232	20.168	3.340	0.425
112.000	131.384	80.012	19.992	103.231	20.169	3.247	0.440
112.500	131.598	79.996	19.995	103.230	20.168	3.322	0.470
113.001	131.823	80.000	19.993	103.229	20.169	3.265	0.459
113.501	132.016	79.998	19.994	103.235	20.171	3.156	0.429
114.000	132.237	80.004	19.994	103.230	20.170	3.185	0.416
114.500	132.485	80.003	19.995	103.231	20.168	3.310	0.441
115.000	132.720	80.002	19.995	103.230	20.167	3.378	0.476
115.500	132.906	80.000	19.996	103.231	20.172	3.096	0.452
116.000	133.147	79.994	19.995	103.225	20.168	3.312	0.424
116.500	133.378	80.012	19.993	103.225	20.170	3.203	0.450
117.000	133.604	80.025	19.991	103.226	20.169	3.264	0.464
117.500	133.838	80.002	19.994	103.231	20.168	3.358	0.458
118.000	134.097	80.001	19.994	103.231	20.172	3.101	0.477
118.500	134.292	80.005	19.993	103.231	20.168	3.331	0.474
119.000	134.542	80.001	19.994	103.232	20.172	3.092	0.449
119.501	134.759	79.999	19.993	103.230	20.167	3.387	0.456
120.001	134.998	80.003	19.994	103.227	20.168	3.346	0.461
120.500	135.214	79.999	19.993	103.228	20.169	3.242	0.455
121.000	135.458	79.997	19.995	103.231	20.170	3.190	0.457
121.500	135.668	79.999	19.994	103.232	20.170	3.178	0.458
122.000	135.868	79.999	19.994	103.232	20.172	3.074	0.432
122.501	136.137	79.996	19.993	103.230	20.173	3.033	0.439
123.001	136.364	80.003	19.993	103.230	20.173	2.983	0.482
123.500	136.620	80.003	19.995	103.230	20.171	3.156	0.490
124.000	136.837	79.999	19.994	103.229	20.172	3.099	0.478
124.500	137.099	80.008	19.993	103.228	20.170	3.215	0.476
125.000	137.306	80.002	19.994	103.233	20.172	3.088	0.474
125.500	137.528	79.999	19.994	103.233	20.170	3.219	0.449
126.000	137.745	79.999	19.995	103.234	20.173	2.995	0.434
126.500	138.002	79.991	19.994	103.233	20.171	3.133	0.456
127.000	138.263	80.010	19.992	103.234	20.170	3.229	0.496
127.500	138.447	79.987	19.996	103.235	20.168	3.312	0.482
128.000	138.688	80.001	19.992	103.232	20.169	3.249	0.435
128.500	138.925	80.001	19.995	103.230	20.168	3.324	0.451
129.000	139.140	79.991	19.995	103.230	20.168	3.335	0.464
129.500	139.378	80.000	19.993	103.228	20.170	3.215	0.453
130.000	139.618	79.990	19.994	103.224	20.171	3.172	0.466
130.500	139.855	80.006	19.993	103.227	20.171	3.156	0.478
131.000	140.103	80.000	19.994	103.227	20.170	3.199	0.481
131.500	140.298	80.000	19.995	103.228	20.171	3.112	0.464
132.000	140.539	80.017	19.994	103.230	20.170	3.192	0.439
132.500	140.800	80.000	19.993	103.231	20.170	3.188	0.469
133.000	141.039	80.006	19.994	103.229	20.173	2.979	0.501
133.500	141.269	79.998	19.994	103.227	20.168	3.328	0.484
134.000	141.524	79.998	19.994	103.225	20.168	3.306	0.477
134.500	141.774	79.997	19.994	103.222	20.170	3.174	0.495
135.000	141.972	79.999	19.994	103.224	20.171	3.144	0.476
135.501	142.236	80.005	19.994	103.225	20.169	3.286	0.455
136.000	142.482	80.001	19.994	103.221	20.168	3.333	0.486
136.500	142.720	80.001	19.995	103.222	20.167	3.383	0.497
137.000	142.949	80.009	19.993	103.228	20.170	3.231	0.476
137.500	143.195	80.002	19.995	103.228	20.170	3.231	0.471
138.000	143.442	80.006	19.995	103.228	20.169	3.285	0.484
138.500	143.652	79.994	19.997	103.235	20.168	3.361	0.475
139.000	143.923	79.999	19.995	103.233	20.169	3.272	0.469
139.500	144.169	79.990	19.994	103.232	20.172	3.043	0.499
140.000	144.406	80.009	19.996	103.230	20.172	3.054	0.500
140.500	144.662	80.005	19.994	103.234	20.171	3.149	0.488
141.000	144.836	80.000	19.995	103.232	20.169	3.254	0.461
141.500	145.083	80.002	19.994	103.233	20.170	3.229	0.426
142.000	145.341	80.001	19.994	103.233	20.172	3.108	0.463
142.500	145.598	79.999	19.995	103.232	20.170	3.186	0.510
143.000	145.830	80.001	19.996	103.228	20.170	3.210	0.502
143.500	146.068	79.999	19.995	103.226	20.170	3.233	0.479
144.000	146.307	80.001	19.995	103.226	20.167	3.421	0.474
144.500	146.580	80.001	19.994	103.225	20.168	3.362	0.495
145.000	146.773	79.998	19.996	103.224	20.174	2.934	0.489
145.500	147.045	80.002	19.995	103.222	20.171	3.158	0.465
146.000	147.247	79.997	19.994	103.222	20.171	3.172	0.469
146.500	147.515	80.002	19.995	103.221	20.170	3.210	0.472
147.000	147.762	80.009	19.995	103.223	20.172	3.068	0.492
147.500	147.981	80.000	19.997	103.223	20.175	2.892	0.491
148.000	148.230	80.000	19.996	103.225	20.173	2.997	0.468
148.500	148.473	80.001	19.997	103.223	20.174	2.919	0.480
149.000	148.708	80.001	19.994	103.222	20.172	3.081	0.485
149.500	148.941	80.000	19.995	103.219	20.171	3.113	0.473
150.000	149.193	80.001	19.996	103.219	20.171	3.119	0.476
150.500	149.467	80.000	19.994	103.219	20.175	2.849	0.505
151.000	149.704	80.003	19.994	103.223	20.170	3.176	0.518
151.500	149.939	79.996	19.996	103.225	20.174	2.913	0.492
152.000	150.200	79.998	19.996	103.226	20.171	3.170	0.484
152.500	150.429	80.003	19.994	103.222	20.173	2.992	0.493
153.000	150.704	80.001	19.993	103.223	20.171	3.127	0.497
153.500	150.957	80.007	19.993	103.223	20.172	3.079	0.515
154.000	151.172	79.997	19.993	103.224	20.173	3.040	0.498
154.500	151.419	79.998	19.998	103.224	20.173	3.027	0.465
155.000	151.700	79.992	19.995	103.228	20.175	2.856	0.495
155.500	151.938	80.001	19.995	103.228	20.173	3.002	0.523
156.000	152.144	80.002	19.994	103.224	20.174	2.913	0.481
156.500	152.391	79.999	19.994	103.223	20.175	2.870	0.448
157.000	152.674	80.001	19.995	103.223	20.174	2.943	0.492
157.500	152.895	79.998	19.999	103.223	20.176	2.802	0.517
158.000	153.137	80.000	19.995	103.222	20.173	2.993	0.484
158.500	153.421	80.007	19.993	103.225	20.178	2.683	0.495
159.000	153.669	80.014	19.993	103.226	20.175	2.875	0.529
159.500	153.909	80.000	19.994	103.230	20.177	2.766	0.510
160.000	154.145	79.994	19.995	103.230	20.174	2.943	0.482
160.500	154.412	79.999	19.994	103.229	20.175	2.855	0.489
161.000	154.615	80.002	19.994	103.228	20.176	2.796	0.487
161.500	154.848	80.005	19.998	103.227	20.174	2.959	0.453
162.000	155.115	79.999	19.996	103.221	20.175	2.893	0.468
162.500	155.363	80.011	19.997	103.221	20.175	2.891	0.507
163.000	155.610	80.004	19.996	103.224	20.178	2.693	0.505
163.500	155.873	79.996	19.994	103.222	20.176	2.802	0.502
164.000	156.113	80.000	19.993	103.220	20.174	2.925	0.506
164.500	156.369	80.001	19.995	103.222	20.176	2.790	0.499
165.000	156.599	79.997	19.997	103.221	20.177	2.763	0.491
165.500	156.864	79.999	19.995	103.215	20.175	2.893	0.491
166.000	157.115	79.996	19.994	103.215	20.175	2.863	0.506
166.500	157.361	79.999	19.995	103.213	20.177	2.723	0.506
167.000	157.586	79.996	20.002	103.210	20.174	2.921	0.484
167.500	157.858	80.012	19.994	103.203	20.174	2.968	0.484
168.000	158.067	79.990	19.997	103.202	20.176	2.816	0.489
168.500	158.344	80.001	19.995	103.199	20.175	2.893	0.483
169.000	158.568	80.015	19.992	103.196	20.174	2.925	0.494
169.500	158.865	80.002	19.993	103.194	20.176	2.786	0.511
170.000	159.096	80.004	19.995	103.195	20.175	2.893	0.524
170.500	159.350	80.001	19.996	103.193	20.178	2.711	0.506
171.000	159.558	79.991	19.998	103.197	20.174	2.972	0.473
171.500	159.852	80.002	19.997	103.197	20.172	3.077	0.482
172.000	160.106	80.002	19.995	103.196	20.175	2.898	0.525
172.500	160.361	80.002	19.995	103.200	20.176	2.832	0.528
173.000	160.574	79.995	19.999	103.200	20.172	3.082	0.488
173.500	160.821	79.997	19.999	103.197	20.178	2.708	0.464
174.000	161.096	80.004	19.995	103.203	20.177	2.780	0.491
174.500	161.343	80.005	19.994	103.209	20.176	2.793	0.523
175.000	161.557	80.000	19.995	103.214	20.175	2.902	0.492
175.500	161.802	79.992	19.997	103.220	20.175	2.893	0.459
176.000	162.059	79.997	19.995	103.223	20.175	2.871	0.480
176.500	162.292	79.993	19.995	103.224	20.176	2.823	0.496
177.000	162.557	80.013	19.994	103.219	20.174	2.941	0.495
177.500	162.786	79.998	19.996	103.214	20.174	2.932	0.496
178.000	163.029	80.001	19.994	103.206	20.171	3.168	0.483
178.500	163.264	80.000	19.994	103.201	20.174	2.970	0.474
179.000	163.513	79.998	19.994	103.196	20.175	2.900	0.481
179.500	163.806	80.005	19.993	103.197	20.177	2.760	0.513
180.000	164.019	80.000	19.995	103.202	20.173	3.039	0.524
180.500	164.265	80.001	19.994	103.207	20.177	2.725	0.482
181.000	164.531	80.001	19.994	103.210	20.175	2.907	0.486
181.500	164.783	80.003	19.997	103.210	20.174	2.943	0.516
182.000	164.996	80.003	19.995	103.209	20.172	3.057	0.492
182.500	165.288	79.987	19.996	103.199	20.174	2.960	0.484
183.000	165.521	79.997	19.995	103.195	20.171	3.128	0.515
183.500	165.796	80.003	19.994	103.190	20.174	2.953	0.517
184.000	166.055	80.006	19.992	103.193	20.171	3.112	0.521
184.500	166.263	80.009	19.994	103.192	20.173	2.993	0.500
185.000	166.565	79.999	19.993	103.197	20.174	2.962	0.488
185.500	166.749	79.996	19.994	103.198	20.174	2.916	0.498
186.000	167.027	80.002	19.990	103.200	20.172	3.071	0.474
186.500	167.248	80.002	19.996	103.204	20.173	3.041	0.480
187.000	167.520	80.003	19.994	103.207	20.172	3.096	0.496
187.500	167.750	80.001	19.994	103.207	20.175	2.871	0.498
188.000	167.992	80.003	19.994	103.207	20.174	2.946	0.487
188.500	168.200	80.006	19.994	103.212	20.175	2.882	0.461
189.000	168.463	80.004	19.994	103.205	20.175	2.871	0.461
189.500	168.735	80.001	19.994	103.201	20.174	2.923	0.503
190.000	168.945	80.005	19.994	103.200	20.174	2.921	0.508
190.500	169.210	80.002	19.993	103.199	20.178	2.689	0.479
191.000	169.479	80.003	19.992	103.196	20.172	3.050	0.505
191.500	169.715	80.001	19.994	103.197	20.173	2.993	0.519
192.000	169.977	80.002	19.992	103.196	20.173	3.027	0.501
192.500	170.209	80.005	19.991	103.194	20.174	2.935	0.495
193.000	170.427	80.002	19.995	103.195	20.170	3.203	0.472
193.500	170.673	80.000	19.996	103.192	20.172	3.050	0.458
194.000	170.922	80.000	19.994	103.191	20.172	3.087	0.480
194.500	171.176	80.015	19.989	103.191	20.173	3.019	0.499
195.000	171.429	80.000	19.995	103.194	20.171	3.171	0.505
195.500	171.690	80.002	19.992	103.192	20.171	3.126	0.511
196.000	171.913	80.002	19.994	103.192	20.173	2.994	0.499
196.500	172.138	79.999	19.995	103.191	20.170	3.216	0.466
197.000	172.413	80.005	19.989	103.192	20.172	3.066	0.474
197.500	172.642	79.999	19.994	103.194	20.173	3.021	0.502
198.000	172.872	80.001	19.995	103.194	20.177	2.769	0.482
198.500	173.138	80.010	19.994	103.193	20.174	2.917	0.478
199.000	173.363	80.000	19.999	103.196	20.171	3.168	0.493
199.500	173.657	79.996	19.995	103.195	20.174	2.914	0.505
200.000	173.869	79.999	19.995	103.189	20.174	2.967	0.512
200.500	174.136	80.001	19.993	103.187	20.170	3.198	0.493
201.000	174.391	79.997	19.990	103.187	20.173	3.003	0.501
201.500	174.614	79.994	19.997	103.188	20.175	2.876	0.500
202.000	174.868	80.002	19.994	103.190	20.172	3.101	0.478
202.500	175.107	80.000	20.000	103.194	20.172	3.107	0.485
203.000	175.356	79.995	19.998	103.194	20.171	3.155	0.490
203.500	175.626	80.001	19.995	103.193	20.175	2.869	0.504
204.000	175.832	80.000	19.994	103.189	20.175	2.894	0.498
204.500	176.094	79.999	19.995	103.188	20.175	2.908	0.471
205.000	176.357	79.999	19.994	103.187	20.175	2.885	0.496
205.500	176.566	80.000	19.993	103.188	20.177	2.774	0.499
206.000	176.811	80.001	19.995	103.188	20.172	3.073	0.463
206.500	177.076	79.999	19.995	103.188	20.175	2.876	0.482
207.000	177.294	79.989	19.995	103.188	20.175	2.876	0.497
207.500	177.564	79.998	19.994	103.188	20.174	2.944	0.485
208.000	177.808	80.004	19.994	103.187	20.172	3.094	0.501
208.500	178.062	80.008	19.993	103.189	20.174	2.912	0.506
209.000	178.256	80.000	19.994	103.192	20.171	3.144	0.473
209.500	178.543	80.001	19.995	103.191	20.173	2.998	0.465
210.000	178.778	80.004	19.995	103.192	20.171	3.114	0.502
210.500	179.009	79.997	19.993	103.192	20.176	2.816	0.494
211.000	179.269	80.000	19.994	103.190	20.173	3.005	0.478
211.500	179.522	80.000	19.994	103.186	20.171	3.114	0.502
212.000	179.778	80.000	19.994	103.186	20.174	2.958	0.511
212.500	180.004	80.000	19.995	103.185	20.176	2.807	0.496
213.000	180.275	80.000	19.994	103.185	20.171	3.141	0.489
213.500	180.524	79.999	19.993	103.185	20.175	2.876	0.508
214.000	180.738	79.999	19.994	103.186	20.173	2.978	0.492
214.500	180.987	80.004	19.993	103.185	20.173	2.985	0.463
215.000	181.247	80.001	19.995	103.187	20.174	2.957	0.486
215.500	181.500	80.006	19.994	103.186	20.177	2.762	0.510
216.000	181.751	79.995	19.994	103.186	20.173	2.998	0.508
216.500	181.925	79.991	19.997	103.188	20.172	3.078	0.465
217.000	182.242	80.005	19.994	103.186	20.174	2.921	0.458
217.500	182.501	80.008	19.994	103.185	20.172	3.042	0.534
218.000	182.753	79.995	19.996	103.188	20.176	2.822	0.544
218.500	182.997	80.002	19.995	103.188	20.172	3.080	0.503
219.000	183.265	80.005	19.993	103.187	20.174	2.973	0.504
219.500	183.469	80.011	19.994	103.191	20.175	2.889	0.492
220.000	183.710	80.001	19.994	103.191	20.173	2.983	0.458
220.500	183.949	80.003	19.994	103.190	20.172	3.078	0.462
221.000	184.210	80.001	19.995	103.190	20.174	2.919	0.490
221.500	184.463	80.001	19.994	103.188	20.173	3.006	0.507
222.000	184.687	80.004	19.992	103.187	20.177	2.729	0.496
222.500	184.942	79.996	19.996	103.187	20.172	3.060	0.478
223.000	185.210	79.998	19.994	103.185	20.172	3.081	0.501
223.500	185.416	80.005	19.994	103.185	20.173	3.028	0.498
224.000	185.712	80.008	19.993	103.185	20.174	2.924	0.488
224.500	185.959	80.000	19.993	103.186	20.173	3.008	0.523
225.000	186.200	79.999	19.995	103.187	20.174	2.969	0.515
225.500	186.452	79.999	19.994	103.188	20.172	3.072	0.490
226.000	186.679	80.001	19.996	103.188	20.174	2.931	0.486
226.500	186.936	80.001	19.995	103.188	20.174	2.972	0.482
227.000	187.200	80.003	19.995	103.187	20.173	2.994	0.503
227.500	187.435	80.000	19.995	103.185	20.173	3.024	0.510
228.000	187.685	79.999	19.995	103.184	20.171	3.130	0.492
228.500	187.968	80.000	19.996	103.181	20.168	3.322	0.509
229.000	188.181	79.996	19.995	103.181	20.176	2.819	0.514
229.500	188.444	80.001	19.995	103.180	20.169	3.269	0.486
230.000	188.717	79.999	19.996	103.180	20.171	3.154	0.506
230.500	188.901	80.003	19.995	103.179	20.170	3.235	0.496
231.000	189.116	80.016	19.994	103.181	20.170	3.206	0.428
231.500	189.438	80.001	19.994	103.179	20.170	3.185	0.468
232.000	189.593	80.004	19.996	103.177	20.174	2.955	0.507
232.500	189.885	79.999	19.998	103.171	20.171	3.139	0.462
233.000	190.120	80.002	19.995	103.168	20.173	3.023	0.487
233.500	190.368	80.008	19.994	103.166	20.169	3.285	0.505
234.000	190.652	80.007	19.995	103.168	20.170	3.235	0.508
234.500	190.891	80.001	19.995	103.168	20.173	3.022	0.528
235.000	191.120	80.000	19.996	103.172	20.170	3.188	0.495
235.500	191.294	79.997	19.996	103.172	20.169	3.267	0.436
236.000	191.593	80.005	19.996	103.170	20.170	3.194	0.438
236.500	191.821	79.995	19.995	103.169	20.171	3.155	0.500
237.000	192.039	80.004	19.996	103.169	20.173	3.028	0.486
237.500	192.272	80.001	19.996	103.171	20.173	3.001	0.449
238.000	192.539	80.002	19.995	103.172	20.171	3.155	0.476
238.500	192.794	80.004	19.994	103.176	20.171	3.144	0.511
239.000	192.974	80.003	19.995	103.176	20.172	3.101	0.479
239.500	193.265	80.000	19.995	103.175	20.169	3.265	0.453
240.000	193.488	80.003	19.994	103.172	20.174	2.940	0.492
240.500	193.734	79.999	19.996	103.172	20.170	3.206	0.492
241.000	193.982	79.999	19.994	103.170	20.171	3.124	0.482
241.500	194.205	80.001	19.994	103.167	20.172	3.090	0.483
242.000	194.473	80.001	19.995	103.169	20.168	3.305	0.481
242.500	194.742	79.994	19.995	103.172	20.171	3.167	0.514
243.000	194.936	80.002	19.995	103.175	20.170	3.196	0.500
243.500	195.164	79.973	19.996	103.178	20.171	3.133	0.443
244.000	195.400	79.998	19.997	103.180	20.172	3.087	0.444
244.500	195.612	79.997	19.995	103.179	20.170	3.180	0.456
245.000	195.890	79.997	19.996	103.178	20.171	3.139	0.469
245.500	196.146	79.998	19.995	103.173	20.173	3.010	0.512
246.000	196.361	79.997	19.995	103.171	20.175	2.878	0.502
246.500	196.607	80.001	19.995	103.175	20.172	3.089	0.466
247.000	196.835	80.001	19.996	103.177	20.172	3.071	0.467
247.500	197.103	80.000	19.994	103.177	20.173	3.012	0.485
248.000	197.346	80.001	19.994	103.180	20.173	3.012	0.504
248.500	197.535	80.002	19.995	103.180	20.171	3.108	0.472
249.000	197.809	80.001	19.995	103.176	20.170	3.237	0.447
249.500	198.050	80.001	19.994	103.174	20.171	3.142	0.489
250.000	198.289	80.001	19.994	103.171	20.171	3.124	0.498
250.500	198.527	80.001	19.995	103.166	20.170	3.194	0.479
251.000	198.770	79.999	19.995	103.163	20.169	3.255	0.479
251.500	199.049	79.999	19.997	103.168	20.167	3.402	0.501
252.000	199.327	80.003	19.995	103.166	20.168	3.351	0.540
252.500	199.561	80.002	19.995	103.170	20.167	3.369	0.535
253.000	199.768	80.000	19.994	103.176	20.166	3.483	0.477
253.500	200.012	80.003	19.996	103.179	20.169	3.269	0.446
254.000	200.231	79.998	19.996	103.177	20.168	3.353	0.457
254.500	200.487	80.001	19.995	103.180	20.167	3.371	0.469
255.000	200.729	80.001	19.995	103.182	20.170	3.217	0.486
255.500	200.938	80.003	19.995	103.179	20.168	3.337	0.474
256.000	201.199	80.000	19.995	103.177	20.170	3.221	0.460
256.500	201.433	80.000	19.997	103.176	20.166	3.442	0.483
257.000	201.725	80.001	19.996	103.175	20.169	3.292	0.511
257.500	201.957	79.999	19.993	103.176	20.169	3.239	0.525
258.000	202.178	80.000	19.997	103.179	20.169	3.251	0.489
258.500	202.447	80.002	19.996	103.182	20.166	3.473	0.472
259.000	202.684	80.000	19.995	103.179	20.167	3.369	0.497
259.500	202.943	79.999	19.996	103.178	20.166	3.437	0.501
260.000	203.192	80.000	19.996	103.175	20.169	3.274	0.502
260.500	203.414	80.000	19.994	103.176	20.166	3.444	0.489
261.000	203.641	79.998	19.996	103.179	20.166	3.444	0.460
261.500	203.880	80.000	19.995	103.184	20.166	3.481	0.458
262.000	204.136	79.999	19.996	103.188	20.166	3.480	0.480
262.500	204.386	80.000	19.994	103.188	20.165	3.510	0.500
263.000	204.637	80.001	19.994	103.186	20.167	3.419	0.504
263.500	204.857	79.999	19.995	103.185	20.166	3.494	0.486
264.000	205.120	80.001	19.994	103.182	20.162	3.706	0.477
264.500	205.326	80.001	19.996	103.182	20.164	3.590	0.476
265.000	205.621	80.001	19.995	103.183	20.167	3.408	0.485
265.500	205.876	80.000	19.996	103.181	20.166	3.492	0.526
266.000	206.117	80.000	19.994	103.180	20.164	3.572	0.523
266.500	206.363	80.000	19.997	103.181	20.165	3.559	0.491
267.000	206.580	80.001	19.997	103.178	20.167	3.424	0.475
267.500	206.809	80.004	19.996	103.177	20.164	3.597	0.455
268.000	207.032	80.002	19.995	103.180	20.165	3.542	0.449
268.500	207.334	80.000	19.989	103.181	20.164	3.597	0.489
269.000	207.583	80.003	19.995	103.184	20.165	3.558	0.538
269.500	207.862	79.999	19.994	103.182	20.164	3.565	0.539
270.000	208.054	80.002	19.996	103.182	20.164	3.587	0.500
270.500	208.337	80.003	19.997	103.175	20.161	3.785	0.473
271.000	208.555	80.002	19.996	103.174	20.163	3.665	0.488
271.500	208.807	80.003	19.994	103.170	20.164	3.612	0.485
272.000	209.078	80.005	19.992	103.173	20.162	3.742	0.497
272.500	209.304	80.003	19.994	103.174	20.163	3.644	0.510
273.000	209.576	80.002	19.993	103.177	20.163	3.671	0.497
273.500	209.788	80.002	19.992	103.175	20.164	3.594	0.491
274.000	210.003	80.005	19.992	103.178	20.163	3.693	0.456
274.500	210.292	80.002	19.995	103.176	20.161	3.824	0.466
275.000	210.528	80.003	19.996	103.171	20.163	3.652	0.515
275.500	210.744	80.003	19.994	103.168	20.160	3.851	0.488
276.000	210.977	80.002	19.994	103.164	20.162	3.737	0.450
276.500	211.276	80.003	19.996	103.158	20.162	3.708	0.490
277.000	211.502	80.003	19.993	103.154	20.160	3.851	0.528
277.500	211.760	80.003	19.995	103.152	20.161	3.760	0.504
278.000	211.988	80.002	19.994	103.153	20.162	3.721	0.485
278.500	212.260	80.002	19.994	103.158	20.157	4.051	0.493
279.000	212.488	80.003	19.994	103.159	20.160	3.835	0.500
279.500	212.730	80.003	19.994	103.162	20.160	3.830	0.486
280.000	212.982	80.002	19.995	103.163	20.159	3.926	0.482
280.500	213.235	80.001	19.995	103.165	20.160	3.884	0.499
281.000	213.501	80.001	19.995	103.166	20.159	3.919	0.512
281.500	213.737	80.002	19.992	103.169	20.159	3.912	0.510
282.000	213.996	80.001	19.995	103.174	20.159	3.948	0.499
282.500	214.255	80.001	19.993	103.180	20.159	3.916	0.506
283.000	214.494	79.999	19.995	103.179	20.159	3.948	0.508
283.500	214.755	80.001	19.995	103.176	20.157	4.028	0.499
284.000	214.979	80.000	19.994	103.170	20.156	4.101	0.493
284.500	215.209	79.997	19.995	103.162	20.154	4.275	0.470
285.000	215.490	79.998	19.995	103.158	20.157	4.028	0.482
285.500	215.741	80.003	19.994	103.156	20.155	4.158	0.521
286.000	215.971	79.999	19.995	103.158	20.159	3.949	0.507
286.500	216.226	80.000	19.995	103.164	20.155	4.199	0.483
287.000	216.457	79.999	19.995	103.169	20.157	4.035	0.485
287.500	216.727	80.000	19.995	103.170	20.156	4.146	0.493
288.000	216.965	80.000	19.995	103.173	20.156	4.099	0.505
288.500	217.228	80.001	19.994	103.172	20.156	4.149	0.505
289.000	217.451	80.000	19.995	103.171	20.155	4.169	0.494
289.500	217.703	79.999	19.994	103.173	20.157	4.024	0.481
290.000	217.970	79.998	19.996	103.178	20.154	4.247	0.497
290.500	218.191	80.002	19.990	103.178	20.154	4.258	0.504
291.000	218.422	80.001	19.993	103.179	20.153	4.337	0.470
291.500	218.722	80.000	19.996	103.182	20.154	4.254	0.491
292.000	218.959	79.998	19.995	103.180	20.152	4.394	0.534
292.500	219.193	80.000	19.996	103.179	20.152	4.412	0.504
293.000	219.438	80.001	19.994	103.174	20.153	4.305	0.475
293.500	219.678	80.000	19.996	103.176	20.151	4.428	0.482
294.000	219.926	79.999	19.995	103.173	20.151	4.451	0.486
294.500	220.192	80.001	19.995	103.172	20.150	4.483	0.500
295.000	220.404	80.000	19.995	103.172	20.154	4.280	0.496
295.500	220.651	80.000	19.996	103.174	20.152	4.358	0.469
296.000	220.929	80.003	19.994	103.171	20.151	4.449	0.492
296.500	221.170	79.999	19.995	103.171	20.150	4.485	0.522
297.000	221.427	80.002	19.996	103.171	20.150	4.505	0.508
297.500	221.665	80.000	19.995	103.164	20.151	4.437	0.497
298.000	221.930	80.002	19.996	103.163	20.150	4.494	0.499
298.500	222.141	80.000	19.994	103.165	20.152	4.363	0.489
299.000	222.404	80.006	19.995	103.164	20.150	4.527	0.475
299.500	222.646	80.001	19.992	103.164	20.152	4.402	0.490
300.000	222.933	80.002	19.994	103.169	20.149	4.577	0.517
300.500	223.164	80.001	19.994	103.169	20.152	4.386	0.523
301.000	223.424	80.003	19.994	103.166	20.150	4.533	0.505
301.500	223.649	79.999	19.996	103.163	20.150	4.510	0.488
302.000	223.865	80.001	19.994	103.162	20.147	4.717	0.463
302.500	224.146	80.001	19.994	103.160	20.148	4.638	0.469
303.000	224.413	80.000	19.994	103.161	20.145	4.835	0.522
303.500	224.640	80.001	19.995	103.161	20.146	4.796	0.521
304.000	224.921	80.000	19.994	103.166	20.146	4.748	0.501
304.500	225.118	80.001	19.995	103.168	20.145	4.833	0.493
305.000	225.405	79.999	19.995	103.172	20.143	4.946	0.481
305.500	225.713	80.000	19.994	103.172	20.148	4.672	0.539
306.000	225.931	80.000	19.996	103.174	20.141	5.095	0.560
306.500	226.161	80.002	19.994	103.170	20.143	4.978	0.487
307.000	226.436	80.000	19.995	103.170	20.144	4.922	0.477
307.500	226.673	80.001	19.996	103.168	20.144	4.927	0.509
308.000	226.949	80.002	19.995	103.165	20.143	4.993	0.513
308.500	227.187	80.002	19.995	103.163	20.140	5.142	0.513
309.000	227.440	80.002	19.995	103.162	20.143	4.983	0.502
309.500	227.702	80.000	19.996	103.159	20.137	5.330	0.503
310.000	227.926	80.000	19.995	103.157	20.139	5.217	0.500
310.500	228.196	79.999	19.996	103.159	20.139	5.217	0.490
311.000	228.446	80.000	19.995	103.158	20.138	5.322	0.507
311.500	228.704	80.000	19.993	103.158	20.139	5.253	0.514
312.000	228.948	79.999	19.995	103.157	20.142	5.031	0.505
312.500	229.237	80.000	19.995	103.157	20.139	5.199	0.518
313.000	229.486	80.001	19.996	103.162	20.139	5.233	0.536
313.500	229.731	80.000	19.993	103.164	20.137	5.340	0.516
314.000	230.004	80.000	19.995	103.169	20.140	5.171	0.506
314.500	230.277	80.001	19.995	103.174	20.137	5.380	0.532
315.000	230.523	79.997	19.993	103.174	20.137	5.340	0.533
315.500	230.776	79.999	19.995	103.168	20.134	5.522	0.510
316.000	230.997	80.000	19.996	103.167	20.137	5.381	0.487
316.500	231.253	80.000	19.995	103.164	20.137	5.347	0.475
317.000	231.478	79.999	19.995	103.159	20.136	5.434	0.479
317.500	231.738	80.000	19.995	103.157	20.137	5.374	0.483
318.000	232.001	79.998	19.996	103.158	20.135	5.494	0.504
318.500	232.218	80.000	19.995	103.155	20.135	5.520	0.502
319.000	232.506	79.998	19.995	103.154	20.132	5.717	0.493
319.500	232.742	79.998	19.996	103.156	20.130	5.788	0.515
320.000	232.966	79.998	19.996	103.159	20.134	5.549	0.492
320.500	233.227	80.001	19.994	103.161	20.135	5.518	0.472
321.000	233.471	79.997	19.995	103.162	20.131	5.759	0.495
321.500	233.718	79.999	19.995	103.161	20.132	5.681	0.498
322.000	233.989	79.999	19.995	103.159	20.132	5.691	0.504
322.500	234.232	80.000	19.996	103.158	20.130	5.825	0.516
323.000	234.523	79.997	19.995	103.155	20.130	5.827	0.524
323.500	234.743	79.999	19.995	103.155	20.130	5.815	0.523
324.000	234.960	80.000	19.995	103.159	20.125	6.133	0.474
324.500	235.203	80.002	19.994	103.162	20.127	6.018	0.449
325.000	235.477	80.001	19.996	103.160	20.130	5.808	0.489
325.500	235.742	79.995	19.994	103.160	20.127	5.983	0.528
326.000	235.960	80.002	19.994	103.159	20.128	5.949	0.511
326.500	236.233	80.001	19.996	103.154	20.128	5.974	0.486
327.000	236.449	79.999	19.997	103.150	20.127	6.034	0.490
327.500	236.742	80.003	19.995	103.151	20.125	6.174	0.499
328.000	236.974	80.000	19.997	103.153	20.125	6.129	0.517
328.500	237.202	80.002	19.995	103.154	20.124	6.188	0.493
329.000	237.477	80.000	19.996	103.155	20.123	6.286	0.482
329.500	237.699	80.003	19.995	103.155	20.123	6.266	0.500
330.000	237.975	80.003	19.995	103.153	20.126	6.104	0.497
330.500	238.221	80.002	19.995	103.152	20.125	6.113	0.510
331.000	238.461	80.003	19.995	103.152	20.122	6.368	0.504
331.500	238.738	80.001	19.995	103.151	20.121	6.388	0.502
332.000	238.955	80.000	19.995	103.151	20.122	6.350	0.506
332.500	239.206	80.002	19.995	103.151	20.120	6.441	0.481
333.000	239.446	80.003	19.994	103.150	20.120	6.454	0.479
333.500	239.695	80.000	19.996	103.150	20.118	6.566	0.490
334.000	239.929	80.002	19.995	103.149	20.121	6.425	0.486
334.500	240.183	80.000	19.995	103.149	20.121	6.377	0.486
335.000	240.431	80.003	19.995	103.150	20.118	6.577	0.494
335.500	240.652	80.002	19.995	103.151	20.117	6.645	0.485
336.000	240.907	80.002	19.996	103.151	20.120	6.449	0.472
336.500	241.158	80.000	19.994	103.150	20.120	6.486	0.491
337.000	241.372	80.002	19.995	103.150	20.120	6.490	0.486
337.500	241.633	80.001	19.996	103.148	20.119	6.536	0.470
338.000	241.886	80.001	19.995	103.148	20.119	6.509	0.495
338.500	242.134	79.999	19.996	103.148	20.118	6.591	0.507
339.000	242.394	80.000	19.994	103.147	20.114	6.884	0.504
339.500	242.644	80.002	19.995	103.146	20.116	6.729	0.509
340.000	242.895	80.000	19.996	103.146	20.115	6.790	0.506
340.500	243.145	80.000	19.996	103.145	20.116	6.700	0.501
341.000	243.398	80.000	19.996	103.145	20.114	6.863	0.502
341.500	243.630	80.002	19.994	103.147	20.112	6.968	0.493
342.000	243.881	80.001	19.995	103.149	20.113	6.897	0.484
342.500	244.093	80.000	19.995	103.149	20.112	7.016	0.473
343.000	244.347	79.999	19.996	103.149	20.113	6.915	0.465
343.500	244.604	80.000	19.996	103.148	20.113	6.927	0.488
344.000	244.885	80.000	19.996	103.149	20.115	6.791	0.524
344.500	245.095	80.000	19.996	103.148	20.108	7.249	0.514
345.000	245.314	80.002	19.997	103.149	20.110	7.152	0.460
345.500	245.605	79.999	19.996	103.149	20.108	7.274	0.469
346.000	245.815	80.001	19.996	103.149	20.107	7.285	0.506
346.500	246.064	79.999	19.997	103.150	20.107	7.342	0.481
347.000	246.315	80.001	19.996	103.150	20.107	7.349	0.479
347.500	246.581	80.002	19.996	103.150	20.105	7.470	0.508
348.000	246.814	80.001	19.996	103.150	20.107	7.336	0.508
348.500	247.081	80.002	19.996	103.148	20.107	7.298	0.500
349.000	247.332	80.001	19.996	103.148	20.108	7.263	0.509
349.500	247.561	80.002	19.996	103.147	20.108	7.227	0.499
350.000	247.848	80.002	19.995	103.147	20.107	7.313	0.498
350.500	248.088	80.003	19.995	103.147	20.105	7.443	0.521
351.000	248.328	80.001	19.995	103.148	20.107	7.329	0.503
351.501	248.575	80.002	19.996	103.148	20.106	7.375	0.483
352.000	248.828	80.002	19.995	103.148	20.106	7.404	0.494
352.500	249.041	80.001	19.996	103.148	20.105	7.479	0.484
353.000	249.299	80.002	19.995	103.146	20.106	7.397	0.469
353.500	249.566	80.003	19.996	103.146	20.102	7.613	0.498
354.000	249.837	80.001	19.995	103.145	20.103	7.558	0.531
354.500	250.108	80.005	19.996	103.145	20.104	7.533	0.540
355.000	250.312	80.002	19.996	103.146	20.104	7.488	0.508
355.500	250.602	80.000	19.996	103.149	20.104	7.542	0.485
356.000	250.834	80.000	19.997	103.151	20.104	7.520	0.508
356.500	251.091	80.000	19.995	103.151	20.104	7.531	0.505
357.000	251.334	80.002	19.995	103.151	20.104	7.519	0.494
357.500	251.606	80.002	19.996	103.150	20.104	7.533	0.508
358.000	251.838	80.002	19.995	103.147	20.103	7.579	0.509
358.500	252.111	80.002	19.994	103.146	20.102	7.663	0.504
359.000	252.319	80.003	19.994	103.146	20.101	7.690	0.493
359.500	252.623	80.000	19.995	103.146	20.103	7.574	0.497
360.000	252.821	80.003	19.996	103.146	20.101	7.685	0.507
360.500	253.063	80.004	19.993	103.146	20.104	7.542	0.471
361.000	253.309	80.000	19.995	103.147	20.104	7.490	0.464
361.500	253.541	80.001	19.994	103.147	20.105	7.419	0.483
362.001	253.782	80.000	19.995	103.147	20.101	7.680	0.475
362.501	254.038	79.999	19.995	103.148	20.101	7.697	0.485
363.001	254.302	79.999	19.995	103.148	20.102	7.615	0.509
363.501	254.572	80.000	19.995	103.148	20.102	7.654	0.527
364.001	254.815	80.001	19.996	103.149	20.106	7.406	0.524
364.500	255.064	79.998	19.993	103.149	20.103	7.585	0.503
365.000	255.338	80.001	19.994	103.149	20.100	7.758	0.507
365.500	255.544	80.000	19.994	103.150	20.102	7.663	0.501
366.000	255.847	79.999	19.995	103.150	20.102	7.630	0.495
366.500	256.069	79.998	19.994	103.151	20.098	7.873	0.517
367.000	256.325	80.001	19.995	103.151	20.103	7.568	0.501
367.500	256.570	79.998	19.995	103.152	20.101	7.727	0.490
368.000	256.814	80.000	19.994	103.152	20.100	7.762	0.495
368.500	257.043	79.997	19.995	103.153	20.102	7.623	0.481
369.000	257.324	80.000	19.995	103.152	20.104	7.541	0.492
369.500	257.535	79.998	19.995	103.152	20.103	7.546	0.501
370.000	257.809	80.001	19.994	103.152	20.105	7.439	0.489
370.500	258.057	80.000	19.995	103.152	20.108	7.262	0.504
371.000	258.318	79.998	19.994	103.153	20.106	7.403	0.515
371.500	258.579	79.998	19.995	103.156	20.104	7.494	0.515
372.000	258.775	79.999	19.994	103.156	20.103	7.571	0.490
372.500	259.072	79.999	19.994	103.156	20.107	7.326	0.475
373.000	259.292	80.001	19.995	103.156	20.105	7.469	0.505
373.500	259.528	79.999	19.995	103.155	20.107	7.312	0.487
374.000	259.821	80.001	19.994	103.153	20.108	7.235	0.493
374.500	260.028	79.999	19.994	103.153	20.108	7.280	0.514
375.000	260.295	79.999	19.995	103.153	20.108	7.255	0.487
375.500	260.527	80.000	19.995	103.152	20.110	7.146	0.486
376.000	260.757	79.999	19.994	103.152	20.108	7.247	0.480
376.500	260.996	80.000	19.994	103.153	20.112	6.999	0.465
377.000	261.275	79.998	19.996	103.156	20.108	7.233	0.493
377.500	261.528	80.000	19.994	103.159	20.111	7.063	0.525
378.000	261.828	80.002	19.994	103.162	20.109	7.176	0.542
378.500	262.037	79.998	19.996	103.165	20.110	7.126	0.531
379.000	262.274	80.001	19.994	103.165	20.112	7.008	0.478
379.500	262.509	79.999	19.994	103.168	20.111	7.028	0.459
380.000	262.743	80.000	19.995	103.167	20.110	7.133	0.471
380.500	263.014	80.001	19.995	103.168	20.112	6.977	0.487
381.000	263.244	80.000	19.996	103.166	20.113	6.930	0.503
381.500	263.539	80.002	19.995	103.165	20.107	7.329	0.513
382.000	263.735	80.003	19.994	103.160	20.114	6.898	0.508
382.500	264.017	80.000	19.994	103.160	20.114	6.838	0.485
383.000	264.260	80.001	19.995	103.161	20.111	7.074	0.501
383.500	264.522	80.002	19.995	103.160	20.113	6.917	0.515
384.000	264.781	79.999	19.994	103.161	20.114	6.845	0.513
384.500	265.028	79.999	19.994	103.161	20.115	6.774	0.514
385.000	265.294	80.000	19.994	103.162	20.114	6.849	0.509
385.500	265.538	80.001	19.994	103.159	20.113	6.942	0.511
386.000	265.788	80.001	19.993	103.166	20.113	6.957	0.502
386.500	266.043	80.002	19.995	103.169	20.113	6.939	0.500
387.000	266.275	80.000	19.994	103.176	20.113	6.898	0.496
387.500	266.561	80.002	19.996	103.178	20.116	6.759	0.502
388.000	266.829	80.000	19.995	103.183	20.117	6.692	0.536
388.500	267.062	79.999	19.996	103.180	20.122	6.355	0.527
389.000	267.318	79.999	19.994	103.181	20.123	6.258	0.496
389.500	267.562	80.002	19.995	103.180	20.127	6.010	0.495
390.000	267.836	79.998	19.995	103.182	20.130	5.817	0.508
390.500	268.106	80.000	19.995	103.184	20.136	5.426	0.531
391.000	268.334	80.000	19.994	103.188	20.138	5.274	0.521
391.500	268.554	79.998	19.995	103.201	20.147	4.709	0.473
392.000	268.818	80.001	19.995	103.223	20.147	4.695	0.466
392.500	269.074	79.998	19.995	103.248	20.148	4.670	0.502
393.000	269.373	80.000	19.996	103.270	20.150	4.541	0.537
393.500	269.623	80.000	19.996	103.285	20.150	4.511	0.551
394.000	269.861	80.000	19.995	103.284	20.151	4.472	0.518
394.500	270.157	79.999	19.996	103.270	20.149	4.602	0.512
395.000	270.386	80.001	19.994	103.251	20.150	4.507	0.530
395.500	270.662	80.000	19.994	103.229	20.151	4.447	0.515
396.000	270.923	79.999	19.995	103.214	20.145	4.840	0.521
396.500	271.175	79.998	19.996	103.205	20.148	4.654	0.525
397.000	271.423	80.001	19.994	103.197	20.145	4.826	0.506
397.500	271.694	80.000	19.995	103.193	20.147	4.706	0.509
398.000	271.960	80.000	19.994	103.192	20.145	4.824	0.528
398.500	272.191	80.001	19.994	103.191	20.142	5.016	0.517
399.000	272.444	80.000	19.995	103.191	20.140	5.170	0.491
399.500	272.726	80.001	19.994	103.190	20.138	5.282	0.509
400.000	272.955	80.002	19.995	103.190	20.138	5.306	0.523
400.500	273.165	80.001	19.994	103.190	20.140	5.191	0.475
401.000	273.455	80.000	19.995	103.189	20.138	5.283	0.470
401.500	273.716	80.002	19.994	103.188	20.136	5.445	0.526
402.000	273.966	80.001	19.995	103.187	20.139	5.200	0.531
402.500	274.248	80.000	19.996	103.188	20.136	5.418	0.522
403.000	274.519	80.001	19.995	103.187	20.137	5.385	0.543
403.500	274.725	79.999	19.995	103.188	20.134	5.531	0.515
404.000	275.013	80.002	19.995	103.188	20.134	5.555	0.485
404.500	275.274	80.002	19.994	103.189	20.137	5.381	0.521
405.000	275.557	80.002	19.995	103.190	20.135	5.483	0.547
405.500	275.823	80.001	19.994	103.191	20.133	5.621	0.547
406.000	276.050	80.004	19.995	103.191	20.134	5.565	0.521
406.500	276.312	80.002	19.995	103.193	20.131	5.733	0.491
407.000	276.553	80.002	19.995	103.196	20.136	5.417	0.496
407.500	276.799	80.004	19.995	103.197	20.135	5.496	0.495
408.000	277.044	80.001	19.996	103.201	20.132	5.669	0.489
408.500	277.348	80.000	19.995	103.203	20.134	5.532	0.520
409.000	277.578	80.001	19.995	103.206	20.136	5.449	0.541
409.500	277.831	80.002	19.995	103.208	20.136	5.437	0.508
410.000	278.096	80.003	19.995	103.213	20.136	5.409	0.501
410.500	278.370	80.003	19.996	103.215	20.136	5.459	0.529
411.000	278.585	80.002	19.995	103.219	20.139	5.245	0.514
411.500	278.870	80.005	19.995	103.221	20.135	5.476	0.494
412.000	279.160	80.003	19.995	103.222	20.136	5.401	0.537
412.500	279.414	80.004	19.995	103.221	20.139	5.256	0.560
413.000	279.664	80.000	19.996	103.222	20.139	5.212	0.524
413.500	279.890	79.998	19.995	103.222	20.139	5.238	0.490
414.000	280.127	79.998	19.995	103.223	20.137	5.339	0.469
414.500	280.422	80.002	19.997	103.226	20.140	5.194	0.497
415.000	280.673	80.002	19.995	103.227	20.138	5.283	0.539
415.500	280.912	80.003	19.995	103.228	20.137	5.341	0.518
416.000	281.219	80.001	19.996	103.229	20.140	5.178	0.518
416.500	281.428	80.001	19.995	103.228	20.138	5.328	0.531
417.000	281.660	80.002	19.996	103.229	20.136	5.435	0.479
417.500	281.943	79.999	19.995	103.230	20.136	5.416	0.478
418.000	282.199	80.000	19.995	103.230	20.136	5.428	0.527
418.500	282.434	80.001	19.996	103.229	20.136	5.457	0.515
419.000	282.682	80.001	19.995	103.231	20.134	5.550	0.487
419.500	282.954	80.001	19.996	103.234	20.130	5.815	0.502
420.000	283.228	80.002	19.996	103.234	20.133	5.622	0.534
420.500	283.454	80.000	19.995	103.240	20.128	5.923	0.523
421.000	283.708	80.000	19.995	103.245	20.132	5.675	0.490
421.500	283.969	79.998	19.995	103.250	20.128	5.956	0.497
422.000	284.222	80.002	19.995	103.254	20.129	5.916	0.514
422.500	284.477	80.000	19.996	103.261	20.127	5.999	0.511
423.000	284.726	80.000	19.994	103.262	20.127	5.992	0.506
423.500	285.026	80.001	19.994	103.264	20.126	6.056	0.526
424.000	285.275	80.002	19.995	103.266	20.126	6.066	0.549
424.500	285.501	80.002	19.996	103.267	20.125	6.182	0.512
425.000	285.763	79.999	19.995	103.266	20.124	6.217	0.481
425.500	286.025	80.000	19.995	103.267	20.122	6.342	0.506
426.001	286.298	80.002	19.995	103.270	20.118	6.612	0.530
426.501	286.528	80.003	19.995	103.271	20.121	6.430	0.519
427.000	286.814	79.999	19.994	103.272	20.117	6.678	0.510
427.500	287.051	80.002	19.995	103.272	20.117	6.640	0.519
428.000	287.318	80.002	19.995	103.271	20.116	6.769	0.513
428.500	287.551	80.003	19.994	103.269	20.112	6.980	0.502
429.000	287.804	80.002	19.996	103.270	20.112	7.025	0.493
429.500	288.081	80.003	19.995	103.273	20.108	7.232	0.508
430.000	288.322	80.002	19.995	103.277	20.106	7.389	0.524
430.500	288.585	80.002	19.995	103.283	20.102	7.627	0.511
431.000	288.819	80.003	19.994	103.290	20.100	7.754	0.501
431.500	289.066	80.000	19.995	103.296	20.098	7.933	0.489
432.000	289.306	80.002	19.995	103.299	20.096	8.063	0.483
432.500	289.536	80.003	19.995	103.303	20.094	8.145	0.478
433.000	289.793	80.002	19.994	103.305	20.094	8.162	0.479
433.500	290.046	80.002	19.995	103.305	20.093	8.237	0.499
434.000	290.305	80.003	19.995	103.305	20.090	8.446	0.511
434.500	290.568	80.002	19.996	103.301	20.085	8.743	0.517
435.000	290.820	80.002	19.994	103.297	20.089	8.530	0.519
435.500	291.053	80.003	19.996	103.291	20.083	8.916	0.500
436.000	291.273	80.002	19.995	103.284	20.081	8.997	0.469
436.500	291.570	80.005	19.996	103.277	20.082	8.935	0.485
437.000	291.822	80.003	19.996	103.274	20.077	9.277	0.533
437.500	292.065	80.002	19.996	103.272	20.075	9.396	0.522
438.000	292.334	80.001	19.996	103.270	20.077	9.307	0.503
438.500	292.572	80.002	19.996	103.269	20.078	9.187	0.509
439.000	292.823	80.000	19.996	103.269	20.074	9.470	0.498
439.500	293.075	80.001	19.995	103.268	20.074	9.468	0.496
440.000	293.276	80.001	19.996	103.267	20.075	9.423	0.478
440.500	293.569	79.999	19.995	103.267	20.073	9.519	0.473
441.000	293.811	80.000	19.996	103.266	20.077	9.256	0.514
441.500	294.081	79.998	19.996	103.266	20.080	9.074	0.524
442.000	294.338	80.000	19.995	103.266	20.079	9.131	0.520
442.500	294.546	80.001	19.995	103.263	20.080	9.102	0.496
443.000	294.803	80.002	19.996	103.259	20.080	9.064	0.465
443.500	295.023	79.999	19.996	103.257	20.081	9.036	0.471
444.000	295.248	79.999	19.996	103.254	20.083	8.868	0.461
444.500	295.520	79.998	19.996	103.250	20.084	8.853	0.471
445.000	295.775	79.999	19.996	103.249	20.083	8.871	0.512
445.500	296.022	79.999	19.995	103.248	20.084	8.844	0.515
446.000	296.236	79.999	19.995	103.247	20.089	8.469	0.482
446.500	296.475	80.000	19.996	103.246	20.092	8.320	0.457
447.000	296.741	80.000	19.995	103.246	20.094	8.167	0.479
447.500	297.028	80.000	19.995	103.242	20.095	8.126	0.529
448.000	297.253	80.000	19.995	103.241	20.098	7.897	0.533
448.500	297.517	80.000	19.995	103.240	20.096	8.045	0.501
449.000	297.747	80.001	19.995	103.241	20.100	7.796	0.492
449.500	297.989	80.000	19.996	103.240	20.099	7.823	0.483
450.000	298.224	80.003	19.995	103.240	20.103	7.587	0.475
450.500	298.465	79.997	19.994	103.240	20.103	7.564	0.476
451.000	298.687	80.001	19.994	103.238	20.105	7.437	0.469
451.500	298.960	80.001	19.994	103.235	20.110	7.133	0.479
452.000	299.208	80.000	19.994	103.233	20.108	7.261	0.508
452.500	299.472	80.000	19.995	103.232	20.113	6.913	0.516
453.000	299.713	80.000	19.994	103.231	20.117	6.680	0.509
453.500	299.926	80.001	19.994	103.228	20.115	6.792	0.480
454.000	300.152	80.000	19.995	103.226	20.119	6.531	0.447
454.500	300.414	79.999	19.994	103.222	20.121	6.405	0.463
455.000	300.672	80.001	19.995	103.223	20.126	6.104	0.504
455.500	300.943	80.000	19.993	103.221	20.125	6.111	0.525
456.000	301.165	80.000	19.994	103.218	20.127	6.024	0.511
456.500	301.430	79.999	19.995	103.216	20.125	6.174	0.490
457.000	301.674	80.002	19.995	103.217	20.133	5.622	0.498
457.500	301.931	80.002	19.994	103.211	20.131	5.720	0.505
458.000	302.181	80.002	19.995	103.204	20.133	5.607	0.504
458.500	302.429	80.001	19.995	103.200	20.135	5.497	0.502
459.000	302.667	80.002	19.995	103.195	20.134	5.584	0.492
459.500	302.912	80.001	19.994	103.189	20.137	5.371	0.484
460.000	303.182	80.001	19.994	103.188	20.139	5.243	0.499
460.500	303.405	80.001	19.994	103.187	20.141	5.109	0.504
461.000	303.699	80.002	19.995	103.185	20.138	5.301	0.505
461.500	303.926	80.003	19.994	103.184	20.139	5.255	0.519
462.000	304.188	80.002	19.995	103.184	20.139	5.238	0.505
462.500	304.438	80.001	19.994	103.183	20.144	4.894	0.500
463.000	304.682	80.002	19.995	103.178	20.144	4.877	0.503
463.500	304.927	80.002	19.994	103.174	20.146	4.792	0.491
464.001	305.181	80.001	19.994	103.170	20.145	4.866	0.494
464.500	305.401	80.001	19.994	103.163	20.147	4.729	0.486
465.000	305.669	80.002	19.994	103.158	20.147	4.725	0.481
465.500	305.908	79.999	19.996	103.158	20.152	4.399	0.497
466.000	306.162	80.001	19.995	103.158	20.150	4.511	0.500
466.500	306.433	80.001	19.996	103.154	20.147	4.683	0.509
467.000	306.707	80.001	19.995	103.153	20.153	4.313	0.535
467.500	306.939	80.001	19.994	103.152	20.153	4.308	0.525
468.000	307.177	79.999	19.995	103.149	20.154	4.251	0.488
468.500	307.448	80.002	19.994	103.149	20.156	4.133	0.489
469.000	307.693	80.001	19.995	103.147	20.157	4.025	0.513
469.500	307.952	80.001	19.995	103.145	20.157	4.074	0.510
470.000	308.181	80.000	19.995	103.144	20.157	4.040	0.496
470.500	308.421	79.999	19.995	103.141	20.158	3.999	0.479
471.000	308.708	80.001	19.995	103.137	20.157	4.050	0.498
471.500	308.932	80.001	19.995	103.138	20.161	3.801	0.519
472.000	309.189	79.999	19.996	103.135	20.160	3.876	0.496
472.500	309.472	80.000	19.996	103.128	20.158	3.979	0.510
473.000	309.691	79.999	19.994	103.124	20.161	3.802	0.521
473.500	309.989	79.999	19.995	103.122	20.161	3.775	0.509
474.000	310.184	80.002	19.994	103.115	20.163	3.632	0.506
474.500	310.465	80.000	19.996	103.114	20.165	3.514	0.485
475.000	310.681	80.000	19.995	103.113	20.161	3.773	0.486
475.500	310.972	80.001	19.995	103.113	20.165	3.516	0.502
476.000	311.196	79.999	19.994	103.111	20.167	3.386	0.511
476.500	311.453	79.999	19.996	103.113	20.167	3.402	0.498
477.000	311.732	79.999	19.994	103.113	20.166	3.479	0.509
477.500	311.986	80.002	19.995	103.114	20.169	3.247	0.535
478.000	312.250	80.000	19.994	103.114	20.169	3.294	0.525
478.500	312.478	80.001	19.995	103.113	20.171	3.124	0.505
479.000	312.711	80.000	19.995	103.112	20.171	3.147	0.477
479.500	312.988	80.000	19.995	103.112	20.170	3.174	0.486
480.000	313.199	80.000	19.995	103.108	20.170	3.195	0.499
480.500	313.460	80.003	19.994	103.107	20.171	3.111	0.480
481.000	313.735	80.001	19.995	103.107	20.173	3.038	0.504
481.500	313.978	80.002	19.996	103.107	20.171	3.126	0.527
482.000	314.242	80.002	19.994	103.106	20.173	3.020	0.512
482.500	314.451	79.999	19.996	103.112	20.174	2.938	0.490
483.000	314.735	80.001	19.996	103.113	20.175	2.883	0.484
483.500	314.967	80.002	19.995	103.112	20.176	2.792	0.505
484.000	315.234	80.002	19.995	103.112	20.175	2.849	0.507
484.500	315.472	80.004	19.995	103.106	20.178	2.678	0.502
485.000	315.707	80.001	19.994	103.098	20.176	2.815	0.489
485.500	315.968	80.004	19.994	103.093	20.177	2.744	0.485
486.000	316.199	80.002	19.994	103.092	20.175	2.872	0.494
486.500	316.477	80.001	19.994	103.092	20.179	2.647	0.500
487.000	316.669	80.008	19.992	103.099	20.178	2.694	0.489
487.500	316.952	80.003	19.994	103.105	20.180	2.521	0.473
488.000	317.161	80.006	19.994	103.109	20.179	2.637	0.484
488.500	317.429	80.001	19.994	103.109	20.177	2.715	0.484
489.000	317.669	80.005	19.995	103.107	20.181	2.471	0.492
489.500	317.933	80.001	19.995	103.105	20.180	2.580	0.506
490.000	318.176	80.001	19.995	103.100	20.178	2.667	0.506
490.500	318.421	80.003	19.994	103.101	20.177	2.738	0.498
491.000	318.697	79.999	19.995	103.102	20.182	2.394	0.505
491.500	318.965	80.004	19.993	103.103	20.180	2.558	0.533
492.000	319.196	80.002	19.994	103.105	20.179	2.617	0.522
492.500	319.405	80.001	19.995	103.108	20.181	2.474	0.469
493.000	319.679	80.004	19.995	103.109	20.182	2.451	0.461
493.500	319.931	80.002	19.994	103.109	20.181	2.474	0.504
494.000	320.193	80.001	19.994	103.110	20.181	2.469	0.520
494.500	320.402	80.001	19.995	103.111	20.182	2.412	0.493
495.001	320.667	80.001	19.994	103.112	20.183	2.378	0.473
495.500	320.893	80.002	19.993	103.112	20.181	2.505	0.483
496.000	321.140	80.000	19.994	103.112	20.184	2.310	0.482
496.500	321.396	80.002	19.995	103.112	20.182	2.431	0.488
497.000	321.699	80.000	19.995	103.113	20.181	2.506	0.531
497.500	321.886	80.000	19.995	103.113	20.184	2.256	0.525
498.000	322.146	80.002	19.994	103.113	20.182	2.410	0.469
498.500	322.392	79.998	19.997	103.113	20.183	2.369	0.477
499.000	322.634	80.003	19.995	103.113	20.183	2.387	0.497
499.500	322.909	80.001	19.995	103.111	20.182	2.440	0.503
500.000	323.162	80.000	19.988	103.110	20.180	2.519	0.522
500.500	323.407	79.998	19.997	103.112	20.182	2.392	0.513
501.000	323.652	79.995	19.998	103.112	20.181	2.492	0.494
501.500	323.926	80.005	19.996	103.112	20.182	2.437	0.505
502.000	324.190	80.001	19.996	103.112	20.182	2.416	0.528
502.500	324.440	80.004	19.996	103.111	20.182	2.392	0.526
503.000	324.655	79.995	19.995	103.112	20.181	2.512	0.489
503.500	324.899	80.003	19.995	103.112	20.180	2.546	0.462
504.000	325.134	80.002	19.995	103.112	20.182	2.398	0.470
504.500	325.410	80.000	19.996	103.113	20.182	2.448	0.495
505.000	325.650	80.005	19.995	103.114	20.185	2.198	0.513
505.500	325.903	80.004	19.995	103.112	20.184	2.299	0.504
506.000	326.165	79.999	19.994	103.112	20.182	2.449	0.504
506.500	326.447	80.000	19.996	103.113	20.183	2.335	0.529
507.000	326.672	80.003	19.995	103.112	20.184	2.280	0.525
507.500	326.939	80.003	19.994	103.111	20.184	2.262	0.499
508.000	327.177	80.000	19.995	103.112	20.184	2.290	0.498
508.500	327.438	80.004	19.994	103.111	20.184	2.256	0.502
509.001	327.664	80.001	19.996	103.113	20.181	2.506	0.493
509.500	327.934	80.001	19.996	103.114	20.184	2.281	0.492
510.000	328.135	80.003	19.995	103.113	20.186	2.180	0.484
510.500	328.455	80.003	19.993	103.113	20.186	2.180	0.496
511.000	328.663	79.998	19.995	103.114	20.186	2.185	0.524
511.500	328.898	79.999	19.994	103.112	20.187	2.124	0.486
512.000	329.157	80.005	19.994	103.115	20.184	2.272	0.469
512.500	329.438	80.003	19.994	103.120	20.185	2.194	0.517
513.000	329.678	80.005	19.993	103.124	20.185	2.251	0.531
513.500	329.909	80.004	19.994	103.125	20.184	2.310	0.497
514.000	330.141	80.002	19.993	103.127	20.189	1.992	0.468
514.500	330.427	80.001	19.994	103.124	20.184	2.300	0.491
515.000	330.657	80.002	19.994	103.120	20.186	2.187	0.517
515.500	330.892	80.007	19.993	103.118	20.185	2.239	0.490
516.000	331.152	80.002	19.994	103.118	20.186	2.177	0.479
516.500	331.442	80.005	19.993	103.116	20.183	2.371	0.522
517.000	331.666	79.995	19.994	103.116	20.186	2.171	0.532
517.500	331.878	80.000	19.994	103.115	20.186	2.143	0.475
518.000	332.131	80.000	19.993	103.113	20.184	2.280	0.450
518.500	332.400	80.000	19.999	103.111	20.184	2.260	0.494
519.000	332.644	79.998	19.995	103.113	20.183	2.323	0.518
519.500	332.929	80.001	19.995	103.111	20.185	2.212	0.521
520.000	333.148	79.999	19.995	103.112	20.182	2.396	0.516
520.500	333.416	79.999	19.995	103.113	20.183	2.358	0.495
521.000	333.681	79.999	19.995	103.112	20.186	2.146	0.510
521.500	333.927	80.001	19.995	103.110	20.185	2.212	0.523
522.000	334.162	80.003	19.995	103.109	20.185	2.203	0.496
522.500	334.418	80.000	19.995	103.109	20.188	2.025	0.486
523.000	334.639	79.999	19.995	103.108	20.186	2.161	0.484
523.500	334.939	79.998	19.996	103.109	20.190	1.927	0.499
524.000	335.168	80.001	19.995	103.109	20.185	2.253	0.525
524.500	335.436	79.993	19.995	103.112	20.183	2.349	0.513
525.000	335.684	80.000	19.998	103.118	20.185	2.246	0.507
525.500	335.922	80.005	19.995	103.125	20.184	2.290	0.501
526.000	336.167	79.996	19.996	103.128	20.188	2.005	0.485
526.500	336.437	80.003	19.996	103.131	20.181	2.494	0.499
527.000	336.685	80.000	19.997	103.133	20.185	2.239	0.516
527.500	336.916	80.000	19.996	103.131	20.187	2.089	0.498
528.001	337.206	79.999	19.995	103.128	20.188	2.003	0.500
528.501	337.437	79.999	19.997	103.127	20.185	2.221	0.521
529.000	337.674	80.003	19.996	103.124	20.186	2.175	0.494
529.500	337.927	79.997	19.996	103.123	20.188	2.060	0.479
530.000	338.174	80.005	19.994	103.121	20.186	2.133	0.495
530.500	338.435	79.995	19.996	103.120	20.187	2.117	0.504
531.000	338.709	80.000	19.996	103.118	20.184	2.258	0.522
531.500	338.961	79.996	19.997	103.120	20.185	2.232	0.531
532.000	339.193	80.000	19.995	103.118	20.186	2.164	0.505
532.500	339.464	80.001	19.996	103.122	20.185	2.241	0.493
533.000	339.681	79.992	19.998	103.126	20.186	2.160	0.495
533.500	339.934	80.001	19.992	103.131	20.184	2.278	0.479
534.000	340.184	79.998	19.997	103.132	20.184	2.292	0.487
534.500	340.401	80.001	19.997	103.130	20.186	2.139	0.485
535.000	340.698	80.001	19.996	103.125	20.187	2.121	0.491
535.500	340.956	80.001	19.996	103.119	20.189	1.994	0.534
536.000	341.205	80.002	19.995	103.116	20.187	2.089	0.531
536.500	341.450	80.000	19.995	103.116	20.189	1.969	0.501
537.000	341.751	80.001	19.996	103.123	20.187	2.082	0.520
537.500	342.009	79.999	19.995	103.128	20.185	2.201	0.552
538.000	342.227	79.997	19.995	103.133	20.185	2.203	0.517
538.500	342.483	80.001	19.995	103.132	20.187	2.112	0.475
539.000	342.737	80.000	19.995	103.130	20.185	2.198	0.492
539.500	342.971	79.998	19.996	103.125	20.186	2.144	0.499
540.000	343.243	80.015	19.994	103.122	20.187	2.087	0.497
540.500	343.487	79.995	19.994	103.118	20.184	2.289	0.511
541.000	343.794	79.998	19.996	103.119	20.187	2.077	0.534
541.500	343.989	80.001	19.995	103.118	20.186	2.185	0.526
542.000	344.294	80.006	19.995	103.120	20.186	2.182	0.501
542.500	344.516	79.995	19.996	103.118	20.186	2.157	0.513
543.000	344.804	80.003	19.994	103.116	20.185	2.230	0.518
543.500	345.040	80.004	19.995	103.118	20.185	2.242	0.517
544.000	345.299	79.992	19.994	103.121	20.186	2.175	0.510
544.500	345.562	79.988	19.996	103.120	20.187	2.123	0.508
545.000	345.823	79.997	19.993	103.121	20.184	2.292	0.523
545.500	346.051	79.997	19.994	103.123	20.183	2.351	0.507
546.000	346.323	79.999	19.995	103.125	20.186	2.175	0.495
546.500	346.584	79.998	19.995	103.122	20.186	2.143	0.517
547.000	346.827	79.997	19.994	103.121	20.181	2.455	0.518
547.500	347.100	80.002	19.996	103.122	20.185	2.194	0.510
548.000	347.411	79.996	19.995	103.122	20.186	2.157	0.550
548.500	347.612	79.999	19.995	103.119	20.185	2.255	0.547
549.000	347.871	80.021	19.992	103.118	20.183	2.333	0.486
549.500	348.135	79.997	19.994	103.121	20.185	2.226	0.492
550.000	348.401	80.006	19.994	103.119	20.189	1.969	0.527
550.500	348.636	80.004	19.994	103.120	20.187	2.094	0.515
551.000	348.914	80.003	19.994	103.121	20.189	1.982	0.507
551.500	349.182	80.000	19.993	103.128	20.187	2.109	0.530
552.000	349.449	80.000	19.995	103.129	20.189	1.950	0.541
552.500	349.683	79.997	19.995	103.131	20.190	1.894	0.518
553.000	349.965	80.000	19.995	103.128	20.188	2.048	0.508
553.500	350.198	80.002	19.995	103.125	20.187	2.119	0.515
554.000	350.448	79.999	19.995	103.122	20.188	2.048	0.499
554.500	350.727	79.997	19.995	103.118	20.186	2.151	0.506
555.000	350.989	80.001	19.994	103.119	20.184	2.259	0.535
555.500	351.236	80.003	19.994	103.120	20.185	2.244	0.525
556.001	351.509	79.999	19.995	103.124	20.188	2.048	0.514
556.501	351.710	80.001	19.994	103.124	20.186	2.178	0.497
557.001	352.005	80.001	19.995	103.125	20.189	1.989	0.485
557.500	352.260	79.999	19.995	103.126	20.187	2.080	0.523
558.000	352.545	80.001	19.995	103.127	20.186	2.187	0.545
558.500	352.809	79.999	19.995	103.127	20.186	2.169	0.545
559.000	353.088	80.000	19.994	103.127	20.189	1.962	0.546
559.500	353.334	79.999	19.994	103.127	20.189	1.966	0.533
560.000	353.611	80.002	19.995	103.123	20.190	1.899	0.524
560.500	353.864	80.001	19.995	103.123	20.188	2.019	0.527
561.000	354.143	79.999	19.995	103.122	20.189	1.958	0.531
561.500	354.399	80.000	19.995	103.122	20.188	2.017	0.534
562.000	354.647	80.002	19.995	103.123	20.191	1.858	0.519
562.500	354.911	80.001	19.994	103.124	20.190	1.919	0.508
563.000	355.159	79.999	19.995	103.122	20.187	2.099	0.512
563.500	355.420	80.001	19.995	103.118	20.188	2.042	0.511
564.000	355.682	80.004	19.994	103.118	20.193	1.725	0.516
564.500	355.910	80.002	19.994	103.119	20.189	1.950	0.507
565.000	356.210	80.004	19.995	103.119	20.187	2.089	0.509
565.500	356.452	80.003	19.995	103.120	20.188	2.014	0.535
566.000	356.757	80.001	19.994	103.123	20.188	1.998	0.545
566.500	356.989	79.999	19.996	103.122	20.186	2.139	0.542
567.000	357.235	80.000	19.994	103.123	20.188	2.041	0.507
567.500	357.487	80.003	19.995	103.126	20.189	1.980	0.488
568.000	357.756	79.999	19.995	103.131	20.188	2.048	0.510
568.500	358.007	80.002	19.994	103.132	20.186	2.126	0.521
569.000	358.252	80.002	19.994	103.131	20.186	2.189	0.508
569.500	358.542	80.001	19.995	103.127	20.190	1.924	0.515
570.000	358.811	80.003	19.994	103.123	20.191	1.832	0.547
570.500	359.036	80.002	19.995	103.116	20.190	1.883	0.526
571.000	359.314	79.998	19.995	103.113	20.187	2.098	0.499
571.500	359.537	79.998	19.994	103.112	20.190	1.894	0.502
572.000	359.813	80.002	19.994	103.111	20.191	1.821	0.500
572.500	360.108	80.000	19.994	103.112	20.188	2.021	0.535
573.000	360.349	80.000	19.994	103.111	20.190	1.919	0.553
573.500	360.611	80.004	19.993	103.112	20.190	1.910	0.519
574.000	360.849	80.002	19.994	103.115	20.187	2.074	0.501
574.500	361.096	79.996	19.996	103.115	20.187	2.096	0.492
575.000	361.348	80.001	19.993	103.114	20.188	2.001	0.492
575.500	361.606	79.999	19.994	103.117	20.187	2.098	0.505
576.000	361.894	80.004	19.993	103.118	20.187	2.064	0.528
576.500	362.157	80.003	19.995	103.116	20.185	2.253	0.548
577.000	362.398	80.000	19.996	103.116	20.187	2.123	0.528
577.500	362.665	80.005	19.993	103.117	20.188	2.037	0.506
578.000	362.936	80.001	19.994	103.116	20.185	2.239	0.523
578.500	363.134	80.003	19.994	103.116	20.185	2.205	0.504
579.000	363.411	80.003	19.995	103.116	20.186	2.137	0.473
579.500	363.669	80.001	19.995	103.117	20.188	2.023	0.505
580.000	363.904	80.003	19.993	103.116	20.187	2.106	0.514
580.500	364.189	79.999	19.994	103.114	20.185	2.246	0.506
581.000	364.426	79.997	19.994	103.117	20.186	2.144	0.521
581.500	364.696	80.007	19.993	103.116	20.188	2.003	0.514
582.000	364.917	80.002	19.994	103.116	20.187	2.069	0.499
582.500	365.184	80.002	19.995	103.116	20.189	1.937	0.489
583.000	365.451	79.999	19.994	103.116	20.189	1.940	0.511
583.500	365.731	80.006	19.993	103.111	20.187	2.065	0.541
584.000	365.989	80.002	19.994	103.112	20.187	2.121	0.542
584.500	366.273	80.002	19.995	103.110	20.187	2.078	0.539
585.000	366.484	80.002	19.995	103.110	20.189	1.971	0.519
585.500	366.767	79.998	19.995	103.109	20.189	1.965	0.495
586.000	366.978	80.003	19.995	103.111	20.187	2.079	0.494
586.500	367.237	80.003	19.995	103.110	20.186	2.151	0.482
587.000	367.540	80.000	19.995	103.112	20.185	2.230	0.516
587.500	367.785	80.003	19.994	103.111	20.187	2.071	0.555
588.000	368.021	80.008	19.994	103.110	20.185	2.237	0.514
588.500	368.258	80.006	19.994	103.111	20.184	2.301	0.477
589.000	368.504	80.003	19.996	103.112	20.184	2.290	0.478
589.500	368.776	80.004	19.995	103.112	20.183	2.380	0.501
590.000	368.998	80.004	19.995	103.112	20.184	2.301	0.506
590.500	369.278	80.004	19.994	103.112	20.183	2.358	0.498
591.000	369.521	80.005	19.995	103.107	20.187	2.092	0.512
591.500	369.774	80.003	19.994	103.101	20.184	2.265	0.509
592.000	370.010	80.002	19.995	103.098	20.185	2.242	0.493
592.500	370.274	80.001	19.994	103.097	20.187	2.113	0.494
593.000	370.541	80.003	19.995	103.098	20.186	2.186	0.515
593.500	370.775	80.007	19.995	103.100	20.186	2.169	0.516
594.000	371.029	80.002	19.995	103.103	20.183	2.335	0.495
594.500	371.278	80.001	19.995	103.105	20.183	2.371	0.495
595.000	371.571	80.003	19.995	103.103	20.182	2.428	0.522
595.500	371.780	80.003	19.995	103.100	20.181	2.494	0.522
596.000	372.041	80.000	19.995	103.097	20.184	2.320	0.486
596.500	372.331	80.000	19.995	103.098	20.182	2.451	0.510
597.000	372.580	80.006	19.994	103.098	20.184	2.301	0.545
597.500	372.798	80.002	19.994	103.099	20.184	2.297	0.503
598.000	373.088	80.002	19.995	103.103	20.183	2.371	0.487
598.500	373.351	80.003	19.995	103.105	20.186	2.162	0.530
599.000	373.586	80.000	19.996	103.106	20.183	2.365	0.526
599.500	373.795	79.997	19.996	103.108	20.184	2.315	0.471
600.000	374.096	80.002	19.995	103.108	20.183	2.372	0.477
600.500	374.308	80.003	19.996	103.108	20.182	2.390	0.511
601.000	374.543	79.997	19.994	103.108	20.181	2.470	0.480
601.500	374.807	79.999	19.996	103.108	20.184	2.297	0.473
602.000	375.073	79.994	19.998	103.106	20.184	2.263	0.515
602.500	375.251	80.001	19.995	103.098	20.181	2.497	0.487
603.000	375.527	80.001	19.993	103.094	20.183	2.331	0.449
603.500	375.745	80.003	19.995	103.094	20.186	2.170	0.474
604.000	376.033	80.000	19.995	103.092	20.184	2.320	0.500
604.500	376.265	80.002	19.996	103.093	20.183	2.360	0.513
605.000	376.510	80.002	19.994	103.100	20.188	2.040	0.498
605.500	376.750	80.002	19.995	103.102	20.182	2.399	0.481
606.001	377.007	79.998	19.994	103.098	20.184	2.256	0.491
606.501	377.270	80.002	19.994	103.097	20.184	2.281	0.509
607.001	377.486	80.000	19.995	103.098	20.187	2.101	0.499
607.500	377.713	80.002	19.995	103.100	20.184	2.308	0.461
608.000	377.979	79.996	19.996	103.101	20.184	2.283	0.468
608.500	378.226	80.001	19.995	103.104	20.184	2.315	0.503
609.000	378.436	79.998	19.995	103.103	20.182	2.420	0.485
609.500	378.653	80.006	19.995	103.098	20.184	2.304	0.441
610.000	378.900	79.998	19.995	103.096	20.181	2.483	0.445
610.500	379.164	80.000	19.996	103.095	20.180	2.535	0.488
611.000	379.398	80.003	19.995	103.090	20.184	2.306	0.505
611.500	379.645	80.002	19.995	103.089	20.182	2.401	0.490
612.000	379.920	79.994	19.997	103.090	20.179	2.628	0.501
612.500	380.121	79.997	19.996	103.086	20.181	2.465	0.499
613.000	380.392	79.998	19.995	103.082	20.180	2.553	0.474
613.500	380.625	79.998	19.995	103.089	20.179	2.590	0.488
614.000	380.861	80.002	19.995	103.094	20.180	2.562	0.486
614.500	381.130	79.999	19.996	103.095	20.179	2.640	0.487
615.000	381.357	79.998	19.996	103.096	20.179	2.633	0.501
615.500	381.569	80.000	19.995	103.100	20.183	2.362	0.468
616.000	381.824	80.001	19.997	103.101	20.178	2.655	0.453
616.500	382.095	79.993	19.995	103.103	20.180	2.535	0.496
617.000	382.335	80.001	19.997	103.106	20.180	2.526	0.519
617.500	382.570	79.998	19.995	103.111	20.181	2.474	0.494
618.000	382.814	79.997	19.995	103.108	20.180	2.549	0.477
618.500	383.030	79.997	19.995	103.101	20.180	2.563	0.469
619.000	383.280	79.999	19.996	103.096	20.180	2.540	0.463
619.500	383.537	79.998	19.995	103.093	20.181	2.476	0.487
620.000	383.769	79.999	19.996	103.093	20.181	2.508	0.497
620.500	384.055	80.001	19.995	103.097	20.180	2.576	0.503
621.000	384.282	80.000	19.996	103.104	20.178	2.681	0.516
621.500	384.528	79.997	19.996	103.107	20.178	2.692	0.493
622.000	384.746	79.999	19.996	103.106	20.178	2.655	0.468
622.500	384.993	80.004	19.997	103.103	20.184	2.321	0.465
623.000	385.231	79.996	19.996	103.101	20.179	2.635	0.475
623.500	385.486	79.998	19.996	103.100	20.177	2.758	0.489
624.000	385.749	79.999	19.997	103.101	20.178	2.676	0.506
624.500	386.006	79.995	19.994	103.106	20.179	2.637	0.519
625.000	386.220	79.997	19.995	103.108	20.177	2.762	0.496
625.500	386.487	80.001	19.996	103.110	20.176	2.797	0.476
626.000	386.682	79.998	19.995	103.112	20.177	2.760	0.471
626.500	386.963	79.998	19.996	103.113	20.177	2.751	0.469
627.000	387.194	80.002	19.995	103.113	20.176	2.803	0.494
627.500	387.423	79.997	19.996	103.114	20.175	2.856	0.486
628.000	387.693	80.001	19.996	103.113	20.175	2.863	0.480
628.500	387.947	79.999	19.995	103.112	20.178	2.697	0.511
629.000	388.194	79.997	19.996	103.110	20.180	2.572	0.513
629.500	388.420	80.000	19.996	103.109	20.179	2.596	0.487
630.000	388.720	79.999	19.996	103.108	20.177	2.737	0.499
630.500	388.973	79.998	19.995	103.106	20.176	2.840	0.539
631.000	389.200	79.997	19.999	103.106	20.176	2.790	0.517
631.500	389.438	80.000	19.998	103.106	20.176	2.803	0.473
632.000	389.708	79.998	19.994	103.105	20.176	2.813	0.486
632.500	389.944	80.000	19.994	103.106	20.175	2.892	0.507
633.000	390.195	80.000	19.994	103.109	20.175	2.904	0.497
633.500	390.446	79.997	19.996	103.110	20.174	2.943	0.495
634.000	390.670	79.998	19.995	103.110	20.172	3.084	0.489
634.500	390.948	80.001	19.995	103.109	20.175	2.884	0.488
635.000	391.193	80.001	19.994	103.109	20.174	2.938	0.513
635.500	391.446	80.000	19.996	103.110	20.175	2.893	0.511
636.000	391.677	80.001	19.995	103.110	20.173	2.990	0.490
636.500	391.940	79.998	19.995	103.113	20.172	3.083	0.489
637.000	392.181	80.002	19.994	103.114	20.172	3.051	0.499
637.500	392.474	79.998	19.994	103.114	20.173	3.016	0.519
638.000	392.710	79.998	19.995	103.113	20.172	3.050	0.532
638.500	392.966	79.999	19.994	103.110	20.172	3.072	0.510
639.000	393.205	79.999	19.994	103.111	20.173	2.990	0.494
639.500	393.481	79.998	19.995	103.110	20.170	3.231	0.505
640.000	393.703	79.997	19.992	103.111	20.171	3.149	0.506
640.500	393.961	80.000	19.995	103.110	20.170	3.234	0.489
641.000	394.202	80.000	19.995	103.112	20.173	3.018	0.490
641.500	394.463	80.001	19.993	103.110	20.174	2.920	0.500
642.000	394.732	80.005	19.994	103.108	20.168	3.347	0.516
642.500	394.943	80.005	19.994	103.104	20.170	3.210	0.505
643.000	395.232	80.000	19.994	103.102	20.168	3.310	0.490
643.500	395.501	79.998	19.993	103.102	20.170	3.206	0.529
644.000	395.747	80.003	19.995	103.101	20.170	3.183	0.537
644.500	396.024	79.996	19.997	103.101	20.166	3.452	0.519
645.000	396.290	79.995	19.997	103.095	20.170	3.223	0.533
645.500	396.530	80.012	19.993	103.091	20.171	3.161	0.524
646.000	396.778	80.004	19.995	103.090	20.168	3.350	0.497
646.500	396.990	80.006	19.995	103.089	20.168	3.341	0.474
647.000	397.256	80.004	19.995	103.089	20.170	3.230	0.470
647.500	397.504	79.999	19.995	103.098	20.168	3.330	0.496
648.000	397.766	80.001	19.995	103.100	20.166	3.461	0.512
648.500	398.029	80.006	19.993	103.092	20.168	3.350	0.518
649.000	398.271	80.007	19.994	103.092	20.166	3.438	0.515
649.500	398.533	80.004	19.996	103.095	20.163	3.636	0.505
650.000	398.767	80.003	19.995	103.094	20.167	3.414	0.500
650.500	399.025	79.998	19.995	103.093	20.164	3.584	0.494
651.000	399.287	80.000	19.995	103.100	20.163	3.661	0.506
651.500	399.524	80.001	19.995	103.100	20.161	3.805	0.510
652.000	399.793	80.000	19.996	103.098	20.161	3.802	0.503
652.500	400.070	80.011	19.993	103.100	20.164	3.618	0.526
653.000	400.271	79.997	19.994	103.109	20.163	3.633	0.512
653.500	400.534	80.003	19.994	103.106	20.163	3.689	0.471
654.000	400.761	79.991	19.995	103.104	20.165	3.514	0.477
654.500	401.030	80.000	19.994	103.103	20.162	3.714	0.493
655.000	401.275	80.006	19.994	103.098	20.160	3.867	0.505
655.500	401.544	80.002	19.996	103.091	20.160	3.839	0.514
656.000	401.750	79.994	19.995	103.089	20.165	3.539	0.495
656.500	402.001	80.000	19.995	103.083	20.161	3.780	0.466
657.000	402.246	80.004	19.994	103.079	20.159	3.946	0.476
657.500	402.518	80.009	19.994	103.084	20.164	3.607	0.507
658.000	402.710	80.004	19.993	103.089	20.160	3.845	0.491
658.500	402.996	80.030	19.991	103.090	20.162	3.702	0.471
659.000	403.250	80.013	19.994	103.101	20.161	3.809	0.509
659.500	403.511	80.013	19.994	103.101	20.163	3.691	0.528
660.000	403.720	80.000	19.995	103.099	20.160	3.855	0.493
660.500	404.008	79.989	19.997	103.095	20.161	3.816	0.483
661.000	404.243	80.016	19.995	103.089	20.160	3.830	0.510
661.501	404.483	80.017	19.992	103.087	20.161	3.805	0.499
662.001	404.746	80.002	19.994	103.094	20.161	3.785	0.489
662.500	404.988	80.003	19.995	103.093	20.159	3.910	0.504
663.000	405.205	80.000	19.994	103.095	20.158	4.016	0.482
663.500	405.463	79.991	19.994	103.105	20.159	3.887	0.467
664.000	405.694	79.992	19.998	103.103	20.161	3.819	0.482
664.500	405.895	79.974	19.996	103.097	20.155	4.185	0.460
665.000	406.189	80.005	19.994	103.091	20.158	4.012	0.464
665.500	406.427	79.999	19.994	103.091	20.157	4.028	0.513
666.000	406.646	79.987	19.997	103.084	20.157	4.021	0.494
666.500	406.924	79.987	19.996	103.076	20.160	3.866	0.477
667.000	407.177	79.981	20.000	103.077	20.158	3.991	0.514
667.500	407.445	79.996	19.991	103.087	20.157	4.032	0.526
668.000	407.656	80.002	19.993	103.086	20.155	4.200	0.500
668.500	407.928	80.004	19.995	103.090	20.157	4.028	0.481
669.000	408.157	79.991	19.995	103.092	20.155	4.166	0.492
669.500	408.380	79.997	19.994	103.093	20.152	4.375	0.477
670.000	408.648	80.004	19.995	103.093	20.153	4.289	0.472
670.500	408.891	80.003	19.992	103.092	20.151	4.464	0.501
671.000	409.140	80.007	19.994	103.089	20.152	4.364	0.501
671.500	409.370	80.013	19.992	103.092	20.151	4.469	0.485
672.000	409.619	79.997	19.994	103.094	20.152	4.371	0.479
672.500	409.843	80.001	19.996	103.088	20.151	4.466	0.476
673.000	410.134	80.006	19.993	103.087	20.149	4.550	0.494
673.500	410.380	79.997	19.996	103.089	20.148	4.612	0.526
674.000	410.640	80.008	19.993	103.088	20.149	4.568	0.521
674.500	410.853	80.016	19.993	103.085	20.149	4.593	0.489
675.000	411.092	79.987	19.996	103.087	20.149	4.563	0.463
675.500	411.323	80.003	19.994	103.086	20.151	4.472	0.461
676.000	411.568	80.007	19.995	103.085	20.150	4.497	0.473
676.500	411.815	79.991	19.995	103.087	20.151	4.436	0.484
677.000	412.052	80.003	19.992	103.084	20.149	4.579	0.488
677.500	412.331	79.997	19.995	103.083	20.148	4.652	0.500
678.000	412.558	80.025	19.994	103.083	20.147	4.727	0.511
678.500	412.790	79.999	19.995	103.087	20.148	4.618	0.483
679.000	413.048	80.000	19.997	103.087	20.144	4.898	0.475
679.500	413.263	80.003	19.995	103.091	20.146	4.792	0.481
680.000	413.519	79.998	19.995	103.098	20.143	4.939	0.472
680.500	413.764	79.999	19.995	103.101	20.144	4.919	0.486
681.000	414.003	80.007	19.996	103.097	20.146	4.787	0.492
681.500	414.214	79.991	19.995	103.099	20.145	4.823	0.467
682.001	414.475	79.984	19.996	103.099	20.143	4.975	0.461
682.500	414.683	79.999	19.995	103.093	20.143	4.966	0.471
683.000	414.912	79.997	19.995	103.093	20.141	5.112	0.453
683.500	415.163	79.995	19.996	103.095	20.140	5.175	0.459
684.000	415.405	79.998	19.993	103.096	20.139	5.200	0.487
684.500	415.654	80.000	19.995	103.100	20.138	5.286	0.492
685.000	415.864	79.999	19.993	103.107	20.139	5.254	0.475
685.500	416.127	79.987	19.996	103.108	20.137	5.340	0.466
686.000	416.351	80.000	19.994	103.105	20.136	5.432	0.480
686.500	416.623	79.990	19.995	103.105	20.136	5.452	0.491
687.000	416.879	80.001	19.992	103.104	20.133	5.638	0.512
687.500	417.121	80.005	19.994	103.108	20.131	5.775	0.513
688.000	417.360	80.000	19.995	103.112	20.134	5.536	0.490
688.500	417.607	80.003	19.994	103.113	20.133	5.606	0.484
689.000	417.881	79.998	19.995	103.109	20.130	5.832	0.504
689.501	418.101	80.000	19.996	103.105	20.132	5.686	0.507
690.000	418.370	80.013	19.992	103.094	20.130	5.797	0.492
690.500	418.642	80.008	19.993	103.095	20.127	5.984	0.515
691.000	418.849	79.996	19.995	103.095	20.126	6.055	0.510
691.500	419.143	79.999	19.995	103.099	20.125	6.150	0.490
692.000	419.383	79.996	19.996	103.103	20.125	6.151	0.517
692.500	419.643	79.999	19.994	103.109	20.128	5.943	0.517
693.000	419.893	80.000	19.994	103.105	20.123	6.276	0.506
693.500	420.101	79.999	19.996	103.106	20.124	6.205	0.484
694.001	420.345	79.982	19.999	103.106	20.126	6.067	0.455
694.500	420.622	80.008	19.994	103.102	20.125	6.153	0.486
695.000	420.906	80.010	19.995	103.104	20.124	6.233	0.541
695.500	421.172	80.019	19.992	103.107	20.122	6.350	0.555
696.000	421.427	80.010	19.994	103.111	20.121	6.420	0.536
696.500	421.663	79.999	19.995	103.112	20.123	6.272	0.507
697.001	421.928	79.998	19.993	103.111	20.123	6.286	0.496
697.501	422.177	80.001	19.994	103.111	20.121	6.427	0.507
698.001	422.410	80.001	19.995	103.111	20.118	6.578	0.498
698.501	422.693	79.993	19.995	103.107	20.115	6.760	0.499
699.000	422.930	80.003	19.995	103.109	20.118	6.578	0.518
699.500	423.144	79.997	19.995	103.115	20.113	6.911	0.486
700.000	423.440	79.994	19.994	103.114	20.115	6.768	0.481
700.500	423.683	80.001	19.993	103.114	20.113	6.901	0.525
701.000	423.898	79.990	19.996	103.112	20.111	7.038	0.498
701.500	424.205	80.012	19.993	103.109	20.111	7.041	0.490
702.000	424.477	79.997	19.995	103.109	20.106	7.352	0.551
702.500	424.714	79.999	19.995	103.109	20.110	7.141	0.544
703.000	424.967	79.997	19.993	103.107	20.106	7.388	0.499
703.500	425.220	80.000	19.996	103.106	20.102	7.617	0.498
704.000	425.478	79.997	19.995	103.108	20.105	7.440	0.509
704.500	425.726	79.997	19.998	103.100	20.103	7.578	0.508
705.000	426.012	80.000	19.995	103.098	20.104	7.508	0.520
705.500	426.264	80.001	19.995	103.097	20.102	7.640	0.536
706.000	426.489	79.996	19.994	103.094	20.097	7.941	0.507
706.500	426.756	80.004	19.994	103.091	20.101	7.720	0.484
707.000	426.989	79.997	19.996	103.096	20.100	7.754	0.496
707.500	427.278	80.001	19.996	103.096	20.097	7.983	0.511
708.000	427.540	79.997	19.996	103.095	20.099	7.812	0.537
708.500	427.814	80.001	19.995	103.096	20.095	8.064	0.544
709.000	428.061	79.997	19.996	103.101	20.095	8.078	0.529
709.500	428.329	79.999	19.997	103.102	20.094	8.135	0.518
710.000	428.600	79.996	19.996	103.100	20.092	8.276	0.527
710.500	428.849	79.991	19.997	103.096	20.091	8.353	0.530
711.000	429.151	80.011	19.994	103.096	20.089	8.458	0.536
711.500	429.431	79.998	19.994	103.097	20.087	8.606	0.566
712.000	429.636	79.998	19.997	103.093	20.082	8.911	0.533
712.500	429.909	79.995	19.995	103.090	20.085	8.754	0.482
713.000	430.147	79.999	19.995	103.089	20.082	8.932	0.495
713.500	430.418	79.990	19.996	103.085	20.084	8.813	0.510
714.000	430.665	80.000	19.995	103.080	20.080	9.049	0.514
714.500	430.940	80.001	19.994	103.081	20.079	9.133	0.520
715.000	431.186	80.001	19.995	103.084	20.081	8.990	0.522
715.500	431.442	80.001	19.994	103.085	20.079	9.130	0.511
716.000	431.707	79.990	19.997	103.086	20.079	9.142	0.511
716.500	431.987	80.004	19.995	103.079	20.076	9.305	0.533
717.000	432.216	80.003	19.994	103.076	20.074	9.459	0.527
717.500	432.447	79.996	19.996	103.078	20.075	9.388	0.485
718.000	432.705	79.999	19.997	103.083	20.072	9.582	0.475
718.500	432.978	80.005	19.996	103.089	20.073	9.522	0.510
719.000	433.247	80.009	19.994	103.095	20.068	9.825	0.536
719.500	433.501	79.995	19.996	103.097	20.072	9.586	0.532
720.000	433.764	79.992	19.996	103.093	20.066	9.965	0.520
720.500	434.060	80.010	19.993	103.088	20.070	9.754	0.538
721.000	434.320	80.022	19.991	103.086	20.067	9.901	0.557
721.500	434.564	79.988	19.996	103.092	20.060	10.355	0.530
722.000	434.861	80.006	19.994	103.089	20.061	10.298	0.522
722.500	435.153	80.004	19.995	103.088	20.060	10.351	0.565
723.000	435.353	79.997	19.995	103.089	20.054	10.749	0.541
723.500	435.642	80.007	19.995	103.085	20.053	10.813	0.491
724.000	435.887	80.004	19.995	103.082	20.053	10.840	0.512
724.500	436.158	80.002	19.995	103.088	20.049	11.105	0.524
725.000	436.408	80.003	19.996	103.089	20.046	11.271	0.518
725.500	436.665	79.997	19.995	103.087	20.045	11.378	0.515
726.000	436.922	79.995	19.994	103.086	20.045	11.327	0.510
726.500	437.160	79.993	19.996	103.079	20.041	11.634	0.504
727.000	437.430	79.997	19.995	103.069	20.043	11.497	0.502
727.500	437.719	79.998	19.995	103.064	20.040	11.660	0.534
728.001	437.943	79.989	19.996	103.065	20.037	11.870	0.536
728.500	438.202	79.992	19.996	103.066	20.038	11.823	0.498
729.000	438.472	80.011	19.993	103.067	20.035	12.031	0.506
729.500	438.707	79.972	19.997	103.071	20.031	12.242	0.517
730.000	438.984	80.006	19.995	103.069	20.034	12.075	0.509
730.500	439.224	80.003	19.994	103.071	20.027	12.511	0.515
731.000	439.511	80.004	19.994	103.073	20.027	12.510	0.522
731.500	439.760	79.994	19.995	103.074	20.023	12.767	0.532
732.000	439.991	80.000	19.995	103.080	20.024	12.700	0.508
732.500	440.238	80.003	19.994	103.086	20.021	12.939	0.479
733.000	440.538	80.004	19.994	103.085	20.022	12.863	0.513
733.500	440.748	80.001	19.995	103.085	20.017	13.175	0.529
734.000	441.012	79.994	19.995	103.086	20.011	13.569	0.491
734.500	441.264	80.013	19.994	103.082	20.014	13.347	0.495
735.000	441.470	79.998	19.995	103.081	20.011	13.591	0.487
735.500	441.721	80.005	19.994	103.077	20.007	13.841	0.458
736.000	441.976	80.004	19.994	103.076	20.007	13.829	0.482
736.500	442.224	80.011	19.995	103.075	20.003	14.089	0.504
737.000	442.506	80.002	19.995	103.076	20.001	14.256	0.516
737.500	442.739	80.000	19.995	103.079	19.998	14.391	0.523
738.000	442.980	80.008	19.994	103.084	19.996	14.553	0.494
738.500	443.241	79.997	19.994	103.086	19.998	14.418	0.487
739.000	443.444	79.979	19.996	103.085	19.996	14.582	0.483
739.500	443.702	80.005	19.994	103.081	19.992	14.800	0.463
740.000	443.995	80.006	19.995	103.075	19.988	15.062	0.506
740.500	444.181	80.006	19.995	103.072	19.988	15.098	0.516
741.000	444.472	80.013	19.994	103.070	19.981	15.517	0.478
741.500	444.741	80.004	19.994	103.071	19.983	15.424	0.518
742.000	444.954	79.999	19.994	103.074	19.980	15.603	0.521
742.500	445.201	79.996	19.995	103.074	19.978	15.738	0.471
743.000	445.445	80.000	19.994	103.073	19.976	15.868	0.475
743.500	445.725	80.001	19.994	103.072	19.971	16.181	0.508
744.000	445.972	80.003	19.993	103.071	19.969	16.284	0.526
744.500	446.197	80.010	19.993	103.072	19.968	16.409	0.499
745.000	446.440	80.003	19.995	103.073	19.965	16.604	0.470
745.500	446.711	80.003	19.994	103.075	19.965	16.594	0.491
746.000	446.947	80.007	19.992	103.075	19.961	16.839	0.511
746.500	447.209	80.000	19.994	103.078	19.961	16.820	0.503
747.000	447.454	80.006	19.994	103.077	19.958	17.025	0.502
747.500	447.714	80.012	19.995	103.077	19.952	17.389	0.505
748.000	447.939	79.990	19.996	103.080	19.948	17.702	0.495
748.500	448.208	80.001	19.995	103.078	19.949	17.622	0.490
749.000	448.452	79.998	19.994	103.075	19.946	17.782	0.504
749.500	448.709	80.003	19.995	103.077	19.946	17.843	0.507
750.000	448.920	80.002	19.994	103.081	19.942	18.064	0.484
750.500	449.186	80.000	19.993	103.079	19.940	18.231	0.472
751.000	449.429	79.984	19.996	103.081	19.939	18.281	0.493
751.500	449.671	80.009	19.991	103.079	19.935	18.540	0.497
752.000	449.938	79.994	19.994	103.080	19.934	18.619	0.497
752.500	450.161	80.008	19.995	103.079	19.928	18.967	0.500
753.000	450.438	79.998	19.994	103.079	19.929	18.919	0.495
753.500	450.666	80.002	19.993	103.078	19.930	18.858	0.503
754.000	450.903	80.004	19.994	103.082	19.924	19.246	0.485
754.500	451.182	79.999	19.994	103.080	19.924	19.221	0.491
755.000	451.402	79.994	19.994	103.077	19.921	19.466	0.507
755.500	451.660	80.008	19.996	103.075	19.920	19.539	0.488
756.000	451.875	79.993	19.996	103.076	19.917	19.716	0.475
756.500	452.147	80.001	19.996	103.070	19.912	19.999	0.480
757.000	452.403	80.011	19.992	103.067	19.912	20.032	0.508
757.500	452.616	80.002	19.994	103.068	19.910	20.188	0.499
758.000	452.872	80.001	19.994	103.069	19.904	20.548	0.469
758.500	453.102	79.998	19.994	103.069	19.901	20.743	0.478
759.000	453.367	79.999	19.995	103.072	19.900	20.812	0.490
759.500	453.590	79.999	19.994	103.073	19.896	21.076	0.491
760.000	453.862	79.992	19.995	103.072	19.896	21.068	0.492
760.500	454.071	79.997	19.994	103.072	19.892	21.337	0.488
761.000	454.369	80.010	19.992	103.072	19.890	21.443	0.494
761.500	454.560	80.001	19.993	103.075	19.886	21.716	0.498
762.000	454.819	80.001	19.994	103.075	19.890	21.496	0.469
762.500	455.099	80.007	19.993	103.078	19.890	21.497	0.494
763.000	455.336	80.000	19.994	103.079	19.887	21.644	0.528
763.500	455.575	79.998	19.993	103.080	19.886	21.710	0.497
764.000	455.813	79.995	19.996	103.078	19.881	22.076	0.477
764.500	456.058	79.999	19.997	103.078	19.879	22.174	0.480
765.000	456.303	80.003	19.993	103.076	19.880	22.122	0.486
765.500	456.565	79.980	19.996	103.074	19.877	22.330	0.498
766.000	456.804	79.999	19.995	103.074	19.874	22.542	0.504
766.500	457.033	79.987	19.994	103.075	19.872	22.617	0.485
767.000	457.293	80.006	19.996	103.076	19.873	22.574	0.478
767.500	457.546	80.009	19.993	103.075	19.871	22.733	0.501
768.000	457.820	80.002	19.992	103.077	19.867	22.953	0.520
768.500	458.046	80.005	19.994	103.079	19.865	23.088	0.514
769.000	458.279	80.001	19.994	103.078	19.859	23.521	0.480
769.500	458.547	80.002	19.995	103.079	19.862	23.286	0.480
770.000	458.760	79.994	19.996	103.080	19.859	23.517	0.491
770.500	459.007	79.991	19.996	103.075	19.861	23.386	0.471
771.000	459.258	79.996	19.996	103.073	19.856	23.656	0.479
771.500	459.481	80.003	19.995	103.072	19.858	23.574	0.486
772.000	459.741	79.994	19.996	103.073	19.855	23.763	0.479
772.500	460.027	80.002	19.994	103.074	19.854	23.827	0.514
773.000	460.252	79.998	19.996	103.078	19.852	23.940	0.528
773.500	460.514	79.998	19.994	103.078	19.850	24.105	0.499
774.000	460.731	80.001	19.996	103.078	19.850	24.081	0.483
774.500	460.966	79.994	19.994	103.077	19.849	24.147	0.466
775.000	461.249	80.000	19.995	103.080	19.848	24.193	0.485
775.500	461.502	80.000	19.995	103.082	19.848	24.235	0.526
776.000	461.749	80.000	19.995	103.087	19.849	24.173	0.517
776.500	462.005	80.001	19.996	103.089	19.846	24.368	0.502
777.000	462.255	79.997	19.996	103.092	19.845	24.378	0.505
777.501	462.526	80.001	19.995	103.091	19.845	24.374	0.514
778.000	462.760	80.003	19.995	103.089	19.843	24.506	0.514
778.500	462.979	79.997	19.996	103.089	19.845	24.414	0.479
779.001	463.279	80.001	19.995	103.090	19.841	24.685	0.486
779.500	463.521	79.996	19.997	103.089	19.842	24.595	0.530
780.000	463.771	79.998	19.995	103.086	19.842	24.574	0.517
780.500	464.014	80.002	19.994	103.081	19.842	24.603	0.493
781.000	464.287	80.002	19.995	103.076	19.841	24.644	0.505
781.500	464.521	80.000	19.995	103.074	19.841	24.657	0.511
782.000	464.765	80.000	19.994	103.075	19.841	24.687	0.493
782.500	464.980	80.002	19.993	103.076	19.843	24.540	0.468
783.000	465.246	79.997	19.996	103.076	19.841	24.639	0.470
783.500	465.509	80.003	19.994	103.075	19.842	24.602	0.505
784.000	465.783	80.001	19.996	103.077	19.841	24.664	0.533
784.500	466.020	80.000	19.994	103.073	19.836	24.959	0.524
785.000	466.292	79.999	19.994	103.076	19.837	24.950	0.510
785.500	466.515	80.001	19.995	103.078	19.838	24.828	0.502
786.000	466.802	80.000	19.994	103.081	19.837	24.903	0.503
786.500	467.089	80.000	19.996	103.079	19.838	24.825	0.542
787.000	467.342	79.998	19.995	103.081	19.836	24.959	0.557
787.500	467.593	80.000	19.996	103.083	19.836	24.996	0.523
788.000	467.859	80.000	19.994	103.080	19.841	24.650	0.511
788.500	468.108	79.998	19.996	103.079	19.837	24.934	0.516
789.000	468.371	79.998	19.994	103.077	19.839	24.780	0.513
789.500	468.620	79.999	19.994	103.075	19.842	24.623	0.512
790.000	468.907	80.002	19.994	103.074	19.839	24.789	0.524
790.500	469.146	80.000	19.996	103.077	19.841	24.636	0.531
791.000	469.404	80.002	19.994	103.078	19.841	24.642	0.512
791.500	469.681	80.001	19.995	103.080	19.839	24.764	0.516
792.000	469.945	79.999	19.995	103.079	19.842	24.568	0.538
792.500	470.220	80.000	19.996	103.076	19.842	24.614	0.540
793.000	470.447	79.996	19.997	103.071	19.844	24.473	0.521
793.500	470.751	80.000	19.995	103.069	19.846	24.339	0.517
794.000	470.991	79.999	19.996	103.068	19.843	24.529	0.537
794.500	471.265	80.000	19.996	103.068	19.846	24.342	0.529
795.000	471.508	79.999	19.996	103.068	19.848	24.192	0.515
795.500	471.739	79.999	19.996	103.069	19.847	24.280	0.496
796.000	472.017	79.998	19.996	103.069	19.847	24.243	0.492
796.500	472.283	79.998	19.997	103.067	19.849	24.114	0.526
797.000	472.551	80.000	19.995	103.067	19.848	24.221	0.539
797.500	472.784	80.000	19.996	103.067	19.852	23.950	0.518
798.000	473.074	79.998	19.997	103.068	19.857	23.630	0.512
798.500	473.290	79.999	19.996	103.068	19.853	23.853	0.514
799.000	473.567	79.996	19.997	103.069	19.857	23.651	0.499
799.500	473.817	80.000	19.996	103.069	19.855	23.733	0.510
800.000	474.094	80.001	19.996	103.068	19.859	23.499	0.527
800.500	474.361	80.000	19.996	103.068	19.859	23.506	0.536
801.000	474.634	79.998	19.995	103.069	19.863	23.238	0.542
801.500	474.850	79.995	19.997	103.068	19.860	23.393	0.515
802.000	475.153	80.000	19.997	103.066	19.865	23.124	0.504
802.500	475.383	80.002	19.995	103.067	19.868	22.895	0.526
803.000	475.623	79.997	19.996	103.068	19.868	22.883	0.501
803.500	475.896	80.001	19.996	103.067	19.868	22.924	0.491
804.000	476.147	80.001	19.996	103.067	19.867	22.976	0.518
804.500	476.373	80.000	19.996	103.066	19.871	22.688	0.500
805.000	476.632	80.001	19.995	103.064	19.872	22.628	0.481
805.500	476.883	80.001	19.996	103.063	19.875	22.422	0.498
806.000	477.133	80.001	19.994	103.064	19.876	22.360	0.505
806.500	477.417	80.000	19.995	103.064	19.879	22.207	0.517
807.000	477.671	80.000	19.996	103.069	19.880	22.103	0.536
807.500	477.926	80.002	19.994	103.072	19.881	22.084	0.524
808.000	478.166	80.000	19.995	103.074	19.881	22.023	0.502
808.500	478.443	80.000	19.995	103.074	19.882	22.000	0.506
809.000	478.708	80.006	19.995	103.076	19.884	21.854	0.529
809.500	478.973	80.000	19.995	103.077	19.884	21.854	0.536
810.000	479.184	80.000	19.995	103.077	19.887	21.683	0.503
810.500	479.467	80.000	19.995	103.075	19.891	21.413	0.485
811.000	479.712	79.998	19.995	103.075	19.892	21.329	0.511
811.500	479.955	80.001	19.994	103.073	19.893	21.247	0.508
812.000	480.237	80.000	19.997	103.072	19.894	21.186	0.507
812.500	480.472	80.001	19.993	103.072	19.898	20.922	0.521
813.000	480.725	79.999	19.996	103.073	19.897	20.994	0.503
813.500	480.970	80.001	19.994	103.073	19.901	20.763	0.493
814.000	481.248	80.000	19.995	103.074	19.903	20.599	0.510
814.500	481.482	79.998	19.996	103.074	19.905	20.474	0.518
815.000	481.726	80.001	19.996	103.073	19.910	20.190	0.495
815.500	481.975	80.000	19.996	103.073	19.909	20.240	0.486
816.000	482.244	80.001	19.996	103.073	19.912	20.021	0.505
816.500	482.504	80.000	19.995	103.072	19.911	20.080	0.523
817.000	482.765	80.001	19.994	103.073	19.915	19.846	0.525
817.500	483.004	79.998	19.994	103.074	19.917	19.706	0.511
818.000	483.240	80.002	19.993	103.074	19.919	19.585	0.488
818.500	483.507	79.998	19.995	103.075	19.922	19.358	0.489
819.000	483.739	79.999	19.995	103.074	19.925	19.180	0.501
819.500	483.991	80.001	19.995	103.075	19.927	19.064	0.492
820.000	484.217	80.001	19.994	103.076	19.931	18.814	0.481
820.500	484.487	79.998	19.995	103.076	19.931	18.821	0.487
821.000	484.727	80.000	19.995	103.076	19.934	18.586	0.503
821.500	484.987	80.001	19.994	103.076	19.939	18.295	0.505
822.000	485.208	80.002	19.995	103.076	19.936	18.456	0.490
822.500	485.500	80.000	19.994	103.076	19.938	18.309	0.497
823.000	485.746	80.002	19.994	103.076	19.943	17.986	0.526
823.500	485.970	80.000	19.994	103.076	19.946	17.804	0.505
824.000	486.219	80.001	19.995	103.076	19.949	17.592	0.471
824.500	486.474	80.001	19.994	103.076	19.951	17.504	0.488
825.000	486.736	80.002	19.993	103.073	19.952	17.394	0.511
825.500	486.987	80.001	19.995	103.073	19.955	17.211	0.515
826.000	487.207	80.002	19.993	103.073	19.956	17.152	0.492
826.500	487.457	80.002	19.994	103.074	19.956	17.186	0.470
827.000	487.728	80.002	19.994	103.074	19.960	16.911	0.496
827.500	487.986	80.002	19.995	103.074	19.959	16.933	0.525
828.000	488.229	79.999	19.994	103.074	19.965	16.592	0.515
828.500	488.477	80.001	19.994	103.073	19.966	16.483	0.496
829.000	488.743	80.003	19.994	103.073	19.966	16.492	0.503
829.500	488.964	80.001	19.993	103.072	19.968	16.372	0.501
830.000	489.235	80.004	19.993	103.072	19.972	16.144	0.489
830.500	489.492	80.002	19.994	103.072	19.974	15.962	0.510
831.000	489.748	80.003	19.993	103.073	19.977	15.816	0.521
831.500	489.948	80.003	19.995	103.073	19.978	15.732	0.484
832.000	490.221	80.002	19.993	103.074	19.980	15.593	0.465
832.500	490.468	80.000	19.994	103.074	19.982	15.487	0.497
833.000	490.731	80.002	19.994	103.075	19.987	15.157	0.515
833.500	490.962	79.994	20.001	103.074	19.986	15.187	0.502
834.000	491.238	80.000	19.996	103.073	19.992	14.788	0.501
834.500	491.480	80.000	19.995	103.072	19.991	14.907	0.513
835.000	491.789	80.001	19.994	103.072	19.993	14.722	0.534
835.500	492.017	80.005	19.990	103.071	19.997	14.513	0.544
836.000	492.257	79.999	19.994	103.074	19.999	14.328	0.503
836.500	492.499	80.005	19.994	103.078	20.002	14.146	0.475
837.000	492.752	79.996	19.996	103.078	20.001	14.219	0.488
837.500	493.012	79.996	19.998	103.077	20.007	13.807	0.504
838.000	493.276	79.994	19.999	103.077	20.007	13.821	0.518
838.500	493.537	80.001	19.995	103.072	20.010	13.632	0.524
839.000	493.797	80.000	19.994	103.069	20.011	13.600	0.523
839.500	494.006	79.999	19.996	103.068	20.012	13.493	0.495
840.000	494.301	79.997	19.996	103.069	20.018	13.099	0.487
840.500	494.535	80.001	19.994	103.069	20.019	13.052	0.516
841.000	494.807	80.000	19.994	103.069	20.020	13.018	0.517
841.500	495.051	80.001	19.995	103.070	20.020	12.965	0.511
842.000	495.289	80.000	19.996	103.070	20.021	12.891	0.499
842.500	495.544	80.000	19.995	103.070	20.028	12.436	0.487
843.000	495.788	79.999	19.994	103.070	20.028	12.440	0.496
843.500	496.031	79.998	19.994	103.069	20.032	12.234	0.493
844.000	496.300	80.000	19.996	103.069	20.036	11.928	0.500
844.500	496.542	80.001	19.994	103.069	20.036	11.915	0.511
845.000	496.785	79.999	19.995	103.069	20.033	12.154	0.498
845.500	497.028	80.000	19.994	103.069	20.038	11.835	0.486
846.000	497.303	80.000	19.995	103.070	20.039	11.717	0.502
846.500	497.507	80.000	19.994	103.071	20.044	11.451	0.498
847.000	497.823	80.003	19.995	103.072	20.041	11.630	0.499
847.500	498.036	80.000	19.994	103.074	20.047	11.219	0.524
848.000	498.335	80.000	19.994	103.076	20.051	10.989	0.521
848.500	498.555	79.999	19.994	103.076	20.052	10.868	0.515
849.000	498.805	80.001	19.994	103.076	20.050	11.055	0.495
849.500	499.046	80.001	19.994	103.075	20.055	10.716	0.481
850.000	499.327	80.002	19.995	103.073	20.058	10.484	0.506
850.500	499.596	80.000	19.995	103.075	20.060	10.398	0.536
851.000	499.837	79.999	19.994	103.076	20.063	10.166	0.530
851.500	500.049	80.002	19.995	103.076	20.064	10.093	0.482
852.000	500.318	80.001	19.995	103.076	20.066	9.971	0.467
852.500	500.571	80.000	19.994	103.075	20.067	9.941	0.501
853.000	500.818	80.002	19.995	103.071	20.070	9.723	0.510
853.500	501.082	80.001	19.995	103.070	20.069	9.822	0.505
854.000	501.333	80.000	19.995	103.070	20.070	9.743	0.513
854.500	501.562	80.001	19.994	103.070	20.074	9.474	0.497
855.000	501.803	80.000	19.995	103.071	20.077	9.263	0.475
855.500	502.066	80.002	19.995	103.071	20.078	9.234	0.487
856.000	502.305	80.000	19.996	103.071	20.080	9.092	0.503
856.500	502.542	80.001	19.994	103.071	20.084	8.818	0.489
857.000	502.805	80.002	19.994	103.072	20.082	8.952	0.487
857.500	503.077	80.000	19.995	103.071	20.088	8.542	0.517
858.000	503.333	80.000	19.994	103.072	20.088	8.576	0.532
858.500	503.576	79.999	19.995	103.071	20.091	8.351	0.513
859.000	503.800	80.000	19.995	103.070	20.090	8.437	0.483
859.500	504.044	80.002	19.995	103.073	20.093	8.214	0.468
860.000	504.294	80.000	19.994	103.074	20.094	8.164	0.481
860.500	504.548	80.002	19.995	103.073	20.095	8.116	0.499
861.000	504.819	80.000	19.996	103.073	20.097	7.989	0.514
861.500	505.049	79.999	19.995	103.073	20.098	7.925	0.513
862.000	505.280	80.002	19.995	103.069	20.099	7.841	0.481
862.500	505.578	79.998	19.996	103.068	20.102	7.656	0.495
863.000	505.766	79.999	19.996	103.068	20.106	7.397	0.507
863.500	506.043	79.999	19.995	103.068	20.104	7.479	0.475
864.000	506.325	79.999	19.995	103.069	20.100	7.756	0.512
864.500	506.570	80.000	19.995	103.069	20.105	7.415	0.544
865.000	506.834	80.001	19.995	103.069	20.107	7.321	0.518
865.500	507.086	80.000	19.995	103.069	20.108	7.265	0.512
866.000	507.327	80.000	19.995	103.067	20.110	7.144	0.504
866.500	507.565	79.998	19.996	103.067	20.111	7.026	0.486
867.000	507.823	80.002	19.996	103.067	20.112	6.990	0.488
867.500	508.080	80.001	19.996	103.066	20.115	6.801	0.506
868.000	508.324	79.999	19.996	103.066	20.117	6.674	0.508
868.500	508.564	79.998	19.995	103.067	20.116	6.753	0.492
869.000	508.877	80.000	19.995	103.068	20.117	6.674	0.518
869.500	509.090	80.000	19.996	103.068	20.119	6.506	0.539
870.000	509.334	79.999	19.995	103.070	20.119	6.531	0.491
870.500	509.575	79.998	19.995	103.070	20.122	6.349	0.471
871.000	509.828	80.001	19.995	103.071	20.122	6.358	0.489
871.500	510.077	79.998	19.994	103.071	20.125	6.132	0.498
872.000	510.366	79.998	19.996	103.073	20.127	5.994	0.520
872.500	510.566	79.999	19.995	103.072	20.126	6.082	0.514
873.000	510.872	80.000	19.995	103.075	20.127	6.030	0.498
873.500	511.100	79.999	19.995	103.077	20.130	5.812	0.520
874.000	511.374	79.997	19.995	103.078	20.128	5.973	0.518
874.500	511.599	79.999	19.996	103.078	20.133	5.643	0.501
875.000	511.871	79.998	19.996	103.081	20.136	5.402	0.498
875.500	512.110	79.999	19.995	103.080	20.133	5.586	0.503
876.000	512.374	79.998	19.995	103.079	20.135	5.487	0.506
876.500	512.594	80.000	19.995	103.079	20.136	5.420	0.494
877.000	512.862	80.000	19.995	103.078	20.134	5.535	0.486
877.500	513.105	79.999	19.996	103.075	20.141	5.125	0.500
878.001	513.368	79.999	19.997	103.074	20.139	5.229	0.509
878.501	513.651	79.999	19.996	103.073	20.140	5.184	0.526
879.000	513.880	80.000	19.995	103.072	20.141	5.079	0.529
879.500	514.163	79.999	19.995	103.072	20.142	5.039	0.512
880.000	514.451	80.000	19.995	103.073	20.143	4.952	0.541
880.500	514.664	80.001	19.996	103.072	20.144	4.900	0.536
881.000	514.907	80.000	19.995	103.073	20.144	4.923	0.478
881.500	515.198	79.999	19.995	103.073	20.144	4.891	0.495
882.000	515.473	80.001	19.995	103.073	20.147	4.688	0.550
882.500	515.731	80.000	19.996	103.073	20.148	4.668	0.549
883.000	515.982	79.999	19.995	103.073	20.148	4.633	0.521
883.500	516.193	80.001	19.995	103.074	20.150	4.488	0.486
884.000	516.488	80.001	19.995	103.074	20.150	4.522	0.484
884.500	516.732	79.999	19.995	103.074	20.154	4.238	0.522
885.000	516.986	80.000	19.995	103.074	20.152	4.359	0.519
885.500	517.286	79.999	19.996	103.074	20.153	4.284	0.526
886.000	517.510	80.001	19.994	103.073	20.155	4.206	0.539
886.500	517.796	80.001	19.996	103.073	20.154	4.251	0.517
887.000	518.018	80.002	19.995	103.072	20.156	4.145	0.509
887.500	518.301	80.000	19.996	103.072	20.157	4.044	0.506
888.000	518.547	80.000	19.996	103.071	20.157	4.035	0.517
888.500	518.802	80.000	19.996	103.072	20.157	4.049	0.515
889.000	519.059	80.000	19.996	103.072	20.157	4.033	0.506
889.500	519.316	79.998	19.996	103.072	20.160	3.871	0.513
890.000	519.538	79.999	19.996	103.073	20.159	3.894	0.497
890.500	519.841	79.999	19.995	103.073	20.160	3.838	0.502
891.000	520.062	79.999	19.996	103.073	20.157	4.020	0.525
891.500	520.344	80.001	19.995	103.073	20.160	3.878	0.514
892.000	520.565	80.000	19.996	103.073	20.163	3.628	0.504
892.500	520.830	80.001	19.995	103.073	20.164	3.615	0.494
893.000	521.111	79.999	19.995	103.073	20.162	3.697	0.516
893.500	521.345	80.000	19.995	103.073	20.165	3.544	0.531
894.000	521.588	80.000	19.996	103.073	20.168	3.342	0.496
894.500	521.857	80.000	19.996	103.073	20.166	3.440	0.494
895.000	522.100	80.000	19.995	103.072	20.171	3.151	0.512
895.500	522.387	79.999	19.995	103.072	20.166	3.489	0.521
896.000	522.639	80.000	19.996	103.070	20.167	3.380	0.535
896.500	522.927	80.001	19.995	103.069	20.173	3.028	0.539
897.000	523.159	79.999	19.995	103.069	20.169	3.239	0.530
897.500	523.399	80.000	19.996	103.070	20.172	3.101	0.496
898.000	523.668	79.999	19.996	103.070	20.168	3.307	0.491
898.500	523.951	80.000	19.995	103.071	20.173	3.012	0.530
899.000	524.191	79.998	19.995	103.071	20.173	3.001	0.537
899.500	524.444	80.000	19.995	103.071	20.170	3.214	0.508
900.000	524.685	79.999	19.995	103.070	20.171	3.132	0.494
900.500	524.955	80.001	19.994	103.070	20.171	3.133	0.503
901.000	525.208	80.001	19.995	103.071	20.175	2.877	0.517
901.500	525.444	79.999	19.995	103.070	20.174	2.928	0.506
902.000	525.721	80.001	19.996	103.069	20.173	3.012	0.501
902.500	525.974	79.999	19.994	103.069	20.173	3.022	0.521
903.000	526.217	80.000	19.995	103.069	20.174	2.939	0.513
903.500	526.491	80.001	19.994	103.069	20.176	2.798	0.506
904.000	526.750	80.000	19.994	103.069	20.174	2.938	0.525
904.500	527.006	80.002	19.994	103.069	20.174	2.941	0.524
905.000	527.256	80.002	19.995	103.069	20.174	2.959	0.510
905.500	527.484	79.999	19.994	103.069	20.173	3.000	0.492
906.000	527.793	80.001	19.996	103.069	20.174	2.912	0.508
906.500	528.053	80.004	19.995	103.068	20.173	2.975	0.553
907.000	528.298	80.003	19.994	103.068	20.176	2.812	0.538
907.500	528.578	80.001	19.995	103.068	20.176	2.825	0.515
908.000	528.857	80.002	19.994	103.068	20.175	2.893	0.542
908.500	529.102	80.000	19.994	103.068	20.175	2.857	0.541
909.000	529.359	80.003	19.994	103.070	20.176	2.811	0.513
909.500	529.645	80.004	19.995	103.070	20.179	2.582	0.523
910.000	529.885	80.002	19.996	103.070	20.177	2.753	0.535
910.500	530.137	80.005	19.994	103.069	20.178	2.655	0.509
911.000	530.401	80.002	19.994	103.069	20.179	2.616	0.504
911.500	530.671	80.003	19.995	103.069	20.178	2.668	0.525
912.000	530.960	80.003	19.994	103.069	20.181	2.455	0.546
912.500	531.214	80.002	19.995	103.072	20.179	2.589	0.551
913.000	531.445	80.004	19.996	103.078	20.181	2.488	0.514
913.500	531.696	80.000	19.994	103.084	20.180	2.539	0.484
914.000	531.968	80.002	19.993	103.085	20.179	2.612	0.502
914.500	532.234	80.002	19.995	103.086	20.179	2.589	0.530
915.000	532.520	80.002	19.994	103.085	20.180	2.550	0.545
915.500	532.800	80.001	19.995	103.080	20.180	2.568	0.559
916.000	533.023	79.999	19.994	103.074	20.180	2.520	0.535
916.500	533.291	80.002	19.994	103.072	20.180	2.538	0.497
917.000	533.560	80.000	19.995	103.071	20.181	2.482	0.514
917.500	533.809	80.003	19.995	103.070	20.178	2.654	0.528
918.001	534.073	80.002	19.995	103.071	20.180	2.525	0.515
918.500	534.356	79.998	19.995	103.071	20.181	2.495	0.530
919.000	534.597	79.999	19.994	103.072	20.180	2.527	0.536
919.500	534.888	80.000	19.995	103.072	20.182	2.429	0.528
920.000	535.153	79.999	19.995	103.070	20.178	2.691	0.544
920.500	535.426	80.002	19.995	103.068	20.180	2.534	0.547
921.000	535.652	79.998	19.995	103.068	20.180	2.555	0.519
921.500	535.934	80.000	19.994	103.064	20.182	2.389	0.504
922.000	536.192	80.001	19.995	103.064	20.183	2.359	0.524
922.500	536.446	79.999	19.995	103.064	20.185	2.220	0.526
923.000	536.714	80.000	19.994	103.065	20.182	2.422	0.517
923.500	537.018	80.001	19.995	103.066	20.179	2.584	0.547
924.000	537.245	80.002	19.995	103.070	20.184	2.317	0.551
924.500	537.490	79.999	19.994	103.070	20.184	2.297	0.502
925.000	537.784	79.997	19.995	103.071	20.183	2.354	0.506
925.500	538.027	80.001	19.995	103.070	20.184	2.256	0.538
926.000	538.281	80.002	19.995	103.070	20.183	2.359	0.517
926.500	538.608	80.000	19.995	103.070	20.185	2.211	0.539
927.000	538.801	80.002	19.994	103.070	20.185	2.231	0.550
927.500	539.052	80.000	19.994	103.071	20.184	2.308	0.482
928.000	539.343	80.002	19.994	103.072	20.184	2.299	0.493
928.500	539.622	79.999	19.995	103.074	20.184	2.320	0.556
929.000	539.860	79.999	19.993	103.074	20.184	2.268	0.543
929.500	540.177	80.000	19.995	103.074	20.185	2.236	0.536
930.000	540.383	79.999	19.995	103.073	20.183	2.331	0.539
930.500	540.598	79.999	19.994	103.072	20.187	2.111	0.472
931.000	540.855	80.003	19.995	103.070	20.184	2.284	0.446
931.500	541.141	80.003	19.994	103.069	20.187	2.106	0.507
932.000	541.369	80.001	19.995	103.071	20.189	1.983	0.528
932.500	541.633	79.998	19.994	103.073	20.182	2.391	0.503
933.000	541.909	80.001	19.994	103.076	20.186	2.166	0.516
933.500	542.178	79.998	19.995	103.080	20.189	1.993	0.542
934.000	542.427	80.000	19.994	103.082	20.188	2.022	0.532
934.500	542.714	80.000	19.994	103.083	20.186	2.163	0.527
935.000	542.976	79.999	19.995	103.083	20.188	2.056	0.543
935.500	543.229	79.999	19.994	103.081	20.186	2.145	0.532
936.000	543.492	80.001	19.994	103.078	20.185	2.233	0.515
936.500	543.736	80.001	19.994	103.076	20.191	1.861	0.511
937.000	544.000	80.004	19.994	103.075	20.189	1.931	0.508
937.500	544.260	80.000	19.994	103.075	20.188	1.997	0.517
938.000	544.529	80.001	19.995	103.078	20.190	1.917	0.527
938.500	544.751	80.000	19.994	103.079	20.190	1.888	0.510
939.000	545.058	79.998	19.995	103.079	20.190	1.881	0.510
939.500	545.282	79.998	19.994	103.078	20.189	1.992	0.530
940.000	545.540	80.001	19.994	103.078	20.192	1.765	0.506
940.500	545.804	80.002	19.994	103.075	20.192	1.756	0.502
941.000	546.050	80.001	19.994	103.075	20.190	1.904	0.516
941.500	546.303	80.002	19.995	103.078	20.191	1.819	0.505
942.000	546.590	80.000	19.994	103.080	20.192	1.751	0.520
942.500	546.803	79.999	19.995	103.079	20.193	1.719	0.520
943.000	547.106	80.000	19.995	103.080	20.192	1.764	0.508
943.500	547.357	79.998	19.995	103.079	20.192	1.771	0.535
944.000	547.629	79.998	19.994	103.075	20.193	1.689	0.539
944.500	547.890	79.997	19.995	103.072	20.194	1.623	0.528
945.000	548.141	80.002	19.994	103.072	20.192	1.780	0.522
945.500	548.409	80.001	19.995	103.076	20.193	1.715	0.515
946.000	548.641	80.002	19.995	103.080	20.192	1.771	0.510
946.500	548.924	79.994	19.995	103.083	20.193	1.676	0.508
947.000	549.203	80.006	19.994	103.083	20.189	1.969	0.538
947.500	549.414	79.997	19.997	103.086	20.191	1.842	0.526
948.000	549.664	79.990	19.995	103.082	20.194	1.648	0.476
948.500	549.963	80.001	19.995	103.079	20.194	1.628	0.505
949.000	550.202	79.990	19.996	103.080	20.191	1.856	0.543
949.500	550.441	80.003	19.996	103.082	20.195	1.556	0.508
950.000	550.718	79.996	19.994	103.081	20.191	1.821	0.497
950.500	550.981	79.997	19.996	103.085	20.192	1.742	0.528
951.000	551.216	79.999	19.995	103.083	20.193	1.687	0.518
951.500	551.478	79.999	19.994	103.082	20.190	1.871	0.497
952.000	551.772	79.996	19.994	103.085	20.191	1.846	0.527
952.500	552.023	79.997	19.996	103.088	20.192	1.773	0.551
953.000	552.267	79.998	19.996	103.092	20.191	1.847	0.520
953.500	552.562	80.001	19.995	103.100	20.190	1.922	0.518
954.000	552.791	79.997	19.996	103.102	20.191	1.855	0.532
954.500	553.049	79.997	19.996	103.102	20.190	1.867	0.505
955.000	553.296	79.998	19.995	103.101	20.190	1.874	0.496
955.500	553.575	79.997	19.995	103.100	20.188	1.996	0.515
956.000	553.822	79.997	19.996	103.098	20.190	1.892	0.526
956.500	554.106	79.997	19.995	103.096	20.191	1.826	0.529
957.000	554.323	79.988	19.996	103.094	20.190	1.928	0.517
957.500	554.609	80.005	19.993	103.097	20.191	1.848	0.502
958.000	554.864	79.998	19.996	103.099	20.192	1.790	0.521
958.500	555.114	80.004	19.995	103.100	20.188	2.055	0.523
959.000	555.392	80.001	19.995	103.103	20.191	1.808	0.517
959.500	555.606	80.000	19.994	103.105	20.190	1.869	0.510
960.000	555.872	79.996	19.995	103.103	20.192	1.783	0.486
960.500	556.163	80.002	19.995	103.099	20.191	1.837	0.519
961.000	556.375	80.003	19.996	103.098	20.191	1.814	0.530
961.500	556.675	80.001	19.996	103.099	20.190	1.896	0.507
962.000	556.876	80.004	19.995	103.102	20.193	1.696	0.506
962.500	557.179	80.004	19.994	103.103	20.194	1.608	0.502
963.000	557.398	80.001	19.994	103.104	20.194	1.644	0.513
963.500	557.666	80.004	19.994	103.104	20.195	1.557	0.505
964.000	557.943	80.002	19.995	103.101	20.190	1.878	0.516
964.500	558.204	79.998	19.996	103.099	20.192	1.755	0.542
965.000	558.468	80.001	19.996	103.099	20.193	1.676	0.532
965.500	558.658	80.001	19.995	103.102	20.194	1.644	0.489
966.000	558.981	80.000	19.995	103.102	20.193	1.712	0.483
966.500	559.186	80.000	19.995	103.106	20.195	1.557	0.520
967.000	559.467	79.998	19.996	103.107	20.194	1.617	0.507
967.500	559.703	80.001	19.995	103.108	20.195	1.598	0.502
968.000	559.979	80.002	19.994	103.107	20.193	1.680	0.515
968.500	560.198	80.001	19.995	103.108	20.196	1.482	0.504
969.000	560.505	80.002	19.995	103.108	20.196	1.507	0.511
969.500	560.762	80.002	19.995	103.108	20.196	1.480	0.545
970.000	561.002	79.997	19.994	103.109	20.195	1.542	0.530
970.500	561.250	80.002	19.995	103.109	20.198	1.400	0.492
971.000	561.498	80.001	19.994	103.109	20.198	1.389	0.492
971.500	561.775	80.000	19.995	103.109	20.197	1.455	0.511
972.000	562.045	80.002	19.994	103.109	20.194	1.657	0.536
972.500	562.249	80.001	19.996	103.108	20.195	1.558	0.510
973.000	562.509	80.002	19.996	103.107	20.194	1.640	0.469
973.500	562.794	80.003	19.996	103.106	20.196	1.530	0.505
974.000	563.060	79.999	19.995	103.106	20.196	1.532	0.549
974.500	563.298	79.975	19.997	103.106	20.195	1.544	0.528
975.000	563.573	80.001	19.995	103.104	20.194	1.616	0.508
975.500	563.819	80.001	19.994	103.107	20.194	1.639	0.517
976.000	564.069	80.000	19.996	103.108	20.195	1.585	0.509
976.500	564.325	80.000	19.996	103.108	20.195	1.551	0.501
977.000	564.561	79.997	19.996	103.109	20.198	1.407	0.499
977.500	564.836	80.001	19.996	103.111	20.196	1.494	0.501
978.000	565.053	80.000	19.995	103.110	20.195	1.551	0.501
978.500	565.347	80.000	19.996	103.109	20.196	1.517	0.501
979.000	565.571	80.001	19.995	103.109	20.198	1.360	0.515
979.500	565.854	79.999	19.997	103.109	20.198	1.391	0.513
980.000	566.121	80.002	19.996	103.108	20.193	1.671	0.528
980.500	566.381	79.999	19.996	103.109	20.197	1.457	0.538
981.000	566.641	79.999	19.996	103.109	20.199	1.328	0.524
981.500	566.840	80.002	19.995	103.111	20.197	1.435	0.490
982.000	567.097	80.003	19.995	103.112	20.194	1.649	0.458
982.500	567.390	80.001	19.995	103.111	20.197	1.439	0.503
983.000	567.598	79.999	19.997	103.110	20.197	1.460	0.525
983.500	567.908	80.002	19.995	103.109	20.196	1.508	0.509
984.000	568.124	80.001	19.996	103.106	20.199	1.333	0.522
984.500	568.426	79.999	19.996	103.104	20.199	1.337	0.522
985.000	568.666	80.002	19.995	103.105	20.198	1.405	0.530
985.500	568.926	80.003	19.995	103.105	20.197	1.439	0.521
986.000	569.181	80.003	19.995	103.106	20.198	1.366	0.507
986.500	569.435	80.003	19.996	103.105	20.198	1.403	0.512
987.000	569.667	80.004	19.997	103.106	20.198	1.357	0.498
987.500	569.913	80.004	19.996	103.106	20.197	1.467	0.482
988.000	570.174	80.002	19.995	103.106	20.197	1.464	0.492
988.500	570.459	80.004	19.996	103.107	20.196	1.507	0.526
989.000	570.701	80.001	19.996	103.109	20.197	1.446	0.537
989.500	570.961	80.002	19.995	103.109	20.199	1.296	0.514
990.000	571.205	80.001	19.996	103.108	20.199	1.341	0.503
990.500	571.411	79.997	19.996	103.108	20.198	1.392	0.477
991.000	571.734	80.002	19.996	103.106	20.197	1.414	0.490
991.500	571.999	79.999	19.995	103.105	20.199	1.339	0.559
992.000	572.229	80.004	19.995	103.104	20.199	1.292	0.542
992.500	572.485	80.004	19.994	103.104	20.200	1.271	0.490
993.000	572.706	80.001	19.995	103.104	20.199	1.310	0.481
993.501	572.978	79.999	19.995	103.105	20.199	1.323	0.485
994.000	573.230	79.996	19.995	103.106	20.201	1.196	0.509
994.500	573.476	80.004	19.995	103.106	20.198	1.394	0.511
995.000	573.735	79.999	19.995	103.108	20.201	1.182	0.501
995.500	574.043	80.002	19.995	103.108	20.198	1.403	0.536
996.000	574.249	80.004	19.994	103.110	20.196	1.500	0.541
996.500	574.493	80.000	19.995	103.110	20.196	1.509	0.482
997.000	574.799	80.002	19.994	103.112	20.201	1.203	0.500
997.500	575.047	80.000	19.995	103.111	20.199	1.296	0.552
998.000	575.299	79.998	19.996	103.112	20.197	1.459	0.527
998.500	575.522	80.000	19.995	103.110	20.201	1.148	0.487
999.000	575.843	80.000	19.994	103.109	20.198	1.353	0.510
999.500	576.008	79.994	19.996	103.110	20.202	1.087	0.515
1000.000	576.323	79.998	19.996	103.109	20.200	1.219	0.483
1000.500	576.585	80.002	19.996	103.110	20.197	1.416	0.529
1001.000	576.839	80.002	19.995	103.111	20.200	1.273	0.547
1001.500	577.059	79.999	19.995	103.112	20.200	1.253	0.495
1002.000	577.358	80.002	19.995	103.111	20.200	1.274	0.496
1002.500	577.531	79.999	19.994	103.111	20.195	1.581	0.496
1003.000	577.789	80.000	19.994	103.111	20.200	1.214	0.452
1003.500	578.068	80.002	19.995	103.110	20.199	1.319	0.484
1004.000	578.363	80.004	19.995	103.110	20.197	1.462	0.555
1004.500	578.601	79.994	19.996	103.112	20.199	1.321	0.553
1005.000	578.790	80.001	19.995	103.112	20.197	1.414	0.480
1005.500	579.073	80.012	19.992	103.113	20.202	1.121	0.450
1006.000	579.361	80.000	19.995	103.114	20.198	1.362	0.521
1006.500	579.662	80.000	19.995	103.114	20.198	1.346	0.580
1007.000	579.864	80.005	19.995	103.113	20.206	0.832	0.546
1007.500	580.086	80.005	19.995	103.115	20.196	1.524	0.464
1008.000	580.418	80.011	19.992	103.116	20.208	0.694	0.489
1008.500	580.603	79.992	19.996	103.120	20.209	0.628	0.535
1009.000	580.926	80.000	19.995	103.118	20.190	1.908	0.513
1009.500	581.132	79.997	19.996	103.117	20.199	1.314	0.519
1010.000	581.361	80.009	19.996	103.112	20.200	1.224	0.482
1010.500	581.648	79.998	19.995	103.111	20.199	1.294	0.475
1011.000	582.002	80.002	19.993	103.104	20.205	0.937	0.579
1011.500	582.145	80.003	19.994	103.104	20.215	0.296	0.569
1012.000	582.386	79.993	19.997	103.099	20.194	1.651	0.440
1012.500	582.770	80.002	19.995	103.092	20.204	0.971	0.504
1013.000	582.914	80.001	19.994	103.087	20.202	1.105	0.577
1013.500	583.201	79.995	19.995	103.086	20.198	1.346	0.479
1014.000	583.503	79.994	19.996	103.084	20.204	0.999	0.510
1014.500	583.792	80.001	19.995	103.087	20.201	1.196	0.590
1015.000	584.019	80.001	19.994	103.092	20.204	0.976	0.553
1015.500	584.249	80.001	19.994	103.091	20.202	1.083	0.486
1016.000	584.483	79.998	19.995	103.086	20.201	1.174	0.460
1016.500	584.687	80.002	19.995	103.083	20.202	1.135	0.451
1017.000	584.875	80.002	19.994	103.079	20.202	1.130	0.415
1017.500	585.365	80.002	19.995	103.078	20.202	1.087	0.536
1018.000	585.497	80.012	19.994	103.077	20.208	0.694	0.650
1018.500	585.675	79.988	19.996	103.078	20.205	0.899	0.466
1019.000	586.144	79.997	19.995	103.076	20.204	0.978	0.478
1019.500	586.382	80.002	19.993	103.078	20.204	0.974	0.677
1020.000	586.538	79.996	19.994	103.080	20.204	0.953	0.551
1020.500	586.905	79.995	19.995	103.086	20.203	1.039	0.459
1021.000	586.872	80.003	19.994	103.082	20.204	0.981	0.428
1021.500	587.613	80.003	19.994	103.086	20.203	1.048	0.521
1022.000	588.234	79.998	19.994	103.087	20.205	0.944	1.035
1022.500	588.386	79.993	19.995	103.083	20.202	1.083	1.068
1023.000	588.102	80.004	19.995	103.078	20.209	0.678	0.321
1023.500	587.938	80.003	19.995	103.078	20.203	1.078	-0.290
1024.000	588.737	79.999	19.994	103.077	20.207	0.794	0.093
1024.500	588.992	80.002	19.994	103.074	20.203	1.019	0.844
1025.000	588.803	80.000	19.994	103.077	20.205	0.915	0.559
1025.500	589.518	79.999	19.995	103.082	20.207	0.801	0.296
1026.000	589.947	79.997	19.995	103.084	20.207	0.808	0.835
1026.500	589.939	80.000	19.995	103.085	20.208	0.723	0.782
1027.000	590.168	80.000	19.995	103.086	20.210	0.625	0.321
1027.500	590.410	79.999	19.994	103.084	20.208	0.755	0.347
1028.001	590.645	80.000	19.995	103.079	20.208	0.714	0.474
1028.501	591.046	79.997	19.995	103.079	20.206	0.826	0.556
1029.000	591.337	80.000	19.993	103.076	20.210	0.589	0.664
1029.500	591.494	80.001	19.994	103.073	20.208	0.714	0.570
1030.000	591.726	79.999	19.994	103.073	20.211	0.500	0.419
1030.500	592.121	79.998	19.994	103.072	20.211	0.505	0.508
1031.001	592.217	80.001	19.995	103.072	20.210	0.603	0.559
1031.501	592.566	79.990	19.996	103.073	20.209	0.676	0.468
1032.000	592.838	79.998	19.994	103.073	20.211	0.539	0.533
1032.500	593.059	79.999	19.994	103.073	20.210	0.594	0.557
1033.000	593.327	80.000	19.995	103.073	20.213	0.391	0.491
1033.500	593.580	80.000	19.995	103.073	20.211	0.501	0.505
1034.000	593.778	80.000	19.994	103.072	20.210	0.610	0.486
1034.500	594.140	80.001	19.994	103.072	20.212	0.468	0.506
1035.000	594.383	80.004	19.993	103.072	20.213	0.373	0.582
1035.500	594.611	79.999	19.995	103.074	20.212	0.489	0.538
1036.000	594.906	79.999	19.995	103.074	20.209	0.632	0.497
1036.500	595.089	80.000	19.995	103.072	20.212	0.455	0.500
1037.000	595.448	79.996	19.996	103.073	20.211	0.553	0.510
1037.500	595.561	80.001	19.995	103.072	20.209	0.664	0.507
1038.000	595.939	80.001	19.996	103.069	20.210	0.582	0.481
1038.500	596.157	80.000	19.996	103.070	20.214	0.328	0.544
1039.000	596.337	80.001	19.996	103.070	20.208	0.698	0.497
1039.500	596.645	80.001	19.996	103.069	20.212	0.443	0.443
1040.000	596.833	80.004	19.996	103.069	20.211	0.496	0.491
1040.500	597.200	80.001	19.995	103.069	20.208	0.694	0.525
1041.001	597.365	80.003	19.995	103.068	20.212	0.487	0.544
1041.501	597.627	80.001	19.995	103.067	20.209	0.675	0.480
1042.001	597.918	80.001	19.995	103.069	20.209	0.639	0.490
1042.501	598.103	80.003	19.994	103.068	20.209	0.650	0.514
1043.001	598.449	80.003	19.994	103.068	20.207	0.787	0.503
1043.500	598.625	80.003	19.995	103.069	20.209	0.667	0.527
1044.000	598.943	80.001	19.994	103.070	20.209	0.676	0.508
1044.500	599.164	80.006	19.996	103.071	20.207	0.766	0.516
1045.000	599.442	80.003	19.993	103.073	20.209	0.671	0.519
1045.500	599.624	79.998	19.996	103.076	20.211	0.537	0.479
1046.000	599.912	80.002	19.996	103.076	20.210	0.609	0.465
1046.500	600.103	80.002	19.996	103.075	20.212	0.462	0.474
1047.000	600.431	80.000	19.996	103.074	20.213	0.419	0.499
1047.500	600.652	80.003	19.996	103.073	20.210	0.582	0.534
1048.000	600.897	80.002	19.995	103.071	20.209	0.630	0.508
1048.500	601.141	80.002	19.995	103.071	20.211	0.500	0.478
1049.000	601.388	80.003	19.995	103.074	20.211	0.509	0.490
1049.500	601.648	80.003	19.996	103.075	20.212	0.446	0.499
1050.000	601.888	80.000	19.996	103.074	20.208	0.755	0.503
1050.500	602.133	80.001	19.996	103.073	20.207	0.791	0.493
1051.000	602.342	80.002	19.995	103.074	20.209	0.671	0.470
1051.500	602.613	80.000	19.995	103.071	20.212	0.475	0.467
1052.000	602.839	80.003	19.995	103.068	20.209	0.628	0.489
1052.500	603.097	80.001	19.996	103.068	20.213	0.373	0.491
1053.000	603.343	80.002	19.996	103.069	20.211	0.518	0.494
1053.500	603.600	79.999	19.995	103.068	20.210	0.566	0.503
1054.000	603.858	80.005	19.995	103.069	20.210	0.605	0.509
1054.500	604.067	80.002	19.995	103.074	20.211	0.507	0.491
1055.000	604.331	80.002	19.996	103.075	20.210	0.609	0.470
1055.500	604.564	80.000	19.995	103.075	20.210	0.625	0.485
1056.000	604.790	80.002	19.995	103.075	20.210	0.591	0.478
1056.500	605.074	79.998	19.995	103.076	20.208	0.691	0.485
1057.001	605.236	80.001	19.995	103.074	20.210	0.591	0.478
1057.501	605.538	80.000	19.995	103.076	20.208	0.717	0.455
1058.001	605.778	80.002	19.995	103.078	20.206	0.860	0.503
1058.501	606.006	80.002	19.995	103.079	20.210	0.566	0.505
1059.000	606.227	80.000	19.994	103.078	20.208	0.732	0.459
1059.500	606.517	80.001	19.995	103.078	20.206	0.835	0.480
1060.000	606.751	80.002	19.996	103.076	20.208	0.719	0.518
1060.500	607.038	80.005	19.995	103.075	20.209	0.639	0.522
1061.000	607.215	80.000	19.995	103.075	20.209	0.682	0.492
1061.500	607.493	80.001	19.996	103.075	20.207	0.771	0.460
1062.000	607.712	80.000	19.995	103.076	20.207	0.776	0.476
1062.500	607.948	80.001	19.996	103.078	20.210	0.621	0.476
1063.000	608.219	80.003	19.994	103.077	20.208	0.716	0.481
1063.500	608.480	80.001	19.995	103.076	20.205	0.909	0.520
1064.000	608.675	80.003	19.995	103.077	20.210	0.605	0.494
1064.500	608.923	80.002	19.995	103.079	20.206	0.862	0.449
1065.000	609.185	80.003	19.995	103.082	20.208	0.712	0.476
1065.500	609.409	80.004	19.995	103.085	20.209	0.684	0.498
1066.000	609.657	80.001	19.996	103.088	20.209	0.651	0.479
1066.500	609.895	80.000	19.996	103.086	20.211	0.505	0.479
1067.000	610.140	80.002	19.996	103.084	20.204	0.960	0.485
1067.500	610.404	80.002	19.995	103.080	20.206	0.885	0.496
1068.000	610.597	80.001	19.995	103.076	20.204	0.982	0.483
1068.500	610.830	80.002	19.995	103.073	20.205	0.901	0.442
1069.000	611.135	79.999	19.996	103.073	20.205	0.937	0.482
1069.500	611.341	80.002	19.996	103.072	20.207	0.805	0.524
1070.000	611.599	80.002	19.995	103.072	20.207	0.819	0.487
1070.500	611.837	80.000	19.996	103.075	20.208	0.751	0.480
1071.000	612.067	80.001	19.995	103.080	20.201	1.198	0.482
1071.500	612.315	80.000	19.995	103.086	20.203	1.048	0.473
1072.000	612.543	80.002	19.995	103.088	20.206	0.880	0.477
1072.500	612.805	80.000	19.996	103.093	20.206	0.875	0.483
1073.000	613.033	80.000	19.996	103.096	20.204	0.969	0.490
1073.500	613.232	79.999	19.996	103.098	20.206	0.859	0.458
1074.000	613.535	80.002	19.995	103.098	20.211	0.498	0.464
1074.500	613.782	80.000	19.996	103.102	20.208	0.741	0.526
1075.000	613.998	79.999	19.996	103.104	20.206	0.862	0.507
1075.500	614.250	79.999	19.996	103.104	20.205	0.893	0.465
1076.000	614.515	80.000	19.997	103.099	20.210	0.603	0.492
1076.500	614.746	79.999	19.996	103.094	20.205	0.925	0.506
1077.000	614.972	80.001	19.995	103.087	20.204	0.951	0.477
1077.501	615.216	79.998	19.995	103.082	20.207	0.778	0.464
1078.001	615.446	79.999	19.996	103.076	20.207	0.762	0.472
1078.500	615.706	79.996	19.996	103.077	20.206	0.853	0.482
1079.001	615.967	80.003	19.996	103.080	20.207	0.768	0.505
1079.501	616.171	79.999	19.996	103.087	20.206	0.875	0.493
1080.000	616.462	80.009	19.994	103.090	20.207	0.798	0.480
1080.500	616.727	80.002	19.994	103.093	20.206	0.825	0.526
1081.000	616.926	79.996	19.994	103.098	20.207	0.798	0.510
1081.500	617.168	79.999	19.995	103.103	20.207	0.773	0.453
1082.000	617.409	79.995	19.995	103.102	20.210	0.603	0.462
1082.500	617.645	80.007	19.994	103.100	20.207	0.776	0.480
1083.000	617.880	79.998	19.995	103.100	20.205	0.917	0.474
1083.500	618.120	79.996	19.995	103.099	20.207	0.762	0.473
1084.000	618.361	80.000	19.995	103.094	20.205	0.930	0.478
1084.500	618.620	79.998	19.995	103.095	20.205	0.923	0.491
1085.000	618.873	80.001	19.995	103.100	20.205	0.894	0.505
1085.500	619.093	79.998	19.995	103.096	20.207	0.817	0.492
1086.001	619.358	80.001	19.995	103.097	20.207	0.767	0.479
1086.501	619.613	79.998	19.995	103.101	20.204	0.985	0.502
1087.000	619.818	80.005	19.996	103.097	20.206	0.866	0.490
1087.500	620.092	79.998	19.994	103.097	20.206	0.846	0.470
1088.000	620.343	79.999	19.998	103.103	20.210	0.612	0.502
1088.500	620.581	80.002	19.994	103.099	20.206	0.832	0.507
1089.000	620.834	79.998	19.995	103.096	20.204	0.985	0.490
1089.500	621.053	79.998	19.995	103.101	20.204	1.007	0.481
1090.000	621.276	80.011	19.995	103.101	20.208	0.718	0.457
1090.500	621.545	79.998	19.996	103.102	20.206	0.835	0.467
1091.000	621.794	80.000	19.995	103.100	20.208	0.732	0.505
1091.501	622.042	80.001	19.996	103.096	20.207	0.805	0.508
1092.001	622.277	80.002	19.996	103.088	20.209	0.664	0.490
1092.500	622.532	80.001	19.995	103.087	20.209	0.630	0.486
1093.001	622.750	79.998	19.995	103.084	20.206	0.843	0.481
1093.501	623.019	79.997	19.996	103.089	20.207	0.809	0.480
1094.000	623.240	79.998	19.995	103.095	20.207	0.784	0.488
1094.500	623.515	79.996	19.996	103.097	20.206	0.885	0.493
1095.001	623.746	80.000	19.995	103.093	20.206	0.855	0.501
1095.501	624.009	80.002	19.996	103.090	20.207	0.785	0.500
1096.000	624.237	80.000	19.996	103.085	20.208	0.752	0.492
1096.501	624.502	80.005	19.995	103.082	20.206	0.821	0.492
1097.001	624.723	79.998	19.996	103.087	20.207	0.769	0.490
1097.500	624.962	79.995	19.997	103.089	20.208	0.694	0.473
1098.000	625.216	79.998	19.996	103.091	20.209	0.661	0.476
1098.500	625.431	79.999	19.996	103.095	20.210	0.573	0.481
1099.000	625.703	80.004	19.995	103.097	20.208	0.696	0.479
1099.500	625.922	80.001	19.995	103.094	20.210	0.618	0.489
1100.000	626.208	80.014	19.993	103.097	20.207	0.775	0.498
1100.500	626.420	80.003	19.995	103.102	20.209	0.664	0.501
1101.000	626.683	80.001	19.995	103.103	20.210	0.612	0.486
1101.500	626.893	80.000	19.995	103.104	20.207	0.789	0.474
1102.000	627.174	79.998	19.996	103.104	20.209	0.653	0.482
1102.500	627.397	80.003	19.996	103.105	20.209	0.632	0.498
1103.001	627.673	80.001	19.997	103.101	20.208	0.703	0.501
1103.501	627.911	80.001	19.995	103.102	20.206	0.878	0.507
1104.000	628.101	80.000	19.995	103.103	20.206	0.843	0.471
1104.500	628.417	79.996	19.996	103.107	20.210	0.623	0.467
1105.000	628.645	80.015	19.993	103.107	20.205	0.912	0.525
1105.500	628.922	80.006	19.994	103.110	20.208	0.716	0.524
1106.000	629.141	80.009	19.995	103.112	20.206	0.837	0.501
1106.500	629.366	80.003	19.995	103.112	20.206	0.832	0.470
1107.000	629.616	80.002	19.995	103.113	20.208	0.739	0.460
1107.500	629.848	80.000	19.997	103.114	20.209	0.650	0.479
1108.000	630.091	80.000	19.995	103.112	20.205	0.935	0.478
1108.500	630.353	80.001	19.996	103.111	20.207	0.818	0.490
1109.001	630.603	79.999	19.997	103.110	20.204	1.009	0.508
1109.501	630.886	79.999	19.996	103.109	20.206	0.827	0.523
1110.000	631.079	80.000	19.995	103.109	20.202	1.146	0.505
1110.500	631.345	80.000	19.995	103.108	20.205	0.946	0.468
1111.000	631.614	80.001	19.995	103.107	20.202	1.119	0.497
1111.500	631.867	80.000	19.994	103.107	20.204	0.952	0.528
1112.000	632.130	79.999	19.995	103.108	20.202	1.094	0.519
1112.501	632.387	80.001	19.995	103.108	20.204	0.980	0.518
1113.001	632.624	80.002	19.995	103.109	20.204	0.973	0.507
1113.500	632.885	80.000	19.994	103.112	20.206	0.848	0.496
1114.000	633.100	79.999	19.996	103.114	20.205	0.930	0.487
1114.500	633.396	80.003	19.994	103.113	20.202	1.129	0.493
1115.000	633.647	79.999	19.995	103.114	20.204	0.998	0.528
1115.500	633.899	80.002	19.995	103.113	20.216	0.191	0.525
1116.000	634.164	80.002	19.995	103.111	20.201	1.198	0.510
1116.500	634.379	80.000	19.994	103.109	20.198	1.403	0.499
1117.000	634.692	80.002	19.994	103.111	20.207	0.762	0.504
1117.501	634.939	80.002	19.995	103.111	20.200	1.228	0.544
1118.001	635.179	79.998	19.994	103.111	20.202	1.114	0.523
1118.500	635.447	80.003	19.995	103.112	20.204	0.998	0.497
1119.000	635.739	80.002	19.995	103.113	20.201	1.153	0.534
1119.500	635.980	80.003	19.994	103.113	20.206	0.836	0.546
1120.000	636.245	80.002	19.995	103.113	20.201	1.205	0.520
1120.500	636.506	80.000	19.994	103.116	20.211	0.511	0.516
1121.000	636.796	80.005	19.995	103.122	20.206	0.852	0.538
1121.501	637.054	80.001	19.994	103.124	20.206	0.873	0.549
1122.001	637.311	80.001	19.995	103.123	20.202	1.084	0.532
1122.500	637.597	80.003	19.993	103.124	20.200	1.219	0.530
1123.000	637.777	80.000	19.994	103.124	20.207	0.820	0.505
1123.500	638.061	80.001	19.994	103.125	20.206	0.850	0.464
1124.000	638.287	80.002	19.996	103.127	20.202	1.087	0.487
1124.500	638.570	80.000	19.996	103.134	20.203	1.050	0.510
1125.000	638.859	80.000	19.995	103.140	20.201	1.155	0.541
1125.500	639.170	80.001	19.996	103.141	20.204	0.993	0.586
1126.000	639.400	80.000	19.994	103.137	20.204	0.987	0.570
1126.500	639.602	80.001	19.995	103.133	20.201	1.182	0.486
1127.000	640.023	80.000	19.996	103.128	20.203	1.061	0.528
1127.500	640.185	80.000	19.995	103.122	20.203	1.025	0.603
1128.000	640.426	80.000	19.994	103.123	20.204	0.977	0.493
1128.500	640.705	79.999	19.995	103.123	20.201	1.180	0.461
1129.000	640.800	80.000	19.995	103.126	20.202	1.127	0.447
1129.500	641.269	79.999	19.996	103.128	20.201	1.182	0.469
1130.000	641.069	80.000	19.995	103.134	20.199	1.339	0.416
1130.500	642.320	79.998	19.996	103.132	20.203	1.075	0.660
1131.000	642.359	79.999	19.995	103.132	20.203	1.041	1.171
1131.501	642.365	80.000	19.996	103.131	20.200	1.261	0.668
1132.001	642.507	79.999	19.995	103.128	20.201	1.195	0.096
1132.500	642.825	80.000	19.996	103.122	20.198	1.352	0.304
1133.000	643.017	80.001	19.997	103.121	20.203	1.063	0.486
1133.501	643.498	80.002	19.995	103.123	20.200	1.273	0.592
1134.001	643.270	79.999	19.995	103.126	20.201	1.173	0.463
1134.500	643.811	80.001	19.995	103.127	20.201	1.211	0.283
1135.001	644.160	79.999	19.995	103.128	20.201	1.209	0.601
1135.501	644.425	80.000	19.995	103.127	20.201	1.152	0.751
1136.000	644.732	80.000	19.995	103.129	20.200	1.245	0.593
1136.500	644.892	80.001	19.995	103.129	20.200	1.273	0.520
1137.000	645.219	80.000	19.995	103.134	20.199	1.284	0.477
1137.500	645.487	80.002	19.995	103.137	20.199	1.336	0.541
1138.000	645.727	79.999	19.995	103.141	20.202	1.143	0.551
1138.500	646.007	80.001	19.996	103.139	20.200	1.239	0.514
1139.000	646.195	80.000	19.994	103.136	20.202	1.145	0.494
1139.500	646.525	80.002	19.994	103.130	20.201	1.202	0.493
1140.000	646.789	79.999	19.995	103.133	20.201	1.154	0.556
1140.500	647.059	80.002	19.994	103.134	20.202	1.107	0.564
1141.000	647.330	80.000	19.995	103.137	20.204	0.966	0.538
1141.500	647.545	80.001	19.995	103.141	20.206	0.866	0.514
1142.000	647.809	80.004	19.995	103.144	20.202	1.102	0.482
1142.500	648.114	80.001	19.994	103.145	20.199	1.325	0.523
1143.000	648.329	80.004	19.995	103.146	20.197	1.441	0.545
1143.500	648.611	80.001	19.995	103.147	20.198	1.357	0.509
1144.000	648.837	80.002	19.994	103.149	20.199	1.338	0.502
1144.500	649.134	80.002	19.994	103.152	20.200	1.273	0.515
1145.000	649.378	80.003	19.994	103.151	20.198	1.359	0.532
1145.500	649.627	80.002	19.995	103.151	20.199	1.315	0.517
1146.001	649.816	80.001	19.995	103.150	20.200	1.225	0.465
1146.501	650.151	80.001	19.995	103.149	20.198	1.345	0.481
1147.000	650.414	80.001	19.995	103.147	20.201	1.200	0.561
1147.500	650.614	80.002	19.995	103.145	20.199	1.340	0.531
1148.000	651.017	80.002	19.994	103.144	20.200	1.222	0.533
1148.500	651.177	80.000	19.995	103.144	20.201	1.152	0.583
1149.000	651.453	80.001	19.995	103.143	20.200	1.234	0.500
1149.500	651.697	80.003	19.994	103.144	20.197	1.416	0.478
1150.000	651.927	80.001	19.995	103.148	20.197	1.434	0.497
1150.500	652.192	80.002	19.995	103.149	20.198	1.381	0.485
1151.000	652.458	80.002	19.995	103.149	20.198	1.375	0.513
1151.500	652.703	80.000	19.995	103.150	20.196	1.517	0.521
1152.000	652.983	80.000	19.995	103.150	20.200	1.240	0.518
1152.501	653.240	80.000	19.995	103.150	20.197	1.436	0.531
1153.001	653.487	80.000	19.996	103.150	20.199	1.343	0.520
1153.500	653.757	80.000	19.995	103.149	20.199	1.300	0.510
1154.000	653.998	79.999	19.996	103.153	20.198	1.368	0.514
1154.500	654.258	79.998	19.996	103.159	20.197	1.438	0.506
1155.000	654.514	79.999	19.995	103.161	20.198	1.367	0.509
1155.500	654.820	79.999	19.996	103.163	20.201	1.192	0.539
1156.000	655.044	79.997	19.995	103.169	20.195	1.590	0.546
1156.500	655.280	79.998	19.996	103.168	20.199	1.338	0.495
1157.000	655.535	80.001	19.995	103.165	20.198	1.390	0.475
1157.500	655.780	79.999	19.996	103.169	20.198	1.397	0.496
1158.000	656.027	79.998	19.997	103.171	20.196	1.513	0.496
1158.500	656.275	79.998	19.996	103.166	20.198	1.393	0.493
1159.000	656.553	80.000	19.996	103.166	20.196	1.522	0.510
1159.500	656.824	79.998	19.996	103.163	20.195	1.563	0.538
1160.000	657.044	79.999	19.998	103.160	20.197	1.438	0.520
1160.500	657.326	79.997	19.997	103.157	20.196	1.527	0.496
1161.000	657.586	80.000	19.996	103.163	20.194	1.613	0.522
1161.501	657.829	79.999	19.997	103.166	20.198	1.408	0.523
1162.001	658.129	80.000	19.997	103.170	20.190	1.888	0.523
1162.501	658.341	79.999	19.996	103.172	20.206	0.861	0.527
1163.001	658.577	80.000	19.997	103.170	20.203	1.072	0.480
1163.500	658.824	79.999	19.997	103.167	20.191	1.847	0.466
1164.000	659.115	79.999	19.996	103.169	20.194	1.635	0.510
1164.500	659.385	79.998	19.997	103.172	20.195	1.590	0.549
1165.000	659.633	79.999	19.996	103.175	20.197	1.465	0.540
1165.500	659.895	79.998	19.995	103.181	20.193	1.730	0.514
1166.000	660.112	79.998	19.996	103.186	20.195	1.571	0.495
1166.500	660.411	80.000	19.996	103.185	20.194	1.662	0.497
1167.001	660.639	79.999	19.997	103.186	20.192	1.798	0.521
1167.501	660.922	80.000	19.996	103.186	20.193	1.694	0.519
1168.000	661.186	79.999	19.995	103.186	20.189	1.934	0.529
1168.500	661.422	79.997	19.995	103.185	20.190	1.894	0.524
1169.000	661.692	80.000	19.996	103.186	20.190	1.919	0.503
1169.500	661.930	79.999	19.996	103.186	20.191	1.825	0.507
1170.000	662.210	80.000	19.995	103.186	20.189	1.982	0.513
1170.500	662.445	79.998	19.996	103.187	20.192	1.794	0.517
1171.000	662.737	79.999	19.996	103.188	20.190	1.875	0.521
1171.500	662.997	80.000	19.995	103.188	20.189	1.996	0.540
1172.000	663.271	80.000	19.994	103.189	20.190	1.877	0.543
1172.500	663.572	80.004	19.995	103.189	20.193	1.683	0.555
1173.000	663.772	79.997	19.995	103.190	20.193	1.734	0.538
1173.500	664.026	79.998	19.994	103.190	20.191	1.823	0.478
1174.000	664.332	80.001	19.996	103.191	20.192	1.753	0.507
1174.500	664.550	80.000	19.994	103.195	20.192	1.793	0.542
1175.000	664.850	79.997	19.996	103.202	20.195	1.585	0.520
1175.500	665.108	80.001	19.996	103.208	20.192	1.753	0.538
1176.001	665.358	79.998	19.995	103.212	20.193	1.716	0.533
1176.501	665.495	79.995	19.996	103.218	20.190	1.880	0.448
1177.000	666.420	80.003	19.994	103.220	20.191	1.827	0.725
1177.500	665.911	79.999	19.995	103.222	20.190	1.930	0.739
1178.000	666.449	79.999	19.995	103.222	20.190	1.893	0.222
1178.500	666.742	80.000	19.996	103.223	20.192	1.784	0.430
1179.000	666.928	80.000	19.995	103.223	20.191	1.805	0.655
1179.500	667.261	79.999	19.995	103.223	20.193	1.712	0.499
1180.000	667.528	79.998	19.995	103.221	20.192	1.787	0.559
1180.501	667.719	79.999	19.995	103.220	20.190	1.912	0.529
1181.001	667.993	80.000	19.994	103.223	20.189	1.991	0.462
1181.501	668.301	80.001	19.994	103.224	20.188	2.032	0.524
1182.001	668.504	80.001	19.996	103.224	20.188	2.037	0.547
1182.501	668.811	80.000	19.995	103.226	20.189	1.986	0.510
1183.000	669.061	79.998	19.996	103.226	20.188	2.046	0.533
1183.500	669.337	80.000	19.994	103.225	20.190	1.927	0.541
1184.000	669.587	79.997	19.995	103.225	20.187	2.121	0.526
1184.500	669.843	80.000	19.994	103.226	20.187	2.064	0.516
1185.000	670.133	79.998	19.995	103.226	20.187	2.096	0.526
1185.500	670.409	80.008	19.993	103.227	20.183	2.329	0.556
1186.000	670.643	79.996	19.995	103.231	20.190	1.920	0.538
1186.500	670.958	79.997	19.995	103.230	20.187	2.073	0.529
1187.000	671.202	79.997	19.996	103.230	20.184	2.320	0.554
1187.500	671.469	79.999	19.996	103.231	20.188	2.007	0.535
1188.000	671.758	79.999	19.995	103.230	20.187	2.079	0.534
1188.501	672.005	79.999	19.994	103.228	20.187	2.107	0.546
1189.001	672.284	79.996	19.996	103.231	20.191	1.866	0.531
1189.500	672.505	79.998	19.995	103.231	20.190	1.913	0.513
1190.000	672.770	80.001	19.996	103.231	20.188	2.059	0.493
1190.500	673.043	80.000	19.995	103.231	20.187	2.086	0.512
1191.000	673.313	79.997	19.995	103.231	20.185	2.201	0.541
1191.500	673.596	79.997	19.994	103.229	20.184	2.324	0.548
1192.000	673.845	79.998	19.996	103.231	20.186	2.140	0.542
1192.500	674.138	79.999	19.995	103.231	20.183	2.327	0.537
1193.000	674.386	79.998	19.995	103.232	20.186	2.188	0.541
1193.500	674.674	79.998	19.995	103.232	20.188	2.040	0.538
1194.000	674.944	80.003	19.994	103.231	20.184	2.304	0.547
1194.500	675.208	80.005	19.994	103.230	20.184	2.274	0.546
1195.000	675.440	80.000	19.994	103.230	20.186	2.145	0.515
1195.501	675.714	80.002	19.995	103.231	20.187	2.104	0.501
1196.001	675.993	80.000	19.994	103.233	20.187	2.070	0.530
1196.500	676.247	79.999	19.994	103.234	20.184	2.297	0.543
1197.000	676.537	80.001	19.995	103.233	20.186	2.154	0.538
1197.500	676.781	80.001	19.994	103.236	20.185	2.204	0.539
1198.000	677.003	79.999	19.995	103.240	20.187	2.104	0.500
1198.500	677.309	80.001	19.994	103.240	20.185	2.246	0.497
1199.000	677.426	80.000	19.994	103.244	20.184	2.323	0.475
1199.500	677.765	80.001	19.994	103.247	20.185	2.224	0.440
1200.000	678.067	80.001	19.994	103.249	20.185	2.256	0.549
1200.501	678.322	80.002	19.994	103.249	20.185	2.221	0.599
1201.001	678.565	80.001	19.994	103.250	20.185	2.224	0.527
1201.500	678.817	79.997	19.995	103.253	20.184	2.276	0.496
1202.000	679.075	80.001	19.995	103.258	20.183	2.380	0.503
1202.500	679.334	80.007	19.995	103.256	20.184	2.281	0.513
1203.000	679.559	80.002	19.993	103.251	20.184	2.267	0.501
1203.500	679.820	79.990	19.995	103.250	20.183	2.326	0.486
1204.001	680.104	80.004	19.993	103.250	20.184	2.310	0.516
1204.501	680.350	80.001	19.994	103.251	20.183	2.350	0.537
1205.000	680.576	80.001	19.994	103.256	20.184	2.301	0.500
1205.500	680.839	79.999	19.994	103.262	20.184	2.273	0.480
1206.000	681.071	79.995	19.994	103.267	20.185	2.217	0.492
1206.500	681.323	79.999	19.994	103.266	20.182	2.437	0.490
1207.000	681.566	79.993	19.994	103.266	20.179	2.609	0.489
1207.500	681.829	80.012	19.993	103.266	20.181	2.521	0.500
1208.000	682.078	79.999	19.994	103.268	20.184	2.318	0.509
1208.500	682.342	80.000	19.995	103.269	20.179	2.645	0.513
1209.000	682.568	80.001	19.994	103.272	20.179	2.640	0.501
1209.500	682.857	80.006	19.995	103.271	20.180	2.531	0.502
1210.000	683.107	79.997	19.994	103.271	20.181	2.520	0.527
1210.500	683.310	80.004	19.993	103.270	20.183	2.343	0.496
1211.000	683.581	80.002	19.995	103.270	20.181	2.498	0.464
1211.500	683.815	80.000	19.994	103.270	20.179	2.637	0.489
1212.000	684.047	80.001	19.995	103.270	20.182	2.410	0.485
1212.500	684.276	79.998	19.995	103.270	20.182	2.442	0.464
1213.000	684.546	80.001	19.995	103.271	20.178	2.704	0.480
1213.500	684.815	80.001	19.994	103.273	20.183	2.366	0.519
1214.000	685.036	80.004	19.994	103.274	20.183	2.328	0.515
1214.500	685.254	80.000	19.995	103.275	20.182	2.432	0.464
1215.001	685.498	80.005	19.994	103.279	20.183	2.384	0.450
1215.501	685.758	80.001	19.995	103.283	20.181	2.506	0.483
1216.000	685.983	79.995	19.996	103.284	20.182	2.439	0.495
1216.500	686.198	80.004	19.995	103.284	20.180	2.538	0.463
1217.000	686.507	80.002	19.995	103.285	20.180	2.557	0.482
1217.500	686.713	80.002	19.996	103.283	20.181	2.468	0.519
1218.000	686.934	80.002	19.996	103.285	20.178	2.710	0.471
1218.500	687.227	80.001	19.995	103.289	20.180	2.554	0.471
1219.000	687.430	80.006	19.995	103.293	20.179	2.631	0.505
1219.500	687.699	80.004	19.996	103.299	20.178	2.694	0.484
1220.000	687.928	80.002	19.995	103.303	20.176	2.797	0.485
1220.500	688.143	80.000	19.994	103.299	20.179	2.629	0.471
1221.000	688.384	80.001	19.994	103.293	20.175	2.907	0.450
1221.500	688.631	80.004	19.996	103.287	20.178	2.688	0.472
1222.000	688.871	80.003	19.994	103.280	20.178	2.660	0.487
1222.500	689.144	80.001	19.995	103.274	20.175	2.849	0.500
1223.000	689.344	80.003	19.995	103.272	20.177	2.720	0.493
1223.500	689.602	80.005	19.995	103.276	20.176	2.810	0.465
1224.000	689.810	80.003	19.995	103.284	20.177	2.767	0.462
1224.500	690.099	80.002	19.995	103.291	20.177	2.776	0.482
1225.000	690.321	80.003	19.995	103.296	20.179	2.651	0.504
1225.500	690.548	80.001	19.995	103.301	20.176	2.817	0.480
1226.000	690.793	80.007	19.994	103.302	20.175	2.874	0.461
1226.500	691.041	80.002	19.995	103.297	20.175	2.896	0.483
1227.000	691.266	79.996	19.996	103.295	20.173	3.012	0.483
1227.500	691.518	80.008	19.995	103.295	20.175	2.898	0.475
1228.000	691.775	80.007	19.995	103.298	20.176	2.842	0.493
1228.500	692.009	79.999	19.996	103.297	20.175	2.884	0.500
1229.000	692.213	79.995	19.997	103.301	20.172	3.063	0.465
1229.500	692.495	80.008	19.994	103.301	20.177	2.755	0.462
1230.000	692.713	80.004	19.996	103.305	20.174	2.957	0.493
1230.500	692.937	80.001	19.995	103.307	20.172	3.067	0.471
1231.000	693.173	79.999	19.995	103.308	20.175	2.906	0.451
1231.500	693.455	80.014	19.992	103.306	20.172	3.075	0.489
1232.000	693.658	79.999	19.994	103.311	20.171	3.113	0.501
1232.500	693.931	80.001	19.996	103.307	20.172	3.106	0.481
1233.001	694.140	80.002	19.995	103.305	20.173	3.034	0.479
1233.501	694.394	80.001	19.995	103.305	20.173	2.997	0.472
1234.000	694.643	79.998	19.995	103.309	20.173	3.002	0.483
1234.500	694.861	79.999	19.995	103.305	20.171	3.144	0.485
1235.001	695.088	80.003	19.994	103.306	20.173	3.035	0.456
1235.501	695.341	80.004	19.995	103.306	20.172	3.108	0.462
1236.000	695.644	80.000	19.995	103.305	20.174	2.956	0.518
1236.500	695.873	80.001	19.994	103.303	20.173	2.990	0.545
1237.000	696.079	79.999	19.995	103.305	20.173	3.045	0.484
1237.500	696.330	80.005	19.996	103.308	20.171	3.127	0.446
1238.000	696.571	79.998	19.995	103.310	20.169	3.253	0.474
1238.500	696.844	79.998	19.996	103.312	20.174	2.965	0.503
1239.000	697.089	79.999	19.996	103.316	20.173	3.002	0.517
1239.500	697.343	79.999	19.996	103.320	20.171	3.140	0.509
1240.001	697.570	80.000	19.996	103.325	20.170	3.187	0.489
1240.501	697.827	80.001	19.995	103.329	20.171	3.151	0.482
1241.000	698.054	80.001	19.995	103.336	20.169	3.258	0.484
1241.500	698.339	79.999	19.996	103.341	20.173	3.036	0.498
1242.001	698.609	80.005	19.996	103.340	20.167	3.421	0.533
1242.501	698.834	80.005	19.995	103.339	20.171	3.145	0.525
1243.001	699.045	79.994	19.996	103.339	20.172	3.110	0.466
1243.501	699.365	80.000	19.996	103.336	20.169	3.280	0.483
1244.001	699.581	80.003	19.998	103.337	20.169	3.276	0.533
1244.500	699.851	80.000	19.995	103.339	20.169	3.303	0.511
1245.000	700.106	80.000	19.995	103.341	20.169	3.258	0.506
1245.500	700.350	80.001	19.995	103.342	20.171	3.137	0.512
1246.000	700.609	80.001	19.997	103.345	20.169	3.299	0.501
1246.500	700.843	79.999	19.995	103.345	20.168	3.364	0.498
1247.001	701.106	80.000	19.995	103.344	20.170	3.206	0.495
1247.501	701.379	79.999	19.996	103.343	20.171	3.135	0.517
1248.000	701.672	79.999	19.996	103.342	20.170	3.210	0.551
1248.500	701.917	79.999	19.996	103.342	20.168	3.373	0.551
1249.000	702.155	80.001	19.997	103.343	20.172	3.076	0.510
1249.500	702.394	79.998	19.997	103.346	20.172	3.107	0.480
1250.000	702.667	80.000	19.996	103.348	20.170	3.243	0.495
1250.500	702.919	79.997	19.997	103.350	20.170	3.234	0.518
1251.000	703.200	80.003	19.995	103.350	20.171	3.153	0.529
1251.500	703.438	79.998	19.997	103.351	20.170	3.234	0.526
1252.000	703.685	79.999	19.997	103.345	20.170	3.204	0.502
1252.500	703.978	80.002	19.994	103.344	20.173	3.034	0.513
1253.000	704.242	80.000	19.995	103.342	20.171	3.132	0.549
1253.500	704.517	80.002	19.995	103.344	20.172	3.089	0.548
1254.000	704.725	79.994	19.997	103.348	20.168	3.354	0.511
1254.500	704.982	80.001	19.996	103.350	20.172	3.105	0.474
1255.000	705.224	80.001	19.996	103.351	20.167	3.416	0.482
1255.500	705.450	80.000	19.995	103.351	20.166	3.461	0.484
1256.000	705.781	79.999	19.996	103.350	20.168	3.327	0.513
1256.500	706.027	80.001	19.996	103.345	20.169	3.286	0.567
1257.000	706.249	80.000	19.995	103.347	20.168	3.320	0.523
1257.500	706.517	79.999	19.996	103.347	20.167	3.391	0.479
1258.000	706.804	80.000	19.995	103.349	20.166	3.447	0.522
1258.500	707.032	80.002	19.995	103.351	20.165	3.558	0.535
1259.000	707.315	79.996	19.997	103.352	20.164	3.616	0.513
1259.500	707.588	80.001	19.996	103.351	20.163	3.642	0.534
1260.000	707.828	80.000	19.995	103.355	20.163	3.651	0.534
1260.500	708.100	80.000	19.995	103.359	20.161	3.787	0.512
1261.000	708.323	80.005	19.994	103.364	20.164	3.587	0.503
1261.500	708.609	79.999	19.995	103.368	20.163	3.698	0.502
1262.000	708.871	79.997	19.995	103.374	20.159	3.956	0.529
1262.500	709.106	80.002	19.995	103.375	20.161	3.795	0.523
1263.000	709.416	80.000	19.996	103.376	20.162	3.737	0.521
1263.500	709.691	80.002	19.993	103.376	20.163	3.702	0.565
1264.000	709.943	79.998	19.995	103.372	20.160	3.854	0.556
1264.500	710.206	80.000	19.994	103.372	20.164	3.623	0.521
1265.001	710.444	79.999	19.994	103.369	20.159	3.931	0.508
1265.501	710.725	80.000	19.994	103.364	20.160	3.889	0.510
1266.000	710.988	79.999	19.994	103.361	20.159	3.902	0.532
1266.500	711.221	79.998	19.994	103.362	20.160	3.850	0.520
1267.001	711.483	79.999	19.994	103.363	20.160	3.886	0.495
1267.501	711.750	79.999	19.995	103.365	20.161	3.798	0.512
1268.000	712.019	80.000	19.996	103.368	20.160	3.864	0.532
1268.500	712.280	80.001	19.995	103.372	20.158	3.996	0.533
1269.000	712.553	79.999	19.995	103.377	20.163	3.692	0.532
1269.500	712.823	79.997	19.995	103.380	20.158	3.996	0.538
1270.000	713.086	80.001	19.995	103.382	20.159	3.914	0.538
1270.501	713.335	80.001	19.995	103.381	20.161	3.803	0.523
1271.001	713.561	80.000	19.996	103.381	20.160	3.893	0.494
1271.501	713.843	79.998	19.994	103.380	20.162	3.746	0.491
1272.000	714.162	80.001	19.997	103.378	20.159	3.937	0.554
1272.500	714.369	79.999	19.994	103.379	20.160	3.880	0.564
1273.000	714.621	80.000	19.995	103.383	20.159	3.905	0.492
1273.500	714.907	80.000	19.995	103.384	20.158	3.971	0.498
1274.000	715.169	80.000	19.996	103.385	20.160	3.896	0.543
1274.500	715.412	79.998	19.995	103.388	20.161	3.769	0.527
1275.001	715.715	79.999	19.995	103.388	20.159	3.939	0.525
1275.501	715.896	80.004	19.995	103.387	20.160	3.891	0.515
1276.000	716.216	80.002	19.994	103.385	20.159	3.932	0.493
1276.500	716.520	80.001	19.996	103.385	20.158	3.973	0.562
1277.000	716.677	80.002	19.994	103.384	20.156	4.158	0.543
1277.500	716.978	80.001	19.995	103.383	20.157	4.073	0.460
1278.000	717.287	80.001	19.995	103.383	20.156	4.122	0.534
1278.500	717.540	80.002	19.994	103.380	20.159	3.962	0.586
1279.000	717.794	80.001	19.994	103.375	20.157	4.032	0.535
1279.500	718.070	80.003	19.994	103.373	20.155	4.191	0.519
1280.000	718.340	80.002	19.995	103.373	20.156	4.148	0.538
1280.500	718.626	80.002	19.995	103.374	20.159	3.953	0.551
1281.000	718.881	80.002	19.995	103.376	20.156	4.112	0.549
1281.500	719.150	80.001	19.995	103.379	20.153	4.300	0.533
1282.000	719.382	80.001	19.995	103.380	20.153	4.319	0.512
1282.500	719.671	80.003	19.994	103.380	20.157	4.074	0.510
1283.000	719.948	80.001	19.996	103.377	20.152	4.364	0.543
1283.500	720.200	80.002	19.995	103.377	20.155	4.217	0.548
1284.000	720.476	80.002	19.995	103.373	20.155	4.158	0.528
1284.500	720.747	80.003	19.995	103.373	20.155	4.219	0.537
1285.001	720.997	80.001	19.995	103.372	20.157	4.047	0.534
1285.501	721.269	80.001	19.995	103.375	20.159	3.956	0.522
1286.000	721.506	79.999	19.994	103.373	20.157	4.052	0.516
1286.500	721.767	80.000	19.995	103.373	20.156	4.129	0.504
1287.000	722.050	80.001	19.995	103.373	20.155	4.219	0.521
1287.500	722.276	80.000	19.994	103.374	20.156	4.110	0.526
1288.000	722.557	80.003	19.995	103.374	20.155	4.201	0.508
1288.500	722.809	80.000	19.995	103.376	20.153	4.340	0.520
1289.001	723.051	80.000	19.995	103.376	20.154	4.274	0.513
1289.501	723.327	79.999	19.995	103.373	20.159	3.925	0.506
1290.000	723.593	80.001	19.996	103.366	20.156	4.096	0.530
1290.500	723.836	80.000	19.995	103.360	20.153	4.323	0.526
1291.000	724.112	80.000	19.995	103.353	20.155	4.205	0.514
1291.500	724.369	80.002	19.995	103.350	20.156	4.094	0.526
1292.000	724.642	80.000	19.995	103.347	20.159	3.947	0.531
1292.500	724.882	80.002	19.995	103.347	20.156	4.140	0.521
1293.001	725.104	80.002	19.994	103.345	20.156	4.092	0.488
1293.501	725.387	80.001	19.994	103.344	20.160	3.834	0.483
1294.000	725.646	80.001	19.994	103.344	20.160	3.831	0.523
1294.500	725.896	80.001	19.994	103.343	20.159	3.929	0.526
1295.000	726.145	80.003	19.994	103.343	20.161	3.825	0.505
1295.500	726.411	80.000	19.995	103.344	20.157	4.033	0.507
1296.000	726.665	80.003	19.995	103.343	20.158	3.975	0.517
1296.500	726.898	80.001	19.995	103.343	20.158	3.964	0.503
1297.000	727.177	80.000	19.996	103.342	20.159	3.916	0.500
1297.500	727.457	80.002	19.995	103.339	20.160	3.890	0.536
1298.000	727.690	80.003	19.994	103.338	20.161	3.826	0.536
1298.500	727.950	80.002	19.994	103.338	20.163	3.667	0.503
1299.000	728.229	80.006	19.995	103.338	20.163	3.676	0.515
1299.500	728.531	80.003	19.994	103.334	20.165	3.536	0.560
1300.000	728.756	80.002	19.995	103.330	20.163	3.688	0.554
1300.500	729.009	80.002	19.994	103.325	20.165	3.536	0.503
1301.000	729.284	80.003	19.995	103.319	20.164	3.620	0.503
1301.500	729.566	80.005	19.995	103.312	20.164	3.628	0.543
1302.000	729.807	80.002	19.995	103.310	20.165	3.544	0.540
1302.500	730.076	80.003	19.995	103.308	20.164	3.567	0.516
1303.000	730.331	80.002	19.994	103.307	20.166	3.469	0.517
1303.500	730.605	80.003	19.995	103.304	20.165	3.540	0.527
1304.000	730.848	80.003	19.995	103.301	20.166	3.456	0.523
1304.500	731.109	80.002	19.995	103.299	20.167	3.420	0.511
1305.000	731.383	80.002	19.995	103.299	20.169	3.260	0.520
1305.500	731.675	80.002	19.995	103.294	20.170	3.224	0.550
1306.000	731.883	80.001	19.995	103.292	20.171	3.168	0.533
1306.500	732.170	80.002	19.995	103.290	20.168	3.309	0.497
1307.000	732.452	80.000	19.995	103.283	20.169	3.279	0.532
1307.500	732.696	80.002	19.995	103.275	20.171	3.168	0.548
1308.000	732.958	80.002	19.994	103.272	20.172	3.058	0.517
1308.500	733.229	80.002	19.995	103.265	20.171	3.150	0.520
1309.000	733.495	80.002	19.995	103.261	20.171	3.167	0.535
1309.500	733.764	80.001	19.995	103.261	20.170	3.217	0.536
1310.000	733.996	80.001	19.995	103.258	20.173	2.996	0.518
1310.500	734.299	80.000	19.994	103.253	20.173	3.019	0.518
1311.000	734.551	80.001	19.995	103.253	20.173	2.981	0.545
1311.500	734.807	80.000	19.994	103.248	20.174	2.917	0.531
1312.000	735.080	80.000	19.996	103.240	20.177	2.729	0.518
1312.500	735.342	79.999	19.995	103.236	20.178	2.704	0.532
1313.001	735.617	79.999	19.996	103.234	20.179	2.593	0.536
1313.501	735.894	80.000	19.995	103.228	20.179	2.593	0.545
1314.000	736.126	79.999	19.996	103.228	20.181	2.482	0.531
1314.500	736.392	79.999	19.996	103.223	20.184	2.269	0.504
1315.000	736.692	79.998	19.996	103.220	20.183	2.364	0.532
1315.500	736.914	79.999	19.996	103.219	20.183	2.385	0.543
1316.000	737.221	79.999	19.996	103.218	20.184	2.264	0.525
1316.501	737.448	80.001	19.995	103.212	20.186	2.189	0.531
1317.001	737.729	79.999	19.995	103.209	20.185	2.208	0.521
1317.500	737.955	79.999	19.996	103.204	20.185	2.215	0.508
1318.000	738.284	80.000	19.995	103.198	20.185	2.208	0.531
1318.500	738.535	80.001	19.996	103.191	20.185	2.201	0.567
1319.000	738.808	80.001	19.996	103.186	20.185	2.219	0.552
1319.500	739.058	80.000	19.995	103.186	20.188	2.060	0.524
1320.000	739.308	80.001	19.995	103.183	20.188	2.011	0.512
1320.500	739.597	79.999	19.995	103.182	20.192	1.745	0.520
1321.000	739.856	79.999	19.995	103.182	20.193	1.699	0.543
1321.500	740.114	79.999	19.996	103.181	20.190	1.918	0.532
1322.000	740.362	80.000	19.996	103.174	20.193	1.668	0.512
1322.500	740.647	79.999	19.995	103.167	20.192	1.745	0.519
1323.000	740.864	80.001	19.995	103.160	20.195	1.565	0.518
1323.500	741.143	80.001	19.994	103.153	20.194	1.649	0.499
1324.000	741.415	79.999	19.995	103.146	20.194	1.608	0.523
1324.500	741.728	79.998	19.995	103.141	20.194	1.645	0.568
1325.000	741.953	80.000	19.995	103.136	20.200	1.276	0.562
1325.500	742.209	79.998	19.996	103.130	20.199	1.338	0.510
1326.000	742.505	80.000	19.996	103.122	20.201	1.188	0.517
1326.500	742.756	80.000	19.995	103.117	20.196	1.513	0.549
1327.001	743.025	79.999	19.995	103.115	20.196	1.504	0.533
1327.501	743.323	79.997	19.995	103.115	20.199	1.308	0.543
1328.000	743.542	79.998	19.996	103.113	20.199	1.336	0.542
