Sample ID:	C:\MCC\MCC Cal\Test\Polyester_Batting_30_1.txt
Sample Weight (mg):	5.43
Heating Rate (C/s):	0.5
Combustor Temp (C):	900
N2 Flow Rate (cc/min):	80
O2 Flow Rate (cc/min):	20
Calibration File:	C:\MCC\MCC Cal\Coeff1 JN10440_30_210304.txt.txt
T Correction Coefficients:	0	1.024463	0
Time Shift (s):	14
*
Time (s)	Temperature (C)	N2 flow rate (cc/min)	O2 flow rate (cc/min)	Flow Rate (cc/min)	Oxygen (%)	HRR (W/g)	Heating rate (C/s)
0.000	106.669	79.990	19.992	99.694	20.075	0.058	-0.004
0.500	106.598	79.989	19.993	99.696	20.075	0.056	-0.007
1.000	106.645	79.988	19.993	99.699	20.075	0.111	-0.019
1.500	106.660	79.988	19.994	99.701	20.070	0.373	0.019
2.000	106.609	79.987	19.995	99.706	20.069	0.424	0.013
2.500	106.635	79.987	19.994	99.710	20.074	0.129	-0.030
3.000	106.658	79.989	19.993	99.710	20.074	0.154	0.012
3.500	106.672	79.987	19.993	99.708	20.072	0.253	0.043
4.000	106.602	79.988	19.992	99.704	20.074	0.158	-0.009
4.500	106.603	79.988	19.993	99.700	20.076	0.033	-0.062
5.000	106.629	79.988	19.993	99.699	20.076	0.052	-0.021
5.500	106.616	79.988	19.992	99.703	20.075	0.100	0.020
6.000	106.615	79.990	19.993	99.701	20.073	0.184	-0.000
6.500	106.641	79.988	19.993	99.701	20.075	0.080	0.006
7.000	106.650	79.989	19.994	99.705	20.074	0.129	0.030
7.501	106.576	79.988	19.993	99.706	20.074	0.138	-0.015
8.001	106.646	79.989	19.995	99.706	20.073	0.221	-0.034
8.501	106.597	79.989	19.994	99.711	20.077	-0.025	0.009
9.002	106.639	79.991	19.992	99.714	20.074	0.168	0.007
9.501	106.657	79.990	19.993	99.716	20.074	0.152	0.026
10.000	106.637	79.989	19.992	99.717	20.073	0.213	0.029
10.500	106.596	79.990	19.993	99.715	20.075	0.060	-0.032
11.000	106.613	79.989	19.994	99.711	20.072	0.257	-0.043
11.500	106.633	79.990	19.993	99.706	20.075	0.108	0.007
12.000	106.672	79.990	19.992	99.702	20.074	0.136	0.049
12.500	106.605	79.991	19.992	99.701	20.070	0.355	0.016
13.000	106.666	79.991	19.993	99.703	20.072	0.271	-0.017
13.500	106.591	79.991	19.992	99.707	20.070	0.391	-0.010
14.001	106.663	79.991	19.992	99.713	20.072	0.282	-0.008
14.501	106.630	79.993	19.992	99.716	20.070	0.353	0.018
15.000	106.594	79.991	19.992	99.719	20.072	0.229	-0.015
15.500	106.627	79.993	19.991	99.720	20.072	0.250	-0.037
16.000	106.558	79.991	19.991	99.720	20.069	0.416	-0.020
16.500	106.577	79.992	19.993	99.720	20.073	0.217	-0.043
17.000	106.649	79.992	19.992	99.720	20.070	0.399	0.021
17.500	106.662	79.992	19.992	99.720	20.068	0.494	0.088
18.000	106.630	79.992	19.991	99.721	20.067	0.518	0.033
18.500	106.637	79.993	19.990	99.722	20.067	0.559	-0.022
19.000	106.689	79.993	19.992	99.722	20.068	0.482	0.017
19.500	106.674	79.994	19.991	99.723	20.068	0.513	0.048
20.000	106.693	79.993	19.993	99.723	20.066	0.579	0.020
20.500	106.686	79.992	19.991	99.723	20.067	0.569	0.008
21.000	106.700	79.992	19.993	99.723	20.063	0.792	0.010
21.500	106.726	79.992	19.993	99.725	20.066	0.611	0.024
22.000	106.722	79.991	19.992	99.725	20.064	0.716	0.031
22.500	106.688	79.993	19.991	99.724	20.065	0.679	-0.008
23.000	106.707	79.994	19.991	99.724	20.062	0.853	-0.026
23.500	106.760	79.991	19.990	99.724	20.063	0.801	0.029
24.000	106.735	79.992	19.992	99.722	20.062	0.856	0.050
24.500	106.763	79.992	19.990	99.723	20.065	0.672	0.015
25.000	106.759	79.993	19.992	99.727	20.063	0.793	0.013
25.500	106.777	79.992	19.991	99.735	20.061	0.908	0.019
26.000	106.788	79.992	19.993	99.741	20.063	0.763	0.022
26.500	106.804	79.993	19.991	99.742	20.064	0.696	0.028
27.000	106.831	79.990	19.991	99.745	20.061	0.908	0.035
27.500	106.824	79.992	19.991	99.748	20.062	0.845	0.031
28.000	106.851	79.991	19.991	99.748	20.059	0.974	0.019
28.500	106.848	79.991	19.992	99.754	20.057	1.120	0.022
29.000	106.877	79.991	19.992	99.759	20.054	1.283	0.026
29.500	106.896	79.990	19.992	99.744	20.056	1.168	0.037
30.000	106.907	79.991	19.992	99.725	20.054	1.280	0.039
30.500	106.988	79.991	19.992	99.716	20.052	1.431	0.061
31.000	106.947	79.991	19.992	99.710	20.055	1.249	0.066
31.500	106.962	79.992	19.991	99.716	20.055	1.250	0.007
32.000	106.991	79.992	19.993	99.746	20.057	1.136	0.009
32.500	107.077	79.991	19.992	99.785	20.051	1.481	0.079
33.000	107.099	79.991	19.992	99.838	20.056	1.189	0.111
33.500	107.087	79.990	19.992	99.867	20.054	1.287	0.059
34.001	107.114	79.991	19.992	99.878	20.051	1.455	0.012
34.501	107.119	79.993	19.991	99.881	20.054	1.268	0.024
35.001	107.139	79.993	19.992	99.872	20.050	1.491	0.029
35.500	107.176	79.992	19.991	99.836	20.054	1.264	0.041
36.000	107.241	79.993	19.990	99.816	20.051	1.435	0.079
36.500	107.308	79.992	19.991	99.807	20.051	1.479	0.117
37.000	107.312	79.992	19.992	99.805	20.052	1.405	0.102
37.500	107.309	79.993	19.992	99.810	20.050	1.492	0.036
38.000	107.354	79.994	19.991	99.818	20.050	1.519	0.022
38.500	107.442	79.991	19.991	99.825	20.047	1.712	0.088
39.000	107.477	79.992	19.992	99.829	20.048	1.611	0.128
39.500	107.542	79.993	19.991	99.827	20.047	1.692	0.111
40.000	107.598	79.993	19.991	99.823	20.045	1.808	0.111
40.500	107.584	79.992	19.991	99.822	20.047	1.682	0.081
41.000	107.691	79.993	19.991	99.823	20.050	1.519	0.067
41.500	107.765	79.993	19.991	99.828	20.046	1.742	0.137
42.000	107.766	79.992	19.991	99.833	20.045	1.791	0.128
42.500	107.899	79.994	19.993	99.838	20.049	1.558	0.104
43.000	107.808	79.993	19.991	99.844	20.047	1.666	0.088
43.500	107.892	79.992	19.991	99.849	20.046	1.754	0.018
44.000	108.004	79.993	19.993	99.856	20.041	2.053	0.094
44.500	107.943	79.994	19.992	99.865	20.043	1.908	0.123
45.000	108.050	79.994	19.990	99.873	20.040	2.081	0.048
45.500	108.178	79.995	19.991	99.876	20.042	1.968	0.140
46.000	108.241	79.996	19.991	99.882	20.043	1.940	0.214
46.500	108.262	79.993	19.991	99.890	20.039	2.158	0.138
47.000	108.314	79.996	19.993	99.898	20.041	2.026	0.079
47.500	108.485	79.995	19.992	99.906	20.040	2.108	0.148
48.000	108.508	79.993	19.992	99.914	20.039	2.132	0.209
48.500	108.534	79.992	19.993	99.918	20.036	2.337	0.121
49.000	108.667	79.991	19.993	99.918	20.039	2.159	0.104
49.500	108.709	79.994	19.993	99.921	20.039	2.144	0.167
50.000	108.865	79.991	19.993	99.924	20.040	2.094	0.187
50.500	108.845	79.992	19.991	99.927	20.038	2.186	0.167
51.000	108.987	79.993	19.991	99.928	20.036	2.314	0.129
51.500	109.074	79.991	19.992	99.931	20.039	2.135	0.175
52.000	109.077	79.993	19.992	99.933	20.034	2.436	0.160
52.500	109.192	79.991	19.992	99.929	20.033	2.471	0.104
53.000	109.263	79.991	19.994	99.926	20.034	2.420	0.152
53.500	109.380	79.993	19.992	99.927	20.035	2.365	0.187
54.000	109.509	79.993	19.992	99.924	20.032	2.580	0.217
54.500	109.614	79.999	19.992	99.919	20.034	2.463	0.240
55.000	109.825	79.999	19.994	99.920	20.030	2.697	0.276
55.500	109.765	79.998	19.991	99.921	20.032	2.574	0.233
56.000	109.836	79.998	19.992	99.920	20.028	2.776	0.080
56.500	110.049	79.992	19.992	99.920	20.034	2.423	0.148
57.000	110.135	79.992	19.991	99.921	20.028	2.805	0.292
57.500	110.225	79.992	19.992	99.920	20.029	2.714	0.238
58.000	110.397	79.990	19.991	99.915	20.028	2.759	0.219
58.501	110.388	79.989	19.991	99.909	20.033	2.503	0.212
59.001	110.542	79.988	19.992	99.916	20.024	3.036	0.154
59.501	110.703	79.989	19.990	99.891	20.032	2.536	0.230
60.001	110.788	80.005	19.993	99.863	20.024	3.013	0.280
60.500	110.908	80.007	19.994	99.849	20.026	2.923	0.226
61.000	111.039	80.008	19.992	99.846	20.031	2.595	0.228
61.500	111.125	80.010	19.992	99.833	20.028	2.808	0.234
62.000	111.130	80.009	19.993	99.860	20.029	2.717	0.154
62.500	111.282	80.009	19.992	99.924	20.036	2.343	0.124
63.000	111.542	80.008	19.992	99.969	20.028	2.812	0.285
63.500	111.593	80.006	19.993	99.993	20.025	2.936	0.361
64.000	111.746	80.009	19.992	100.013	20.033	2.490	0.257
64.500	111.843	80.008	19.991	100.020	20.031	2.592	0.227
65.000	111.993	80.011	19.993	99.992	20.031	2.616	0.249
65.500	112.154	80.009	19.993	99.973	20.031	2.616	0.279
66.000	112.268	80.008	19.993	99.965	20.030	2.663	0.294
66.500	112.360	80.007	19.992	99.960	20.030	2.656	0.240
67.000	112.454	80.009	19.993	99.958	20.024	2.990	0.195
67.500	112.593	80.007	19.992	99.953	20.022	3.117	0.209
68.000	112.748	80.008	19.990	99.945	20.034	2.428	0.264
68.500	112.802	80.006	19.992	99.937	20.026	2.884	0.252
69.000	113.051	80.007	19.992	99.928	20.021	3.214	0.256
69.500	113.242	80.006	19.993	99.929	20.031	2.599	0.371
70.000	113.050	80.009	19.993	99.933	20.030	2.654	0.219
70.500	113.391	80.004	19.993	99.940	20.027	2.857	0.074
71.000	113.550	80.002	19.992	99.948	20.020	3.271	0.325
71.500	113.665	79.998	19.994	99.955	20.026	2.884	0.387
72.000	113.702	80.001	19.993	99.952	20.024	3.018	0.213
72.500	114.066	80.001	19.991	99.951	20.028	2.810	0.276
73.000	113.904	79.999	19.992	99.951	20.026	2.924	0.301
73.500	114.380	79.999	19.990	99.952	20.023	3.056	0.258
74.000	114.587	79.999	19.992	99.957	20.023	3.069	0.499
74.500	114.380	79.992	19.992	99.965	20.025	2.971	0.341
75.000	114.695	79.991	19.992	99.972	20.029	2.705	0.054
75.500	114.978	79.990	19.991	99.975	20.022	3.119	0.353
76.000	114.803	79.989	19.993	99.981	20.027	2.828	0.353
76.500	115.284	79.992	19.992	99.978	20.021	3.204	0.207
77.000	115.338	79.991	19.992	99.972	20.031	2.636	0.421
77.501	115.238	79.992	19.993	99.967	20.029	2.716	0.245
78.001	115.377	79.989	19.990	99.964	20.034	2.451	-0.003
78.500	115.714	79.990	19.994	99.958	20.029	2.712	0.258
79.000	115.785	79.990	19.991	99.955	20.026	2.900	0.442
79.501	116.076	79.992	19.993	99.954	20.020	3.265	0.385
80.001	116.294	79.990	19.993	99.952	20.020	3.240	0.436
80.501	116.302	79.988	19.991	99.951	20.026	2.875	0.367
81.001	116.292	79.990	19.992	99.951	20.023	3.083	0.112
81.500	116.633	79.991	19.993	99.947	20.025	2.969	0.165
82.000	117.065	79.990	19.993	99.948	20.023	3.060	0.552
82.500	116.915	79.987	19.993	99.948	20.023	3.087	0.527
83.000	117.145	79.990	19.993	99.949	20.019	3.318	0.181
83.500	117.581	79.991	19.992	99.949	20.020	3.227	0.373
84.000	117.534	79.991	19.993	99.959	20.017	3.433	0.527
84.500	117.532	79.990	19.992	99.968	20.021	3.189	0.170
85.000	117.820	79.990	19.992	99.974	20.019	3.308	0.119
85.500	118.230	79.989	19.991	99.978	20.013	3.632	0.492
86.000	118.106	79.989	19.994	99.979	20.010	3.834	0.492
86.500	118.559	79.990	19.992	99.974	20.016	3.453	0.307
87.000	118.535	79.989	19.993	99.967	20.017	3.435	0.379
87.500	118.528	79.989	19.992	99.966	20.012	3.702	0.199
88.000	118.812	79.992	19.991	99.969	20.017	3.413	0.123
88.500	119.337	79.990	19.992	99.974	20.014	3.570	0.542
89.000	119.389	79.989	19.992	99.977	20.014	3.607	0.693
89.500	119.278	79.989	19.992	99.983	20.012	3.701	0.259
90.000	119.833	79.989	19.994	99.979	20.005	4.109	0.193
90.500	119.715	79.991	19.993	99.979	20.010	3.818	0.441
91.000	120.328	79.990	19.993	99.978	20.010	3.819	0.466
91.500	120.321	79.990	19.994	99.983	20.006	4.025	0.550
92.000	120.477	79.991	19.993	99.985	20.014	3.601	0.377
92.500	120.675	79.989	19.995	99.992	20.005	4.123	0.251
93.000	120.745	79.988	19.994	99.994	20.005	4.122	0.311
93.500	120.782	79.988	19.993	99.998	20.008	3.925	0.188
94.000	121.047	79.990	19.995	99.998	20.010	3.828	0.204
94.500	121.507	79.990	19.992	99.997	20.008	3.910	0.513
95.000	121.705	79.990	19.993	99.996	20.008	3.957	0.691
95.500	121.722	79.989	19.992	99.995	20.013	3.661	0.437
96.000	122.123	79.991	19.992	99.991	20.009	3.864	0.317
96.500	122.225	79.990	19.992	99.991	20.008	3.932	0.461
97.000	122.466	79.992	19.993	99.992	20.008	3.948	0.423
97.500	122.586	79.990	19.992	99.996	20.009	3.852	0.351
98.000	122.756	79.991	19.993	100.004	20.012	3.682	0.325
98.500	123.211	79.990	19.993	100.009	20.006	4.061	0.458
99.000	123.245	79.990	19.991	100.012	20.009	3.858	0.557
99.500	123.379	79.991	19.992	100.020	20.009	3.882	0.328
100.000	123.710	79.991	19.991	100.020	20.007	3.998	0.316
100.500	123.844	79.993	19.992	100.019	20.011	3.750	0.465
101.000	124.193	79.992	19.992	100.022	20.010	3.831	0.474
101.500	124.184	79.991	19.991	100.020	20.009	3.869	0.411
102.000	124.717	79.993	19.990	100.011	20.001	4.352	0.432
102.500	124.547	79.992	19.991	100.007	20.015	3.513	0.443
103.000	125.035	79.991	19.991	100.002	20.022	3.148	0.341
103.500	125.286	79.992	19.991	99.996	20.013	3.626	0.529
104.000	125.290	79.991	19.992	99.996	20.005	4.089	0.497
104.500	125.582	79.992	19.992	99.999	20.007	3.994	0.275
105.000	125.962	79.992	19.991	100.001	20.007	3.976	0.484
105.500	125.993	79.991	19.990	99.999	20.006	4.028	0.541
106.000	126.396	79.993	19.993	100.000	20.002	4.251	0.423
106.500	126.430	79.992	19.992	100.005	20.006	4.032	0.435
107.000	126.720	79.989	19.993	100.004	20.001	4.319	0.380
107.500	126.921	79.992	19.991	100.009	20.005	4.100	0.407
108.000	127.313	79.991	19.991	100.011	20.011	3.735	0.542
108.500	127.395	79.991	19.991	100.011	20.010	3.817	0.534
109.000	127.617	79.991	19.991	100.012	20.011	3.783	0.389
109.500	127.988	79.990	19.991	100.016	20.013	3.658	0.448
110.000	128.223	79.989	19.992	100.016	20.009	3.892	0.600
110.500	128.300	79.991	19.991	100.015	20.003	4.248	0.459
111.000	128.708	79.991	19.990	100.015	20.005	4.092	0.398
111.500	128.870	79.991	19.992	100.011	20.005	4.123	0.527
112.000	129.063	79.992	19.990	100.006	20.002	4.279	0.462
112.500	129.370	79.992	19.991	100.000	20.003	4.204	0.428
113.000	129.501	79.991	19.991	99.999	20.007	3.975	0.470
113.500	129.840	79.990	19.992	99.997	20.004	4.148	0.454
114.000	130.152	79.992	19.990	99.996	20.005	4.115	0.561
114.500	130.212	79.990	19.992	99.995	20.008	3.911	0.512
115.000	130.583	79.990	19.991	99.996	20.003	4.207	0.401
115.500	130.641	79.991	19.992	99.997	20.005	4.118	0.430
116.000	131.069	79.992	19.993	99.999	20.006	4.038	0.458
116.500	131.465	79.992	19.991	100.000	19.999	4.430	0.655
117.000	131.467	79.992	19.990	100.001	20.006	4.020	0.611
117.500	131.761	79.993	19.991	100.000	20.003	4.223	0.347
118.000	131.997	79.992	19.992	100.000	20.005	4.110	0.413
118.500	132.241	79.993	19.992	99.999	20.006	4.039	0.505
119.001	132.629	79.992	19.991	99.998	20.010	3.827	0.556
119.501	132.788	79.992	19.991	99.996	20.002	4.307	0.590
120.000	132.942	79.993	19.992	99.994	20.008	3.950	0.430
120.500	133.643	79.993	19.991	99.994	20.005	4.107	0.584
121.000	133.657	79.992	19.990	99.994	20.006	4.057	0.785
121.500	133.762	79.993	19.993	99.995	20.006	4.053	0.417
122.000	134.041	79.994	19.992	99.996	20.007	4.012	0.251
122.500	134.251	79.992	19.992	99.998	20.003	4.217	0.437
123.000	134.638	79.993	19.991	99.997	20.009	3.901	0.543
123.500	134.840	79.992	19.992	99.997	20.004	4.170	0.593
124.000	135.044	79.992	19.991	99.996	20.004	4.184	0.497
124.500	135.237	79.993	19.991	99.994	20.010	3.824	0.402
125.000	135.726	79.993	19.993	99.994	20.007	3.977	0.539
125.500	135.843	79.993	19.991	99.995	20.005	4.092	0.644
126.000	136.095	79.992	19.992	99.993	20.006	4.063	0.488
126.500	136.356	79.994	19.990	99.991	20.009	3.890	0.442
127.000	136.728	79.993	19.991	99.991	20.007	3.969	0.574
127.500	136.937	79.992	19.991	99.987	20.007	3.972	0.607
128.000	137.016	79.993	19.990	99.980	20.003	4.197	0.434
128.500	137.561	79.991	19.991	99.979	20.006	4.057	0.456
129.000	137.559	79.993	19.991	99.980	20.011	3.766	0.583
129.500	137.940	79.990	19.992	99.981	20.009	3.895	0.461
130.000	138.307	79.993	19.991	99.986	20.006	4.063	0.564
130.500	138.337	79.991	19.990	99.991	20.008	3.918	0.572
131.000	138.733	79.993	19.989	99.989	20.007	3.984	0.411
131.500	139.054	79.991	19.991	99.986	20.006	4.034	0.572
132.000	139.215	79.990	19.990	99.981	20.008	3.961	0.599
132.500	139.452	79.991	19.991	99.975	20.012	3.680	0.440
133.000	139.871	79.992	19.990	99.973	20.009	3.897	0.527
133.500	139.974	79.992	19.991	99.976	20.009	3.847	0.589
134.000	140.260	79.991	19.990	99.981	20.011	3.749	0.455
134.500	140.581	79.989	19.991	99.987	20.012	3.707	0.498
135.000	140.867	79.991	19.991	99.986	20.010	3.839	0.607
135.500	141.093	79.988	19.992	99.986	20.013	3.661	0.559
136.000	141.372	79.990	19.990	99.986	20.011	3.778	0.508
136.500	141.619	79.991	19.993	99.986	20.013	3.664	0.515
137.000	141.966	79.991	19.992	99.986	20.011	3.766	0.560
137.500	142.101	79.990	19.991	99.991	20.009	3.846	0.538
138.000	142.388	79.989	19.989	99.993	20.013	3.674	0.452
138.500	142.684	79.989	19.991	99.994	20.011	3.774	0.503
139.000	142.990	79.990	19.992	99.994	20.007	4.002	0.593
139.500	143.226	79.989	19.992	99.993	20.012	3.725	0.572
140.000	143.483	79.989	19.991	99.990	20.014	3.604	0.518
140.500	143.778	79.990	19.991	99.985	20.014	3.603	0.523
141.000	144.047	79.990	19.991	99.981	20.012	3.702	0.558
141.500	144.288	79.990	19.990	99.978	20.009	3.877	0.537
142.000	144.595	79.990	19.992	99.974	20.013	3.650	0.529
142.500	144.881	79.991	19.991	99.973	20.014	3.589	0.571
143.000	145.158	79.990	19.992	99.975	20.014	3.577	0.578
143.500	145.341	79.988	19.992	99.973	20.011	3.768	0.511
144.000	145.611	79.989	19.992	99.968	20.014	3.603	0.457
144.500	145.977	79.991	19.993	99.964	20.014	3.590	0.544
145.000	146.154	79.991	19.992	99.966	20.013	3.658	0.590
145.500	146.487	79.991	19.993	99.965	20.016	3.485	0.527
146.000	146.712	79.992	19.992	99.964	20.013	3.651	0.534
146.500	147.021	79.990	19.991	99.963	20.019	3.321	0.545
147.000	147.180	79.990	19.992	99.963	20.018	3.386	0.501
147.500	147.565	79.990	19.993	99.957	20.013	3.617	0.506
148.000	147.789	79.990	19.993	99.954	20.014	3.613	0.577
148.500	147.984	79.991	19.991	99.955	20.017	3.429	0.514
149.000	148.333	79.992	19.993	99.955	20.011	3.740	0.481
149.500	148.601	79.990	19.991	99.955	20.012	3.709	0.581
150.000	148.867	79.990	19.992	99.958	20.017	3.439	0.576
150.500	149.107	79.991	19.992	99.958	20.016	3.458	0.520
151.000	149.334	79.991	19.991	99.958	20.017	3.395	0.486
151.500	149.631	79.990	19.991	99.965	20.017	3.431	0.495
152.000	149.944	79.990	19.994	99.969	20.015	3.524	0.567
152.500	150.189	79.990	19.994	99.967	20.020	3.223	0.584
153.000	150.389	79.989	19.993	99.964	20.020	3.242	0.502
153.500	150.635	79.991	19.991	99.961	20.016	3.487	0.446
154.000	150.891	79.991	19.994	99.953	20.016	3.450	0.474
154.501	151.250	79.990	19.993	99.948	20.014	3.600	0.558
155.000	151.461	79.990	19.993	99.949	20.016	3.493	0.592
155.500	151.762	79.991	19.992	99.951	20.015	3.547	0.541
156.000	151.964	79.991	19.994	99.953	20.014	3.561	0.507
156.500	152.299	79.992	19.992	99.954	20.016	3.488	0.520
157.000	152.490	79.990	19.993	99.954	20.015	3.531	0.532
157.500	152.811	79.991	19.992	99.954	20.018	3.371	0.519
158.000	153.082	79.990	19.992	99.951	20.018	3.384	0.552
158.500	153.236	79.990	19.991	99.945	20.018	3.341	0.508
159.000	153.627	79.990	19.991	99.937	20.018	3.330	0.485
159.500	153.776	79.990	19.993	99.934	20.021	3.170	0.543
160.000	154.090	79.991	19.994	99.934	20.019	3.278	0.502
160.500	154.373	79.991	19.992	99.937	20.021	3.208	0.530
161.000	154.575	79.993	19.993	99.944	20.020	3.245	0.541
161.500	154.847	79.992	19.992	99.952	20.020	3.240	0.479
162.000	155.174	79.991	19.992	99.955	20.023	3.071	0.537
162.500	155.358	79.991	19.992	99.955	20.021	3.188	0.555
163.000	155.589	79.989	19.993	99.949	20.020	3.242	0.463
163.500	155.915	79.987	19.994	99.941	20.023	3.068	0.486
164.000	156.156	79.991	19.992	99.940	20.024	3.018	0.562
164.500	156.420	79.989	19.992	99.940	20.025	2.971	0.536
165.000	156.672	79.990	19.992	99.946	20.024	3.028	0.510
165.500	156.916	79.992	19.991	99.959	20.022	3.119	0.506
166.000	157.223	79.991	19.993	99.966	20.024	3.028	0.524
166.500	157.462	79.990	19.991	99.967	20.024	3.001	0.549
167.000	157.779	79.988	19.992	99.963	20.021	3.206	0.551
167.500	158.020	79.989	19.992	99.951	20.025	2.959	0.557
168.000	158.232	79.989	19.993	99.938	20.024	3.033	0.506
168.500	158.434	79.988	19.993	99.937	20.026	2.887	0.434
169.000	158.715	79.990	19.994	99.938	20.029	2.728	0.448
169.500	158.975	79.990	19.994	99.942	20.026	2.910	0.511
170.000	159.197	79.989	19.993	99.942	20.027	2.820	0.511
170.500	159.447	79.989	19.993	99.941	20.030	2.668	0.477
171.000	159.769	79.988	19.995	99.939	20.025	2.962	0.522
171.500	160.042	79.988	19.990	99.940	20.027	2.812	0.583
172.000	160.325	79.989	19.992	99.936	20.029	2.701	0.576
172.501	160.501	79.989	19.991	99.935	20.030	2.676	0.508
173.000	160.798	79.989	19.992	99.934	20.025	2.941	0.466
173.500	161.047	79.990	19.994	99.929	20.028	2.806	0.509
174.000	161.330	79.989	19.992	99.921	20.026	2.924	0.539
174.500	161.563	79.989	19.993	99.917	20.027	2.859	0.524
175.000	161.810	79.989	19.993	99.918	20.022	3.108	0.498
175.500	162.051	79.990	19.993	99.920	20.024	3.010	0.484
176.000	162.326	79.990	19.993	99.923	20.026	2.900	0.502
176.500	162.574	79.991	19.992	99.923	20.025	2.954	0.519
177.000	162.828	79.990	19.994	99.924	20.022	3.117	0.512
177.500	163.053	79.991	19.992	99.927	20.021	3.209	0.490
178.000	163.335	79.989	19.993	99.932	20.020	3.267	0.493
178.500	163.578	79.991	19.992	99.937	20.019	3.328	0.516
179.000	163.816	79.990	19.994	99.942	20.023	3.070	0.503
179.500	164.080	79.990	19.993	99.942	20.023	3.073	0.491
180.000	164.373	79.991	19.993	99.938	20.024	3.030	0.530
180.500	164.648	79.991	19.994	99.930	20.025	2.970	0.563
181.000	164.886	79.991	19.993	99.923	20.022	3.156	0.540
181.500	165.142	79.992	19.991	99.920	20.024	2.992	0.503
182.000	165.431	79.991	19.992	99.922	20.022	3.154	0.520
182.500	165.633	79.990	19.994	99.922	20.021	3.157	0.519
183.000	165.868	79.992	19.995	99.922	20.020	3.264	0.464
183.500	166.159	79.993	19.992	99.921	20.023	3.074	0.481
184.000	166.364	79.993	19.993	99.920	20.019	3.273	0.511
184.500	166.635	79.992	19.992	99.917	20.022	3.151	0.486
185.000	166.929	79.992	19.994	99.916	20.020	3.240	0.521
185.500	167.184	79.991	19.993	99.915	20.020	3.244	0.557
186.000	167.390	79.992	19.993	99.915	20.021	3.196	0.505
186.500	167.612	79.991	19.992	99.915	20.021	3.190	0.444
187.000	167.911	79.992	19.994	99.916	20.023	3.099	0.475
187.500	168.120	79.991	19.993	99.920	20.021	3.209	0.514
188.000	168.386	79.990	19.993	99.923	20.023	3.080	0.491
188.500	168.614	79.993	19.992	99.923	20.025	2.942	0.485
189.000	168.832	79.991	19.992	99.922	20.023	3.065	0.470
189.500	169.067	79.990	19.992	99.922	20.024	3.003	0.449
190.000	169.362	79.990	19.992	99.921	20.023	3.083	0.491
190.500	169.617	79.992	19.991	99.927	20.020	3.269	0.540
191.000	169.825	79.990	19.991	99.930	20.018	3.360	0.507
191.500	170.050	79.990	19.994	99.937	20.021	3.196	0.448
192.000	170.272	79.991	19.993	99.944	20.022	3.128	0.440
192.500	170.575	79.992	19.991	99.949	20.023	3.048	0.486
193.000	170.794	79.990	19.992	99.950	20.024	2.998	0.523
193.500	171.039	79.992	19.992	99.947	20.023	3.056	0.493
194.000	171.285	79.991	19.991	99.941	20.024	3.029	0.478
194.500	171.589	79.990	19.992	99.935	20.021	3.169	0.521
195.000	171.780	79.991	19.992	99.931	20.023	3.087	0.522
195.500	172.012	79.990	19.992	99.932	20.020	3.216	0.459
196.000	172.267	79.991	19.992	99.937	20.022	3.122	0.455
196.500	172.530	79.991	19.992	99.937	20.020	3.226	0.503
197.000	172.762	79.991	19.992	99.938	20.022	3.153	0.506
197.500	173.046	79.990	19.992	99.939	20.020	3.222	0.505
198.000	173.255	79.989	19.992	99.939	20.021	3.166	0.505
198.500	173.485	79.991	19.991	99.937	20.024	3.028	0.466
199.000	173.699	79.992	19.991	99.941	20.021	3.174	0.441
199.500	173.947	79.991	19.993	99.944	20.026	2.897	0.453
200.000	174.209	79.992	19.991	99.943	20.027	2.844	0.486
200.500	174.502	79.993	19.992	99.938	20.024	3.013	0.532
201.000	174.719	79.993	19.993	99.936	20.023	3.053	0.532
201.500	174.947	79.991	19.991	99.934	20.027	2.812	0.478
202.000	175.177	79.992	19.992	99.929	20.029	2.743	0.452
202.500	175.475	79.991	19.992	99.927	20.027	2.821	0.493
203.000	175.709	79.992	19.992	99.925	20.026	2.896	0.530
203.500	175.902	79.994	19.991	99.922	20.025	2.980	0.480
204.000	176.151	79.993	19.991	99.920	20.027	2.865	0.434
204.500	176.386	79.994	19.991	99.919	20.022	3.125	0.463
205.000	176.669	79.993	19.991	99.917	20.023	3.065	0.501
205.500	176.886	79.994	19.991	99.916	20.020	3.226	0.509
206.000	177.100	79.993	19.990	99.915	20.019	3.271	0.466
206.500	177.373	79.992	19.992	99.914	20.019	3.278	0.459
207.000	177.652	79.994	19.991	99.914	20.021	3.199	0.520
207.500	177.870	79.993	19.992	99.914	20.017	3.419	0.525
208.000	178.083	79.993	19.992	99.914	20.018	3.346	0.463
208.500	178.321	79.993	19.992	99.914	20.020	3.231	0.440
209.000	178.580	79.995	19.991	99.914	20.021	3.200	0.474
209.500	178.814	79.994	19.992	99.914	20.020	3.260	0.495
210.000	179.061	79.993	19.990	99.914	20.018	3.369	0.487
210.500	179.282	79.993	19.992	99.921	20.020	3.240	0.475
211.000	179.538	79.993	19.991	99.915	20.021	3.204	0.473
211.500	179.749	79.994	19.992	99.892	20.021	3.194	0.472
212.000	179.987	79.993	19.992	99.875	20.020	3.253	0.458
212.500	180.242	79.993	19.992	99.864	20.021	3.187	0.471
213.000	180.549	79.992	19.993	99.850	20.019	3.279	0.528
213.500	180.766	79.991	19.992	99.855	20.021	3.155	0.543
214.000	181.034	79.993	19.991	99.879	20.024	3.020	0.504
214.501	181.264	79.993	19.993	99.896	20.023	3.041	0.491
215.000	181.462	79.992	19.991	99.906	20.021	3.184	0.463
215.500	181.762	79.992	19.991	99.914	20.024	2.994	0.463
216.000	181.981	79.990	19.990	99.918	20.023	3.054	0.508
216.501	182.207	79.990	19.992	99.920	20.022	3.120	0.482
217.001	182.490	79.990	19.992	99.923	20.023	3.057	0.477
217.501	182.717	79.991	19.992	99.924	20.020	3.241	0.509
218.000	182.935	79.991	19.992	99.924	20.025	2.932	0.477
218.500	183.125	79.991	19.992	99.923	20.021	3.177	0.427
219.000	183.420	79.991	19.991	99.931	20.024	3.026	0.447
219.500	183.621	79.991	19.992	99.975	20.022	3.120	0.491
220.000	183.865	79.990	19.993	100.008	20.027	2.858	0.471
220.500	184.120	79.991	19.993	100.019	20.025	2.946	0.472
221.000	184.332	79.991	19.991	100.021	20.027	2.828	0.483
221.500	184.607	79.991	19.993	100.013	20.026	2.899	0.477
222.000	184.861	79.990	19.992	99.972	20.023	3.081	0.508
222.500	185.156	79.990	19.991	99.916	20.022	3.147	0.539
223.000	185.401	79.993	19.992	99.885	20.019	3.274	0.544
223.500	185.637	79.992	19.992	99.874	20.021	3.199	0.511
224.000	185.871	79.991	19.992	99.866	20.019	3.295	0.476
224.500	186.141	79.991	19.991	99.858	20.020	3.241	0.487
225.000	186.370	79.992	19.992	99.879	20.021	3.208	0.502
225.500	186.660	79.991	19.991	99.899	20.021	3.201	0.509
226.000	186.860	79.991	19.992	99.906	20.019	3.316	0.505
226.500	187.121	79.990	19.993	99.912	20.020	3.260	0.476
227.000	187.372	79.992	19.993	99.914	20.018	3.334	0.487
227.500	187.572	79.992	19.992	99.915	20.022	3.146	0.481
228.000	187.885	79.992	19.992	99.914	20.023	3.051	0.481
228.500	188.071	79.992	19.992	99.915	20.020	3.255	0.506
229.000	188.307	79.991	19.992	99.915	20.020	3.264	0.461
229.500	188.572	79.992	19.991	99.915	20.018	3.353	0.462
230.000	188.825	79.992	19.991	99.915	20.019	3.307	0.510
230.500	189.074	79.992	19.992	99.915	20.021	3.181	0.510
231.000	189.280	79.991	19.992	99.916	20.019	3.290	0.478
231.500	189.526	79.991	19.992	99.916	20.021	3.200	0.454
232.000	189.761	79.991	19.991	99.916	20.021	3.191	0.466
232.500	189.999	79.990	19.994	99.917	20.021	3.207	0.477
233.000	190.235	79.991	19.991	99.917	20.022	3.152	0.473
233.500	190.517	79.993	19.992	99.917	20.021	3.165	0.496
234.000	190.768	79.990	19.992	99.918	20.021	3.191	0.525
234.500	191.018	79.990	19.992	99.918	20.021	3.180	0.516
235.000	191.262	79.991	19.992	99.918	20.024	3.039	0.497
235.500	191.503	79.990	19.992	99.919	20.026	2.894	0.490
236.000	191.741	79.991	19.992	99.942	20.024	3.039	0.482
236.500	191.960	79.991	19.992	99.970	20.025	2.960	0.468
237.000	192.220	79.991	19.992	99.986	20.023	3.054	0.468
237.500	192.470	79.992	19.990	99.999	20.024	3.033	0.494
238.001	192.694	79.991	19.991	100.008	20.024	2.997	0.492
238.500	193.007	79.992	19.992	99.991	20.026	2.895	0.505
239.000	193.196	79.993	19.991	99.966	20.025	2.947	0.519
239.500	193.452	79.991	19.993	99.951	20.023	3.081	0.474
240.000	193.665	79.989	19.991	99.936	20.023	3.053	0.458
240.500	193.940	79.990	19.992	99.923	20.022	3.138	0.478
241.000	194.165	79.991	19.992	99.909	20.026	2.878	0.494
241.500	194.429	79.991	19.993	99.900	20.027	2.859	0.495
242.000	194.670	79.990	19.993	99.898	20.026	2.917	0.497
242.500	194.885	79.990	19.993	99.898	20.023	3.077	0.480
243.000	195.143	79.990	19.994	99.903	20.023	3.083	0.464
243.500	195.370	79.989	19.992	99.913	20.024	2.998	0.479
244.000	195.635	79.990	19.992	99.921	20.025	2.975	0.488
244.500	195.905	79.990	19.991	99.923	20.021	3.164	0.513
245.000	196.090	79.991	19.991	99.925	20.024	3.028	0.495
245.500	196.342	79.991	19.992	99.929	20.020	3.242	0.446
246.000	196.613	79.989	19.993	99.926	20.021	3.198	0.480
246.500	196.861	79.990	19.991	99.922	20.023	3.050	0.521
247.000	197.073	79.991	19.993	99.916	20.022	3.143	0.490
247.500	197.317	79.989	19.992	99.906	20.020	3.235	0.458
248.000	197.598	79.991	19.992	99.893	20.021	3.174	0.491
248.500	197.807	79.991	19.993	99.885	20.020	3.245	0.508
249.000	198.044	79.990	19.992	99.881	20.020	3.233	0.467
249.500	198.345	79.989	19.994	99.885	20.022	3.148	0.492
250.000	198.577	79.991	19.992	99.893	20.023	3.088	0.536
250.500	198.850	79.989	19.992	99.907	20.024	3.012	0.519
251.000	199.067	79.989	19.992	99.923	20.022	3.114	0.498
251.500	199.306	79.991	19.994	99.937	20.023	3.092	0.474
252.000	199.554	79.991	19.994	99.947	20.023	3.069	0.472
252.500	199.787	79.990	19.991	99.949	20.022	3.129	0.484
253.000	200.090	79.990	19.993	99.943	20.021	3.183	0.508
253.500	200.310	79.990	19.991	99.935	20.022	3.103	0.529
254.000	200.586	79.989	19.993	99.930	20.020	3.253	0.509
254.500	200.786	79.990	19.993	99.930	20.024	3.009	0.486
255.000	201.068	79.991	19.991	99.936	20.022	3.104	0.479
255.500	201.304	79.990	19.992	99.940	20.025	2.971	0.500
256.000	201.526	79.989	19.993	99.940	20.024	3.012	0.488
256.500	201.779	79.990	19.992	99.940	20.023	3.083	0.466
257.000	202.013	79.990	19.992	99.935	20.024	3.004	0.481
257.500	202.224	79.990	19.994	99.928	20.025	2.958	0.466
258.000	202.532	79.990	19.993	99.926	20.025	2.934	0.482
258.500	202.758	79.989	19.992	99.929	20.023	3.060	0.526
259.000	203.011	79.990	19.991	99.934	20.026	2.901	0.506
259.500	203.211	79.991	19.990	99.939	20.027	2.868	0.466
260.000	203.485	79.991	19.993	99.944	20.024	2.997	0.464
260.500	203.711	79.991	19.992	99.947	20.024	3.018	0.487
261.000	203.972	79.991	19.991	99.943	20.022	3.134	0.493
261.500	204.226	79.992	19.992	99.934	20.027	2.857	0.501
262.000	204.456	79.990	19.992	99.922	20.025	2.957	0.499
262.500	204.708	79.991	19.992	99.908	20.023	3.050	0.483
263.000	204.971	79.991	19.991	99.897	20.023	3.063	0.499
263.500	205.234	79.992	19.993	99.895	20.026	2.915	0.520
264.000	205.465	79.992	19.992	99.897	20.023	3.063	0.510
264.500	205.710	79.992	19.992	99.906	20.023	3.088	0.485
265.000	205.942	79.991	19.992	99.921	20.023	3.061	0.477
265.500	206.186	79.991	19.992	99.934	20.023	3.072	0.476
266.000	206.459	79.991	19.993	99.948	20.021	3.181	0.497
266.500	206.686	79.992	19.993	99.960	20.026	2.906	0.509
267.001	206.927	79.992	19.992	99.966	20.026	2.903	0.484
267.500	207.165	79.991	19.991	99.966	20.024	3.004	0.474
268.000	207.444	79.991	19.993	99.967	20.024	3.002	0.498
268.500	207.688	79.991	19.995	99.961	20.025	2.938	0.520
269.000	207.945	79.991	19.993	99.956	20.025	2.936	0.512
269.500	208.225	79.992	19.992	99.952	20.025	2.957	0.519
270.000	208.433	79.992	19.992	99.951	20.026	2.925	0.512
270.500	208.735	79.991	19.993	99.951	20.026	2.894	0.499
271.000	208.941	79.991	19.994	99.951	20.026	2.884	0.509
271.500	209.205	79.991	19.993	99.950	20.027	2.867	0.489
272.000	209.456	79.991	19.994	99.942	20.024	3.021	0.493
272.500	209.714	79.991	19.993	99.934	20.026	2.911	0.513
273.000	209.945	79.991	19.993	99.925	20.024	3.002	0.499
273.500	210.209	79.990	19.994	99.916	20.026	2.881	0.492
274.000	210.433	79.991	19.993	99.902	20.020	3.236	0.491
274.500	210.696	79.991	19.992	99.897	20.021	3.177	0.488
275.000	210.923	79.991	19.992	99.891	20.022	3.155	0.488
275.500	211.223	79.992	19.993	99.887	20.024	3.026	0.508
276.000	211.434	79.991	19.993	99.888	20.022	3.126	0.519
276.500	211.709	79.992	19.991	99.894	20.023	3.093	0.499
277.000	211.907	79.992	19.993	99.899	20.022	3.112	0.479
277.500	212.163	79.993	19.992	99.905	20.017	3.398	0.463
278.000	212.427	79.991	19.991	99.911	20.020	3.260	0.487
278.500	212.642	79.992	19.991	99.912	20.018	3.354	0.499
279.000	212.877	79.991	19.992	99.913	20.022	3.131	0.464
279.500	213.155	79.992	19.992	99.913	20.020	3.259	0.482
280.000	213.399	79.992	19.992	99.911	20.020	3.219	0.517
280.501	213.674	79.992	19.992	99.910	20.021	3.177	0.520
281.000	213.894	79.993	19.991	99.911	20.019	3.279	0.507
281.500	214.143	79.992	19.992	99.910	20.021	3.172	0.482
282.000	214.390	79.992	19.992	99.910	20.023	3.089	0.483
282.500	214.655	79.993	19.993	99.912	20.018	3.350	0.504
283.000	214.885	79.992	19.991	99.911	20.019	3.290	0.503
283.500	215.143	79.993	19.993	99.903	20.019	3.272	0.491
284.000	215.377	79.993	19.991	99.902	20.020	3.223	0.490
284.500	215.636	79.991	19.992	99.902	20.020	3.257	0.492
285.000	215.872	79.992	19.992	99.904	20.019	3.301	0.494
285.500	216.161	79.992	19.992	99.907	20.018	3.334	0.510
286.000	216.379	79.992	19.990	99.913	20.017	3.423	0.516
286.500	216.660	79.992	19.991	99.910	20.021	3.206	0.503
287.000	216.856	79.992	19.991	99.909	20.020	3.225	0.488
287.500	217.138	79.994	19.992	99.903	20.021	3.189	0.477
288.000	217.402	79.993	19.991	99.902	20.019	3.292	0.512
288.500	217.640	79.992	19.990	99.903	20.021	3.205	0.524
289.000	217.872	79.993	19.992	99.906	20.023	3.082	0.486
289.500	218.122	79.993	19.992	99.907	20.021	3.190	0.476
290.000	218.398	79.994	19.992	99.912	20.017	3.419	0.504
290.500	218.613	79.993	19.991	99.916	20.020	3.238	0.509
291.000	218.875	79.992	19.991	99.917	20.022	3.105	0.484
291.500	219.060	79.993	19.990	99.918	20.021	3.196	0.462
292.000	219.363	79.992	19.992	99.919	20.020	3.226	0.468
292.501	219.602	79.993	19.990	99.919	20.018	3.377	0.515
293.000	219.894	79.992	19.991	99.918	20.019	3.298	0.536
293.500	220.117	79.994	19.991	99.921	20.019	3.276	0.523
294.000	220.358	79.992	19.992	99.924	20.020	3.238	0.490
294.500	220.622	79.994	19.991	99.928	20.022	3.146	0.485
295.000	220.870	79.993	19.991	99.927	20.021	3.180	0.509
295.500	221.103	79.992	19.991	99.925	20.022	3.130	0.497
296.000	221.385	79.992	19.991	99.919	20.019	3.311	0.498
296.500	221.610	79.991	19.991	99.914	20.020	3.252	0.511
297.000	221.887	79.991	19.992	99.903	20.020	3.251	0.505
297.500	222.126	79.990	19.993	99.895	20.018	3.344	0.509
298.000	222.371	79.992	19.991	99.888	20.018	3.384	0.500
298.500	222.613	79.990	19.992	99.887	20.021	3.180	0.485
299.000	222.868	79.990	19.991	99.889	20.018	3.359	0.492
299.500	223.138	79.990	19.992	99.898	20.019	3.274	0.511
300.000	223.380	79.991	19.992	99.909	20.022	3.117	0.519
300.500	223.610	79.990	19.992	99.917	20.021	3.188	0.492
301.000	223.897	79.990	19.991	99.918	20.022	3.142	0.494
301.500	224.119	79.989	19.991	99.918	20.019	3.276	0.513
302.000	224.399	79.990	19.991	99.918	20.021	3.174	0.505
302.500	224.609	79.991	19.991	99.916	20.021	3.208	0.496
303.000	224.914	79.990	19.991	99.915	20.021	3.202	0.503
303.500	225.104	79.990	19.993	99.916	20.019	3.307	0.505
304.000	225.350	79.989	19.992	99.917	20.018	3.362	0.465
304.500	225.616	79.990	19.990	99.917	20.018	3.357	0.474
305.000	225.864	79.990	19.992	99.917	20.024	3.038	0.513
305.500	226.116	79.990	19.992	99.919	20.021	3.206	0.507
306.000	226.375	79.989	19.992	99.919	20.022	3.143	0.506
306.500	226.572	79.990	19.993	99.919	20.022	3.142	0.483
307.000	226.883	79.991	19.990	99.920	20.022	3.153	0.482
307.500	227.121	79.990	19.991	99.918	20.020	3.232	0.529
308.000	227.357	79.992	19.991	99.917	20.019	3.311	0.512
308.500	227.653	79.990	19.992	99.918	20.020	3.253	0.503
309.000	227.873	79.989	19.991	99.917	20.021	3.157	0.524
309.500	228.130	79.992	19.990	99.917	20.021	3.169	0.497
310.000	228.428	79.988	19.991	99.917	20.018	3.383	0.516
310.500	228.646	79.990	19.990	99.916	20.020	3.259	0.535
311.000	228.896	79.990	19.991	99.916	20.022	3.139	0.492
311.500	229.139	79.991	19.990	99.917	20.019	3.304	0.481
312.000	229.416	79.991	19.991	99.917	20.019	3.324	0.506
312.500	229.711	79.990	19.992	99.917	20.021	3.186	0.546
313.000	229.910	79.992	19.991	99.916	20.020	3.255	0.533
313.500	230.209	79.990	19.991	99.913	20.020	3.235	0.496
314.000	230.470	79.990	19.992	99.911	20.019	3.318	0.529
314.500	230.725	79.990	19.991	99.912	20.021	3.209	0.538
315.000	230.928	79.991	19.989	99.911	20.019	3.321	0.487
315.500	231.204	79.991	19.991	99.907	20.020	3.252	0.469
316.000	231.493	79.990	19.992	99.902	20.018	3.353	0.522
316.500	231.709	79.992	19.991	99.897	20.023	3.090	0.535
317.000	231.949	79.992	19.991	99.894	20.020	3.266	0.481
317.500	232.162	79.989	19.990	99.895	20.023	3.049	0.454
318.000	232.468	79.990	19.991	99.901	20.019	3.296	0.485
318.500	232.673	79.991	19.991	99.909	20.021	3.176	0.515
319.000	232.974	79.991	19.990	99.917	20.018	3.381	0.509
319.500	233.221	79.991	19.992	99.924	20.020	3.227	0.527
320.000	233.490	79.990	19.992	99.924	20.021	3.187	0.532
320.500	233.760	79.989	19.991	99.921	20.017	3.426	0.527
321.000	234.017	79.992	19.992	99.915	20.022	3.129	0.533
321.500	234.250	79.990	19.991	99.915	20.023	3.071	0.509
322.000	234.499	79.991	19.992	99.911	20.020	3.251	0.487
322.500	234.772	79.990	19.993	99.911	20.021	3.204	0.502
323.000	235.031	79.990	19.991	99.909	20.022	3.109	0.527
323.500	235.279	79.990	19.993	99.907	20.022	3.152	0.520
324.000	235.513	79.990	19.991	99.904	20.022	3.112	0.494
324.500	235.829	79.989	19.991	99.904	20.018	3.354	0.516
325.000	236.070	79.990	19.991	99.900	20.019	3.288	0.554
325.500	236.257	79.990	19.992	99.900	20.017	3.433	0.493
326.000	236.552	79.991	19.992	99.905	20.014	3.562	0.455
326.500	236.766	79.990	19.992	99.907	20.022	3.139	0.495
327.000	237.066	79.990	19.993	99.904	20.024	2.988	0.511
327.500	237.267	79.990	19.993	99.906	20.020	3.248	0.508
328.000	237.530	79.990	19.993	99.907	20.022	3.109	0.483
328.500	237.815	79.991	19.992	99.905	20.019	3.285	0.506
329.000	238.084	79.989	19.994	99.901	20.023	3.098	0.551
329.500	238.308	79.991	19.993	99.902	20.023	3.070	0.524
330.000	238.602	79.989	19.993	99.903	20.021	3.177	0.505
330.500	238.832	79.990	19.993	99.903	20.022	3.111	0.521
331.000	239.032	79.990	19.993	99.900	20.023	3.048	0.477
331.500	239.305	79.990	19.994	99.902	20.024	2.987	0.451
332.000	239.549	79.989	19.993	99.904	20.026	2.916	0.495
332.500	239.819	79.989	19.993	99.907	20.024	3.032	0.515
333.000	240.057	79.990	19.992	99.910	20.025	2.932	0.511
333.500	240.318	79.989	19.993	99.917	20.022	3.131	0.504
334.000	240.554	79.989	19.993	99.918	20.026	2.905	0.498
334.500	240.783	79.989	19.994	99.918	20.025	2.984	0.481
335.000	241.085	79.989	19.993	99.915	20.026	2.899	0.498
335.500	241.308	79.989	19.993	99.912	20.024	3.015	0.528
336.000	241.583	79.991	19.992	99.906	20.023	3.057	0.511
336.500	241.837	79.990	19.993	99.905	20.023	3.087	0.513
337.000	242.076	79.991	19.993	99.905	20.024	3.029	0.512
337.500	242.317	79.988	19.992	99.905	20.023	3.062	0.487
338.000	242.585	79.990	19.991	99.908	20.025	2.957	0.494
338.500	242.815	79.989	19.992	99.913	20.021	3.188	0.503
339.000	243.033	79.991	19.993	99.914	20.025	2.930	0.473
339.500	243.301	79.990	19.992	99.914	20.024	3.005	0.467
340.000	243.512	79.991	19.992	99.915	20.023	3.043	0.483
340.500	243.786	79.991	19.992	99.916	20.023	3.098	0.482
341.000	244.062	79.990	19.992	99.915	20.024	3.032	0.517
341.500	244.332	79.991	19.992	99.916	20.023	3.053	0.548
342.000	244.569	79.990	19.991	99.915	20.022	3.133	0.526
342.500	244.787	79.990	19.992	99.915	20.025	2.947	0.481
343.000	245.051	79.991	19.993	99.918	20.023	3.062	0.468
343.500	245.341	79.992	19.992	99.921	20.027	2.864	0.518
344.000	245.549	79.992	19.993	99.921	20.022	3.122	0.527
344.500	245.808	79.992	19.993	99.921	20.024	3.006	0.482
345.000	246.078	79.992	19.992	99.921	20.025	2.968	0.498
345.500	246.363	79.992	19.992	99.918	20.023	3.053	0.542
346.000	246.602	79.993	19.991	99.911	20.019	3.271	0.539
346.500	246.854	79.993	19.992	99.911	20.022	3.147	0.508
347.000	247.132	79.991	19.993	99.909	20.021	3.164	0.511
347.500	247.333	79.992	19.992	99.906	20.024	3.015	0.504
348.000	247.631	79.994	19.992	99.905	20.026	2.889	0.489
348.500	247.868	79.993	19.993	99.908	20.027	2.851	0.517
349.000	248.131	79.992	19.992	99.907	20.027	2.852	0.517
349.500	248.389	79.992	19.991	99.908	20.023	3.080	0.510
350.000	248.635	79.993	19.992	99.911	20.026	2.890	0.512
350.500	248.904	79.992	19.992	99.912	20.023	3.066	0.509
351.000	249.130	79.991	19.993	99.912	20.024	3.022	0.505
351.500	249.399	79.992	19.992	99.913	20.025	2.983	0.496
352.000	249.632	79.990	19.994	99.912	20.024	3.011	0.499
352.500	249.937	79.992	19.991	99.913	20.023	3.081	0.520
353.000	250.137	79.992	19.993	99.913	20.024	2.985	0.522
353.500	250.432	79.990	19.994	99.913	20.023	3.079	0.500
354.000	250.678	79.992	19.995	99.913	20.024	2.993	0.518
354.500	250.930	79.991	19.993	99.915	20.024	3.019	0.520
355.000	251.133	79.992	19.993	99.918	20.025	2.962	0.476
355.500	251.388	79.992	19.993	99.920	20.026	2.893	0.456
356.000	251.674	79.991	19.992	99.920	20.028	2.789	0.500
356.500	251.906	79.992	19.993	99.921	20.024	3.011	0.529
357.000	252.161	79.991	19.993	99.919	20.023	3.061	0.502
357.500	252.395	79.991	19.993	99.914	20.022	3.151	0.488
358.000	252.640	79.991	19.993	99.909	20.024	3.002	0.484
358.500	252.893	79.991	19.993	99.906	20.030	2.687	0.489
359.000	253.167	79.991	19.994	99.904	20.027	2.854	0.512
359.500	253.380	79.992	19.993	99.899	20.023	3.086	0.507
360.000	253.604	79.990	19.993	99.895	20.022	3.149	0.462
360.500	253.872	79.990	19.993	99.895	20.024	3.029	0.465
361.000	254.149	79.993	19.994	99.895	20.021	3.192	0.519
361.500	254.430	79.992	19.994	99.893	20.023	3.048	0.552
362.000	254.644	79.993	19.994	99.894	20.022	3.131	0.526
362.500	254.902	79.994	19.994	99.898	20.023	3.095	0.484
363.000	255.127	79.992	19.993	99.900	20.025	2.947	0.478
363.500	255.388	79.993	19.993	99.904	20.025	2.952	0.484
364.000	255.635	79.991	19.993	99.907	20.026	2.914	0.497
364.500	255.879	79.992	19.993	99.911	20.024	3.002	0.500
365.000	256.109	79.992	19.993	99.907	20.023	3.053	0.482
365.500	256.337	79.992	19.993	99.900	20.025	2.983	0.466
366.000	256.586	79.992	19.993	99.893	20.023	3.049	0.468
366.500	256.845	79.992	19.992	99.888	20.023	3.071	0.493
367.000	257.073	79.990	19.992	99.882	20.023	3.057	0.497
367.500	257.352	79.992	19.992	99.885	20.026	2.878	0.497
368.000	257.616	79.992	19.991	99.891	20.022	3.123	0.525
368.500	257.865	79.991	19.992	99.894	20.022	3.144	0.528
369.000	258.121	79.991	19.992	99.892	20.022	3.141	0.508
369.501	258.351	79.992	19.991	99.893	20.023	3.078	0.495
370.000	258.656	79.992	19.991	99.889	20.024	3.039	0.511
370.500	258.844	79.994	19.991	99.887	20.028	2.784	0.514
371.000	259.068	79.992	19.991	99.890	20.024	3.018	0.453
371.500	259.310	79.993	19.991	99.897	20.027	2.841	0.439
372.000	259.571	79.993	19.992	99.901	20.026	2.891	0.484
372.501	259.883	79.991	19.991	99.906	20.024	2.990	0.538
373.000	260.085	79.993	19.991	99.907	20.028	2.768	0.543
373.500	260.311	79.993	19.992	99.908	20.028	2.785	0.470
374.000	260.563	79.993	19.992	99.908	20.028	2.780	0.453
374.500	260.848	79.993	19.991	99.909	20.027	2.859	0.508
375.000	261.027	79.993	19.992	99.908	20.026	2.901	0.500
375.500	261.337	79.992	19.990	99.911	20.024	3.014	0.477
376.000	261.552	79.991	19.991	99.912	20.025	2.980	0.508
376.500	261.812	79.991	19.992	99.912	20.025	2.978	0.500
377.000	262.074	79.993	19.992	99.911	20.026	2.922	0.498
377.500	262.294	79.991	19.991	99.913	20.026	2.922	0.502
378.000	262.554	79.992	19.991	99.913	20.025	2.955	0.481
378.500	262.798	79.991	19.991	99.913	20.025	2.952	0.492
379.000	263.041	79.991	19.991	99.914	20.030	2.692	0.496
379.500	263.319	79.990	19.991	99.915	20.029	2.714	0.504
380.000	263.573	79.990	19.992	99.916	20.026	2.904	0.526
380.500	263.821	79.989	19.992	99.918	20.027	2.831	0.517
381.000	264.089	79.990	19.991	99.924	20.025	2.928	0.509
381.500	264.326	79.990	19.991	99.925	20.027	2.820	0.510
382.000	264.585	79.991	19.993	99.925	20.028	2.755	0.501
382.500	264.826	79.990	19.990	99.924	20.026	2.885	0.498
383.000	265.095	79.990	19.992	99.917	20.030	2.687	0.505
383.500	265.325	79.988	19.991	99.905	20.021	3.181	0.504
384.000	265.555	79.989	19.992	99.903	20.025	2.948	0.480
384.500	265.846	79.990	19.991	99.898	20.024	3.009	0.490
385.000	266.037	79.988	19.991	99.892	20.026	2.873	0.501
385.500	266.365	79.989	19.991	99.890	20.027	2.865	0.501
386.000	266.573	79.989	19.992	99.890	20.027	2.823	0.528
386.500	266.892	79.991	19.993	99.889	20.026	2.925	0.531
387.000	267.107	79.990	19.991	99.891	20.026	2.924	0.531
387.500	267.392	79.989	19.991	99.896	20.028	2.806	0.517
388.000	267.668	79.990	19.991	99.902	20.025	2.937	0.530
388.500	267.896	79.990	19.992	99.903	20.027	2.824	0.532
389.000	268.099	79.990	19.992	99.899	20.024	2.991	0.467
389.500	268.355	79.990	19.992	99.898	20.024	3.016	0.445
390.000	268.582	79.990	19.992	99.896	20.023	3.053	0.471
390.500	268.850	79.990	19.992	99.894	20.022	3.122	0.489
391.000	269.090	79.990	19.991	99.897	20.023	3.080	0.502
391.500	269.324	79.990	19.992	99.898	20.025	2.967	0.491
392.000	269.591	79.991	19.992	99.900	20.025	2.970	0.487
392.501	269.901	79.987	19.990	99.896	20.022	3.107	0.539
393.000	270.179	79.990	19.991	99.891	20.024	3.027	0.582
393.500	270.402	79.991	19.990	99.887	20.024	3.021	0.545
394.000	270.684	79.992	19.993	99.887	20.023	3.084	0.503
394.500	270.923	79.993	19.992	99.887	20.027	2.826	0.513
395.000	271.143	79.991	19.991	99.890	20.027	2.869	0.490
395.500	271.451	79.990	19.991	99.889	20.029	2.743	0.494
396.000	271.688	79.991	19.991	99.891	20.029	2.733	0.537
396.500	271.901	79.992	19.992	99.896	20.028	2.763	0.497
397.000	272.147	79.991	19.990	99.899	20.026	2.917	0.454
397.500	272.382	79.991	19.992	99.904	20.025	2.955	0.470
398.000	272.658	79.989	19.990	99.908	20.026	2.888	0.496
398.500	272.904	79.993	19.991	99.905	20.026	2.873	0.517
399.000	273.181	79.989	19.991	99.899	20.027	2.854	0.523
399.500	273.411	79.990	19.992	99.892	20.026	2.872	0.515
400.000	273.697	79.992	19.991	99.886	20.022	3.117	0.512
400.500	273.953	79.990	19.991	99.883	20.024	2.990	0.529
401.000	274.187	79.992	19.991	99.882	20.025	2.930	0.516
401.500	274.425	79.989	19.991	99.883	20.026	2.900	0.481
402.000	274.680	79.988	19.991	99.887	20.024	2.990	0.483
402.500	274.925	79.991	19.992	99.892	20.026	2.919	0.496
403.000	275.213	79.990	19.991	99.897	20.026	2.914	0.517
403.500	275.413	79.990	19.990	99.901	20.025	2.977	0.511
404.000	275.669	79.991	19.992	99.905	20.025	2.932	0.472
404.500	275.920	79.991	19.991	99.907	20.029	2.726	0.482
405.000	276.188	79.991	19.990	99.908	20.023	3.045	0.513
405.501	276.445	79.992	19.993	99.910	20.028	2.773	0.522
406.000	276.717	79.992	19.992	99.912	20.027	2.840	0.527
406.500	276.938	79.991	19.992	99.912	20.024	2.993	0.511
407.000	277.148	79.990	19.991	99.904	20.024	3.010	0.462
407.500	277.468	79.990	19.992	99.898	20.025	2.967	0.481
408.000	277.691	79.992	19.990	99.893	20.025	2.972	0.537
408.500	277.974	79.991	19.991	99.892	20.025	2.939	0.524
409.000	278.214	79.992	19.992	99.889	20.023	3.087	0.515
409.500	278.456	79.992	19.992	99.892	20.024	2.991	0.503
410.000	278.752	79.991	19.992	99.899	20.023	3.071	0.510
410.500	278.974	79.990	19.993	99.902	20.025	2.975	0.527
411.000	279.246	79.991	19.992	99.904	20.022	3.134	0.506
411.500	279.529	79.992	19.991	99.910	20.022	3.119	0.524
412.000	279.722	79.990	19.993	99.914	20.024	3.027	0.516
412.500	280.006	79.990	19.991	99.914	20.025	2.941	0.477
413.000	280.243	79.991	19.993	99.914	20.022	3.126	0.499
413.500	280.461	79.992	19.993	99.914	20.023	3.087	0.488
414.000	280.724	79.991	19.992	99.915	20.021	3.176	0.468
414.500	280.981	79.992	19.992	99.915	20.023	3.077	0.501
415.000	281.219	79.990	19.991	99.914	20.020	3.214	0.508
415.500	281.483	79.990	19.993	99.914	20.020	3.248	0.499
416.000	281.729	79.989	19.992	99.912	20.021	3.166	0.506
416.500	281.979	79.990	19.993	99.911	20.020	3.247	0.503
417.000	282.206	79.990	19.994	99.908	20.020	3.222	0.486
417.500	282.485	79.989	19.993	99.905	20.023	3.062	0.492
418.000	282.719	79.989	19.992	99.902	20.022	3.150	0.510
418.500	283.007	79.990	19.992	99.901	20.020	3.263	0.517
419.000	283.236	79.988	19.992	99.902	20.024	2.991	0.519
419.500	283.518	79.990	19.993	99.903	20.022	3.116	0.514
420.000	283.751	79.991	19.992	99.904	20.021	3.212	0.513
420.500	283.971	79.991	19.993	99.904	20.020	3.254	0.484
421.000	284.226	79.990	19.991	99.906	20.025	2.962	0.465
421.500	284.497	79.991	19.992	99.906	20.021	3.157	0.501
422.000	284.736	79.991	19.992	99.907	20.021	3.173	0.517
422.500	284.994	79.991	19.994	99.909	20.025	2.965	0.503
423.000	285.234	79.993	19.993	99.910	20.024	3.030	0.498
423.500	285.498	79.993	19.994	99.908	20.024	3.005	0.501
424.000	285.741	79.991	19.993	99.902	20.023	3.058	0.506
424.500	286.006	79.991	19.993	99.895	20.021	3.173	0.508
425.000	286.255	79.992	19.992	99.888	20.021	3.185	0.511
425.500	286.499	79.992	19.991	99.883	20.024	3.003	0.503
426.001	286.763	79.994	19.992	99.881	20.021	3.157	0.500
426.501	287.006	79.993	19.993	99.879	20.023	3.042	0.507
427.000	287.236	79.992	19.992	99.882	20.024	3.039	0.490
427.500	287.460	79.992	19.993	99.889	20.024	2.995	0.463
428.000	287.703	79.991	19.992	99.896	20.025	2.932	0.461
428.500	287.976	79.991	19.992	99.899	20.022	3.111	0.492
429.000	288.256	79.991	19.992	99.901	20.023	3.063	0.534
429.500	288.450	79.993	19.994	99.900	20.024	3.036	0.513
430.000	288.718	79.992	19.991	99.894	20.026	2.907	0.468
430.500	288.961	79.994	19.992	99.887	20.024	3.022	0.486
431.000	289.210	79.990	19.992	99.884	20.024	3.020	0.501
431.500	289.506	79.992	19.990	99.883	20.025	2.960	0.518
432.000	289.766	79.992	19.992	99.882	20.026	2.908	0.551
432.500	289.956	79.990	19.991	99.883	20.022	3.117	0.504
433.000	290.271	79.991	19.992	99.885	20.022	3.130	0.478
433.500	290.500	79.990	19.991	99.886	20.027	2.861	0.524
434.000	290.737	79.993	19.992	99.890	20.025	2.982	0.505
434.500	291.021	79.994	19.992	99.888	20.022	3.146	0.493
435.000	291.273	79.996	19.991	99.888	20.020	3.237	0.528
435.500	291.493	79.990	19.992	99.886	20.020	3.232	0.504
436.000	291.774	79.992	19.992	99.884	20.018	3.377	0.487
436.500	292.056	79.995	19.992	99.880	20.023	3.094	0.532
437.000	292.286	79.994	19.992	99.881	20.020	3.256	0.537
437.500	292.540	79.989	19.993	99.881	20.021	3.166	0.498
438.000	292.770	79.991	19.992	99.881	20.020	3.240	0.484
438.500	293.072	79.990	19.992	99.881	20.023	3.096	0.508
439.000	293.247	79.990	19.992	99.882	20.021	3.184	0.504
439.500	293.550	79.992	19.993	99.882	20.021	3.160	0.478
440.000	293.816	79.991	19.993	99.882	20.023	3.094	0.524
440.501	294.075	79.989	19.992	99.882	20.020	3.236	0.547
441.001	294.297	79.991	19.992	99.881	20.020	3.254	0.503
441.500	294.543	79.991	19.992	99.879	20.021	3.174	0.475
442.000	294.771	79.990	19.992	99.877	20.020	3.263	0.471
442.500	295.045	79.990	19.992	99.875	20.022	3.147	0.488
443.000	295.309	79.991	19.992	99.874	20.022	3.113	0.520
443.500	295.564	79.991	19.992	99.875	20.021	3.168	0.529
444.000	295.796	79.991	19.994	99.877	20.020	3.265	0.503
444.500	296.090	79.990	19.993	99.878	20.021	3.168	0.506
445.000	296.331	79.991	19.993	99.878	20.024	3.025	0.531
445.500	296.609	79.992	19.993	99.881	20.021	3.171	0.527
446.000	296.858	79.991	19.991	99.882	20.021	3.201	0.523
446.500	297.092	79.993	19.994	99.882	20.018	3.364	0.505
447.000	297.316	79.995	19.991	99.882	20.022	3.108	0.471
447.500	297.598	79.994	19.993	99.882	20.020	3.254	0.482
448.000	297.864	79.994	19.991	99.880	20.020	3.231	0.527
448.500	298.064	79.991	19.992	99.880	20.024	3.039	0.507
449.000	298.316	79.990	19.992	99.879	20.022	3.103	0.459
449.500	298.546	79.990	19.992	99.879	20.019	3.273	0.467
450.000	298.838	79.992	19.992	99.879	20.024	3.031	0.502
450.500	299.035	79.992	19.992	99.880	20.023	3.070	0.505
451.000	299.341	79.990	19.991	99.881	20.023	3.097	0.496
451.500	299.591	79.992	19.993	99.881	20.024	3.031	0.529
452.000	299.838	79.993	19.991	99.880	20.022	3.130	0.526
452.500	300.108	79.992	19.991	99.876	20.021	3.204	0.507
453.000	300.368	79.992	19.991	99.872	20.023	3.095	0.524
453.500	300.603	79.993	19.992	99.870	20.020	3.214	0.512
454.000	300.870	79.991	19.991	99.869	20.023	3.057	0.498
454.500	301.095	79.995	19.993	99.870	20.022	3.109	0.497
455.000	301.323	79.992	19.991	99.873	20.021	3.178	0.473
455.500	301.596	79.993	19.992	99.876	20.021	3.175	0.477
456.000	301.854	79.992	19.991	99.876	20.019	3.296	0.515
456.500	302.117	79.993	19.992	99.876	20.024	3.015	0.526
457.000	302.352	79.993	19.992	99.877	20.020	3.246	0.510
457.500	302.647	79.991	19.991	99.876	20.021	3.172	0.514
458.000	302.879	79.993	19.991	99.876	20.023	3.076	0.528
458.500	303.139	79.992	19.990	99.879	20.024	3.037	0.509
459.000	303.393	79.992	19.990	99.887	20.025	2.949	0.503
459.500	303.624	79.991	19.992	99.894	20.021	3.167	0.499
460.000	303.876	79.993	19.993	99.901	20.023	3.051	0.484
460.500	304.125	79.992	19.991	99.910	20.023	3.048	0.492
461.000	304.377	79.989	19.992	99.914	20.023	3.062	0.501
461.500	304.665	79.993	19.992	99.914	20.021	3.206	0.520
462.000	304.887	79.991	19.991	99.914	20.022	3.155	0.525
462.500	305.155	79.991	19.992	99.915	20.024	3.024	0.500
463.000	305.387	79.991	19.992	99.915	20.025	2.974	0.495
463.500	305.632	79.993	19.992	99.913	20.024	3.021	0.488
464.000	305.923	79.990	19.992	99.907	20.020	3.217	0.507
464.500	306.204	79.989	19.991	99.906	20.020	3.236	0.555
465.000	306.425	79.990	19.990	99.905	20.019	3.270	0.537
465.500	306.688	79.992	19.991	99.906	20.024	2.989	0.493
466.000	306.923	79.988	19.992	99.906	20.022	3.102	0.491
466.500	307.176	79.991	19.991	99.911	20.022	3.122	0.493
467.000	307.431	79.989	19.992	99.912	20.019	3.322	0.498
467.500	307.662	79.990	19.992	99.909	20.020	3.258	0.497
468.000	307.943	79.990	19.992	99.904	20.020	3.267	0.499
468.500	308.188	79.990	19.992	99.901	20.017	3.409	0.519
469.000	308.439	79.988	19.992	99.902	20.020	3.250	0.511
469.500	308.672	79.989	19.992	99.902	20.020	3.253	0.490
470.000	308.951	79.990	19.993	99.904	20.020	3.213	0.498
470.500	309.225	79.990	19.993	99.904	20.019	3.324	0.533
471.000	309.447	79.989	19.992	99.905	20.015	3.551	0.525
471.500	309.696	79.993	19.993	99.904	20.020	3.264	0.484
472.000	309.972	79.991	19.991	99.903	20.018	3.379	0.498
472.500	310.215	79.989	19.993	99.903	20.016	3.457	0.522
473.000	310.492	79.989	19.993	99.904	20.020	3.243	0.519
473.500	310.738	79.991	19.992	99.903	20.019	3.312	0.521
474.000	310.976	79.990	19.992	99.898	20.018	3.377	0.503
474.500	311.214	79.990	19.992	99.893	20.018	3.382	0.480
475.000	311.497	79.990	19.992	99.889	20.015	3.509	0.499
475.500	311.755	79.992	19.991	99.884	20.018	3.339	0.532
476.000	312.003	79.991	19.992	99.880	20.017	3.404	0.524
476.500	312.257	79.990	19.992	99.878	20.019	3.325	0.504
477.000	312.557	79.989	19.992	99.878	20.017	3.409	0.528
477.500	312.802	79.990	19.992	99.879	20.016	3.486	0.549
478.000	313.010	79.991	19.992	99.885	20.017	3.401	0.499
478.500	313.308	79.992	19.993	99.889	20.018	3.343	0.479
479.000	313.514	79.993	19.992	99.891	20.019	3.277	0.505
479.500	313.788	79.991	19.991	99.891	20.019	3.305	0.493
480.000	314.017	79.990	19.992	99.889	20.016	3.464	0.491
480.500	314.287	79.991	19.991	99.884	20.017	3.426	0.500
481.000	314.546	79.992	19.990	99.879	20.017	3.390	0.514
481.500	314.732	79.992	19.992	99.881	20.015	3.517	0.487
482.000	315.028	79.993	19.992	99.882	20.014	3.569	0.464
482.500	315.251	79.993	19.991	99.882	20.018	3.352	0.501
483.000	315.503	79.992	19.991	99.883	20.016	3.460	0.497
483.500	315.779	79.992	19.992	99.884	20.017	3.418	0.501
484.000	316.043	79.991	19.992	99.879	20.014	3.597	0.534
484.500	316.271	79.991	19.990	99.878	20.019	3.279	0.516
485.000	316.484	79.991	19.991	99.878	20.016	3.460	0.466
485.500	316.760	79.991	19.993	99.878	20.017	3.411	0.465
486.000	317.019	79.990	19.992	99.879	20.013	3.644	0.512
486.500	317.285	79.993	19.992	99.886	20.015	3.537	0.530
487.000	317.515	79.995	19.991	99.890	20.014	3.583	0.511
487.500	317.803	79.990	19.991	99.891	20.015	3.532	0.507
488.000	318.030	79.993	19.992	99.889	20.014	3.568	0.516
488.500	318.276	79.991	19.992	99.890	20.016	3.449	0.494
489.000	318.527	79.989	19.991	99.888	20.016	3.454	0.485
489.500	318.791	79.991	19.990	99.888	20.019	3.276	0.506
490.000	319.011	79.994	19.992	99.891	20.015	3.514	0.500
490.500	319.283	79.991	19.992	99.898	20.017	3.427	0.488
491.000	319.523	79.991	19.992	99.904	20.016	3.446	0.502
491.500	319.762	79.991	19.992	99.901	20.017	3.399	0.496
492.000	320.049	79.992	19.992	99.898	20.019	3.314	0.503
492.500	320.288	79.992	19.991	99.893	20.017	3.411	0.526
493.000	320.507	79.992	19.991	99.884	20.018	3.367	0.492
493.500	320.769	79.991	19.992	99.876	20.013	3.664	0.469
494.000	321.043	79.990	19.990	99.874	20.016	3.485	0.508
494.500	321.288	79.990	19.992	99.874	20.011	3.742	0.527
495.000	321.547	79.992	19.991	99.875	20.014	3.579	0.512
495.500	321.793	79.992	19.991	99.877	20.017	3.407	0.505
496.000	322.026	79.990	19.991	99.878	20.013	3.617	0.492
496.500	322.294	79.992	19.992	99.877	20.014	3.573	0.490
497.000	322.549	79.989	19.991	99.875	20.017	3.437	0.512
497.500	322.808	79.991	19.991	99.873	20.013	3.638	0.519
498.000	323.057	79.991	19.991	99.873	20.017	3.439	0.511
498.500	323.323	79.990	19.992	99.872	20.015	3.539	0.511
499.000	323.550	79.990	19.991	99.875	20.014	3.604	0.504
499.500	323.809	79.991	19.992	99.877	20.014	3.561	0.490
500.000	324.032	79.990	19.993	99.880	20.011	3.751	0.484
500.500	324.263	79.989	19.992	99.883	20.015	3.518	0.468
501.000	324.520	79.988	19.991	99.885	20.016	3.480	0.471
501.500	324.807	79.989	19.993	99.885	20.014	3.585	0.516
502.000	325.076	79.991	19.992	99.884	20.014	3.566	0.551
502.500	325.358	79.991	19.992	99.883	20.013	3.643	0.554
503.000	325.589	79.991	19.993	99.881	20.015	3.552	0.532
503.500	325.864	79.991	19.992	99.879	20.012	3.721	0.509
504.000	326.089	79.991	19.992	99.880	20.014	3.580	0.503
504.500	326.335	79.992	19.992	99.880	20.017	3.411	0.485
505.000	326.586	79.989	19.992	99.881	20.015	3.507	0.484
505.500	326.878	79.992	19.993	99.888	20.017	3.432	0.520
506.000	327.085	79.992	19.992	99.895	20.018	3.353	0.521
506.500	327.349	79.991	19.993	99.900	20.017	3.432	0.485
507.000	327.610	79.993	19.993	99.901	20.016	3.459	0.498
507.500	327.844	79.991	19.992	99.905	20.014	3.564	0.510
508.000	328.109	79.993	19.993	99.904	20.018	3.358	0.497
508.500	328.377	79.992	19.993	99.900	20.017	3.440	0.516
509.000	328.619	79.993	19.992	99.896	20.015	3.551	0.522
509.500	328.883	79.992	19.993	99.899	20.016	3.457	0.509
510.000	329.133	79.992	19.991	99.897	20.019	3.313	0.510
510.500	329.398	79.994	19.992	99.891	20.016	3.443	0.514
511.000	329.618	79.992	19.993	99.896	20.017	3.393	0.500
511.500	329.888	79.991	19.993	99.902	20.018	3.329	0.487
512.000	330.177	79.993	19.992	99.903	20.016	3.499	0.524
512.500	330.395	79.993	19.992	99.901	20.016	3.457	0.533
513.000	330.620	79.993	19.992	99.907	20.015	3.555	0.475
513.500	330.937	79.991	19.992	99.899	20.019	3.316	0.492
514.000	331.190	79.994	19.992	99.892	20.016	3.465	0.556
514.500	331.411	79.993	19.993	99.887	20.016	3.487	0.522
515.000	331.673	79.992	19.991	99.885	20.015	3.554	0.479
515.500	331.965	79.992	19.991	99.879	20.018	3.343	0.518
516.000	332.213	79.990	19.992	99.878	20.018	3.360	0.546
516.500	332.458	79.992	19.992	99.877	20.014	3.609	0.517
517.000	332.722	79.992	19.991	99.877	20.016	3.488	0.501
517.500	332.989	79.991	19.992	99.877	20.015	3.499	0.520
518.000	333.260	79.992	19.991	99.877	20.013	3.629	0.535
518.500	333.484	79.992	19.992	99.878	20.013	3.616	0.516
519.000	333.717	79.993	19.991	99.878	20.014	3.587	0.476
519.500	334.015	79.991	19.991	99.878	20.015	3.504	0.494
520.000	334.285	79.992	19.990	99.877	20.017	3.427	0.549
520.500	334.501	79.991	19.992	99.880	20.018	3.372	0.527
521.000	334.781	79.992	19.992	99.887	20.017	3.440	0.492
521.500	335.071	79.993	19.993	99.895	20.017	3.404	0.533
522.000	335.268	79.991	19.994	99.903	20.016	3.455	0.528
522.500	335.510	79.990	19.993	99.911	20.016	3.473	0.463
523.000	335.756	79.992	19.992	99.915	20.018	3.367	0.463
523.500	336.035	79.992	19.993	99.913	20.016	3.498	0.506
524.000	336.329	79.991	19.993	99.905	20.014	3.575	0.549
524.500	336.543	79.991	19.993	99.897	20.014	3.587	0.541
525.000	336.825	79.995	19.991	99.889	20.014	3.588	0.502
525.500	337.069	79.988	19.993	99.879	20.014	3.560	0.511
526.000	337.346	79.988	19.993	99.868	20.016	3.467	0.523
526.500	337.576	79.992	19.993	99.861	20.016	3.455	0.514
527.000	337.847	79.992	19.993	99.857	20.015	3.545	0.504
527.500	338.095	79.992	19.993	99.855	20.013	3.671	0.510
528.000	338.350	79.991	19.992	99.856	20.012	3.672	0.511
528.500	338.617	79.993	19.992	99.860	20.013	3.614	0.512
529.000	338.854	79.992	19.994	99.869	20.014	3.599	0.513
529.501	339.110	79.990	19.991	99.874	20.012	3.705	0.499
530.000	339.378	79.994	19.992	99.878	20.014	3.607	0.509
530.500	339.655	79.991	19.994	99.880	20.012	3.705	0.535
531.000	339.867	79.991	19.993	99.881	20.015	3.523	0.517
531.500	340.108	79.993	19.992	99.881	20.013	3.634	0.471
532.000	340.376	79.993	19.992	99.879	20.012	3.727	0.482
532.500	340.655	79.994	19.993	99.878	20.014	3.573	0.528
533.000	340.903	79.992	19.994	99.876	20.013	3.669	0.536
533.500	341.135	79.994	19.993	99.877	20.013	3.655	0.503
534.000	341.376	79.994	19.994	99.880	20.012	3.685	0.476
534.500	341.648	79.991	19.992	99.887	20.012	3.705	0.494
535.000	341.945	79.991	19.993	99.895	20.014	3.583	0.542
535.500	342.195	79.993	19.991	99.902	20.013	3.619	0.558
536.000	342.409	79.992	19.993	99.907	20.015	3.534	0.505
536.500	342.693	79.995	19.992	99.910	20.013	3.627	0.481
537.000	342.952	79.993	19.992	99.907	20.016	3.493	0.521
537.500	343.183	79.994	19.994	99.900	20.012	3.672	0.516
538.000	343.411	79.995	19.991	99.892	20.014	3.592	0.474
538.500	343.696	79.994	19.992	99.885	20.016	3.496	0.486
539.000	343.965	79.993	19.994	99.875	20.013	3.664	0.534
539.500	344.192	79.993	19.993	99.863	20.014	3.604	0.525
540.000	344.461	79.992	19.993	99.862	20.011	3.733	0.496
540.500	344.697	79.992	19.992	99.862	20.014	3.562	0.500
541.000	344.988	79.993	19.993	99.861	20.013	3.628	0.516
541.500	345.208	79.991	19.993	99.860	20.013	3.628	0.519
542.000	345.478	79.993	19.992	99.866	20.013	3.660	0.501
542.500	345.720	79.991	19.994	99.868	20.011	3.784	0.501
543.000	345.963	79.991	19.993	99.868	20.013	3.629	0.498
543.500	346.235	79.992	19.992	99.870	20.011	3.743	0.500
544.000	346.482	79.991	19.993	99.875	20.012	3.712	0.517
544.500	346.756	79.990	19.991	99.876	20.010	3.803	0.520
545.000	346.975	79.992	19.993	99.877	20.014	3.596	0.507
545.500	347.218	79.990	19.991	99.877	20.009	3.861	0.477
546.000	347.469	79.991	19.993	99.877	20.009	3.858	0.478
546.500	347.748	80.002	19.990	99.876	20.011	3.739	0.512
547.000	347.983	79.986	19.993	99.878	20.009	3.887	0.522
547.500	348.257	79.990	19.993	99.876	20.009	3.858	0.511
548.000	348.493	79.990	19.993	99.876	20.013	3.639	0.510
548.500	348.750	79.986	19.991	99.875	20.010	3.793	0.502
549.000	348.999	79.991	19.991	99.874	20.011	3.784	0.500
549.500	349.322	79.991	19.991	99.868	20.013	3.639	0.539
550.000	349.552	79.989	19.992	99.868	20.014	3.611	0.562
550.500	349.791	79.992	19.992	99.868	20.011	3.772	0.511
551.000	350.040	79.992	19.993	99.868	20.012	3.687	0.479
551.500	350.281	79.991	19.990	99.870	20.009	3.872	0.489
552.000	350.508	79.991	19.991	99.873	20.011	3.734	0.479
552.500	350.796	79.992	19.990	99.876	20.010	3.809	0.492
553.000	351.038	79.990	19.992	99.879	20.011	3.738	0.523
553.500	351.313	79.990	19.992	99.886	20.012	3.679	0.523
554.000	351.590	79.989	19.991	99.892	20.012	3.718	0.534
554.500	351.814	79.991	19.991	99.892	20.009	3.883	0.527
555.000	352.078	79.992	19.992	99.892	20.011	3.745	0.495
555.500	352.353	79.995	19.992	99.890	20.012	3.705	0.514
556.000	352.624	79.989	19.993	99.889	20.006	4.023	0.542
556.500	352.863	79.990	19.994	99.889	20.010	3.812	0.528
557.000	353.147	79.991	19.992	99.892	20.011	3.759	0.516
557.500	353.379	79.990	19.993	99.895	20.012	3.713	0.520
558.000	353.645	79.991	19.991	99.896	20.012	3.688	0.507
558.500	353.906	79.989	19.993	99.890	20.014	3.591	0.513
559.000	354.173	79.988	19.992	99.884	20.013	3.654	0.527
559.500	354.395	79.991	19.991	99.881	20.013	3.660	0.508
560.000	354.610	79.990	19.991	99.880	20.010	3.797	0.463
560.500	354.886	79.989	19.993	99.885	20.014	3.577	0.464
561.000	355.119	79.991	19.993	99.885	20.010	3.800	0.500
561.500	355.405	79.990	19.993	99.888	20.010	3.820	0.514
562.000	355.698	79.992	19.991	99.890	20.011	3.764	0.549
562.500	355.896	79.991	19.993	99.888	20.012	3.718	0.535
563.000	356.195	79.991	19.993	99.886	20.012	3.717	0.494
563.500	356.455	79.991	19.992	99.886	20.011	3.731	0.528
564.000	356.708	79.991	19.992	99.883	20.011	3.778	0.536
564.500	356.978	79.991	19.992	99.882	20.012	3.699	0.518
565.000	357.217	79.991	19.992	99.882	20.011	3.760	0.516
565.500	357.454	79.991	19.992	99.879	20.008	3.925	0.493
566.000	357.708	79.990	19.991	99.879	20.009	3.858	0.484
566.500	357.970	79.991	19.992	99.879	20.010	3.819	0.503
567.000	358.202	79.991	19.992	99.879	20.007	3.977	0.505
567.500	358.455	79.990	19.992	99.878	20.006	4.023	0.490
568.000	358.730	79.991	19.992	99.878	20.006	4.043	0.507
568.500	358.963	79.996	19.991	99.878	20.006	4.029	0.518
569.000	359.216	79.990	19.991	99.879	20.006	4.035	0.497
569.500	359.483	79.993	19.992	99.882	20.008	3.916	0.503
570.000	359.744	79.989	19.993	99.888	20.006	4.059	0.524
570.500	359.971	79.991	19.992	99.891	20.005	4.084	0.508
571.000	360.233	79.992	19.990	99.891	20.010	3.842	0.489
571.500	360.514	79.992	19.993	99.893	20.009	3.856	0.516
572.000	360.752	79.989	19.992	99.894	20.007	3.991	0.531
572.500	361.029	79.988	19.992	99.892	20.007	4.001	0.517
573.000	361.276	79.992	19.992	99.890	20.004	4.133	0.520
573.500	361.538	79.991	19.992	99.890	20.007	3.958	0.517
574.000	361.744	79.983	19.992	99.889	20.003	4.219	0.489
574.500	362.038	80.005	19.990	99.883	20.009	3.889	0.484
575.000	362.334	79.990	19.992	99.881	20.007	3.977	0.545
575.500	362.558	79.989	19.991	99.882	20.008	3.951	0.555
576.000	362.776	79.984	19.992	99.881	20.003	4.197	0.481
576.500	363.035	79.989	19.992	99.881	20.004	4.153	0.460
577.000	363.320	79.999	19.989	99.884	20.005	4.091	0.510
577.500	363.521	79.990	19.993	99.884	20.002	4.295	0.515
578.000	363.810	79.989	19.990	99.884	20.003	4.220	0.488
578.500	364.046	79.993	19.990	99.883	19.998	4.528	0.508
579.001	364.317	79.991	19.992	99.884	20.000	4.385	0.516
579.500	364.554	79.984	19.991	99.883	19.998	4.489	0.507
580.000	364.813	79.990	19.993	99.881	19.998	4.495	0.502
580.500	365.035	79.994	19.992	99.883	19.999	4.465	0.489
581.000	365.297	79.987	19.991	99.885	20.001	4.355	0.482
581.500	365.532	79.987	19.993	99.884	19.995	4.660	0.490
582.000	365.779	79.989	19.992	99.883	19.999	4.440	0.490
582.500	366.029	79.989	19.992	99.883	19.995	4.683	0.490
583.000	366.292	79.989	19.990	99.882	19.995	4.660	0.505
583.500	366.541	79.991	19.990	99.880	19.992	4.861	0.513
584.000	366.796	79.991	19.992	99.880	19.996	4.647	0.508
584.500	367.031	79.992	19.992	99.881	19.996	4.600	0.497
585.000	367.280	79.993	19.992	99.881	19.994	4.735	0.487
585.500	367.555	79.991	19.991	99.880	19.995	4.675	0.504
586.000	367.782	79.992	19.991	99.882	19.991	4.881	0.513
586.500	368.037	79.993	19.992	99.882	19.990	4.983	0.492
587.000	368.293	79.989	19.992	99.884	19.987	5.115	0.496
587.500	368.506	79.987	19.992	99.886	19.990	4.985	0.490
588.000	368.808	79.989	19.991	99.892	19.989	5.048	0.492
588.500	369.060	80.000	19.991	99.899	19.986	5.197	0.535
589.000	369.284	79.992	19.991	99.904	19.986	5.207	0.515
589.500	369.545	79.987	19.991	99.908	19.982	5.411	0.480
590.000	369.782	79.997	19.992	99.907	19.985	5.249	0.492
590.500	370.002	79.983	19.994	99.909	19.983	5.392	0.478
591.000	370.299	79.986	19.992	99.904	19.984	5.282	0.487
591.501	370.521	79.992	19.993	99.899	19.983	5.385	0.518
592.000	370.761	79.993	19.991	99.894	19.984	5.329	0.490
592.500	371.015	79.987	19.991	99.892	19.980	5.538	0.478
593.000	371.260	79.991	19.993	99.888	19.980	5.516	0.496
593.500	371.556	79.993	19.992	99.885	19.979	5.617	0.520
594.000	371.780	79.991	19.993	99.888	19.979	5.611	0.531
594.500	372.066	79.993	19.992	99.895	19.977	5.726	0.515
595.000	372.280	79.994	19.994	99.897	19.974	5.878	0.505
595.500	372.587	79.996	19.992	99.894	19.973	5.946	0.510
596.000	372.796	79.997	19.993	99.894	19.972	6.017	0.519
596.500	373.046	79.995	19.991	99.891	19.971	6.029	0.488
597.000	373.295	79.996	19.992	99.884	19.971	6.078	0.479
597.500	373.570	79.990	19.993	99.883	19.970	6.108	0.511
598.000	373.828	80.008	19.990	99.886	19.968	6.218	0.529
598.500	374.071	79.992	19.992	99.890	19.970	6.099	0.518
599.000	374.292	79.992	19.991	99.890	19.964	6.434	0.483
599.500	374.599	79.991	19.992	99.891	19.964	6.468	0.496
600.000	374.841	79.992	19.992	99.890	19.964	6.476	0.539
600.500	375.069	79.994	19.992	99.887	19.965	6.375	0.509
601.000	375.331	79.988	19.992	99.883	19.965	6.422	0.479
601.500	375.538	79.989	19.993	99.883	19.960	6.704	0.479
602.000	375.825	79.991	19.993	99.883	19.961	6.627	0.482
602.500	376.058	79.993	19.992	99.885	19.960	6.662	0.507
603.000	376.310	79.992	19.993	99.884	19.957	6.852	0.503
603.500	376.555	79.988	19.992	99.886	19.957	6.861	0.491
604.000	376.815	79.995	19.992	99.888	19.953	7.113	0.501
604.500	377.075	79.987	19.992	99.895	19.955	6.957	0.513
605.000	377.334	79.991	19.992	99.898	19.953	7.100	0.519
605.500	377.594	79.992	19.993	99.905	19.950	7.259	0.518
606.000	377.867	79.991	19.993	99.906	19.945	7.559	0.526
606.500	378.057	79.992	19.992	99.906	19.948	7.366	0.498
607.000	378.334	79.991	19.992	99.902	19.945	7.570	0.465
607.500	378.582	79.991	19.993	99.898	19.942	7.702	0.496
608.000	378.854	79.991	19.992	99.897	19.942	7.747	0.523
608.500	379.098	79.994	19.992	99.900	19.941	7.782	0.518
609.000	379.350	79.990	19.992	99.905	19.940	7.859	0.506
609.500	379.611	80.001	19.991	99.908	19.937	8.034	0.505
610.000	379.841	79.983	19.993	99.913	19.935	8.095	0.502
610.500	380.080	79.988	19.991	99.912	19.934	8.158	0.480
611.000	380.362	79.984	19.992	99.913	19.935	8.113	0.495
611.500	380.636	79.995	19.992	99.910	19.931	8.330	0.538
612.000	380.819	79.991	19.994	99.908	19.932	8.319	0.507
612.500	381.079	79.995	19.991	99.907	19.925	8.681	0.450
613.000	381.346	79.996	19.992	99.910	19.921	8.908	0.485
613.500	381.579	79.988	19.994	99.910	19.924	8.754	0.513
614.000	381.885	79.997	19.991	99.911	19.924	8.774	0.519
614.500	382.095	79.994	19.992	99.915	19.918	9.118	0.528
615.000	382.334	79.991	19.992	99.915	19.920	8.999	0.482
615.500	382.601	79.999	19.991	99.914	19.916	9.187	0.478
616.000	382.868	79.997	19.992	99.914	19.914	9.303	0.520
616.500	383.098	79.989	19.992	99.915	19.910	9.568	0.515
617.000	383.337	79.997	19.992	99.913	19.908	9.655	0.483
617.500	383.585	79.995	19.992	99.913	19.906	9.773	0.478
618.000	383.872	79.992	19.993	99.914	19.905	9.824	0.511
618.500	384.122	79.990	19.992	99.915	19.901	10.056	0.536
619.000	384.372	80.013	19.990	99.916	19.898	10.267	0.518
619.500	384.596	79.995	19.992	99.928	19.894	10.476	0.487
620.000	384.861	79.999	19.991	99.931	19.892	10.566	0.482
620.500	385.104	79.993	19.993	99.933	19.893	10.510	0.499
621.000	385.342	79.995	19.992	99.932	19.891	10.674	0.494
621.500	385.636	79.991	19.993	99.933	19.891	10.674	0.507
622.000	385.874	79.994	19.992	99.922	19.886	10.950	0.533
622.500	386.115	79.991	19.992	99.925	19.885	11.023	0.506
623.000	386.385	79.994	19.992	99.923	19.880	11.302	0.495
623.500	386.600	79.986	19.994	99.924	19.882	11.174	0.498
624.000	386.892	79.993	19.991	99.926	19.876	11.514	0.496
624.500	387.166	79.992	19.991	99.927	19.874	11.607	0.537
625.000	387.401	79.989	19.993	99.923	19.871	11.786	0.538
625.500	387.708	79.994	19.993	99.923	19.868	11.946	0.526
626.000	387.888	79.990	19.992	99.924	19.864	12.220	0.515
626.500	388.163	79.989	19.992	99.925	19.861	12.393	0.471
627.000	388.439	79.989	19.993	99.930	19.856	12.684	0.502
627.500	388.638	79.994	19.993	99.939	19.858	12.549	0.513
628.000	388.934	79.988	19.992	99.945	19.851	12.975	0.486
628.500	389.151	79.986	19.995	99.952	19.846	13.215	0.504
629.000	389.419	79.985	19.993	99.954	19.842	13.473	0.498
629.500	389.691	79.986	19.993	99.953	19.839	13.616	0.512
630.000	389.943	79.990	19.993	99.951	19.835	13.845	0.532
630.500	390.208	79.989	19.992	99.951	19.833	13.980	0.521
631.000	390.481	79.995	19.992	99.951	19.826	14.380	0.528
631.500	390.700	79.988	19.993	99.959	19.823	14.553	0.515
632.000	390.956	79.994	19.992	99.960	19.821	14.696	0.483
632.500	391.178	79.990	19.991	99.961	19.819	14.799	0.476
633.000	391.439	79.990	19.993	99.962	19.813	15.135	0.480
633.500	391.681	79.990	19.992	99.961	19.812	15.220	0.493
634.000	391.919	80.000	19.991	99.953	19.808	15.416	0.492
634.500	392.184	79.995	19.994	99.949	19.804	15.662	0.492
635.000	392.464	79.983	19.991	99.943	19.797	16.043	0.524
635.500	392.735	79.985	19.991	99.939	19.797	16.068	0.548
636.000	392.986	79.986	19.992	99.937	19.792	16.340	0.536
636.500	393.224	79.987	19.991	99.937	19.790	16.445	0.505
637.000	393.499	79.993	19.991	99.936	19.786	16.695	0.501
637.500	393.770	80.005	19.990	99.939	19.782	16.932	0.529
638.000	393.999	79.983	19.992	99.941	19.778	17.146	0.523
638.500	394.286	79.987	19.993	99.939	19.772	17.498	0.508
639.000	394.524	79.998	19.991	99.940	19.767	17.762	0.521
639.500	394.764	80.013	19.988	99.949	19.764	17.955	0.502
640.000	395.056	79.994	19.989	99.962	19.755	18.501	0.505
640.500	395.298	79.991	19.992	99.970	19.751	18.685	0.533
641.000	395.531	79.988	19.991	99.981	19.747	18.950	0.504
641.500	395.799	79.998	19.991	99.989	19.746	18.978	0.488
642.000	396.090	79.970	19.992	99.993	19.740	19.365	0.530
642.500	396.331	79.984	19.993	99.992	19.733	19.733	0.546
643.000	396.584	79.994	19.991	99.990	19.729	19.992	0.513
643.500	396.859	79.992	19.992	99.992	19.723	20.316	0.511
644.000	397.100	79.992	19.990	99.993	19.718	20.605	0.521
644.500	397.343	79.984	19.994	99.993	19.714	20.814	0.500
645.000	397.589	79.989	19.991	99.989	19.706	21.289	0.487
645.500	397.879	79.991	19.990	99.992	19.699	21.706	0.513
646.000	398.126	79.986	19.992	99.992	19.696	21.857	0.536
646.500	398.395	79.990	19.991	99.990	19.687	22.386	0.526
647.000	398.645	79.991	19.992	99.990	19.681	22.703	0.517
647.500	398.888	79.991	19.992	99.995	19.677	22.985	0.506
648.000	399.123	79.997	19.991	99.995	19.664	23.700	0.486
648.500	399.409	79.993	19.991	99.995	19.657	24.082	0.500
649.000	399.627	79.992	19.990	100.002	19.648	24.637	0.512
649.500	399.896	79.995	19.991	100.009	19.643	24.932	0.495
650.000	400.115	79.991	19.991	100.016	19.634	25.419	0.488
650.500	400.363	79.991	19.991	100.024	19.627	25.822	0.478
651.000	400.619	79.992	19.992	100.030	19.613	26.652	0.486
651.500	400.889	79.989	19.992	100.030	19.603	27.232	0.515
652.000	401.133	79.988	19.991	100.031	19.593	27.752	0.520
652.500	401.384	79.992	19.992	100.031	19.580	28.556	0.504
653.000	401.620	79.990	19.992	100.031	19.565	29.382	0.491
653.500	401.918	79.997	19.993	100.032	19.558	29.795	0.511
654.000	402.194	79.987	19.992	100.040	19.546	30.527	0.555
654.500	402.411	79.990	19.993	100.046	19.534	31.217	0.533
655.000	402.667	79.987	19.995	100.044	19.525	31.733	0.483
655.500	402.905	79.991	19.991	100.042	19.516	32.247	0.484
656.000	403.164	79.992	19.992	100.041	19.510	32.601	0.495
656.500	403.442	79.990	19.992	100.034	19.502	33.055	0.517
657.000	403.683	79.989	19.993	100.026	19.498	33.279	0.528
657.501	403.904	79.991	19.991	100.027	19.491	33.650	0.490
658.000	404.212	79.988	19.992	100.030	19.486	33.949	0.495
658.500	404.484	79.987	19.992	100.027	19.477	34.465	0.555
659.000	404.731	79.990	19.991	100.022	19.471	34.847	0.549
659.500	404.980	79.991	19.992	100.017	19.463	35.256	0.508
660.000	405.254	79.993	19.992	100.011	19.461	35.412	0.509
660.500	405.537	79.992	19.993	100.003	19.453	35.888	0.540
661.000	405.794	79.988	19.992	99.993	19.442	36.482	0.549
661.500	406.032	79.990	19.990	99.986	19.438	36.725	0.518
662.000	406.285	79.984	19.993	99.990	19.429	37.259	0.493
662.500	406.531	79.990	19.991	99.996	19.420	37.772	0.495
663.000	406.777	79.990	19.992	100.006	19.415	38.070	0.496
663.500	407.076	79.989	19.991	100.026	19.406	38.558	0.518
664.000	407.352	79.989	19.992	100.046	19.399	38.948	0.559
664.500	407.631	79.992	19.991	100.060	19.386	39.747	0.565
665.000	407.855	79.991	19.991	100.080	19.381	40.018	0.529
665.500	408.120	79.990	19.992	100.100	19.373	40.507	0.496
666.000	408.372	79.991	19.991	100.110	19.366	40.912	0.503
666.500	408.608	79.990	19.992	100.117	19.359	41.302	0.503
667.000	408.889	79.988	19.994	100.115	19.352	41.720	0.503
667.500	409.130	79.995	19.993	100.103	19.344	42.129	0.519
668.000	409.399	79.989	19.991	100.090	19.337	42.589	0.516
668.500	409.652	79.991	19.992	100.086	19.330	42.981	0.516
669.000	409.895	79.992	19.993	100.078	19.322	43.405	0.509
669.500	410.205	79.991	19.991	100.080	19.312	43.988	0.524
670.000	410.436	79.992	19.992	100.089	19.304	44.469	0.547
670.500	410.677	79.987	19.992	100.095	19.298	44.796	0.507
671.000	410.957	79.987	19.992	100.096	19.290	45.307	0.497
671.500	411.164	79.983	19.995	100.106	19.282	45.761	0.504
672.000	411.421	79.995	19.991	100.106	19.274	46.216	0.476
672.500	411.689	80.004	19.989	100.103	19.269	46.520	0.494
673.000	411.947	79.994	19.992	100.105	19.258	47.118	0.525
673.500	412.190	79.985	19.993	100.106	19.252	47.468	0.513
674.000	412.437	79.995	19.990	100.105	19.242	48.041	0.496
674.500	412.707	79.991	19.993	100.116	19.235	48.463	0.504
675.000	412.933	79.991	19.993	100.125	19.227	48.906	0.506
675.500	413.172	80.000	19.990	100.135	19.215	49.625	0.480
676.000	413.460	79.990	19.990	100.147	19.207	50.064	0.496
676.500	413.667	79.988	19.988	100.156	19.199	50.566	0.511
677.000	413.899	79.997	19.991	100.163	19.187	51.257	0.467
677.500	414.198	80.006	19.989	100.169	19.176	51.888	0.485
678.000	414.389	79.991	19.991	100.174	19.163	52.625	0.510
678.500	414.685	79.993	19.992	100.169	19.152	53.234	0.488
679.000	414.946	79.994	19.991	100.171	19.140	53.960	0.522
679.500	415.181	79.993	19.992	100.171	19.123	54.927	0.527
680.000	415.439	79.992	19.991	100.175	19.115	55.390	0.495
680.500	415.702	79.995	19.992	100.178	19.101	56.216	0.507
681.000	415.953	79.992	19.992	100.194	19.092	56.762	0.517
681.500	416.228	79.994	19.991	100.204	19.080	57.476	0.519
682.000	416.473	79.988	19.991	100.208	19.069	58.117	0.523
682.500	416.752	79.986	19.994	100.212	19.058	58.773	0.522
683.000	416.983	79.996	19.991	100.214	19.045	59.558	0.517
683.500	417.226	79.992	19.994	100.214	19.029	60.513	0.492
684.000	417.531	79.999	19.988	100.215	19.021	60.990	0.511
684.500	417.754	80.001	19.991	100.221	19.011	61.565	0.538
685.000	417.986	79.988	19.992	100.226	19.001	62.107	0.492
685.500	418.215	79.992	19.993	100.228	18.990	62.783	0.458
686.000	418.477	79.990	19.994	100.227	18.983	63.144	0.476
686.500	418.721	79.990	19.995	100.233	18.968	63.987	0.499
687.000	418.955	79.984	19.989	100.232	18.959	64.536	0.492
687.500	419.260	79.995	19.992	100.238	18.950	65.031	0.509
688.000	419.484	79.985	19.993	100.248	18.937	65.720	0.534
688.500	419.766	79.991	19.991	100.253	18.926	66.297	0.517
689.000	420.015	79.985	19.992	100.260	18.915	66.859	0.518
689.500	420.247	79.990	19.990	100.267	18.904	67.432	0.506
690.000	420.518	79.998	19.992	100.272	18.885	68.498	0.492
690.500	420.743	79.990	19.991	100.281	18.865	69.625	0.499
691.000	421.035	79.985	19.993	100.296	18.831	71.518	0.507
691.500	421.235	79.983	19.993	100.308	18.787	74.075	0.505
692.000	421.458	79.986	19.993	100.331	18.736	77.064	0.458
692.500	421.721	79.990	19.993	100.360	18.669	81.020	0.454
693.000	422.019	79.993	19.990	100.395	18.610	84.541	0.523
693.500	422.258	79.976	19.994	100.436	18.552	88.017	0.549
694.000	422.503	79.987	19.991	100.479	18.505	90.809	0.511
694.500	422.745	80.001	19.990	100.549	18.460	93.446	0.485
695.000	422.982	79.997	19.990	100.580	18.430	95.212	0.483
695.500	423.249	79.989	19.990	100.562	18.405	96.651	0.492
696.000	423.481	79.985	19.991	100.540	18.384	97.877	0.501
696.500	423.797	79.991	19.991	100.532	18.367	98.893	0.524
697.000	423.991	79.994	19.990	100.502	18.355	99.617	0.529
697.500	424.209	79.979	19.994	100.478	18.346	100.286	0.461
698.000	424.476	80.001	19.992	100.467	18.340	100.675	0.448
698.500	424.760	79.993	19.991	100.443	18.332	101.162	0.518
699.000	425.014	79.993	19.991	100.383	18.322	101.754	0.544
699.500	425.299	79.999	19.991	100.290	18.315	102.103	0.539
700.000	425.567	80.013	19.992	100.212	18.311	102.217	0.546
700.500	425.822	79.988	19.991	100.136	18.303	102.685	0.538
701.000	426.049	80.004	19.990	100.059	18.296	103.052	0.502
701.500	426.262	79.999	19.990	99.993	18.292	103.277	0.461
702.000	426.553	79.994	19.993	99.958	18.291	103.330	0.472
702.500	426.852	79.987	19.990	99.976	18.292	103.174	0.547
703.000	427.059	80.005	19.991	100.058	18.287	103.387	0.548
703.500	427.322	80.007	19.989	100.181	18.293	102.942	0.488
704.000	427.536	79.995	19.993	100.328	18.297	102.621	0.473
704.500	427.835	79.992	19.991	100.467	18.293	102.660	0.495
705.000	428.081	79.988	19.994	100.569	18.275	103.619	0.529
705.500	428.307	80.002	19.990	100.619	18.240	105.566	0.508
706.000	428.578	79.987	19.993	100.641	18.187	108.608	0.484
706.500	428.809	79.998	19.991	100.644	18.128	112.164	0.499
707.000	429.054	79.986	19.992	100.651	18.058	116.391	0.489
707.500	429.311	79.986	19.992	100.653	17.989	120.680	0.489
708.000	429.547	79.980	19.994	100.734	17.929	124.473	0.498
708.500	429.770	79.987	19.991	100.851	17.873	127.930	0.476
709.000	430.066	79.994	19.993	100.902	17.830	130.662	0.489
709.500	430.301	80.009	19.991	100.908	17.794	132.859	0.525
710.000	430.565	79.998	19.992	100.928	17.767	134.458	0.515
710.500	430.822	79.992	19.992	100.883	17.746	135.526	0.510
711.000	431.046	79.985	19.993	100.791	17.730	136.425	0.501
711.500	431.326	79.972	19.995	100.760	17.715	137.248	0.492
712.000	431.549	79.991	19.994	100.759	17.709	137.538	0.503
712.500	431.781	79.995	19.991	100.736	17.706	137.666	0.479
713.000	432.080	79.988	19.992	100.695	17.705	137.661	0.493
713.500	432.321	79.993	19.993	100.645	17.702	137.706	0.536
714.000	432.587	79.988	19.991	100.578	17.711	137.128	0.524
714.500	432.851	79.985	19.993	100.482	17.714	136.776	0.518
715.000	433.108	79.998	19.992	100.346	17.717	136.450	0.525
715.500	433.361	79.985	19.993	100.199	17.714	136.431	0.516
716.000	433.623	79.982	19.993	100.082	17.698	137.229	0.513
716.500	433.849	79.999	19.991	100.029	17.662	139.308	0.501
717.000	434.120	79.988	19.993	100.064	17.613	142.217	0.492
717.500	434.418	79.995	19.991	100.179	17.558	145.580	0.533
718.000	434.695	79.992	19.992	100.356	17.497	149.371	0.572
718.500	434.961	79.988	19.992	100.595	17.438	153.037	0.559
719.000	435.160	79.990	19.991	100.872	17.379	156.600	0.504
719.500	435.398	79.986	19.992	101.067	17.328	159.695	0.451
720.000	435.650	79.989	19.993	101.206	17.287	162.153	0.463
720.500	435.898	79.995	19.992	101.296	17.247	164.479	0.495
721.000	436.119	79.993	19.992	101.305	17.216	166.287	0.485
721.500	436.409	79.996	19.992	101.231	17.192	167.603	0.490
722.000	436.675	79.988	19.992	101.181	17.161	169.336	0.533
722.500	436.909	79.983	19.993	101.143	17.142	170.372	0.528
723.000	437.158	79.992	19.993	101.104	17.128	171.118	0.492
723.500	437.397	80.005	19.990	101.060	17.109	172.126	0.486
724.000	437.650	79.986	19.992	101.008	17.093	172.942	0.489
724.500	437.905	79.993	19.991	100.946	17.075	173.879	0.500
725.000	438.097	79.993	19.991	100.875	17.054	175.059	0.477
725.500	438.387	79.991	19.990	100.770	17.029	176.477	0.465
726.000	438.599	79.977	19.993	100.632	17.001	178.136	0.493
726.500	438.875	79.987	19.993	100.493	16.963	180.367	0.496
727.000	439.125	79.999	19.991	100.402	16.928	182.477	0.507
727.500	439.385	79.986	19.990	100.397	16.895	184.500	0.518
728.000	439.613	79.982	19.991	100.479	16.861	186.554	0.499
728.500	439.864	79.983	19.992	100.619	16.828	188.540	0.483
729.000	440.110	79.996	19.992	100.788	16.800	190.201	0.488
729.500	440.384	79.988	19.990	100.946	16.775	191.674	0.508
730.000	440.618	79.998	19.992	101.051	16.755	192.856	0.514
730.500	440.863	79.988	19.992	101.119	16.739	193.740	0.493
731.000	441.085	79.979	19.994	101.161	16.720	194.828	0.473
731.500	441.379	79.983	19.991	101.176	16.708	195.530	0.492
732.000	441.657	79.980	19.990	101.166	16.699	196.062	0.544
732.500	441.895	79.995	19.990	101.134	16.688	196.646	0.544
733.000	442.116	79.981	19.993	101.090	16.678	197.208	0.487
733.500	442.409	79.974	19.992	101.045	16.669	197.729	0.487
734.000	442.662	79.979	19.994	100.999	16.667	197.874	0.530
734.500	442.909	79.995	19.992	100.944	16.664	198.031	0.523
735.000	443.174	79.983	19.993	100.885	16.657	198.448	0.506
735.500	443.473	80.007	19.992	100.831	16.656	198.510	0.538
736.000	443.706	79.993	19.989	100.799	16.656	198.504	0.548
736.500	443.920	79.977	19.995	100.790	16.654	198.591	0.489
737.000	444.227	79.987	19.991	100.799	16.662	198.144	0.484
737.500	444.468	79.995	19.992	100.834	16.661	198.169	0.535
738.000	444.720	79.997	19.990	100.882	16.669	197.676	0.521
738.500	445.000	79.995	19.992	100.925	16.673	197.426	0.513
739.000	445.265	79.994	19.989	100.962	16.678	197.091	0.539
739.500	445.459	79.993	19.991	101.002	16.687	196.579	0.502
740.000	445.759	79.985	19.993	101.024	16.693	196.210	0.476
740.500	446.007	79.994	19.990	101.035	16.701	195.723	0.521
741.000	446.189	79.989	19.990	101.042	16.705	195.502	0.489
741.500	446.489	79.981	19.992	101.038	16.712	195.028	0.456
742.000	446.728	79.982	19.993	101.026	16.721	194.527	0.511
742.500	447.008	79.998	19.991	101.019	16.732	193.833	0.529
743.000	447.278	79.983	19.991	101.016	16.742	193.265	0.535
743.500	447.485	79.986	19.991	101.004	16.750	192.763	0.514
744.000	447.783	79.995	19.991	101.005	16.759	192.215	0.491
744.500	448.034	79.985	19.991	101.006	16.769	191.641	0.526
745.000	448.280	79.985	19.992	101.006	16.774	191.337	0.523
745.500	448.608	79.984	19.993	101.002	16.793	190.246	0.536
746.000	448.837	79.992	19.991	101.002	16.807	189.399	0.566
746.500	449.071	79.992	19.991	101.002	16.819	188.703	0.510
747.000	449.337	79.979	19.991	100.997	16.832	187.943	0.481
747.500	449.565	79.989	19.993	100.991	16.846	187.095	0.496
748.000	449.806	79.992	19.992	100.984	16.863	186.106	0.482
748.500	450.073	79.988	19.992	100.972	16.876	185.362	0.489
749.000	450.327	79.994	19.991	100.956	16.896	184.205	0.515
749.500	450.604	79.992	19.991	100.949	16.911	183.280	0.526
750.000	450.868	79.996	19.992	100.942	16.936	181.870	0.536
750.500	451.059	79.974	19.994	100.934	16.956	180.698	0.498
751.000	451.351	79.989	19.992	100.925	16.971	179.787	0.469
751.500	451.615	79.999	19.991	100.917	16.992	178.552	0.519
752.000	451.890	79.985	19.991	100.909	17.013	177.315	0.548
752.500	452.156	79.978	19.990	100.897	17.036	175.993	0.540
753.000	452.402	79.987	19.991	100.884	17.059	174.610	0.527
753.500	452.654	79.991	19.990	100.878	17.086	173.047	0.505
754.000	452.913	79.990	19.992	100.870	17.105	171.898	0.504
754.500	453.226	80.004	19.990	100.856	17.133	170.299	0.542
755.000	453.406	79.976	19.993	100.852	17.156	168.950	0.532
755.500	453.684	79.997	19.991	100.843	17.180	167.502	0.475
756.000	453.936	79.990	19.991	100.839	17.207	165.970	0.494
756.500	454.186	80.001	19.991	100.833	17.234	164.383	0.517
757.000	454.459	79.995	19.991	100.827	17.259	162.937	0.513
757.500	454.693	79.987	19.992	100.818	17.290	161.098	0.515
758.000	454.952	79.985	19.990	100.815	17.317	159.502	0.500
758.500	455.234	79.984	19.990	100.807	17.346	157.809	0.516
759.000	455.463	79.968	19.992	100.801	17.376	156.056	0.526
759.500	455.779	79.976	19.990	100.793	17.404	154.399	0.529
760.000	456.003	79.995	19.991	100.789	17.437	152.516	0.542
760.500	456.253	79.990	19.990	100.782	17.463	150.981	0.507
761.000	456.479	79.993	19.992	100.779	17.498	148.944	0.475
761.500	456.763	79.989	19.993	100.769	17.530	147.073	0.493
762.000	457.013	79.993	19.990	100.762	17.564	145.105	0.522
762.500	457.268	79.979	19.991	100.750	17.594	143.378	0.520
763.000	457.526	79.992	19.992	100.740	17.628	141.395	0.509
763.500	457.810	79.968	19.995	100.729	17.661	139.508	0.528
764.000	458.130	80.001	19.991	100.717	17.694	137.558	0.573
764.500	458.330	80.007	19.990	100.706	17.728	135.596	0.562
765.000	458.610	79.987	19.991	100.694	17.761	133.664	0.500
765.500	458.865	80.002	19.989	100.679	17.795	131.709	0.507
766.000	459.100	79.995	19.991	100.665	17.828	129.803	0.513
766.500	459.390	79.990	19.990	100.660	17.860	127.930	0.508
767.000	459.613	79.993	19.992	100.653	17.896	125.868	0.519
767.500	459.888	79.997	19.993	100.641	17.927	124.045	0.505
768.000	460.137	80.003	19.993	100.632	17.966	121.804	0.511
768.500	460.406	80.015	19.990	100.621	17.998	119.886	0.521
769.000	460.676	79.978	19.994	100.605	18.031	117.988	0.529
769.500	460.903	79.998	19.992	100.586	18.068	115.831	0.518
770.000	461.137	79.973	19.993	100.573	18.108	113.521	0.479
770.500	461.437	79.990	19.994	100.558	18.135	111.957	0.498
771.000	461.720	79.993	19.992	100.547	18.176	109.583	0.559
771.500	461.988	79.993	19.992	100.541	18.208	107.723	0.566
772.000	462.199	80.005	19.991	100.541	18.243	105.720	0.515
772.500	462.499	79.989	19.992	100.535	18.279	103.650	0.495
773.000	462.727	79.989	19.992	100.531	18.314	101.605	0.519
773.500	462.989	79.987	19.992	100.523	18.351	99.476	0.509
774.000	463.259	79.988	19.992	100.514	18.386	97.430	0.511
774.500	463.500	79.974	19.993	100.500	18.420	95.477	0.522
775.000	463.722	79.997	19.991	100.486	18.458	93.264	0.487
775.500	464.008	80.002	19.990	100.480	18.494	91.162	0.485
776.000	464.288	79.996	19.993	100.476	18.528	89.225	0.537
776.500	464.579	80.000	19.990	100.470	18.561	87.288	0.569
777.000	464.820	80.005	19.990	100.467	18.599	85.129	0.551
777.500	465.056	79.993	19.993	100.465	18.637	82.900	0.504
778.000	465.341	79.988	19.991	100.453	18.674	80.784	0.499
778.500	465.614	79.998	19.992	100.440	18.709	78.740	0.540
779.000	465.840	79.998	19.990	100.425	18.743	76.804	0.529
779.500	466.110	79.985	19.993	100.409	18.779	74.716	0.497
780.000	466.377	79.974	19.993	100.396	18.810	72.900	0.517
780.500	466.623	79.997	19.991	100.385	18.843	71.042	0.525
781.000	466.870	79.994	19.993	100.373	18.876	69.086	0.503
781.500	467.148	79.990	19.991	100.362	18.906	67.360	0.509
782.000	467.386	79.990	19.997	100.356	18.936	65.650	0.520
782.501	467.662	80.003	19.991	100.346	18.965	63.993	0.515
783.001	467.880	79.992	19.991	100.342	18.996	62.194	0.505
783.501	468.163	79.984	19.992	100.335	19.022	60.703	0.498
784.001	468.422	80.001	19.990	100.326	19.048	59.189	0.521
784.500	468.618	79.983	19.996	100.319	19.073	57.716	0.498
785.000	468.915	80.004	19.990	100.311	19.097	56.371	0.474
785.500	469.175	79.990	19.992	100.304	19.122	54.922	0.525
786.000	469.443	79.989	19.992	100.293	19.146	53.523	0.543
786.501	469.677	80.006	19.990	100.288	19.171	52.074	0.515
787.001	469.918	79.987	19.994	100.283	19.191	50.937	0.489
787.500	470.200	80.011	19.988	100.275	19.214	49.592	0.499
788.000	470.455	80.003	19.992	100.268	19.238	48.221	0.530
788.501	470.711	79.988	19.991	100.262	19.255	47.224	0.524
789.001	470.983	80.001	19.993	100.253	19.272	46.244	0.520
789.501	471.228	79.994	19.988	100.240	19.294	45.006	0.523
790.001	471.443	79.979	19.992	100.234	19.308	44.186	0.489
790.501	471.748	79.981	19.992	100.219	19.323	43.302	0.491
791.001	471.976	79.977	19.996	100.211	19.344	42.090	0.526
791.501	472.251	79.995	19.992	100.200	19.357	41.341	0.517
792.001	472.531	79.991	19.992	100.192	19.372	40.521	0.529
792.501	472.768	79.986	19.995	100.181	19.388	39.594	0.536
793.001	473.032	79.998	19.990	100.171	19.401	38.854	0.509
793.500	473.296	79.992	19.994	100.163	19.415	38.014	0.514
794.000	473.578	79.986	19.986	100.157	19.432	37.038	0.537
794.500	473.801	79.976	19.997	100.152	19.443	36.416	0.526
795.000	474.088	79.997	19.985	100.146	19.457	35.622	0.508
795.500	474.311	79.982	19.993	100.148	19.466	35.081	0.509
796.000	474.627	79.991	19.988	100.141	19.478	34.420	0.524
796.500	474.884	79.997	19.991	100.136	19.497	33.338	0.556
797.000	475.103	79.985	19.994	100.127	19.504	32.891	0.525
797.500	475.334	79.993	19.992	100.115	19.513	32.365	0.463
798.000	475.621	79.998	19.994	100.103	19.528	31.511	0.484
798.500	475.867	79.988	19.993	100.097	19.534	31.200	0.525
799.000	476.123	79.992	19.992	100.088	19.549	30.315	0.517
799.500	476.354	79.989	19.993	100.084	19.557	29.824	0.495
800.000	476.606	79.982	19.993	100.090	19.570	29.110	0.485
800.500	476.890	79.990	19.993	100.086	19.575	28.800	0.509
801.000	477.155	79.989	19.992	100.086	19.586	28.194	0.542
801.500	477.360	79.984	19.993	100.082	19.597	27.567	0.510
802.000	477.677	79.994	19.991	100.076	19.608	26.895	0.496
802.500	477.917	79.992	19.996	100.068	19.614	26.558	0.540
803.000	478.168	79.990	19.989	100.066	19.626	25.898	0.524
803.500	478.407	79.987	19.993	100.063	19.637	25.261	0.490
804.000	478.665	79.987	19.991	100.058	19.645	24.799	0.493
804.500	478.901	79.978	19.995	100.051	19.653	24.321	0.495
805.000	479.179	80.009	19.990	100.043	19.663	23.730	0.504
805.500	479.415	79.993	19.993	100.043	19.674	23.108	0.514
806.000	479.659	79.986	19.995	100.041	19.676	23.025	0.497
806.500	479.929	79.992	19.991	100.040	19.686	22.447	0.497
807.000	480.185	79.987	19.994	100.041	19.695	21.889	0.520
807.500	480.420	79.990	19.995	100.042	19.705	21.364	0.509
808.000	480.692	80.014	19.989	100.034	19.712	20.919	0.499
808.500	480.938	79.988	19.992	100.034	19.721	20.406	0.513
809.000	481.187	79.990	19.993	100.030	19.726	20.104	0.507
809.500	481.448	79.976	19.994	100.020	19.737	19.516	0.503
810.000	481.693	79.987	19.993	100.014	19.740	19.339	0.508
810.500	481.957	79.993	19.991	100.013	19.748	18.852	0.508
811.000	482.181	79.991	19.990	100.000	19.754	18.530	0.498
811.500	482.449	79.990	19.987	99.997	19.762	18.072	0.489
812.000	482.703	79.990	19.994	99.998	19.774	17.387	0.507
812.500	482.957	79.981	19.992	99.995	19.777	17.200	0.516
813.000	483.241	79.995	19.990	99.988	19.784	16.821	0.523
813.500	483.466	79.989	19.995	99.986	19.791	16.374	0.523
814.000	483.780	79.985	19.991	99.979	19.796	16.097	0.524
814.500	483.982	79.986	19.990	99.970	19.801	15.798	0.528
815.000	484.246	79.989	19.990	99.971	19.809	15.341	0.491
815.500	484.494	79.995	19.991	99.972	19.814	15.068	0.489
816.000	484.739	79.985	19.992	99.970	19.825	14.461	0.503
816.500	485.022	80.000	19.990	99.973	19.828	14.273	0.511
817.000	485.288	80.001	19.990	99.982	19.830	14.125	0.539
817.500	485.549	79.998	19.992	99.982	19.838	13.715	0.538
818.000	485.784	79.988	19.993	99.977	19.841	13.496	0.512
818.501	486.071	79.996	19.989	99.973	19.848	13.131	0.509
819.001	486.317	79.999	19.989	99.973	19.853	12.833	0.527
819.500	486.567	79.998	19.993	99.963	19.857	12.575	0.515
820.000	486.818	79.997	19.982	99.958	19.862	12.292	0.498
820.500	487.079	79.999	19.989	99.959	19.867	12.019	0.506
821.000	487.318	79.993	19.991	99.959	19.871	11.768	0.506
821.500	487.598	79.999	19.990	99.954	19.880	11.301	0.510
822.000	487.826	80.001	19.990	99.955	19.884	11.063	0.513
822.500	488.122	79.988	19.994	99.956	19.880	11.295	0.516
823.000	488.324	79.996	19.989	99.950	19.887	10.894	0.512
823.500	488.621	79.993	19.988	99.949	19.895	10.439	0.499
824.000	488.834	80.000	19.992	99.952	19.897	10.290	0.504
824.500	489.085	80.004	19.989	99.949	19.898	10.218	0.487
825.000	489.356	79.993	19.997	99.946	19.901	10.069	0.493
825.500	489.647	79.986	19.998	99.946	19.904	9.896	0.541
826.000	489.922	79.996	19.987	99.937	19.908	9.653	0.564
826.500	490.149	79.993	19.989	99.931	19.907	9.700	0.534
827.000	490.391	79.989	19.992	99.932	19.916	9.221	0.486
827.500	490.668	79.988	19.995	99.932	19.916	9.190	0.494
828.000	490.905	79.993	19.991	99.932	19.918	9.093	0.517
828.500	491.155	79.993	19.988	99.935	19.926	8.645	0.501
829.000	491.424	79.999	19.985	99.933	19.929	8.462	0.503
829.500	491.653	79.994	19.992	99.928	19.930	8.426	0.508
830.000	491.949	79.990	19.990	99.924	19.932	8.271	0.511
830.500	492.172	79.994	19.987	99.923	19.935	8.141	0.522
831.000	492.452	79.994	19.987	99.923	19.934	8.151	0.511
831.500	492.695	79.987	19.990	99.925	19.936	8.055	0.513
832.000	492.929	79.979	19.996	99.921	19.939	7.878	0.500
832.500	493.238	79.995	19.989	99.916	19.942	7.745	0.510
833.000	493.510	79.984	19.993	99.910	19.944	7.591	0.562
833.500	493.727	79.992	19.992	99.903	19.947	7.433	0.535
834.000	494.012	79.985	19.993	99.901	19.949	7.320	0.495
834.500	494.290	79.988	19.987	99.901	19.953	7.087	0.533
835.000	494.587	79.991	19.987	99.900	19.954	7.040	0.569
835.500	494.846	79.990	19.988	99.906	19.953	7.108	0.565
836.000	495.076	79.987	19.991	99.911	19.958	6.801	0.522
836.500	495.316	79.984	19.992	99.901	19.954	7.040	0.479
837.000	495.571	79.983	19.993	99.899	19.960	6.712	0.483
837.500	495.820	79.983	19.994	99.891	19.957	6.854	0.499
838.001	496.129	79.992	19.994	99.882	19.959	6.737	0.531
838.501	496.326	79.998	19.992	99.882	19.961	6.619	0.532
839.000	496.584	79.989	19.990	99.887	19.961	6.617	0.481
839.500	496.838	79.988	19.992	99.888	19.963	6.491	0.483
840.000	497.099	79.977	19.993	99.895	19.963	6.522	0.513
840.500	497.355	79.968	19.994	99.899	19.967	6.297	0.516
841.000	497.640	80.011	19.987	99.891	19.964	6.471	0.530
841.500	497.880	79.999	19.990	99.890	19.964	6.460	0.533
842.000	498.185	79.995	19.991	99.888	19.965	6.390	0.535
842.500	498.434	79.995	19.989	99.886	19.970	6.128	0.549
843.000	498.674	79.998	19.991	99.885	19.965	6.399	0.521
843.500	498.944	79.996	19.989	99.890	19.969	6.154	0.500
844.000	499.173	80.000	19.991	99.894	19.968	6.211	0.504
844.500	499.424	79.995	19.986	99.902	19.969	6.148	0.490
845.000	499.724	79.990	19.991	99.909	19.969	6.162	0.516
845.500	499.925	79.986	19.991	99.910	19.974	5.885	0.526
846.000	500.195	79.994	19.989	99.909	19.970	6.092	0.486
846.500	500.470	80.006	19.990	99.909	19.973	5.935	0.508
847.000	500.804	79.997	19.993	99.908	19.976	5.791	0.577
847.500	501.006	79.997	19.991	99.908	19.969	6.182	0.572
848.000	501.313	79.994	19.989	99.912	19.973	5.960	0.523
848.500	501.580	79.991	19.992	99.914	19.972	5.984	0.542
849.000	501.813	79.994	19.992	99.912	19.975	5.801	0.537
849.500	502.060	79.994	19.987	99.911	19.975	5.809	0.490
850.000	502.325	79.999	19.988	99.906	19.975	5.840	0.496
850.500	502.562	79.990	19.993	99.899	19.976	5.774	0.507
851.000	502.849	79.997	19.988	99.891	19.978	5.623	0.514
851.500	503.092	79.995	19.987	99.886	19.980	5.562	0.527
852.000	503.342	79.987	19.993	99.880	19.975	5.822	0.511
852.500	503.571	79.990	19.992	99.876	19.977	5.701	0.486
853.001	503.837	80.001	19.989	99.875	19.978	5.658	0.487
853.501	504.105	79.992	19.986	99.879	19.977	5.694	0.514
854.000	504.322	79.997	19.997	99.885	19.977	5.710	0.509
854.500	504.596	79.999	19.990	99.885	19.978	5.635	0.488
855.000	504.827	79.987	19.991	99.887	19.982	5.445	0.498
855.500	505.105	79.992	19.989	99.888	19.978	5.635	0.507
856.000	505.368	80.003	19.988	99.888	19.982	5.446	0.525
856.500	505.595	79.987	19.993	99.885	19.980	5.553	0.516
857.000	505.925	80.006	19.987	99.881	19.981	5.457	0.523
857.500	506.130	79.996	19.991	99.884	19.979	5.565	0.545
858.000	506.414	79.990	19.993	99.885	19.982	5.421	0.512
858.500	506.659	79.995	19.992	99.882	19.985	5.261	0.509
859.000	506.867	79.996	19.991	99.879	19.986	5.203	0.491
859.500	507.163	79.988	19.999	99.879	19.986	5.211	0.478
860.000	507.394	79.982	19.997	99.870	19.985	5.239	0.515
860.500	507.625	79.994	19.991	99.868	19.986	5.199	0.494
861.000	507.900	80.015	19.992	99.868	19.981	5.457	0.484
861.500	508.145	80.001	19.993	99.866	19.983	5.354	0.513
862.000	508.425	80.006	19.991	99.867	19.987	5.125	0.523
862.500	508.693	80.001	19.991	99.872	19.986	5.220	0.536
863.000	508.923	79.992	19.993	99.876	19.986	5.219	0.523
863.500	509.181	80.004	19.991	99.875	19.983	5.384	0.493
864.000	509.438	79.977	19.992	99.878	19.982	5.412	0.501
864.500	509.748	79.999	19.989	99.877	19.983	5.372	0.541
865.000	509.933	79.993	19.992	99.880	19.983	5.350	0.531
865.500	510.263	79.997	19.991	99.878	19.984	5.311	0.505
866.000	510.503	79.994	19.992	99.880	19.983	5.373	0.542
866.500	510.744	79.979	19.994	99.879	19.986	5.179	0.525
867.000	511.015	79.993	19.994	99.876	19.986	5.193	0.497
867.500	511.249	80.003	19.993	99.873	19.989	5.035	0.509
868.000	511.479	79.991	19.991	99.872	19.988	5.086	0.485
868.500	511.774	80.008	19.990	99.870	19.988	5.097	0.494
869.000	512.013	79.977	19.990	99.874	19.988	5.077	0.529
869.500	512.267	79.985	19.992	99.880	19.988	5.061	0.514
870.000	512.542	80.001	19.990	99.877	19.989	5.042	0.511
870.500	512.760	79.985	19.992	99.879	19.989	4.994	0.511
871.000	513.027	80.007	19.990	99.878	19.984	5.288	0.488
871.500	513.289	79.981	19.990	99.875	19.986	5.168	0.507
872.000	513.558	79.992	19.992	99.874	19.988	5.079	0.531
872.500	513.822	79.983	19.993	99.877	19.987	5.127	0.532
873.000	514.114	80.000	19.987	99.872	19.986	5.201	0.544
873.500	514.404	79.991	19.991	99.869	19.983	5.376	0.569
874.000	514.628	79.992	19.990	99.862	19.991	4.933	0.548
874.500	514.890	79.984	19.993	99.859	19.985	5.242	0.500
875.000	515.120	79.991	19.991	99.858	19.988	5.102	0.489
875.500	515.379	79.995	19.995	99.862	19.988	5.080	0.491
876.000	515.659	80.006	19.988	99.865	19.985	5.253	0.514
876.500	515.943	79.997	19.990	99.875	19.990	4.982	0.552
877.000	516.144	79.971	20.000	99.880	19.988	5.059	0.525
877.500	516.379	79.966	19.994	99.880	19.992	4.842	0.461
878.000	516.662	79.989	19.992	99.877	19.989	5.041	0.477
878.500	516.940	79.991	19.994	99.880	19.988	5.073	0.539
879.000	517.188	79.993	19.993	99.877	19.993	4.773	0.543
879.500	517.449	79.995	19.990	99.875	19.990	4.933	0.517
880.000	517.697	79.987	19.994	99.878	19.989	5.046	0.509
880.501	517.988	79.985	19.993	99.877	19.990	4.944	0.524
881.000	518.219	79.993	19.992	99.878	19.989	5.021	0.531
881.500	518.519	79.997	19.992	99.880	19.988	5.098	0.526
882.000	518.734	79.991	19.992	99.879	19.988	5.066	0.523
882.500	519.030	79.992	19.991	99.877	19.992	4.823	0.513
883.000	519.266	79.986	19.991	99.880	19.992	4.859	0.522
883.500	519.533	79.996	19.992	99.880	19.992	4.842	0.518
884.000	519.799	79.992	19.992	99.883	19.993	4.790	0.518
884.500	520.074	80.000	19.990	99.884	19.997	4.567	0.537
885.000	520.313	79.983	19.993	99.892	19.991	4.900	0.528
885.500	520.592	79.988	19.990	99.898	19.989	5.012	0.516
886.000	520.870	79.998	19.992	99.904	19.990	4.933	0.537
886.500	521.129	79.987	19.993	99.906	19.991	4.891	0.547
887.000	521.341	79.984	19.995	99.906	19.991	4.907	0.504
887.500	521.600	79.987	19.992	99.896	19.991	4.909	0.471
888.000	521.871	79.988	19.995	99.891	19.993	4.782	0.501
888.500	522.111	79.992	19.990	99.882	19.993	4.813	0.521
889.000	522.380	79.987	19.995	99.871	19.990	4.975	0.510
889.500	522.625	79.998	19.989	99.863	19.992	4.829	0.511
890.000	522.918	79.992	19.994	99.860	19.991	4.914	0.526
890.500	523.178	79.988	19.994	99.855	19.988	5.072	0.545
891.000	523.414	79.986	19.991	99.853	19.989	5.005	0.525
891.500	523.703	79.989	19.996	99.856	19.991	4.881	0.511
892.000	523.970	79.988	20.001	99.857	19.992	4.848	0.541
892.500	524.219	79.987	19.994	99.855	19.989	5.017	0.536
893.000	524.485	79.995	19.992	99.852	19.989	5.006	0.516
893.500	524.701	79.986	19.996	99.853	19.989	4.995	0.498
894.000	524.983	79.994	19.990	99.851	19.989	5.041	0.490
894.500	525.225	79.985	19.993	99.852	19.993	4.769	0.511
895.000	525.478	79.981	19.994	99.855	19.991	4.895	0.509
895.500	525.741	79.987	19.993	99.856	19.991	4.885	0.505
896.000	526.047	79.991	19.991	99.857	19.989	5.000	0.542
896.500	526.302	79.992	19.993	99.860	19.990	4.939	0.565
897.000	526.581	79.989	19.991	99.861	19.990	4.937	0.548
897.500	526.827	79.987	19.993	99.867	19.994	4.709	0.530
898.000	527.061	79.992	19.989	99.872	19.988	5.094	0.502
898.500	527.346	79.987	19.993	99.874	19.993	4.778	0.500
899.000	527.573	79.991	19.992	99.876	19.993	4.816	0.516
899.500	527.832	79.989	19.992	99.878	19.995	4.673	0.499
900.000	528.077	79.985	19.994	99.880	19.995	4.665	0.495
900.500	528.306	79.987	19.993	99.879	19.997	4.575	0.489
901.000	528.640	79.991	19.990	99.878	19.996	4.638	0.519
901.500	528.906	79.998	19.988	99.877	19.995	4.696	0.581
902.000	529.131	79.994	19.990	99.878	19.997	4.553	0.546
902.500	529.379	79.989	19.991	99.878	19.997	4.553	0.482
903.000	529.663	79.989	19.991	99.880	19.995	4.662	0.502
903.500	529.893	79.989	19.991	99.881	19.996	4.636	0.523
904.000	530.175	79.991	19.992	99.880	19.995	4.652	0.513
904.500	530.402	79.988	19.991	99.880	19.993	4.780	0.510
905.000	530.659	79.988	19.991	99.880	19.996	4.642	0.497
905.500	530.917	79.990	19.992	99.879	19.993	4.807	0.500
906.000	531.212	79.988	19.993	99.879	19.994	4.718	0.534
906.500	531.457	79.986	19.991	99.879	19.994	4.736	0.546
907.000	531.684	79.989	19.994	99.878	19.994	4.715	0.506
907.500	531.948	79.990	19.991	99.873	19.995	4.691	0.482
908.000	532.260	79.988	19.991	99.873	19.993	4.784	0.534
908.500	532.502	79.991	19.990	99.870	19.989	5.041	0.565
909.000	532.727	79.992	19.991	99.866	19.992	4.824	0.511
909.500	533.039	79.993	19.991	99.865	19.993	4.815	0.502
910.000	533.246	79.979	19.995	99.868	19.993	4.813	0.527
910.500	533.501	79.988	19.993	99.866	19.996	4.613	0.490
911.000	533.811	79.988	19.993	99.869	19.992	4.843	0.514
911.500	534.064	79.998	19.988	99.871	19.992	4.835	0.564
912.000	534.319	79.988	19.991	99.871	19.994	4.753	0.536
912.500	534.553	79.991	19.992	99.866	19.993	4.802	0.498
913.000	534.836	79.992	19.993	99.860	19.994	4.744	0.503
913.500	535.098	79.987	19.992	99.853	19.996	4.646	0.531
914.000	535.373	80.003	19.993	99.851	19.997	4.585	0.541
914.500	535.606	79.993	19.992	99.854	19.993	4.779	0.522
915.000	535.909	79.996	19.994	99.859	19.994	4.711	0.522
915.500	536.140	79.992	19.990	99.868	19.998	4.511	0.535
916.000	536.438	79.990	19.992	99.882	19.994	4.723	0.532
916.500	536.693	79.990	19.993	99.893	19.996	4.598	0.541
917.000	536.942	79.991	19.990	99.898	19.998	4.491	0.529
917.500	537.154	79.992	19.992	99.904	19.994	4.724	0.483
918.000	537.441	79.992	19.991	99.904	19.996	4.644	0.480
918.500	537.680	79.992	19.989	99.896	19.994	4.709	0.512
919.000	537.960	79.995	19.990	99.889	19.997	4.574	0.522
919.500	538.190	79.993	19.991	99.882	19.994	4.750	0.515
920.000	538.443	79.984	19.995	99.878	19.995	4.679	0.496
920.500	538.666	79.991	19.991	99.877	19.993	4.804	0.479
921.000	538.985	79.993	19.991	99.877	19.992	4.842	0.509
921.500	539.213	79.989	19.996	99.875	19.994	4.716	0.545
922.000	539.483	79.994	19.996	99.873	19.995	4.702	0.522
922.500	539.673	79.991	19.992	99.868	19.993	4.793	0.479
923.000	539.976	79.999	19.991	99.865	19.993	4.810	0.476
923.500	540.217	79.988	19.990	99.868	19.995	4.651	0.519
924.000	540.498	79.990	19.993	99.874	19.996	4.610	0.533
924.500	540.731	79.990	19.991	99.875	19.993	4.762	0.518
925.000	541.006	79.993	19.992	99.876	19.990	4.977	0.511
925.500	541.250	79.991	19.992	99.879	19.997	4.556	0.514
926.000	541.514	79.991	19.993	99.881	19.991	4.919	0.514
926.500	541.806	79.986	19.998	99.876	19.991	4.915	0.532
927.000	542.041	79.992	19.992	99.876	19.992	4.866	0.541
927.500	542.294	79.989	19.994	99.875	19.989	5.005	0.507
928.000	542.559	79.998	19.992	99.869	19.988	5.074	0.503
928.500	542.806	79.996	19.991	99.862	19.993	4.798	0.515
929.000	543.079	79.990	19.990	99.861	19.991	4.932	0.516
929.500	543.339	79.990	19.989	99.862	19.994	4.709	0.527
930.000	543.525	79.989	19.994	99.863	19.995	4.697	0.490
930.500	543.808	79.995	19.992	99.867	19.994	4.721	0.457
931.000	544.085	79.999	19.989	99.876	19.990	4.944	0.514
931.500	544.301	79.992	19.990	99.885	19.993	4.803	0.527
932.000	544.572	79.998	19.991	99.888	19.993	4.782	0.490
932.500	544.802	80.007	19.991	99.890	19.993	4.778	0.494
933.000	545.065	79.993	19.990	99.893	19.989	5.030	0.497
933.500	545.325	79.975	19.993	99.888	19.991	4.901	0.508
934.000	545.547	79.990	19.992	99.878	19.989	5.005	0.502
934.500	545.834	79.996	19.993	99.876	19.989	5.039	0.495
935.000	546.075	79.988	19.992	99.872	19.994	4.752	0.518
935.500	546.368	79.990	19.992	99.869	19.991	4.914	0.531
936.000	546.627	80.003	19.989	99.865	19.991	4.924	0.543
936.500	546.823	79.991	19.991	99.864	19.994	4.743	0.503
937.000	547.136	79.990	19.991	99.858	19.992	4.844	0.482
937.500	547.366	79.976	19.994	99.850	19.992	4.843	0.526
938.000	547.662	79.990	19.996	99.842	19.993	4.789	0.534
938.500	547.871	79.992	19.991	99.847	19.991	4.877	0.516
939.000	548.142	79.982	19.992	99.852	19.994	4.735	0.493
939.500	548.404	79.993	19.989	99.858	19.989	4.991	0.507
940.000	548.664	79.990	19.991	99.868	19.992	4.818	0.527
940.500	548.903	79.993	19.991	99.876	19.994	4.708	0.510
941.000	549.131	79.997	19.990	99.874	19.989	5.002	0.483
941.500	549.410	79.993	19.991	99.867	19.991	4.909	0.487
942.000	549.648	79.993	19.989	99.862	19.990	4.966	0.511
942.500	549.946	80.001	19.993	99.855	19.988	5.049	0.527
943.000	550.205	79.982	19.989	99.850	19.991	4.931	0.547
943.500	550.459	79.996	19.994	99.844	19.990	4.964	0.535
944.000	550.745	79.990	19.992	99.844	19.990	4.965	0.527
944.500	550.971	79.996	19.991	99.847	19.991	4.894	0.526
945.000	551.214	79.980	19.993	99.845	19.992	4.862	0.490
945.500	551.444	80.001	19.991	99.841	19.989	5.020	0.471
946.000	551.751	79.996	19.990	99.848	19.990	4.972	0.505
946.500	552.029	79.990	19.992	99.853	19.986	5.169	0.561
947.000	552.240	79.978	19.991	99.857	19.990	4.938	0.537
947.500	552.461	79.983	19.991	99.865	19.991	4.904	0.461
948.000	552.746	79.995	19.991	99.875	19.992	4.836	0.469
948.500	552.975	79.990	19.991	99.878	19.992	4.833	0.510
949.000	553.271	79.996	19.992	99.873	19.989	5.033	0.520
949.500	553.539	79.997	19.991	99.865	19.990	4.987	0.545
950.000	553.804	79.974	19.991	99.858	19.992	4.832	0.549
950.500	554.064	79.984	19.992	99.849	19.990	4.957	0.529
951.001	554.327	79.993	19.991	99.848	19.991	4.877	0.523
951.501	554.601	79.991	19.991	99.853	19.989	5.037	0.530
952.000	554.859	79.995	19.991	99.858	19.987	5.128	0.535
952.500	555.111	79.992	19.991	99.858	19.986	5.176	0.521
953.000	555.331	79.992	19.993	99.859	19.987	5.121	0.491
953.500	555.598	79.992	19.993	99.852	19.990	4.937	0.479
954.000	555.869	79.991	19.992	99.851	19.984	5.317	0.513
954.500	556.099	79.987	19.993	99.854	19.989	5.049	0.520
955.000	556.374	79.992	19.992	99.863	19.984	5.286	0.503
955.500	556.618	79.987	19.992	99.870	19.987	5.154	0.512
956.000	556.897	79.993	19.992	99.877	19.986	5.190	0.521
956.500	557.132	79.988	19.993	99.877	19.986	5.216	0.519
957.000	557.376	79.971	19.995	99.877	19.987	5.146	0.497
957.500	557.630	79.978	19.993	99.872	19.987	5.112	0.488
958.000	557.869	79.985	19.992	99.871	19.987	5.116	0.495
958.500	558.175	79.990	19.993	99.869	19.985	5.234	0.519
959.000	558.454	79.981	19.994	99.870	19.984	5.317	0.565
959.500	558.688	79.988	19.991	99.870	19.983	5.374	0.549
960.000	558.934	79.996	19.994	99.875	19.985	5.244	0.497
960.500	559.188	79.994	19.992	99.876	19.983	5.344	0.490
961.000	559.443	80.005	19.994	99.878	19.988	5.096	0.504
961.500	559.697	80.008	19.994	99.865	19.986	5.198	0.509
962.000	559.957	80.004	19.995	99.842	19.984	5.286	0.512
962.501	560.226	80.008	19.991	99.828	19.988	5.098	0.521
963.000	560.468	79.994	19.994	99.826	19.990	4.963	0.520
963.500	560.723	80.000	19.991	99.825	19.990	4.936	0.504
964.000	561.019	79.986	19.992	99.842	19.989	5.015	0.524
964.500	561.257	79.991	19.993	99.897	19.988	5.066	0.543
965.000	561.468	79.994	19.992	99.930	19.991	4.918	0.491
965.500	561.731	79.994	19.990	99.940	19.991	4.879	0.462
966.000	561.965	79.985	19.993	99.946	19.989	5.001	0.485
966.500	562.271	79.991	19.992	99.939	19.986	5.178	0.518
967.000	562.497	79.988	19.991	99.909	19.992	4.820	0.536
967.500	562.788	79.992	19.992	99.888	19.991	4.918	0.524
968.000	562.998	79.985	19.992	99.881	19.992	4.847	0.509
968.500	563.239	79.984	19.991	99.876	19.992	4.861	0.476
969.000	563.473	79.995	19.991	99.877	19.994	4.709	0.463
969.500	563.755	79.994	19.991	99.877	19.992	4.823	0.496
970.000	563.999	79.995	19.992	99.878	19.991	4.878	0.521
970.500	564.272	79.988	19.993	99.876	19.993	4.785	0.521
971.000	564.510	79.990	19.993	99.877	19.990	4.943	0.514
971.500	564.767	79.993	19.990	99.879	19.993	4.778	0.503
972.000	565.045	79.992	19.992	99.879	19.993	4.774	0.515
972.500	565.286	79.994	19.991	99.878	19.996	4.640	0.527
973.000	565.527	79.992	19.992	99.880	19.993	4.775	0.500
973.500	565.783	79.991	19.993	99.884	19.992	4.846	0.490
974.000	566.023	79.997	19.993	99.889	19.994	4.722	0.497
974.500	566.316	79.992	19.991	99.890	19.990	4.934	0.515
975.000	566.576	79.992	19.991	99.889	19.992	4.841	0.543
975.500	566.834	79.990	19.993	99.887	19.993	4.784	0.535
976.000	567.113	79.997	19.992	99.878	19.988	5.049	0.527
976.500	567.360	79.992	19.993	99.874	19.994	4.710	0.531
977.000	567.637	79.991	19.993	99.874	19.993	4.783	0.525
977.500	567.891	79.991	19.994	99.879	19.993	4.794	0.527
978.000	568.145	79.989	19.994	99.887	19.992	4.842	0.519
978.500	568.410	79.991	19.993	99.899	19.994	4.739	0.513
979.000	568.688	79.995	19.992	99.904	19.992	4.854	0.531
979.500	568.922	79.990	19.993	99.903	19.993	4.763	0.528
980.000	569.170	79.991	19.993	99.898	19.993	4.815	0.497
980.500	569.404	79.988	19.992	99.891	19.995	4.678	0.482
981.000	569.731	79.993	19.992	99.883	19.992	4.861	0.521
981.500	569.968	79.989	19.994	99.875	19.991	4.908	0.562
982.000	570.209	79.990	19.992	99.870	19.992	4.830	0.521
982.500	570.447	79.987	19.993	99.863	19.990	4.966	0.478
983.000	570.741	79.992	19.993	99.854	19.992	4.833	0.505
983.500	571.013	79.993	19.992	99.845	19.993	4.765	0.549
984.000	571.217	79.988	19.993	99.839	19.989	5.002	0.521
984.500	571.484	79.989	19.993	99.836	19.992	4.836	0.474
985.000	571.716	79.991	19.993	99.839	19.990	4.969	0.485
985.500	572.023	79.993	19.993	99.841	19.994	4.734	0.519
986.000	572.271	79.988	19.994	99.848	19.994	4.740	0.547
986.500	572.497	79.994	19.993	99.853	19.991	4.889	0.515
987.000	572.781	79.988	19.993	99.860	19.992	4.853	0.492
987.500	573.006	79.988	19.992	99.865	19.994	4.745	0.509
988.000	573.308	79.992	19.993	99.870	19.994	4.717	0.518
988.501	573.534	79.989	19.993	99.871	19.997	4.579	0.527
989.001	573.818	79.991	19.993	99.868	19.996	4.631	0.519
989.500	574.096	79.990	19.992	99.864	19.994	4.729	0.536
990.000	574.365	79.990	19.992	99.857	19.991	4.880	0.555
990.500	574.626	79.990	19.993	99.852	19.995	4.657	0.539
991.000	574.882	79.992	19.991	99.851	19.991	4.899	0.524
991.500	575.130	79.991	19.992	99.856	19.992	4.831	0.511
992.000	575.377	79.988	19.992	99.860	19.988	5.055	0.499
992.500	575.634	79.991	19.992	99.867	19.989	5.014	0.499
993.000	575.885	79.989	19.993	99.865	19.987	5.160	0.506
993.500	576.151	79.992	19.990	99.863	19.991	4.887	0.512
994.000	576.402	79.990	19.993	99.858	19.992	4.835	0.517
994.500	576.681	79.991	19.991	99.855	19.991	4.906	0.523
995.000	576.912	79.993	19.992	99.853	19.988	5.102	0.520
995.500	577.181	79.991	19.993	99.857	19.991	4.906	0.505
996.000	577.409	79.993	19.991	99.859	19.989	5.036	0.498
996.500	577.642	79.992	19.992	99.858	19.990	4.954	0.479
997.000	577.896	79.990	19.991	99.861	19.991	4.921	0.474
997.500	578.197	79.992	19.992	99.864	19.990	4.979	0.520
998.000	578.452	79.993	19.992	99.866	19.990	4.959	0.555
998.500	578.669	79.991	19.992	99.870	19.989	5.017	0.514
999.000	578.970	79.991	19.992	99.875	19.985	5.244	0.495
999.500	579.231	79.992	19.992	99.875	19.989	5.009	0.540
1000.000	579.501	79.992	19.991	99.873	19.990	4.947	0.546
1000.500	579.737	79.990	19.992	99.868	19.991	4.921	0.518
1001.000	580.000	79.991	19.992	99.864	19.990	4.962	0.502
1001.500	580.264	79.993	19.992	99.863	19.988	5.055	0.513
1002.000	580.508	79.994	19.992	99.864	19.988	5.083	0.518
1002.500	580.777	79.990	19.993	99.866	19.988	5.093	0.511
1003.000	581.080	79.993	19.993	99.870	19.990	4.989	0.542
1003.500	581.292	79.992	19.992	99.874	19.988	5.091	0.543
1004.000	581.535	79.994	19.992	99.877	19.989	5.009	0.485
1004.500	581.820	79.992	19.993	99.882	19.989	5.027	0.491
1005.000	582.074	79.993	19.992	99.881	19.986	5.218	0.534
1005.500	582.348	79.993	19.993	99.881	19.989	5.017	0.534
1006.000	582.535	79.989	19.991	99.880	19.985	5.276	0.495
1006.500	582.794	79.993	19.992	99.877	19.985	5.237	0.453
1007.000	583.065	79.995	19.993	99.873	19.984	5.335	0.488
1007.500	583.311	79.994	19.994	99.873	19.986	5.209	0.523
1008.000	583.569	79.993	19.993	99.873	19.986	5.201	0.511
1008.500	583.848	79.992	19.992	99.875	19.985	5.226	0.521
1009.000	584.115	79.994	19.992	99.875	19.985	5.261	0.542
1009.500	584.328	79.993	19.993	99.877	19.988	5.081	0.513
1010.000	584.620	79.992	19.992	99.878	19.986	5.182	0.492
1010.500	584.856	79.993	19.993	99.878	19.985	5.237	0.517
1011.000	585.119	79.993	19.992	99.878	19.987	5.140	0.514
1011.500	585.367	79.993	19.992	99.878	19.986	5.181	0.505
1012.000	585.622	79.992	19.992	99.876	19.986	5.211	0.507
1012.500	585.891	79.991	19.992	99.876	19.986	5.218	0.514
1013.000	586.172	79.990	19.993	99.876	19.986	5.182	0.537
1013.500	586.427	79.992	19.993	99.876	19.986	5.169	0.543
1014.000	586.687	79.991	19.992	99.877	19.990	4.977	0.525
1014.500	586.916	79.992	19.991	99.877	19.988	5.095	0.502
1015.000	587.179	79.990	19.991	99.876	19.985	5.233	0.491
1015.500	587.442	79.993	19.991	99.877	19.990	4.964	0.509
1016.000	587.672	79.992	19.992	99.877	19.990	4.938	0.509
1016.500	587.973	79.992	19.991	99.877	19.984	5.298	0.512
1017.000	588.212	79.992	19.991	99.875	19.987	5.155	0.536
1017.500	588.449	79.993	19.992	99.875	19.986	5.163	0.508
1018.000	588.710	79.990	19.991	99.874	19.987	5.140	0.487
1018.500	588.998	79.994	19.990	99.871	19.987	5.138	0.524
1019.000	589.235	79.990	19.992	99.871	19.986	5.217	0.537
1019.500	589.497	79.991	19.991	99.872	19.988	5.092	0.512
1020.000	589.748	79.990	19.991	99.872	19.990	4.989	0.506
1020.500	589.991	79.991	19.991	99.872	19.985	5.226	0.503
1021.000	590.293	79.994	19.991	99.875	19.987	5.136	0.519
1021.500	590.508	79.992	19.993	99.876	19.986	5.216	0.531
1022.000	590.782	79.992	19.991	99.876	19.983	5.347	0.503
1022.500	591.069	79.992	19.992	99.876	19.986	5.172	0.525
1023.000	591.291	79.992	19.991	99.876	19.987	5.161	0.535
1023.500	591.568	79.993	19.991	99.874	19.983	5.343	0.504
1024.000	591.804	79.990	19.993	99.874	19.983	5.361	0.506
1024.500	592.120	79.993	19.992	99.870	19.981	5.466	0.532
1025.000	592.355	79.993	19.991	99.863	19.982	5.396	0.551
1025.500	592.641	79.991	19.991	99.857	19.983	5.357	0.536
1026.000	592.866	79.997	19.992	99.856	19.984	5.291	0.516
1026.500	593.125	79.993	19.991	99.854	19.983	5.360	0.498
1027.001	593.426	79.994	19.992	99.858	19.985	5.270	0.522
