Sample ID:	C:\MCC\MCC Cal\Test\Polyester_Batting_30_3.txt
Sample Weight (mg):	4.22
Heating Rate (C/s):	0.5
Combustor Temp (C):	900
N2 Flow Rate (cc/min):	80
O2 Flow Rate (cc/min):	20
Calibration File:	C:\MCC\MCC Cal\Coeff1 JN10440_30_210304.txt.txt
T Correction Coefficients:	0	1.024463	0
Time Shift (s):	14
*
Time (s)	Temperature (C)	N2 flow rate (cc/min)	O2 flow rate (cc/min)	Flow Rate (cc/min)	Oxygen (%)	HRR (W/g)	Heating rate (C/s)
0.000	111.283	79.990	19.992	99.717	20.139	0.478	-0.002
0.500	111.218	79.991	19.991	99.716	20.141	0.367	-0.009
1.000	111.236	79.992	19.993	99.715	20.140	0.424	-0.039
1.500	111.249	79.992	19.993	99.714	20.142	0.279	-0.008
2.000	111.203	79.990	19.992	99.711	20.138	0.604	-0.001
2.500	111.217	79.991	19.992	99.711	20.140	0.458	-0.032
3.000	111.210	79.992	19.992	99.713	20.140	0.462	-0.013
3.500	111.220	79.992	19.993	99.714	20.143	0.236	0.005
4.000	111.225	79.991	19.991	99.718	20.139	0.491	0.009
4.500	111.237	79.991	19.991	99.723	20.140	0.472	0.016
5.000	111.168	79.992	19.992	99.723	20.142	0.273	-0.020
5.500	111.156	79.991	19.992	99.722	20.144	0.113	-0.069
6.000	111.167	79.992	19.992	99.723	20.139	0.484	-0.041
6.500	111.168	79.992	19.992	99.720	20.141	0.327	0.006
7.000	111.130	79.992	19.991	99.719	20.144	0.155	-0.012
7.500	111.141	79.992	19.991	99.719	20.142	0.301	-0.032
8.000	111.140	79.992	19.992	99.716	20.138	0.561	-0.008
8.500	111.120	79.992	19.992	99.716	20.139	0.511	-0.005
9.000	111.066	79.993	19.992	99.716	20.139	0.509	-0.048
9.500	111.091	79.993	19.991	99.717	20.139	0.517	-0.052
10.000	111.042	79.992	19.991	99.718	20.139	0.482	-0.027
10.500	111.074	79.992	19.992	99.722	20.135	0.818	-0.020
11.000	111.080	79.992	19.991	99.726	20.135	0.804	0.011
11.500	111.100	79.994	19.990	99.727	20.137	0.676	0.032
12.000	111.054	79.994	19.991	99.727	20.137	0.640	0.000
12.500	111.100	79.995	19.991	99.728	20.136	0.747	-0.013
13.000	111.058	79.994	19.991	99.728	20.136	0.733	0.002
13.500	111.125	79.993	19.991	99.725	20.139	0.485	0.015
14.000	111.111	79.994	19.991	99.724	20.138	0.566	0.040
14.500	111.108	79.993	19.991	99.723	20.143	0.222	0.018
15.000	111.091	79.994	19.991	99.723	20.140	0.461	-0.019
15.500	111.084	79.994	19.991	99.721	20.142	0.319	-0.022
16.000	111.048	79.993	19.990	99.721	20.139	0.532	-0.034
16.500	111.085	79.993	19.992	99.720	20.136	0.764	-0.021
17.000	111.075	79.993	19.992	99.720	20.137	0.655	0.014
17.500	111.081	79.993	19.990	99.719	20.135	0.807	0.012
18.000	111.083	79.994	19.991	99.719	20.136	0.742	0.002
18.500	111.100	79.993	19.991	99.719	20.134	0.916	0.014
19.000	111.107	79.993	19.991	99.720	20.137	0.633	0.021
19.500	111.108	79.994	19.992	99.720	20.132	1.013	0.016
20.000	111.110	79.995	19.992	99.721	20.133	0.924	0.006
20.500	111.087	79.993	19.991	99.721	20.132	0.993	-0.009
21.000	111.082	79.994	19.991	99.723	20.132	1.052	-0.025
21.500	111.103	79.995	19.992	99.729	20.134	0.878	-0.005
22.000	111.057	79.994	19.991	99.736	20.131	1.092	-0.004
22.500	111.083	79.993	19.991	99.748	20.133	0.983	-0.023
23.000	111.036	79.993	19.992	99.763	20.132	1.060	-0.021
23.500	111.027	79.992	19.991	99.776	20.127	1.365	-0.039
24.001	111.066	79.994	19.992	99.785	20.132	1.044	-0.013
24.500	111.059	79.993	19.990	99.800	20.124	1.640	0.031
25.000	111.091	79.993	19.991	99.809	20.124	1.634	0.029
25.500	111.079	79.993	19.991	99.817	20.122	1.747	0.023
26.000	111.097	79.993	19.992	99.825	20.120	1.911	0.013
26.500	111.104	79.994	19.992	99.835	20.122	1.756	0.015
27.000	111.136	79.993	19.991	99.836	20.119	2.025	0.032
27.500	111.109	79.992	19.991	99.841	20.116	2.201	0.022
28.000	111.153	79.993	19.991	99.846	20.111	2.550	0.011
28.500	111.160	79.994	19.991	99.854	20.117	2.114	0.034
29.000	111.202	79.994	19.992	99.858	20.116	2.237	0.050
29.500	111.194	79.995	19.992	99.867	20.114	2.324	0.041
30.000	111.241	79.994	19.991	99.876	20.109	2.727	0.036
30.500	111.277	79.993	19.990	99.883	20.108	2.808	0.061
31.000	111.291	79.995	19.991	99.888	20.108	2.769	0.067
31.500	111.322	79.994	19.991	99.889	20.104	3.087	0.047
32.000	111.367	79.995	19.991	99.892	20.105	2.994	0.060
32.500	111.391	79.994	19.992	99.894	20.107	2.848	0.073
33.000	111.425	79.993	19.991	99.895	20.107	2.848	0.063
33.501	111.469	79.994	19.993	99.897	20.105	3.054	0.068
34.001	111.484	79.995	19.991	99.903	20.106	2.947	0.068
34.501	111.556	79.995	19.992	99.907	20.107	2.878	0.073
35.000	111.598	79.995	19.992	99.910	20.105	2.993	0.101
35.500	111.627	79.996	19.992	99.911	20.101	3.303	0.093
36.000	111.720	79.995	19.990	99.910	20.103	3.143	0.097
36.501	111.765	79.995	19.991	99.910	20.103	3.169	0.129
37.001	111.833	79.995	19.991	99.910	20.104	3.103	0.125
37.500	111.857	79.995	19.991	99.908	20.098	3.517	0.103
38.000	111.922	79.995	19.991	99.909	20.106	2.969	0.091
38.500	111.989	79.995	19.991	99.911	20.104	3.125	0.110
39.000	112.082	79.995	19.990	99.912	20.102	3.261	0.146
39.500	112.098	79.996	19.991	99.913	20.102	3.242	0.135
40.000	112.169	79.994	19.991	99.914	20.099	3.473	0.098
40.500	112.246	79.995	19.991	99.915	20.099	3.453	0.117
41.000	112.354	79.995	19.992	99.918	20.099	3.463	0.167
41.500	112.330	79.994	19.991	99.920	20.101	3.350	0.135
42.000	112.424	79.993	19.992	99.922	20.101	3.303	0.077
42.500	112.483	79.995	19.991	99.924	20.093	3.876	0.112
43.000	112.588	79.995	19.991	99.926	20.099	3.472	0.159
43.500	112.661	79.994	19.991	99.926	20.101	3.294	0.171
44.000	112.738	79.993	19.990	99.923	20.101	3.284	0.163
44.500	112.851	79.994	19.991	99.923	20.098	3.521	0.170
45.000	112.918	79.994	19.991	99.921	20.099	3.442	0.185
45.500	112.990	79.994	19.991	99.918	20.097	3.602	0.159
46.000	113.090	79.994	19.990	99.914	20.098	3.563	0.155
46.500	113.166	79.993	19.991	99.914	20.101	3.322	0.174
47.000	113.313	79.994	19.993	99.912	20.097	3.624	0.200
47.500	113.373	79.993	19.991	99.912	20.094	3.842	0.215
48.000	113.486	79.993	19.991	99.912	20.098	3.577	0.190
48.500	113.580	79.993	19.991	99.915	20.097	3.592	0.190
49.001	113.651	79.993	19.992	99.918	20.097	3.606	0.186
49.501	113.774	79.992	19.990	99.918	20.099	3.472	0.179
50.001	113.824	79.993	19.992	99.918	20.098	3.545	0.183
50.500	113.931	79.992	19.991	99.920	20.100	3.399	0.165
51.000	114.080	79.992	19.990	99.923	20.102	3.260	0.207
51.501	114.149	79.992	19.991	99.925	20.097	3.630	0.237
52.001	114.231	79.994	19.991	99.927	20.096	3.685	0.184
52.501	114.392	79.993	19.992	99.930	20.097	3.614	0.197
53.000	114.493	79.994	19.990	99.929	20.101	3.318	0.253
53.500	114.576	79.992	19.991	99.932	20.099	3.448	0.223
54.000	114.693	79.992	19.990	99.936	20.098	3.504	0.192
54.500	114.775	79.992	19.991	99.941	20.099	3.488	0.200
55.000	114.911	79.993	19.990	99.947	20.097	3.583	0.208
55.500	115.032	79.991	19.990	99.954	20.097	3.589	0.237
56.000	115.128	79.992	19.991	99.954	20.099	3.484	0.237
56.500	115.269	79.993	19.990	99.950	20.099	3.486	0.227
57.000	115.381	79.992	19.990	99.947	20.094	3.844	0.245
57.500	115.497	79.991	19.992	99.946	20.100	3.391	0.240
58.000	115.637	79.992	19.992	99.947	20.096	3.658	0.242
58.500	115.722	79.993	19.991	99.948	20.093	3.939	0.241
59.000	115.854	79.993	19.992	99.952	20.098	3.563	0.221
59.500	115.969	79.993	19.991	99.955	20.098	3.518	0.232
60.001	116.117	79.991	19.991	99.955	20.101	3.281	0.255
60.501	116.271	79.990	19.992	99.954	20.097	3.611	0.282
61.000	116.373	79.991	19.992	99.952	20.096	3.674	0.279
61.500	116.495	79.991	19.992	99.952	20.098	3.529	0.240
62.001	116.655	79.992	19.993	99.952	20.098	3.515	0.253
62.501	116.822	79.991	19.992	99.952	20.096	3.683	0.304
63.000	116.939	79.992	19.992	99.952	20.095	3.768	0.305
63.500	117.035	79.992	19.991	99.952	20.092	3.958	0.248
64.000	117.190	79.993	19.991	99.950	20.091	4.072	0.232
64.501	117.311	79.993	19.993	99.948	20.093	3.896	0.264
65.001	117.425	79.991	19.992	99.945	20.090	4.115	0.256
65.500	117.602	79.992	19.991	99.945	20.092	4.006	0.263
66.000	117.693	79.993	19.991	99.945	20.087	4.368	0.279
66.500	117.856	79.993	19.992	99.947	20.092	3.970	0.261
67.000	118.032	79.993	19.992	99.948	20.087	4.330	0.296
67.501	118.156	79.990	19.992	99.948	20.089	4.184	0.319
68.001	118.284	79.992	19.991	99.949	20.086	4.392	0.276
68.501	118.459	79.992	19.991	99.949	20.086	4.421	0.277
69.000	118.614	79.992	19.992	99.945	20.088	4.296	0.317
69.500	118.744	79.992	19.991	99.938	20.093	3.899	0.308
70.000	118.881	79.992	19.991	99.937	20.089	4.178	0.276
70.500	119.017	79.991	19.992	99.938	20.088	4.296	0.270
71.000	119.181	79.991	19.991	99.938	20.092	4.023	0.287
71.500	119.335	79.992	19.991	99.939	20.090	4.153	0.309
72.000	119.498	79.993	19.992	99.946	20.086	4.396	0.317
72.500	119.640	79.991	19.991	99.951	20.088	4.287	0.311
73.000	119.802	79.992	19.991	99.951	20.088	4.309	0.304
73.500	119.944	79.992	19.992	99.951	20.091	4.076	0.304
74.000	120.128	79.990	19.991	99.954	20.094	3.867	0.315
74.500	120.293	79.990	19.990	99.957	20.093	3.913	0.338
75.000	120.477	79.990	19.991	99.965	20.091	4.036	0.349
75.500	120.601	79.992	19.991	99.974	20.095	3.793	0.329
76.000	120.786	79.992	19.992	99.984	20.092	3.975	0.309
76.500	120.944	79.991	19.991	99.993	20.090	4.126	0.326
77.000	121.104	79.991	19.991	99.997	20.087	4.341	0.330
77.500	121.261	79.992	19.992	99.994	20.092	3.974	0.317
78.000	121.433	79.991	19.991	99.994	20.092	3.984	0.323
78.500	121.596	79.991	19.990	99.992	20.091	4.027	0.332
79.000	121.781	79.992	19.991	99.991	20.091	4.061	0.342
79.500	121.902	79.991	19.991	99.996	20.089	4.184	0.327
80.001	122.118	79.990	19.991	99.999	20.092	3.968	0.321
80.501	122.258	79.991	19.992	100.001	20.091	4.037	0.347
81.000	122.485	79.992	19.992	100.003	20.091	4.066	0.362
81.500	122.619	79.994	19.992	100.005	20.092	3.967	0.364
82.000	122.835	79.992	19.991	100.008	20.091	4.032	0.356
82.500	122.962	79.992	19.991	100.018	20.091	4.032	0.346
83.000	123.152	79.991	19.992	100.023	20.087	4.342	0.330
83.500	123.343	79.991	19.993	100.022	20.092	4.012	0.349
84.000	123.507	79.992	19.992	100.019	20.092	3.986	0.368
84.500	123.694	79.992	19.992	100.011	20.089	4.237	0.353
85.000	123.881	79.993	19.993	100.001	20.093	3.905	0.362
85.500	124.061	79.992	19.993	99.993	20.091	4.038	0.370
86.000	124.255	79.993	19.992	99.988	20.091	4.066	0.370
86.500	124.428	79.991	19.992	99.980	20.087	4.334	0.370
87.000	124.637	79.992	19.993	99.974	20.086	4.447	0.374
87.500	124.822	79.993	19.992	99.968	20.090	4.125	0.388
88.000	125.027	79.992	19.993	99.960	20.086	4.413	0.393
88.500	125.167	79.991	19.992	99.955	20.086	4.442	0.367
89.000	125.360	79.992	19.993	99.954	20.087	4.339	0.339
89.500	125.547	79.995	19.992	99.952	20.083	4.675	0.356
90.000	125.727	79.992	19.993	99.950	20.090	4.120	0.374
90.500	125.907	79.993	19.992	99.950	20.084	4.547	0.364
91.000	126.089	79.991	19.992	99.952	20.090	4.138	0.361
91.500	126.261	79.992	19.992	99.960	20.085	4.515	0.358
92.000	126.476	79.993	19.993	99.968	20.088	4.272	0.371
92.501	126.676	79.994	19.992	99.976	20.086	4.438	0.401
93.001	126.855	79.992	19.992	99.986	20.087	4.351	0.396
93.500	127.054	79.995	19.992	99.994	20.084	4.573	0.378
94.000	127.273	79.993	19.993	99.994	20.082	4.733	0.398
94.500	127.486	79.994	19.992	99.994	20.088	4.316	0.425
95.000	127.651	79.993	19.993	99.993	20.090	4.115	0.405
95.500	127.848	79.993	19.992	99.991	20.085	4.484	0.370
96.000	128.073	79.994	19.992	99.990	20.087	4.381	0.392
96.500	128.252	79.993	19.992	99.990	20.091	4.088	0.413
97.000	128.423	79.992	19.992	99.985	20.089	4.229	0.377
97.500	128.662	79.993	19.993	99.985	20.084	4.614	0.380
98.000	128.889	79.993	19.992	99.989	20.084	4.575	0.438
98.500	129.044	79.994	19.993	99.996	20.086	4.457	0.424
99.000	129.265	79.991	19.993	99.999	20.090	4.147	0.379
99.500	129.464	79.992	19.993	100.006	20.086	4.461	0.398
100.000	129.676	79.993	19.993	100.007	20.091	4.091	0.415
100.500	129.856	79.993	19.992	100.006	20.091	4.068	0.401
101.000	130.026	79.993	19.992	100.006	20.088	4.297	0.371
101.500	130.209	79.992	19.991	100.009	20.090	4.149	0.351
102.000	130.432	79.994	19.992	100.015	20.090	4.148	0.380
102.500	130.702	79.993	19.993	100.017	20.090	4.116	0.450
103.000	130.843	79.994	19.992	100.015	20.088	4.271	0.452
103.500	131.103	79.993	19.992	100.010	20.091	4.039	0.406
104.000	131.240	79.993	19.992	100.006	20.090	4.096	0.399
104.500	131.464	79.993	19.990	100.000	20.090	4.098	0.379
105.000	131.696	79.995	19.992	99.999	20.090	4.141	0.409
105.500	131.910	79.992	19.991	99.999	20.087	4.348	0.452
106.000	132.117	79.993	19.992	99.997	20.091	4.091	0.434
106.501	132.307	79.993	19.992	100.001	20.090	4.166	0.409
107.001	132.533	79.992	19.992	100.007	20.090	4.142	0.406
107.500	132.728	79.993	19.990	100.009	20.090	4.168	0.418
108.000	132.970	79.993	19.990	100.009	20.086	4.435	0.429
108.500	133.128	79.993	19.992	100.008	20.087	4.346	0.418
109.000	133.362	79.994	19.991	100.002	20.090	4.170	0.396
109.500	133.552	79.993	19.990	99.993	20.087	4.344	0.408
110.000	133.795	79.994	19.991	99.983	20.091	4.034	0.429
110.500	133.976	79.994	19.991	99.980	20.085	4.480	0.428
111.000	134.235	79.994	19.991	99.982	20.086	4.439	0.432
111.500	134.413	79.993	19.991	99.980	20.088	4.273	0.439
112.000	134.628	79.992	19.992	99.973	20.090	4.132	0.415
112.500	134.862	79.994	19.992	99.970	20.090	4.134	0.421
113.000	135.086	79.994	19.992	99.965	20.086	4.459	0.453
113.500	135.303	79.994	19.991	99.956	20.089	4.204	0.450
114.000	135.480	79.993	19.991	99.951	20.085	4.491	0.417
114.500	135.731	79.994	19.992	99.956	20.085	4.503	0.411
115.000	135.944	79.994	19.990	99.965	20.086	4.398	0.446
115.500	136.199	79.995	19.990	99.973	20.088	4.293	0.466
116.000	136.413	79.994	19.990	99.980	20.087	4.345	0.469
116.500	136.628	79.994	19.991	99.992	20.085	4.473	0.449
117.000	136.841	79.994	19.992	99.999	20.085	4.470	0.428
117.500	137.059	79.994	19.991	99.998	20.086	4.397	0.430
118.000	137.281	79.995	19.991	99.995	20.089	4.233	0.436
118.500	137.541	79.995	19.990	99.992	20.089	4.208	0.461
119.000	137.713	79.995	19.990	99.988	20.087	4.370	0.457
119.500	137.954	79.994	19.990	99.986	20.088	4.251	0.422
120.000	138.208	79.995	19.991	99.990	20.085	4.528	0.454
120.500	138.426	79.994	19.990	99.993	20.084	4.552	0.484
121.000	138.639	79.995	19.991	99.994	20.086	4.441	0.452
121.500	138.859	79.996	19.992	99.994	20.087	4.319	0.432
122.000	139.084	79.995	19.990	99.996	20.090	4.162	0.439
122.500	139.300	79.995	19.991	100.000	20.085	4.526	0.443
123.000	139.562	79.995	19.991	100.005	20.086	4.429	0.459
123.500	139.798	79.995	19.990	100.015	20.084	4.573	0.488
124.000	140.011	79.993	19.992	100.023	20.088	4.289	0.473
124.500	140.273	79.994	19.991	100.028	20.087	4.364	0.462
125.000	140.490	79.995	19.991	100.029	20.090	4.158	0.477
125.500	140.719	79.994	19.991	100.028	20.085	4.528	0.463
126.000	140.969	79.996	19.992	100.028	20.090	4.109	0.462
126.500	141.172	79.993	19.990	100.029	20.090	4.125	0.466
127.000	141.408	79.993	19.990	100.024	20.088	4.265	0.446
127.500	141.673	79.993	19.991	100.016	20.088	4.311	0.470
128.000	141.860	79.992	19.991	100.011	20.094	3.852	0.476
128.500	142.100	79.993	19.991	100.002	20.081	4.793	0.439
129.000	142.348	79.992	19.991	99.993	20.088	4.247	0.458
129.500	142.589	79.994	19.992	99.990	20.088	4.316	0.489
130.000	142.823	79.993	19.990	99.989	20.087	4.369	0.482
130.500	143.072	79.993	19.991	99.986	20.085	4.474	0.479
131.000	143.275	79.993	19.991	99.985	20.088	4.318	0.468
131.500	143.529	79.993	19.992	99.987	20.082	4.727	0.455
132.000	143.767	79.994	19.992	99.988	20.089	4.241	0.474
132.500	144.034	79.993	19.991	99.987	20.090	4.144	0.498
133.000	144.201	79.991	19.991	99.990	20.086	4.452	0.470
133.500	144.463	79.993	19.990	99.992	20.085	4.517	0.431
134.000	144.714	79.992	19.990	99.992	20.084	4.609	0.471
134.500	144.892	79.992	19.991	99.994	20.092	3.983	0.471
135.000	145.189	79.992	19.992	99.996	20.090	4.127	0.452
135.500	145.407	79.992	19.990	99.996	20.091	4.054	0.495
136.000	145.619	79.992	19.991	99.997	20.089	4.199	0.473
136.500	145.859	79.992	19.991	99.997	20.088	4.279	0.441
137.000	146.091	79.992	19.991	99.994	20.087	4.380	0.462
137.500	146.326	79.992	19.990	99.989	20.092	3.965	0.469
138.000	146.555	79.993	19.991	99.984	20.088	4.286	0.465
138.500	146.803	79.993	19.992	99.981	20.090	4.128	0.471
139.000	147.098	79.993	19.991	99.981	20.090	4.127	0.510
139.500	147.291	79.993	19.991	99.983	20.094	3.852	0.515
140.000	147.555	79.992	19.990	99.988	20.090	4.097	0.473
140.500	147.771	79.993	19.991	99.994	20.091	4.038	0.468
141.000	148.021	79.993	19.992	99.998	20.092	3.978	0.473
141.500	148.258	79.993	19.991	99.998	20.088	4.295	0.476
142.000	148.524	79.993	19.991	100.003	20.092	3.959	0.495
142.500	148.762	79.993	19.990	100.004	20.087	4.352	0.504
143.000	149.036	79.994	19.991	100.005	20.091	4.079	0.508
143.500	149.302	79.993	19.990	100.009	20.088	4.253	0.526
144.000	149.524	79.994	19.991	100.016	20.090	4.109	0.514
144.500	149.749	79.994	19.991	100.019	20.086	4.427	0.467
145.000	149.992	79.994	19.992	100.024	20.088	4.267	0.457
145.500	150.223	79.994	19.994	100.029	20.087	4.368	0.472
146.000	150.479	79.993	19.993	100.029	20.090	4.150	0.481
146.500	150.715	79.995	19.992	100.020	20.089	4.237	0.489
147.000	150.937	79.995	19.992	100.006	20.090	4.127	0.475
147.500	151.206	79.994	19.993	99.995	20.088	4.310	0.474
148.000	151.442	79.992	19.991	99.982	20.091	4.071	0.498
148.500	151.716	79.993	19.991	99.971	20.090	4.152	0.508
149.000	151.928	79.994	19.992	99.966	20.093	3.899	0.498
149.500	152.208	79.995	19.992	99.969	20.085	4.488	0.489
150.000	152.467	79.993	19.992	99.973	20.089	4.200	0.516
150.500	152.721	79.993	19.991	99.978	20.091	4.038	0.526
151.000	152.921	79.993	19.991	99.985	20.089	4.232	0.483
151.500	153.194	79.993	19.991	99.990	20.086	4.396	0.464
152.000	153.413	79.993	19.993	99.992	20.085	4.524	0.483
152.500	153.648	79.994	19.992	99.993	20.089	4.220	0.473
153.000	153.906	79.992	19.993	99.993	20.089	4.220	0.473
153.500	154.116	79.993	19.991	99.992	20.089	4.204	0.480
154.000	154.392	79.992	19.992	99.992	20.090	4.121	0.477
154.500	154.606	79.993	19.992	99.992	20.088	4.281	0.488
155.000	154.856	79.994	19.992	99.990	20.092	3.983	0.477
155.500	155.116	79.993	19.992	99.989	20.085	4.491	0.487
156.000	155.355	79.994	19.993	99.989	20.087	4.335	0.505
156.500	155.589	79.992	19.992	99.992	20.083	4.622	0.486
157.000	155.858	79.992	19.992	99.993	20.083	4.649	0.488
157.500	156.135	79.992	19.993	99.994	20.087	4.371	0.524
158.000	156.398	79.993	19.993	99.994	20.091	4.090	0.543
158.500	156.588	79.993	19.991	99.994	20.088	4.275	0.496
159.000	156.846	79.992	19.990	99.990	20.086	4.463	0.450
159.500	157.118	79.993	19.992	99.990	20.087	4.352	0.489
160.000	157.351	79.992	19.993	99.989	20.087	4.390	0.518
160.500	157.530	79.991	19.992	99.989	20.081	4.764	0.458
161.000	157.782	79.993	19.993	99.987	20.087	4.384	0.421
161.500	158.080	79.992	19.992	99.982	20.087	4.386	0.491
162.000	158.264	79.992	19.993	99.978	20.084	4.570	0.516
162.500	158.553	79.992	19.993	99.978	20.084	4.582	0.477
163.000	158.788	79.992	19.993	99.979	20.080	4.892	0.498
163.500	159.025	79.992	19.990	99.981	20.088	4.307	0.498
164.000	159.274	79.992	19.992	99.986	20.090	4.115	0.479
164.500	159.530	79.991	19.992	99.991	20.089	4.183	0.495
165.000	159.727	79.992	19.991	99.992	20.082	4.689	0.479
165.500	160.025	79.992	19.992	99.988	20.087	4.373	0.474
166.000	160.274	79.992	19.994	99.984	20.084	4.587	0.521
166.500	160.526	79.993	19.993	99.979	20.085	4.529	0.525
167.000	160.812	79.992	19.992	99.972	20.089	4.195	0.520
167.500	161.028	79.992	19.993	99.966	20.089	4.213	0.520
168.000	161.280	79.992	19.992	99.969	20.090	4.162	0.485
168.500	161.531	79.993	19.993	99.973	20.091	4.093	0.485
169.000	161.746	79.995	19.994	99.978	20.090	4.132	0.485
169.500	162.004	79.993	19.993	99.980	20.093	3.928	0.470
170.000	162.305	79.993	19.992	99.981	20.088	4.316	0.516
170.500	162.498	79.993	19.992	99.981	20.089	4.232	0.526
171.000	162.800	79.993	19.991	99.979	20.084	4.560	0.494
171.500	163.016	79.994	19.995	99.978	20.087	4.358	0.507
172.000	163.249	79.995	19.993	99.981	20.089	4.222	0.484
172.500	163.471	79.994	19.993	99.986	20.089	4.176	0.452
173.000	163.774	79.994	19.991	99.984	20.088	4.279	0.490
173.500	164.023	79.995	19.993	99.984	20.087	4.390	0.539
174.000	164.281	79.995	19.992	99.983	20.085	4.521	0.530
174.500	164.511	79.993	19.993	99.981	20.085	4.515	0.497
175.000	164.740	79.995	19.992	99.975	20.090	4.142	0.473
175.500	165.031	79.996	19.992	99.973	20.088	4.299	0.489
176.000	165.291	79.994	19.992	99.971	20.086	4.415	0.535
176.500	165.498	79.996	19.993	99.965	20.087	4.323	0.509
177.000	165.781	79.995	19.992	99.961	20.088	4.300	0.479
177.500	166.030	79.993	19.993	99.960	20.086	4.457	0.511
178.000	166.262	79.996	19.991	99.956	20.087	4.378	0.506
178.500	166.535	79.995	19.995	99.954	20.085	4.497	0.493
179.000	166.758	79.994	19.992	99.956	20.085	4.517	0.501
179.500	167.036	79.994	19.993	99.954	20.086	4.459	0.498
180.000	167.278	79.994	19.992	99.954	20.085	4.518	0.510
180.500	167.569	79.992	19.991	99.960	20.083	4.627	0.527
181.000	167.785	79.995	19.994	99.965	20.089	4.191	0.521
181.500	168.072	79.992	19.993	99.971	20.086	4.458	0.505
182.000	168.318	79.993	19.993	99.979	20.089	4.199	0.518
182.500	168.574	79.994	19.993	99.987	20.086	4.443	0.517
183.000	168.798	79.994	19.993	99.989	20.087	4.388	0.490
183.500	169.111	79.994	19.994	99.985	20.088	4.275	0.508
184.000	169.357	79.992	19.993	99.984	20.086	4.431	0.549
184.500	169.602	79.994	19.993	99.987	20.087	4.324	0.525
185.000	169.820	79.992	19.993	100.003	20.087	4.324	0.477
185.500	170.095	79.993	19.994	99.978	20.085	4.500	0.478
186.000	170.299	79.994	19.992	99.952	20.082	4.716	0.486
186.500	170.540	79.994	19.992	99.931	20.086	4.424	0.462
187.000	170.810	79.993	19.993	99.913	20.091	4.094	0.478
187.500	171.081	79.992	19.992	99.889	20.091	4.060	0.526
188.000	171.329	79.993	19.993	99.914	20.089	4.227	0.530
188.501	171.553	79.991	19.992	99.981	20.089	4.172	0.496
189.000	171.834	79.992	19.993	100.038	20.092	3.996	0.488
189.500	172.099	79.992	19.991	100.060	20.091	4.038	0.525
190.000	172.330	79.993	19.992	100.066	20.093	3.894	0.521
190.500	172.551	79.995	19.992	100.066	20.086	4.406	0.475
191.000	172.844	79.994	19.992	100.025	20.089	4.171	0.483
191.500	173.137	79.992	19.991	99.984	20.092	3.954	0.549
192.000	173.371	79.994	19.992	99.971	20.093	3.903	0.556
192.500	173.649	79.993	19.991	99.972	20.092	3.990	0.519
193.000	173.863	79.994	19.991	99.974	20.087	4.360	0.502
193.500	174.104	79.994	19.991	99.979	20.090	4.119	0.474
194.000	174.318	79.994	19.993	99.986	20.088	4.269	0.456
194.500	174.612	79.994	19.990	99.990	20.088	4.255	0.482
195.000	174.854	79.996	19.991	99.991	20.092	4.011	0.522
195.500	175.103	79.996	19.990	99.991	20.094	3.871	0.513
196.000	175.349	79.995	19.992	99.997	20.091	4.049	0.493
196.500	175.620	79.994	19.990	100.006	20.091	4.089	0.506
197.000	175.845	79.996	19.990	100.016	20.092	3.978	0.507
197.500	176.115	79.995	19.991	100.024	20.092	3.970	0.496
198.000	176.384	79.994	19.992	100.026	20.087	4.324	0.517
198.500	176.621	79.996	19.991	100.021	20.088	4.306	0.523
199.000	176.920	79.996	19.990	100.008	20.083	4.623	0.521
199.500	177.143	79.996	19.991	100.000	20.089	4.176	0.529
200.000	177.427	79.995	19.991	99.991	20.091	4.028	0.515
200.500	177.685	79.995	19.990	99.983	20.085	4.480	0.524
201.000	177.896	79.997	19.992	99.977	20.086	4.405	0.505
201.500	178.178	79.996	19.991	99.973	20.086	4.454	0.481
202.000	178.408	79.995	19.989	99.962	20.090	4.169	0.502
202.500	178.701	79.995	19.991	99.949	20.088	4.264	0.517
203.000	178.935	79.996	19.990	99.944	20.090	4.098	0.525
203.500	179.155	79.994	19.991	99.941	20.085	4.521	0.491
204.000	179.471	79.997	19.991	99.941	20.089	4.187	0.495
204.500	179.640	79.995	19.990	99.945	20.085	4.527	0.511
205.000	179.947	79.996	19.991	99.952	20.084	4.578	0.481
205.500	180.175	79.994	19.990	99.955	20.084	4.612	0.505
206.000	180.463	79.997	19.991	99.957	20.086	4.450	0.525
206.500	180.724	79.996	19.990	99.957	20.089	4.241	0.533
207.001	180.948	79.994	19.990	99.957	20.089	4.227	0.517
207.501	181.156	79.997	19.991	99.956	20.091	4.031	0.458
208.000	181.426	79.995	19.990	99.957	20.091	4.029	0.455
208.500	181.691	79.994	19.991	99.955	20.090	4.148	0.507
209.000	181.922	79.994	19.991	99.953	20.091	4.060	0.516
209.500	182.231	79.994	19.990	99.949	20.087	4.335	0.518
210.000	182.379	79.994	19.992	99.949	20.091	4.065	0.498
210.500	182.643	79.993	19.991	99.948	20.090	4.110	0.434
211.000	182.935	79.995	19.991	99.948	20.093	3.912	0.484
211.500	183.168	79.993	19.991	99.950	20.093	3.925	0.541
212.000	183.411	79.993	19.992	99.955	20.094	3.840	0.501
212.500	183.648	79.994	19.992	99.956	20.087	4.318	0.478
213.000	183.911	79.993	19.992	99.961	20.092	4.016	0.490
213.500	184.175	79.994	19.994	99.962	20.087	4.318	0.513
214.000	184.392	79.993	19.993	99.967	20.086	4.405	0.504
214.500	184.707	79.994	19.992	99.970	20.086	4.405	0.506
215.001	184.906	79.994	19.991	99.970	20.089	4.235	0.523
215.500	185.171	79.993	19.991	99.967	20.090	4.095	0.489
216.000	185.423	79.993	19.992	99.967	20.093	3.899	0.491
216.500	185.691	79.993	19.994	99.964	20.093	3.879	0.518
217.000	185.963	79.992	19.991	99.960	20.089	4.235	0.530
217.500	186.205	79.992	19.993	99.959	20.093	3.891	0.527
218.000	186.508	79.993	19.991	99.960	20.089	4.205	0.529
218.500	186.685	79.992	19.991	99.961	20.096	3.707	0.513
219.000	186.933	79.995	19.992	99.962	20.093	3.945	0.453
219.500	187.228	79.992	19.991	99.963	20.092	4.016	0.484
220.000	187.465	79.994	19.989	99.969	20.087	4.354	0.537
220.500	187.712	79.994	19.992	99.965	20.088	4.251	0.508
221.000	187.948	79.994	19.992	99.962	20.090	4.129	0.484
221.500	188.212	79.994	19.991	99.960	20.090	4.119	0.491
222.000	188.478	79.993	19.991	99.959	20.092	4.016	0.515
222.500	188.702	79.993	19.991	99.953	20.093	3.885	0.510
223.000	188.950	79.993	19.991	99.952	20.092	3.986	0.481
223.500	189.208	79.993	19.989	99.952	20.091	4.033	0.489
224.000	189.526	79.993	19.990	99.952	20.090	4.161	0.541
224.500	189.738	79.992	19.992	99.952	20.091	4.034	0.553
225.000	189.976	79.994	19.994	99.952	20.085	4.506	0.490
225.500	190.238	79.994	19.991	99.953	20.087	4.374	0.475
226.000	190.503	79.993	19.994	99.953	20.089	4.188	0.513
226.500	190.719	79.992	19.990	99.954	20.089	4.190	0.504
227.000	190.999	79.993	19.993	99.953	20.089	4.212	0.489
227.500	191.225	79.993	19.991	99.953	20.093	3.917	0.501
228.001	191.447	79.992	19.990	99.953	20.092	3.995	0.477
228.501	191.693	79.993	19.991	99.953	20.092	3.987	0.458
229.000	191.931	79.993	19.990	99.950	20.093	3.918	0.476
229.500	192.234	79.993	19.991	99.950	20.089	4.213	0.512
230.000	192.485	79.993	19.992	99.946	20.087	4.344	0.547
230.500	192.729	79.994	19.992	99.940	20.088	4.310	0.525
231.000	192.993	79.992	19.990	99.935	20.091	4.041	0.501
231.500	193.184	79.994	19.992	99.937	20.093	3.901	0.481
232.000	193.447	79.994	19.993	99.936	20.092	3.976	0.455
232.500	193.694	79.992	19.990	99.938	20.092	3.962	0.482
233.000	193.969	79.993	19.991	99.944	20.087	4.324	0.517
233.500	194.197	79.991	19.991	99.952	20.090	4.166	0.513
234.000	194.435	79.993	19.990	99.960	20.095	3.741	0.484
234.500	194.651	79.992	19.991	99.969	20.092	3.984	0.460
235.000	194.917	79.993	19.993	99.978	20.085	4.492	0.468
235.500	195.175	79.993	19.991	99.985	20.093	3.887	0.503
236.000	195.439	79.994	19.991	99.988	20.090	4.114	0.523
236.500	195.663	79.992	19.991	99.991	20.092	3.977	0.505
237.000	195.919	79.993	19.992	99.991	20.090	4.098	0.484
237.500	196.180	79.993	19.990	99.992	20.090	4.159	0.499
238.000	196.421	79.993	19.992	99.993	20.096	3.699	0.510
238.500	196.652	79.992	19.992	99.989	20.093	3.934	0.487
239.000	196.856	79.993	19.990	99.981	20.093	3.893	0.453
239.500	197.125	79.994	19.991	99.973	20.092	3.978	0.454
240.000	197.402	79.994	19.991	99.964	20.094	3.859	0.510
240.500	197.651	79.992	19.994	99.955	20.095	3.762	0.536
241.000	197.927	79.991	19.992	99.949	20.091	4.094	0.525
241.500	198.128	79.992	19.991	99.947	20.094	3.865	0.500
242.000	198.427	79.991	19.994	99.947	20.091	4.049	0.488
242.500	198.669	79.990	19.993	99.947	20.096	3.683	0.521
243.000	198.884	79.992	19.994	99.950	20.097	3.620	0.499
243.500	199.129	79.992	19.993	99.953	20.094	3.812	0.458
244.000	199.388	79.991	19.993	99.950	20.095	3.772	0.482
244.500	199.645	79.992	19.992	99.949	20.095	3.792	0.510
245.000	199.865	79.990	19.993	99.949	20.098	3.572	0.496
245.500	200.118	79.992	19.993	99.948	20.093	3.892	0.475
246.000	200.382	79.992	19.992	99.948	20.096	3.711	0.495
246.501	200.620	79.992	19.993	99.954	20.095	3.799	0.510
247.000	200.873	79.990	19.993	99.963	20.094	3.829	0.497
247.500	201.070	79.993	19.992	99.968	20.097	3.651	0.471
248.000	201.373	79.991	19.994	99.969	20.092	4.007	0.475
248.500	201.585	79.991	19.991	99.969	20.099	3.474	0.508
249.000	201.843	79.993	19.994	99.968	20.093	3.889	0.493
249.500	202.114	79.993	19.992	99.961	20.089	4.199	0.500
250.000	202.361	79.992	19.993	99.955	20.091	4.069	0.524
250.500	202.583	79.992	19.992	99.955	20.093	3.916	0.493
251.000	202.835	79.992	19.991	99.956	20.089	4.171	0.471
251.500	203.059	79.993	19.993	99.956	20.092	3.966	0.475
252.000	203.357	79.992	19.993	99.956	20.089	4.225	0.499
252.500	203.574	79.993	19.995	99.956	20.092	3.966	0.519
253.000	203.829	79.991	19.992	99.956	20.089	4.207	0.494
253.500	204.102	79.992	19.993	99.955	20.094	3.831	0.500
254.000	204.332	79.994	19.992	99.955	20.090	4.160	0.515
254.500	204.643	79.996	19.991	99.958	20.091	4.051	0.522
255.000	204.867	79.994	19.991	99.958	20.091	4.057	0.538
255.500	205.089	79.994	19.993	99.959	20.090	4.162	0.490
256.000	205.331	79.995	19.991	99.964	20.093	3.909	0.455
256.500	205.585	79.994	19.991	99.968	20.093	3.907	0.480
257.000	205.853	79.995	19.993	99.966	20.090	4.108	0.509
257.500	206.104	79.994	19.993	99.968	20.090	4.100	0.520
258.000	206.348	79.995	19.992	99.969	20.093	3.895	0.507
258.500	206.609	79.994	19.991	99.964	20.088	4.284	0.500
259.000	206.886	79.994	19.990	99.959	20.089	4.223	0.522
259.500	207.085	79.995	19.990	99.959	20.089	4.172	0.507
260.000	207.361	79.995	19.990	99.959	20.092	3.998	0.476
260.500	207.638	79.993	19.993	99.957	20.091	4.088	0.514
261.000	207.834	79.996	19.993	99.958	20.088	4.308	0.512
261.500	208.111	79.994	19.992	99.958	20.090	4.136	0.473
262.000	208.356	79.995	19.991	99.962	20.089	4.201	0.498
262.500	208.607	79.993	19.992	99.965	20.091	4.033	0.509
263.000	208.867	79.996	19.992	99.967	20.089	4.178	0.503
263.500	209.068	79.993	19.992	99.967	20.092	3.996	0.486
264.000	209.326	79.993	19.993	99.969	20.093	3.885	0.460
264.500	209.552	79.992	19.991	99.966	20.095	3.743	0.472
265.000	209.777	79.992	19.991	99.960	20.086	4.421	0.467
265.500	210.088	79.993	19.992	99.959	20.094	3.832	0.493
266.000	210.309	79.991	19.991	99.958	20.094	3.826	0.534
266.500	210.542	79.992	19.992	99.957	20.088	4.259	0.493
267.000	210.796	79.993	19.990	99.957	20.097	3.606	0.470
267.500	211.015	79.993	19.990	99.957	20.095	3.768	0.480
268.000	211.285	79.990	19.992	99.958	20.091	4.029	0.481
268.500	211.540	79.994	19.991	99.958	20.097	3.606	0.507
269.000	211.758	79.993	19.993	99.956	20.099	3.498	0.499
269.500	212.004	79.992	19.992	99.953	20.097	3.614	0.468
270.000	212.270	79.993	19.991	99.953	20.096	3.658	0.488
270.500	212.478	79.993	19.990	99.954	20.100	3.417	0.493
271.000	212.768	79.992	19.992	99.957	20.098	3.561	0.486
271.500	213.001	79.992	19.991	99.958	20.100	3.425	0.511
272.000	213.268	79.991	19.991	99.959	20.092	4.000	0.512
272.500	213.516	79.992	19.992	99.960	20.096	3.680	0.507
273.000	213.718	79.992	19.993	99.958	20.099	3.484	0.482
273.500	214.003	79.994	19.994	99.949	20.096	3.658	0.468
274.000	214.232	79.994	19.991	99.948	20.097	3.585	0.501
274.500	214.478	79.994	19.994	99.947	20.097	3.620	0.494
275.000	214.720	79.992	19.993	99.946	20.093	3.899	0.482
275.500	214.967	79.994	19.992	99.945	20.099	3.492	0.489
276.000	215.197	79.995	19.992	99.950	20.095	3.737	0.483
276.500	215.453	79.996	19.992	99.950	20.091	4.041	0.481
277.000	215.708	79.994	19.991	99.951	20.096	3.705	0.498
277.500	215.925	79.993	19.994	99.952	20.096	3.674	0.491
278.000	216.174	79.996	19.991	99.952	20.096	3.713	0.469
278.500	216.426	79.995	19.992	99.952	20.094	3.818	0.483
279.000	216.714	79.994	19.991	99.952	20.095	3.749	0.520
279.500	216.948	79.993	19.991	99.951	20.094	3.856	0.531
280.000	217.204	79.994	19.992	99.950	20.093	3.881	0.506
280.500	217.463	79.994	19.990	99.949	20.094	3.852	0.503
281.000	217.698	79.996	19.992	99.947	20.093	3.923	0.505
281.500	217.942	79.995	19.992	99.943	20.090	4.095	0.487
282.000	218.182	79.995	19.991	99.944	20.090	4.114	0.481
282.500	218.489	79.994	19.991	99.944	20.098	3.533	0.516
283.000	218.704	79.997	19.992	99.946	20.093	3.909	0.535
283.500	218.945	79.994	19.990	99.949	20.093	3.901	0.489
284.000	219.200	79.995	19.990	99.952	20.096	3.685	0.476
284.500	219.459	79.996	19.989	99.952	20.095	3.731	0.505
285.000	219.686	79.996	19.994	99.953	20.089	4.237	0.499
285.500	219.933	79.998	19.991	99.950	20.092	3.947	0.480
286.000	220.183	79.996	19.990	99.950	20.093	3.911	0.486
286.500	220.418	79.997	19.990	99.950	20.094	3.840	0.491
287.000	220.672	79.995	19.990	99.950	20.095	3.743	0.487
287.500	220.909	79.997	19.990	99.951	20.093	3.919	0.490
288.000	221.174	79.995	19.990	99.951	20.094	3.838	0.497
288.500	221.391	79.995	19.992	99.951	20.092	3.984	0.492
289.000	221.663	79.996	19.990	99.949	20.093	3.911	0.485
289.500	221.896	79.996	19.992	99.949	20.092	3.984	0.497
290.000	222.145	79.995	19.991	99.948	20.090	4.134	0.494
290.500	222.384	79.996	19.991	99.948	20.094	3.842	0.485
291.000	222.628	79.994	19.992	99.948	20.091	4.073	0.486
291.500	222.864	79.995	19.992	99.950	20.093	3.887	0.481
292.000	223.128	79.995	19.990	99.950	20.094	3.822	0.489
292.500	223.375	79.994	19.991	99.950	20.089	4.206	0.506
293.000	223.613	79.993	19.992	99.950	20.090	4.097	0.498
293.500	223.860	79.994	19.991	99.951	20.090	4.162	0.485
294.000	224.112	79.993	19.991	99.951	20.095	3.794	0.492
294.500	224.319	79.994	19.992	99.950	20.092	3.992	0.479
295.000	224.589	79.994	19.992	99.949	20.093	3.944	0.468
295.500	224.828	79.992	19.991	99.949	20.095	3.790	0.493
296.000	225.060	79.994	19.991	99.948	20.093	3.907	0.490
296.500	225.316	79.993	19.992	99.948	20.089	4.180	0.480
297.000	225.587	79.995	19.993	99.949	20.089	4.172	0.508
297.500	225.823	79.993	19.990	99.950	20.097	3.622	0.517
298.000	226.058	79.993	19.991	99.950	20.090	4.130	0.489
298.500	226.312	79.992	19.989	99.951	20.097	3.642	0.480
299.000	226.543	79.993	19.992	99.951	20.091	4.039	0.487
299.500	226.796	79.992	19.991	99.951	20.090	4.096	0.484
300.000	227.045	79.994	19.990	99.950	20.095	3.764	0.493
300.500	227.306	79.993	19.993	99.950	20.091	4.063	0.506
301.000	227.551	79.992	19.991	99.950	20.094	3.863	0.508
301.500	227.805	79.993	19.992	99.949	20.095	3.790	0.503
302.000	228.025	79.991	19.991	99.948	20.096	3.675	0.486
302.500	228.316	79.992	19.994	99.948	20.093	3.929	0.492
303.000	228.549	79.993	19.992	99.948	20.096	3.715	0.517
303.500	228.794	79.993	19.992	99.947	20.092	4.004	0.501
304.000	229.051	79.993	19.990	99.948	20.093	3.921	0.490
304.500	229.274	79.993	19.992	99.951	20.093	3.942	0.491
305.000	229.554	79.994	19.992	99.953	20.087	4.332	0.491
305.500	229.817	79.994	19.992	99.954	20.089	4.190	0.523
306.000	230.084	79.992	19.990	99.955	20.095	3.729	0.536
306.500	230.314	79.993	19.991	99.955	20.098	3.506	0.513
307.000	230.538	79.994	19.990	99.952	20.099	3.440	0.475
307.500	230.804	79.992	19.991	99.951	20.100	3.359	0.472
308.000	231.062	79.994	19.995	99.951	20.099	3.444	0.507
308.500	231.322	79.989	19.992	99.952	20.094	3.858	0.521
309.000	231.501	79.993	19.991	99.952	20.094	3.846	0.478
309.500	231.779	79.994	19.992	99.955	20.095	3.755	0.448
310.000	232.059	79.993	19.992	99.956	20.103	3.150	0.508
310.500	232.307	79.994	19.990	99.956	20.098	3.521	0.543
311.000	232.525	79.993	19.991	99.956	20.095	3.794	0.496
311.500	232.790	79.994	19.993	99.955	20.098	3.511	0.474
312.000	233.074	79.993	19.991	99.952	20.101	3.351	0.516
312.500	233.320	79.993	19.993	99.952	20.100	3.384	0.540
313.000	233.585	79.993	19.992	99.952	20.095	3.783	0.521
313.500	233.796	79.992	19.990	99.951	20.100	3.363	0.494
314.000	234.073	79.993	19.991	99.952	20.096	3.667	0.482
314.500	234.320	79.993	19.990	99.952	20.095	3.770	0.506
315.000	234.580	79.995	19.993	99.953	20.094	3.819	0.516
315.500	234.834	79.995	19.990	99.953	20.094	3.841	0.511
316.000	235.081	79.993	19.989	99.953	20.095	3.793	0.507
316.500	235.321	79.992	19.991	99.951	20.103	3.189	0.493
317.000	235.592	79.994	19.990	99.950	20.098	3.553	0.499
317.500	235.796	79.993	19.992	99.948	20.094	3.864	0.493
318.000	236.107	79.993	19.993	99.945	20.096	3.707	0.495
318.500	236.320	79.994	19.992	99.943	20.097	3.581	0.520
319.000	236.622	79.994	19.991	99.945	20.095	3.730	0.520
319.500	236.874	79.994	19.991	99.947	20.093	3.880	0.534
320.000	237.096	79.993	19.991	99.948	20.090	4.110	0.514
320.500	237.347	79.995	19.990	99.951	20.094	3.849	0.474
321.000	237.609	79.994	19.992	99.953	20.096	3.710	0.493
321.500	237.875	79.993	19.990	99.954	20.095	3.781	0.520
322.000	238.137	79.993	19.990	99.955	20.105	3.022	0.528
322.500	238.357	79.993	19.992	99.960	20.096	3.688	0.505
323.000	238.639	79.991	19.989	99.967	20.095	3.795	0.493
323.500	238.896	79.993	19.989	99.975	20.101	3.289	0.521
324.000	239.137	79.992	19.992	99.990	20.095	3.764	0.518
324.500	239.392	79.994	19.992	100.005	20.098	3.507	0.497
325.000	239.616	79.990	19.993	100.014	20.101	3.283	0.488
325.500	239.874	79.993	19.993	100.021	20.102	3.234	0.481
326.000	240.136	79.993	19.992	100.027	20.101	3.344	0.501
326.500	240.389	79.993	19.991	100.027	20.101	3.309	0.517
327.000	240.626	79.993	19.990	100.025	20.102	3.242	0.503
327.500	240.839	79.992	19.990	100.020	20.100	3.421	0.470
328.000	241.117	79.993	19.991	100.008	20.098	3.546	0.470
328.500	241.356	79.992	19.992	99.991	20.100	3.401	0.504
329.000	241.587	79.991	19.990	99.968	20.098	3.551	0.494
329.500	241.802	79.992	19.993	99.946	20.097	3.638	0.458
330.000	242.101	79.993	19.991	99.930	20.094	3.808	0.480
330.500	242.381	79.993	19.992	99.920	20.095	3.796	0.547
331.000	242.596	79.993	19.991	99.916	20.098	3.533	0.537
331.500	242.807	79.994	19.990	99.916	20.097	3.617	0.460
332.000	243.090	79.992	19.991	99.918	20.101	3.338	0.461
332.500	243.299	79.993	19.992	99.920	20.099	3.502	0.493
333.000	243.545	79.992	19.992	99.923	20.104	3.065	0.473
333.500	243.819	79.992	19.990	99.923	20.099	3.462	0.487
334.000	244.002	79.992	19.992	99.921	20.096	3.668	0.488
334.500	244.269	79.993	19.991	99.920	20.094	3.804	0.453
335.000	244.503	79.993	19.990	99.919	20.097	3.618	0.475
335.500	244.748	79.993	19.992	99.916	20.098	3.520	0.490
336.000	245.051	79.995	19.993	99.915	20.094	3.806	0.513
336.500	245.271	79.992	19.991	99.918	20.090	4.109	0.535
337.000	245.526	79.992	19.992	99.918	20.095	3.727	0.499
337.500	245.757	79.995	19.992	99.918	20.095	3.792	0.481
338.000	246.004	79.993	19.991	99.920	20.096	3.709	0.482
338.500	246.241	79.995	19.991	99.926	20.094	3.832	0.481
339.000	246.485	79.993	19.991	99.931	20.097	3.646	0.482
339.500	246.761	79.994	19.992	99.938	20.102	3.253	0.500
340.000	246.991	79.996	19.992	99.946	20.099	3.478	0.513
340.500	247.250	79.995	19.992	99.949	20.100	3.423	0.497
341.000	247.466	79.994	19.995	99.947	20.094	3.826	0.482
341.500	247.741	79.996	19.991	99.942	20.096	3.692	0.483
342.000	247.976	79.996	19.991	99.942	20.090	4.135	0.501
342.500	248.236	79.996	19.993	99.942	20.097	3.637	0.503
343.000	248.472	79.996	19.993	99.944	20.095	3.735	0.495
343.500	248.707	79.995	19.991	99.945	20.096	3.688	0.483
344.000	248.957	79.993	19.990	99.951	20.096	3.688	0.478
344.500	249.228	79.993	19.991	99.951	20.094	3.800	0.503
345.000	249.420	79.997	19.992	99.950	20.098	3.511	0.492
345.500	249.761	79.994	19.992	99.949	20.099	3.450	0.498
346.000	249.964	79.995	19.994	99.944	20.105	3.033	0.538
346.500	250.244	79.996	19.993	99.942	20.104	3.128	0.513
347.000	250.476	79.995	19.992	99.942	20.099	3.431	0.498
347.500	250.739	79.994	19.992	99.943	20.095	3.733	0.503
348.000	250.998	79.994	19.992	99.944	20.102	3.276	0.508
348.500	251.228	79.993	19.989	99.949	20.097	3.618	0.506
349.000	251.486	79.994	19.993	99.947	20.098	3.565	0.489
349.500	251.779	79.993	19.992	99.947	20.096	3.656	0.519
350.000	252.012	79.993	19.992	99.946	20.094	3.840	0.538
350.500	252.189	79.994	19.992	99.946	20.096	3.717	0.468
351.000	252.415	79.994	19.992	99.941	20.101	3.347	0.406
351.500	252.662	79.993	19.992	99.941	20.095	3.737	0.438
352.000	252.948	79.994	19.992	99.936	20.097	3.587	0.503
352.500	253.182	79.993	19.992	99.934	20.099	3.498	0.527
353.000	253.453	79.995	19.991	99.929	20.093	3.919	0.513
353.500	253.741	79.993	19.991	99.932	20.095	3.767	0.532
354.000	254.028	79.993	19.991	99.937	20.097	3.638	0.567
354.500	254.195	79.994	19.993	99.941	20.096	3.666	0.514
355.000	254.425	79.993	19.991	99.944	20.096	3.672	0.425
355.500	254.665	79.996	19.992	99.948	20.096	3.725	0.433
356.000	254.919	79.994	19.991	99.950	20.099	3.448	0.482
356.500	255.207	79.995	19.993	99.949	20.098	3.506	0.518
357.000	255.436	79.993	19.992	99.949	20.095	3.798	0.530
357.500	255.665	79.993	19.991	99.948	20.095	3.796	0.488
358.000	255.927	79.994	19.992	99.945	20.098	3.527	0.475
358.500	256.163	79.994	19.994	99.945	20.100	3.417	0.494
359.000	256.442	79.994	19.993	99.945	20.099	3.462	0.506
359.500	256.690	79.994	19.993	99.945	20.098	3.571	0.521
360.000	256.961	79.995	19.992	99.946	20.092	3.978	0.523
360.500	257.220	79.994	19.994	99.949	20.096	3.706	0.525
361.000	257.435	79.995	19.991	99.949	20.097	3.615	0.502
361.500	257.695	79.994	19.992	99.949	20.100	3.419	0.475
362.000	257.928	79.996	19.994	99.949	20.098	3.504	0.484
362.500	258.195	79.995	19.993	99.949	20.100	3.425	0.496
363.000	258.446	79.995	19.994	99.949	20.096	3.709	0.509
363.500	258.696	79.995	19.995	99.949	20.092	3.972	0.510
364.000	258.941	79.994	19.993	99.947	20.097	3.583	0.498
364.500	259.174	79.996	19.992	99.946	20.093	3.917	0.487
365.000	259.421	79.995	19.993	99.945	20.095	3.751	0.479
365.500	259.660	79.995	19.992	99.946	20.099	3.463	0.483
366.000	259.942	79.994	19.989	99.945	20.097	3.615	0.503
366.500	260.160	79.994	19.993	99.946	20.097	3.597	0.511
367.000	260.421	79.996	19.992	99.948	20.099	3.453	0.490
367.500	260.639	79.995	19.992	99.949	20.096	3.700	0.479
368.000	260.945	79.994	19.993	99.948	20.099	3.435	0.502
368.500	261.147	79.993	19.992	99.948	20.099	3.442	0.516
369.000	261.426	79.995	19.993	99.948	20.100	3.359	0.495
369.500	261.677	79.995	19.990	99.948	20.100	3.357	0.505
370.000	261.911	79.994	19.990	99.947	20.096	3.654	0.507
370.500	262.158	79.995	19.993	99.947	20.099	3.435	0.483
371.000	262.382	79.994	19.992	99.944	20.095	3.790	0.476
371.500	262.659	79.995	19.992	99.939	20.098	3.525	0.486
372.000	262.903	79.994	19.991	99.939	20.098	3.551	0.511
372.500	263.156	79.995	19.992	99.939	20.099	3.499	0.509
373.000	263.435	79.994	19.992	99.939	20.102	3.230	0.515
373.500	263.656	79.995	19.990	99.942	20.096	3.726	0.516
374.001	263.883	79.993	19.990	99.948	20.099	3.477	0.474
374.501	264.118	79.993	19.992	99.949	20.104	3.132	0.455
375.001	264.420	79.993	19.991	99.947	20.098	3.557	0.499
375.500	264.643	79.994	19.991	99.941	20.100	3.411	0.531
376.000	264.873	79.995	19.991	99.934	20.097	3.621	0.489
376.500	265.133	79.995	19.991	99.934	20.099	3.445	0.471
377.000	265.355	79.995	19.991	99.934	20.103	3.186	0.486
377.500	265.613	79.994	19.991	99.933	20.097	3.625	0.481
378.000	265.871	79.992	19.990	99.936	20.097	3.641	0.498
378.500	266.110	79.995	19.990	99.942	20.102	3.236	0.507
379.000	266.361	79.994	19.993	99.943	20.098	3.572	0.494
379.500	266.629	79.994	19.992	99.944	20.097	3.611	0.505
380.000	266.890	79.992	19.990	99.949	20.096	3.674	0.524
380.500	267.142	79.994	19.990	99.949	20.098	3.553	0.521
381.000	267.365	79.994	19.992	99.943	20.095	3.781	0.494
381.500	267.662	79.994	19.991	99.943	20.096	3.700	0.497
382.000	267.917	79.992	19.991	99.947	20.101	3.322	0.536
382.501	268.137	79.993	19.994	99.952	20.099	3.435	0.513
383.000	268.397	79.994	19.992	99.963	20.102	3.223	0.478
383.500	268.657	79.993	19.992	99.975	20.103	3.207	0.500
384.000	268.896	79.992	19.992	99.977	20.096	3.664	0.510
384.500	269.119	79.993	19.993	99.973	20.097	3.629	0.481
385.000	269.383	79.992	19.991	99.969	20.101	3.289	0.474
385.500	269.688	79.993	19.992	99.958	20.098	3.542	0.528
386.000	269.936	79.993	19.991	99.951	20.097	3.591	0.561
386.500	270.206	79.993	19.992	99.941	20.099	3.441	0.535
387.000	270.436	79.995	19.990	99.935	20.103	3.198	0.509
387.500	270.712	79.994	19.990	99.927	20.103	3.206	0.503
388.000	271.011	79.993	19.992	99.922	20.102	3.225	0.541
388.500	271.212	79.994	19.992	99.917	20.098	3.569	0.537
389.000	271.497	79.992	19.991	99.918	20.106	2.964	0.493
389.500	271.713	79.994	19.993	99.922	20.100	3.356	0.494
390.000	271.957	79.994	19.991	99.927	20.103	3.201	0.481
390.500	272.197	79.994	19.991	99.931	20.098	3.531	0.472
391.001	272.474	79.991	19.991	99.938	20.099	3.446	0.500
391.500	272.714	79.994	19.994	99.942	20.105	2.990	0.517
392.000	272.955	79.992	19.994	99.940	20.097	3.585	0.499
392.500	273.219	79.993	19.992	99.940	20.098	3.530	0.493
393.000	273.462	79.992	19.991	99.939	20.103	3.184	0.506
393.500	273.705	79.992	19.991	99.937	20.101	3.289	0.497
394.000	273.942	79.993	19.992	99.939	20.103	3.160	0.483
394.500	274.183	79.992	19.993	99.943	20.098	3.504	0.479
395.000	274.480	79.993	19.991	99.940	20.105	3.055	0.508
395.500	274.704	79.993	19.994	99.938	20.102	3.233	0.530
396.000	274.978	79.991	19.994	99.934	20.098	3.526	0.510
396.500	275.209	79.993	19.991	99.926	20.103	3.192	0.501
397.000	275.497	79.993	19.993	99.924	20.104	3.087	0.512
397.500	275.727	79.993	19.991	99.926	20.101	3.321	0.519
398.000	275.998	79.993	19.991	99.927	20.098	3.509	0.510
398.500	276.242	79.992	19.990	99.930	20.100	3.380	0.508
399.000	276.513	79.994	19.991	99.934	20.100	3.364	0.515
399.500	276.733	79.992	19.991	99.935	20.108	2.773	0.502
400.000	276.965	79.992	19.991	99.937	20.100	3.419	0.471
400.500	277.266	79.991	19.991	99.942	20.105	3.057	0.493
401.000	277.553	79.994	19.991	99.946	20.104	3.110	0.561
401.500	277.782	79.990	19.991	99.945	20.102	3.264	0.552
402.000	278.029	79.994	19.993	99.943	20.101	3.318	0.496
402.500	278.287	79.991	19.991	99.940	20.102	3.225	0.491
403.000	278.501	79.993	19.992	99.937	20.100	3.418	0.488
403.500	278.783	79.993	19.991	99.931	20.097	3.608	0.484
404.000	279.057	79.993	19.991	99.927	20.094	3.832	0.526
404.500	279.275	79.991	19.990	99.926	20.098	3.559	0.524
405.000	279.548	79.994	19.989	99.930	20.098	3.511	0.492
405.500	279.766	79.993	19.992	99.932	20.103	3.199	0.491
406.000	280.014	79.992	19.990	99.934	20.096	3.681	0.479
406.500	280.301	79.991	19.991	99.934	20.097	3.640	0.500
407.000	280.581	79.993	19.993	99.930	20.101	3.349	0.551
407.500	280.821	79.992	19.992	99.923	20.097	3.594	0.544
408.000	281.074	79.992	19.991	99.922	20.098	3.571	0.506
408.500	281.294	79.993	19.991	99.920	20.096	3.687	0.483
409.000	281.539	79.991	19.991	99.920	20.099	3.474	0.470
409.500	281.807	79.993	19.990	99.921	20.100	3.369	0.489
410.000	282.037	79.991	19.992	99.926	20.099	3.429	0.505
410.500	282.305	79.993	19.991	99.928	20.098	3.535	0.498
411.000	282.590	79.992	19.991	99.934	20.096	3.690	0.526
411.500	282.830	79.993	19.991	99.942	20.095	3.745	0.539
412.000	283.076	79.993	19.990	99.949	20.100	3.380	0.505
412.500	283.307	79.993	19.991	99.951	20.100	3.364	0.482
413.000	283.530	79.994	19.992	99.952	20.095	3.771	0.466
413.500	283.823	79.995	19.993	99.953	20.098	3.518	0.485
414.000	284.080	79.993	19.991	99.953	20.102	3.279	0.533
414.500	284.305	79.993	19.991	99.952	20.100	3.417	0.516
415.000	284.571	79.994	19.992	99.952	20.101	3.310	0.486
415.500	284.817	79.992	19.989	99.952	20.105	3.047	0.501
416.000	285.076	79.996	19.993	99.952	20.098	3.512	0.509
416.500	285.304	79.995	19.992	99.951	20.096	3.665	0.496
417.000	285.521	79.996	19.994	99.953	20.098	3.542	0.466
417.500	285.830	79.993	19.991	99.954	20.100	3.427	0.485
418.000	286.065	79.993	19.993	99.954	20.098	3.546	0.535
418.500	286.303	79.993	19.992	99.955	20.093	3.906	0.509
419.000	286.580	79.995	19.991	99.956	20.099	3.463	0.494
419.500	286.844	79.995	19.992	99.954	20.097	3.580	0.528
420.000	287.032	79.994	19.993	99.949	20.094	3.801	0.496
420.500	287.331	79.995	19.991	99.947	20.095	3.739	0.469
421.000	287.612	79.995	19.992	99.945	20.097	3.640	0.533
421.500	287.840	79.993	19.991	99.944	20.096	3.652	0.545
422.000	288.108	79.995	19.992	99.940	20.096	3.707	0.503
422.500	288.339	79.995	19.992	99.936	20.098	3.511	0.497
423.000	288.609	79.995	19.992	99.934	20.098	3.549	0.500
423.500	288.857	79.994	19.992	99.930	20.098	3.570	0.510
424.000	289.104	79.996	19.993	99.928	20.101	3.319	0.506
424.500	289.322	79.995	19.992	99.932	20.098	3.574	0.480
425.000	289.588	79.994	19.991	99.937	20.100	3.426	0.475
425.500	289.874	79.994	19.990	99.935	20.103	3.207	0.518
426.000	290.125	79.995	19.992	99.935	20.099	3.465	0.544
426.500	290.368	79.994	19.993	99.934	20.102	3.257	0.516
427.000	290.648	79.994	19.991	99.931	20.103	3.202	0.508
427.500	290.903	79.994	19.992	99.927	20.099	3.457	0.529
428.000	291.159	79.995	19.991	99.927	20.101	3.337	0.523
428.500	291.395	79.994	19.993	99.924	20.103	3.204	0.501
429.000	291.642	79.994	19.991	99.923	20.097	3.586	0.488
429.500	291.903	79.995	19.993	99.925	20.098	3.544	0.496
430.000	292.181	79.995	19.993	99.924	20.097	3.645	0.523
430.500	292.366	79.995	19.992	99.921	20.102	3.208	0.501
431.000	292.644	79.994	19.990	99.926	20.094	3.853	0.463
431.500	292.880	79.994	19.992	99.933	20.099	3.437	0.489
432.000	293.118	79.995	19.992	99.936	20.100	3.358	0.494
432.500	293.367	79.993	19.991	99.944	20.097	3.633	0.481
433.000	293.663	79.996	19.992	99.952	20.098	3.516	0.516
433.500	293.916	79.993	19.991	99.954	20.103	3.180	0.547
434.000	294.136	79.993	19.991	99.953	20.095	3.787	0.511
434.500	294.388	79.993	19.992	99.959	20.098	3.542	0.472
435.000	294.656	79.994	19.992	99.961	20.093	3.898	0.496
435.500	294.910	79.994	19.992	99.959	20.094	3.868	0.521
436.000	295.166	79.993	19.992	99.952	20.098	3.558	0.516
436.500	295.425	79.993	19.990	99.943	20.093	3.894	0.513
437.000	295.696	79.995	19.992	99.928	20.098	3.549	0.523
437.500	295.943	79.994	19.992	99.919	20.098	3.545	0.524
438.000	296.146	79.994	19.991	99.914	20.102	3.217	0.484
438.500	296.410	79.994	19.992	99.913	20.101	3.329	0.458
439.000	296.707	79.995	19.991	99.913	20.097	3.620	0.514
439.500	296.923	79.995	19.992	99.913	20.102	3.237	0.537
440.000	297.207	79.995	19.991	99.913	20.101	3.343	0.507
440.500	297.468	79.993	19.992	99.916	20.100	3.420	0.522
441.000	297.774	79.993	19.990	99.918	20.095	3.757	0.556
441.500	297.960	79.995	19.991	99.919	20.101	3.322	0.529
442.000	298.219	79.993	19.992	99.918	20.100	3.393	0.468
442.500	298.466	79.994	19.993	99.918	20.102	3.213	0.476
443.000	298.744	79.993	19.991	99.915	20.101	3.342	0.516
443.500	298.984	79.994	19.991	99.917	20.103	3.154	0.522
444.000	299.222	79.995	19.992	99.925	20.098	3.561	0.498
444.500	299.489	79.995	19.991	99.931	20.098	3.508	0.491
445.000	299.718	79.995	19.990	99.933	20.101	3.307	0.500
445.500	299.957	79.994	19.992	99.934	20.101	3.337	0.482
446.000	300.237	79.994	19.992	99.932	20.102	3.230	0.494
446.500	300.497	79.996	19.992	99.931	20.100	3.420	0.530
447.000	300.725	79.995	19.992	99.932	20.098	3.576	0.514
447.500	300.963	79.995	19.992	99.937	20.105	3.040	0.477
448.000	301.177	79.994	19.991	99.946	20.100	3.366	0.459
448.500	301.462	79.995	19.992	99.952	20.102	3.208	0.475
449.000	301.706	79.994	19.991	99.953	20.099	3.500	0.514
449.500	301.981	79.995	19.992	99.954	20.098	3.534	0.524
450.000	302.236	79.995	19.992	99.954	20.100	3.370	0.525
450.500	302.501	79.995	19.991	99.952	20.099	3.467	0.525
451.000	302.741	79.995	19.992	99.951	20.099	3.483	0.512
451.500	303.010	79.996	19.992	99.951	20.100	3.366	0.507
452.000	303.272	79.994	19.992	99.950	20.100	3.404	0.520
452.500	303.501	79.996	19.993	99.946	20.096	3.704	0.511
453.000	303.747	79.994	19.993	99.945	20.102	3.277	0.483
453.500	304.046	79.994	19.993	99.946	20.100	3.399	0.510
454.000	304.236	79.994	19.992	99.944	20.100	3.393	0.517
454.500	304.498	79.995	19.993	99.941	20.097	3.579	0.471
455.000	304.766	79.995	19.992	99.939	20.098	3.571	0.491
455.500	305.044	79.994	19.992	99.931	20.099	3.496	0.538
456.000	305.281	79.993	19.992	99.923	20.101	3.320	0.531
456.500	305.568	79.993	19.992	99.915	20.104	3.115	0.519
457.000	305.799	79.992	19.992	99.911	20.102	3.255	0.521
457.500	306.046	79.993	19.993	99.910	20.102	3.251	0.498
458.000	306.262	79.992	19.994	99.913	20.101	3.320	0.470
458.500	306.550	79.992	19.992	99.915	20.099	3.478	0.483
459.000	306.777	79.991	19.993	99.922	20.099	3.471	0.509
459.500	307.047	79.992	19.991	99.927	20.097	3.603	0.506
460.000	307.317	79.991	19.991	99.932	20.100	3.376	0.519
460.500	307.532	79.992	19.992	99.933	20.098	3.511	0.513
461.000	307.807	79.990	19.992	99.931	20.097	3.618	0.488
461.500	308.050	79.994	19.992	99.926	20.098	3.546	0.504
462.001	308.297	79.993	19.992	99.923	20.098	3.513	0.504
462.500	308.548	79.995	19.992	99.920	20.100	3.402	0.494
463.000	308.804	79.992	19.991	99.920	20.099	3.434	0.502
463.500	309.036	79.993	19.990	99.923	20.101	3.315	0.498
464.000	309.285	79.992	19.991	99.926	20.099	3.450	0.485
464.500	309.545	79.993	19.992	99.931	20.100	3.383	0.495
465.000	309.792	79.993	19.992	99.938	20.095	3.739	0.508
465.500	310.083	79.992	19.992	99.942	20.103	3.161	0.522
466.000	310.310	79.994	19.991	99.940	20.101	3.302	0.528
466.500	310.567	79.993	19.992	99.939	20.100	3.380	0.501
467.000	310.797	79.993	19.992	99.935	20.099	3.495	0.486
467.500	311.069	79.994	19.992	99.932	20.100	3.416	0.495
468.000	311.351	79.993	19.991	99.926	20.099	3.449	0.528
468.500	311.594	79.992	19.991	99.928	20.095	3.786	0.539
469.000	311.868	79.992	19.991	99.932	20.098	3.560	0.521
469.500	312.132	79.995	19.991	99.934	20.098	3.560	0.528
470.000	312.360	79.993	19.992	99.929	20.100	3.376	0.515
470.500	312.664	79.994	19.992	99.928	20.098	3.507	0.512
471.000	312.893	79.994	19.991	99.926	20.098	3.515	0.533
471.500	313.153	79.991	19.992	99.919	20.101	3.336	0.511
472.000	313.368	79.994	19.991	99.914	20.101	3.297	0.482
472.500	313.677	79.992	19.991	99.913	20.101	3.338	0.500
473.000	313.885	79.992	19.991	99.912	20.097	3.638	0.521
473.500	314.176	79.993	19.993	99.910	20.099	3.462	0.508
474.000	314.400	79.993	19.991	99.906	20.102	3.248	0.507
474.500	314.649	79.993	19.991	99.898	20.101	3.331	0.494
475.000	314.891	79.994	19.991	99.891	20.097	3.612	0.482
475.500	315.114	79.993	19.992	99.885	20.099	3.472	0.478
476.000	315.369	79.992	19.992	99.885	20.102	3.258	0.471
476.500	315.622	79.992	19.991	99.889	20.099	3.450	0.493
477.000	315.921	79.994	19.992	99.897	20.099	3.488	0.530
477.500	316.158	79.993	19.991	99.905	20.100	3.421	0.544
478.000	316.392	79.994	19.991	99.914	20.103	3.162	0.503
478.500	316.644	79.993	19.991	99.916	20.103	3.180	0.478
479.000	316.899	79.994	19.991	99.916	20.103	3.196	0.497
479.500	317.140	79.993	19.992	99.917	20.101	3.287	0.502
480.000	317.414	79.994	19.992	99.916	20.104	3.066	0.505
480.500	317.673	79.994	19.993	99.914	20.097	3.606	0.524
481.000	317.891	79.992	19.991	99.912	20.098	3.576	0.505
481.500	318.105	79.993	19.992	99.912	20.102	3.267	0.454
482.000	318.404	79.993	19.992	99.913	20.099	3.459	0.473
482.500	318.651	79.993	19.992	99.921	20.096	3.723	0.529
483.000	318.901	79.994	19.993	99.928	20.097	3.636	0.521
483.500	319.162	79.992	19.993	99.936	20.098	3.549	0.504
484.000	319.433	79.992	19.992	99.945	20.100	3.400	0.522
484.500	319.663	79.994	19.993	99.951	20.103	3.185	0.517
485.000	319.895	79.991	19.991	99.951	20.097	3.600	0.481
485.500	320.168	79.993	19.991	99.952	20.097	3.578	0.483
486.000	320.442	79.991	19.992	99.951	20.103	3.147	0.526
486.500	320.715	79.993	19.992	99.951	20.100	3.418	0.547
487.000	320.944	79.992	19.993	99.951	20.097	3.606	0.525
487.500	321.242	79.993	19.992	99.951	20.100	3.372	0.515
488.000	321.446	79.992	19.992	99.949	20.099	3.479	0.515
488.500	321.689	79.991	19.991	99.948	20.098	3.535	0.475
489.000	321.939	79.994	19.993	99.940	20.102	3.274	0.470
489.500	322.176	79.994	19.993	99.932	20.100	3.418	0.490
490.000	322.436	79.993	19.993	99.925	20.103	3.136	0.492
490.500	322.696	79.993	19.991	99.918	20.098	3.553	0.509
491.000	322.968	79.994	19.992	99.912	20.102	3.229	0.526
491.500	323.220	79.993	19.990	99.914	20.100	3.355	0.528
492.000	323.490	79.994	19.993	99.915	20.097	3.638	0.523
492.500	323.752	79.993	19.992	99.915	20.094	3.821	0.527
493.000	323.963	79.993	19.992	99.916	20.098	3.536	0.502
493.500	324.209	79.994	19.993	99.909	20.102	3.279	0.465
494.000	324.483	79.993	19.993	99.904	20.098	3.565	0.489
494.500	324.662	79.993	19.993	99.903	20.099	3.468	0.487
495.000	324.958	79.993	19.992	99.903	20.096	3.689	0.464
495.500	325.215	79.994	19.993	99.904	20.092	3.954	0.514
496.000	325.450	79.994	19.992	99.911	20.105	3.039	0.522
496.500	325.721	79.994	19.993	99.914	20.097	3.604	0.499
497.000	325.923	79.992	19.992	99.914	20.096	3.671	0.490
497.500	326.201	79.993	19.990	99.913	20.093	3.889	0.477
498.000	326.440	79.993	19.993	99.912	20.097	3.602	0.499
498.500	326.694	79.994	19.991	99.911	20.096	3.683	0.505
499.000	326.940	79.994	19.992	99.911	20.100	3.395	0.496
499.500	327.172	79.992	19.991	99.909	20.094	3.872	0.489
500.000	327.446	79.994	19.993	99.902	20.097	3.597	0.492
500.500	327.683	79.994	19.991	99.895	20.099	3.481	0.508
501.000	327.962	79.996	19.992	99.890	20.097	3.602	0.514
501.501	328.179	79.994	19.993	99.887	20.100	3.410	0.506
502.000	328.420	79.996	19.992	99.891	20.094	3.821	0.477
502.500	328.661	79.996	19.991	99.897	20.096	3.655	0.470
503.000	328.951	79.995	19.991	99.905	20.104	3.100	0.506
503.500	329.198	79.997	19.992	99.911	20.096	3.673	0.534
504.000	329.491	79.995	19.991	99.919	20.098	3.519	0.538
504.500	329.679	79.994	19.991	99.927	20.098	3.519	0.511
505.000	329.948	79.996	19.992	99.935	20.105	2.995	0.470
505.500	330.196	79.996	19.991	99.943	20.102	3.248	0.487
506.000	330.446	79.993	19.990	99.951	20.108	2.773	0.507
506.500	330.695	79.995	19.993	99.953	20.107	2.840	0.499
507.000	330.948	79.994	19.990	99.953	20.106	2.937	0.501
507.500	331.234	79.994	19.991	99.957	20.103	3.155	0.521
508.000	331.469	79.993	19.991	99.962	20.104	3.107	0.530
508.500	331.735	79.992	19.990	99.964	20.102	3.240	0.511
509.000	332.033	79.993	19.991	99.964	20.106	2.943	0.532
509.500	332.239	79.994	19.990	99.962	20.105	3.026	0.534
510.000	332.474	79.995	19.993	99.952	20.101	3.301	0.472
510.500	332.710	79.993	19.991	99.938	20.103	3.206	0.456
511.000	333.006	79.993	19.991	99.926	20.104	3.064	0.502
511.500	333.211	79.993	19.992	99.917	20.100	3.363	0.516
512.000	333.512	79.992	19.991	99.911	20.101	3.341	0.504
512.500	333.775	79.994	19.992	99.910	20.096	3.656	0.535
513.000	334.032	79.994	19.993	99.908	20.098	3.561	0.542
513.500	334.246	79.993	19.992	99.909	20.098	3.540	0.496
514.000	334.488	79.993	19.993	99.907	20.097	3.605	0.463
514.500	334.743	79.993	19.992	99.908	20.097	3.642	0.476
515.000	335.053	79.992	19.991	99.908	20.096	3.713	0.531
515.500	335.296	79.992	19.993	99.909	20.093	3.896	0.559
516.000	335.527	79.992	19.992	99.909	20.102	3.216	0.513
516.500	335.757	79.992	19.991	99.912	20.093	3.911	0.468
517.000	336.072	79.992	19.993	99.911	20.101	3.355	0.503
517.500	336.301	79.992	19.993	99.911	20.102	3.254	0.544
518.000	336.590	79.992	19.991	99.910	20.093	3.936	0.531
518.500	336.833	79.993	19.993	99.907	20.100	3.363	0.525
519.000	337.064	79.993	19.993	99.906	20.097	3.626	0.503
519.500	337.336	79.992	19.992	99.907	20.096	3.701	0.488
520.000	337.606	79.993	19.991	99.907	20.095	3.768	0.522
520.500	337.824	79.992	19.992	99.907	20.097	3.606	0.515
521.000	338.077	79.994	19.992	99.911	20.100	3.357	0.479
521.500	338.326	79.994	19.992	99.912	20.101	3.355	0.486
522.000	338.599	79.994	19.992	99.906	20.097	3.601	0.512
522.500	338.858	79.995	19.992	99.899	20.100	3.427	0.527
523.000	339.108	79.993	19.992	99.896	20.096	3.703	0.520
523.500	339.370	79.994	19.992	99.896	20.100	3.395	0.511
524.000	339.635	79.995	19.992	99.902	20.099	3.444	0.520
524.500	339.868	79.995	19.991	99.918	20.102	3.241	0.512
525.000	340.096	79.994	19.992	99.939	20.101	3.300	0.480
525.500	340.341	79.994	19.992	99.956	20.102	3.253	0.467
526.000	340.627	79.994	19.991	99.963	20.103	3.145	0.502
526.500	340.855	79.994	19.991	99.965	20.105	3.044	0.523
527.000	341.089	79.995	19.992	99.963	20.098	3.521	0.488
527.500	341.373	79.995	19.991	99.957	20.102	3.240	0.490
528.000	341.615	79.993	19.990	99.953	20.101	3.327	0.522
528.500	341.837	79.994	19.991	99.955	20.100	3.402	0.495
529.000	342.097	79.994	19.990	99.958	20.104	3.096	0.473
529.500	342.341	79.995	19.990	99.957	20.105	3.035	0.493
530.000	342.609	79.994	19.992	99.958	20.101	3.326	0.508
530.500	342.875	79.993	19.992	99.956	20.102	3.270	0.523
531.000	343.094	79.994	19.993	99.952	20.104	3.089	0.510
531.500	343.354	79.995	19.993	99.948	20.101	3.285	0.482
532.000	343.619	79.995	19.991	99.946	20.099	3.477	0.502
532.500	343.875	79.995	19.991	99.944	20.102	3.279	0.523
533.000	344.138	79.994	19.990	99.944	20.103	3.135	0.520
533.500	344.328	79.994	19.992	99.946	20.102	3.260	0.486
534.000	344.621	79.994	19.991	99.954	20.103	3.184	0.468
534.500	344.910	79.993	19.991	99.957	20.104	3.125	0.533
535.000	345.146	79.994	19.992	99.956	20.103	3.161	0.554
535.500	345.422	79.994	19.992	99.948	20.099	3.496	0.518
536.000	345.654	79.993	19.992	99.940	20.099	3.439	0.510
536.500	345.960	79.992	19.993	99.926	20.103	3.166	0.523
537.000	346.178	79.995	19.991	99.914	20.097	3.599	0.531
537.500	346.389	79.992	19.992	99.908	20.099	3.435	0.476
538.000	346.695	79.994	19.993	99.908	20.100	3.363	0.473
538.500	346.913	79.993	19.993	99.907	20.099	3.497	0.520
539.000	347.182	79.991	19.992	99.903	20.094	3.813	0.505
539.500	347.430	79.992	19.993	99.898	20.099	3.433	0.502
540.000	347.664	79.991	19.993	99.888	20.099	3.488	0.500
540.500	347.941	79.992	19.993	99.885	20.099	3.448	0.497
541.000	348.150	79.992	19.992	99.890	20.100	3.383	0.499
541.500	348.450	79.993	19.992	99.903	20.095	3.733	0.497
542.000	348.673	79.992	19.992	99.913	20.097	3.618	0.516
542.500	348.931	79.991	19.992	99.922	20.095	3.753	0.502
543.000	349.194	79.991	19.993	99.924	20.096	3.666	0.501
543.500	349.454	79.992	19.993	99.923	20.098	3.514	0.522
544.000	349.725	79.991	19.993	99.916	20.094	3.866	0.527
544.500	350.008	79.992	19.993	99.914	20.093	3.941	0.543
545.000	350.196	79.991	19.993	99.914	20.097	3.635	0.512
545.500	350.422	79.991	19.992	99.914	20.094	3.799	0.442
546.000	350.691	79.991	19.993	99.903	20.091	4.076	0.454
546.500	350.914	79.992	19.993	99.893	20.093	3.912	0.494
547.000	351.151	79.992	19.992	99.881	20.098	3.566	0.476
547.500	351.464	79.993	19.993	99.871	20.097	3.582	0.505
548.000	351.695	79.992	19.994	99.867	20.093	3.875	0.547
548.500	351.953	79.992	19.993	99.873	20.097	3.620	0.516
549.000	352.192	79.993	19.992	99.887	20.096	3.653	0.493
549.500	352.486	79.993	19.992	99.907	20.098	3.552	0.515
550.000	352.744	79.993	19.993	99.923	20.096	3.661	0.543
550.500	352.999	79.993	19.993	99.933	20.093	3.879	0.532
551.000	353.246	79.992	19.993	99.942	20.091	4.047	0.508
551.500	353.490	79.994	19.993	99.947	20.096	3.673	0.497
552.000	353.762	79.993	19.992	99.947	20.100	3.412	0.503
552.500	354.041	79.993	19.991	99.949	20.092	3.982	0.533
553.000	354.280	79.993	19.993	99.952	20.092	4.003	0.535
553.500	354.509	79.993	19.992	99.950	20.096	3.673	0.493
554.000	354.728	79.994	19.991	99.944	20.088	4.254	0.458
554.500	355.023	79.994	19.991	99.936	20.094	3.800	0.481
555.000	355.254	79.994	19.992	99.931	20.097	3.606	0.519
555.500	355.512	79.994	19.992	99.926	20.091	4.040	0.507
556.000	355.785	79.993	19.992	99.920	20.091	4.061	0.510
556.500	355.990	79.994	19.991	99.922	20.094	3.865	0.505
557.000	356.247	79.993	19.992	99.922	20.095	3.795	0.470
557.500	356.507	79.993	19.992	99.919	20.092	3.950	0.490
558.000	356.765	79.993	19.991	99.916	20.088	4.298	0.517
558.500	357.053	79.993	19.991	99.916	20.092	3.946	0.532
559.000	357.243	79.993	19.993	99.912	20.086	4.425	0.513
559.500	357.523	79.994	19.991	99.913	20.089	4.205	0.474
560.000	357.757	79.994	19.992	99.914	20.088	4.296	0.491
560.500	358.041	79.994	19.993	99.914	20.089	4.225	0.516
561.000	358.283	79.993	19.993	99.914	20.089	4.221	0.522
561.500	358.507	79.994	19.992	99.914	20.093	3.908	0.496
562.000	358.793	79.993	19.991	99.911	20.086	4.390	0.488
562.500	359.055	79.993	19.991	99.907	20.087	4.335	0.529
563.000	359.270	79.993	19.992	99.907	20.089	4.181	0.513
563.500	359.521	79.994	19.992	99.907	20.087	4.335	0.472
564.000	359.754	79.992	19.991	99.908	20.085	4.472	0.474
564.500	360.031	79.992	19.991	99.915	20.090	4.163	0.497
565.000	360.275	79.992	19.991	99.928	20.086	4.440	0.516
565.500	360.534	79.992	19.992	99.947	20.086	4.448	0.512
566.000	360.813	79.992	19.992	99.966	20.088	4.280	0.520
566.500	361.021	79.992	19.991	99.972	20.085	4.478	0.512
567.000	361.275	79.993	19.992	99.962	20.086	4.458	0.474
567.500	361.526	79.993	19.991	99.950	20.088	4.308	0.483
568.000	361.755	79.992	19.991	99.931	20.089	4.177	0.493
568.500	362.037	79.992	19.991	99.912	20.088	4.266	0.496
569.000	362.260	79.994	19.992	99.906	20.086	4.407	0.508
569.500	362.512	79.993	19.991	99.908	20.087	4.367	0.490
570.000	362.743	79.992	19.992	99.910	20.081	4.812	0.479
570.500	363.006	79.993	19.992	99.909	20.091	4.021	0.488
571.000	363.259	79.994	19.993	99.909	20.086	4.454	0.505
571.500	363.502	79.991	19.991	99.909	20.083	4.661	0.506
572.000	363.746	79.991	19.991	99.917	20.080	4.896	0.491
572.500	364.016	79.991	19.991	99.923	20.085	4.524	0.501
573.000	364.276	79.993	19.992	99.925	20.080	4.894	0.522
573.500	364.531	79.992	19.991	99.927	20.080	4.882	0.522
574.000	364.771	79.991	19.991	99.927	20.077	5.118	0.505
574.500	364.992	79.991	19.991	99.922	20.078	5.005	0.478
575.000	365.264	79.994	19.991	99.917	20.074	5.316	0.476
575.500	365.485	79.992	19.991	99.916	20.082	4.711	0.493
576.000	365.770	79.992	19.991	99.915	20.077	5.094	0.500
576.500	366.029	79.992	19.991	99.918	20.072	5.466	0.525
577.000	366.284	79.992	19.993	99.920	20.073	5.390	0.529
577.500	366.536	79.992	19.992	99.920	20.071	5.536	0.511
578.000	366.757	79.992	19.991	99.920	20.068	5.769	0.490
578.500	367.027	79.992	19.991	99.919	20.067	5.817	0.481
579.000	367.303	79.992	19.991	99.916	20.071	5.558	0.518
579.500	367.528	79.991	19.991	99.914	20.069	5.647	0.524
580.000	367.789	79.992	19.992	99.914	20.070	5.635	0.494
580.500	368.032	79.992	19.991	99.916	20.067	5.805	0.495
581.000	368.233	79.992	19.991	99.921	20.072	5.492	0.474
581.500	368.529	79.993	19.992	99.922	20.066	5.878	0.471
582.000	368.801	79.993	19.992	99.926	20.063	6.092	0.532
582.500	369.082	79.994	19.992	99.928	20.063	6.121	0.560
583.000	369.293	79.994	19.992	99.932	20.063	6.089	0.522
583.500	369.534	79.992	19.990	99.935	20.063	6.155	0.472
584.000	369.775	79.994	19.992	99.937	20.062	6.220	0.467
584.500	370.044	79.994	19.993	99.934	20.062	6.170	0.496
585.000	370.310	79.993	19.992	99.934	20.058	6.505	0.523
585.500	370.523	79.994	19.990	99.930	20.061	6.246	0.508
586.000	370.773	79.994	19.992	99.923	20.061	6.277	0.471
586.500	371.057	79.994	19.992	99.923	20.059	6.405	0.498
587.000	371.281	79.996	19.992	99.930	20.058	6.494	0.521
587.500	371.498	79.993	19.991	99.935	20.058	6.496	0.475
588.000	371.782	79.994	19.991	99.941	20.057	6.579	0.471
588.500	372.044	79.994	19.993	99.947	20.056	6.668	0.523
589.000	372.294	79.994	19.991	99.950	20.059	6.445	0.529
589.500	372.538	79.994	19.992	99.946	20.055	6.742	0.503
590.000	372.811	79.993	19.991	99.946	20.049	7.189	0.506
590.500	373.054	79.995	19.991	99.946	20.050	7.056	0.516
591.000	373.313	79.994	19.990	99.948	20.051	7.001	0.509
591.500	373.545	79.994	19.991	99.951	20.047	7.308	0.497
592.000	373.775	79.993	19.990	99.952	20.048	7.217	0.476
592.500	374.025	79.995	19.992	99.946	20.046	7.355	0.470
593.000	374.293	79.995	19.991	99.938	20.044	7.545	0.499
593.500	374.529	79.993	19.991	99.930	20.040	7.804	0.512
594.000	374.798	79.994	19.990	99.922	20.042	7.667	0.505
594.500	375.076	79.992	19.991	99.920	20.042	7.658	0.526
595.000	375.332	79.993	19.990	99.927	20.041	7.784	0.540
595.500	375.584	79.993	19.990	99.935	20.039	7.867	0.520
596.000	375.803	79.995	19.990	99.942	20.039	7.927	0.489
596.500	376.093	79.992	19.989	99.950	20.030	8.579	0.490
597.000	376.301	79.994	19.992	99.956	20.034	8.304	0.504
597.500	376.605	79.992	19.991	99.964	20.034	8.304	0.505
598.000	376.815	79.993	19.992	99.968	20.029	8.637	0.513
598.500	377.102	79.992	19.991	99.965	20.033	8.379	0.506
599.000	377.324	79.993	19.992	99.963	20.033	8.365	0.503
599.500	377.614	79.992	19.992	99.961	20.029	8.616	0.511
600.000	377.891	79.993	19.992	99.953	20.030	8.571	0.540
600.500	378.159	79.993	19.993	99.949	20.025	8.915	0.556
601.000	378.395	79.994	19.992	99.952	20.028	8.718	0.524
601.500	378.677	79.993	19.992	99.953	20.025	8.936	0.511
602.000	378.921	79.995	19.992	99.952	20.023	9.059	0.522
602.500	379.171	79.993	19.992	99.951	20.021	9.251	0.510
603.000	379.418	79.993	19.993	99.952	20.018	9.477	0.495
603.500	379.659	79.994	19.992	99.952	20.018	9.480	0.492
604.000	379.927	79.994	19.992	99.952	20.016	9.567	0.498
604.500	380.171	79.993	19.992	99.954	20.015	9.637	0.511
605.000	380.441	79.993	19.993	99.952	20.011	9.999	0.514
605.500	380.702	79.993	19.991	99.949	20.012	9.882	0.523
606.000	380.943	79.994	19.991	99.947	20.012	9.894	0.516
606.500	381.177	79.994	19.993	99.946	20.013	9.819	0.488
607.000	381.414	79.995	19.992	99.945	20.006	10.329	0.473
607.500	381.690	79.992	19.991	99.946	20.008	10.180	0.493
608.000	382.000	79.993	19.991	99.948	20.003	10.526	0.549
608.500	382.276	79.995	19.991	99.955	20.001	10.673	0.586
609.000	382.472	79.993	19.992	99.964	19.994	11.218	0.529
609.500	382.740	79.995	19.992	99.972	19.998	10.942	0.468
610.000	382.997	79.994	19.991	99.978	20.001	10.683	0.494
610.500	383.248	79.995	19.991	99.980	19.997	11.015	0.516
611.000	383.537	79.995	19.992	99.977	19.989	11.590	0.524
611.500	383.798	79.994	19.992	99.971	19.983	12.061	0.545
612.000	384.037	79.994	19.991	99.963	19.989	11.608	0.525
612.500	384.303	79.994	19.990	99.957	19.985	11.896	0.503
613.000	384.564	79.996	19.991	99.953	19.981	12.178	0.516
613.500	384.825	79.995	19.991	99.951	19.982	12.128	0.524
614.000	385.068	79.995	19.990	99.950	19.975	12.670	0.513
614.500	385.331	79.995	19.992	99.951	19.974	12.698	0.505
615.000	385.642	79.996	19.992	99.951	19.975	12.634	0.540
615.500	385.851	79.996	19.992	99.950	19.968	13.122	0.547
616.000	386.133	79.995	19.992	99.947	19.968	13.140	0.506
616.500	386.357	79.995	19.992	99.947	19.971	12.900	0.498
617.000	386.602	79.995	19.991	99.946	19.967	13.236	0.487
617.500	386.862	79.996	19.992	99.946	19.965	13.376	0.487
618.000	387.176	79.994	19.991	99.948	19.963	13.501	0.540
618.500	387.397	79.994	19.990	99.951	19.958	13.855	0.554
619.001	387.646	79.995	19.992	99.950	19.959	13.849	0.502
619.501	387.911	79.994	19.991	99.950	19.956	14.037	0.492
620.000	388.148	79.993	19.993	99.950	19.956	14.037	0.508
620.500	388.414	79.994	19.993	99.950	19.952	14.367	0.503
621.000	388.671	79.994	19.991	99.950	19.947	14.704	0.513
621.500	388.920	79.993	19.991	99.950	19.949	14.525	0.515
622.000	389.181	79.992	19.992	99.950	19.947	14.718	0.508
622.500	389.433	79.993	19.992	99.950	19.941	15.138	0.511
623.000	389.681	79.992	19.992	99.953	19.938	15.352	0.507
623.500	389.953	79.992	19.992	99.957	19.937	15.454	0.510
624.000	390.216	79.991	19.994	99.964	19.934	15.698	0.527
624.500	390.490	79.992	19.993	99.970	19.927	16.201	0.536
625.000	390.686	79.992	19.991	99.976	19.928	16.142	0.503
625.500	390.946	79.992	19.992	99.980	19.927	16.193	0.463
626.000	391.195	79.993	19.994	99.982	19.923	16.507	0.483
626.500	391.498	79.993	19.992	99.983	19.918	16.870	0.531
627.000	391.735	79.991	19.992	99.985	19.917	16.951	0.546
627.500	391.996	79.991	19.992	99.987	19.919	16.811	0.519
628.000	392.243	79.992	19.992	99.988	19.910	17.425	0.504
628.500	392.501	79.992	19.992	99.989	19.912	17.303	0.507
629.000	392.747	79.990	19.993	99.987	19.907	17.651	0.504
629.500	393.017	79.991	19.993	99.987	19.906	17.715	0.509
630.000	393.305	79.991	19.992	99.987	19.897	18.380	0.537
630.500	393.534	79.992	19.994	99.987	19.895	18.562	0.538
631.000	393.821	79.991	19.992	99.989	19.887	19.170	0.516
631.500	394.072	79.992	19.993	99.989	19.884	19.342	0.527
632.000	394.300	79.992	19.993	99.990	19.881	19.576	0.509
632.500	394.561	79.992	19.993	99.990	19.874	20.100	0.484
633.000	394.831	79.991	19.993	99.993	19.869	20.458	0.510
633.500	395.075	79.992	19.993	100.000	19.872	20.215	0.523
634.000	395.363	79.991	19.994	100.006	19.862	20.974	0.523
634.500	395.592	79.992	19.995	100.010	19.861	21.075	0.524
635.000	395.864	79.990	19.992	100.018	19.850	21.851	0.509
635.501	396.094	79.991	19.993	100.023	19.847	22.096	0.502
636.000	396.355	79.991	19.992	100.024	19.839	22.667	0.497
636.500	396.629	79.992	19.992	100.025	19.835	22.997	0.513
637.000	396.875	79.991	19.992	100.028	19.829	23.403	0.527
637.500	397.095	79.991	19.993	100.029	19.820	24.127	0.493
638.000	397.378	79.990	19.992	100.029	19.812	24.691	0.484
638.500	397.613	79.992	19.991	100.028	19.800	25.593	0.510
639.000	397.897	79.993	19.992	100.029	19.799	25.647	0.518
639.500	398.160	79.992	19.992	100.030	19.791	26.231	0.533
640.000	398.348	79.992	19.992	100.025	19.785	26.668	0.499
640.500	398.652	79.991	19.992	100.019	19.785	26.707	0.471
641.001	398.895	79.992	19.991	100.016	19.778	27.184	0.520
641.500	399.198	79.993	19.992	100.013	19.773	27.608	0.547
642.000	399.428	79.993	19.990	100.006	19.775	27.444	0.540
642.501	399.705	79.992	19.991	100.004	19.773	27.608	0.520
643.001	399.922	79.994	19.992	100.003	19.768	27.993	0.500
643.501	400.168	79.993	19.991	99.998	19.765	28.182	0.478
644.001	400.439	79.995	19.992	99.996	19.754	29.000	0.490
644.500	400.643	79.993	19.991	99.996	19.759	28.631	0.496
645.000	400.916	79.993	19.989	99.996	19.753	29.037	0.476
645.500	401.161	79.993	19.993	99.997	19.744	29.729	0.497
646.000	401.392	79.993	19.992	100.001	19.739	30.136	0.497
646.500	401.642	79.993	19.991	100.001	19.732	30.606	0.479
647.000	401.911	79.993	19.991	100.008	19.728	30.890	0.500
647.500	402.175	79.994	19.991	100.019	19.722	31.379	0.526
648.000	402.432	79.993	19.991	100.032	19.717	31.748	0.527
648.500	402.699	79.993	19.990	100.045	19.712	32.107	0.523
649.000	402.935	79.991	19.991	100.066	19.703	32.814	0.514
649.500	403.193	79.992	19.991	100.076	19.698	33.168	0.499
650.000	403.457	79.992	19.990	100.081	19.691	33.707	0.508
650.500	403.706	79.993	19.991	100.082	19.686	34.073	0.517
651.000	403.966	79.992	19.992	100.080	19.678	34.649	0.511
651.500	404.223	79.993	19.991	100.072	19.674	34.925	0.513
652.000	404.479	79.992	19.991	100.071	19.669	35.276	0.515
652.500	404.716	79.991	19.992	100.072	19.661	35.927	0.503
653.000	404.940	79.992	19.991	100.073	19.655	36.342	0.477
653.500	405.207	79.991	19.991	100.074	19.655	36.342	0.475
654.000	405.467	79.992	19.992	100.073	19.647	36.970	0.508
654.500	405.729	79.992	19.992	100.073	19.640	37.468	0.525
655.000	405.980	79.991	19.990	100.073	19.634	37.878	0.518
655.500	406.208	79.991	19.991	100.070	19.632	38.035	0.497
656.000	406.465	79.991	19.991	100.069	19.622	38.819	0.482
656.500	406.726	79.992	19.991	100.070	19.619	38.979	0.501
657.000	406.964	79.992	19.992	100.070	19.610	39.676	0.508
657.500	407.230	79.992	19.992	100.071	19.604	40.153	0.502
658.000	407.462	79.994	19.991	100.078	19.600	40.435	0.501
658.500	407.780	79.993	19.991	100.086	19.590	41.195	0.524
659.000	407.983	79.993	19.992	100.094	19.575	42.253	0.536
659.500	408.227	79.993	19.991	100.102	19.571	42.567	0.484
660.000	408.529	79.992	19.991	100.108	19.561	43.284	0.497
660.500	408.737	79.993	19.990	100.111	19.556	43.681	0.528
661.000	408.998	79.993	19.992	100.111	19.549	44.205	0.490
661.500	409.237	79.991	19.990	100.114	19.537	45.103	0.484
662.000	409.531	79.991	19.991	100.116	19.526	45.953	0.516
662.500	409.758	79.993	19.991	100.119	19.513	46.883	0.527
663.000	410.022	79.992	19.991	100.124	19.505	47.450	0.506
663.500	410.272	79.994	19.990	100.131	19.496	48.111	0.502
664.001	410.542	79.993	19.990	100.135	19.485	48.950	0.517
664.500	410.777	79.995	19.992	100.141	19.475	49.687	0.513
665.001	411.067	79.995	19.990	100.146	19.470	50.097	0.515
665.501	411.251	79.995	19.991	100.148	19.459	50.859	0.499
666.000	411.535	79.994	19.991	100.149	19.450	51.546	0.471
666.500	411.772	79.994	19.991	100.147	19.439	52.389	0.495
667.000	412.052	79.995	19.992	100.146	19.425	53.423	0.519
667.500	412.307	79.994	19.992	100.146	19.415	54.205	0.526
668.000	412.594	79.994	19.992	100.145	19.399	55.399	0.539
668.500	412.829	79.994	19.991	100.144	19.394	55.725	0.532
669.000	413.079	79.994	19.991	100.145	19.378	56.920	0.503
669.500	413.313	79.995	19.991	100.145	19.372	57.392	0.484
670.000	413.559	79.996	19.991	100.145	19.356	58.642	0.482
670.500	413.820	79.995	19.991	100.148	19.348	59.239	0.494
671.000	414.088	79.995	19.990	100.157	19.336	60.125	0.518
671.500	414.316	79.994	19.991	100.164	19.330	60.600	0.513
672.000	414.581	79.994	19.992	100.172	19.321	61.234	0.495
672.500	414.811	79.995	19.991	100.181	19.309	62.094	0.494
673.000	415.053	79.995	19.991	100.188	19.301	62.647	0.483
673.500	415.275	79.996	19.991	100.190	19.291	63.368	0.468
674.000	415.552	79.993	19.990	100.194	19.281	64.072	0.482
674.500	415.821	79.994	19.991	100.197	19.274	64.585	0.522
675.000	416.040	79.994	19.990	100.201	19.262	65.497	0.517
675.500	416.316	79.994	19.991	100.205	19.251	66.317	0.491
676.000	416.544	79.995	19.991	100.210	19.234	67.519	0.500
676.500	416.788	79.994	19.991	100.217	19.220	68.531	0.488
677.000	417.068	79.995	19.992	100.227	19.202	69.846	0.498
677.500	417.315	79.993	19.990	100.233	19.181	71.415	0.525
678.000	417.546	79.994	19.990	100.242	19.156	73.268	0.503
678.500	417.804	79.993	19.991	100.252	19.121	75.823	0.484
679.000	418.067	79.995	19.991	100.268	19.080	78.913	0.505
679.500	418.351	79.995	19.990	100.289	19.046	81.486	0.534
680.000	418.621	79.993	19.991	100.318	19.011	84.180	0.550
680.500	418.823	79.995	19.992	100.339	18.974	86.969	0.513
681.000	419.115	79.994	19.990	100.387	18.948	88.925	0.484
681.500	419.387	79.994	19.991	100.435	18.924	90.806	0.529
682.000	419.650	79.993	19.990	100.435	18.910	91.806	0.549
682.501	419.917	79.993	19.991	100.413	18.896	92.828	0.532
683.000	420.172	79.993	19.990	100.393	18.885	93.667	0.526
683.500	420.447	79.995	19.991	100.344	18.874	94.452	0.526
684.000	420.705	79.996	19.991	100.286	18.867	95.012	0.531
684.500	420.963	79.993	19.988	100.258	18.857	95.730	0.525
685.000	421.184	79.993	19.989	100.248	18.856	95.744	0.498
685.500	421.415	79.995	19.990	100.232	18.845	96.611	0.465
686.000	421.703	79.993	19.990	100.209	18.842	96.790	0.485
686.500	421.945	79.996	19.992	100.185	18.841	96.889	0.525
687.000	422.208	79.994	19.990	100.162	18.832	97.579	0.518
687.500	422.457	79.995	19.992	100.133	18.823	98.190	0.508
688.000	422.723	79.996	19.991	100.104	18.816	98.719	0.513
688.500	422.994	79.996	19.990	100.082	18.804	99.636	0.527
689.000	423.278	79.994	19.991	100.075	18.803	99.731	0.546
689.500	423.542	79.995	19.992	100.102	18.791	100.656	0.551
690.000	423.793	79.995	19.991	100.156	18.782	101.288	0.531
690.500	423.991	79.995	19.991	100.232	18.775	101.851	0.482
691.000	424.278	79.996	19.991	100.317	18.766	102.492	0.467
691.500	424.539	79.996	19.990	100.394	18.748	103.852	0.517
692.000	424.813	79.996	19.991	100.447	18.741	104.414	0.541
692.500	425.051	79.996	19.992	100.478	18.734	104.883	0.524
693.000	425.311	79.995	19.991	100.488	18.716	106.263	0.505
693.500	425.575	79.996	19.991	100.485	18.705	107.063	0.511
694.000	425.810	79.995	19.991	100.475	18.691	108.094	0.512
694.500	426.078	79.997	19.991	100.464	18.679	108.984	0.501
695.000	426.338	79.997	19.991	100.447	18.658	110.591	0.515
695.500	426.604	79.996	19.993	100.437	18.656	110.742	0.527
696.000	426.823	79.996	19.993	100.431	18.636	112.294	0.506
696.500	427.057	79.997	19.992	100.425	18.625	113.168	0.469
697.000	427.349	79.996	19.992	100.421	18.604	114.774	0.489
697.500	427.581	79.996	19.992	100.426	18.593	115.674	0.525
698.000	427.856	79.995	19.992	100.428	18.575	117.044	0.515
698.500	428.063	79.995	19.992	100.428	18.563	118.012	0.494
699.000	428.341	79.995	19.990	100.431	18.546	119.305	0.484
699.500	428.578	79.996	19.991	100.437	18.537	119.992	0.500
700.000	428.869	79.996	19.992	100.439	18.514	121.709	0.521
700.500	429.136	79.994	19.992	100.451	18.504	122.402	0.543
701.000	429.374	79.995	19.991	100.466	18.488	123.497	0.531
701.500	429.609	79.995	19.992	100.482	18.475	124.473	0.489
702.000	429.877	79.995	19.992	100.492	18.465	125.191	0.488
702.500	430.121	79.994	19.991	100.501	18.451	126.185	0.508
703.000	430.334	79.994	19.991	100.505	18.442	126.793	0.485
703.500	430.619	79.993	19.992	100.510	18.433	127.407	0.477
704.000	430.872	79.993	19.991	100.508	18.428	127.701	0.518
704.500	431.138	79.993	19.991	100.507	18.407	129.134	0.529
705.000	431.372	79.993	19.990	100.509	18.385	130.623	0.510
705.500	431.654	79.992	19.991	100.515	18.352	133.044	0.508
706.000	431.928	79.993	19.992	100.524	18.312	135.908	0.536
706.500	432.144	79.992	19.993	100.545	18.260	139.839	0.523
707.000	432.420	79.992	19.991	100.579	18.204	144.098	0.491
707.500	432.644	79.993	19.992	100.622	18.146	148.523	0.496
708.000	432.902	79.994	19.992	100.672	18.084	153.300	0.491
708.500	433.138	79.993	19.992	100.727	18.026	157.815	0.488
709.000	433.411	79.993	19.992	100.807	17.973	161.866	0.502
709.500	433.691	79.991	19.992	100.856	17.926	165.457	0.531
710.000	433.963	79.993	19.991	100.868	17.889	168.281	0.552
710.500	434.199	79.992	19.991	100.864	17.847	171.376	0.530
711.000	434.449	79.993	19.992	100.850	17.822	173.294	0.497
711.500	434.693	79.992	19.992	100.805	17.797	175.098	0.489
712.000	434.966	79.994	19.991	100.778	17.778	176.490	0.506
712.500	435.212	79.993	19.991	100.769	17.756	178.087	0.519
713.000	435.511	79.992	19.992	100.754	17.745	178.905	0.532
713.500	435.758	79.992	19.991	100.718	17.731	179.929	0.545
714.000	435.960	79.993	19.992	100.664	17.717	180.979	0.497
714.500	436.229	79.991	19.994	100.595	17.705	181.852	0.460
715.000	436.521	79.992	19.991	100.516	17.703	182.005	0.516
715.500	436.753	79.993	19.992	100.429	17.695	182.541	0.543
716.000	437.029	79.992	19.992	100.348	17.688	183.054	0.516
716.500	437.262	79.992	19.992	100.286	17.690	182.957	0.508
717.000	437.503	79.992	19.991	100.261	17.681	183.557	0.492
717.500	437.765	79.992	19.993	100.284	17.671	184.368	0.489
718.000	438.020	79.992	19.993	100.353	17.667	184.647	0.510
718.500	438.331	79.994	19.992	100.458	17.663	184.913	0.541
719.000	438.538	79.993	19.992	100.575	17.659	185.233	0.542
719.500	438.778	79.991	19.992	100.682	17.658	185.333	0.482
720.000	439.046	79.992	19.991	100.763	17.652	185.764	0.477
720.500	439.282	79.993	19.993	100.815	17.654	185.582	0.506
721.000	439.558	79.992	19.992	100.842	17.650	185.903	0.508
721.500	439.831	79.993	19.993	100.850	17.653	185.669	0.531
722.000	440.093	79.993	19.992	100.844	17.646	186.177	0.542
722.500	440.304	79.992	19.993	100.829	17.649	185.961	0.504
723.000	440.565	79.992	19.992	100.813	17.648	185.999	0.473
723.500	440.825	79.992	19.991	100.797	17.653	185.677	0.497
724.000	441.062	79.991	19.992	100.787	17.642	186.510	0.508
724.500	441.293	79.993	19.992	100.779	17.650	185.872	0.482
725.000	441.572	79.993	19.994	100.775	17.649	185.970	0.489
725.500	441.816	79.992	19.992	100.768	17.648	185.976	0.517
726.000	442.057	79.991	19.993	100.762	17.652	185.697	0.504
726.500	442.358	79.992	19.992	100.756	17.646	186.130	0.514
727.000	442.567	79.992	19.993	100.750	17.646	186.134	0.526
727.500	442.834	79.993	19.992	100.743	17.655	185.437	0.493
728.000	443.064	79.992	19.992	100.743	17.660	185.045	0.486
728.500	443.364	79.992	19.992	100.741	17.660	185.095	0.513
729.000	443.578	79.991	19.992	100.739	17.663	184.841	0.522
729.500	443.840	79.994	19.992	100.740	17.667	184.520	0.495
730.000	444.099	79.993	19.992	100.745	17.668	184.469	0.499
730.500	444.332	79.992	19.991	100.746	17.671	184.253	0.507
731.000	444.630	79.994	19.992	100.748	17.673	184.119	0.512
731.500	444.924	79.994	19.992	100.748	17.680	183.577	0.561
732.000	445.159	79.993	19.992	100.745	17.684	183.268	0.560
732.500	445.381	79.995	19.993	100.740	17.692	182.609	0.493
733.000	445.647	79.993	19.992	100.737	17.695	182.422	0.473
733.500	445.912	79.992	19.990	100.735	17.702	181.870	0.509
734.000	446.194	79.993	19.991	100.734	17.716	180.829	0.539
734.500	446.407	79.993	19.991	100.731	17.715	180.899	0.521
735.000	446.703	79.992	19.991	100.730	17.725	180.085	0.502
735.500	446.987	79.992	19.992	100.727	17.734	179.445	0.545
736.000	447.241	79.993	19.992	100.721	17.743	178.729	0.559
736.500	447.453	79.993	19.992	100.714	17.748	178.399	0.502
737.000	447.717	79.992	19.992	100.710	17.762	177.356	0.471
737.500	448.013	79.992	19.991	100.703	17.774	176.448	0.518
738.000	448.212	79.993	19.993	100.700	17.783	175.717	0.527
738.500	448.510	79.992	19.993	100.699	17.798	174.612	0.496
739.000	448.749	79.992	19.991	100.699	17.806	173.978	0.517
739.500	449.021	79.992	19.992	100.698	17.819	172.994	0.524
740.000	449.261	79.993	19.991	100.698	17.835	171.835	0.512
740.500	449.482	79.993	19.992	100.695	17.846	170.949	0.486
741.000	449.730	79.992	19.992	100.693	17.859	170.004	0.464
741.500	450.031	79.992	19.991	100.689	17.875	168.774	0.509
742.000	450.318	79.993	19.993	100.688	17.889	167.792	0.569
742.500	450.552	79.993	19.992	100.681	17.903	166.732	0.555
743.000	450.783	79.992	19.992	100.674	17.916	165.742	0.493
743.500	451.050	79.992	19.992	100.666	17.936	164.239	0.482
744.000	451.299	79.993	19.992	100.660	17.954	162.869	0.507
744.500	451.521	79.993	19.992	100.650	17.973	161.450	0.493
745.000	451.788	79.995	19.992	100.644	17.983	160.684	0.480
745.500	452.057	79.993	19.992	100.637	18.003	159.177	0.513
746.000	452.280	79.992	19.991	100.630	18.022	157.787	0.514
746.500	452.559	79.994	19.992	100.628	18.042	156.290	0.497
747.000	452.839	79.994	19.992	100.625	18.063	154.672	0.531
747.500	453.045	79.994	19.993	100.622	18.083	153.212	0.523
748.000	453.339	79.995	19.992	100.618	18.102	151.815	0.493
748.500	453.550	79.994	19.992	100.614	18.120	150.393	0.503
749.000	453.858	79.993	19.993	100.602	18.142	148.767	0.512
749.500	454.073	79.995	19.991	100.594	18.164	147.140	0.521
750.000	454.356	79.994	19.993	100.582	18.183	145.723	0.510
750.500	454.596	79.995	19.992	100.571	18.202	144.236	0.511
751.000	454.874	79.996	19.992	100.559	18.225	142.563	0.520
751.500	455.108	79.996	19.992	100.551	18.249	140.767	0.515
752.000	455.355	79.995	19.991	100.543	18.270	139.192	0.497
752.500	455.646	79.995	19.992	100.540	18.290	137.719	0.510
753.000	455.854	79.996	19.993	100.538	18.309	136.259	0.519
753.500	456.172	79.995	19.992	100.537	18.335	134.356	0.513
754.000	456.409	79.996	19.993	100.529	18.358	132.601	0.540
754.500	456.640	79.995	19.991	100.521	18.376	131.267	0.511
755.000	456.917	79.994	19.990	100.513	18.407	128.993	0.488
755.500	457.145	79.994	19.992	100.506	18.425	127.618	0.507
756.000	457.432	79.995	19.992	100.492	18.452	125.655	0.510
756.500	457.654	79.995	19.991	100.485	18.476	123.811	0.512
757.000	457.961	79.995	19.992	100.476	18.497	122.298	0.519
757.500	458.140	79.994	19.991	100.469	18.522	120.401	0.507
758.000	458.429	79.994	19.992	100.458	18.543	118.864	0.477
758.501	458.669	79.994	19.991	100.451	18.562	117.417	0.499
759.000	458.940	79.995	19.991	100.443	18.595	114.991	0.520
759.500	459.214	79.996	19.991	100.429	18.620	113.131	0.528
760.000	459.427	79.995	19.991	100.414	18.645	111.234	0.516
760.500	459.650	79.994	19.992	100.401	18.672	109.217	0.461
761.001	459.928	79.995	19.992	100.391	18.696	107.441	0.468
761.501	460.207	79.993	19.991	100.383	18.723	105.491	0.529
762.000	460.428	79.994	19.991	100.379	18.746	103.746	0.529
762.500	460.659	79.995	19.992	100.378	18.776	101.490	0.476
763.000	460.918	79.994	19.991	100.372	18.802	99.541	0.471
763.501	461.194	79.995	19.990	100.365	18.831	97.401	0.513
764.001	461.444	79.993	19.991	100.358	18.861	95.185	0.530
764.501	461.693	79.994	19.992	100.352	18.891	92.937	0.513
765.001	461.990	79.994	19.993	100.342	18.913	91.355	0.523
765.500	462.229	79.994	19.993	100.333	18.942	89.184	0.541
766.000	462.459	79.993	19.992	100.326	18.974	86.829	0.502
766.500	462.720	79.995	19.991	100.316	18.995	85.248	0.480
767.000	462.964	79.994	19.992	100.306	19.020	83.383	0.498
767.500	463.217	79.994	19.991	100.298	19.052	81.022	0.501
768.000	463.546	79.995	19.992	100.292	19.081	78.847	0.540
768.500	463.751	79.994	19.991	100.284	19.109	76.794	0.558
769.000	463.999	79.994	19.992	100.279	19.130	75.246	0.493
769.500	464.202	79.995	19.991	100.274	19.159	73.068	0.452
770.000	464.486	79.994	19.991	100.269	19.185	71.165	0.469
770.500	464.751	79.995	19.992	100.266	19.207	69.503	0.518
771.000	465.001	79.995	19.993	100.265	19.234	67.530	0.532
771.500	465.228	79.995	19.991	100.258	19.256	65.868	0.496
772.000	465.527	79.996	19.991	100.252	19.283	63.839	0.502
772.500	465.755	79.996	19.991	100.245	19.304	62.317	0.526
773.000	466.016	79.994	19.991	100.232	19.329	60.475	0.508
773.500	466.294	79.994	19.990	100.220	19.346	59.195	0.514
774.000	466.525	79.995	19.991	100.216	19.370	57.399	0.524
774.500	466.784	79.995	19.991	100.206	19.389	56.036	0.500
775.000	466.973	79.996	19.992	100.199	19.414	54.153	0.469
775.500	467.310	79.997	19.991	100.199	19.432	52.789	0.487
776.000	467.520	79.996	19.993	100.197	19.452	51.321	0.536
776.500	467.786	79.997	19.991	100.191	19.472	49.841	0.511
777.000	467.964	79.996	19.991	100.188	19.486	48.836	0.460
777.500	468.290	79.996	19.991	100.180	19.503	47.554	0.475
778.000	468.584	79.996	19.992	100.171	19.521	46.252	0.562
778.500	468.768	79.995	19.991	100.163	19.541	44.765	0.548
779.000	469.140	79.996	19.991	100.153	19.558	43.501	0.517
779.500	469.330	79.995	19.991	100.144	19.572	42.472	0.560
780.000	469.588	79.995	19.991	100.142	19.586	41.422	0.505
780.500	469.817	79.996	19.991	100.137	19.592	40.946	0.467
781.000	470.087	79.995	19.991	100.131	19.603	40.170	0.493
781.501	470.302	79.995	19.991	100.126	19.621	38.847	0.492
782.000	470.619	79.995	19.991	100.122	19.638	37.536	0.509
782.500	470.896	79.995	19.992	100.116	19.654	36.392	0.563
783.000	471.077	79.994	19.991	100.108	19.658	36.064	0.526
783.500	471.427	79.994	19.992	100.099	19.675	34.806	0.495
784.000	471.628	79.994	19.993	100.092	19.694	33.411	0.541
784.500	471.883	79.994	19.991	100.085	19.696	33.293	0.503
785.000	472.184	79.994	19.992	100.077	19.705	32.634	0.506
785.500	472.380	79.994	19.993	100.075	19.724	31.194	0.527
786.000	472.613	79.994	19.993	100.074	19.737	30.214	0.463
786.500	472.939	79.993	19.991	100.072	19.737	30.195	0.494
787.000	473.193	79.993	19.992	100.068	19.755	28.876	0.569
787.500	473.429	79.993	19.991	100.067	19.763	28.313	0.535
788.000	473.734	79.992	19.992	100.063	19.770	27.771	0.515
788.500	473.906	79.992	19.994	100.058	19.777	27.287	0.509
789.000	474.305	79.993	19.992	100.051	19.792	26.194	0.524
789.500	474.482	79.994	19.991	100.045	19.790	26.326	0.573
790.000	474.685	79.993	19.992	100.040	19.803	25.353	0.478
790.500	475.056	79.994	19.993	100.039	19.816	24.353	0.477
791.000	475.269	79.993	19.992	100.036	19.824	23.833	0.579
791.500	475.575	79.992	19.991	100.036	19.820	24.061	0.551
792.000	475.620	79.994	19.992	100.036	19.836	22.891	0.435
792.500	476.379	79.992	19.993	100.036	19.836	22.948	0.578
793.000	476.198	79.993	19.992	100.033	19.847	22.114	0.691
793.500	476.614	79.993	19.992	100.034	19.854	21.614	0.406
794.000	476.670	79.993	19.992	100.033	19.863	20.947	0.354
794.500	476.981	79.995	19.991	100.032	19.871	20.341	0.420
795.000	477.378	79.994	19.990	100.026	19.871	20.349	0.537
795.500	477.598	79.994	19.991	100.019	19.874	20.094	0.662
796.000	477.534	79.991	19.991	100.010	19.889	19.011	0.386
796.500	478.375	79.994	19.992	100.002	19.886	19.235	0.467
797.000	478.438	79.993	19.991	99.995	19.892	18.774	0.841
797.500	478.336	79.994	19.992	99.992	19.898	18.293	0.433
798.001	479.209	79.994	19.993	99.993	19.905	17.816	0.366
798.501	479.375	79.995	19.992	99.993	19.907	17.681	0.905
799.000	479.188	79.994	19.991	99.993	19.912	17.258	0.509
799.500	479.529	79.993	19.992	99.993	19.921	16.653	0.067
800.000	480.164	79.994	19.991	99.993	19.923	16.460	0.565
800.500	480.044	79.993	19.991	99.990	19.931	15.867	0.745
801.000	480.319	79.991	19.992	99.990	19.934	15.638	0.335
801.500	480.760	79.995	19.992	99.991	19.938	15.346	0.436
802.000	480.871	79.994	19.993	99.991	19.946	14.770	0.634
802.500	481.172	79.993	19.992	99.996	19.947	14.680	0.482
803.000	481.450	79.993	19.992	99.998	19.952	14.334	0.496
803.500	481.608	79.993	19.992	99.998	19.954	14.170	0.508
804.000	482.009	79.993	19.992	100.000	19.954	14.201	0.497
804.500	482.190	79.994	19.992	100.000	19.963	13.504	0.570
805.000	482.358	79.992	19.992	99.994	19.965	13.397	0.465
805.500	482.666	79.994	19.992	99.992	19.972	12.867	0.412
806.000	482.943	79.993	19.991	99.991	19.970	12.964	0.531
806.500	483.138	79.994	19.992	99.989	19.976	12.580	0.529
807.000	483.427	79.994	19.992	99.988	19.980	12.293	0.478
807.500	483.688	79.994	19.993	99.988	19.978	12.424	0.517
808.000	483.933	79.993	19.992	99.987	19.984	11.948	0.528
808.500	484.196	79.992	19.992	99.980	19.988	11.655	0.506
809.000	484.391	79.995	19.993	99.973	19.991	11.456	0.483
809.500	484.656	79.993	19.992	99.969	19.989	11.589	0.459
810.000	484.855	79.993	19.992	99.965	19.996	11.059	0.462
810.500	485.142	79.993	19.992	99.966	19.990	11.514	0.475
811.000	485.367	79.994	19.994	99.973	20.001	10.677	0.499
811.500	485.646	79.993	19.992	99.974	20.002	10.617	0.508
812.000	485.891	79.993	19.993	99.971	20.007	10.248	0.514
812.500	486.141	79.991	19.993	99.968	20.011	9.972	0.510
813.000	486.406	79.992	19.994	99.962	20.014	9.741	0.505
813.500	486.626	79.992	19.993	99.956	20.018	9.448	0.500
814.001	486.937	79.992	19.993	99.955	20.017	9.530	0.508
814.501	487.126	79.992	19.993	99.955	20.021	9.266	0.515
815.000	487.352	79.993	19.993	99.954	20.017	9.512	0.457
815.500	487.638	79.992	19.992	99.953	20.016	9.617	0.463
816.000	487.934	79.992	19.993	99.952	20.020	9.310	0.547
816.500	488.170	79.992	19.992	99.951	20.026	8.875	0.557
817.000	488.358	79.993	19.993	99.951	20.025	8.920	0.478
817.500	488.635	79.992	19.993	99.953	20.026	8.832	0.445
818.000	488.868	79.992	19.992	99.955	20.028	8.691	0.488
818.500	489.164	79.994	19.992	99.955	20.034	8.264	0.520
819.000	489.384	79.993	19.994	99.953	20.039	7.930	0.522
819.500	489.664	79.992	19.993	99.952	20.035	8.162	0.508
820.000	489.909	79.993	19.991	99.951	20.041	7.788	0.513
820.500	490.169	79.992	19.991	99.956	20.041	7.751	0.515
821.000	490.419	79.994	19.992	99.964	20.048	7.244	0.508
821.500	490.634	79.994	19.992	99.975	20.041	7.735	0.488
822.000	490.890	79.993	19.992	99.983	20.042	7.649	0.468
822.500	491.157	79.992	19.992	99.988	20.043	7.584	0.497
823.000	491.395	79.993	19.990	99.985	20.048	7.231	0.514
823.500	491.610	79.994	19.991	99.979	20.051	7.015	0.479
824.000	491.881	79.993	19.992	99.972	20.048	7.251	0.470
824.500	492.117	79.993	19.991	99.962	20.052	6.937	0.497
825.000	492.357	79.993	19.991	99.950	20.052	6.970	0.492
825.500	492.637	79.993	19.991	99.938	20.054	6.820	0.498
826.000	492.909	79.993	19.991	99.930	20.056	6.676	0.536
826.500	493.176	79.994	19.991	99.927	20.057	6.596	0.545
827.000	493.417	79.994	19.992	99.929	20.059	6.420	0.524
827.500	493.698	79.995	19.991	99.937	20.057	6.594	0.515
828.000	493.943	79.992	19.991	99.956	20.059	6.384	0.524
828.500	494.216	79.993	19.991	99.976	20.063	6.108	0.522
829.000	494.432	79.993	19.991	99.985	20.061	6.294	0.504
829.500	494.659	79.995	19.991	99.985	20.061	6.241	0.466
830.000	494.938	79.996	19.993	99.983	20.064	6.059	0.475
830.500	495.161	79.994	19.990	99.972	20.067	5.845	0.504
831.000	495.387	79.994	19.990	99.954	20.065	5.985	0.475
831.500	495.641	79.995	19.992	99.938	20.068	5.732	0.465
832.000	495.902	79.995	19.992	99.926	20.065	5.983	0.498
832.500	496.159	79.995	19.992	99.917	20.064	6.058	0.517
833.000	496.435	79.995	19.991	99.910	20.068	5.767	0.525
833.500	496.668	79.995	19.991	99.907	20.067	5.799	0.521
834.000	496.905	79.995	19.992	99.915	20.067	5.800	0.490
834.500	497.178	79.996	19.991	99.926	20.071	5.557	0.490
835.000	497.405	79.995	19.993	99.935	20.071	5.499	0.505
835.500	497.662	79.995	19.992	99.941	20.067	5.801	0.492
836.000	497.886	79.995	19.992	99.941	20.072	5.487	0.483
836.500	498.198	79.995	19.992	99.935	20.072	5.435	0.508
837.000	498.442	79.995	19.993	99.929	20.072	5.489	0.546
837.500	498.671	79.996	19.992	99.921	20.071	5.525	0.515
838.000	498.889	79.994	19.991	99.915	20.070	5.624	0.460
838.500	499.167	79.994	19.993	99.915	20.072	5.445	0.472
839.000	499.426	79.995	19.991	99.916	20.076	5.184	0.516
839.500	499.683	79.994	19.991	99.915	20.071	5.540	0.527
840.000	499.915	79.995	19.991	99.912	20.077	5.091	0.503
840.500	500.129	79.995	19.991	99.907	20.077	5.123	0.467
841.000	500.448	79.994	19.992	99.904	20.077	5.093	0.490
841.500	500.663	79.994	19.990	99.904	20.079	4.960	0.534
842.000	500.926	79.994	19.990	99.907	20.077	5.120	0.506
842.500	501.181	79.994	19.991	99.910	20.077	5.100	0.498
843.000	501.410	79.994	19.991	99.917	20.076	5.169	0.501
843.500	501.664	79.993	19.991	99.919	20.074	5.322	0.483
844.000	501.950	79.994	19.990	99.919	20.077	5.121	0.511
844.500	502.220	79.994	19.992	99.919	20.077	5.068	0.548
845.000	502.447	79.994	19.992	99.927	20.076	5.202	0.527
845.500	502.653	79.993	19.991	99.932	20.082	4.694	0.465
846.000	502.930	79.996	19.993	99.939	20.079	4.957	0.458
846.500	503.149	79.995	19.991	99.946	20.081	4.769	0.489
847.001	503.448	79.995	19.991	99.952	20.083	4.682	0.507
847.501	503.692	79.995	19.992	99.951	20.079	4.972	0.531
848.000	503.920	79.995	19.991	99.945	20.083	4.616	0.508
848.500	504.212	79.995	19.990	99.939	20.080	4.846	0.496
849.000	504.437	79.995	19.992	99.932	20.081	4.809	0.518
849.500	504.662	79.995	19.991	99.924	20.078	5.038	0.484
850.000	504.929	79.994	19.992	99.918	20.084	4.584	0.471
850.500	505.156	79.995	19.992	99.915	20.082	4.736	0.493
851.000	505.441	79.995	19.990	99.915	20.080	4.864	0.503
851.500	505.633	79.994	19.990	99.914	20.083	4.660	0.495
852.000	505.907	79.996	19.991	99.917	20.081	4.812	0.472
852.500	506.184	79.996	19.991	99.918	20.083	4.654	0.508
853.000	506.427	79.996	19.990	99.920	20.082	4.701	0.535
853.500	506.690	79.995	19.990	99.926	20.081	4.826	0.513
854.000	506.964	79.996	19.991	99.929	20.084	4.575	0.522
854.500	507.231	79.997	19.990	99.930	20.084	4.594	0.539
855.000	507.503	79.995	19.991	99.938	20.081	4.800	0.540
855.500	507.701	79.995	19.990	99.944	20.082	4.747	0.504
856.000	507.953	79.997	19.991	99.947	20.081	4.804	0.460
856.500	508.203	79.996	19.990	99.951	20.082	4.697	0.476
857.000	508.476	79.995	19.991	99.952	20.085	4.521	0.513
857.500	508.704	79.996	19.991	99.945	20.086	4.399	0.512
858.000	508.953	79.996	19.990	99.938	20.087	4.339	0.489
858.500	509.204	79.999	19.990	99.930	20.087	4.338	0.489
859.000	509.466	79.999	19.990	99.919	20.089	4.181	0.507
859.500	509.759	79.997	19.991	99.911	20.086	4.421	0.534
860.000	509.945	79.998	19.990	99.906	20.089	4.173	0.517
860.500	510.201	79.997	19.991	99.899	20.090	4.102	0.461
861.000	510.492	79.996	19.990	99.895	20.090	4.098	0.495
861.500	510.745	79.997	19.992	99.896	20.091	4.081	0.545
862.000	510.966	79.996	19.990	99.899	20.088	4.312	0.508
862.500	511.241	79.995	19.991	99.902	20.089	4.182	0.485
863.000	511.475	79.996	19.992	99.907	20.091	4.081	0.503
863.500	511.733	79.997	19.991	99.912	20.090	4.144	0.501
864.000	511.933	79.996	19.991	99.916	20.094	3.831	0.475
864.500	512.198	79.995	19.992	99.917	20.092	4.003	0.461
865.000	512.450	79.996	19.992	99.917	20.091	4.029	0.491
865.500	512.716	79.996	19.991	99.920	20.088	4.262	0.518
866.000	513.001	79.995	19.991	99.921	20.093	3.887	0.534
866.500	513.210	79.994	19.991	99.920	20.088	4.260	0.522
867.000	513.460	79.994	19.990	99.919	20.090	4.118	0.476
867.500	513.751	79.992	19.990	99.920	20.090	4.161	0.500
868.000	513.987	79.992	19.990	99.917	20.087	4.322	0.534
868.500	514.255	79.993	19.992	99.915	20.091	4.080	0.515
869.000	514.546	79.993	19.992	99.914	20.086	4.434	0.532
869.500	514.787	79.992	19.991	99.913	20.090	4.138	0.546
870.000	515.028	79.993	19.993	99.912	20.090	4.108	0.507
870.500	515.302	79.992	19.992	99.912	20.086	4.432	0.499
871.000	515.570	79.992	19.992	99.913	20.087	4.331	0.529
871.500	515.805	79.992	19.992	99.913	20.091	4.038	0.522
872.000	516.084	79.993	19.992	99.913	20.086	4.410	0.508
872.500	516.320	79.993	19.991	99.910	20.091	4.090	0.514
873.000	516.591	79.993	19.993	99.906	20.088	4.302	0.511
873.500	516.833	79.992	19.991	99.906	20.086	4.442	0.510
874.000	517.105	79.992	19.992	99.906	20.086	4.401	0.513
874.500	517.368	79.993	19.992	99.906	20.088	4.300	0.525
875.000	517.627	79.992	19.991	99.908	20.086	4.399	0.529
875.500	517.885	79.993	19.991	99.911	20.089	4.239	0.520
876.000	518.140	79.994	19.993	99.911	20.088	4.274	0.515
876.500	518.382	79.993	19.992	99.912	20.085	4.477	0.504
877.000	518.674	79.993	19.992	99.912	20.085	4.505	0.515
877.500	518.903	79.993	19.993	99.912	20.087	4.348	0.528
878.000	519.153	79.993	19.991	99.913	20.089	4.210	0.500
878.500	519.426	79.992	19.992	99.915	20.086	4.441	0.501
879.000	519.695	79.994	19.992	99.914	20.087	4.351	0.533
879.500	519.956	79.993	19.994	99.913	20.085	4.472	0.536
880.000	520.222	79.993	19.992	99.913	20.086	4.436	0.529
880.500	520.490	79.992	19.993	99.914	20.089	4.213	0.531
881.000	520.700	79.994	19.992	99.917	20.088	4.276	0.506
881.500	521.016	79.993	19.993	99.925	20.087	4.316	0.501
882.000	521.197	79.993	19.992	99.927	20.092	3.960	0.511
882.500	521.497	79.993	19.991	99.930	20.090	4.158	0.489
883.000	521.715	79.993	19.992	99.930	20.089	4.173	0.500
883.500	521.963	79.993	19.992	99.926	20.094	3.853	0.492
884.000	522.226	79.993	19.991	99.919	20.090	4.167	0.488
884.500	522.474	79.994	19.991	99.917	20.091	4.059	0.511
885.000	522.706	79.993	19.991	99.915	20.096	3.699	0.495
885.501	523.001	79.993	19.992	99.914	20.093	3.931	0.504
886.000	523.261	79.993	19.991	99.913	20.093	3.927	0.541
886.500	523.520	79.992	19.991	99.914	20.091	4.080	0.537
887.000	523.794	79.995	19.990	99.919	20.094	3.864	0.526
887.500	524.051	79.997	19.992	99.928	20.095	3.793	0.532
888.000	524.291	79.992	19.992	99.935	20.098	3.551	0.514
888.500	524.538	79.994	19.991	99.943	20.098	3.523	0.492
889.000	524.825	79.994	19.991	99.942	20.097	3.640	0.510
889.500	525.060	79.993	19.991	99.936	20.095	3.774	0.528
890.000	525.349	79.994	19.991	99.928	20.089	4.229	0.523
890.500	525.538	79.994	19.992	99.921	20.089	4.217	0.501
891.000	525.829	79.993	19.992	99.914	20.091	4.027	0.479
891.500	526.085	79.993	19.993	99.913	20.091	4.023	0.514
892.000	526.313	79.993	19.992	99.913	20.092	3.984	0.515
892.500	526.577	79.993	19.991	99.913	20.091	4.061	0.488
893.000	526.840	79.994	19.993	99.912	20.087	4.340	0.509
893.500	527.119	79.995	19.993	99.912	20.091	4.069	0.535
894.000	527.329	79.994	19.993	99.911	20.090	4.108	0.516
894.500	527.644	79.993	19.992	99.911	20.089	4.217	0.507
895.000	527.893	79.993	19.992	99.911	20.089	4.201	0.545
895.500	528.142	79.994	19.993	99.910	20.090	4.148	0.531
896.000	528.397	79.991	19.991	99.906	20.089	4.195	0.501
896.500	528.619	79.993	19.992	99.899	20.090	4.155	0.491
897.000	528.868	79.993	19.991	99.891	20.093	3.919	0.474
897.500	529.147	79.992	19.991	99.884	20.094	3.801	0.499
898.000	529.435	79.992	19.992	99.878	20.094	3.829	0.547
898.500	529.642	79.992	19.991	99.880	20.090	4.128	0.531
899.000	529.941	79.992	19.992	99.882	20.092	4.013	0.501
899.500	530.165	79.992	19.992	99.889	20.091	4.033	0.515
900.000	530.447	79.993	19.993	99.898	20.092	3.956	0.515
900.500	530.720	79.992	19.993	99.904	20.094	3.827	0.531
901.000	530.938	79.992	19.993	99.908	20.093	3.904	0.522
901.500	531.234	79.992	19.993	99.912	20.090	4.167	0.502
902.000	531.490	79.993	19.994	99.906	20.094	3.845	0.533
902.500	531.724	79.992	19.993	99.901	20.094	3.855	0.521
903.000	531.969	79.991	19.993	99.896	20.096	3.669	0.484
903.500	532.232	79.991	19.995	99.896	20.097	3.624	0.493
904.000	532.442	79.993	19.994	99.895	20.096	3.664	0.491
904.500	532.742	79.992	19.993	99.899	20.095	3.749	0.492
905.000	532.976	79.992	19.992	99.903	20.093	3.884	0.522
905.500	533.231	79.992	19.993	99.907	20.092	3.965	0.511
906.000	533.514	79.993	19.993	99.908	20.090	4.130	0.513
906.500	533.761	79.993	19.993	99.911	20.094	3.861	0.534
907.000	534.017	79.993	19.994	99.920	20.092	3.956	0.517
907.500	534.258	79.992	19.993	99.928	20.094	3.805	0.500
908.000	534.484	79.994	19.994	99.931	20.095	3.790	0.482
908.500	534.755	79.993	19.993	99.931	20.094	3.819	0.481
909.000	535.017	79.993	19.991	99.926	20.096	3.697	0.514
909.500	535.316	79.993	19.992	99.917	20.092	3.955	0.547
910.001	535.551	79.993	19.994	99.910	20.095	3.769	0.548
910.501	535.845	79.995	19.991	99.907	20.090	4.137	0.531
911.000	536.080	79.994	19.993	99.907	20.095	3.769	0.529
911.500	536.358	79.994	19.992	99.912	20.094	3.869	0.521
912.000	536.645	79.994	19.992	99.919	20.092	3.958	0.539
912.500	536.889	79.995	19.992	99.920	20.097	3.635	0.548
913.000	537.123	79.994	19.991	99.920	20.096	3.722	0.504
913.500	537.384	79.995	19.992	99.916	20.092	3.978	0.486
914.000	537.653	79.996	19.991	99.908	20.095	3.756	0.513
914.500	537.925	79.995	19.992	99.893	20.091	4.041	0.536
915.000	538.155	79.993	19.992	99.884	20.094	3.867	0.521
915.500	538.423	79.995	19.991	99.879	20.093	3.898	0.500
916.000	538.697	79.995	19.991	99.880	20.089	4.181	0.520
916.500	538.961	79.996	19.991	99.888	20.090	4.096	0.540
917.000	539.164	79.995	19.991	99.897	20.090	4.094	0.503
917.500	539.465	79.995	19.991	99.905	20.094	3.817	0.486
918.000	539.715	79.995	19.991	99.913	20.092	3.950	0.528
918.500	539.942	79.995	19.990	99.917	20.092	3.994	0.514
919.000	540.213	79.996	19.992	99.916	20.095	3.796	0.487
919.500	540.478	79.995	19.989	99.909	20.094	3.859	0.517
920.000	540.723	79.996	19.990	99.901	20.094	3.827	0.523
920.500	540.976	79.995	19.992	99.891	20.094	3.827	0.504
921.000	541.250	79.995	19.991	99.885	20.096	3.722	0.512
921.500	541.468	79.995	19.991	99.887	20.094	3.813	0.510
922.000	541.779	79.996	19.991	99.895	20.094	3.851	0.510
922.500	542.017	79.995	19.991	99.903	20.096	3.703	0.539
923.000	542.249	79.994	19.992	99.910	20.096	3.705	0.510
923.500	542.519	79.994	19.992	99.915	20.095	3.756	0.486
924.000	542.799	79.994	19.992	99.914	20.096	3.691	0.526
924.500	543.056	79.995	19.992	99.913	20.101	3.339	0.543
925.000	543.285	79.994	19.991	99.912	20.100	3.392	0.511
925.500	543.537	79.995	19.991	99.912	20.095	3.734	0.484
926.000	543.817	79.994	19.992	99.912	20.099	3.440	0.507
926.500	544.078	79.995	19.992	99.912	20.099	3.481	0.537
927.000	544.305	79.996	19.992	99.913	20.096	3.657	0.514
927.500	544.582	79.994	19.992	99.912	20.099	3.434	0.495
928.000	544.801	79.996	19.992	99.910	20.098	3.527	0.500
928.500	545.085	79.996	19.992	99.909	20.094	3.800	0.500
929.000	545.355	79.993	19.992	99.909	20.099	3.491	0.529
929.500	545.633	79.996	19.993	99.909	20.094	3.812	0.551
930.000	545.881	79.996	19.993	99.910	20.096	3.703	0.537
930.500	546.121	79.994	19.991	99.912	20.097	3.624	0.507
931.000	546.378	79.996	19.992	99.914	20.097	3.578	0.492
931.500	546.641	79.996	19.992	99.914	20.093	3.940	0.508
932.000	546.903	79.996	19.991	99.913	20.095	3.792	0.523
932.500	547.169	79.994	19.991	99.912	20.097	3.640	0.527
933.000	547.430	79.996	19.991	99.910	20.097	3.587	0.528
933.500	547.686	79.995	19.992	99.907	20.099	3.476	0.522
934.000	547.964	79.996	19.992	99.906	20.094	3.854	0.526
934.500	548.185	79.995	19.991	99.905	20.097	3.626	0.517
935.000	548.440	79.996	19.991	99.905	20.098	3.531	0.487
935.500	548.707	79.995	19.991	99.907	20.097	3.590	0.499
936.000	548.937	79.998	19.992	99.907	20.098	3.563	0.510
936.500	549.207	79.996	19.992	99.909	20.100	3.375	0.499
937.000	549.494	79.995	19.992	99.911	20.099	3.450	0.528
937.500	549.734	79.996	19.991	99.912	20.101	3.328	0.542
938.000	550.070	79.997	19.992	99.913	20.101	3.322	0.552
938.500	550.309	79.995	19.992	99.913	20.101	3.343	0.575
939.000	550.561	79.997	19.991	99.912	20.097	3.593	0.533
939.500	550.784	79.995	19.991	99.908	20.096	3.693	0.484
940.000	551.066	79.996	19.992	99.903	20.093	3.933	0.490
940.500	551.308	79.996	19.992	99.898	20.095	3.753	0.514
941.000	551.565	79.996	19.991	99.897	20.097	3.605	0.511
941.500	551.838	79.998	19.990	99.898	20.096	3.706	0.514
942.000	552.085	79.997	19.991	99.901	20.097	3.624	0.525
942.500	552.353	79.997	19.990	99.901	20.095	3.749	0.518
943.000	552.589	79.997	19.990	99.897	20.091	4.081	0.509
943.500	552.838	79.996	19.990	99.890	20.095	3.748	0.494
944.000	553.092	79.997	19.989	99.882	20.095	3.727	0.494
944.500	553.369	79.998	19.990	99.878	20.095	3.751	0.517
945.000	553.631	79.996	19.992	99.883	20.097	3.644	0.535
945.500	553.862	79.996	19.991	99.889	20.100	3.405	0.516
946.000	554.109	79.998	19.991	99.895	20.100	3.401	0.486
946.500	554.384	79.996	19.990	99.900	20.102	3.235	0.500
947.000	554.637	79.997	19.990	99.901	20.101	3.314	0.525
947.500	554.956	79.996	19.993	99.894	20.095	3.748	0.550
948.000	555.158	79.996	19.990	99.889	20.098	3.537	0.546
948.500	555.409	79.996	19.991	99.889	20.101	3.282	0.487
949.000	555.688	79.993	19.991	99.891	20.102	3.256	0.491
949.500	555.962	79.994	19.991	99.893	20.098	3.561	0.542
950.000	556.203	79.995	19.992	99.893	20.100	3.389	0.534
950.500	556.459	79.993	19.992	99.894	20.097	3.619	0.506
951.000	556.734	79.995	19.992	99.890	20.097	3.603	0.514
951.500	556.954	79.993	19.991	99.883	20.099	3.476	0.513
952.000	557.224	79.993	19.991	99.877	20.095	3.727	0.492
952.500	557.489	79.993	19.991	99.882	20.099	3.486	0.512
953.000	557.726	79.993	19.991	99.886	20.099	3.472	0.519
953.500	557.969	79.994	19.992	99.893	20.096	3.656	0.491
954.000	558.202	79.994	19.992	99.897	20.096	3.684	0.478
954.500	558.533	79.993	19.991	99.903	20.100	3.399	0.520
955.000	558.760	79.993	19.992	99.899	20.101	3.327	0.561
955.500	558.973	79.994	19.992	99.892	20.098	3.565	0.499
956.000	559.259	79.992	19.991	99.881	20.100	3.374	0.469
956.500	559.520	79.993	19.992	99.879	20.101	3.323	0.523
957.000	559.775	79.994	19.992	99.880	20.101	3.335	0.532
957.500	559.991	79.994	19.993	99.887	20.101	3.351	0.494
958.000	560.272	79.993	19.992	99.894	20.099	3.440	0.484
958.500	560.517	79.992	19.992	99.905	20.098	3.550	0.511
959.000	560.806	79.995	19.991	99.908	20.098	3.523	0.530
959.500	561.068	79.993	19.993	99.903	20.100	3.384	0.542
960.000	561.319	79.993	19.991	99.895	20.102	3.250	0.532
960.500	561.633	79.993	19.992	99.889	20.095	3.744	0.539
961.000	561.824	79.992	19.991	99.884	20.095	3.752	0.535
961.500	562.091	79.994	19.992	99.881	20.094	3.809	0.482
962.000	562.336	79.994	19.992	99.883	20.094	3.872	0.485
962.500	562.598	79.995	19.993	99.885	20.094	3.837	0.510
963.000	562.879	79.994	19.992	99.888	20.095	3.783	0.525
963.500	563.107	79.993	19.992	99.888	20.095	3.760	0.526
964.000	563.333	79.994	19.992	99.887	20.097	3.582	0.482
964.501	563.594	79.990	19.992	99.883	20.099	3.472	0.471
965.000	563.855	79.994	19.992	99.885	20.096	3.696	0.505
965.500	564.105	79.993	19.991	99.890	20.100	3.359	0.516
966.000	564.361	79.995	19.993	99.895	20.100	3.391	0.508
966.500	564.641	79.993	19.993	99.902	20.094	3.840	0.521
967.000	564.891	79.994	19.992	99.909	20.099	3.444	0.533
967.500	565.099	79.995	19.991	99.914	20.100	3.383	0.494
968.000	565.385	79.994	19.992	99.914	20.098	3.503	0.476
968.500	565.671	79.995	19.992	99.913	20.096	3.711	0.533
969.000	565.905	79.992	19.992	99.914	20.100	3.396	0.546
969.500	566.166	79.992	19.991	99.914	20.097	3.600	0.508
970.000	566.394	79.994	19.992	99.913	20.102	3.265	0.492
970.500	566.693	79.993	19.992	99.914	20.099	3.432	0.508
971.000	566.922	79.996	19.992	99.914	20.102	3.273	0.528
971.500	567.190	79.995	19.992	99.914	20.098	3.540	0.512
972.000	567.445	79.996	19.991	99.914	20.099	3.473	0.510
972.500	567.691	79.995	19.990	99.916	20.097	3.639	0.512
973.000	567.956	79.996	19.992	99.922	20.101	3.315	0.506
973.500	568.158	79.993	19.991	99.923	20.102	3.230	0.489
974.000	568.448	79.994	19.992	99.919	20.100	3.362	0.480
974.500	568.680	79.995	19.990	99.912	20.102	3.273	0.507
975.000	568.931	79.993	19.992	99.903	20.100	3.380	0.503
975.500	569.184	79.994	19.991	99.889	20.101	3.313	0.493
976.000	569.403	79.994	19.992	99.885	20.101	3.347	0.488
976.500	569.653	79.993	19.992	99.887	20.101	3.315	0.471
977.000	569.947	79.993	19.991	99.891	20.100	3.390	0.507
977.500	570.192	79.994	19.992	99.894	20.099	3.485	0.541
978.000	570.480	79.994	19.992	99.898	20.100	3.396	0.535
978.500	570.699	79.993	19.991	99.899	20.098	3.517	0.520
979.000	570.935	79.993	19.992	99.899	20.098	3.564	0.481
979.500	571.229	79.994	19.991	99.902	20.097	3.588	0.493
980.000	571.486	79.993	19.991	99.908	20.097	3.601	0.541
980.500	571.730	79.993	19.992	99.911	20.100	3.421	0.527
981.000	571.983	79.992	19.993	99.914	20.098	3.524	0.499
981.500	572.263	79.992	19.992	99.916	20.099	3.448	0.515
982.000	572.489	79.992	19.991	99.917	20.096	3.684	0.519
982.500	572.737	79.993	19.991	99.913	20.097	3.618	0.490
983.000	573.012	79.993	19.992	99.911	20.098	3.567	0.498
983.500	573.293	79.992	19.991	99.911	20.095	3.763	0.540
984.000	573.561	79.992	19.991	99.911	20.092	3.961	0.553
984.500	573.810	79.992	19.992	99.910	20.097	3.605	0.533
985.000	574.109	79.991	19.992	99.913	20.097	3.587	0.533
985.500	574.333	79.991	19.992	99.915	20.095	3.749	0.535
986.000	574.577	79.992	19.991	99.915	20.096	3.703	0.495
986.500	574.813	79.992	19.992	99.914	20.093	3.877	0.474
987.000	575.080	79.993	19.991	99.915	20.095	3.756	0.492
987.500	575.376	79.993	19.993	99.915	20.094	3.865	0.533
988.000	575.629	79.993	19.991	99.915	20.096	3.663	0.556
988.500	575.880	79.992	19.994	99.915	20.095	3.744	0.526
989.000	576.120	79.993	19.993	99.913	20.099	3.471	0.497
989.500	576.411	79.992	19.993	99.910	20.094	3.821	0.511
990.000	576.641	79.994	19.993	99.904	20.097	3.614	0.526
990.500	576.920	79.992	19.993	99.896	20.097	3.606	0.515
991.000	577.150	79.993	19.993	99.890	20.098	3.539	0.509
991.500	577.413	79.994	19.993	99.888	20.098	3.548	0.501
992.000	577.654	79.994	19.992	99.887	20.094	3.857	0.498
992.500	577.932	79.993	19.993	99.887	20.095	3.744	0.511
993.000	578.174	79.994	19.992	99.890	20.099	3.483	0.519
993.500	578.411	79.995	19.994	99.894	20.093	3.902	0.499
994.000	578.677	79.995	19.992	99.891	20.097	3.618	0.491
994.500	578.927	79.995	19.991	99.888	20.096	3.683	0.509
995.000	579.204	79.995	19.992	99.885	20.096	3.655	0.521
995.500	579.449	79.995	19.993	99.886	20.094	3.820	0.525
996.000	579.689	79.995	19.992	99.886	20.092	3.984	0.504
996.500	579.915	79.994	19.992	99.889	20.092	3.952	0.475
997.000	580.192	79.995	19.992	99.895	20.095	3.735	0.484
997.500	580.463	79.996	19.992	99.901	20.093	3.901	0.525
998.000	580.701	79.994	19.992	99.904	20.097	3.577	0.528
998.500	580.970	79.996	19.992	99.904	20.095	3.766	0.508
999.000	581.194	79.994	19.991	99.907	20.091	4.067	0.500
999.500	581.475	79.997	19.992	99.907	20.095	3.782	0.499
1000.000	581.732	79.996	19.992	99.907	20.096	3.703	0.521
1000.500	581.986	79.996	19.991	99.908	20.095	3.758	0.524
1001.000	582.235	79.996	19.992	99.910	20.094	3.819	0.507
1001.500	582.439	79.995	19.992	99.909	20.095	3.778	0.479
1002.001	582.730	79.995	19.990	99.911	20.095	3.728	0.474
1002.500	582.971	79.996	19.990	99.911	20.095	3.748	0.513
1003.000	583.259	79.996	19.992	99.911	20.090	4.126	0.530
1003.500	583.506	79.994	19.991	99.911	20.091	4.071	0.532
1004.000	583.754	79.996	19.992	99.912	20.091	4.045	0.515
1004.500	584.013	79.997	19.992	99.910	20.096	3.691	0.501
1005.000	584.268	79.994	19.991	99.909	20.093	3.903	0.511
1005.500	584.518	79.995	19.993	99.909	20.096	3.723	0.510
1006.000	584.764	79.996	19.992	99.908	20.095	3.729	0.501
1006.500	585.054	79.996	19.992	99.906	20.093	3.930	0.516
1007.000	585.337	79.996	19.991	99.903	20.096	3.707	0.554
1007.500	585.560	79.996	19.992	99.902	20.092	3.954	0.539
1008.000	585.817	79.995	19.990	99.899	20.090	4.119	0.493
1008.500	586.101	79.994	19.990	99.895	20.092	3.974	0.511
1009.000	586.329	79.995	19.992	99.893	20.093	3.931	0.526
1009.500	586.581	79.996	19.992	99.898	20.090	4.097	0.496
1010.000	586.859	79.998	19.991	99.901	20.091	4.064	0.505
1010.500	587.074	79.995	19.991	99.903	20.092	4.014	0.511
1011.000	587.369	79.995	19.992	99.908	20.093	3.911	0.501
1011.500	587.606	79.996	19.991	99.911	20.090	4.158	0.521
1012.000	587.876	79.994	19.992	99.912	20.090	4.146	0.520
1012.500	588.136	79.995	19.990	99.913	20.092	3.996	0.519
1013.000	588.410	79.995	19.991	99.912	20.092	4.016	0.532
1013.500	588.640	79.995	19.991	99.913	20.091	4.022	0.519
1014.000	588.898	79.996	19.991	99.912	20.086	4.398	0.496
1014.500	589.158	79.996	19.992	99.909	20.090	4.122	0.503
1015.000	589.399	79.995	19.991	99.908	20.088	4.251	0.509
1015.500	589.694	79.996	19.992	99.907	20.089	4.231	0.518
1016.000	589.948	79.997	19.992	99.903	20.089	4.180	0.542
1016.500	590.148	79.994	19.991	99.902	20.091	4.039	0.502
1017.000	590.391	79.997	19.992	99.904	20.093	3.879	0.449
1017.500	590.665	79.995	19.991	99.904	20.093	3.875	0.480
1018.000	590.915	79.997	19.992	99.899	20.089	4.233	0.520
1018.500	591.195	79.995	19.992	99.898	20.091	4.076	0.527
1019.000	591.424	79.995	19.991	99.895	20.094	3.847	0.520
1019.500	591.717	79.997	19.991	99.890	20.091	4.061	0.515
1020.000	591.955	79.996	19.992	99.885	20.095	3.766	0.526
1020.500	592.219	79.996	19.992	99.888	20.090	4.122	0.516
1021.000	592.503	79.997	19.990	99.889	20.089	4.187	0.525
1021.500	592.704	79.996	19.990	99.892	20.092	3.974	0.517
1022.000	592.990	79.998	19.990	99.896	20.091	4.088	0.486
1022.500	593.239	79.996	19.992	99.900	20.091	4.053	0.511
1023.000	593.482	79.998	19.992	99.900	20.090	4.144	0.514
1023.500	593.769	79.996	19.992	99.904	20.089	4.208	0.511
1024.000	594.003	79.996	19.989	99.903	20.091	4.032	0.525
1024.501	594.279	79.995	19.990	99.900	20.090	4.135	0.515
1025.001	594.558	79.996	19.990	99.897	20.092	4.010	0.532
1025.501	594.812	79.994	19.991	99.899	20.087	4.320	0.544
1026.001	595.033	79.996	19.990	99.897	20.090	4.158	0.504
1026.501	595.302	79.996	19.992	99.900	20.090	4.138	0.483
1027.000	595.579	79.996	19.990	99.904	20.092	3.962	0.518
1027.500	595.806	79.995	19.991	99.910	20.092	3.950	0.525
1028.000	596.052	79.995	19.991	99.910	20.094	3.861	0.488
1028.500	596.345	79.995	19.990	99.912	20.092	4.015	0.506
1029.000	596.574	79.996	19.991	99.912	20.091	4.090	0.530
1029.500	596.858	79.994	19.991	99.913	20.089	4.197	0.518
1030.000	597.100	79.992	19.990	99.913	20.088	4.251	0.520
1030.500	597.386	79.993	19.991	99.912	20.092	3.969	0.527
1031.000	597.658	79.994	19.991	99.911	20.091	4.088	0.542
1031.500	597.939	79.994	19.991	99.911	20.089	4.224	0.556
1032.000	598.156	79.993	19.990	99.911	20.092	3.999	0.526
1032.500	598.390	79.993	19.990	99.910	20.092	3.967	0.474
1033.000	598.646	79.993	19.991	99.910	20.094	3.816	0.470
1033.500	598.912	79.994	19.991	99.905	20.090	4.111	0.506
1034.000	599.161	79.992	19.990	99.898	20.088	4.299	0.518
1034.500	599.449	79.993	19.992	99.892	20.093	3.877	0.526
1035.000	599.692	79.993	19.990	99.889	20.092	3.946	0.534
1035.500	599.948	79.994	19.991	99.888	20.090	4.144	0.515
1036.000	600.213	79.993	19.990	99.894	20.089	4.176	0.510
1036.500	600.449	79.993	19.991	99.901	20.087	4.360	0.511
1037.000	600.674	79.993	19.991	99.906	20.090	4.165	0.481
1037.500	601.010	79.994	19.991	99.908	20.088	4.297	0.511
1038.000	601.219	79.992	19.991	99.912	20.091	4.064	0.553
1038.500	601.484	79.994	19.990	99.916	20.091	4.088	0.509
1039.000	601.712	79.993	19.991	99.917	20.090	4.112	0.483
1039.500	601.971	79.993	19.991	99.918	20.089	4.224	0.490
1040.000	602.245	79.992	19.990	99.916	20.089	4.226	0.510
1040.500	602.523	79.993	19.990	99.907	20.089	4.208	0.543
1041.000	602.761	79.992	19.990	99.898	20.088	4.279	0.534
1041.500	603.024	79.990	19.990	99.890	20.090	4.138	0.508
1042.000	603.280	79.992	19.992	99.882	20.092	3.970	0.510
1042.500	603.543	79.991	19.990	99.879	20.093	3.877	0.519
1043.000	603.787	79.993	19.991	99.878	20.091	4.051	0.513
1043.500	604.018	79.993	19.991	99.881	20.089	4.168	0.491
1044.000	604.252	79.992	19.991	99.885	20.086	4.413	0.470
1044.500	604.552	79.993	19.991	99.892	20.089	4.174	0.499
1045.000	604.795	79.993	19.991	99.894	20.091	4.026	0.539
1045.500	605.042	79.992	19.991	99.898	20.092	3.998	0.517
1046.000	605.303	79.992	19.991	99.898	20.087	4.339	0.499
1046.500	605.555	79.993	19.991	99.897	20.090	4.129	0.510
1047.000	605.818	79.992	19.991	99.889	20.094	3.866	0.513
1047.500	606.060	79.993	19.992	99.887	20.093	3.921	0.510
1048.000	606.293	79.993	19.993	99.883	20.095	3.792	0.491
1048.501	606.538	79.990	19.991	99.879	20.095	3.741	0.477
1049.001	606.814	79.992	19.992	99.877	20.093	3.881	0.499
1049.500	607.068	79.994	19.992	99.877	20.093	3.889	0.525
1050.000	607.298	79.991	19.992	99.876	20.095	3.784	0.507
1050.500	607.542	79.992	19.990	99.879	20.094	3.806	0.479
1051.000	607.830	79.991	19.991	99.887	20.096	3.707	0.503
1051.500	608.093	79.992	19.991	99.894	20.090	4.103	0.542
1052.000	608.343	79.993	19.992	99.900	20.096	3.711	0.532
1052.500	608.588	79.990	19.992	99.907	20.095	3.769	0.504
1053.000	608.852	79.994	19.993	99.912	20.097	3.593	0.503
1053.500	609.118	79.992	19.991	99.908	20.096	3.664	0.520
1054.000	609.375	79.992	19.992	99.908	20.092	3.948	0.526
1054.500	609.589	79.992	19.992	99.909	20.096	3.657	0.496
1055.000	609.884	79.992	19.993	99.909	20.093	3.903	0.490
1055.500	610.132	79.993	19.992	99.902	20.091	4.022	0.526
1056.000	610.409	79.991	19.991	99.897	20.092	3.980	0.534
1056.500	610.654	79.993	19.992	99.889	20.094	3.820	0.524
1057.000	610.927	79.995	19.991	99.885	20.092	3.994	0.520
1057.500	611.159	79.992	19.992	99.878	20.092	3.982	0.511
1058.000	611.416	79.993	19.992	99.877	20.090	4.124	0.497
1058.500	611.654	79.993	19.991	99.883	20.092	3.990	0.492
1059.000	611.922	79.992	19.992	99.891	20.088	4.272	0.501
1059.500	612.188	79.993	19.991	99.895	20.089	4.211	0.520
1060.000	612.449	79.993	19.992	99.903	20.093	3.875	0.530
1060.500	612.715	79.992	19.992	99.907	20.094	3.841	0.527
1061.000	612.969	79.991	19.990	99.908	20.094	3.825	0.524
1061.500	613.281	79.992	19.992	99.904	20.093	3.904	0.543
1062.000	613.521	79.992	19.992	99.897	20.092	3.964	0.559
1062.500	613.801	79.994	19.992	99.890	20.092	3.976	0.536
1063.000	614.034	79.991	19.992	99.887	20.092	3.960	0.516
1063.500	614.299	79.993	19.992	99.887	20.092	3.952	0.505
1064.000	614.556	79.989	19.991	99.891	20.093	3.908	0.510
1064.500	614.823	79.994	19.993	99.898	20.091	4.071	0.523
1065.000	615.100	79.992	19.992	99.904	20.092	3.980	0.534
1065.501	615.350	79.993	19.992	99.908	20.094	3.865	0.535
1066.001	615.584	79.991	19.992	99.904	20.094	3.802	0.505
1066.500	615.839	79.993	19.992	99.900	20.093	3.938	0.486
1067.000	616.072	79.992	19.992	99.894	20.090	4.114	0.488
1067.500	616.372	79.992	19.992	99.892	20.094	3.830	0.511
1068.000	616.615	79.993	19.993	99.893	20.093	3.891	0.538
1068.500	616.868	79.995	19.992	99.896	20.094	3.824	0.520
1069.000	617.126	79.993	19.992	99.899	20.091	4.033	0.504
1069.500	617.348	79.993	19.993	99.904	20.095	3.762	0.496
1070.000	617.629	79.993	19.991	99.907	20.095	3.792	0.491
1070.500	617.910	79.993	19.993	99.907	20.092	3.994	0.532
1071.000	618.106	79.991	19.992	99.908	20.093	3.899	0.520
1071.500	618.398	79.993	19.994	99.909	20.091	4.037	0.483
1072.000	618.667	79.994	19.991	99.910	20.092	3.996	0.525
1072.500	618.890	79.994	19.991	99.910	20.093	3.899	0.526
1073.000	619.165	79.993	19.993	99.910	20.094	3.816	0.495
1073.500	619.425	79.994	19.991	99.910	20.093	3.923	0.517
1074.000	619.674	79.993	19.993	99.910	20.096	3.721	0.522
1074.500	619.956	79.995	19.992	99.910	20.092	3.945	0.520
1075.000	620.239	79.993	19.992	99.910	20.094	3.842	0.548
1075.500	620.538	79.994	19.992	99.911	20.091	4.032	0.574
1076.000	620.730	79.995	19.992	99.912	20.096	3.656	0.537
1076.500	621.011	79.995	19.992	99.911	20.098	3.569	0.482
1077.000	621.267	79.995	19.992	99.910	20.094	3.838	0.505
1077.500	621.506	79.997	19.992	99.909	20.096	3.700	0.516
1078.000	621.778	79.993	19.993	99.903	20.096	3.700	0.503
1078.500	622.002	79.994	19.992	99.903	20.094	3.836	0.503
1079.000	622.288	79.994	19.993	99.903	20.092	4.008	0.503
1079.500	622.527	79.994	19.993	99.901	20.095	3.753	0.517
1080.000	622.783	79.994	19.992	99.903	20.090	4.157	0.510
1080.500	623.042	79.994	19.991	99.905	20.093	3.909	0.506
1081.000	623.281	79.994	19.992	99.904	20.096	3.712	0.507
1081.500	623.549	79.994	19.992	99.904	20.096	3.654	0.502
1082.000	623.793	79.995	19.992	99.907	20.095	3.733	0.509
1082.500	624.063	79.994	19.992	99.905	20.096	3.707	0.513
1083.000	624.336	79.994	19.993	99.901	20.094	3.820	0.528
1083.500	624.607	79.995	19.993	99.901	20.092	3.959	0.543
1084.000	624.847	79.994	19.992	99.898	20.093	3.892	0.528
1084.501	625.083	79.992	19.992	99.891	20.095	3.775	0.493
1085.001	625.340	79.994	19.992	99.890	20.094	3.862	0.484
1085.500	625.639	79.994	19.993	99.891	20.093	3.876	0.525
1086.000	625.858	79.992	19.993	99.886	20.091	4.066	0.538
1086.500	626.149	79.995	19.991	99.883	20.093	3.876	0.514
1087.001	626.385	79.994	19.992	99.884	20.094	3.822	0.518
1087.501	626.654	79.994	19.993	99.884	20.092	3.963	0.516
1088.000	626.911	79.994	19.992	99.882	20.090	4.149	0.515
1088.500	627.167	79.996	19.992	99.882	20.093	3.878	0.519
1089.000	627.428	79.994	19.992	99.882	20.097	3.607	0.515
1089.500	627.701	79.994	19.991	99.883	20.089	4.173	0.526
1090.000	627.923	79.994	19.990	99.881	20.089	4.185	0.514
1090.500	628.197	79.992	19.991	99.883	20.093	3.939	0.495
1091.000	628.429	79.993	19.990	99.881	20.089	4.183	0.501
1091.500	628.705	79.994	19.990	99.883	20.091	4.020	0.507
1092.000	628.957	79.993	19.991	99.884	20.092	4.000	0.518
1092.500	629.243	79.993	19.991	99.889	20.091	4.070	0.533
1093.000	629.453	79.994	19.991	99.891	20.092	4.014	0.517
1093.500	629.708	79.991	19.990	99.896	20.091	4.026	0.480
1094.000	629.941	79.995	19.990	99.895	20.093	3.874	0.477
1094.500	630.217	79.993	19.992	99.893	20.091	4.058	0.499
1095.000	630.486	79.994	19.992	99.886	20.093	3.887	0.527
1095.500	630.707	79.995	19.991	99.883	20.094	3.871	0.517
1096.000	631.000	79.997	19.991	99.879	20.093	3.887	0.502
1096.500	631.277	79.994	19.992	99.877	20.096	3.693	0.542
1097.000	631.496	79.992	19.991	99.878	20.097	3.596	0.533
1097.500	631.746	79.995	19.990	99.879	20.096	3.721	0.483
1098.000	632.026	79.995	19.991	99.882	20.095	3.792	0.500
1098.500	632.263	79.995	19.990	99.883	20.096	3.683	0.523
1099.000	632.508	79.996	19.990	99.886	20.098	3.545	0.500
1099.500	632.770	79.995	19.991	99.887	20.098	3.547	0.495
1100.001	633.005	79.992	19.991	99.886	20.095	3.735	0.502
1100.501	633.261	79.994	19.991	99.882	20.095	3.737	0.494
1101.000	633.566	79.996	19.990	99.881	20.094	3.826	0.525
1101.500	633.770	79.993	19.992	99.878	20.096	3.650	0.535
1102.000	634.069	79.996	19.991	99.877	20.095	3.754	0.507
1102.500	634.336	79.996	19.991	99.879	20.095	3.746	0.535
1103.000	634.574	79.996	19.991	99.883	20.096	3.689	0.535
1103.500	634.816	79.996	19.991	99.884	20.095	3.786	0.492
1104.001	635.061	79.996	19.989	99.885	20.094	3.821	0.483
1104.501	635.319	79.995	19.991	99.885	20.096	3.710	0.495
1105.001	635.564	79.997	19.991	99.886	20.094	3.869	0.504
1105.501	635.795	79.996	19.991	99.888	20.097	3.631	0.490
1106.002	636.036	79.996	19.991	99.888	20.096	3.721	0.474
1106.502	636.358	79.996	19.991	99.893	20.096	3.673	0.517
1107.002	636.607	79.996	19.990	99.898	20.096	3.721	0.567
1107.501	636.864	79.995	19.990	99.897	20.097	3.620	0.538
1108.000	637.089	79.997	19.991	99.894	20.098	3.521	0.494
1108.500	637.371	79.997	19.991	99.895	20.095	3.747	0.495
1109.000	637.639	79.992	19.990	99.896	20.100	3.377	0.529
1109.500	637.893	79.995	19.991	99.897	20.100	3.418	0.536
1110.001	638.186	79.995	19.991	99.898	20.095	3.735	0.535
1110.501	638.430	79.994	19.990	99.896	20.099	3.486	0.542
1111.000	638.693	79.994	19.992	99.895	20.097	3.644	0.522
1111.500	638.941	79.994	19.991	99.892	20.098	3.514	0.509
1112.000	639.186	79.992	19.992	99.891	20.100	3.376	0.502
1112.500	639.465	79.993	19.991	99.897	20.097	3.581	0.509
1113.000	639.679	79.993	19.991	99.904	20.097	3.595	0.509
1113.500	639.970	79.994	19.992	99.908	20.099	3.490	0.499
1114.000	640.233	79.994	19.992	99.911	20.099	3.474	0.530
1114.500	640.505	79.993	19.992	99.915	20.099	3.430	0.544
1115.001	640.744	79.994	19.991	99.915	20.098	3.560	0.523
1115.501	640.986	79.995	19.993	99.915	20.098	3.539	0.496
1116.000	641.291	79.995	19.991	99.916	20.096	3.675	0.514
1116.500	641.540	79.995	19.991	99.916	20.098	3.557	0.550
1117.000	641.812	79.995	19.991	99.910	20.099	3.429	0.538
1117.500	642.042	79.994	19.991	99.903	20.099	3.459	0.512
1118.000	642.315	79.993	19.991	99.896	20.099	3.482	0.502
1118.500	642.537	79.995	19.991	99.893	20.099	3.472	0.499
1119.000	642.789	79.995	19.990	99.889	20.097	3.601	0.484
1119.500	643.059	79.994	19.991	99.890	20.097	3.577	0.498
1120.000	643.306	79.994	19.991	99.895	20.097	3.614	0.520
1120.500	643.542	79.992	19.991	99.895	20.096	3.697	0.500
1121.000	643.814	79.993	19.992	99.889	20.096	3.675	0.495
1121.500	644.099	79.990	19.990	99.886	20.098	3.553	0.533
1122.000	644.356	79.992	19.991	99.882	20.095	3.727	0.549
1122.500	644.598	79.993	19.991	99.876	20.097	3.606	0.521
1123.000	644.884	79.994	19.991	99.874	20.096	3.661	0.514
1123.500	645.134	79.993	19.991	99.874	20.098	3.515	0.532
1124.000	645.397	79.992	19.991	99.880	20.098	3.517	0.525
1124.500	645.657	79.995	19.991	99.888	20.099	3.432	0.518
1125.000	645.946	79.993	19.991	99.896	20.097	3.614	0.536
1125.500	646.182	79.993	19.992	99.904	20.100	3.409	0.537
1126.000	646.467	79.994	19.991	99.909	20.096	3.703	0.523
1126.500	646.702	79.992	19.991	99.905	20.096	3.654	0.521
1127.000	646.943	79.994	19.992	99.898	20.099	3.466	0.498
1127.500	647.239	79.994	19.990	99.889	20.100	3.390	0.506
1128.000	647.486	79.994	19.991	99.882	20.097	3.616	0.540
1128.500	647.739	79.994	19.991	99.877	20.096	3.717	0.521
1129.000	647.998	79.994	19.992	99.875	20.098	3.531	0.506
1129.500	648.273	79.995	19.990	99.881	20.098	3.515	0.523
1130.000	648.524	79.996	19.990	99.889	20.099	3.476	0.530
1130.500	648.787	79.995	19.991	99.894	20.097	3.620	0.520
1131.001	649.089	79.993	19.991	99.899	20.100	3.384	0.540
1131.501	649.353	79.993	19.992	99.905	20.094	3.814	0.565
1132.000	649.560	79.993	19.991	99.903	20.097	3.643	0.518
1132.500	649.840	79.994	19.990	99.902	20.098	3.570	0.479
1133.000	650.099	79.995	19.990	99.904	20.102	3.264	0.513
1133.500	650.379	79.995	19.990	99.905	20.097	3.610	0.539
1134.000	650.632	79.994	19.991	99.906	20.100	3.417	0.536
1134.500	650.869	79.993	19.990	99.906	20.100	3.395	0.511
1135.000	651.127	79.995	19.993	99.900	20.099	3.474	0.493
1135.500	651.419	79.993	19.992	99.894	20.098	3.565	0.523
1136.000	651.630	79.992	19.992	99.892	20.098	3.565	0.526
1136.500	651.937	79.998	19.992	99.892	20.097	3.598	0.511
1137.000	652.175	79.994	19.993	99.893	20.098	3.555	0.532
1137.501	652.427	79.993	19.992	99.899	20.097	3.620	0.518
1138.001	652.701	79.992	19.992	99.905	20.097	3.598	0.508
1138.500	653.026	79.992	19.992	99.908	20.099	3.434	0.562
1139.000	653.244	79.993	19.992	99.904	20.099	3.486	0.571
1139.500	653.501	79.991	19.992	99.901	20.099	3.454	0.509
1140.000	653.772	79.994	19.992	99.899	20.098	3.537	0.502
1140.500	654.062	79.994	19.992	99.899	20.096	3.666	0.544
1141.000	654.302	79.991	19.992	99.898	20.099	3.458	0.545
1141.501	654.548	79.994	19.992	99.900	20.101	3.292	0.508
1142.001	654.877	79.990	19.991	99.903	20.101	3.300	0.530
1142.500	655.041	79.992	19.993	99.906	20.099	3.458	0.534
1143.000	655.365	79.991	19.992	99.907	20.096	3.652	0.490
1143.500	655.630	79.989	19.991	99.909	20.098	3.542	0.538
1144.000	655.870	79.990	19.991	99.903	20.097	3.595	0.547
1144.500	656.121	79.993	19.991	99.898	20.094	3.823	0.499
1145.000	656.370	79.991	19.991	99.892	20.095	3.726	0.496
1145.500	656.651	79.993	19.992	99.890	20.098	3.573	0.514
1146.000	656.886	79.993	19.991	99.888	20.100	3.403	0.523
1146.500	657.117	79.992	19.991	99.887	20.100	3.409	0.491
1147.000	657.417	79.994	19.991	99.889	20.095	3.759	0.498
1147.500	657.698	79.992	19.991	99.895	20.097	3.626	0.556
1148.000	657.943	79.994	19.991	99.893	20.097	3.598	0.554
1148.500	658.209	79.994	19.991	99.890	20.101	3.303	0.518
1149.000	658.472	79.993	19.992	99.893	20.098	3.505	0.520
1149.500	658.714	79.995	19.992	99.892	20.096	3.660	0.517
1150.000	658.950	79.993	19.991	99.886	20.097	3.604	0.492
1150.500	659.238	79.993	19.991	99.887	20.096	3.670	0.501
1151.000	659.442	79.993	19.992	99.890	20.097	3.585	0.508
1151.500	659.708	79.993	19.991	99.889	20.101	3.340	0.481
1152.000	659.975	79.994	19.991	99.888	20.098	3.545	0.502
1152.500	660.249	79.992	19.991	99.887	20.098	3.557	0.537
1153.000	660.483	79.993	19.991	99.884	20.099	3.434	0.524
1153.500	660.752	79.994	19.991	99.881	20.094	3.828	0.505
1154.000	661.017	79.995	19.991	99.880	20.096	3.658	0.519
1154.500	661.244	79.994	19.992	99.879	20.099	3.500	0.513
1155.000	661.547	79.994	19.991	99.879	20.100	3.401	0.511
1155.500	661.777	79.994	19.991	99.879	20.100	3.413	0.531
1156.000	662.075	79.992	19.991	99.878	20.102	3.241	0.531
1156.500	662.324	79.995	19.991	99.879	20.101	3.350	0.538
1157.000	662.539	79.993	19.992	99.882	20.097	3.617	0.505
1157.500	662.793	79.993	19.991	99.888	20.099	3.443	0.466
1158.000	663.004	79.993	19.993	99.892	20.102	3.269	0.467
1158.500	663.290	79.994	19.991	99.896	20.103	3.189	0.481
1159.000	663.567	79.993	19.992	99.900	20.099	3.484	0.530
1159.500	663.808	79.994	19.990	99.905	20.094	3.826	0.541
1160.000	664.051	79.995	19.990	99.903	20.097	3.630	0.501
1160.500	664.364	79.997	19.991	99.898	20.100	3.355	0.520
1161.000	664.570	79.994	19.992	99.895	20.098	3.555	0.537
1161.500	664.832	79.994	19.991	99.890	20.101	3.332	0.493
1162.001	665.078	79.993	19.992	99.882	20.102	3.276	0.488
1162.501	665.364	79.995	19.992	99.883	20.099	3.436	0.520
1163.000	665.607	79.994	19.992	99.888	20.101	3.286	0.530
1163.500	665.836	79.994	19.991	99.887	20.101	3.306	0.500
1164.000	666.084	79.994	19.992	99.889	20.103	3.147	0.475
1164.500	666.359	79.994	19.993	99.892	20.100	3.386	0.500
1165.000	666.636	79.993	19.992	99.890	20.097	3.602	0.537
1165.500	666.877	79.993	19.992	99.886	20.099	3.494	0.535
1166.001	667.122	79.993	19.991	99.886	20.097	3.622	0.502
1166.501	667.372	79.993	19.991	99.884	20.100	3.363	0.490
1167.000	667.638	79.994	19.991	99.880	20.099	3.484	0.505
1167.500	667.888	79.994	19.991	99.877	20.097	3.608	0.516
1168.001	668.084	79.993	19.991	99.875	20.099	3.498	0.481
1168.501	668.433	79.995	19.992	99.875	20.098	3.561	0.495
1169.000	668.669	79.993	19.992	99.875	20.099	3.427	0.565
1169.500	668.941	79.992	19.992	99.880	20.099	3.462	0.546
1170.000	669.177	79.992	19.992	99.887	20.100	3.391	0.508
1170.500	669.412	79.993	19.991	99.890	20.099	3.469	0.489
1171.000	669.677	79.995	19.992	99.891	20.102	3.213	0.485
1171.500	669.939	79.995	19.992	99.892	20.100	3.391	0.513
1172.000	670.212	79.992	19.992	99.887	20.102	3.253	0.531
1172.500	670.502	79.994	19.992	99.882	20.102	3.277	0.549
1173.000	670.668	79.993	19.992	99.883	20.098	3.504	0.510
1173.500	670.967	79.993	19.991	99.888	20.098	3.573	0.460
1174.000	671.242	79.994	19.992	99.894	20.101	3.324	0.520
1174.500	671.486	79.992	19.993	99.897	20.104	3.076	0.547
1175.000	671.754	79.991	19.992	99.901	20.104	3.108	0.515
1175.500	672.017	79.994	19.992	99.904	20.102	3.232	0.521
1176.000	672.304	79.994	19.992	99.898	20.102	3.276	0.541
1176.500	672.477	79.993	19.992	99.894	20.103	3.139	0.505
1177.000	672.762	79.995	19.993	99.897	20.101	3.329	0.459
1177.500	673.027	79.996	19.992	99.895	20.102	3.276	0.505
1178.000	673.292	79.995	19.992	99.893	20.102	3.256	0.540
1178.500	673.546	79.993	19.991	99.894	20.103	3.151	0.524
1179.000	673.790	79.996	19.992	99.893	20.099	3.428	0.509
1179.500	674.039	79.996	19.991	99.887	20.102	3.258	0.496
1180.000	674.310	79.996	19.991	99.883	20.104	3.108	0.506
1180.500	674.534	79.992	19.992	99.878	20.100	3.393	0.507
1181.000	674.827	79.998	19.990	99.876	20.098	3.551	0.506
1181.500	675.043	79.995	19.991	99.875	20.098	3.520	0.513
1182.000	675.323	79.993	19.990	99.875	20.098	3.551	0.503
1182.500	675.590	79.997	19.989	99.874	20.098	3.536	0.522
1183.001	675.851	79.995	19.991	99.875	20.102	3.253	0.537
1183.501	676.085	79.995	19.991	99.876	20.103	3.186	0.511
1184.001	676.338	79.998	19.991	99.881	20.100	3.415	0.491
1184.501	676.575	79.998	19.990	99.887	20.105	3.035	0.489
1185.001	676.837	79.996	19.991	99.890	20.103	3.148	0.494
1185.501	677.109	79.994	19.990	99.893	20.101	3.328	0.516
1186.001	677.371	79.997	19.991	99.898	20.103	3.152	0.534
1186.500	677.613	79.994	19.990	99.901	20.104	3.108	0.519
1187.000	677.874	79.994	19.991	99.900	20.101	3.316	0.503
1187.500	678.094	79.993	19.990	99.904	20.103	3.154	0.492
1188.000	678.366	79.996	19.991	99.907	20.100	3.360	0.487
1188.500	678.657	79.995	19.991	99.907	20.101	3.279	0.528
1189.000	678.923	79.994	19.991	99.902	20.099	3.439	0.560
1189.500	679.144	79.995	19.991	99.899	20.102	3.271	0.522
1190.000	679.403	79.995	19.993	99.891	20.104	3.073	0.484
1190.500	679.688	79.996	19.992	99.889	20.104	3.097	0.512
1191.000	679.966	79.995	19.991	99.889	20.101	3.320	0.553
1191.500	680.191	79.995	19.992	99.888	20.103	3.140	0.532
1192.000	680.426	79.994	19.991	99.887	20.102	3.215	0.481
1192.500	680.694	79.996	19.991	99.887	20.103	3.197	0.481
1193.000	680.961	79.994	19.990	99.882	20.104	3.080	0.519
1193.500	681.167	79.993	19.991	99.876	20.102	3.278	0.504
1194.000	681.445	79.995	19.991	99.876	20.101	3.290	0.479
1194.500	681.664	79.992	19.992	99.876	20.102	3.209	0.491
1195.000	681.934	79.992	19.991	99.877	20.102	3.229	0.493
1195.500	682.192	79.993	19.992	99.878	20.104	3.100	0.509
1196.000	682.412	79.992	19.991	99.880	20.102	3.229	0.503
1196.500	682.694	79.991	19.991	99.878	20.101	3.326	0.490
1197.000	682.973	79.994	19.992	99.878	20.103	3.168	0.532
1197.500	683.191	79.994	19.991	99.877	20.101	3.326	0.529
1198.000	683.436	79.994	19.992	99.876	20.100	3.368	0.480
1198.500	683.789	79.993	19.991	99.873	20.099	3.479	0.530
1199.000	684.081	79.995	19.991	99.874	20.101	3.291	0.621
1199.501	684.250	79.992	19.992	99.874	20.101	3.334	0.553
1200.001	684.509	79.992	19.992	99.875	20.099	3.482	0.445
1200.501	684.752	79.991	19.992	99.876	20.102	3.249	0.465
1201.001	684.977	79.993	19.992	99.876	20.101	3.324	0.485
1201.500	685.265	79.992	19.992	99.875	20.099	3.480	0.491
1202.000	685.482	79.992	19.991	99.875	20.098	3.544	0.509
1202.500	685.752	79.994	19.991	99.873	20.101	3.348	0.496
1203.000	686.003	79.994	19.991	99.872	20.101	3.300	0.504
1203.500	686.251	79.994	19.991	99.875	20.099	3.464	0.510
1204.000	686.566	79.991	19.991	99.883	20.104	3.106	0.530
1204.500	686.822	79.993	19.992	99.889	20.099	3.470	0.567
1205.000	687.028	79.994	19.992	99.894	20.098	3.543	0.517
1205.500	687.266	79.991	19.993	99.896	20.101	3.343	0.454
1206.000	687.539	79.996	19.992	99.894	20.098	3.541	0.478
1206.500	687.795	79.994	19.992	99.886	20.103	3.189	0.520
1207.000	688.071	79.994	19.992	99.880	20.102	3.232	0.530
1207.500	688.327	79.994	19.991	99.875	20.101	3.339	0.532
1208.000	688.563	79.996	19.991	99.873	20.103	3.132	0.512
1208.500	688.825	79.993	19.991	99.868	20.098	3.543	0.495
1209.000	689.071	79.994	19.991	99.867	20.098	3.508	0.503
1209.500	689.390	79.995	19.991	99.866	20.098	3.540	0.536
1210.000	689.584	79.992	19.992	99.866	20.100	3.356	0.539
1210.500	689.820	79.994	19.991	99.867	20.099	3.431	0.472
1211.000	690.127	79.995	19.991	99.873	20.102	3.223	0.487
1211.500	690.354	79.995	19.992	99.873	20.100	3.367	0.538
1212.000	690.615	79.994	19.992	99.874	20.103	3.183	0.511
1212.500	690.875	79.995	19.992	99.875	20.102	3.214	0.504
1213.000	691.111	79.995	19.992	99.874	20.102	3.221	0.509
1213.500	691.368	79.995	19.991	99.877	20.103	3.136	0.495
1214.001	691.633	79.996	19.991	99.882	20.105	2.989	0.507
1214.501	691.879	79.993	19.991	99.887	20.101	3.332	0.516
1215.001	692.119	79.995	19.991	99.892	20.102	3.211	0.498
1215.500	692.374	79.993	19.991	99.893	20.105	2.984	0.491
1216.000	692.642	79.994	19.992	99.893	20.107	2.855	0.509
1216.500	692.898	79.993	19.990	99.896	20.105	3.041	0.523
1217.000	693.128	79.995	19.991	99.898	20.105	3.005	0.505
1217.500	693.379	79.994	19.992	99.894	20.102	3.211	0.484
