Sample ID:	C:\MCC\MCC Cal\Test\LDPE_MCC_30K_min_210922_R2.txt
Sample Weight (mg):	4.45
Heating Rate (C/s):	0.5
Combustor Temp (C):	900
N2 Flow Rate (cc/min):	80
O2 Flow Rate (cc/min):	20
Calibration File:	C:\MCC\MCC Cal\Coeff1 JN10440_30_210304.txt.txt
T Correction Coefficients:	0	1.024463	0
Time Shift (s):	14
*
Time (s)	Temperature (C)	N2 flow rate (cc/min)	O2 flow rate (cc/min)	Flow Rate (cc/min)	Oxygen (%)	HRR (W/g)	Heating rate (C/s)
0.000	108.703	80.005	19.996	100.367	20.048	0.233	0.013
0.500	108.683	80.006	19.998	100.365	20.048	0.260	0.003
1.000	108.700	80.006	19.995	100.362	20.049	0.212	-0.008
1.500	108.709	80.005	19.996	100.361	20.047	0.346	0.011
2.000	108.730	80.006	19.996	100.364	20.048	0.248	0.028
2.500	108.702	80.007	19.998	100.368	20.051	0.076	0.012
3.000	108.719	80.006	19.996	100.370	20.052	-0.040	-0.009
3.500	108.704	80.007	19.997	100.374	20.048	0.231	-0.005
4.000	108.714	80.006	19.996	100.376	20.052	-0.057	-0.002
4.500	108.664	80.006	19.997	100.377	20.048	0.243	-0.022
5.000	108.688	80.007	19.996	100.375	20.050	0.122	-0.033
5.500	108.659	80.007	19.996	100.373	20.050	0.126	-0.016
6.000	108.656	80.006	19.994	100.373	20.050	0.097	-0.018
6.500	108.693	80.006	19.996	100.373	20.050	0.096	0.001
7.000	108.706	80.007	19.994	100.373	20.049	0.214	0.042
7.500	108.674	80.007	19.995	100.375	20.050	0.090	0.016
8.000	108.650	80.008	19.996	100.378	20.050	0.088	-0.037
8.500	108.678	80.006	19.996	100.378	20.051	0.073	-0.026
9.000	108.691	80.005	19.996	100.378	20.053	-0.092	0.023
9.500	108.676	80.007	19.995	100.377	20.050	0.103	0.019
10.000	108.661	80.004	19.995	100.377	20.050	0.117	-0.016
10.500	108.666	80.004	19.996	100.375	20.052	-0.033	-0.020
11.000	108.665	80.004	19.995	100.375	20.050	0.130	-0.003
11.500	108.649	80.005	19.997	100.377	20.046	0.427	-0.006
12.001	108.650	80.005	19.994	100.378	20.051	0.078	-0.016
12.501	108.686	80.005	19.996	100.381	20.049	0.210	0.011
13.000	108.662	80.006	19.996	100.390	20.049	0.151	0.024
13.500	108.684	80.007	19.996	100.397	20.050	0.088	0.005
14.000	108.658	80.007	19.997	100.404	20.046	0.377	-0.003
14.500	108.679	80.008	19.996	100.412	20.045	0.465	-0.004
15.000	108.672	80.008	19.998	100.421	20.043	0.578	0.004
15.500	108.659	80.005	19.997	100.423	20.042	0.696	-0.003
16.000	108.687	80.005	19.996	100.422	20.043	0.620	-0.003
16.500	108.709	80.006	19.995	100.423	20.044	0.551	0.032
17.000	108.694	80.006	19.996	100.421	20.043	0.622	0.028
17.500	108.714	80.005	19.996	100.423	20.040	0.831	0.006
18.000	108.739	80.006	19.995	100.430	20.039	0.863	0.025
18.500	108.734	80.005	19.996	100.440	20.038	0.943	0.033
19.000	108.750	80.005	19.996	100.447	20.036	1.077	0.016
19.500	108.775	80.005	19.996	100.467	20.036	1.123	0.026
20.000	108.778	80.009	19.997	100.478	20.032	1.359	0.035
20.500	108.803	80.007	19.996	100.484	20.032	1.368	0.028
21.000	108.844	80.006	19.996	100.485	20.031	1.427	0.047
21.500	108.886	80.008	19.996	100.492	20.030	1.540	0.074
22.000	108.913	80.008	19.997	100.488	20.031	1.443	0.076
22.500	108.918	80.007	19.997	100.486	20.029	1.561	0.051
23.000	108.994	80.005	19.997	100.490	20.028	1.646	0.056
23.500	108.989	80.010	19.996	100.502	20.026	1.799	0.076
24.000	109.034	80.008	19.997	100.505	20.028	1.655	0.055
24.500	109.075	80.004	19.997	100.505	20.029	1.560	0.063
25.000	109.089	80.006	19.997	100.509	20.029	1.600	0.071
25.500	109.131	80.007	19.996	100.514	20.027	1.701	0.056
26.000	109.178	80.006	19.996	100.514	20.024	1.942	0.073
26.500	109.229	80.006	19.997	100.520	20.026	1.784	0.094
27.000	109.272	80.007	19.996	100.527	20.025	1.849	0.096
27.500	109.288	80.007	19.996	100.529	20.026	1.833	0.076
28.000	109.350	80.007	19.995	100.528	20.024	1.937	0.068
28.500	109.371	80.006	19.996	100.528	20.026	1.786	0.080
29.000	109.440	80.007	19.997	100.527	20.025	1.898	0.087
29.500	109.489	80.009	19.995	100.526	20.023	2.038	0.104
30.000	109.567	80.007	19.998	100.525	20.025	1.868	0.122
30.500	109.620	80.005	19.994	100.525	20.024	1.964	0.129
31.000	109.646	80.006	19.997	100.526	20.023	1.992	0.105
31.500	109.721	80.007	19.998	100.525	20.024	1.935	0.090
32.000	109.743	80.007	19.997	100.524	20.026	1.801	0.099
32.500	109.851	80.006	19.997	100.525	20.022	2.084	0.114
33.000	109.861	80.006	19.997	100.523	20.024	1.965	0.125
33.500	109.973	80.007	19.997	100.522	20.025	1.851	0.120
34.000	109.969	80.006	19.996	100.523	20.022	2.063	0.115
34.500	110.050	80.006	19.996	100.525	20.022	2.109	0.092
35.000	110.112	80.006	19.997	100.527	20.026	1.820	0.110
35.500	110.195	80.005	19.997	100.531	20.022	2.105	0.144
36.000	110.237	80.006	19.997	100.533	20.023	1.987	0.134
36.500	110.306	80.006	19.998	100.535	20.021	2.170	0.117
37.000	110.432	80.006	19.997	100.535	20.019	2.276	0.153
37.500	110.446	80.005	19.996	100.536	20.020	2.259	0.168
38.000	110.520	80.005	19.996	100.535	20.023	2.021	0.114
38.500	110.580	80.004	19.995	100.535	20.019	2.276	0.111
39.000	110.677	80.004	19.997	100.536	20.020	2.199	0.145
39.500	110.769	80.005	19.997	100.537	20.018	2.374	0.173
40.000	110.823	80.004	19.996	100.538	20.021	2.188	0.168
40.500	110.924	80.002	19.996	100.538	20.020	2.213	0.151
41.000	110.991	80.003	19.997	100.539	20.020	2.201	0.161
41.500	111.127	80.003	19.997	100.538	20.021	2.186	0.185
42.000	111.146	80.002	19.997	100.537	20.021	2.179	0.179
42.500	111.261	80.004	19.997	100.537	20.020	2.198	0.144
43.000	111.356	80.004	19.997	100.537	20.018	2.397	0.172
43.500	111.418	80.005	19.998	100.536	20.020	2.209	0.184
44.000	111.542	80.004	19.998	100.536	20.019	2.294	0.172
44.501	111.611	80.004	19.997	100.537	20.018	2.374	0.189
45.001	111.687	80.004	19.996	100.536	20.016	2.498	0.169
45.501	111.783	80.005	19.998	100.537	20.019	2.311	0.158
46.000	111.876	80.004	19.997	100.539	20.020	2.204	0.180
46.500	111.972	80.005	19.996	100.539	20.020	2.261	0.189
47.000	112.073	80.004	19.997	100.539	20.017	2.437	0.193
47.500	112.159	80.003	19.998	100.541	20.016	2.479	0.192
48.000	112.276	80.003	19.997	100.547	20.019	2.326	0.195
48.501	112.397	80.005	19.996	100.550	20.016	2.540	0.220
49.001	112.463	80.003	19.998	100.555	20.021	2.152	0.212
49.500	112.568	80.003	19.996	100.560	20.018	2.347	0.179
50.000	112.656	80.005	19.997	100.563	20.016	2.508	0.182
50.501	112.763	80.005	19.997	100.562	20.017	2.409	0.194
51.001	112.893	80.002	19.997	100.564	20.017	2.414	0.216
51.501	112.991	80.003	19.998	100.565	20.014	2.619	0.233
52.001	113.100	80.005	19.997	100.566	20.016	2.491	0.218
52.500	113.209	80.002	19.997	100.568	20.017	2.412	0.212
53.001	113.282	80.001	19.996	100.570	20.013	2.694	0.200
53.501	113.405	80.002	19.997	100.571	20.015	2.613	0.189
54.000	113.530	80.004	19.997	100.573	20.017	2.439	0.222
54.500	113.670	80.004	19.997	100.574	20.017	2.422	0.257
55.000	113.850	80.002	19.996	100.573	20.016	2.528	0.293
55.500	113.918	80.003	19.996	100.574	20.015	2.560	0.284
56.000	114.071	80.005	19.997	100.574	20.014	2.645	0.234
56.500	114.169	80.003	19.997	100.574	20.013	2.691	0.236
57.001	114.271	80.005	19.997	100.575	20.015	2.597	0.226
57.501	114.409	80.004	19.998	100.575	20.016	2.485	0.220
58.000	114.534	80.004	19.997	100.575	20.017	2.414	0.251
58.500	114.640	80.004	19.998	100.574	20.015	2.550	0.247
59.000	114.750	80.003	19.997	100.574	20.016	2.493	0.224
59.500	114.895	80.006	19.998	100.574	20.015	2.596	0.235
60.000	115.032	80.004	19.998	100.574	20.013	2.734	0.268
60.500	115.149	80.004	19.998	100.575	20.014	2.652	0.268
61.000	115.272	80.006	19.998	100.579	20.015	2.564	0.248
61.501	115.399	80.009	19.997	100.580	20.012	2.763	0.245
62.001	115.542	80.007	19.999	100.580	20.011	2.840	0.259
62.500	115.663	80.008	19.997	100.579	20.014	2.658	0.267
63.000	115.837	80.005	19.997	100.578	20.011	2.859	0.280
63.500	115.953	80.006	19.997	100.576	20.011	2.861	0.293
64.001	116.092	80.004	19.997	100.579	20.009	3.037	0.272
64.501	116.247	80.002	19.999	100.582	20.012	2.760	0.274
65.000	116.418	80.003	19.998	100.588	20.011	2.896	0.310
65.500	116.514	80.005	19.996	100.596	20.008	3.101	0.297
66.000	116.646	80.004	19.996	100.601	20.006	3.189	0.248
66.500	116.803	80.003	19.998	100.605	20.006	3.240	0.259
67.000	116.946	80.003	19.998	100.605	20.008	3.085	0.294
67.500	117.086	80.004	19.996	100.601	20.010	2.917	0.291
68.000	117.251	80.002	19.997	100.594	20.011	2.886	0.294
68.500	117.390	80.004	19.998	100.587	20.009	3.007	0.305
69.000	117.568	80.003	19.998	100.582	20.010	2.968	0.310
69.500	117.702	80.005	19.997	100.582	20.009	3.041	0.314
70.000	117.847	80.004	19.997	100.582	20.009	2.991	0.295
70.500	118.009	80.003	19.996	100.581	20.010	2.901	0.293
71.000	118.174	80.002	19.996	100.585	20.012	2.829	0.317
71.500	118.355	80.003	19.997	100.585	20.011	2.838	0.337
72.000	118.500	80.005	19.997	100.586	20.010	2.919	0.336
72.500	118.638	80.002	19.997	100.591	20.011	2.894	0.304
73.000	118.820	80.003	19.996	100.596	20.011	2.898	0.302
73.500	118.953	80.002	19.997	100.599	20.009	2.982	0.318
74.000	119.132	80.004	19.997	100.603	20.010	2.911	0.313
74.500	119.275	80.002	19.997	100.605	20.010	2.919	0.317
75.000	119.443	80.003	19.997	100.607	20.011	2.894	0.316
75.500	119.599	80.006	19.998	100.610	20.009	3.030	0.318
76.001	119.753	80.011	19.998	100.610	20.008	3.055	0.317
76.501	119.928	80.005	19.997	100.612	20.005	3.265	0.319
77.000	120.091	80.003	19.997	100.611	20.008	3.051	0.334
77.500	120.270	80.004	19.996	100.612	20.010	2.921	0.340
78.000	120.410	80.003	19.996	100.612	20.009	2.999	0.331
78.500	120.562	80.005	19.995	100.611	20.008	3.045	0.306
79.000	120.756	80.007	19.997	100.611	20.012	2.808	0.319
79.500	120.919	80.005	19.996	100.610	20.010	2.953	0.352
80.000	121.088	80.002	19.996	100.608	20.008	3.097	0.345
80.501	121.256	80.005	19.996	100.605	20.010	2.968	0.334
81.001	121.425	80.004	19.996	100.604	20.007	3.173	0.337
81.501	121.626	80.006	19.997	100.604	20.008	3.091	0.354
82.001	121.808	80.004	19.996	100.605	20.011	2.874	0.377
82.501	121.997	80.002	19.995	100.605	20.006	3.240	0.376
83.000	122.204	80.004	19.996	100.607	20.008	3.055	0.383
83.500	122.368	80.009	19.996	100.608	20.008	3.101	0.384
84.000	122.581	80.006	19.995	100.608	20.006	3.248	0.374
84.500	122.760	80.006	19.995	100.607	20.010	2.959	0.385
85.000	122.925	80.005	19.996	100.609	20.008	3.079	0.368
85.500	123.093	80.006	19.995	100.609	20.007	3.131	0.338
86.000	123.287	80.009	19.995	100.606	20.007	3.131	0.347
86.501	123.501	80.008	19.996	100.605	20.005	3.292	0.385
87.001	123.660	80.007	19.996	100.606	20.005	3.263	0.390
87.500	123.845	80.008	19.997	100.606	20.006	3.205	0.359
88.000	124.043	80.006	19.995	100.607	20.006	3.188	0.364
88.500	124.259	80.006	19.995	100.609	20.009	3.037	0.399
89.000	124.439	80.006	19.996	100.611	20.004	3.324	0.405
89.500	124.608	80.008	19.995	100.611	20.004	3.338	0.372
90.000	124.791	80.005	19.996	100.610	20.005	3.261	0.350
90.500	124.983	80.007	19.996	100.610	20.006	3.238	0.364
91.000	125.177	80.007	19.996	100.610	20.005	3.282	0.381
91.500	125.390	80.007	19.995	100.604	20.003	3.439	0.396
92.000	125.609	80.007	19.996	100.603	20.007	3.171	0.420
92.500	125.797	80.005	19.995	100.604	20.003	3.443	0.419
93.000	125.991	80.007	19.995	100.603	20.006	3.240	0.394
93.500	126.174	80.005	19.997	100.604	20.006	3.226	0.379
94.000	126.423	80.006	19.997	100.609	20.005	3.290	0.404
94.500	126.600	80.007	19.996	100.609	20.007	3.140	0.429
95.000	126.790	80.005	19.996	100.608	20.005	3.278	0.397
95.500	126.993	80.005	19.996	100.608	20.006	3.186	0.380
96.001	127.179	80.005	19.997	100.606	20.004	3.370	0.391
96.501	127.375	80.004	19.995	100.600	20.005	3.309	0.385
97.001	127.612	80.006	19.995	100.598	20.004	3.326	0.407
97.501	127.795	80.006	19.996	100.597	20.006	3.201	0.427
98.001	128.009	80.004	19.994	100.594	20.007	3.180	0.409
98.501	128.223	80.005	19.996	100.595	20.009	3.039	0.412
99.000	128.416	80.005	19.995	100.599	20.007	3.173	0.417
99.500	128.615	80.004	19.996	100.598	20.005	3.261	0.400
100.000	128.813	80.004	19.995	100.594	20.005	3.312	0.395
100.500	129.025	80.007	19.995	100.596	20.003	3.421	0.403
101.000	129.231	80.005	19.995	100.593	20.005	3.253	0.414
101.500	129.446	80.005	19.995	100.589	20.006	3.184	0.419
102.000	129.614	80.005	19.995	100.586	20.004	3.374	0.402
102.500	129.844	80.004	19.995	100.587	20.007	3.135	0.390
103.000	130.076	80.004	19.996	100.588	20.003	3.395	0.430
103.500	130.272	80.006	19.995	100.587	20.005	3.254	0.445
104.000	130.493	80.008	19.995	100.589	20.008	3.087	0.423
104.500	130.672	80.004	19.995	100.590	20.006	3.240	0.409
105.000	130.883	80.006	19.995	100.590	20.006	3.233	0.395
105.500	131.086	80.007	19.995	100.588	20.007	3.160	0.402
106.000	131.342	80.006	19.996	100.593	20.004	3.378	0.437
106.500	131.523	80.005	19.994	100.595	20.005	3.315	0.448
107.000	131.755	80.008	19.995	100.595	20.007	3.144	0.425
107.500	131.940	80.007	19.995	100.596	20.004	3.347	0.415
108.000	132.144	80.006	19.996	100.591	20.005	3.265	0.403
108.501	132.394	80.005	19.994	100.587	20.008	3.044	0.421
109.001	132.585	80.006	19.994	100.586	20.005	3.261	0.448
109.500	132.816	80.009	19.995	100.584	20.006	3.203	0.432
110.000	133.001	80.006	19.995	100.581	20.006	3.223	0.419
110.500	133.256	80.008	19.994	100.582	20.007	3.112	0.428
111.000	133.432	80.006	19.994	100.581	20.007	3.131	0.435
111.500	133.670	80.007	19.995	100.579	20.008	3.104	0.423
112.000	133.873	80.004	19.995	100.581	20.008	3.104	0.428
112.500	134.135	80.008	19.995	100.586	20.003	3.406	0.453
113.000	134.350	80.006	19.995	100.591	20.007	3.140	0.471
113.500	134.535	80.007	19.994	100.595	20.006	3.205	0.438
114.001	134.749	80.005	19.994	100.601	20.007	3.138	0.399
114.501	134.988	80.005	19.994	100.606	20.006	3.228	0.426
115.001	135.181	80.005	19.994	100.607	20.004	3.328	0.443
115.500	135.405	80.006	19.994	100.609	20.006	3.196	0.424
116.000	135.614	80.006	19.995	100.609	20.006	3.188	0.424
116.500	135.854	80.006	19.995	100.608	20.007	3.178	0.441
117.000	136.080	80.004	19.994	100.601	20.004	3.354	0.458
117.500	136.309	80.002	19.995	100.599	20.003	3.464	0.461
118.000	136.528	80.004	19.995	100.596	20.007	3.173	0.452
118.500	136.741	80.003	19.994	100.591	20.006	3.219	0.440
119.000	136.992	80.003	19.995	100.588	20.007	3.121	0.448
119.500	137.212	80.003	19.995	100.589	20.007	3.119	0.467
120.000	137.414	80.003	19.995	100.589	20.007	3.163	0.447
120.500	137.671	80.004	19.995	100.592	20.008	3.073	0.441
121.000	137.908	80.004	19.996	100.593	20.007	3.144	0.476
121.500	138.122	80.003	19.995	100.591	20.008	3.094	0.473
122.000	138.326	80.003	19.995	100.589	20.007	3.146	0.435
122.500	138.581	80.004	19.996	100.587	20.005	3.276	0.438
123.000	138.784	80.004	19.995	100.580	20.013	2.705	0.459
123.500	139.030	80.003	19.996	100.577	20.009	3.010	0.453
124.000	139.248	80.003	19.996	100.577	20.009	3.038	0.456
124.500	139.470	80.003	19.996	100.579	20.010	2.910	0.452
125.000	139.724	80.004	19.996	100.582	20.009	2.993	0.458
125.500	139.938	80.004	19.996	100.584	20.008	3.048	0.472
126.000	140.166	80.003	19.996	100.584	20.010	2.943	0.455
126.500	140.394	80.004	19.996	100.585	20.011	2.868	0.449
127.000	140.618	80.004	19.997	100.583	20.008	3.083	0.454
127.500	140.819	80.003	19.995	100.579	20.010	2.929	0.439
128.000	141.066	80.003	19.996	100.580	20.009	3.023	0.437
128.500	141.338	80.003	19.996	100.582	20.010	2.949	0.484
129.000	141.518	80.004	19.996	100.582	20.012	2.813	0.485
129.500	141.758	80.004	19.997	100.584	20.010	2.929	0.436
130.000	141.979	80.005	19.996	100.589	20.012	2.809	0.441
130.500	142.214	80.003	19.996	100.590	20.008	3.052	0.459
131.000	142.443	80.005	19.996	100.588	20.006	3.222	0.460
131.500	142.671	80.003	19.996	100.589	20.010	2.942	0.461
132.000	142.935	80.004	19.996	100.586	20.010	2.964	0.475
132.500	143.211	80.004	19.996	100.582	20.006	3.224	0.516
133.000	143.416	80.004	19.995	100.579	20.009	3.031	0.511
133.500	143.644	80.004	19.996	100.581	20.007	3.147	0.457
134.000	143.881	80.003	19.996	100.579	20.006	3.191	0.448
134.500	144.094	80.004	19.995	100.580	20.004	3.348	0.457
135.000	144.347	80.004	19.996	100.582	20.009	2.996	0.458
135.500	144.610	80.005	19.996	100.583	20.007	3.161	0.491
136.000	144.811	80.004	19.996	100.582	20.007	3.165	0.490
136.500	145.082	80.005	19.996	100.581	20.009	3.008	0.468
137.000	145.313	80.004	19.995	100.581	20.006	3.235	0.487
137.500	145.535	80.006	19.995	100.580	20.008	3.076	0.478
138.000	145.768	80.005	19.996	100.581	20.009	3.038	0.454
138.500	146.008	80.005	19.995	100.584	20.012	2.808	0.464
139.000	146.258	80.006	19.996	100.587	20.011	2.837	0.481
139.500	146.453	80.004	19.997	100.587	20.010	2.950	0.468
140.000	146.698	80.005	19.996	100.586	20.009	2.996	0.443
140.500	146.973	80.006	19.995	100.582	20.010	2.956	0.480
141.000	147.181	80.005	19.995	100.576	20.007	3.122	0.501
141.500	147.419	80.005	19.996	100.572	20.009	2.988	0.464
142.000	147.669	80.005	19.995	100.571	20.008	3.109	0.467
142.500	147.906	80.005	19.995	100.571	20.009	2.971	0.488
143.000	148.170	80.006	19.996	100.571	20.010	2.929	0.494
143.500	148.406	80.004	19.996	100.572	20.009	2.994	0.501
144.000	148.640	80.005	19.996	100.572	20.008	3.069	0.485
144.500	148.873	80.004	19.995	100.572	20.006	3.195	0.468
145.000	149.100	80.005	19.996	100.572	20.007	3.115	0.463
145.500	149.329	80.004	19.996	100.572	20.010	2.910	0.458
146.000	149.597	80.004	19.996	100.570	20.010	2.962	0.477
146.500	149.822	80.005	19.996	100.570	20.009	3.008	0.495
147.001	150.060	80.004	19.996	100.570	20.009	2.981	0.478
147.500	150.305	80.003	19.996	100.570	20.007	3.151	0.473
148.000	150.517	80.005	19.996	100.570	20.010	2.939	0.470
148.500	150.762	80.004	19.997	100.570	20.009	3.021	0.457
149.000	150.995	80.005	19.996	100.570	20.009	3.025	0.468
149.500	151.249	80.003	19.997	100.570	20.012	2.814	0.482
150.000	151.514	80.002	19.995	100.570	20.009	3.004	0.503
150.500	151.736	80.004	19.996	100.570	20.008	3.067	0.503
151.000	151.989	80.004	19.996	100.569	20.011	2.895	0.481
151.500	152.211	80.003	19.996	100.569	20.009	2.990	0.476
152.000	152.487	80.004	19.996	100.567	20.011	2.894	0.487
152.500	152.743	80.004	19.997	100.564	20.012	2.772	0.515
153.001	152.955	80.001	19.997	100.558	20.010	2.957	0.500
153.501	153.225	80.003	19.998	100.559	20.012	2.762	0.475
154.000	153.434	80.003	19.997	100.560	20.011	2.845	0.480
154.500	153.687	80.003	19.997	100.562	20.013	2.734	0.470
155.000	153.936	80.002	19.997	100.565	20.012	2.763	0.482
155.500	154.144	80.002	19.996	100.570	20.012	2.795	0.479
156.000	154.396	80.003	19.997	100.571	20.013	2.715	0.459
156.500	154.611	80.005	19.998	100.571	20.014	2.655	0.464
157.000	154.856	80.002	19.997	100.571	20.012	2.818	0.463
157.500	155.077	80.005	19.997	100.571	20.012	2.772	0.463
158.001	155.367	80.004	19.996	100.571	20.012	2.828	0.489
158.500	155.598	80.005	19.997	100.570	20.009	2.996	0.516
159.000	155.810	80.004	19.998	100.571	20.007	3.113	0.482
159.500	156.063	80.004	19.996	100.571	20.011	2.843	0.454
160.000	156.317	80.003	19.997	100.571	20.010	2.925	0.486
160.500	156.535	80.003	19.996	100.571	20.012	2.806	0.490
161.000	156.791	80.004	19.996	100.572	20.015	2.561	0.473
161.501	157.011	80.005	19.996	100.570	20.011	2.877	0.475
162.000	157.283	80.004	19.996	100.569	20.010	2.913	0.484
162.500	157.571	80.006	19.995	100.568	20.014	2.680	0.526
163.000	157.789	80.004	19.996	100.565	20.012	2.769	0.533
163.500	158.058	80.006	19.996	100.561	20.011	2.861	0.496
164.000	158.296	80.004	19.996	100.560	20.013	2.737	0.497
164.500	158.518	80.005	19.996	100.562	20.014	2.651	0.483
165.000	158.782	80.007	19.995	100.563	20.012	2.777	0.474
165.500	159.020	80.007	19.996	100.567	20.012	2.791	0.495
166.000	159.222	80.005	19.995	100.571	20.013	2.710	0.471
166.500	159.492	80.006	19.996	100.573	20.011	2.883	0.456
167.000	159.729	80.007	19.995	100.573	20.013	2.707	0.490
167.500	160.008	80.006	19.995	100.574	20.013	2.747	0.511
168.000	160.260	80.005	19.995	100.575	20.014	2.688	0.523
168.500	160.474	80.007	19.995	100.576	20.012	2.782	0.498
169.000	160.734	80.007	19.995	100.576	20.011	2.872	0.470
169.500	160.990	80.007	19.995	100.574	20.011	2.837	0.495
170.000	161.181	80.005	19.995	100.573	20.013	2.696	0.481
170.500	161.416	80.005	19.994	100.570	20.009	3.000	0.436
171.000	161.695	80.005	19.995	100.567	20.008	3.092	0.470
171.500	161.927	80.006	19.994	100.567	20.011	2.897	0.513
172.000	162.146	80.006	19.995	100.565	20.010	2.941	0.481
172.500	162.382	80.006	19.995	100.563	20.011	2.876	0.453
173.000	162.643	80.007	19.995	100.558	20.012	2.809	0.476
173.500	162.895	80.006	19.996	100.553	20.009	2.990	0.505
174.001	163.104	80.006	19.995	100.547	20.009	3.006	0.487
174.501	163.382	80.006	19.994	100.542	20.012	2.812	0.474
175.000	163.622	80.006	19.995	100.538	20.011	2.887	0.503
175.500	163.847	80.004	19.995	100.539	20.014	2.672	0.491
176.000	164.148	80.006	19.995	100.543	20.011	2.831	0.495
176.500	164.392	80.006	19.995	100.546	20.014	2.624	0.536
177.000	164.637	80.004	19.994	100.549	20.011	2.882	0.518
177.500	164.882	80.005	19.997	100.557	20.014	2.683	0.490
178.000	165.148	80.005	19.995	100.564	20.014	2.662	0.501
178.500	165.360	80.004	19.996	100.567	20.010	2.934	0.494
179.000	165.606	80.006	19.995	100.571	20.012	2.821	0.468
179.500	165.845	80.004	19.994	100.575	20.011	2.875	0.471
180.000	166.129	80.004	19.996	100.574	20.013	2.737	0.504
180.500	166.370	80.004	19.995	100.574	20.014	2.632	0.524
181.000	166.605	80.005	19.995	100.573	20.014	2.672	0.500
181.500	166.883	80.004	19.995	100.572	20.014	2.681	0.495
182.000	167.148	80.005	19.995	100.572	20.018	2.373	0.528
182.500	167.368	80.006	19.995	100.577	20.016	2.537	0.514
183.000	167.587	80.004	19.996	100.578	20.015	2.589	0.462
183.500	167.841	80.005	19.995	100.579	20.017	2.474	0.456
184.000	168.067	80.004	19.995	100.576	20.015	2.608	0.477
184.500	168.355	80.005	19.996	100.573	20.014	2.629	0.497
185.000	168.583	80.003	19.994	100.570	20.016	2.531	0.515
185.500	168.822	80.005	19.996	100.568	20.014	2.623	0.492
186.000	169.084	80.006	19.995	100.566	20.013	2.736	0.484
186.500	169.352	80.006	19.995	100.567	20.016	2.539	0.515
187.000	169.572	80.006	19.995	100.565	20.015	2.587	0.509
187.500	169.864	80.004	19.995	100.557	20.016	2.538	0.500
188.000	170.109	80.006	19.994	100.549	20.014	2.639	0.524
188.500	170.333	80.006	19.995	100.544	20.013	2.699	0.503
189.000	170.596	80.006	19.995	100.543	20.013	2.739	0.478
189.500	170.830	80.007	19.995	100.545	20.013	2.711	0.492
190.000	171.048	80.006	19.995	100.546	20.014	2.651	0.474
190.500	171.368	80.007	19.995	100.546	20.016	2.544	0.495
191.000	171.583	80.005	19.995	100.546	20.015	2.607	0.537
191.500	171.867	80.007	19.995	100.540	20.015	2.584	0.517
192.000	172.090	80.007	19.995	100.535	20.012	2.804	0.503
192.500	172.330	80.007	19.995	100.531	20.010	2.942	0.485
193.000	172.541	80.007	19.995	100.527	20.015	2.580	0.457
193.500	172.784	80.007	19.995	100.520	20.011	2.879	0.453
194.000	173.082	80.006	19.995	100.513	20.011	2.890	0.498
194.500	173.306	80.007	19.994	100.505	20.011	2.839	0.532
195.000	173.574	80.008	19.995	100.502	20.013	2.739	0.507
195.500	173.778	80.007	19.995	100.502	20.012	2.794	0.482
196.000	174.065	80.008	19.995	100.507	20.013	2.744	0.482
196.500	174.282	80.007	19.994	100.514	20.010	2.915	0.497
197.000	174.550	80.006	19.995	100.521	20.012	2.807	0.494
197.500	174.799	80.007	19.993	100.525	20.013	2.698	0.501
198.000	175.030	80.007	19.995	100.530	20.014	2.654	0.498
198.500	175.280	80.006	19.995	100.535	20.014	2.650	0.480
199.000	175.561	80.006	19.995	100.542	20.015	2.589	0.506
199.501	175.822	80.007	19.995	100.550	20.014	2.631	0.537
200.000	176.054	80.007	19.994	100.558	20.013	2.751	0.518
200.500	176.304	80.007	19.995	100.566	20.014	2.621	0.488
201.001	176.548	80.006	19.995	100.570	20.015	2.570	0.488
201.500	176.795	80.005	19.995	100.569	20.017	2.407	0.492
202.000	177.008	80.006	19.995	100.564	20.015	2.551	0.475
202.500	177.285	80.004	19.995	100.560	20.014	2.664	0.475
203.000	177.537	80.005	19.995	100.553	20.015	2.614	0.509
203.500	177.805	80.005	19.995	100.547	20.013	2.746	0.524
204.000	178.059	80.007	19.994	100.546	20.012	2.782	0.521
204.500	178.260	80.004	19.995	100.552	20.013	2.690	0.489
205.000	178.541	80.005	19.996	100.552	20.015	2.551	0.469
205.500	178.800	80.005	19.995	100.554	20.013	2.742	0.511
206.000	179.027	80.005	19.996	100.552	20.015	2.579	0.513
206.500	179.268	80.005	19.995	100.544	20.011	2.832	0.477
207.000	179.527	80.004	19.996	100.536	20.007	3.144	0.484
207.500	179.759	80.003	19.997	100.533	20.011	2.863	0.495
208.000	180.022	80.005	19.997	100.530	20.012	2.807	0.493
208.500	180.259	80.005	19.996	100.530	20.012	2.815	0.498
209.000	180.537	80.004	19.996	100.531	20.011	2.863	0.507
209.500	180.764	80.005	19.996	100.525	20.008	3.073	0.509
210.000	181.041	80.004	19.996	100.518	20.009	2.997	0.504
210.500	181.302	80.004	19.996	100.511	20.012	2.824	0.521
211.000	181.543	80.004	19.995	100.508	20.011	2.870	0.520
211.500	181.757	80.004	19.996	100.507	20.013	2.698	0.479
212.000	182.045	80.005	19.996	100.515	20.011	2.897	0.479
212.501	182.310	80.003	19.995	100.527	20.013	2.714	0.528
213.001	182.524	80.004	19.996	100.536	20.012	2.765	0.516
213.500	182.786	80.004	19.996	100.539	20.010	2.915	0.477
214.000	183.087	80.004	19.996	100.541	20.014	2.670	0.519
214.500	183.310	80.003	19.997	100.539	20.010	2.905	0.544
215.000	183.565	80.003	19.996	100.529	20.012	2.781	0.501
215.500	183.801	80.003	19.996	100.522	20.012	2.775	0.484
216.000	184.080	80.003	19.997	100.522	20.015	2.606	0.503
216.500	184.283	80.005	19.995	100.521	20.014	2.666	0.498
217.000	184.552	80.003	19.995	100.521	20.011	2.865	0.476
217.500	184.797	80.005	19.997	100.526	20.011	2.874	0.493
218.000	185.056	80.004	19.996	100.531	20.012	2.815	0.509
218.500	185.295	80.006	19.996	100.531	20.014	2.679	0.501
219.000	185.554	80.004	19.997	100.532	20.013	2.746	0.498
219.500	185.791	80.003	19.997	100.533	20.014	2.669	0.497
220.000	186.082	80.004	19.997	100.531	20.013	2.733	0.512
220.500	186.332	80.004	19.995	100.530	20.014	2.629	0.534
221.000	186.601	80.005	19.996	100.529	20.015	2.556	0.530
221.500	186.852	80.005	19.997	100.528	20.015	2.596	0.520
222.000	187.081	80.005	19.996	100.528	20.017	2.430	0.500
222.501	187.349	80.004	19.996	100.531	20.015	2.610	0.489
223.000	187.568	80.004	19.996	100.535	20.018	2.336	0.492
223.500	187.811	80.004	19.996	100.538	20.016	2.482	0.475
224.000	188.071	80.004	19.995	100.539	20.018	2.340	0.482
224.500	188.334	80.004	19.997	100.539	20.015	2.558	0.513
225.000	188.581	80.004	19.996	100.538	20.015	2.597	0.517
225.500	188.874	80.006	19.996	100.534	20.015	2.601	0.525
226.000	189.089	80.005	19.996	100.533	20.014	2.627	0.524
226.500	189.348	80.004	19.995	100.533	20.015	2.568	0.491
227.000	189.622	80.005	19.996	100.532	20.016	2.532	0.503
227.500	189.891	80.003	19.997	100.532	20.021	2.180	0.538
228.000	190.131	80.004	19.996	100.533	20.018	2.340	0.526
228.500	190.366	80.004	19.997	100.533	20.020	2.260	0.492
229.000	190.664	80.004	19.995	100.533	20.020	2.214	0.504
229.500	190.883	80.002	19.996	100.533	20.016	2.478	0.525
230.000	191.112	80.005	19.996	100.529	20.018	2.377	0.482
230.500	191.393	80.004	19.996	100.525	20.019	2.323	0.479
231.000	191.671	80.003	19.996	100.524	20.018	2.401	0.534
231.500	191.882	80.004	19.996	100.519	20.017	2.428	0.524
232.000	192.119	80.003	19.996	100.516	20.017	2.459	0.469
232.500	192.411	80.003	19.996	100.516	20.016	2.481	0.489
233.000	192.642	80.003	19.995	100.519	20.015	2.564	0.526
233.500	192.884	80.003	19.996	100.517	20.020	2.250	0.498
234.000	193.148	80.003	19.995	100.520	20.020	2.237	0.489
234.500	193.414	80.004	19.995	100.524	20.019	2.304	0.518
235.000	193.661	80.004	19.996	100.528	20.018	2.363	0.521
235.500	193.963	80.003	19.995	100.528	20.016	2.505	0.531
236.000	194.222	80.003	19.996	100.530	20.019	2.329	0.555
236.500	194.420	80.003	19.996	100.532	20.019	2.319	0.509
237.000	194.695	80.003	19.995	100.531	20.020	2.199	0.465
237.500	194.952	80.004	19.996	100.531	20.017	2.470	0.502
238.000	195.140	80.003	19.997	100.531	20.018	2.348	0.489
238.500	195.397	80.002	19.998	100.531	20.020	2.243	0.445
239.000	195.665	80.003	19.997	100.529	20.020	2.227	0.485
239.500	195.901	80.004	19.997	100.525	20.021	2.174	0.514
240.000	196.171	80.003	19.997	100.525	20.016	2.526	0.505
240.500	196.428	80.004	19.996	100.526	20.018	2.363	0.516
241.000	196.666	80.002	19.995	100.527	20.020	2.254	0.511
241.500	196.938	80.002	19.996	100.527	20.019	2.285	0.503
242.000	197.180	80.004	19.996	100.523	20.021	2.158	0.513
242.500	197.447	80.003	19.997	100.518	20.021	2.172	0.511
243.000	197.674	80.002	19.996	100.513	20.018	2.353	0.501
243.500	197.947	80.004	19.996	100.507	20.020	2.260	0.497
244.000	198.175	80.002	19.997	100.507	20.019	2.265	0.501
244.500	198.427	80.003	19.997	100.512	20.022	2.108	0.491
245.000	198.651	80.003	19.996	100.513	20.024	1.963	0.478
245.500	198.924	80.004	19.997	100.513	20.021	2.158	0.486
246.000	199.177	80.004	19.997	100.518	20.019	2.294	0.511
246.500	199.414	80.002	19.996	100.521	20.020	2.248	0.508
247.001	199.683	80.005	19.997	100.523	20.022	2.072	0.498
247.500	199.937	80.005	19.996	100.528	20.023	2.030	0.514
248.000	200.206	80.003	19.997	100.531	20.022	2.081	0.523
248.500	200.451	80.002	19.996	100.529	20.025	1.890	0.518
249.000	200.676	80.003	19.997	100.524	20.022	2.087	0.492
249.500	200.950	80.004	19.996	100.523	20.024	1.972	0.485
250.000	201.144	80.003	19.996	100.523	20.022	2.110	0.484
250.500	201.397	80.005	19.996	100.524	20.022	2.091	0.457
251.000	201.671	80.002	19.996	100.526	20.025	1.850	0.487
251.500	201.906	80.005	19.996	100.526	20.023	1.999	0.518
252.000	202.156	80.004	19.996	100.523	20.021	2.169	0.497
252.500	202.447	80.004	19.996	100.523	20.021	2.175	0.513
253.000	202.648	80.003	19.996	100.523	20.022	2.064	0.516
253.500	202.928	80.003	19.995	100.519	20.023	2.028	0.487
254.000	203.160	80.005	19.995	100.514	20.022	2.074	0.497
254.500	203.389	80.005	19.997	100.509	20.026	1.800	0.487
255.000	203.619	80.005	19.997	100.501	20.022	2.105	0.460
255.500	203.856	80.005	19.996	100.493	20.021	2.156	0.463
256.000	204.120	80.005	19.996	100.490	20.020	2.216	0.484
256.500	204.365	80.006	19.996	100.491	20.023	2.034	0.505
257.000	204.594	80.005	19.997	100.492	20.018	2.334	0.492
257.500	204.873	80.004	19.997	100.492	20.026	1.823	0.491
258.000	205.117	80.005	19.996	100.492	20.024	1.955	0.515
258.500	205.380	80.003	19.997	100.492	20.021	2.156	0.515
259.000	205.612	80.004	19.995	100.492	20.023	2.030	0.501
259.500	205.856	80.005	19.996	100.492	20.023	1.999	0.485
260.000	206.078	80.006	19.995	100.492	20.024	1.917	0.471
260.500	206.383	80.006	19.995	100.492	20.024	1.961	0.497
261.000	206.611	80.005	19.994	100.492	20.024	1.976	0.530
261.500	206.833	80.005	19.995	100.492	20.025	1.900	0.491
262.000	207.153	80.004	19.995	100.493	20.023	1.999	0.495
262.500	207.379	80.004	19.996	100.493	20.023	1.999	0.544
263.000	207.637	80.005	19.995	100.499	20.024	1.959	0.515
263.500	207.857	80.005	19.994	100.502	20.021	2.125	0.481
264.000	208.103	80.005	19.995	100.504	20.023	2.045	0.472
264.500	208.360	80.004	19.995	100.507	20.021	2.152	0.484
265.000	208.631	80.005	19.995	100.513	20.021	2.154	0.516
265.500	208.848	80.005	19.994	100.509	20.023	1.993	0.508
266.000	209.083	80.005	19.996	100.512	20.025	1.898	0.470
266.500	209.341	80.005	19.995	100.514	20.026	1.796	0.473
267.000	209.622	80.004	19.995	100.517	20.022	2.085	0.516
267.500	209.841	80.005	19.995	100.513	20.022	2.070	0.519
268.000	210.062	80.005	19.994	100.513	20.025	1.888	0.470
268.500	210.347	80.005	19.994	100.509	20.024	1.980	0.473
269.000	210.609	80.005	19.995	100.504	20.023	2.045	0.527
269.500	210.822	80.006	19.995	100.499	20.026	1.791	0.511
270.000	211.042	80.007	19.996	100.498	20.024	1.930	0.454
270.500	211.343	80.006	19.996	100.498	20.023	2.038	0.477
271.000	211.527	80.006	19.995	100.498	20.023	2.026	0.503
271.500	211.839	80.007	19.996	100.499	20.026	1.802	0.490
272.000	212.097	80.006	19.995	100.497	20.021	2.127	0.533
272.500	212.294	80.006	19.996	100.496	20.025	1.903	0.513
273.000	212.574	80.008	19.996	100.493	20.021	2.160	0.466
273.501	212.838	80.006	19.995	100.492	20.020	2.194	0.510
274.000	213.051	80.006	19.995	100.492	20.024	1.915	0.510
274.500	213.302	80.007	19.995	100.492	20.025	1.869	0.471
275.000	213.556	80.007	19.995	100.493	20.024	1.946	0.484
275.500	213.825	80.007	19.994	100.493	20.022	2.059	0.514
276.000	214.053	80.008	19.994	100.494	20.025	1.906	0.510
276.500	214.270	80.008	19.994	100.493	20.024	1.972	0.471
277.000	214.534	80.006	19.995	100.492	20.026	1.831	0.463
277.500	214.766	80.007	19.995	100.492	20.027	1.762	0.488
278.000	215.005	80.006	19.995	100.492	20.026	1.785	0.484
278.500	215.219	80.006	19.995	100.496	20.026	1.814	0.462
279.000	215.505	80.007	19.995	100.502	20.025	1.852	0.476
279.500	215.763	80.007	19.995	100.510	20.024	1.949	0.522
280.000	215.972	80.005	19.995	100.512	20.024	1.940	0.506
280.500	216.218	80.007	19.995	100.515	20.025	1.894	0.461
281.000	216.512	80.006	19.995	100.511	20.027	1.714	0.497
281.500	216.749	80.006	19.995	100.505	20.027	1.752	0.536
282.000	216.945	80.006	19.994	100.498	20.025	1.877	0.482
282.500	217.236	80.006	19.995	100.496	20.026	1.806	0.460
283.000	217.459	80.006	19.995	100.493	20.024	1.959	0.500
283.500	217.713	80.005	19.995	100.493	20.028	1.662	0.495
284.000	217.976	80.005	19.996	100.494	20.028	1.695	0.497
284.500	218.223	80.007	19.995	100.499	20.026	1.800	0.514
285.000	218.491	80.004	19.995	100.506	20.026	1.821	0.513
285.500	218.694	80.003	19.996	100.511	20.025	1.898	0.493
286.000	218.938	80.004	19.996	100.513	20.026	1.835	0.459
286.500	219.189	80.004	19.995	100.512	20.027	1.733	0.471
287.000	219.437	80.004	19.995	100.506	20.027	1.748	0.497
287.500	219.693	80.004	19.996	100.498	20.025	1.867	0.502
288.000	219.914	80.005	19.996	100.494	20.026	1.827	0.490
288.500	220.196	80.003	19.996	100.492	20.026	1.793	0.489
289.000	220.419	80.004	19.995	100.493	20.026	1.789	0.504
289.500	220.691	80.004	19.995	100.498	20.024	1.963	0.501
290.000	220.952	80.005	19.995	100.498	20.025	1.886	0.514
290.500	221.156	80.004	19.995	100.497	20.029	1.561	0.499
291.000	221.424	80.003	19.995	100.497	20.026	1.823	0.468
291.500	221.690	80.004	19.995	100.496	20.027	1.767	0.503
292.000	221.932	80.005	19.994	100.491	20.026	1.781	0.521
292.500	222.183	80.005	19.995	100.491	20.028	1.672	0.501
293.000	222.413	80.003	19.994	100.490	20.026	1.834	0.487
293.500	222.659	80.003	19.995	100.490	20.026	1.771	0.479
294.000	222.914	80.004	19.996	100.491	20.026	1.836	0.488
294.500	223.150	80.003	19.994	100.488	20.028	1.693	0.496
295.000	223.348	80.005	19.994	100.488	20.027	1.741	0.463
295.500	223.643	80.003	19.995	100.493	20.028	1.664	0.464
296.000	223.814	80.005	19.995	100.493	20.027	1.706	0.479
296.500	224.096	80.004	19.994	100.493	20.030	1.547	0.459
297.000	224.353	80.003	19.995	100.496	20.028	1.647	0.496
297.500	224.566	80.005	19.995	100.497	20.027	1.716	0.504
298.000	224.857	80.005	19.995	100.497	20.029	1.626	0.487
298.500	225.114	80.004	19.995	100.499	20.031	1.453	0.527
299.000	225.337	80.004	19.995	100.500	20.030	1.532	0.514
299.500	225.580	80.003	19.995	100.500	20.030	1.492	0.472
300.000	225.859	80.003	19.995	100.500	20.027	1.712	0.494
300.500	226.104	80.005	19.994	100.499	20.031	1.452	0.524
301.000	226.330	80.004	19.994	100.497	20.031	1.480	0.498
301.500	226.561	80.004	19.995	100.494	20.027	1.718	0.463
302.000	226.798	80.005	19.995	100.491	20.029	1.622	0.462
302.500	227.061	80.004	19.994	100.488	20.027	1.720	0.484
303.000	227.320	80.005	19.995	100.486	20.029	1.586	0.511
303.500	227.547	80.005	19.996	100.483	20.028	1.653	0.504
304.000	227.813	80.006	19.995	100.482	20.026	1.823	0.489
304.500	228.042	80.004	19.995	100.483	20.031	1.456	0.494
305.000	228.280	80.005	19.995	100.485	20.028	1.678	0.481
305.500	228.554	80.006	19.995	100.485	20.026	1.785	0.489
306.000	228.798	80.005	19.996	100.485	20.027	1.743	0.515
306.500	229.064	80.004	19.995	100.486	20.029	1.618	0.514
307.000	229.320	80.003	19.995	100.484	20.029	1.573	0.517
307.500	229.531	80.003	19.995	100.479	20.029	1.584	0.495
308.000	229.772	80.003	19.995	100.477	20.027	1.733	0.459
308.500	230.079	80.003	19.995	100.475	20.029	1.574	0.500
309.000	230.288	80.003	19.995	100.468	20.028	1.663	0.532
309.500	230.539	80.004	19.995	100.464	20.029	1.619	0.488
310.000	230.771	80.003	19.995	100.463	20.026	1.777	0.472
310.500	231.063	80.004	19.994	100.465	20.027	1.722	0.503
311.000	231.284	80.002	19.996	100.468	20.026	1.778	0.518
311.500	231.535	80.003	19.996	100.475	20.026	1.804	0.493
312.000	231.778	80.003	19.995	100.480	20.023	1.992	0.483
312.500	232.024	80.002	19.996	100.485	20.026	1.783	0.492
313.000	232.293	80.004	19.996	100.483	20.028	1.680	0.502
313.500	232.545	80.003	19.995	100.482	20.027	1.739	0.518
314.000	232.772	80.003	19.996	100.482	20.022	2.068	0.500
314.500	233.012	80.002	19.995	100.484	20.024	1.917	0.473
315.000	233.218	80.003	19.995	100.486	20.025	1.842	0.457
315.500	233.473	80.003	19.995	100.491	20.025	1.884	0.454
316.000	233.751	80.003	19.996	100.495	20.027	1.722	0.497
316.500	233.959	80.003	19.995	100.496	20.024	1.959	0.510
317.000	234.230	80.002	19.995	100.497	20.022	2.089	0.482
317.500	234.471	80.003	19.996	100.497	20.028	1.655	0.495
318.000	234.690	80.003	19.996	100.498	20.027	1.756	0.486
318.500	234.993	80.005	19.996	100.498	20.028	1.668	0.491
319.000	235.240	80.002	19.996	100.498	20.029	1.607	0.536
319.500	235.464	80.004	19.996	100.501	20.025	1.844	0.511
320.000	235.727	80.004	19.995	100.507	20.026	1.810	0.479
320.500	235.966	80.003	19.996	100.510	20.030	1.534	0.494
321.000	236.238	80.004	19.996	100.513	20.027	1.704	0.506
321.500	236.466	80.003	19.995	100.516	20.028	1.653	0.506
322.000	236.737	80.003	19.996	100.515	20.031	1.423	0.500
322.500	236.962	80.003	19.995	100.510	20.030	1.544	0.498
323.000	237.182	80.005	19.996	100.508	20.032	1.400	0.470
323.500	237.453	80.004	19.996	100.505	20.032	1.417	0.468
324.000	237.677	80.003	19.996	100.501	20.030	1.520	0.493
324.500	237.910	80.004	19.996	100.499	20.031	1.470	0.476
325.000	238.192	80.003	19.996	100.499	20.030	1.553	0.486
325.500	238.429	80.004	19.996	100.501	20.028	1.639	0.517
326.000	238.704	80.004	19.995	100.501	20.030	1.528	0.515
326.500	238.909	80.006	19.996	100.501	20.030	1.503	0.496
327.000	239.166	80.004	19.996	100.501	20.030	1.501	0.471
327.500	239.385	80.003	19.996	100.499	20.030	1.553	0.469
328.000	239.642	80.005	19.996	100.495	20.030	1.555	0.476
328.500	239.893	80.004	19.995	100.494	20.028	1.683	0.492
329.000	240.141	80.005	19.996	100.492	20.032	1.360	0.504
329.500	240.363	80.006	19.995	100.491	20.029	1.578	0.484
330.000	240.655	80.006	19.997	100.491	20.031	1.442	0.492
330.500	240.878	80.004	19.995	100.491	20.028	1.647	0.514
331.000	241.119	80.005	19.995	100.487	20.031	1.450	0.489
331.500	241.370	80.005	19.995	100.486	20.031	1.463	0.478
332.000	241.612	80.006	19.996	100.487	20.031	1.432	0.493
332.500	241.857	80.006	19.996	100.486	20.028	1.687	0.490
333.000	242.153	80.005	19.996	100.481	20.028	1.630	0.514
333.500	242.363	80.006	19.995	100.478	20.032	1.404	0.523
334.000	242.599	80.005	19.996	100.472	20.033	1.333	0.476
334.500	242.897	80.006	19.996	100.463	20.029	1.593	0.490
335.000	243.109	80.006	19.995	100.456	20.028	1.664	0.522
335.500	243.361	80.005	19.996	100.452	20.028	1.654	0.487
336.000	243.669	80.005	19.995	100.452	20.027	1.702	0.512
336.500	243.881	80.005	19.996	100.454	20.028	1.666	0.540
337.000	244.117	80.006	19.996	100.461	20.026	1.788	0.484
337.500	244.379	80.004	19.996	100.468	20.029	1.603	0.473
338.000	244.643	80.005	19.996	100.475	20.028	1.681	0.512
338.500	244.870	80.006	19.995	100.477	20.026	1.798	0.508
339.000	245.110	80.004	19.997	100.481	20.027	1.752	0.479
339.500	245.365	80.005	19.997	100.482	20.029	1.568	0.481
340.000	245.613	80.005	19.997	100.478	20.029	1.622	0.499
340.500	245.859	80.006	19.996	100.475	20.027	1.729	0.498
341.000	246.116	80.005	19.996	100.472	20.029	1.570	0.498
341.500	246.362	80.004	19.996	100.467	20.027	1.743	0.503
342.000	246.630	80.005	19.996	100.461	20.030	1.549	0.509
342.500	246.873	80.005	19.996	100.460	20.031	1.484	0.512
343.000	247.144	80.005	19.996	100.465	20.026	1.792	0.512
343.500	247.397	80.004	19.997	100.471	20.025	1.867	0.519
344.000	247.615	80.005	19.996	100.478	20.028	1.683	0.498
344.500	247.863	80.003	19.998	100.481	20.027	1.718	0.469
345.000	248.119	80.006	19.996	100.480	20.028	1.681	0.485
345.500	248.387	80.004	19.996	100.473	20.029	1.595	0.514
346.000	248.627	80.004	19.996	100.468	20.027	1.704	0.516
346.500	248.911	80.004	19.996	100.463	20.026	1.819	0.516
347.000	249.142	80.004	19.996	100.458	20.026	1.817	0.520
347.500	249.395	80.005	19.996	100.456	20.027	1.704	0.499
348.000	249.641	80.004	19.997	100.460	20.027	1.758	0.491
348.500	249.953	80.005	19.996	100.464	20.026	1.784	0.528
349.000	250.211	80.005	19.997	100.466	20.029	1.606	0.564
349.500	250.420	80.005	19.996	100.468	20.028	1.694	0.518
350.000	250.652	80.005	19.996	100.475	20.029	1.564	0.454
350.500	250.907	80.006	19.996	100.476	20.028	1.648	0.464
351.000	251.140	80.006	19.995	100.476	20.029	1.600	0.487
351.500	251.467	80.004	19.997	100.479	20.027	1.755	0.524
352.000	251.692	80.006	19.996	100.485	20.029	1.587	0.556
352.500	251.916	80.006	19.996	100.486	20.029	1.597	0.501
353.000	252.176	80.006	19.996	100.488	20.029	1.559	0.467
353.500	252.412	80.006	19.995	100.491	20.026	1.830	0.490
354.000	252.684	80.006	19.996	100.491	20.030	1.507	0.502
354.500	252.954	80.006	19.995	100.491	20.031	1.476	0.525
355.000	253.186	80.008	19.996	100.492	20.027	1.752	0.521
355.500	253.442	80.008	19.995	100.492	20.029	1.605	0.495
356.000	253.725	80.006	19.996	100.492	20.029	1.570	0.514
356.500	253.962	80.007	19.995	100.492	20.031	1.427	0.530
357.000	254.166	80.005	19.994	100.492	20.032	1.375	0.480
357.500	254.460	80.007	19.995	100.492	20.028	1.660	0.469
358.000	254.750	80.007	19.996	100.491	20.028	1.647	0.541
358.500	254.961	80.007	19.996	100.487	20.029	1.605	0.543
359.000	255.186	80.007	19.995	100.481	20.031	1.469	0.469
359.500	255.461	80.005	19.996	100.475	20.029	1.627	0.468
360.000	255.733	80.007	19.995	100.467	20.029	1.624	0.523
360.500	255.993	80.008	19.994	100.461	20.032	1.348	0.540
361.000	256.251	80.007	19.994	100.456	20.030	1.518	0.525
361.500	256.480	80.007	19.994	100.455	20.031	1.482	0.502
362.000	256.702	80.006	19.995	100.454	20.029	1.561	0.469
362.500	256.976	80.007	19.994	100.458	20.029	1.559	0.474
363.000	257.264	80.006	19.996	100.466	20.033	1.325	0.529
363.500	257.452	80.007	19.994	100.472	20.030	1.503	0.519
364.000	257.745	80.006	19.995	100.472	20.028	1.629	0.479
364.500	257.973	80.005	19.995	100.473	20.029	1.616	0.501
365.000	258.238	80.005	19.995	100.470	20.030	1.501	0.507
365.500	258.482	80.006	19.995	100.470	20.031	1.438	0.501
366.000	258.706	80.004	19.995	100.472	20.031	1.436	0.488
366.500	258.954	80.004	19.995	100.474	20.032	1.394	0.469
367.001	259.228	80.006	19.995	100.477	20.031	1.457	0.497
367.500	259.475	80.003	19.994	100.482	20.031	1.428	0.522
368.000	259.750	80.004	19.995	100.480	20.031	1.465	0.522
368.500	259.982	80.003	19.996	100.474	20.032	1.417	0.515
369.000	260.220	80.003	19.995	100.472	20.031	1.432	0.488
369.500	260.444	80.004	19.995	100.469	20.029	1.572	0.466
370.000	260.732	80.004	19.995	100.463	20.034	1.235	0.487
370.500	261.007	80.004	19.995	100.458	20.032	1.348	0.537
371.000	261.206	80.004	19.995	100.459	20.031	1.465	0.519
371.500	261.501	80.004	19.995	100.460	20.030	1.513	0.485
372.000	261.719	80.004	19.995	100.464	20.034	1.237	0.504
372.500	261.955	80.004	19.995	100.466	20.033	1.335	0.483
373.000	262.268	80.003	19.996	100.469	20.034	1.207	0.501
373.500	262.407	80.003	19.995	100.473	20.033	1.331	0.500
374.000	262.702	80.003	19.995	100.473	20.032	1.396	0.443
374.500	262.946	80.003	19.995	100.470	20.033	1.289	0.486
375.000	263.255	80.005	19.996	100.469	20.030	1.492	0.546
375.500	263.502	80.004	19.996	100.465	20.032	1.407	0.554
376.000	263.761	80.004	19.995	100.460	20.032	1.385	0.531
376.500	263.988	80.004	19.996	100.460	20.031	1.432	0.496
377.000	264.230	80.003	19.996	100.459	20.032	1.371	0.477
377.500	264.484	80.002	19.996	100.459	20.030	1.541	0.482
378.000	264.749	80.004	19.995	100.459	20.028	1.664	0.508
378.500	264.987	80.003	19.996	100.457	20.030	1.547	0.511
379.000	265.203	80.004	19.995	100.452	20.027	1.733	0.479
379.500	265.498	80.003	19.995	100.452	20.029	1.604	0.483
380.000	265.732	80.004	19.995	100.452	20.030	1.490	0.520
380.500	265.979	80.003	19.995	100.452	20.031	1.419	0.505
381.000	266.226	80.003	19.997	100.454	20.029	1.591	0.487
381.500	266.481	80.005	19.996	100.459	20.028	1.654	0.498
382.000	266.769	80.003	19.996	100.459	20.030	1.555	0.522
382.500	267.025	80.005	19.995	100.459	20.031	1.440	0.543
383.000	267.208	80.003	19.996	100.460	20.033	1.318	0.492
383.500	267.498	80.004	19.995	100.460	20.032	1.415	0.456
384.000	267.766	80.005	19.996	100.461	20.031	1.482	0.515
384.500	267.985	80.005	19.995	100.460	20.032	1.390	0.522
385.000	268.260	80.005	19.996	100.460	20.033	1.323	0.491
385.500	268.500	80.004	19.995	100.460	20.033	1.298	0.505
386.000	268.728	80.003	19.995	100.461	20.030	1.534	0.491
386.500	269.001	80.003	19.995	100.461	20.031	1.457	0.484
387.000	269.245	80.004	19.995	100.461	20.032	1.407	0.509
387.500	269.512	80.005	19.995	100.462	20.032	1.363	0.514
388.000	269.748	80.004	19.995	100.464	20.032	1.402	0.507
388.500	269.983	80.005	19.996	100.463	20.035	1.155	0.487
389.000	270.221	80.005	19.996	100.466	20.035	1.182	0.472
389.500	270.495	80.005	19.995	100.465	20.037	1.063	0.492
390.000	270.740	80.006	19.994	100.463	20.031	1.427	0.515
390.500	271.015	80.005	19.995	100.460	20.033	1.331	0.519
391.000	271.301	80.005	19.994	100.458	20.034	1.212	0.541
391.500	271.542	80.005	19.995	100.455	20.036	1.098	0.544
392.000	271.760	80.005	19.995	100.454	20.032	1.381	0.493
392.500	272.010	80.004	19.995	100.455	20.036	1.094	0.463
393.000	272.272	80.004	19.995	100.455	20.035	1.180	0.490
393.500	272.502	80.006	19.995	100.457	20.035	1.157	0.502
394.000	272.750	80.004	19.996	100.457	20.036	1.113	0.485
394.500	272.965	80.005	19.995	100.458	20.034	1.235	0.470
395.000	273.266	80.005	19.995	100.456	20.036	1.101	0.489
395.500	273.468	80.005	19.995	100.456	20.035	1.201	0.509
396.000	273.749	80.004	19.995	100.455	20.034	1.256	0.493
396.500	273.992	80.004	19.996	100.455	20.034	1.207	0.503
397.000	274.223	80.004	19.995	100.455	20.032	1.406	0.499
397.500	274.498	80.004	19.995	100.456	20.034	1.237	0.490
398.000	274.721	80.005	19.995	100.456	20.035	1.142	0.502
398.500	275.002	80.004	19.995	100.456	20.036	1.084	0.501
399.000	275.254	80.005	19.995	100.455	20.036	1.107	0.519
399.500	275.469	80.004	19.997	100.455	20.035	1.155	0.500
400.000	275.740	80.005	19.995	100.455	20.037	1.044	0.476
400.500	275.979	80.004	19.996	100.456	20.036	1.082	0.498
401.000	276.246	80.003	19.996	100.456	20.034	1.226	0.508
401.500	276.492	80.003	19.996	100.456	20.033	1.300	0.510
402.000	276.749	80.003	19.997	100.456	20.035	1.180	0.508
402.500	277.006	80.003	19.996	100.455	20.035	1.203	0.509
403.000	277.263	80.003	19.995	100.454	20.036	1.113	0.514
403.500	277.479	80.004	19.997	100.455	20.036	1.130	0.494
404.000	277.742	80.004	19.996	100.455	20.035	1.184	0.476
404.500	277.951	80.003	19.996	100.455	20.032	1.409	0.475
405.000	278.240	80.003	19.996	100.456	20.034	1.207	0.485
405.500	278.449	80.003	19.996	100.456	20.034	1.235	0.498
406.000	278.728	80.003	19.995	100.455	20.034	1.222	0.493
406.500	278.980	80.003	19.995	100.455	20.035	1.201	0.509
407.000	279.223	80.003	19.996	100.455	20.035	1.189	0.513
407.500	279.452	80.004	19.995	100.457	20.038	0.948	0.484
408.000	279.714	80.005	19.997	100.458	20.035	1.155	0.481
408.500	279.942	80.005	19.997	100.458	20.035	1.143	0.490
409.000	280.197	80.005	19.997	100.457	20.035	1.143	0.487
409.500	280.435	80.005	19.996	100.457	20.036	1.103	0.488
410.000	280.680	80.004	19.997	100.456	20.035	1.155	0.488
410.500	280.945	80.005	19.997	100.455	20.037	1.061	0.497
411.000	281.211	80.004	19.996	100.455	20.035	1.187	0.520
411.500	281.437	80.005	19.997	100.454	20.040	0.826	0.511
412.000	281.664	80.004	19.996	100.455	20.041	0.776	0.473
412.500	281.959	80.004	19.996	100.454	20.038	0.933	0.488
413.000	282.198	80.005	19.997	100.454	20.041	0.723	0.528
413.500	282.454	80.006	19.996	100.453	20.040	0.803	0.514
414.000	282.697	80.007	19.996	100.453	20.037	1.061	0.497
414.500	282.930	80.006	19.997	100.452	20.037	1.044	0.488
415.000	283.180	80.007	19.995	100.453	20.035	1.172	0.480
415.500	283.405	80.005	19.995	100.452	20.038	0.973	0.479
416.000	283.645	80.006	19.996	100.452	20.038	0.956	0.471
416.500	283.937	80.007	19.997	100.453	20.037	1.010	0.499
417.000	284.167	80.006	19.995	100.452	20.035	1.136	0.527
417.500	284.417	80.006	19.996	100.451	20.036	1.082	0.501
418.001	284.623	80.006	19.996	100.451	20.035	1.138	0.468
418.500	284.924	80.005	19.997	100.450	20.038	0.945	0.482
419.000	285.139	80.007	19.996	100.450	20.035	1.147	0.512
419.500	285.406	80.007	19.994	100.451	20.033	1.279	0.499
420.000	285.669	80.005	19.995	100.452	20.033	1.314	0.506
420.500	285.886	80.006	19.997	100.450	20.035	1.149	0.505
421.000	286.146	80.005	19.996	100.450	20.037	1.023	0.479
421.500	286.360	80.006	19.995	100.450	20.033	1.295	0.475
422.000	286.615	80.005	19.995	100.450	20.036	1.111	0.471
422.500	286.885	80.005	19.995	100.451	20.036	1.115	0.497
423.000	287.152	80.006	19.996	100.455	20.034	1.224	0.531
423.500	287.381	80.005	19.996	100.456	20.035	1.159	0.517
424.000	287.634	80.006	19.997	100.457	20.035	1.143	0.489
424.500	287.887	80.005	19.996	100.457	20.037	1.021	0.494
425.000	288.128	80.005	19.996	100.457	20.035	1.141	0.500
425.500	288.382	80.004	19.996	100.457	20.037	1.061	0.495
426.000	288.655	80.004	19.997	100.456	20.036	1.092	0.511
426.500	288.881	80.006	19.996	100.457	20.036	1.121	0.513
427.000	289.165	80.005	19.995	100.457	20.038	0.966	0.505
427.500	289.376	80.004	19.996	100.457	20.037	1.000	0.503
428.000	289.607	80.005	19.997	100.456	20.041	0.759	0.469
428.500	289.900	80.006	19.996	100.456	20.040	0.784	0.483
429.000	290.152	80.005	19.996	100.455	20.036	1.126	0.534
429.500	290.377	80.006	19.995	100.456	20.042	0.656	0.511
430.000	290.638	80.004	19.996	100.458	20.041	0.732	0.482
430.500	290.929	80.005	19.996	100.460	20.038	0.946	0.519
431.000	291.150	80.005	19.997	100.461	20.039	0.876	0.532
431.500	291.418	80.004	19.997	100.461	20.036	1.101	0.500
432.000	291.642	80.006	19.997	100.461	20.040	0.839	0.491
432.500	291.884	80.005	19.995	100.460	20.038	0.977	0.479
433.000	292.158	80.005	19.997	100.459	20.037	1.036	0.491
433.500	292.378	80.005	19.996	100.458	20.038	0.989	0.505
434.000	292.644	80.005	19.996	100.457	20.039	0.901	0.490
434.500	292.884	80.005	19.997	100.454	20.039	0.895	0.496
435.000	293.143	80.005	19.997	100.449	20.038	0.947	0.502
435.500	293.428	80.005	19.996	100.448	20.038	0.947	0.521
436.000	293.662	80.005	19.997	100.447	20.038	0.983	0.531
436.500	293.918	80.005	19.997	100.447	20.036	1.094	0.504
437.000	294.161	80.005	19.997	100.449	20.037	1.038	0.494
437.500	294.438	80.005	19.996	100.452	20.036	1.134	0.509
438.000	294.673	80.005	19.996	100.452	20.037	1.025	0.516
438.501	294.933	80.005	19.997	100.453	20.033	1.314	0.504
439.000	295.188	80.006	19.997	100.448	20.035	1.205	0.505
439.500	295.415	80.006	19.996	100.447	20.034	1.247	0.498
440.000	295.678	80.007	19.996	100.442	20.032	1.356	0.486
440.500	295.947	80.006	19.997	100.440	20.033	1.333	0.511
441.000	296.195	80.006	19.997	100.439	20.032	1.400	0.525
441.500	296.461	80.005	19.996	100.443	20.033	1.291	0.516
442.000	296.727	80.006	19.996	100.444	20.032	1.402	0.523
442.500	296.970	80.006	19.997	100.449	20.035	1.142	0.521
443.000	297.205	80.007	19.996	100.453	20.034	1.220	0.493
443.500	297.453	80.006	19.996	100.454	20.033	1.308	0.480
444.000	297.729	80.006	19.996	100.454	20.035	1.197	0.503
444.500	297.972	80.005	19.996	100.454	20.036	1.082	0.522
445.000	298.213	80.007	19.996	100.454	20.036	1.117	0.502
445.500	298.492	80.006	19.996	100.454	20.034	1.271	0.501
446.000	298.726	80.006	19.995	100.454	20.033	1.337	0.517
446.500	298.981	80.005	19.995	100.455	20.034	1.275	0.501
447.000	299.224	80.004	19.996	100.455	20.035	1.180	0.493
447.501	299.486	80.005	19.996	100.458	20.036	1.105	0.502
448.000	299.749	80.006	19.997	100.458	20.036	1.134	0.515
448.500	299.978	80.005	19.996	100.458	20.036	1.113	0.508
449.000	300.235	80.004	19.996	100.458	20.034	1.271	0.489
449.500	300.487	80.004	19.995	100.459	20.033	1.338	0.498
450.000	300.733	80.005	19.996	100.458	20.036	1.080	0.504
450.500	300.974	80.003	19.995	100.457	20.033	1.338	0.493
451.001	301.241	80.004	19.996	100.455	20.034	1.250	0.497
451.500	301.451	80.004	19.995	100.452	20.034	1.262	0.492
452.000	301.706	80.003	19.995	100.451	20.037	1.004	0.472
452.501	301.959	80.004	19.994	100.451	20.031	1.442	0.487
453.001	302.226	80.004	19.996	100.451	20.031	1.432	0.514
453.501	302.433	80.004	19.995	100.450	20.036	1.113	0.497
454.000	302.659	80.004	19.995	100.451	20.033	1.279	0.453
454.500	302.926	80.006	19.996	100.446	20.034	1.272	0.463
455.000	303.206	80.005	19.996	100.443	20.035	1.138	0.520
455.500	303.467	80.004	19.997	100.442	20.032	1.348	0.544
456.000	303.672	80.004	19.998	100.443	20.032	1.400	0.503
456.500	303.928	80.004	19.995	100.444	20.033	1.306	0.464
457.000	304.208	80.004	19.996	100.447	20.032	1.398	0.499
457.500	304.447	80.003	19.995	100.446	20.033	1.306	0.527
458.000	304.661	80.004	19.996	100.442	20.032	1.400	0.485
458.501	304.962	80.004	19.993	100.441	20.036	1.082	0.484
459.000	305.245	80.004	19.996	100.441	20.033	1.302	0.550
459.500	305.431	80.006	19.995	100.441	20.034	1.218	0.527
460.000	305.686	80.005	19.995	100.443	20.034	1.266	0.455
460.500	305.924	80.004	19.995	100.447	20.033	1.327	0.467
461.000	306.187	80.005	19.995	100.447	20.033	1.289	0.497
461.500	306.464	80.004	19.997	100.448	20.035	1.161	0.520
462.000	306.703	80.005	19.996	100.447	20.036	1.126	0.528
462.500	306.917	80.003	19.995	100.448	20.036	1.080	0.484
463.000	307.188	80.004	19.994	100.449	20.036	1.107	0.469
463.500	307.408	80.005	19.997	100.451	20.036	1.067	0.488
464.000	307.679	80.004	19.996	100.452	20.036	1.103	0.491
464.500	307.926	80.005	19.996	100.454	20.038	0.979	0.505
465.000	308.171	80.004	19.996	100.454	20.038	0.985	0.505
465.500	308.417	80.006	19.996	100.454	20.038	0.958	0.491
466.000	308.727	80.006	19.996	100.453	20.036	1.086	0.523
466.500	308.932	80.005	19.997	100.452	20.038	0.952	0.536
467.000	309.193	80.007	19.997	100.453	20.038	0.929	0.490
467.500	309.477	80.006	19.997	100.452	20.036	1.113	0.505
468.000	309.705	80.005	19.995	100.452	20.036	1.067	0.529
468.500	309.960	80.005	19.996	100.453	20.035	1.147	0.498
469.000	310.209	80.006	19.996	100.454	20.037	1.044	0.493
469.500	310.452	80.005	19.995	100.452	20.034	1.239	0.497
470.000	310.701	80.006	19.996	100.447	20.035	1.143	0.492
470.500	310.983	80.005	19.996	100.446	20.037	1.019	0.512
471.000	311.211	80.007	19.996	100.444	20.036	1.122	0.521
471.500	311.497	80.006	19.996	100.444	20.036	1.113	0.513
472.000	311.689	80.005	19.996	100.447	20.037	1.025	0.496
472.501	311.957	80.005	19.995	100.452	20.034	1.210	0.468
473.000	312.270	80.006	19.996	100.453	20.037	1.034	0.520
473.500	312.517	80.005	19.995	100.452	20.035	1.172	0.571
474.000	312.773	80.006	19.995	100.448	20.037	1.046	0.531
474.500	313.024	80.006	19.996	100.441	20.033	1.279	0.505
475.000	313.256	80.006	19.995	100.435	20.038	0.945	0.495
475.500	313.510	80.005	19.995	100.434	20.035	1.143	0.484
476.000	313.790	80.004	19.996	100.431	20.038	0.987	0.510
476.500	314.062	80.005	19.995	100.433	20.037	1.008	0.543
477.000	314.310	80.005	19.997	100.437	20.036	1.082	0.537
477.500	314.595	80.005	19.996	100.436	20.037	1.009	0.527
478.000	314.837	80.004	19.995	100.432	20.035	1.199	0.530
478.501	315.083	80.005	19.995	100.431	20.034	1.235	0.507
479.001	315.320	80.005	19.995	100.426	20.036	1.113	0.486
479.500	315.584	80.005	19.996	100.420	20.034	1.266	0.492
480.000	315.831	80.006	19.996	100.423	20.035	1.197	0.506
480.500	316.072	80.006	19.996	100.423	20.037	1.057	0.499
481.000	316.317	80.003	19.995	100.426	20.033	1.281	0.487
481.500	316.582	80.005	19.995	100.432	20.034	1.256	0.498
482.000	316.824	80.004	19.996	100.439	20.035	1.159	0.508
482.500	317.091	80.004	19.995	100.439	20.033	1.308	0.508
483.000	317.312	80.005	19.995	100.441	20.032	1.407	0.499
483.500	317.597	80.005	19.996	100.439	20.033	1.311	0.497
484.000	317.851	80.004	19.996	100.434	20.034	1.233	0.523
484.500	318.107	80.004	19.996	100.432	20.034	1.239	0.524
485.000	318.345	80.003	19.995	100.433	20.034	1.258	0.502
485.500	318.580	80.006	19.995	100.437	20.032	1.398	0.484
486.000	318.843	80.006	19.996	100.443	20.035	1.183	0.485
486.500	319.103	80.004	19.996	100.447	20.034	1.220	0.511
487.000	319.386	80.004	19.996	100.446	20.036	1.090	0.533
487.500	319.583	80.005	19.996	100.443	20.035	1.161	0.511
488.000	319.861	80.005	19.995	100.436	20.036	1.113	0.478
488.500	320.092	80.004	19.995	100.433	20.034	1.227	0.492
489.000	320.382	80.004	19.995	100.433	20.036	1.069	0.515
489.500	320.627	80.004	19.996	100.430	20.035	1.157	0.528
490.000	320.873	80.004	19.995	100.430	20.035	1.204	0.513
490.500	321.125	80.005	19.996	100.430	20.036	1.122	0.494
491.000	321.391	80.005	19.995	100.427	20.037	1.061	0.508
491.500	321.630	80.004	19.996	100.425	20.035	1.135	0.512
492.000	321.906	80.004	19.996	100.430	20.034	1.216	0.510
492.500	322.126	80.005	19.996	100.432	20.033	1.346	0.505
493.000	322.381	80.005	19.996	100.432	20.035	1.179	0.486
493.500	322.651	80.005	19.997	100.431	20.035	1.172	0.500
494.000	322.887	80.005	19.995	100.428	20.035	1.158	0.516
494.500	323.115	80.006	19.995	100.425	20.036	1.084	0.485
495.000	323.410	80.006	19.997	100.428	20.036	1.091	0.493
495.500	323.623	80.007	19.995	100.432	20.036	1.092	0.515
496.000	323.891	80.005	19.995	100.433	20.035	1.204	0.495
496.501	324.112	80.006	19.993	100.434	20.037	1.053	0.486
497.000	324.396	80.005	19.994	100.433	20.035	1.153	0.497
497.500	324.584	80.005	19.995	100.435	20.037	1.050	0.488
498.000	324.841	80.005	19.995	100.435	20.031	1.472	0.459
498.500	325.126	80.006	19.995	100.438	20.036	1.084	0.493
499.000	325.357	80.006	19.993	100.437	20.037	1.030	0.529
499.500	325.654	80.006	19.997	100.435	20.036	1.113	0.522
500.000	325.918	80.007	19.995	100.428	20.035	1.170	0.545
500.500	326.166	80.006	19.994	100.424	20.035	1.149	0.537
501.000	326.358	80.006	19.996	100.418	20.036	1.069	0.476
501.500	326.653	80.006	19.997	100.418	20.036	1.126	0.463
502.000	326.926	80.005	19.995	100.418	20.033	1.277	0.527
502.500	327.141	80.005	19.994	100.419	20.036	1.082	0.528
503.000	327.416	80.004	19.996	100.420	20.036	1.114	0.489
503.500	327.660	80.006	19.995	100.420	20.033	1.340	0.505
504.000	327.911	80.004	19.997	100.420	20.037	1.044	0.507
504.500	328.168	80.005	19.996	100.421	20.036	1.090	0.501
505.000	328.442	80.005	19.995	100.420	20.033	1.296	0.519
505.500	328.677	80.005	19.997	100.418	20.035	1.176	0.520
506.000	328.958	80.006	19.995	100.419	20.032	1.376	0.512
506.500	329.172	80.005	19.996	100.424	20.033	1.281	0.505
507.000	329.450	80.005	19.996	100.431	20.035	1.160	0.494
507.500	329.714	80.005	19.996	100.439	20.036	1.120	0.517
508.000	329.945	80.004	19.995	100.446	20.035	1.158	0.519
508.500	330.200	80.005	19.996	100.448	20.036	1.082	0.490
509.000	330.479	80.005	19.996	100.443	20.036	1.105	0.510
509.500	330.714	80.005	19.995	100.435	20.035	1.151	0.524
510.000	330.971	80.004	19.996	100.428	20.040	0.835	0.503
510.500	331.206	80.004	19.997	100.426	20.036	1.099	0.492
511.000	331.484	80.004	19.996	100.428	20.038	0.982	0.503
511.500	331.728	80.005	19.996	100.428	20.035	1.176	0.518
512.000	331.973	80.004	19.996	100.428	20.034	1.225	0.506
512.500	332.259	80.004	19.995	100.428	20.037	1.059	0.510
513.000	332.465	80.005	19.994	100.424	20.037	1.023	0.511
513.500	332.742	80.003	19.995	100.422	20.038	0.965	0.487
514.000	332.981	80.004	19.995	100.425	20.035	1.156	0.499
514.500	333.233	80.004	19.997	100.430	20.036	1.122	0.503
515.000	333.497	80.005	19.995	100.433	20.037	1.019	0.503
515.500	333.743	80.005	19.994	100.434	20.036	1.103	0.513
516.000	334.002	80.006	19.996	100.431	20.034	1.216	0.508
516.500	334.252	80.005	19.996	100.428	20.034	1.250	0.507
517.000	334.535	80.006	19.995	100.424	20.036	1.091	0.521
517.500	334.797	80.006	19.995	100.420	20.033	1.283	0.539
518.000	335.034	80.006	19.995	100.420	20.034	1.231	0.522
518.500	335.296	80.007	19.996	100.421	20.034	1.214	0.499
519.000	335.516	80.006	19.996	100.421	20.036	1.112	0.490
519.500	335.801	80.006	19.996	100.420	20.035	1.158	0.493
520.000	336.041	80.007	19.995	100.420	20.037	1.044	0.515
520.500	336.277	80.007	19.995	100.418	20.036	1.067	0.501
521.000	336.508	80.008	19.996	100.418	20.035	1.177	0.471
521.500	336.750	80.006	19.995	100.416	20.037	1.044	0.470
522.000	337.060	80.007	19.996	100.416	20.036	1.111	0.513
522.500	337.316	80.007	19.997	100.415	20.033	1.327	0.559
523.000	337.573	80.007	19.996	100.415	20.036	1.111	0.539
523.500	337.811	80.007	19.995	100.415	20.035	1.170	0.504
524.000	338.069	80.007	19.995	100.416	20.037	0.998	0.496
524.501	338.306	80.008	19.996	100.416	20.034	1.248	0.495
525.002	338.586	80.007	19.996	100.416	20.035	1.189	0.506
525.501	338.811	80.006	19.995	100.415	20.039	0.877	0.511
526.000	339.051	80.006	19.995	100.415	20.036	1.112	0.485
526.500	339.323	80.007	19.995	100.414	20.037	1.002	0.489
527.000	339.585	80.008	19.996	100.415	20.035	1.141	0.524
527.500	339.827	80.007	19.996	100.414	20.037	1.015	0.519
528.000	340.053	80.005	19.995	100.415	20.036	1.099	0.485
528.500	340.300	80.006	19.996	100.415	20.039	0.854	0.470
529.000	340.572	80.006	19.997	100.415	20.037	1.028	0.496
529.500	340.768	80.005	19.997	100.415	20.038	0.954	0.494
530.000	341.036	80.006	19.996	100.415	20.034	1.252	0.466
530.500	341.289	80.006	19.997	100.415	20.035	1.158	0.493
531.000	341.544	80.006	19.996	100.414	20.034	1.206	0.514
531.500	341.811	80.006	19.996	100.414	20.037	1.005	0.515
532.000	342.072	80.003	19.997	100.414	20.040	0.830	0.525
532.500	342.317	80.004	19.998	100.414	20.036	1.116	0.517
533.000	342.565	80.004	19.998	100.414	20.037	1.011	0.499
533.500	342.842	80.004	19.997	100.414	20.036	1.067	0.509
534.000	343.040	80.004	19.997	100.414	20.037	1.063	0.500
534.500	343.278	80.003	19.997	100.414	20.039	0.910	0.456
535.000	343.569	80.004	19.997	100.413	20.036	1.093	0.482
535.500	343.811	80.004	19.997	100.412	20.037	1.025	0.531
536.000	344.052	80.003	19.996	100.411	20.034	1.206	0.508
536.500	344.284	80.004	19.997	100.412	20.034	1.212	0.478
537.000	344.551	80.003	19.997	100.411	20.035	1.202	0.486
537.500	344.812	80.005	19.997	100.412	20.037	1.019	0.514
538.001	345.022	80.003	19.998	100.413	20.037	1.025	0.500
538.500	345.284	80.004	19.996	100.414	20.035	1.183	0.472
539.000	345.575	80.004	19.997	100.414	20.033	1.279	0.512
539.500	345.820	80.005	19.997	100.415	20.035	1.183	0.544
540.000	346.114	80.003	19.997	100.415	20.034	1.239	0.537
540.500	346.376	80.005	19.996	100.415	20.035	1.153	0.547
541.000	346.605	80.004	19.997	100.415	20.035	1.198	0.524
541.501	346.864	80.003	19.996	100.415	20.035	1.145	0.490
542.000	347.090	80.005	19.996	100.415	20.035	1.156	0.486
542.500	347.339	80.004	19.996	100.415	20.035	1.151	0.480
543.000	347.616	80.004	19.996	100.416	20.034	1.218	0.500
543.500	347.854	80.005	19.995	100.421	20.036	1.124	0.520
544.000	348.100	80.004	19.996	100.425	20.037	1.038	0.500
544.500	348.365	80.005	19.995	100.426	20.036	1.072	0.498
545.000	348.591	80.006	19.996	100.426	20.036	1.114	0.501
545.500	348.904	80.005	19.996	100.425	20.034	1.265	0.515
546.000	349.147	80.005	19.995	100.421	20.034	1.265	0.547
546.500	349.383	80.005	19.994	100.417	20.034	1.248	0.518
547.000	349.628	80.006	19.995	100.416	20.032	1.411	0.480
547.500	349.875	80.005	19.999	100.416	20.033	1.285	0.486
548.000	350.147	80.002	19.995	100.416	20.035	1.200	0.506
548.500	350.371	80.006	19.996	100.416	20.036	1.091	0.508
549.000	350.648	80.004	19.995	100.416	20.032	1.355	0.498
549.500	350.893	80.004	19.993	100.417	20.035	1.160	0.511
550.000	351.140	80.006	19.995	100.417	20.035	1.155	0.507
550.500	351.374	80.005	19.997	100.417	20.035	1.174	0.486
551.000	351.636	80.005	19.996	100.417	20.035	1.179	0.489
551.500	351.920	80.004	19.996	100.417	20.033	1.313	0.521
552.000	352.167	80.006	19.995	100.416	20.035	1.172	0.539
552.500	352.397	80.006	19.995	100.416	20.036	1.103	0.504
553.000	352.674	80.006	19.995	100.416	20.033	1.279	0.492
553.500	352.923	80.005	19.994	100.416	20.034	1.256	0.516
554.000	353.218	80.006	19.995	100.416	20.034	1.212	0.535
554.500	353.441	80.005	19.995	100.417	20.036	1.072	0.531
555.000	353.670	80.004	19.996	100.417	20.033	1.302	0.485
555.500	353.944	80.006	19.995	100.417	20.035	1.204	0.478
556.000	354.227	80.005	19.995	100.417	20.033	1.342	0.530
556.500	354.474	80.005	19.995	100.418	20.036	1.088	0.543
557.001	354.735	80.005	19.996	100.417	20.031	1.435	0.519
557.500	354.975	80.005	19.994	100.417	20.032	1.351	0.504
558.000	355.241	80.004	19.994	100.416	20.033	1.298	0.503
558.500	355.470	80.005	19.995	100.416	20.033	1.313	0.501
559.000	355.735	80.004	19.995	100.417	20.030	1.535	0.495
559.500	355.945	80.004	19.995	100.417	20.032	1.413	0.484
560.000	356.162	80.005	19.995	100.418	20.033	1.346	0.451
560.500	356.453	80.005	19.995	100.417	20.032	1.392	0.468
561.000	356.665	80.005	19.995	100.416	20.031	1.451	0.506
561.500	356.951	80.004	19.995	100.416	20.029	1.585	0.501
562.000	357.203	80.005	19.997	100.416	20.029	1.568	0.518
562.500	357.513	80.005	19.997	100.416	20.029	1.558	0.550
563.000	357.735	80.005	19.995	100.417	20.029	1.577	0.547
563.500	357.966	80.004	19.995	100.415	20.031	1.438	0.493
564.000	358.233	80.005	19.996	100.416	20.030	1.529	0.475
564.500	358.479	80.004	19.995	100.416	20.029	1.604	0.505
565.000	358.747	80.004	19.997	100.414	20.029	1.577	0.513
565.500	359.004	80.004	19.995	100.411	20.029	1.602	0.519
566.000	359.227	80.003	19.997	100.407	20.029	1.623	0.503
566.500	359.505	80.004	19.995	100.405	20.029	1.598	0.491
567.001	359.741	80.006	19.997	100.404	20.028	1.636	0.507
567.500	359.995	80.005	19.995	100.406	20.029	1.569	0.502
568.000	360.248	80.005	19.996	100.410	20.026	1.808	0.499
568.500	360.495	80.004	19.995	100.416	20.030	1.495	0.504
569.000	360.812	80.004	19.995	100.419	20.028	1.644	0.532
569.500	361.010	80.005	19.996	100.420	20.028	1.674	0.539
570.000	361.235	80.004	19.995	100.421	20.027	1.760	0.469
570.500	361.516	80.005	19.996	100.422	20.026	1.820	0.465
571.000	361.789	80.006	19.995	100.424	20.027	1.734	0.530
571.500	362.019	80.004	19.995	100.425	20.028	1.680	0.528
572.000	362.294	80.005	19.995	100.426	20.027	1.709	0.504
572.500	362.524	80.003	19.996	100.426	20.024	1.944	0.505
573.000	362.764	80.005	19.996	100.425	20.025	1.890	0.488
573.500	363.018	80.005	19.995	100.423	20.027	1.766	0.482
574.000	363.261	80.005	19.994	100.421	20.026	1.829	0.495
574.500	363.505	80.005	19.995	100.422	20.023	2.041	0.492
575.000	363.760	80.005	19.994	100.422	20.024	1.965	0.493
575.500	364.002	80.005	19.995	100.421	20.024	1.923	0.498
576.000	364.267	80.005	19.995	100.421	20.023	2.015	0.502
576.500	364.510	80.007	19.995	100.418	20.021	2.142	0.508
577.000	364.785	80.006	19.994	100.411	20.023	1.995	0.513
577.500	365.029	80.005	19.996	100.409	20.024	1.932	0.518
578.000	365.278	80.006	19.995	100.406	20.023	1.997	0.506
578.500	365.534	80.007	19.994	100.404	20.021	2.179	0.499
579.000	365.809	80.007	19.997	100.406	20.019	2.305	0.518
579.500	366.029	80.006	19.994	100.409	20.021	2.143	0.513
580.000	366.259	80.007	19.995	100.410	20.022	2.053	0.472
580.500	366.541	80.007	19.997	100.413	20.021	2.143	0.482
581.000	366.775	80.006	19.994	100.415	20.020	2.196	0.514
581.500	367.029	80.007	19.993	100.417	20.021	2.141	0.501
582.000	367.289	80.007	19.995	100.419	20.019	2.267	0.501
582.500	367.516	80.007	19.996	100.418	20.016	2.496	0.500
583.000	367.818	80.005	19.995	100.416	20.017	2.419	0.508
583.500	368.058	80.008	19.994	100.414	20.019	2.301	0.536
584.000	368.297	80.007	19.993	100.411	20.016	2.521	0.511
584.500	368.549	80.006	19.995	100.410	20.019	2.286	0.485
585.000	368.844	80.007	19.996	100.411	20.018	2.376	0.519
585.501	369.088	80.005	19.994	100.412	20.017	2.433	0.543
586.000	369.332	80.007	19.995	100.411	20.016	2.510	0.513
586.500	369.563	80.007	19.996	100.412	20.015	2.573	0.481
587.000	369.809	80.007	19.995	100.409	20.014	2.684	0.476
587.500	370.069	80.006	19.996	100.402	20.014	2.630	0.492
588.000	370.323	80.006	19.995	100.397	20.016	2.502	0.510
588.500	370.571	80.005	19.994	100.397	20.014	2.640	0.508
589.000	370.810	80.006	19.995	100.393	20.015	2.605	0.494
589.500	371.058	80.005	19.996	100.395	20.017	2.452	0.487
590.000	371.306	80.007	19.995	100.402	20.013	2.703	0.492
590.500	371.585	80.005	19.996	100.408	20.014	2.653	0.511
591.000	371.833	80.006	19.995	100.409	20.012	2.810	0.527
591.500	372.099	80.006	19.996	100.413	20.010	2.899	0.521
592.000	372.358	80.006	19.995	100.410	20.015	2.565	0.520
592.500	372.607	80.005	19.996	100.406	20.013	2.704	0.516
593.000	372.888	80.005	19.996	100.400	20.010	2.912	0.519
593.500	373.126	80.006	19.995	100.393	20.010	2.914	0.525
594.000	373.378	80.004	19.996	100.386	20.011	2.891	0.504
594.500	373.643	80.005	19.996	100.388	20.012	2.762	0.504
595.000	373.889	80.006	19.996	100.390	20.012	2.806	0.515
595.500	374.164	80.005	19.995	100.397	20.012	2.773	0.516
596.000	374.374	80.007	19.997	100.404	20.011	2.827	0.503
596.500	374.660	80.006	19.995	100.411	20.014	2.647	0.491
597.000	374.918	80.006	19.995	100.414	20.009	2.987	0.520
597.500	375.139	80.008	19.998	100.415	20.010	2.915	0.511
598.000	375.423	80.007	19.996	100.416	20.012	2.767	0.492
598.500	375.630	80.008	19.997	100.416	20.011	2.836	0.498
599.000	375.890	80.007	19.997	100.415	20.007	3.140	0.479
599.500	376.139	80.007	19.996	100.415	20.009	3.034	0.488
600.000	376.401	80.007	19.997	100.414	20.008	3.053	0.510
600.500	376.687	80.008	19.996	100.413	20.010	2.933	0.530
601.000	376.945	80.007	19.998	100.411	20.010	2.939	0.546
601.500	377.188	80.006	19.997	100.410	20.010	2.935	0.522
602.000	377.462	80.008	19.996	100.406	20.004	3.318	0.509
602.500	377.692	80.007	19.995	100.403	20.006	3.203	0.511
603.000	377.968	80.007	19.996	100.399	20.006	3.211	0.505
603.500	378.199	80.007	19.996	100.394	20.007	3.113	0.506
604.000	378.454	80.008	19.997	100.390	20.004	3.348	0.496
604.500	378.694	80.007	19.996	100.392	20.006	3.210	0.491
605.000	378.935	80.008	19.997	100.395	20.008	3.103	0.488
605.500	379.191	80.007	19.996	100.400	20.004	3.331	0.489
606.000	379.477	80.009	19.996	100.406	20.006	3.220	0.520
606.500	379.705	80.008	19.994	100.412	20.002	3.495	0.528
607.000	379.950	80.008	19.996	100.413	20.006	3.239	0.493
607.500	380.237	80.007	19.998	100.412	20.002	3.501	0.503
608.000	380.432	80.008	19.996	100.412	20.001	3.551	0.507
608.500	380.719	80.008	19.994	100.409	20.002	3.507	0.482
609.000	380.964	80.007	19.995	100.402	20.001	3.561	0.507
609.500	381.239	80.008	19.996	100.396	20.002	3.521	0.526
610.000	381.465	80.007	19.993	100.392	20.000	3.631	0.510
610.500	381.727	80.005	19.996	100.385	20.001	3.595	0.495
611.000	381.960	80.007	19.995	100.381	19.999	3.684	0.492
611.500	382.222	80.007	19.995	100.387	20.000	3.642	0.495
612.000	382.516	80.006	19.995	100.391	19.998	3.761	0.525
612.500	382.714	80.006	19.996	100.395	19.995	3.958	0.523
613.000	382.981	80.006	19.996	100.402	19.996	3.887	0.478
613.500	383.230	80.006	19.995	100.405	19.995	3.981	0.491
614.000	383.467	80.006	19.995	100.400	19.998	3.805	0.501
614.500	383.737	80.006	19.996	100.399	19.993	4.155	0.496
615.000	383.999	80.005	19.997	100.394	19.995	3.994	0.520
615.500	384.253	80.005	19.996	100.390	19.995	4.002	0.524
616.000	384.496	80.005	19.995	100.386	19.994	4.025	0.506
616.500	384.777	80.005	19.996	100.385	19.995	4.011	0.510
617.000	385.014	80.004	19.995	100.383	19.997	3.833	0.521
617.500	385.261	80.004	19.995	100.383	19.995	4.009	0.501
618.000	385.524	80.004	19.996	100.384	19.992	4.196	0.497
618.500	385.773	80.004	19.996	100.391	19.990	4.336	0.511
619.000	386.032	80.004	19.994	100.399	19.990	4.328	0.510
619.500	386.283	80.005	19.995	100.404	19.990	4.313	0.509
620.000	386.536	80.003	19.999	100.410	19.988	4.475	0.507
620.500	386.767	80.003	19.997	100.408	19.988	4.449	0.494
621.000	387.052	80.003	19.995	100.402	19.990	4.322	0.500
621.500	387.285	80.005	19.997	100.396	19.986	4.620	0.517
622.000	387.576	80.003	19.995	100.392	19.987	4.523	0.521
622.500	387.831	80.004	19.996	100.389	19.982	4.897	0.535
623.000	388.052	80.004	19.995	100.394	19.983	4.811	0.510
623.500	388.310	80.005	19.995	100.399	19.980	5.023	0.477
624.000	388.574	80.004	19.994	100.399	19.982	4.869	0.501
624.500	388.829	80.004	19.997	100.400	19.983	4.860	0.520
625.000	389.117	80.003	19.995	100.401	19.978	5.213	0.531
625.500	389.348	80.004	19.997	100.399	19.978	5.175	0.531
626.000	389.586	80.004	19.997	100.396	19.977	5.229	0.494
626.500	389.843	80.005	19.997	100.396	19.976	5.306	0.482
627.000	390.100	80.003	19.995	100.395	19.978	5.177	0.505
627.500	390.370	80.005	19.995	100.393	19.976	5.304	0.521
628.000	390.604	80.003	19.997	100.390	19.973	5.512	0.515
628.500	390.886	80.004	19.997	100.387	19.974	5.495	0.511
629.000	391.105	80.003	19.995	100.385	19.975	5.409	0.509
629.500	391.388	80.004	19.996	100.387	19.972	5.602	0.501
630.000	391.626	80.004	19.996	100.386	19.973	5.535	0.511
630.500	391.881	80.005	19.997	100.388	19.971	5.685	0.507
631.000	392.131	80.004	19.996	100.387	19.966	6.008	0.499
631.500	392.389	80.004	19.996	100.387	19.966	6.046	0.506
632.000	392.638	80.005	19.997	100.383	19.968	5.916	0.507
632.500	392.905	80.004	19.998	100.382	19.968	5.866	0.511
633.000	393.152	80.002	19.998	100.379	19.965	6.069	0.515
633.500	393.395	80.004	19.997	100.379	19.967	5.971	0.502
634.000	393.660	80.005	19.996	100.380	19.962	6.285	0.499
634.500	393.920	80.004	19.997	100.380	19.961	6.361	0.517
635.000	394.211	80.004	19.997	100.384	19.959	6.548	0.537
635.500	394.437	80.004	19.998	100.391	19.958	6.556	0.534
636.000	394.703	80.004	19.996	100.397	19.957	6.688	0.505
636.500	394.964	80.004	19.996	100.399	19.956	6.760	0.510
637.000	395.203	80.005	19.997	100.401	19.954	6.873	0.514
637.500	395.484	80.005	19.996	100.403	19.952	6.978	0.510
638.000	395.721	80.006	19.995	100.403	19.952	7.003	0.519
638.500	395.955	80.003	19.996	100.404	19.953	6.944	0.495
639.000	396.231	80.005	19.996	100.410	19.950	7.183	0.491
639.500	396.488	80.004	19.995	100.416	19.948	7.299	0.522
640.000	396.743	80.004	19.995	100.414	19.948	7.322	0.522
640.500	396.989	80.004	19.994	100.409	19.944	7.551	0.507
641.000	397.245	80.005	19.997	100.403	19.942	7.746	0.501
641.500	397.490	80.005	19.996	100.395	19.939	7.899	0.501
642.000	397.740	80.005	19.995	100.388	19.938	7.979	0.498
642.500	398.007	80.004	19.994	100.382	19.937	8.056	0.506
643.000	398.272	80.004	19.998	100.382	19.935	8.228	0.524
643.500	398.517	80.004	19.996	100.383	19.933	8.327	0.521
644.000	398.798	80.005	19.996	100.383	19.928	8.682	0.518
644.500	399.016	80.003	19.996	100.383	19.927	8.782	0.513
645.000	399.277	80.005	19.995	100.383	19.924	8.956	0.489
645.500	399.524	80.004	19.996	100.382	19.922	9.118	0.494
646.000	399.802	80.004	19.994	100.381	19.921	9.214	0.516
646.500	400.048	80.003	19.995	100.381	19.921	9.206	0.524
647.000	400.326	80.004	19.996	100.380	19.917	9.445	0.524
647.500	400.526	80.003	19.995	100.380	19.914	9.682	0.501
648.000	400.806	80.003	19.993	100.379	19.913	9.765	0.479
648.500	401.061	80.004	19.994	100.380	19.911	9.923	0.507
649.000	401.305	80.004	19.994	100.380	19.904	10.395	0.516
649.500	401.571	80.005	19.996	100.380	19.904	10.399	0.504
650.000	401.798	80.004	19.995	100.380	19.906	10.261	0.502
650.500	402.078	80.004	19.995	100.380	19.903	10.494	0.500
651.000	402.331	80.004	19.994	100.379	19.898	10.825	0.520
651.500	402.590	80.004	19.994	100.378	19.898	10.783	0.523
652.000	402.823	80.004	19.995	100.378	19.897	10.860	0.502
652.500	403.114	80.003	19.995	100.378	19.895	11.035	0.508
653.000	403.335	80.006	19.996	100.377	19.893	11.188	0.518
653.500	403.593	80.004	19.995	100.377	19.893	11.173	0.496
654.000	403.864	80.007	19.994	100.377	19.885	11.746	0.504
654.500	404.093	80.005	19.993	100.378	19.884	11.818	0.515
655.000	404.348	80.005	19.997	100.378	19.884	11.803	0.492
655.500	404.589	80.005	19.994	100.378	19.879	12.158	0.490
656.000	404.832	80.006	19.994	100.378	19.880	12.101	0.490
656.500	405.082	80.005	19.995	100.378	19.881	11.995	0.489
657.000	405.327	80.005	19.996	100.379	19.878	12.240	0.494
657.500	405.564	80.007	19.995	100.379	19.875	12.400	0.489
658.000	405.842	80.005	19.996	100.383	19.875	12.414	0.498
658.500	406.056	80.005	19.996	100.385	19.870	12.760	0.503
659.000	406.339	80.005	19.995	100.386	19.873	12.597	0.495
659.500	406.587	80.008	19.996	100.385	19.869	12.860	0.514
660.000	406.815	80.006	19.996	100.385	19.868	12.892	0.503
660.500	407.110	80.006	19.996	100.383	19.865	13.135	0.499
661.000	407.338	80.006	19.996	100.383	19.867	13.024	0.523
661.500	407.556	80.008	19.996	100.384	19.862	13.347	0.485
662.000	407.783	80.007	19.996	100.386	19.860	13.468	0.446
662.500	408.078	80.007	19.998	100.386	19.857	13.717	0.483
663.000	408.310	80.006	19.995	100.387	19.857	13.688	0.524
663.500	408.572	80.007	19.997	100.386	19.854	13.873	0.510
664.000	408.840	80.006	19.997	100.385	19.852	14.032	0.512
664.500	409.071	80.007	19.995	100.383	19.850	14.219	0.515
665.000	409.309	80.005	19.996	100.385	19.851	14.124	0.484
665.500	409.568	80.006	19.994	100.381	19.846	14.477	0.483
666.000	409.792	80.006	19.995	100.379	19.845	14.509	0.491
666.500	410.093	80.007	19.994	100.378	19.845	14.515	0.504
667.000	410.341	80.007	19.995	100.378	19.840	14.906	0.536
667.500	410.583	80.005	19.995	100.376	19.834	15.335	0.519
668.000	410.823	80.007	19.997	100.376	19.835	15.266	0.486
668.500	411.066	80.006	19.995	100.376	19.829	15.668	0.483
669.000	411.312	80.006	19.995	100.376	19.830	15.566	0.486
669.500	411.518	80.006	19.996	100.375	19.828	15.747	0.470
670.000	411.821	80.005	19.995	100.374	19.826	15.863	0.480
670.500	412.071	80.006	19.996	100.372	19.823	16.112	0.531
671.000	412.326	80.008	19.996	100.369	19.819	16.377	0.529
671.500	412.555	80.006	19.996	100.368	19.816	16.614	0.494
672.000	412.792	80.005	19.995	100.369	19.816	16.548	0.475
672.500	413.032	80.006	19.994	100.369	19.812	16.861	0.471
673.000	413.324	80.007	19.994	100.371	19.811	16.966	0.504
673.500	413.563	80.006	19.995	100.373	19.808	17.128	0.531
674.000	413.785	80.006	19.995	100.373	19.806	17.301	0.497
674.500	414.068	80.005	19.995	100.373	19.804	17.432	0.484
675.000	414.293	80.006	19.996	100.374	19.798	17.830	0.507
675.500	414.542	80.007	19.995	100.375	19.797	17.938	0.491
676.000	414.782	80.006	19.995	100.374	19.794	18.159	0.482
676.500	415.015	80.006	19.996	100.371	19.795	18.077	0.481
677.000	415.282	80.006	19.995	100.370	19.791	18.345	0.486
677.500	415.511	80.006	19.996	100.370	19.787	18.594	0.498
678.000	415.764	80.006	19.994	100.370	19.787	18.623	0.489
678.500	416.012	80.006	19.996	100.372	19.782	18.988	0.492
679.000	416.270	80.006	19.997	100.375	19.777	19.308	0.504
679.500	416.499	80.006	19.993	100.376	19.772	19.681	0.497
680.000	416.767	80.007	19.997	100.374	19.768	19.966	0.492
680.500	417.002	80.006	19.994	100.372	19.766	20.124	0.500
681.000	417.248	80.007	19.992	100.369	19.761	20.476	0.492
681.500	417.483	80.006	19.993	100.369	19.763	20.335	0.481
682.000	417.711	80.009	19.995	100.368	19.754	20.935	0.472
682.500	417.965	80.007	19.995	100.370	19.752	21.109	0.473
683.000	418.240	80.008	19.996	100.371	19.749	21.315	0.506
683.500	418.481	80.008	19.996	100.372	19.742	21.757	0.522
684.000	418.735	80.005	19.997	100.369	19.741	21.838	0.506
684.500	418.970	80.006	19.995	100.368	19.736	22.226	0.493
685.000	419.235	80.008	19.994	100.362	19.733	22.449	0.495
685.500	419.469	80.008	19.996	100.358	19.726	22.905	0.500
686.000	419.727	80.008	19.995	100.359	19.719	23.434	0.495
686.500	419.972	80.006	19.995	100.357	19.717	23.575	0.497
687.000	420.210	80.007	19.996	100.352	19.712	23.858	0.493
687.500	420.508	80.007	19.995	100.355	19.709	24.092	0.509
688.000	420.729	80.007	19.995	100.355	19.702	24.590	0.527
688.500	420.980	80.007	19.996	100.351	19.698	24.855	0.496
689.000	421.246	80.007	19.996	100.353	19.693	25.246	0.495
689.500	421.470	80.007	19.995	100.355	19.687	25.669	0.503
690.000	421.707	80.007	19.994	100.357	19.680	26.145	0.475
690.500	421.931	80.009	19.995	100.360	19.678	26.261	0.461
691.000	422.234	80.007	19.995	100.360	19.671	26.779	0.494
691.500	422.494	80.009	19.995	100.360	19.663	27.333	0.545
692.000	422.728	80.006	19.995	100.364	19.660	27.585	0.528
692.500	422.994	80.007	19.994	100.363	19.656	27.831	0.497
693.000	423.220	80.007	19.996	100.365	19.650	28.274	0.496
693.500	423.506	80.006	19.996	100.366	19.643	28.741	0.502
694.000	423.737	80.006	19.995	100.365	19.641	28.909	0.515
694.500	423.980	80.005	19.996	100.358	19.636	29.218	0.496
695.000	424.217	80.005	19.996	100.353	19.627	29.865	0.477
695.500	424.477	80.006	19.997	100.346	19.623	30.137	0.488
696.000	424.734	80.006	19.996	100.342	19.618	30.483	0.507
696.500	424.966	80.004	19.996	100.340	19.613	30.889	0.503
697.000	425.240	80.004	19.997	100.340	19.607	31.269	0.497
697.500	425.470	80.006	19.998	100.340	19.602	31.646	0.505
698.000	425.721	80.004	19.997	100.341	19.598	31.896	0.493
698.500	425.964	80.004	19.998	100.346	19.590	32.492	0.488
699.000	426.255	80.004	19.996	100.351	19.581	33.116	0.514
699.500	426.442	80.005	19.997	100.355	19.579	33.233	0.506
700.000	426.720	80.004	19.996	100.361	19.571	33.825	0.472
700.500	426.944	80.005	19.996	100.365	19.567	34.096	0.483
701.000	427.193	80.003	19.995	100.366	19.556	34.853	0.488
701.500	427.475	80.003	19.995	100.363	19.551	35.246	0.502
702.000	427.712	80.004	19.995	100.362	19.543	35.760	0.525
702.500	427.987	80.004	19.996	100.358	19.538	36.131	0.516
703.000	428.204	80.005	19.995	100.357	19.530	36.722	0.502
703.500	428.454	80.004	19.997	100.354	19.521	37.350	0.479
704.000	428.727	80.005	19.996	100.354	19.512	37.971	0.495
704.500	428.954	80.004	19.993	100.351	19.508	38.232	0.512
705.000	429.185	80.005	19.996	100.350	19.498	38.952	0.479
705.500	429.484	80.004	19.995	100.348	19.490	39.533	0.494
706.000	429.717	80.005	19.996	100.348	19.480	40.196	0.530
706.500	429.989	80.005	19.996	100.349	19.474	40.633	0.518
707.000	430.214	80.004	19.995	100.348	19.467	41.114	0.501
707.500	430.484	80.005	19.996	100.347	19.457	41.798	0.496
708.000	430.738	80.004	19.995	100.346	19.450	42.307	0.509
708.500	430.991	80.005	19.996	100.343	19.441	42.932	0.516
709.000	431.201	80.005	19.997	100.341	19.434	43.420	0.486
709.500	431.483	80.004	19.996	100.341	19.427	43.927	0.478
710.000	431.720	80.005	19.996	100.341	19.417	44.626	0.506
710.500	431.949	80.006	19.996	100.341	19.407	45.375	0.492
711.000	432.231	80.005	19.996	100.341	19.394	46.264	0.488
711.500	432.498	80.003	19.996	100.342	19.386	46.805	0.530
712.000	432.754	80.004	19.995	100.342	19.377	47.455	0.537
712.500	433.026	80.005	19.998	100.342	19.362	48.490	0.526
713.000	433.259	80.004	19.994	100.342	19.353	49.156	0.516
713.500	433.528	80.005	19.996	100.342	19.343	49.856	0.503
714.000	433.779	80.005	19.995	100.341	19.331	50.665	0.511
714.500	434.032	80.006	19.995	100.340	19.316	51.745	0.512
715.000	434.293	80.005	19.996	100.339	19.308	52.288	0.509
715.500	434.506	80.003	19.996	100.339	19.295	53.247	0.494
716.000	434.802	80.004	19.996	100.338	19.284	53.970	0.492
716.500	435.060	80.004	19.998	100.339	19.275	54.636	0.531
717.000	435.310	80.005	19.995	100.338	19.259	55.781	0.531
717.500	435.552	80.005	19.997	100.338	19.245	56.741	0.500
718.000	435.791	80.006	19.999	100.339	19.231	57.723	0.486
718.500	436.042	80.004	19.997	100.339	19.214	58.894	0.485
719.000	436.304	80.005	19.999	100.337	19.202	59.783	0.502
719.500	436.587	80.005	19.997	100.337	19.187	60.795	0.529
720.000	436.836	80.005	19.997	100.338	19.174	61.724	0.539
720.500	437.099	80.006	19.997	100.337	19.162	62.563	0.522
721.000	437.338	80.004	19.996	100.337	19.148	63.513	0.507
721.500	437.563	80.004	19.998	100.336	19.137	64.345	0.483
722.000	437.851	80.005	19.997	100.334	19.122	65.349	0.488
722.500	438.065	80.004	19.997	100.332	19.110	66.185	0.508
723.000	438.368	80.006	19.998	100.329	19.091	67.576	0.510
723.500	438.602	80.005	19.998	100.325	19.076	68.624	0.526
724.000	438.875	80.004	19.996	100.321	19.064	69.479	0.522
724.500	439.105	80.005	19.996	100.318	19.045	70.766	0.505
725.000	439.358	80.005	19.996	100.313	19.030	71.815	0.493
725.500	439.643	80.003	19.996	100.312	19.016	72.823	0.510
726.000	439.886	80.005	19.996	100.313	18.999	74.047	0.533
726.500	440.077	80.005	19.997	100.314	18.983	75.121	0.481
727.000	440.371	80.005	19.997	100.312	18.965	76.412	0.460
727.500	440.590	80.005	19.998	100.316	18.951	77.409	0.499
728.000	440.833	80.004	19.996	100.317	18.933	78.617	0.487
728.500	441.095	80.004	19.997	100.316	18.916	79.857	0.483
729.000	441.352	80.004	19.993	100.315	18.902	80.798	0.512
729.500	441.611	80.004	19.996	100.315	18.884	82.049	0.518
730.000	441.837	80.005	19.997	100.311	18.864	83.506	0.501
730.500	442.085	80.004	19.996	100.307	18.846	84.730	0.479
731.000	442.321	80.004	19.995	100.303	18.826	86.139	0.479
731.500	442.593	80.005	19.995	100.300	18.806	87.527	0.496
732.001	442.844	80.003	19.996	100.294	18.784	89.086	0.516
732.500	443.071	80.005	19.995	100.292	18.765	90.405	0.501
733.000	443.339	80.004	19.996	100.289	18.745	91.821	0.487
733.500	443.587	80.004	19.995	100.289	18.726	93.198	0.506
734.000	443.836	80.004	19.995	100.291	18.705	94.662	0.506
734.500	444.097	80.006	19.996	100.295	18.679	96.501	0.503
735.000	444.346	80.005	19.995	100.296	18.658	97.928	0.509
735.500	444.616	80.004	19.996	100.299	18.640	99.219	0.514
736.000	444.906	80.004	19.994	100.300	18.617	100.824	0.540
736.500	445.169	80.005	19.996	100.300	18.596	102.319	0.557
737.001	445.353	80.005	19.996	100.300	18.576	103.685	0.500
737.500	445.614	80.006	19.997	100.297	18.556	105.149	0.446
738.000	445.888	80.006	19.994	100.292	18.535	106.619	0.490
738.500	446.110	80.006	19.995	100.286	18.511	108.277	0.515
739.000	446.355	80.006	19.995	100.278	18.489	109.834	0.482
739.500	446.597	80.004	19.995	100.270	18.465	111.501	0.477
740.000	446.867	80.006	19.995	100.265	18.438	113.370	0.500
740.500	447.121	80.008	19.995	100.262	18.414	115.063	0.518
741.000	447.362	80.007	19.996	100.260	18.394	116.491	0.509
741.500	447.589	80.007	19.996	100.259	18.369	118.244	0.481
742.000	447.851	80.006	19.995	100.259	18.345	119.961	0.478
742.500	448.116	80.007	19.996	100.258	18.325	121.356	0.508
743.000	448.356	80.008	19.996	100.257	18.297	123.318	0.516
743.500	448.623	80.007	19.996	100.255	18.274	124.898	0.506
744.000	448.899	80.007	19.995	100.255	18.246	126.851	0.525
744.501	449.127	80.007	19.996	100.254	18.223	128.448	0.523
745.001	449.394	80.007	19.996	100.250	18.194	130.474	0.499
745.500	449.609	80.006	19.996	100.250	18.169	132.245	0.488
746.000	449.875	80.007	19.996	100.251	18.140	134.267	0.482
746.500	450.084	80.006	19.998	100.250	18.113	136.196	0.478
747.000	450.374	80.006	19.996	100.251	18.084	138.237	0.487
747.500	450.642	80.006	19.997	100.254	18.054	140.343	0.529
748.000	450.862	80.007	19.995	100.251	18.026	142.285	0.523
748.500	451.106	80.006	19.995	100.246	17.997	144.332	0.476
749.000	451.370	80.007	19.994	100.240	17.969	146.244	0.486
749.500	451.625	80.006	19.996	100.232	17.940	148.273	0.514
750.000	451.869	80.005	19.995	100.226	17.909	150.458	0.509
750.500	452.158	80.007	19.996	100.222	17.876	152.795	0.516
751.000	452.386	80.007	19.995	100.221	17.842	155.135	0.525
751.500	452.636	80.005	19.996	100.223	17.811	157.317	0.497
752.000	452.894	80.005	19.996	100.226	17.774	159.886	0.493
752.500	453.126	80.005	19.997	100.227	17.741	162.183	0.499
753.000	453.362	80.004	19.995	100.227	17.708	164.505	0.479
753.500	453.642	80.004	19.995	100.226	17.676	166.765	0.492
754.000	453.876	80.005	19.995	100.220	17.642	169.157	0.515
754.500	454.124	80.005	19.995	100.210	17.606	171.622	0.498
755.000	454.388	80.006	19.995	100.204	17.572	174.037	0.497
755.500	454.617	80.006	19.995	100.198	17.541	176.201	0.503
756.000	454.868	80.004	19.995	100.194	17.503	178.829	0.487
756.500	455.119	80.006	19.995	100.191	17.468	181.251	0.491
757.000	455.353	80.005	19.995	100.189	17.429	184.022	0.493
757.500	455.664	80.004	19.995	100.188	17.390	186.717	0.515
758.000	455.904	80.005	19.995	100.187	17.352	189.420	0.548
758.500	456.134	80.005	19.997	100.184	17.313	192.124	0.511
759.000	456.392	80.005	19.996	100.177	17.273	194.873	0.479
759.500	456.625	80.006	19.997	100.172	17.234	197.605	0.489
760.000	456.887	80.006	19.997	100.165	17.192	200.550	0.493
760.500	457.129	80.006	19.996	100.155	17.151	203.409	0.500
761.000	457.363	80.007	19.997	100.150	17.110	206.291	0.490
761.500	457.601	80.006	19.995	100.147	17.066	209.397	0.474
762.000	457.849	80.007	19.994	100.135	17.028	212.102	0.479
762.500	458.143	80.006	19.995	100.131	16.983	215.263	0.514
763.000	458.379	80.006	19.995	100.132	16.941	218.169	0.536
763.500	458.608	80.008	19.995	100.118	16.896	221.293	0.497
764.000	458.871	80.007	19.997	100.125	16.857	224.014	0.479
764.500	459.144	80.007	19.995	100.121	16.811	227.229	0.514
765.000	459.372	80.007	19.997	100.123	16.767	230.287	0.519
765.500	459.641	80.006	19.993	100.106	16.723	233.383	0.499
766.000	459.846	80.008	19.995	100.115	16.676	236.641	0.486
766.500	460.126	80.008	19.995	100.086	16.632	239.772	0.479
767.000	460.375	80.008	19.995	100.093	16.588	242.806	0.507
767.500	460.601	80.007	19.995	100.071	16.540	246.147	0.502
768.000	460.863	80.007	19.996	100.070	16.495	249.286	0.482
768.500	461.110	80.008	19.995	100.060	16.447	252.657	0.498
769.000	461.392	80.008	19.994	100.059	16.397	256.099	0.519
769.500	461.634	80.007	19.994	100.042	16.348	259.487	0.526
770.000	461.912	80.006	19.994	100.047	16.302	262.712	0.522
770.500	462.144	80.008	19.995	100.044	16.250	266.317	0.515
771.000	462.411	80.007	19.995	100.029	16.200	269.834	0.505
771.500	462.618	80.007	19.995	100.032	16.150	273.297	0.487
772.000	462.884	80.007	19.994	100.040	16.103	276.612	0.473
772.500	463.139	80.009	19.994	100.039	16.051	280.166	0.497
773.000	463.374	80.008	19.994	100.039	15.998	283.824	0.505
773.500	463.639	80.007	19.994	100.041	15.943	287.736	0.495
774.000	463.874	80.007	19.991	100.034	15.891	291.304	0.500
774.500	464.136	80.007	19.994	100.022	15.839	294.929	0.498
775.000	464.358	80.007	19.995	100.012	15.786	298.635	0.491
775.500	464.623	80.008	19.995	100.003	15.730	302.578	0.486
776.000	464.854	80.006	19.994	99.998	15.677	306.254	0.492
776.500	465.098	80.006	19.995	99.997	15.621	310.150	0.486
777.000	465.335	80.005	19.995	99.995	15.565	314.045	0.478
777.500	465.594	80.005	19.997	99.994	15.510	317.867	0.488
778.000	465.805	80.006	19.995	99.993	15.452	321.869	0.483
778.500	466.053	80.004	19.995	99.988	15.399	325.575	0.464
779.000	466.357	80.005	19.997	99.978	15.345	329.348	0.506
779.500	466.580	80.005	19.996	99.963	15.289	333.252	0.540
780.000	466.858	80.006	19.997	99.945	15.232	337.164	0.514
780.500	467.085	80.005	19.997	99.935	15.173	341.292	0.503
781.000	467.357	80.005	19.997	99.931	15.119	345.006	0.502
781.500	467.579	80.004	19.995	99.922	15.063	348.918	0.496
782.000	467.842	80.005	19.997	99.910	15.005	352.897	0.490
782.500	468.107	80.005	19.996	99.911	14.947	356.931	0.506
783.000	468.339	80.004	19.996	99.903	14.894	360.556	0.512
783.500	468.563	80.004	19.996	99.881	14.831	364.904	0.477
784.000	468.790	80.005	19.996	99.874	14.773	368.970	0.454
784.500	469.080	80.005	19.994	99.880	14.722	372.502	0.484
785.000	469.324	80.005	19.997	99.862	14.670	376.065	0.525
785.500	469.593	80.004	19.996	99.860	14.612	380.149	0.524
786.000	469.842	80.004	19.996	99.857	14.555	384.080	0.515
786.500	470.108	80.004	19.997	99.853	14.500	387.925	0.517
787.000	470.346	80.005	19.995	99.844	14.441	392.249	0.510
787.500	470.583	80.004	19.997	99.839	14.384	396.325	0.489
788.000	470.848	80.004	19.997	99.827	14.330	400.068	0.489
788.500	471.092	80.005	19.997	99.827	14.275	403.937	0.506
789.000	471.339	80.005	19.996	99.817	14.216	407.917	0.500
789.500	471.572	80.005	19.995	99.810	14.159	411.658	0.486
790.000	471.832	80.004	19.997	99.804	14.104	415.390	0.486
790.500	472.077	80.005	19.995	99.799	14.046	419.333	0.498
791.000	472.333	80.005	19.996	99.782	13.986	423.475	0.503
791.500	472.548	80.005	19.997	99.775	13.931	427.275	0.486
792.000	472.835	80.007	19.997	99.767	13.876	431.047	0.486
792.500	473.074	80.005	19.995	99.756	13.816	435.165	0.514
793.000	473.337	80.006	19.997	99.744	13.760	439.005	0.514
793.500	473.600	80.006	19.996	99.738	13.705	442.833	0.514
794.000	473.895	80.006	19.997	99.714	13.647	446.767	0.542
794.500	474.103	80.006	19.996	99.701	13.589	450.812	0.531
795.000	474.354	80.007	19.997	99.698	13.531	454.829	0.481
795.500	474.632	80.006	19.995	99.680	13.477	458.509	0.494
796.000	474.853	80.005	19.996	99.667	13.422	462.360	0.514
796.500	475.146	80.006	19.995	99.671	13.367	466.142	0.507
797.000	475.390	80.006	19.995	99.661	13.314	469.785	0.525
797.501	475.656	80.006	19.996	99.660	13.258	473.622	0.524
798.000	475.896	80.006	19.996	99.710	13.209	476.990	0.508
798.500	476.142	80.006	19.995	99.735	13.154	480.744	0.496
799.000	476.389	80.006	19.996	99.734	13.105	484.146	0.490
799.500	476.657	80.005	19.996	99.729	13.052	487.810	0.504
800.000	476.896	80.005	19.996	99.708	13.009	490.798	0.511
800.500	477.134	80.006	19.997	99.642	12.957	494.428	0.491
801.000	477.361	80.006	19.996	99.607	12.909	497.791	0.471
801.500	477.620	80.006	19.995	99.587	12.862	501.056	0.476
802.000	477.889	80.005	19.996	99.574	12.821	503.873	0.507
802.500	478.118	80.005	19.996	99.565	12.774	507.091	0.513
803.000	478.360	80.007	19.996	99.556	12.732	509.978	0.485
803.500	478.613	80.005	19.995	99.542	12.688	512.955	0.483
804.000	478.936	80.004	19.997	99.528	12.652	515.500	0.535
804.500	479.148	80.004	19.998	99.513	12.614	518.094	0.556
805.000	479.461	80.004	19.996	99.500	12.575	520.708	0.530
805.500	479.695	80.004	19.995	99.487	12.541	523.054	0.536
806.000	479.924	80.004	19.996	99.480	12.509	525.142	0.505
806.500	480.207	80.005	19.997	99.474	12.478	527.264	0.487
807.000	480.448	80.006	19.996	99.467	12.446	529.391	0.518
807.500	480.704	80.005	19.997	99.459	12.418	531.306	0.510
808.000	480.964	80.004	19.997	99.450	12.394	532.909	0.507
808.500	481.207	80.005	19.997	99.436	12.367	534.741	0.510
809.000	481.478	80.005	19.996	99.422	12.341	536.509	0.508
809.500	481.739	80.005	19.996	99.413	12.319	538.062	0.523
810.000	481.992	80.005	19.995	99.404	12.299	539.422	0.523
810.500	482.220	80.005	19.996	99.398	12.281	540.659	0.498
811.000	482.506	80.004	19.996	99.397	12.263	541.944	0.498
811.500	482.745	80.005	19.998	99.401	12.244	543.211	0.519
812.000	483.014	80.005	19.996	99.405	12.233	543.969	0.516
812.500	483.272	80.004	19.995	99.400	12.221	544.847	0.518
813.000	483.493	80.005	19.996	99.393	12.208	545.746	0.503
813.500	483.778	80.004	19.998	99.385	12.204	546.042	0.493
814.000	484.034	80.004	19.996	99.373	12.202	546.230	0.523
814.500	484.274	80.005	19.997	99.362	12.200	546.425	0.519
815.000	484.550	80.005	19.997	99.359	12.204	546.150	0.506
815.500	484.806	80.004	19.996	99.352	12.212	545.615	0.524
816.000	485.044	80.004	19.996	99.339	12.217	545.235	0.513
816.500	485.309	80.004	19.994	99.324	12.231	544.318	0.498
817.000	485.561	80.005	19.997	99.308	12.248	543.140	0.510
817.500	485.848	80.004	19.996	99.292	12.271	541.564	0.528
818.000	486.069	80.005	19.997	99.278	12.293	540.126	0.523
818.500	486.341	80.005	19.997	99.267	12.323	538.037	0.500
819.000	486.590	80.005	19.996	99.259	12.353	535.941	0.507
819.500	486.858	80.004	19.996	99.249	12.389	533.258	0.519
820.001	487.095	80.004	19.996	99.242	12.426	530.647	0.511
820.500	487.375	80.005	19.997	99.241	12.469	527.614	0.511
821.000	487.643	80.005	19.996	99.242	12.512	524.676	0.533
821.500	487.893	80.005	19.997	99.241	12.561	521.402	0.533
822.000	488.132	80.006	19.997	99.240	12.613	518.080	0.503
822.500	488.434	80.005	19.996	99.236	12.670	514.220	0.515
823.000	488.686	80.006	19.996	99.236	12.728	510.271	0.548
823.500	488.926	80.006	19.997	99.236	12.787	506.246	0.524
824.000	489.221	80.005	19.996	99.238	12.849	501.969	0.514
824.500	489.481	80.007	19.996	99.246	12.918	497.190	0.545
825.000	489.747	80.006	19.995	99.252	12.989	492.416	0.540
825.500	489.995	80.006	19.996	99.257	13.059	487.587	0.520
826.000	490.230	80.006	19.995	99.260	13.138	482.196	0.499
826.500	490.500	80.006	19.996	99.262	13.219	476.665	0.494
827.000	490.736	80.007	19.995	99.263	13.309	470.430	0.505
827.500	491.026	80.006	19.994	99.265	13.394	464.554	0.516
828.000	491.261	80.006	19.996	99.269	13.484	458.369	0.526
828.500	491.508	80.007	19.996	99.279	13.575	452.015	0.503
829.000	491.786	80.007	19.996	99.289	13.670	445.436	0.503
829.500	492.039	80.007	19.995	99.298	13.767	438.739	0.528
830.000	492.297	80.008	19.995	99.294	13.871	431.575	0.521
830.500	492.560	80.006	19.996	99.260	13.972	424.549	0.516
831.000	492.840	80.007	19.995	99.246	14.076	417.350	0.532
831.500	493.101	80.007	19.994	99.249	14.188	409.543	0.542
832.000	493.363	80.006	19.995	99.253	14.296	401.982	0.532
832.500	493.635	80.006	19.995	99.275	14.411	393.733	0.528
833.000	493.910	80.005	19.994	99.332	14.525	385.355	0.540
833.500	494.150	80.006	19.995	99.360	14.649	376.361	0.531
834.000	494.432	80.006	19.995	99.376	14.770	367.673	0.519
834.500	494.732	80.006	19.995	99.392	14.897	358.770	0.552
835.000	494.941	80.005	19.996	99.403	15.023	350.165	0.545
835.500	495.235	80.006	19.995	99.414	15.152	341.545	0.506
836.000	495.505	80.005	19.996	99.438	15.286	332.553	0.534
836.500	495.736	80.005	19.994	99.456	15.415	323.902	0.533
837.000	496.022	80.007	19.995	99.475	15.542	315.230	0.509
837.500	496.252	80.005	19.995	99.498	15.676	305.984	0.517
838.000	496.542	80.006	19.996	99.512	15.810	296.761	0.518
838.500	496.786	80.006	19.995	99.521	15.944	287.447	0.527
839.000	497.078	80.007	19.995	99.538	16.078	278.138	0.535
839.500	497.329	80.007	19.995	99.549	16.212	268.820	0.540
840.000	497.633	80.006	19.996	99.561	16.344	259.572	0.549
840.500	497.857	80.006	19.996	99.574	16.476	250.398	0.541
841.001	498.158	80.006	19.995	99.586	16.609	241.124	0.526
841.500	498.439	80.005	19.996	99.596	16.739	231.988	0.553
842.000	498.677	80.005	19.995	99.611	16.869	222.893	0.551
842.500	498.947	80.005	19.995	99.621	16.996	214.089	0.514
843.000	499.200	80.006	19.995	99.616	17.121	205.358	0.516
843.500	499.462	80.007	19.995	99.552	17.244	196.786	0.519
844.000	499.728	80.007	19.996	99.451	17.364	188.501	0.522
844.500	500.010	80.006	19.996	99.361	17.486	179.994	0.538
845.000	500.274	80.007	19.995	99.296	17.601	172.025	0.547
845.500	500.545	80.007	19.995	99.273	17.712	164.246	0.540
846.000	500.816	80.007	19.995	99.328	17.824	156.390	0.538
846.500	501.066	80.008	19.995	99.431	17.933	148.793	0.531
847.000	501.292	80.007	19.995	99.538	18.041	141.208	0.498
847.500	501.591	80.008	19.995	99.631	18.140	134.244	0.500
848.000	501.888	80.008	19.995	99.697	18.237	127.446	0.560
848.500	502.141	80.008	19.995	99.750	18.335	120.584	0.573
849.000	502.387	80.008	19.995	99.788	18.425	114.271	0.525
849.500	502.625	80.008	19.994	99.811	18.519	107.671	0.491
850.000	502.915	80.008	19.995	99.827	18.605	101.653	0.506
850.500	503.137	80.007	19.995	99.846	18.687	95.913	0.520
851.000	503.413	80.009	19.995	99.863	18.765	90.408	0.505
851.500	503.698	80.008	19.995	99.882	18.844	84.896	0.530
852.000	503.942	80.007	19.995	99.893	18.917	79.725	0.545
852.500	504.207	80.008	19.995	99.891	18.988	74.751	0.519
853.000	504.492	80.006	19.996	99.902	19.054	70.124	0.529
853.500	504.718	80.008	19.994	99.921	19.117	65.700	0.530
854.001	504.984	80.008	19.994	99.946	19.179	61.371	0.501
854.500	505.269	80.008	19.995	99.985	19.235	57.375	0.521
855.000	505.518	80.009	19.994	100.036	19.294	53.277	0.543
855.500	505.792	80.008	19.995	100.074	19.344	49.733	0.529
856.000	506.032	80.007	19.995	100.102	19.395	46.167	0.518
856.500	506.292	80.007	19.995	100.122	19.444	42.703	0.507
857.000	506.557	80.008	19.995	100.139	19.486	39.791	0.512
857.500	506.806	80.007	19.994	100.155	19.530	36.670	0.520
858.000	507.057	80.006	19.995	100.167	19.567	34.082	0.507
858.500	507.277	80.007	19.994	100.179	19.604	31.446	0.486
859.000	507.559	80.006	19.994	100.190	19.638	29.075	0.486
859.500	507.836	80.006	19.995	100.203	19.673	26.643	0.530
860.000	508.062	80.006	19.995	100.217	19.703	24.506	0.531
860.500	508.328	80.006	19.995	100.231	19.728	22.740	0.498
861.000	508.595	80.005	19.995	100.238	19.758	20.633	0.513
861.500	508.816	80.004	19.994	100.243	19.783	18.898	0.511
862.000	509.069	80.005	19.995	100.242	19.805	17.305	0.481
862.500	509.315	80.006	19.995	100.240	19.824	16.013	0.486
863.000	509.610	80.004	19.995	100.240	19.842	14.703	0.520
863.500	509.879	80.006	19.996	100.244	19.861	13.393	0.553
864.000	510.104	80.006	19.996	100.249	19.876	12.374	0.530
864.500	510.356	80.006	19.996	100.255	19.893	11.128	0.486
865.000	510.639	80.005	19.995	100.259	19.904	10.392	0.506
865.501	510.894	80.006	19.995	100.259	19.917	9.465	0.536
866.000	511.148	80.006	19.995	100.263	19.929	8.616	0.523
866.500	511.356	80.005	19.994	100.263	19.939	7.897	0.486
867.000	511.640	80.005	19.995	100.266	19.947	7.376	0.477
867.500	511.853	80.004	19.995	100.267	19.956	6.702	0.494
868.000	512.118	80.004	19.995	100.271	19.962	6.319	0.487
868.500	512.409	80.004	19.995	100.271	19.970	5.767	0.517
869.000	512.629	80.004	19.995	100.277	19.975	5.381	0.534
869.500	512.873	80.005	19.994	100.278	19.980	5.022	0.488
870.000	513.142	80.005	19.995	100.284	19.983	4.818	0.488
870.500	513.398	80.006	19.995	100.281	19.987	4.513	0.519
871.000	513.648	80.004	19.995	100.279	19.994	4.085	0.516
871.500	513.901	80.004	19.995	100.272	19.997	3.844	0.505
872.000	514.169	80.005	19.995	100.268	20.001	3.546	0.512
872.500	514.446	80.004	19.995	100.263	20.006	3.237	0.533
873.000	514.690	80.004	19.995	100.262	20.009	3.012	0.533
873.500	514.941	80.005	19.996	100.262	20.010	2.914	0.508
874.000	515.204	80.006	19.996	100.263	20.014	2.664	0.505
874.500	515.445	80.004	19.995	100.266	20.014	2.615	0.509
875.000	515.748	80.005	19.995	100.271	20.015	2.557	0.524
875.500	515.979	80.004	19.996	100.278	20.019	2.300	0.538
876.000	516.257	80.005	19.996	100.284	20.021	2.154	0.521
876.500	516.518	80.005	19.996	100.291	20.023	1.994	0.524
877.000	516.756	80.005	19.995	100.298	20.026	1.816	0.520
877.500	517.025	80.005	19.996	100.302	20.028	1.635	0.503
878.000	517.267	80.007	19.996	100.305	20.029	1.606	0.509
878.500	517.506	80.005	19.995	100.309	20.029	1.591	0.496
879.000	517.800	80.005	19.996	100.315	20.031	1.423	0.507
879.500	518.018	80.005	19.996	100.316	20.032	1.375	0.522
880.000	518.299	80.006	19.996	100.318	20.028	1.635	0.506
880.500	518.563	80.005	19.997	100.323	20.033	1.295	0.522
881.000	518.783	80.004	19.995	100.325	20.034	1.268	0.514
881.500	519.044	80.004	19.996	100.325	20.033	1.327	0.482
882.000	519.308	80.005	19.996	100.326	20.035	1.146	0.503
882.500	519.521	80.005	19.996	100.327	20.035	1.167	0.501
883.000	519.803	80.004	19.997	100.326	20.037	1.014	0.486
883.500	520.043	80.004	19.995	100.325	20.036	1.104	0.509
884.000	520.294	80.004	19.996	100.324	20.037	1.039	0.506
884.500	520.575	80.005	19.995	100.327	20.037	0.999	0.511
885.000	520.872	80.005	19.995	100.329	20.040	0.804	0.555
885.500	521.095	80.004	19.997	100.331	20.039	0.881	0.550
886.000	521.362	80.004	19.996	100.334	20.040	0.852	0.505
886.500	521.589	80.004	19.996	100.337	20.038	0.974	0.492
887.000	521.894	80.005	19.996	100.338	20.039	0.913	0.513
887.500	522.104	80.005	19.996	100.339	20.037	0.995	0.524
888.000	522.378	80.005	19.996	100.340	20.040	0.795	0.499
888.500	522.600	80.005	19.996	100.341	20.038	0.978	0.490
889.000	522.884	80.005	19.996	100.343	20.038	0.970	0.501
889.500	523.126	80.005	19.997	100.344	20.041	0.741	0.516
890.000	523.398	80.005	19.997	100.344	20.038	0.930	0.520
890.500	523.649	80.005	19.996	100.343	20.039	0.913	0.519
891.000	523.901	80.005	19.995	100.343	20.041	0.753	0.513
891.500	524.166	80.005	19.996	100.340	20.041	0.716	0.510
892.000	524.394	80.005	19.996	100.339	20.040	0.783	0.505
892.500	524.654	80.005	19.996	100.340	20.042	0.680	0.490
893.000	524.916	80.004	19.996	100.344	20.039	0.882	0.505
893.500	525.178	80.005	19.996	100.346	20.041	0.735	0.523
894.000	525.409	80.004	19.996	100.349	20.040	0.842	0.508
894.500	525.689	80.003	19.996	100.354	20.042	0.699	0.502
895.000	525.968	80.004	19.997	100.354	20.041	0.779	0.535
895.500	526.171	80.004	19.996	100.353	20.044	0.535	0.521
896.000	526.418	80.005	19.996	100.353	20.044	0.510	0.466
896.500	526.705	80.005	19.996	100.352	20.043	0.577	0.492
897.000	526.955	80.004	19.997	100.349	20.045	0.497	0.536
897.500	527.236	80.004	19.997	100.348	20.042	0.705	0.534
898.000	527.429	80.004	19.997	100.346	20.045	0.455	0.503
898.500	527.695	80.005	19.996	100.347	20.045	0.479	0.466
899.000	527.947	80.004	19.997	100.347	20.043	0.619	0.488
899.500	528.221	80.005	19.996	100.349	20.045	0.462	0.522
900.000	528.448	80.005	19.997	100.349	20.045	0.451	0.514
900.500	528.718	80.005	19.997	100.348	20.046	0.420	0.499
901.000	528.963	80.004	19.996	100.347	20.043	0.627	0.506
901.500	529.213	80.005	19.996	100.346	20.045	0.451	0.506
902.000	529.474	80.004	19.997	100.345	20.041	0.747	0.503
902.500	529.720	80.005	19.996	100.348	20.045	0.483	0.509
903.000	529.979	80.004	19.997	100.350	20.043	0.613	0.506
903.500	530.226	80.004	19.996	100.348	20.042	0.695	0.505
904.000	530.450	80.004	19.996	100.347	20.040	0.816	0.488
904.500	530.742	80.005	19.996	100.346	20.043	0.583	0.494
905.000	530.962	80.004	19.996	100.343	20.044	0.537	0.515
905.500	531.240	80.005	19.996	100.343	20.041	0.716	0.505
906.000	531.505	80.006	19.997	100.345	20.043	0.581	0.520
906.500	531.726	80.004	19.997	100.345	20.043	0.611	0.515
907.000	531.991	80.004	19.997	100.345	20.046	0.380	0.486
907.500	532.233	80.006	19.997	100.346	20.042	0.667	0.496
908.000	532.497	80.006	19.997	100.346	20.044	0.558	0.507
908.500	532.739	80.006	19.997	100.349	20.045	0.449	0.506
909.000	533.022	80.005	19.996	100.354	20.042	0.697	0.515
909.500	533.229	80.006	19.997	100.354	20.044	0.569	0.507
910.000	533.486	80.005	19.997	100.356	20.043	0.588	0.477
910.500	533.726	80.006	19.997	100.360	20.045	0.489	0.481
911.000	534.004	80.006	19.996	100.359	20.047	0.355	0.507
911.500	534.231	80.007	19.997	100.360	20.041	0.716	0.511
912.000	534.459	80.005	19.997	100.363	20.042	0.650	0.480
912.500	534.780	80.006	19.997	100.360	20.044	0.550	0.502
913.000	535.002	80.005	19.996	100.361	20.041	0.720	0.546
913.500	535.266	80.005	19.997	100.361	20.042	0.665	0.514
914.000	535.507	80.006	19.997	100.358	20.045	0.501	0.495
914.500	535.764	80.007	19.999	100.360	20.046	0.430	0.502
915.000	536.010	80.005	19.996	100.366	20.050	0.145	0.500
915.500	536.276	80.006	19.996	100.367	20.045	0.445	0.507
916.000	536.516	80.005	19.997	100.369	20.048	0.225	0.509
916.500	536.750	80.006	19.997	100.371	20.046	0.413	0.490
917.000	537.002	80.005	19.996	100.372	20.048	0.273	0.480
917.500	537.257	80.005	19.996	100.369	20.048	0.222	0.496
918.000	537.508	80.004	19.996	100.367	20.049	0.216	0.506
918.500	537.763	80.005	19.996	100.367	20.047	0.346	0.506
919.000	537.985	80.005	19.996	100.367	20.048	0.281	0.491
919.500	538.217	80.006	19.996	100.365	20.048	0.271	0.465
920.000	538.509	80.007	19.996	100.368	20.047	0.292	0.490
920.500	538.751	80.004	19.996	100.370	20.047	0.355	0.529
921.000	538.987	80.006	19.996	100.369	20.050	0.141	0.506
921.500	539.261	80.004	19.996	100.369	20.046	0.386	0.494
922.000	539.498	80.007	19.996	100.371	20.046	0.373	0.510
922.500	539.773	80.006	19.995	100.371	20.048	0.224	0.512
923.000	539.994	80.006	19.995	100.369	20.048	0.248	0.504
923.500	540.248	80.006	19.996	100.368	20.050	0.117	0.486
924.000	540.534	80.006	19.995	100.369	20.049	0.176	0.507
924.500	540.760	80.006	19.995	100.365	20.049	0.218	0.526
925.000	541.028	80.007	19.995	100.364	20.047	0.306	0.503
925.500	541.233	80.006	19.995	100.365	20.050	0.117	0.484
926.000	541.482	80.007	19.996	100.359	20.049	0.201	0.463
926.500	541.742	80.007	19.997	100.353	20.048	0.262	0.481
927.000	541.993	80.006	19.996	100.354	20.046	0.367	0.510
927.500	542.246	80.007	19.997	100.355	20.049	0.180	0.508
928.000	542.518	80.006	19.996	100.356	20.046	0.394	0.514
928.500	542.762	80.007	19.995	100.360	20.049	0.201	0.520
929.000	543.029	80.006	19.995	100.363	20.047	0.332	0.513
929.500	543.297	80.007	19.995	100.361	20.049	0.183	0.523
930.000	543.518	80.006	19.997	100.357	20.047	0.336	0.512
930.500	543.749	80.007	19.996	100.355	20.048	0.258	0.470
931.000	544.004	80.007	19.996	100.356	20.049	0.166	0.469
931.500	544.268	80.008	19.995	100.358	20.047	0.332	0.503
932.000	544.542	80.007	19.996	100.360	20.049	0.172	0.529
932.500	544.764	80.009	19.995	100.361	20.047	0.304	0.518
933.000	545.017	80.007	19.995	100.359	20.048	0.256	0.486
933.500	545.265	80.008	19.996	100.357	20.045	0.485	0.488
934.000	545.515	80.009	19.995	100.351	20.048	0.258	0.499
934.500	545.765	80.008	19.995	100.349	20.048	0.252	0.499
935.000	546.003	80.008	19.996	100.351	20.049	0.208	0.494
935.500	546.290	80.007	19.996	100.356	20.046	0.428	0.506
936.000	546.529	80.008	19.996	100.358	20.047	0.332	0.526
936.500	546.759	80.008	19.995	100.362	20.048	0.231	0.497
937.000	547.047	80.007	19.994	100.366	20.049	0.214	0.494
937.500	547.274	80.007	19.996	100.361	20.047	0.336	0.517
938.000	547.528	80.006	19.994	100.358	20.048	0.256	0.498
938.500	547.781	80.007	19.995	100.359	20.048	0.269	0.494
939.000	548.004	80.007	19.995	100.358	20.048	0.246	0.491
939.500	548.309	80.007	19.996	100.353	20.048	0.287	0.502
940.000	548.546	80.008	19.995	100.354	20.045	0.434	0.535
940.500	548.781	80.006	19.996	100.356	20.047	0.340	0.507
941.000	549.024	80.007	19.996	100.355	20.047	0.336	0.475
941.500	549.276	80.006	19.995	100.357	20.048	0.231	0.486
942.000	549.501	80.006	19.996	100.360	20.048	0.283	0.486
942.500	549.795	80.005	19.996	100.361	20.046	0.373	0.498
943.000	550.035	80.005	19.996	100.357	20.049	0.195	0.527
943.500	550.320	80.005	19.996	100.353	20.047	0.292	0.530
944.000	550.549	80.004	19.996	100.350	20.045	0.470	0.519
944.500	550.789	80.004	19.996	100.352	20.044	0.516	0.491
945.000	551.048	80.005	19.996	100.356	20.047	0.323	0.485
945.500	551.312	80.005	19.995	100.363	20.046	0.401	0.512
946.000	551.557	80.005	19.994	100.370	20.047	0.292	0.516
946.500	551.819	80.005	19.996	100.374	20.047	0.302	0.507
947.000	552.019	80.005	19.995	100.376	20.048	0.227	0.484
947.500	552.276	80.005	19.995	100.375	20.049	0.183	0.460
948.000	552.553	80.005	19.996	100.373	20.046	0.415	0.496
948.500	552.789	80.006	19.995	100.371	20.046	0.371	0.523
949.000	553.043	80.006	19.995	100.366	20.048	0.245	0.501
949.500	553.301	80.007	19.995	100.360	20.047	0.357	0.501
950.000	553.551	80.004	19.996	100.360	20.045	0.464	0.510
950.500	553.805	80.005	19.995	100.361	20.044	0.512	0.506
951.000	554.072	80.005	19.995	100.361	20.047	0.325	0.513
951.500	554.327	80.005	19.995	100.366	20.049	0.170	0.522
952.000	554.593	80.005	19.996	100.367	20.047	0.332	0.521
952.500	554.875	80.005	19.995	100.367	20.045	0.441	0.535
953.000	555.131	80.006	19.996	100.364	20.047	0.357	0.543
953.500	555.358	80.005	19.996	100.366	20.048	0.269	0.510
954.000	555.620	80.006	19.996	100.367	20.048	0.231	0.486
954.500	555.857	80.005	19.995	100.372	20.048	0.289	0.494
955.000	556.107	80.006	19.995	100.374	20.045	0.478	0.493
955.500	556.356	80.004	19.995	100.378	20.049	0.178	0.494
956.000	556.612	80.006	19.995	100.379	20.051	0.075	0.502
956.500	556.860	80.005	19.994	100.379	20.048	0.281	0.504
957.000	557.143	80.006	19.995	100.378	20.049	0.210	0.517
957.500	557.374	80.004	19.995	100.376	20.052	-0.008	0.523
958.000	557.615	80.006	19.995	100.376	20.053	-0.069	0.493
958.500	557.849	80.006	19.994	100.376	20.045	0.441	0.474
959.000	558.118	80.006	19.995	100.377	20.048	0.241	0.489
959.500	558.415	80.005	19.996	100.378	20.048	0.245	0.534
960.000	558.661	80.005	19.995	100.378	20.053	-0.103	0.554
960.500	558.901	80.004	19.996	100.375	20.047	0.327	0.514
961.000	559.155	80.006	19.996	100.371	20.048	0.227	0.490
961.500	559.397	80.005	19.996	100.368	20.048	0.289	0.495
962.000	559.627	80.006	19.996	100.368	20.050	0.105	0.484
962.501	559.919	80.005	19.996	100.368	20.051	0.063	0.497
963.000	560.156	80.006	19.995	100.371	20.049	0.159	0.525
963.500	560.419	80.004	19.995	100.375	20.052	-0.006	0.514
964.000	560.657	80.006	19.995	100.378	20.049	0.176	0.501
964.500	560.935	80.006	19.996	100.378	20.051	0.053	0.509
965.000	561.199	80.006	19.994	100.380	20.050	0.080	0.529
965.500	561.492	80.005	19.994	100.382	20.050	0.113	0.549
966.000	561.724	80.004	19.994	100.383	20.051	0.057	0.540
966.500	561.946	80.006	19.995	100.383	20.053	-0.111	0.490
967.000	562.235	80.004	19.995	100.383	20.054	-0.170	0.483
967.500	562.535	80.004	19.995	100.382	20.052	-0.059	0.550
968.000	562.732	80.004	19.995	100.380	20.053	-0.120	0.543
968.500	562.989	80.004	19.995	100.378	20.053	-0.101	0.475
969.000	563.267	80.005	19.995	100.378	20.051	0.023	0.494
969.500	563.528	80.004	19.996	100.377	20.049	0.160	0.537
970.000	563.778	80.004	19.996	100.378	20.048	0.269	0.525
970.500	564.042	80.004	19.995	100.378	20.048	0.262	0.512
971.000	564.278	80.003	19.997	100.378	20.049	0.151	0.507
971.500	564.535	80.005	19.996	100.379	20.049	0.183	0.497
972.000	564.774	80.005	19.995	100.379	20.048	0.220	0.495
972.500	565.044	80.004	19.996	100.379	20.050	0.086	0.502
973.000	565.288	80.003	19.995	100.380	20.049	0.153	0.511
973.500	565.548	80.004	19.995	100.377	20.052	-0.050	0.509
974.000	565.815	80.003	19.996	100.376	20.047	0.342	0.515
974.500	566.056	80.004	19.996	100.376	20.049	0.208	0.518
975.000	566.318	80.003	19.996	100.376	20.055	-0.216	0.506
975.500	566.544	80.004	19.996	100.375	20.052	-0.002	0.496
976.000	566.818	80.004	19.996	100.375	20.052	-0.025	0.493
976.500	567.095	80.005	19.996	100.374	20.054	-0.160	0.525
977.000	567.323	80.004	19.997	100.369	20.049	0.210	0.528
977.500	567.597	80.004	19.997	100.367	20.052	-0.061	0.504
978.000	567.850	80.005	19.996	100.366	20.053	-0.092	0.515
978.500	568.112	80.005	19.998	100.366	20.055	-0.250	0.521
979.000	568.364	80.004	19.997	100.364	20.049	0.214	0.514
979.500	568.592	80.006	19.996	100.369	20.052	-0.044	0.497
980.000	568.900	80.004	19.996	100.367	20.050	0.130	0.508
980.500	569.140	80.006	19.997	100.363	20.050	0.105	0.542
981.000	569.380	80.005	19.996	100.362	20.049	0.176	0.514
981.500	569.670	80.006	19.996	100.363	20.051	0.015	0.505
982.000	569.933	80.005	19.996	100.359	20.052	-0.055	0.541
982.500	570.178	80.006	19.996	100.361	20.054	-0.159	0.530
983.000	570.443	80.006	19.996	100.366	20.052	-0.050	0.509
983.500	570.640	80.006	19.996	100.366	20.051	0.075	0.486
984.000	570.911	80.007	19.996	100.365	20.055	-0.231	0.465
984.500	571.131	80.006	19.996	100.367	20.056	-0.277	0.480
985.000	571.403	80.007	19.996	100.367	20.050	0.111	0.491
985.500	571.647	80.006	19.996	100.367	20.056	-0.294	0.504
986.000	571.863	80.006	19.995	100.366	20.055	-0.218	0.488
986.500	572.181	80.007	19.995	100.365	20.052	-0.052	0.497
987.000	572.392	80.007	19.997	100.365	20.053	-0.073	0.531
987.500	572.647	80.007	19.997	100.366	20.054	-0.172	0.498
988.000	572.895	80.005	19.996	100.366	20.050	0.143	0.485
988.500	573.164	80.006	19.995	100.366	20.053	-0.069	0.509
989.000	573.416	80.007	19.995	100.367	20.051	0.061	0.519
989.500	573.706	80.007	19.996	100.369	20.053	-0.132	0.532
990.000	573.975	80.008	19.996	100.369	20.052	-0.044	0.551
990.500	574.249	80.006	19.996	100.369	20.050	0.080	0.551
991.000	574.467	80.007	19.996	100.373	20.051	0.053	0.518
991.500	574.729	80.007	19.995	100.375	20.051	0.019	0.486
992.000	574.997	80.007	19.996	100.375	20.057	-0.403	0.505
992.500	575.290	80.007	19.997	100.375	20.052	-0.044	0.546
993.000	575.494	80.006	19.996	100.374	20.053	-0.107	0.529
993.500	575.755	80.008	19.996	100.373	20.056	-0.292	0.481
994.000	576.000	80.007	19.996	100.372	20.055	-0.210	0.486
994.500	576.268	80.007	19.996	100.371	20.052	-0.057	0.510
995.000	576.508	80.007	19.996	100.371	20.055	-0.252	0.510
995.500	576.777	80.006	19.996	100.372	20.056	-0.342	0.508
996.000	577.012	80.006	19.996	100.372	20.053	-0.128	0.507
996.500	577.286	80.006	19.996	100.373	20.053	-0.090	0.507
997.000	577.537	80.007	19.996	100.374	20.054	-0.185	0.517
997.500	577.770	80.006	19.996	100.374	20.055	-0.220	0.504
998.000	578.026	80.007	19.997	100.374	20.055	-0.271	0.486
998.500	578.275	80.006	19.997	100.375	20.054	-0.134	0.497
999.000	578.531	80.006	19.997	100.375	20.058	-0.417	0.505
999.500	578.758	80.006	19.996	100.375	20.055	-0.267	0.494
1000.000	579.024	80.007	19.997	100.374	20.053	-0.124	0.488
1000.500	579.240	80.007	19.997	100.375	20.056	-0.285	0.488
1001.000	579.508	80.006	19.996	100.374	20.055	-0.258	0.483
1001.500	579.740	80.006	19.996	100.374	20.054	-0.166	0.492
1002.000	579.994	80.006	19.997	100.374	20.053	-0.132	0.493
1002.500	580.221	80.006	19.997	100.374	20.053	-0.124	0.484
1003.000	580.481	80.006	19.997	100.374	20.051	0.057	0.484
1003.500	580.731	80.006	19.998	100.374	20.058	-0.443	0.498
1004.000	580.987	80.006	19.997	100.374	20.053	-0.076	0.508
1004.500	581.221	80.006	19.998	100.374	20.054	-0.178	0.498
1005.000	581.499	80.005	19.997	100.373	20.052	-0.011	0.501
1005.500	581.759	80.007	19.998	100.373	20.053	-0.069	0.525
1006.000	581.967	80.006	19.997	100.369	20.053	-0.094	0.503
1006.500	582.224	80.005	19.997	100.363	20.057	-0.396	0.466
1007.000	582.485	80.006	19.998	100.363	20.053	-0.090	0.491
1007.500	582.733	80.006	19.996	100.362	20.052	-0.008	0.514
1008.000	582.979	80.006	19.996	100.360	20.055	-0.245	0.502
1008.500	583.244	80.006	19.998	100.363	20.054	-0.191	0.503
1009.000	583.490	80.007	19.996	100.369	20.053	-0.118	0.511
1009.500	583.745	80.007	19.997	100.368	20.055	-0.248	0.506
1010.000	584.005	80.007	19.996	100.369	20.055	-0.250	0.508
1010.500	584.237	80.007	19.996	100.373	20.056	-0.325	0.504
1011.000	584.470	80.007	19.997	100.373	20.055	-0.258	0.478
1011.500	584.720	80.006	19.996	100.374	20.055	-0.264	0.474
1012.000	584.953	80.008	19.997	100.375	20.053	-0.128	0.483
1012.500	585.205	80.008	19.996	100.375	20.057	-0.365	0.484
1013.000	585.501	80.007	19.996	100.377	20.052	-0.061	0.517
1013.500	585.712	80.007	19.997	100.378	20.056	-0.310	0.527
1014.000	585.966	80.008	19.996	100.378	20.055	-0.205	0.486
1014.500	586.218	80.008	19.995	100.377	20.056	-0.281	0.486
1015.000	586.472	80.007	19.996	100.378	20.051	0.031	0.506
1015.500	586.761	80.008	19.996	100.376	20.052	-0.034	0.525
1016.000	586.950	80.009	19.995	100.376	20.054	-0.164	0.511
1016.500	587.214	80.009	19.996	100.376	20.053	-0.071	0.466
1017.000	587.435	80.008	19.995	100.377	20.055	-0.243	0.469
1017.500	587.711	80.008	19.995	100.377	20.055	-0.260	0.491
1018.000	587.949	80.007	19.996	100.376	20.052	-0.025	0.506
1018.500	588.201	80.008	19.994	100.377	20.051	0.021	0.502
1019.000	588.438	80.007	19.995	100.377	20.055	-0.220	0.489
1019.500	588.708	80.007	19.995	100.378	20.053	-0.099	0.498
1020.000	588.976	80.009	19.996	100.379	20.057	-0.390	0.522
1020.500	589.197	80.008	19.995	100.383	20.055	-0.224	0.513
1021.000	589.463	80.007	19.995	100.390	20.051	0.067	0.488
1021.500	589.715	80.008	19.995	100.394	20.051	0.052	0.503
1022.000	589.977	80.008	19.995	100.401	20.053	-0.088	0.516
1022.500	590.201	80.006	19.995	100.408	20.050	0.096	0.500
1023.000	590.443	80.008	19.995	100.412	20.052	0.004	0.476
1023.500	590.733	80.007	19.995	100.413	20.053	-0.088	0.499
1024.000	590.987	80.006	19.996	100.415	20.052	-0.029	0.538
1024.500	591.225	80.007	19.996	100.415	20.052	-0.048	0.518
1025.000	591.469	80.005	19.995	100.411	20.056	-0.273	0.487
1025.500	591.737	80.006	19.995	100.404	20.053	-0.073	0.497
1026.000	591.953	80.006	19.995	100.400	20.049	0.151	0.498
1026.501	592.212	80.006	19.996	100.398	20.053	-0.111	0.479
1027.001	592.464	80.006	19.996	100.392	20.053	-0.103	0.492
1027.500	592.755	80.007	19.995	100.392	20.052	-0.034	0.527
1028.000	592.994	80.006	19.995	100.392	20.053	-0.063	0.537
1028.500	593.235	80.006	19.996	100.391	20.051	0.015	0.505
1029.000	593.486	80.007	19.995	100.387	20.054	-0.201	0.485
1029.500	593.771	80.006	19.995	100.387	20.051	0.048	0.514
1030.000	594.023	80.005	19.995	100.384	20.052	0.002	0.537
1030.500	594.273	80.005	19.995	100.383	20.053	-0.132	0.520
1031.000	594.566	80.006	19.995	100.381	20.052	-0.023	0.522
1031.500	594.816	80.006	19.995	100.384	20.054	-0.141	0.543
1032.000	595.052	80.005	19.995	100.384	20.052	-0.054	0.515
1032.500	595.297	80.006	19.996	100.384	20.053	-0.132	0.483
1033.000	595.582	80.004	19.996	100.384	20.051	0.013	0.506
1033.500	595.856	80.006	19.996	100.389	20.050	0.082	0.545
1034.000	596.129	80.006	19.996	100.394	20.050	0.117	0.553
1034.500	596.362	80.006	19.996	100.400	20.049	0.199	0.526
1035.000	596.583	80.005	19.995	100.401	20.051	0.063	0.480
1035.501	596.850	80.006	19.997	100.400	20.050	0.109	0.472
1036.001	597.119	80.006	19.995	100.393	20.052	-0.034	0.512
1036.501	597.359	80.005	19.994	100.383	20.051	0.069	0.522
1037.001	597.637	80.005	19.995	100.376	20.051	0.027	0.513
1037.500	597.949	80.005	19.995	100.374	20.053	-0.075	0.554
1038.000	598.170	80.005	19.996	100.375	20.053	-0.063	0.562
1038.500	598.426	80.005	19.995	100.378	20.052	-0.017	0.505
1039.000	598.708	80.005	19.996	100.382	20.050	0.090	0.507
1039.500	598.966	80.006	19.995	100.383	20.051	0.052	0.539
1040.000	599.195	80.006	19.995	100.384	20.051	0.065	0.513
1040.500	599.483	80.006	19.994	100.384	20.052	-0.029	0.501
1041.000	599.740	80.006	19.996	100.384	20.052	0.002	0.531
1041.500	600.003	80.007	19.996	100.384	20.050	0.105	0.533
1042.000	600.243	80.006	19.996	100.384	20.052	-0.038	0.511
1042.500	600.528	80.006	19.997	100.387	20.050	0.122	0.514
1043.000	600.802	80.007	19.996	100.391	20.052	-0.059	0.542
1043.500	601.062	80.007	19.995	100.391	20.053	-0.067	0.547
1044.000	601.327	80.006	19.995	100.392	20.052	-0.023	0.530
1044.500	601.586	80.007	19.997	100.396	20.051	0.011	0.524
1045.001	601.869	80.006	19.996	100.396	20.051	0.023	0.532
1045.501	602.152	80.006	19.995	100.398	20.050	0.117	0.554
1046.001	602.388	80.006	19.996	100.398	20.053	-0.092	0.543
1046.501	602.659	80.007	19.996	100.397	20.052	-0.031	0.513
1047.000	602.894	80.007	19.996	100.392	20.051	0.040	0.506
1047.500	603.160	80.007	19.996	100.388	20.051	0.031	0.503
1048.000	603.423	80.005	19.996	100.383	20.052	-0.004	0.515
1048.500	603.697	80.007	19.995	100.383	20.049	0.189	0.533
1049.000	603.938	80.007	19.995	100.388	20.046	0.403	0.526
1049.500	604.218	80.006	19.996	100.387	20.047	0.313	0.518
1050.000	604.479	80.007	19.995	100.388	20.047	0.323	0.531
1050.500	604.779	80.008	19.994	100.387	20.047	0.329	0.551
1051.001	604.992	80.007	19.995	100.391	20.049	0.180	0.537
1051.501	605.271	80.006	19.994	100.393	20.048	0.285	0.503
1052.001	605.546	80.007	19.997	100.400	20.043	0.623	0.523
1052.500	605.779	80.006	19.995	100.403	20.047	0.352	0.531
1053.000	606.047	80.005	19.995	100.408	20.045	0.470	0.504
1053.500	606.309	80.005	19.995	100.410	20.044	0.558	0.516
1054.001	606.577	80.006	19.995	100.409	20.045	0.453	0.530
1054.501	606.826	80.006	19.995	100.404	20.048	0.226	0.524
1055.000	607.115	80.006	19.995	100.403	20.047	0.348	0.527
1055.500	607.382	80.006	19.995	100.397	20.047	0.312	0.547
1056.000	607.660	80.006	19.996	100.397	20.046	0.399	0.551
1056.500	607.911	80.005	19.997	100.397	20.045	0.449	0.537
1057.000	608.145	80.006	19.996	100.402	20.048	0.226	0.507
1057.501	608.446	80.005	19.995	100.409	20.048	0.264	0.510
1058.001	608.707	80.006	19.996	100.415	20.045	0.474	0.549
1058.501	608.942	80.006	19.995	100.415	20.046	0.428	0.529
1059.001	609.205	80.005	19.995	100.416	20.045	0.432	0.497
1059.500	609.494	80.005	19.996	100.416	20.045	0.495	0.525
1060.001	609.733	80.005	19.996	100.416	20.047	0.348	0.540
1060.501	609.963	80.005	19.995	100.417	20.044	0.508	0.499
1061.000	610.228	80.006	19.995	100.420	20.046	0.388	0.482
1061.500	610.481	80.005	19.996	100.421	20.047	0.333	0.506
1062.000	610.733	80.005	19.995	100.421	20.048	0.239	0.511
1062.500	611.015	80.006	19.997	100.420	20.048	0.250	0.520
1063.001	611.246	80.007	19.996	100.420	20.046	0.422	0.523
1063.501	611.516	80.006	19.995	100.418	20.044	0.539	0.507
1064.000	611.757	80.005	19.996	100.417	20.046	0.378	0.506
1064.500	611.999	80.006	19.995	100.416	20.048	0.254	0.497
1065.000	612.267	80.008	19.996	100.416	20.047	0.350	0.496
1065.500	612.535	80.006	19.996	100.416	20.046	0.361	0.523
1066.000	612.798	80.006	19.996	100.415	20.048	0.260	0.534
1066.500	613.057	80.005	19.995	100.413	20.050	0.124	0.527
1067.000	613.329	80.006	19.996	100.414	20.048	0.256	0.526
1067.500	613.585	80.007	19.997	100.413	20.046	0.388	0.530
1068.000	613.846	80.008	19.996	100.411	20.048	0.243	0.523
1068.501	614.097	80.006	19.997	100.411	20.048	0.281	0.514
1069.001	614.355	80.007	19.995	100.411	20.049	0.203	0.510
1069.500	614.587	80.007	19.996	100.411	20.047	0.352	0.499
1070.000	614.872	80.008	19.994	100.411	20.047	0.300	0.504
1070.500	615.154	80.007	19.997	100.413	20.048	0.287	0.542
1071.000	615.421	80.008	19.995	100.413	20.048	0.256	0.558
1071.501	615.670	80.008	19.995	100.414	20.048	0.289	0.532
1072.001	615.938	80.007	19.996	100.414	20.045	0.474	0.516
1072.500	616.202	80.008	19.996	100.419	20.048	0.258	0.524
1073.000	616.398	80.008	19.996	100.420	20.045	0.501	0.496
1073.500	616.695	80.007	19.996	100.419	20.045	0.491	0.476
1074.000	616.954	80.007	19.996	100.417	20.048	0.260	0.524
1074.500	617.220	80.008	19.996	100.415	20.045	0.499	0.540
1075.000	617.474	80.006	19.996	100.410	20.048	0.250	0.522
1075.500	617.738	80.006	19.996	100.410	20.045	0.438	0.519
1076.001	618.002	80.007	19.997	100.410	20.045	0.436	0.523
1076.501	618.233	80.007	19.996	100.411	20.046	0.403	0.511
1077.000	618.467	80.007	19.996	100.410	20.044	0.551	0.480
1077.500	618.739	80.007	19.995	100.417	20.042	0.684	0.486
1078.001	618.996	80.007	19.996	100.422	20.048	0.254	0.518
1078.501	619.262	80.007	19.997	100.425	20.044	0.532	0.526
1079.000	619.545	80.005	19.995	100.427	20.045	0.455	0.536
1079.501	619.785	80.005	19.996	100.430	20.043	0.583	0.536
1080.001	620.077	80.006	19.995	100.424	20.041	0.769	0.527
1080.501	620.319	80.007	19.996	100.419	20.040	0.835	0.533
1081.001	620.560	80.006	19.996	100.418	20.044	0.572	0.508
1081.500	620.832	80.007	19.996	100.418	20.042	0.648	0.498
1082.001	621.108	80.006	19.995	100.419	20.043	0.598	0.531
1082.501	621.339	80.005	19.996	100.419	20.042	0.654	0.528
1083.001	621.578	80.006	19.996	100.420	20.043	0.604	0.489
1083.501	621.842	80.006	19.997	100.421	20.041	0.732	0.487
1084.001	622.128	80.006	19.995	100.420	20.040	0.822	0.526
1084.500	622.384	80.006	19.996	100.421	20.042	0.656	0.546
1085.001	622.638	80.006	19.995	100.421	20.039	0.868	0.526
1085.501	622.888	80.006	19.996	100.421	20.041	0.759	0.507
1086.000	623.129	80.007	19.995	100.422	20.038	0.971	0.497
1086.500	623.406	80.006	19.996	100.428	20.042	0.686	0.504
1087.000	623.633	80.006	19.995	100.428	20.041	0.767	0.511
1087.500	623.930	80.007	19.997	100.431	20.043	0.614	0.514
1088.000	624.209	80.006	19.996	100.435	20.044	0.556	0.550
1088.500	624.442	80.006	19.996	100.441	20.046	0.377	0.544
1089.000	624.733	80.006	19.996	100.441	20.045	0.451	0.518
1089.501	624.969	80.007	19.995	100.447	20.042	0.673	0.525
1090.001	625.235	80.008	19.995	100.451	20.043	0.610	0.515
1090.500	625.479	80.005	19.996	100.448	20.042	0.662	0.506
1091.000	625.756	80.007	19.996	100.443	20.046	0.417	0.515
1091.500	625.999	80.006	19.995	100.438	20.043	0.614	0.520
1092.000	626.242	80.006	19.996	100.430	20.044	0.509	0.503
1092.501	626.514	80.007	19.996	100.424	20.044	0.568	0.501
1093.001	626.761	80.007	19.996	100.421	20.041	0.774	0.517
1093.501	626.977	80.008	19.996	100.420	20.041	0.767	0.491
1094.001	627.293	80.007	19.996	100.425	20.041	0.771	0.498
1094.500	627.558	80.006	19.996	100.430	20.041	0.721	0.557
1095.000	627.797	80.005	19.996	100.433	20.044	0.526	0.542
1095.501	628.080	80.007	19.997	100.439	20.044	0.558	0.513
1096.001	628.348	80.008	19.996	100.439	20.044	0.505	0.536
1096.501	628.597	80.007	19.996	100.437	20.043	0.581	0.534
1097.001	628.826	80.008	19.996	100.433	20.046	0.426	0.497
1097.500	629.073	80.007	19.996	100.432	20.043	0.577	0.477
1098.001	629.357	80.008	19.996	100.430	20.044	0.554	0.504
1098.501	629.606	80.008	19.996	100.431	20.044	0.558	0.532
1099.001	629.865	80.006	19.997	100.428	20.040	0.845	0.520
1099.501	630.128	80.007	19.996	100.432	20.045	0.480	0.515
1100.001	630.371	80.008	19.995	100.435	20.044	0.568	0.514
1100.500	630.646	80.007	19.997	100.434	20.044	0.535	0.512
1101.000	630.915	80.007	19.996	100.433	20.045	0.491	0.531
1101.500	631.168	80.008	19.996	100.437	20.043	0.598	0.533
1102.001	631.438	80.007	19.996	100.436	20.043	0.639	0.523
1102.501	631.713	80.004	19.996	100.439	20.042	0.688	0.534
1103.001	631.976	80.006	19.997	100.443	20.045	0.488	0.541
1103.500	632.222	80.006	19.996	100.447	20.044	0.547	0.523
1104.000	632.487	80.006	19.995	100.446	20.041	0.761	0.510
1104.500	632.716	80.007	19.995	100.446	20.045	0.490	0.502
1105.000	632.992	80.007	19.995	100.445	20.039	0.872	0.500
1105.500	633.217	80.006	19.995	100.450	20.041	0.742	0.504
1106.000	633.487	80.006	19.996	100.447	20.041	0.778	0.498
1106.500	633.754	80.005	19.997	100.442	20.041	0.774	0.516
1107.000	634.010	80.005	19.997	100.437	20.039	0.916	0.530
1107.501	634.289	80.005	19.997	100.429	20.040	0.851	0.529
1108.001	634.531	80.005	19.996	100.417	20.041	0.736	0.528
1108.501	634.805	80.006	19.996	100.415	20.042	0.698	0.518
1109.000	635.055	80.005	19.996	100.416	20.040	0.832	0.520
1109.500	635.336	80.006	19.995	100.427	20.038	0.973	0.528
1110.001	635.580	80.006	19.996	100.436	20.040	0.795	0.528
1110.501	635.871	80.005	19.995	100.442	20.043	0.620	0.530
1111.000	636.095	80.004	19.994	100.448	20.041	0.778	0.525
1111.500	636.356	80.005	19.995	100.452	20.038	0.954	0.500
1112.000	636.628	80.006	19.996	100.448	20.036	1.088	0.509
1112.500	636.890	80.006	19.995	100.449	20.036	1.071	0.534
1113.000	637.141	80.005	19.995	100.449	20.037	1.000	0.523
1113.500	637.406	80.005	19.996	100.451	20.038	0.954	0.514
1114.001	637.647	80.006	19.995	100.452	20.036	1.123	0.511
1114.501	637.892	80.005	19.996	100.453	20.038	0.989	0.496
1115.000	638.166	80.006	19.996	100.453	20.039	0.859	0.502
1115.500	638.397	80.004	19.994	100.454	20.039	0.880	0.512
1116.000	638.677	80.006	19.995	100.453	20.039	0.870	0.508
1116.500	638.964	80.006	19.995	100.453	20.040	0.839	0.539
1117.000	639.181	80.006	19.996	100.453	20.041	0.742	0.536
1117.500	639.417	80.005	19.996	100.453	20.039	0.912	0.479
1118.000	639.691	80.006	19.995	100.454	20.040	0.792	0.481
1118.500	639.953	80.004	19.996	100.454	20.041	0.780	0.522
1119.000	640.178	80.006	19.997	100.455	20.041	0.744	0.511
1119.500	640.464	80.006	19.996	100.454	20.038	0.991	0.499
1120.000	640.709	80.006	19.996	100.454	20.039	0.857	0.521
1120.500	640.969	80.007	19.995	100.454	20.035	1.187	0.518
1121.000	641.224	80.006	19.996	100.453	20.041	0.748	0.511
1121.500	641.479	80.006	19.996	100.455	20.039	0.874	0.513
1122.000	641.743	80.007	19.995	100.454	20.038	0.977	0.514
1122.500	641.992	80.006	19.995	100.456	20.039	0.897	0.516
1123.001	642.254	80.006	19.996	100.458	20.038	0.991	0.512
1123.501	642.490	80.005	19.995	100.461	20.038	0.981	0.504
1124.000	642.756	80.006	19.996	100.465	20.038	0.983	0.501
1124.500	643.008	80.005	19.996	100.468	20.035	1.151	0.510
1125.001	643.250	80.006	19.995	100.467	20.036	1.082	0.505
1125.501	643.498	80.006	19.996	100.465	20.036	1.081	0.492
1126.000	643.709	80.005	19.995	100.463	20.035	1.150	0.475
1126.501	643.988	80.006	19.996	100.457	20.036	1.065	0.474
1127.001	644.241	80.007	19.996	100.456	20.034	1.220	0.511
1127.500	644.506	80.006	19.995	100.456	20.039	0.870	0.525
1128.000	644.739	80.007	19.995	100.458	20.036	1.081	0.508
1128.500	644.951	80.006	19.995	100.458	20.038	0.962	0.472
1129.000	645.236	80.005	19.995	100.457	20.036	1.100	0.471
1129.501	645.486	80.006	19.996	100.456	20.036	1.113	0.516
1130.001	645.732	80.008	19.995	100.455	20.038	0.989	0.515
1130.500	646.000	80.007	19.996	100.454	20.035	1.157	0.504
1131.000	646.243	80.007	19.996	100.454	20.035	1.196	0.512
1131.500	646.525	80.005	19.995	100.455	20.033	1.297	0.518
1132.000	646.740	80.006	19.995	100.458	20.035	1.142	0.511
1132.501	647.007	80.007	19.995	100.458	20.039	0.874	0.490
1133.001	647.205	80.005	19.996	100.458	20.036	1.109	0.474
1133.501	647.497	80.006	19.995	100.460	20.033	1.285	0.477
1134.001	647.722	80.004	19.996	100.460	20.032	1.358	0.503
1134.500	648.004	80.007	19.996	100.457	20.033	1.339	0.512
1135.000	648.206	80.007	19.996	100.459	20.035	1.180	0.495
1135.501	648.513	80.004	19.995	100.462	20.034	1.232	0.496
1136.001	648.745	80.006	19.995	100.468	20.034	1.241	0.524
1136.500	648.997	80.007	19.995	100.476	20.035	1.186	0.512
1137.000	649.275	80.005	19.995	100.483	20.032	1.408	0.507
1137.500	649.508	80.005	19.996	100.489	20.031	1.486	0.520
1138.000	649.752	80.006	19.997	100.492	20.034	1.245	0.495
1138.500	650.016	80.005	19.996	100.492	20.034	1.226	0.493
1139.000	650.294	80.006	19.997	100.491	20.036	1.106	0.524
1139.500	650.461	80.005	19.996	100.491	20.037	1.056	0.493
1140.000	650.746	80.005	19.996	100.489	20.037	1.048	0.449
1140.500	650.993	80.006	19.996	100.491	20.035	1.140	0.492
1141.000	651.238	80.004	19.996	100.497	20.035	1.155	0.512
1141.500	651.528	80.006	19.997	100.494	20.033	1.310	0.513
1142.000	651.753	80.005	19.996	100.487	20.037	1.044	0.525
1142.500	652.026	80.005	19.995	100.481	20.036	1.123	0.506
1143.000	652.277	80.006	19.995	100.472	20.036	1.129	0.511
1143.500	652.519	80.005	19.996	100.464	20.038	0.926	0.508
1144.001	652.775	80.004	19.995	100.463	20.037	1.046	0.496
1144.501	653.017	80.006	19.995	100.469	20.036	1.108	0.499
1145.000	653.286	80.006	19.996	100.479	20.034	1.253	0.505
1145.500	653.529	80.006	19.995	100.486	20.037	1.046	0.511
1146.000	653.793	80.005	19.995	100.488	20.035	1.192	0.509
1146.500	654.030	80.006	19.995	100.490	20.035	1.197	0.504
1147.000	654.310	80.005	19.995	100.492	20.033	1.347	0.509
1147.500	654.557	80.006	19.995	100.490	20.033	1.320	0.522
1148.000	654.785	80.005	19.996	100.491	20.032	1.379	0.500
1148.500	655.057	80.007	19.994	100.493	20.034	1.245	0.487
1149.000	655.305	80.005	19.995	100.496	20.031	1.485	0.511
1149.500	655.577	80.006	19.995	100.496	20.036	1.111	0.520
1150.000	655.807	80.006	19.995	100.496	20.035	1.180	0.511
1150.500	656.048	80.006	19.995	100.496	20.035	1.198	0.487
1151.000	656.311	80.008	19.994	100.496	20.033	1.308	0.488
1151.500	656.537	80.007	19.994	100.496	20.036	1.134	0.496
1152.000	656.804	80.006	19.995	100.495	20.038	0.930	0.491
1152.500	657.035	80.008	19.995	100.495	20.036	1.123	0.495
1153.000	657.297	80.007	19.995	100.495	20.037	1.052	0.495
1153.500	657.564	80.007	19.994	100.495	20.033	1.305	0.511
1154.000	657.774	80.009	19.995	100.495	20.034	1.266	0.503
1154.500	658.036	80.009	19.996	100.495	20.033	1.310	0.474
1155.000	658.308	80.007	19.995	100.495	20.035	1.152	0.503
1155.500	658.522	80.007	19.995	100.495	20.033	1.328	0.510
1156.000	658.807	80.007	19.995	100.495	20.028	1.660	0.493
1156.501	659.064	80.008	19.996	100.492	20.029	1.605	0.521
1157.001	659.317	80.007	19.995	100.492	20.029	1.603	0.526
1157.500	659.523	80.006	19.995	100.492	20.031	1.458	0.484
1158.001	659.811	80.007	19.996	100.494	20.028	1.689	0.476
1158.501	660.049	80.006	19.996	100.496	20.028	1.632	0.510
1159.000	660.285	80.007	19.995	100.499	20.028	1.630	0.500
1159.500	660.515	80.005	19.996	100.499	20.028	1.682	0.471
1160.001	660.799	80.006	19.996	100.499	20.027	1.737	0.490
1160.501	661.005	80.006	19.995	100.497	20.024	1.913	0.502
1161.001	661.255	80.007	19.996	100.495	20.026	1.812	0.473
1161.501	661.517	80.006	19.995	100.494	20.024	1.951	0.484
1162.000	661.765	80.004	19.995	100.494	20.024	1.957	0.511
1162.500	662.037	80.006	19.996	100.494	20.025	1.854	0.515
1163.000	662.259	80.006	19.996	100.494	20.024	1.980	0.507
1163.500	662.502	80.006	19.996	100.494	20.028	1.684	0.480
1164.000	662.764	80.006	19.996	100.494	20.027	1.737	0.485
1164.501	663.025	80.007	19.997	100.495	20.027	1.739	0.514
1165.001	663.282	80.005	19.995	100.496	20.027	1.734	0.521
1165.500	663.556	80.006	19.996	100.496	20.026	1.772	0.525
1166.000	663.814	80.006	19.996	100.497	20.026	1.785	0.532
1166.500	664.059	80.006	19.996	100.497	20.030	1.548	0.517
1167.000	664.279	80.006	19.996	100.497	20.027	1.749	0.484
1167.500	664.494	80.006	19.998	100.496	20.028	1.630	0.450
1168.000	664.757	80.007	19.995	100.497	20.024	1.921	0.457
1168.500	665.013	80.007	19.997	100.502	20.028	1.697	0.498
1169.000	665.245	80.006	19.996	100.507	20.027	1.749	0.503
1169.500	665.479	80.006	19.995	100.509	20.029	1.596	0.477
1170.000	665.734	80.006	19.996	100.511	20.027	1.747	0.478
1170.501	665.991	80.008	19.997	100.512	20.029	1.571	0.500
1171.001	666.222	80.006	19.996	100.507	20.028	1.659	0.500
1171.500	666.485	80.007	19.995	100.501	20.026	1.829	0.491
1172.000	666.714	80.007	19.996	100.500	20.024	1.975	0.493
1172.500	666.934	80.008	19.997	100.499	20.026	1.797	0.470
1173.000	667.184	80.008	19.996	100.497	20.027	1.707	0.459
1173.500	667.427	80.008	19.997	100.499	20.028	1.630	0.482
1174.000	667.664	80.008	19.996	100.502	20.024	1.927	0.487
1174.500	667.941	80.007	19.996	100.507	20.028	1.661	0.497
1175.000	668.163	80.008	19.996	100.511	20.026	1.795	0.506
1175.500	668.415	80.009	19.995	100.516	20.030	1.516	0.486
1176.000	668.625	80.008	19.996	100.519	20.028	1.661	0.468
1176.500	668.935	80.008	19.995	100.517	20.028	1.686	0.491
1177.000	669.188	80.007	19.996	100.512	20.028	1.678	0.542
1177.501	669.427	80.008	19.995	100.507	20.028	1.636	0.527
1178.001	669.645	80.008	19.995	100.501	20.022	2.086	0.474
1178.500	669.882	80.007	19.996	100.498	20.026	1.801	0.456
1179.001	670.172	80.008	19.996	100.499	20.026	1.822	0.491
1179.501	670.416	80.007	19.995	100.502	20.025	1.864	0.530
1180.000	670.663	80.010	19.996	100.506	20.029	1.629	0.512
1180.500	670.921	80.008	19.996	100.512	20.030	1.529	0.498
1181.000	671.158	80.009	19.996	100.515	20.027	1.728	0.500
1181.500	671.412	80.008	19.995	100.520	20.031	1.430	0.493
1182.000	671.670	80.008	19.995	100.523	20.026	1.795	0.501
1182.500	671.896	80.007	19.996	100.525	20.026	1.785	0.498
1183.000	672.136	80.009	19.995	100.526	20.026	1.787	0.475
1183.500	672.438	80.008	19.995	100.525	20.026	1.814	0.504
1184.000	672.692	80.009	19.996	100.522	20.023	2.004	0.549
1184.500	672.924	80.008	19.996	100.520	20.026	1.814	0.521
1185.000	673.184	80.009	19.995	100.519	20.027	1.751	0.489
1185.501	673.421	80.006	19.996	100.520	20.026	1.822	0.495
1186.001	673.673	80.006	19.996	100.523	20.027	1.734	0.493
1186.500	673.933	80.007	19.996	100.525	20.029	1.565	0.500
1187.000	674.164	80.006	19.996	100.527	20.028	1.697	0.501
1187.500	674.445	80.006	19.996	100.529	20.027	1.734	0.501
1188.000	674.738	80.006	19.997	100.530	20.024	1.935	0.543
1188.500	674.971	80.005	19.996	100.530	20.026	1.805	0.550
1189.000	675.247	80.005	19.997	100.530	20.026	1.793	0.518
1189.500	675.512	80.005	19.996	100.530	20.023	1.982	0.525
1190.000	675.772	80.003	19.998	100.530	20.025	1.845	0.533
1190.500	676.047	80.005	19.996	100.530	20.026	1.828	0.530
1191.000	676.246	80.005	19.998	100.530	20.022	2.074	0.504
1191.500	676.513	80.006	19.997	100.531	20.025	1.843	0.470
1192.000	676.782	80.005	19.998	100.532	20.027	1.738	0.501
1192.500	677.023	80.006	19.998	100.531	20.022	2.055	0.523
1193.000	677.278	80.006	19.998	100.531	20.023	2.015	0.504
1193.500	677.566	80.005	19.998	100.530	20.022	2.063	0.519
1194.001	677.766	80.005	19.998	100.530	20.023	2.000	0.515
1194.501	678.076	80.006	19.997	100.529	20.023	2.010	0.499
1195.001	678.325	80.006	19.997	100.529	20.026	1.822	0.535
1195.501	678.579	80.005	19.996	100.529	20.022	2.059	0.531
1196.000	678.834	80.005	19.998	100.529	20.022	2.102	0.506
1196.500	679.101	80.005	19.997	100.529	20.022	2.104	0.516
1197.000	679.300	80.004	19.996	100.529	20.019	2.306	0.494
1197.500	679.588	80.006	19.998	100.530	20.018	2.366	0.477
1198.000	679.833	80.006	19.997	100.530	20.022	2.123	0.510
1198.500	680.108	80.007	19.997	100.529	20.021	2.173	0.526
1199.000	680.342	80.005	19.996	100.528	20.021	2.165	0.514
1199.500	680.578	80.006	19.997	100.528	20.020	2.198	0.489
1200.001	680.883	80.007	19.996	100.528	20.018	2.368	0.506
1200.501	681.111	80.007	19.997	100.528	20.020	2.221	0.537
1201.000	681.373	80.006	19.996	100.529	20.019	2.290	0.512
1201.500	681.660	80.006	19.997	100.530	20.023	2.029	0.519
1202.000	681.880	80.007	19.997	100.530	20.020	2.200	0.528
1202.500	682.138	80.004	19.997	100.529	20.021	2.190	0.493
1203.001	682.409	80.006	19.996	100.529	20.018	2.339	0.504
1203.501	682.675	80.006	19.996	100.531	20.019	2.278	0.532
1204.000	682.930	80.007	19.995	100.535	20.017	2.427	0.529
1204.500	683.189	80.006	19.996	100.539	20.022	2.113	0.518
1205.000	683.446	80.005	19.996	100.543	20.021	2.158	0.515
1205.500	683.707	80.007	19.995	100.544	20.021	2.125	0.517
1206.000	683.982	80.007	19.997	100.549	20.018	2.351	0.527
1206.500	684.226	80.006	19.995	100.548	20.020	2.225	0.527
1207.001	684.495	80.006	19.997	100.550	20.018	2.341	0.516
1207.501	684.767	80.006	19.996	100.550	20.017	2.441	0.527
1208.000	685.006	80.006	19.996	100.553	20.021	2.142	0.526
1208.500	685.249	80.005	19.996	100.553	20.016	2.479	0.496
1209.001	685.535	80.007	19.997	100.556	20.021	2.177	0.506
1209.501	685.800	80.006	19.995	100.559	20.020	2.196	0.541
1210.000	686.054	80.005	19.996	100.564	20.019	2.270	0.535
1210.500	686.311	80.006	19.996	100.568	20.023	1.999	0.514
1211.000	686.583	80.005	19.995	100.569	20.021	2.135	0.520
1211.500	686.808	80.006	19.995	100.568	20.021	2.157	0.513
1212.001	687.063	80.006	19.995	100.568	20.020	2.234	0.489
1212.501	687.363	80.006	19.995	100.568	20.019	2.280	0.517
1213.000	687.628	80.005	19.996	100.568	20.021	2.171	0.560
1213.500	687.880	80.007	19.995	100.568	20.020	2.236	0.541
1214.000	688.138	80.006	19.995	100.570	20.018	2.399	0.514
1214.500	688.402	80.008	19.996	100.571	20.017	2.410	0.516
1215.000	688.684	80.004	19.996	100.570	20.020	2.196	0.533
1215.500	688.974	80.006	19.995	100.570	20.020	2.232	0.559
1216.000	689.230	80.006	19.995	100.571	20.020	2.253	0.559
1216.500	689.518	80.006	19.995	100.571	20.017	2.456	0.545
1217.000	689.748	80.005	19.995	100.572	20.016	2.477	0.531
1217.500	690.027	80.007	19.995	100.572	20.016	2.540	0.513
1218.000	690.260	80.005	19.995	100.572	20.016	2.510	0.510
1218.500	690.563	80.006	19.995	100.570	20.018	2.338	0.524
1219.000	690.827	80.006	19.996	100.570	20.017	2.450	0.552
1219.501	691.094	80.005	19.995	100.570	20.019	2.309	0.550
1220.001	691.348	80.005	19.996	100.569	20.018	2.345	0.526
1220.500	691.635	80.006	19.995	100.569	20.020	2.257	0.531
1221.000	691.857	80.005	19.996	100.570	20.015	2.571	0.525
1221.500	692.126	80.005	19.995	100.571	20.019	2.313	0.500
1222.000	692.404	80.005	19.996	100.569	20.014	2.630	0.518
1222.500	692.651	80.007	19.996	100.565	20.017	2.431	0.536
1223.000	692.911	80.005	19.996	100.565	20.017	2.416	0.516
1223.501	693.172	80.007	19.995	100.565	20.017	2.418	0.514
1224.001	693.421	80.005	19.995	100.564	20.016	2.518	0.516
1224.500	693.728	80.004	19.997	100.564	20.016	2.518	0.533
1225.000	693.973	80.005	19.995	100.566	20.014	2.678	0.553
1225.500	694.210	80.004	19.995	100.567	20.018	2.397	0.517
1226.000	694.496	80.005	19.996	100.568	20.017	2.425	0.503
1226.500	694.721	80.007	19.996	100.568	20.020	2.251	0.517
1227.000	695.021	80.005	19.996	100.570	20.018	2.343	0.518
1227.501	695.270	80.004	19.995	100.573	20.016	2.508	0.537
1228.001	695.540	80.004	19.996	100.573	20.016	2.487	0.534
1228.500	695.804	80.004	19.995	100.573	20.015	2.563	0.526
1229.001	696.083	80.005	19.996	100.574	20.018	2.404	0.538
1229.501	696.325	80.004	19.996	100.573	20.016	2.523	0.532
1230.000	696.566	80.006	19.996	100.571	20.019	2.334	0.502
1230.500	696.815	80.005	19.995	100.570	20.018	2.397	0.487
1231.000	697.071	80.006	19.995	100.569	20.017	2.472	0.497
1231.500	697.293	80.006	19.994	100.568	20.013	2.732	0.492
1232.000	697.581	80.006	19.995	100.568	20.014	2.642	0.494
1232.501	697.850	80.006	19.995	100.569	20.016	2.502	0.533
1233.001	698.093	80.007	19.996	100.570	20.016	2.485	0.535
1233.500	698.343	80.006	19.996	100.571	20.017	2.424	0.503
1234.000	698.610	80.007	19.995	100.572	20.013	2.715	0.505
1234.500	698.867	80.007	19.996	100.573	20.015	2.615	0.520
1235.000	699.088	80.006	19.994	100.575	20.012	2.776	0.501
1235.500	699.362	80.007	19.994	100.575	20.019	2.305	0.486
1236.000	699.590	80.007	19.995	100.574	20.014	2.625	0.498
1236.500	699.856	80.007	19.995	100.568	20.015	2.596	0.498
1237.000	700.096	80.007	19.994	100.564	20.014	2.640	0.500
1237.500	700.381	80.008	19.995	100.561	20.015	2.615	0.515
1238.000	700.628	80.008	19.995	100.559	20.015	2.586	0.529
1238.500	700.832	80.008	19.995	100.559	20.014	2.673	0.492
1239.000	701.078	80.007	19.995	100.564	20.016	2.496	0.451
1239.500	701.434	80.007	19.996	100.567	20.018	2.336	0.526
1240.000	701.627	80.008	19.996	100.569	20.017	2.458	0.575
1240.501	701.933	80.007	19.996	100.571	20.013	2.694	0.524
1241.001	702.115	80.008	19.995	100.571	20.016	2.493	0.494
1241.500	702.331	80.007	19.996	100.571	20.019	2.318	0.443
1242.000	702.612	80.009	19.995	100.571	20.016	2.525	0.448
1242.500	702.887	80.008	19.995	100.572	20.016	2.517	0.526
1243.000	703.138	80.009	19.995	100.572	20.017	2.449	0.540
1243.501	703.357	80.009	19.995	100.572	20.022	2.098	0.498
1244.001	703.644	80.008	19.994	100.572	20.019	2.292	0.488
1244.501	703.889	80.007	19.996	100.572	20.019	2.313	0.519
1245.001	704.150	80.006	19.995	100.572	20.017	2.435	0.519
1245.500	704.361	80.007	19.996	100.571	20.019	2.322	0.489
1246.000	704.618	80.006	19.997	100.571	20.018	2.353	0.469
1246.500	704.859	80.007	19.996	100.571	20.020	2.255	0.483
1247.000	705.112	80.006	19.997	100.570	20.014	2.682	0.497
1247.500	705.362	80.007	19.996	100.570	20.017	2.468	0.498
1248.000	705.612	80.007	19.995	100.570	20.015	2.583	0.501
1248.500	705.904	80.006	19.997	100.570	20.016	2.537	0.521
1249.000	706.103	80.007	19.996	100.571	20.018	2.349	0.517
1249.500	706.372	80.005	19.996	100.571	20.015	2.604	0.479
1250.000	706.619	80.007	19.995	100.571	20.014	2.627	0.492
1250.500	706.861	80.008	19.996	100.572	20.014	2.619	0.503
1251.000	707.083	80.009	19.996	100.571	20.017	2.468	0.477
1251.500	707.372	80.006	19.996	100.571	20.012	2.787	0.488
1252.000	707.618	80.007	19.996	100.571	20.014	2.648	0.523
1252.500	707.888	80.007	19.996	100.570	20.015	2.613	0.525
1253.000	708.122	80.006	19.996	100.570	20.014	2.686	0.510
1253.500	708.385	80.006	19.996	100.570	20.014	2.623	0.501
1254.000	708.652	80.006	19.995	100.570	20.014	2.682	0.514
1254.500	708.882	80.007	19.996	100.570	20.014	2.619	0.514
1255.001	709.114	80.008	19.995	100.570	20.009	3.040	0.479
1255.501	709.392	80.006	19.996	100.570	20.012	2.776	0.485
1256.000	709.578	80.007	19.996	100.570	20.014	2.682	0.487
1256.500	709.887	80.008	19.995	100.571	20.013	2.742	0.480
1257.000	710.137	80.008	19.995	100.571	20.012	2.826	0.527
1257.500	710.396	80.006	19.996	100.570	20.014	2.682	0.534
1258.001	710.634	80.007	19.995	100.572	20.014	2.676	0.503
1258.501	710.883	80.009	19.996	100.573	20.017	2.456	0.492
1259.001	711.091	80.008	19.997	100.573	20.018	2.361	0.472
1259.501	711.362	80.008	19.996	100.573	20.019	2.282	0.468
1260.000	711.602	80.008	19.997	100.574	20.016	2.518	0.495
1260.501	711.847	80.011	19.997	100.572	20.016	2.541	0.498
1261.001	712.093	80.008	19.996	100.572	20.013	2.746	0.488
1261.500	712.380	80.008	19.996	100.571	20.014	2.635	0.512
1262.000	712.592	80.009	19.997	100.571	20.014	2.669	0.516
1262.500	712.847	80.008	19.996	100.571	20.012	2.778	0.483
1263.000	713.086	80.009	19.996	100.572	20.010	2.941	0.480
1263.500	713.371	80.008	19.996	100.574	20.015	2.587	0.509
1264.000	713.557	80.008	19.997	100.575	20.013	2.740	0.498
1264.500	713.821	80.007	19.997	100.575	20.012	2.813	0.460
1265.000	714.090	80.009	19.996	100.575	20.017	2.432	0.492
1265.500	714.342	80.008	19.997	100.576	20.015	2.618	0.527
1266.000	714.559	80.008	19.996	100.573	20.013	2.731	0.495
1266.501	714.841	80.008	19.996	100.574	20.018	2.352	0.484
1267.001	715.039	80.007	19.995	100.577	20.009	3.034	0.489
1267.501	715.316	80.008	19.996	100.577	20.012	2.763	0.478
1268.000	715.540	80.007	19.996	100.577	20.016	2.513	0.488
1268.501	715.798	80.007	19.994	100.578	20.013	2.704	0.491
1269.001	716.052	80.007	19.996	100.576	20.009	3.024	0.497
1269.501	716.300	80.006	19.996	100.576	20.008	3.110	0.507
1270.000	716.574	80.007	19.995	100.580	20.006	3.230	0.512
1270.500	716.794	80.006	19.996	100.584	20.010	2.914	0.508
1271.000	717.041	80.007	19.996	100.587	20.006	3.196	0.481
1271.501	717.291	80.005	19.996	100.587	20.013	2.696	0.482
1272.001	717.604	80.005	19.995	100.585	20.013	2.754	0.530
1272.500	717.836	80.006	19.996	100.584	20.015	2.610	0.554
1273.000	718.095	80.006	19.995	100.581	20.013	2.714	0.518
1273.500	718.337	80.006	19.997	100.583	20.015	2.585	0.496
1274.000	718.596	80.005	19.995	100.591	20.013	2.754	0.501
1274.500	718.835	80.005	19.996	100.599	20.012	2.779	0.500
1275.001	719.073	80.005	19.995	100.604	20.017	2.453	0.487
1275.501	719.306	80.005	19.998	100.609	20.018	2.402	0.474
1276.000	719.548	80.005	19.995	100.611	20.013	2.721	0.473
1276.500	719.806	80.006	19.996	100.610	20.013	2.710	0.488
1277.000	720.034	80.005	19.997	100.609	20.011	2.844	0.493
1277.501	720.285	80.004	19.996	100.609	20.011	2.848	0.482
1278.001	720.531	80.005	19.996	100.610	20.010	2.944	0.488
1278.500	720.744	80.005	19.997	100.607	20.008	3.091	0.478
1279.000	720.998	80.005	19.996	100.603	20.013	2.727	0.463
1279.500	721.270	80.005	19.997	100.599	20.011	2.869	0.497
1280.000	721.449	80.005	19.996	100.595	20.008	3.068	0.489
1280.500	721.732	80.004	19.996	100.588	20.012	2.798	0.456
1281.000	722.001	80.005	19.995	100.585	20.010	2.934	0.507
1281.500	722.242	80.005	19.995	100.588	20.009	3.005	0.531
1282.000	722.474	80.004	19.998	100.592	20.008	3.104	0.492
1282.500	722.710	80.004	19.998	100.593	20.013	2.718	0.471
1283.000	722.946	80.004	19.997	100.598	20.010	2.963	0.470
1283.500	723.198	80.003	19.996	100.604	20.013	2.706	0.480
1284.000	723.435	80.006	19.998	100.606	20.011	2.892	0.488
1284.500	723.697	80.004	19.996	100.607	20.011	2.840	0.494
1285.001	723.941	80.003	19.996	100.610	20.010	2.965	0.503
1285.501	724.183	80.003	19.997	100.612	20.009	3.014	0.497
1286.000	724.459	80.004	19.997	100.612	20.011	2.877	0.502
1286.500	724.675	80.005	19.996	100.612	20.013	2.712	0.505
1287.000	724.957	80.005	19.997	100.611	20.009	2.986	0.495
1287.500	725.225	80.005	19.997	100.611	20.008	3.064	0.524
1288.000	725.453	80.006	19.997	100.611	20.010	2.946	0.523
1288.500	725.706	80.006	19.996	100.610	20.010	2.917	0.489
1289.000	725.939	80.005	19.997	100.610	20.012	2.804	0.483
1289.500	726.240	80.007	19.997	100.611	20.006	3.227	0.510
1290.000	726.430	80.005	19.997	100.612	20.007	3.131	0.512
1290.500	726.673	80.005	19.997	100.612	20.005	3.277	0.462
1291.000	726.921	80.005	19.996	100.612	20.007	3.177	0.462
1291.500	727.168	80.005	19.997	100.612	20.006	3.221	0.493
1292.000	727.429	80.003	19.997	100.612	20.010	2.946	0.502
1292.500	727.688	80.004	19.996	100.611	20.011	2.850	0.514
1293.001	727.921	80.004	19.995	100.611	20.010	2.911	0.506
1293.501	728.172	80.005	19.996	100.611	20.009	3.039	0.488
1294.000	728.427	80.007	19.998	100.612	20.003	3.421	0.495
1294.500	728.668	80.004	19.996	100.609	20.009	2.976	0.501
1295.000	728.911	80.006	19.995	100.609	20.011	2.848	0.490
1295.500	729.154	80.006	19.996	100.609	20.009	3.016	0.485
1296.000	729.438	80.005	19.997	100.609	20.007	3.175	0.506
1296.500	729.686	80.005	19.995	100.609	20.007	3.112	0.529
1297.000	729.935	80.006	19.996	100.611	20.007	3.129	0.515
1297.500	730.177	80.006	19.997	100.612	20.009	3.009	0.494
1298.000	730.420	80.005	19.997	100.614	20.007	3.128	0.488
1298.500	730.652	80.004	19.995	100.614	20.004	3.331	0.480
1299.000	730.903	80.005	19.994	100.615	20.003	3.417	0.479
1299.500	731.156	80.005	19.995	100.615	20.003	3.431	0.494
1300.000	731.446	80.005	19.995	100.614	20.009	2.983	0.524
1300.500	731.666	80.006	19.995	100.614	20.011	2.871	0.526
1301.000	731.899	80.007	19.995	100.614	20.006	3.214	0.481
1301.501	732.190	80.007	19.995	100.614	20.005	3.314	0.488
1302.001	732.416	80.005	19.995	100.613	20.007	3.160	0.521
1302.501	732.660	80.004	19.995	100.613	20.005	3.295	0.494
1303.000	732.911	80.006	19.996	100.613	20.008	3.093	0.482
1303.500	733.116	80.006	19.995	100.613	20.002	3.513	0.476
1304.000	733.375	80.005	19.994	100.612	20.006	3.187	0.460
1304.500	733.607	80.004	19.995	100.612	20.003	3.457	0.478
1305.000	733.885	80.006	19.995	100.612	20.002	3.478	0.500
1305.501	734.148	80.005	19.996	100.611	20.007	3.141	0.525
1306.001	734.401	80.006	19.996	100.611	20.007	3.130	0.528
1306.500	734.631	80.006	19.995	100.611	20.009	2.994	0.499
1307.000	734.863	80.006	19.995	100.611	20.006	3.250	0.473
1307.500	735.137	80.006	19.996	100.612	20.006	3.210	0.484
1308.000	735.374	80.007	19.995	100.613	20.006	3.203	0.508
1308.500	735.619	80.005	19.996	100.614	20.007	3.128	0.497
1309.000	735.840	80.005	19.996	100.618	20.004	3.371	0.474
1309.500	736.114	80.006	19.996	100.624	20.007	3.128	0.480
1310.000	736.340	80.005	19.995	100.628	20.003	3.407	0.497
1310.500	736.612	80.007	19.995	100.632	20.004	3.335	0.499
1311.000	736.849	80.006	19.995	100.632	20.003	3.398	0.504
1311.500	737.095	80.007	19.996	100.628	20.006	3.250	0.496
1312.001	737.344	80.007	19.996	100.624	20.005	3.291	0.489
1312.501	737.582	80.008	19.995	100.622	20.007	3.112	0.491
1313.000	737.844	80.006	19.995	100.623	20.006	3.244	0.494
1313.501	738.094	80.007	19.995	100.627	20.008	3.087	0.506
1314.001	738.310	80.008	19.996	100.626	20.007	3.162	0.489
1314.501	738.604	80.008	19.995	100.625	20.003	3.419	0.488
1315.001	738.818	80.008	19.996	100.622	20.006	3.239	0.509
1315.501	739.061	80.006	19.995	100.618	20.004	3.354	0.483
1316.001	739.337	80.006	19.996	100.613	20.007	3.172	0.488
1316.501	739.556	80.006	19.996	100.613	20.008	3.094	0.507
1317.000	739.830	80.007	19.996	100.618	20.005	3.256	0.494
1317.500	740.066	80.008	19.996	100.620	20.006	3.218	0.501
1318.001	740.309	80.007	19.996	100.621	20.002	3.472	0.494
1318.501	740.560	80.008	19.996	100.623	20.006	3.250	0.486
1319.000	740.796	80.009	19.996	100.626	20.010	2.961	0.491
1319.500	741.008	80.008	19.996	100.622	20.006	3.231	0.468
1320.000	741.296	80.007	19.996	100.619	20.007	3.114	0.474
1320.500	741.560	80.008	19.995	100.617	20.009	3.001	0.526
1321.001	741.795	80.006	19.996	100.618	20.009	3.026	0.525
1321.501	742.041	80.006	19.995	100.620	20.009	3.003	0.490
1322.001	742.286	80.007	19.995	100.619	20.008	3.078	0.486
1322.501	742.551	80.008	19.996	100.620	20.004	3.377	0.500
1323.000	742.787	80.008	19.994	100.621	20.004	3.350	0.505
1323.500	743.037	80.006	19.995	100.619	20.005	3.278	0.493
1324.000	743.269	80.007	19.995	100.615	20.008	3.086	0.484
1324.500	743.508	80.007	19.997	100.613	20.006	3.243	0.477
