Sample ID:	C:\MCC\MCC Cal\Test\LDPE_MCC_30K_min_210922_R1.txt
Sample Weight (mg):	4.13
Heating Rate (C/s):	0.5
Combustor Temp (C):	900
N2 Flow Rate (cc/min):	80
O2 Flow Rate (cc/min):	20
Calibration File:	C:\MCC\MCC Cal\Coeff1 JN10440_30_210304.txt.txt
T Correction Coefficients:	0	1.024463	0
Time Shift (s):	14
*
Time (s)	Temperature (C)	N2 flow rate (cc/min)	O2 flow rate (cc/min)	Flow Rate (cc/min)	Oxygen (%)	HRR (W/g)	Heating rate (C/s)
0.000	106.790	80.007	19.997	100.182	20.065	-0.275	0.007
0.500	106.787	80.006	19.995	100.182	20.069	-0.621	0.007
1.000	106.814	80.005	19.996	100.182	20.062	-0.074	0.014
1.500	106.822	80.008	19.995	100.182	20.065	-0.265	0.030
2.000	106.793	80.005	19.994	100.181	20.064	-0.251	0.007
2.500	106.837	80.009	19.995	100.181	20.067	-0.438	-0.003
3.000	106.811	80.005	19.995	100.180	20.064	-0.222	0.016
3.500	106.811	80.006	19.995	100.180	20.065	-0.280	-0.004
4.000	106.808	80.004	19.995	100.180	20.067	-0.454	-0.014
4.500	106.796	80.006	19.997	100.180	20.066	-0.358	-0.009
5.000	106.819	80.005	19.998	100.179	20.065	-0.310	-0.002
5.500	106.789	80.006	19.997	100.180	20.064	-0.261	0.002
6.000	106.795	80.005	19.996	100.180	20.066	-0.372	-0.016
6.500	106.781	80.006	19.995	100.180	20.063	-0.117	-0.016
7.000	106.826	80.005	19.996	100.182	20.065	-0.300	0.012
7.500	106.824	80.005	19.996	100.188	20.063	-0.187	0.037
8.000	106.777	80.004	19.996	100.192	20.063	-0.117	-0.003
8.500	106.751	80.003	19.996	100.196	20.064	-0.195	-0.061
9.000	106.802	80.004	19.996	100.202	20.062	-0.066	-0.024
9.500	106.806	80.004	19.997	100.208	20.063	-0.128	0.040
10.000	106.827	80.003	19.997	100.210	20.061	-0.021	0.040
10.501	106.819	80.005	19.997	100.212	20.061	-0.021	0.019
11.001	106.835	80.004	19.996	100.216	20.060	0.097	0.011
11.501	106.797	80.003	19.997	100.218	20.057	0.274	-0.007
12.000	106.840	80.005	19.997	100.217	20.058	0.251	-0.009
12.500	106.794	80.004	19.996	100.216	20.062	-0.074	0.001
13.000	106.837	80.004	19.996	100.216	20.057	0.313	-0.003
13.500	106.839	80.003	20.000	100.216	20.055	0.473	0.021
14.000	106.820	80.005	19.997	100.217	20.056	0.368	0.014
14.500	106.852	80.004	19.996	100.221	20.056	0.412	-0.002
15.000	106.853	80.005	19.996	100.229	20.056	0.372	0.023
15.501	106.909	80.005	19.996	100.239	20.054	0.510	0.045
16.001	106.825	80.004	19.997	100.247	20.051	0.745	0.015
16.500	106.857	80.004	19.995	100.254	20.054	0.560	-0.040
17.000	106.921	80.005	19.996	100.261	20.054	0.545	0.022
17.501	106.893	80.006	19.997	100.267	20.052	0.675	0.066
18.001	106.953	80.004	19.996	100.268	20.053	0.624	0.034
18.501	106.938	80.006	19.995	100.270	20.052	0.708	0.038
19.000	106.911	80.006	19.994	100.275	20.051	0.749	0.001
19.500	106.941	80.005	19.994	100.278	20.051	0.757	-0.019
20.000	106.974	80.006	19.995	100.274	20.049	0.945	0.033
20.500	107.022	80.005	19.996	100.277	20.048	0.988	0.071
21.000	106.997	80.007	19.995	100.279	20.049	0.920	0.052
21.500	107.032	80.005	19.995	100.281	20.046	1.134	0.017
22.000	107.084	80.005	19.994	100.284	20.048	1.023	0.048
22.500	107.029	80.005	19.995	100.293	20.047	1.035	0.042
23.000	107.042	80.005	19.997	100.298	20.045	1.231	-0.022
23.500	107.166	80.007	19.995	100.303	20.043	1.356	0.047
24.001	107.111	80.005	19.997	100.309	20.041	1.488	0.102
24.501	107.164	80.005	19.994	100.311	20.039	1.649	0.033
25.000	107.194	80.007	19.994	100.314	20.043	1.402	0.041
25.500	107.266	80.006	19.994	100.320	20.041	1.486	0.093
26.000	107.246	80.007	19.995	100.326	20.043	1.340	0.077
26.500	107.324	80.007	19.995	100.330	20.038	1.735	0.055
27.001	107.358	80.007	19.995	100.335	20.040	1.601	0.085
27.501	107.424	80.007	19.995	100.339	20.042	1.420	0.106
28.000	107.360	80.006	19.994	100.340	20.040	1.574	0.051
28.500	107.498	80.007	19.994	100.340	20.039	1.634	0.037
29.000	107.514	80.006	19.992	100.340	20.037	1.819	0.114
29.500	107.595	80.006	19.994	100.341	20.038	1.760	0.126
30.000	107.596	80.005	19.994	100.341	20.038	1.741	0.090
30.500	107.657	80.006	19.994	100.341	20.036	1.906	0.072
31.000	107.761	80.005	19.994	100.342	20.035	2.007	0.113
31.500	107.765	80.006	19.995	100.342	20.035	1.948	0.137
32.000	107.789	80.005	19.992	100.342	20.033	2.156	0.068
32.500	107.907	80.004	19.996	100.344	20.034	2.030	0.085
33.000	107.929	80.005	19.994	100.346	20.035	1.989	0.141
33.501	108.014	80.005	19.994	100.352	20.036	1.884	0.123
34.001	108.081	80.004	19.996	100.355	20.035	1.952	0.130
34.500	108.126	80.003	19.995	100.359	20.033	2.139	0.132
35.000	108.185	80.003	19.996	100.365	20.033	2.158	0.108
35.500	108.262	80.004	19.994	100.367	20.034	2.053	0.120
36.000	108.327	80.004	19.999	100.360	20.034	2.057	0.139
36.500	108.400	80.003	19.996	100.357	20.034	2.077	0.140
37.000	108.454	80.003	19.995	100.355	20.035	2.005	0.133
37.500	108.532	80.002	19.996	100.348	20.032	2.189	0.129
38.001	108.569	80.003	19.995	100.347	20.033	2.141	0.123
38.501	108.673	80.003	19.995	100.347	20.031	2.263	0.128
39.000	108.734	80.004	19.995	100.347	20.030	2.341	0.153
39.501	108.839	80.003	19.996	100.347	20.030	2.387	0.165
40.001	108.908	80.003	19.995	100.348	20.031	2.306	0.170
40.500	108.967	80.004	19.995	100.351	20.031	2.278	0.151
41.001	109.096	80.004	19.996	100.358	20.030	2.362	0.158
41.501	109.183	80.005	19.997	100.366	20.028	2.527	0.202
42.001	109.231	80.003	19.996	100.371	20.028	2.510	0.175
42.501	109.371	80.005	19.996	100.376	20.027	2.591	0.161
43.000	109.447	80.003	19.992	100.377	20.030	2.368	0.202
43.500	109.477	80.004	19.994	100.377	20.025	2.729	0.161
44.000	109.600	80.004	19.995	100.377	20.028	2.488	0.130
44.500	109.674	80.004	19.996	100.377	20.023	2.904	0.175
45.000	109.773	80.004	19.995	100.377	20.021	3.030	0.185
45.500	109.826	80.003	19.995	100.378	20.025	2.731	0.162
46.000	109.932	80.004	19.997	100.378	20.023	2.867	0.155
46.500	109.988	80.005	19.995	100.380	20.022	2.952	0.160
47.000	110.110	80.004	19.994	100.381	20.019	3.199	0.171
47.500	110.230	80.005	19.997	100.382	20.018	3.240	0.211
48.000	110.347	80.003	19.995	100.381	20.016	3.401	0.239
48.500	110.418	80.005	19.995	100.385	20.019	3.162	0.212
49.000	110.557	80.004	19.995	100.384	20.019	3.201	0.199
49.500	110.656	80.004	19.996	100.388	20.018	3.300	0.224
50.000	110.762	80.005	19.995	100.395	20.016	3.451	0.221
50.500	110.872	80.003	19.995	100.402	20.014	3.560	0.210
51.001	110.991	80.004	19.996	100.406	20.015	3.507	0.223
51.501	111.090	80.004	19.993	100.409	20.016	3.422	0.224
52.001	111.208	80.004	19.995	100.409	20.014	3.571	0.218
52.500	111.260	80.005	19.996	100.410	20.020	3.138	0.193
53.000	111.382	80.005	19.996	100.411	20.018	3.243	0.172
53.500	111.546	80.004	19.996	100.411	20.017	3.321	0.231
54.000	111.659	80.005	19.994	100.416	20.015	3.480	0.282
54.500	111.783	80.004	19.995	100.419	20.011	3.779	0.257
55.000	111.892	80.004	19.995	100.420	20.018	3.245	0.235
55.501	112.002	80.004	19.995	100.420	20.019	3.195	0.226
56.001	112.138	80.005	19.994	100.420	20.018	3.245	0.232
56.500	112.257	80.005	19.994	100.419	20.015	3.473	0.250
57.000	112.364	80.005	19.996	100.419	20.019	3.216	0.241
57.500	112.508	80.006	19.995	100.426	20.017	3.329	0.239
58.000	112.639	80.005	19.997	100.434	20.018	3.288	0.263
58.500	112.733	80.004	19.994	100.438	20.018	3.239	0.250
59.000	112.886	80.006	19.997	100.442	20.017	3.354	0.236
59.501	113.042	80.006	19.995	100.448	20.016	3.391	0.277
60.001	113.185	80.005	19.995	100.445	20.015	3.473	0.304
60.500	113.232	80.005	19.992	100.444	20.014	3.551	0.245
61.001	113.408	80.005	19.997	100.448	20.014	3.534	0.207
61.501	113.539	80.005	19.997	100.451	20.014	3.570	0.265
62.000	113.669	80.004	19.994	100.453	20.009	3.984	0.284
62.500	113.849	80.004	19.997	100.455	20.012	3.704	0.286
63.000	113.987	80.003	19.994	100.457	20.013	3.670	0.314
63.500	114.129	80.004	19.995	100.457	20.012	3.740	0.299
64.000	114.254	80.004	19.994	100.455	20.012	3.694	0.274
64.500	114.373	80.004	19.996	100.455	20.013	3.616	0.255
65.000	114.581	80.003	19.996	100.453	20.008	4.007	0.285
65.500	114.801	80.004	19.996	100.451	20.011	3.791	0.378
66.000	114.890	80.003	19.996	100.446	20.009	3.939	0.369
66.500	115.042	80.004	19.996	100.445	20.011	3.762	0.275
67.000	115.315	80.004	19.996	100.442	20.014	3.587	0.332
67.500	115.352	80.003	19.995	100.441	20.011	3.812	0.367
68.000	115.545	80.003	19.995	100.442	20.010	3.847	0.270
68.500	115.665	80.005	19.995	100.451	20.010	3.894	0.272
69.000	115.900	80.003	19.996	100.450	20.014	3.544	0.334
69.500	116.023	80.003	19.995	100.445	20.009	3.952	0.356
70.000	116.382	80.004	19.994	100.440	20.010	3.904	0.420
70.500	116.414	80.004	19.994	100.433	20.011	3.783	0.437
71.000	116.568	80.005	19.995	100.421	20.007	4.086	0.289
71.501	116.724	80.003	19.996	100.419	20.007	4.088	0.248
72.001	116.936	80.005	19.996	100.422	20.009	3.927	0.339
72.500	117.032	80.004	19.997	100.435	20.013	3.622	0.338
73.000	117.268	80.004	19.996	100.445	20.008	4.036	0.320
73.501	117.399	80.005	19.997	100.453	20.010	3.836	0.350
74.001	117.609	80.004	19.995	100.459	20.015	3.529	0.354
74.500	117.790	80.005	19.996	100.461	20.010	3.909	0.366
75.001	117.952	80.004	19.997	100.452	20.011	3.771	0.367
75.501	118.144	80.004	19.997	100.447	20.010	3.878	0.348
76.000	118.308	80.004	19.996	100.447	20.015	3.519	0.355
76.500	118.426	80.004	19.998	100.448	20.013	3.639	0.319
77.000	118.702	80.004	19.996	100.450	20.014	3.585	0.338
77.500	118.805	80.004	19.996	100.456	20.013	3.680	0.386
78.001	119.030	80.005	19.995	100.456	20.014	3.558	0.354
78.501	119.247	80.005	19.994	100.457	20.013	3.674	0.385
79.000	119.367	80.005	19.994	100.457	20.013	3.657	0.389
79.500	119.586	80.004	19.996	100.457	20.015	3.494	0.339
80.001	119.767	80.005	19.995	100.455	20.011	3.787	0.370
80.501	119.950	80.007	19.997	100.456	20.014	3.545	0.381
81.001	120.140	80.006	19.996	100.456	20.011	3.776	0.368
81.500	120.309	80.005	19.996	100.456	20.015	3.465	0.366
82.000	120.555	80.005	19.995	100.456	20.014	3.541	0.387
82.500	120.717	80.006	19.996	100.457	20.016	3.434	0.412
83.000	120.942	80.006	19.995	100.457	20.015	3.517	0.398
83.500	121.062	80.005	19.996	100.457	20.015	3.467	0.366
84.000	121.303	80.006	19.996	100.458	20.016	3.379	0.353
84.500	121.469	80.006	19.996	100.457	20.014	3.571	0.384
85.000	121.719	80.005	19.993	100.458	20.016	3.422	0.412
85.500	121.836	80.006	19.996	100.458	20.018	3.288	0.392
86.000	122.105	80.007	19.995	100.458	20.017	3.352	0.376
86.500	122.397	80.006	19.995	100.458	20.016	3.439	0.473
87.000	122.437	80.006	19.993	100.459	20.013	3.657	0.446
87.500	122.723	80.005	19.995	100.460	20.014	3.552	0.329
88.000	123.006	80.005	19.996	100.461	20.015	3.523	0.447
88.500	123.109	80.005	19.994	100.461	20.012	3.717	0.477
89.000	123.334	80.005	19.995	100.461	20.012	3.699	0.357
89.500	123.563	80.004	19.996	100.459	20.013	3.614	0.391
90.000	123.698	80.005	19.995	100.454	20.014	3.585	0.409
90.500	123.990	80.007	19.995	100.448	20.016	3.393	0.395
91.000	124.124	80.004	19.997	100.445	20.015	3.503	0.427
91.500	124.327	80.004	19.997	100.441	20.015	3.521	0.382
92.000	124.538	80.005	19.996	100.439	20.015	3.503	0.375
92.500	124.759	80.004	19.995	100.441	20.015	3.467	0.423
93.001	124.987	80.006	19.996	100.445	20.015	3.498	0.440
93.501	125.147	80.004	19.997	100.447	20.016	3.438	0.418
94.000	125.361	80.004	19.995	100.447	20.015	3.487	0.381
94.501	125.581	80.005	19.996	100.450	20.016	3.411	0.404
95.001	125.772	80.005	19.996	100.452	20.015	3.504	0.423
95.500	126.020	80.004	19.997	100.452	20.017	3.329	0.425
96.000	126.204	80.006	19.995	100.454	20.017	3.373	0.435
96.500	126.451	80.005	19.995	100.457	20.017	3.371	0.432
97.000	126.655	80.004	19.995	100.458	20.015	3.506	0.441
97.500	126.845	80.004	19.995	100.458	20.017	3.376	0.423
98.001	127.071	80.005	19.994	100.459	20.016	3.449	0.405
98.501	127.251	80.004	19.994	100.460	20.015	3.492	0.411
99.000	127.461	80.003	19.993	100.460	20.013	3.651	0.398
99.501	127.699	80.004	19.996	100.460	20.019	3.208	0.419
100.001	127.909	80.004	19.996	100.459	20.016	3.416	0.448
100.501	128.130	80.005	19.997	100.459	20.016	3.385	0.439
101.000	128.358	80.004	19.996	100.455	20.015	3.463	0.440
101.500	128.560	80.004	19.996	100.456	20.015	3.525	0.439
102.000	128.780	80.004	19.997	100.456	20.016	3.438	0.426
102.501	128.998	80.005	19.995	100.455	20.018	3.253	0.431
103.001	129.201	80.004	19.995	100.452	20.016	3.424	0.429
103.501	129.428	80.003	19.997	100.447	20.016	3.414	0.426
104.001	129.649	80.006	19.995	100.440	20.016	3.402	0.439
104.500	129.897	80.006	19.996	100.435	20.013	3.608	0.459
105.001	130.091	80.005	19.995	100.430	20.013	3.655	0.455
105.501	130.293	80.005	19.996	100.431	20.016	3.385	0.419
106.000	130.535	80.005	19.996	100.438	20.018	3.272	0.420
106.500	130.736	80.006	19.995	100.445	20.013	3.657	0.443
107.000	130.973	80.006	19.994	100.449	20.015	3.500	0.440
107.500	131.201	80.006	19.997	100.449	20.014	3.544	0.452
108.000	131.441	80.007	19.996	100.445	20.017	3.377	0.467
108.500	131.662	80.006	19.996	100.442	20.016	3.439	0.465
109.000	131.857	80.007	19.997	100.441	20.018	3.243	0.438
109.500	132.113	80.005	19.998	100.441	20.018	3.288	0.433
110.000	132.353	80.007	19.996	100.445	20.015	3.459	0.474
110.501	132.567	80.004	19.996	100.451	20.014	3.560	0.475
111.001	132.779	80.006	19.995	100.450	20.015	3.488	0.440
111.500	132.993	80.006	19.995	100.445	20.013	3.626	0.426
112.000	133.255	80.006	19.996	100.440	20.013	3.651	0.451
112.500	133.459	80.006	19.995	100.439	20.015	3.486	0.471
113.000	133.678	80.006	19.995	100.438	20.012	3.690	0.444
113.500	133.887	80.006	19.996	100.441	20.014	3.585	0.425
114.000	134.148	80.005	19.995	100.447	20.013	3.614	0.449
114.500	134.401	80.004	19.995	100.452	20.015	3.498	0.492
115.000	134.596	80.004	19.995	100.453	20.015	3.478	0.481
115.500	134.808	80.005	19.997	100.455	20.014	3.543	0.428
116.001	135.018	80.004	19.994	100.455	20.014	3.543	0.415
116.501	135.305	80.004	19.996	100.454	20.012	3.718	0.459
117.000	135.494	80.004	19.995	100.455	20.016	3.399	0.486
117.500	135.698	80.003	19.995	100.455	20.014	3.599	0.434
118.001	135.994	80.003	19.995	100.453	20.014	3.580	0.446
118.501	136.193	80.004	19.996	100.453	20.015	3.471	0.497
119.000	136.450	80.006	19.994	100.453	20.014	3.554	0.476
119.500	136.667	80.004	19.994	100.453	20.015	3.468	0.465
120.000	136.904	80.004	19.996	100.451	20.012	3.684	0.464
120.500	137.157	80.005	19.994	100.448	20.017	3.354	0.472
121.000	137.354	80.004	19.993	100.443	20.013	3.645	0.470
121.500	137.663	80.004	19.996	100.440	20.012	3.721	0.478
122.000	137.891	80.003	19.997	100.438	20.013	3.616	0.522
122.500	138.095	80.004	19.996	100.439	20.013	3.628	0.485
123.000	138.360	80.003	19.997	100.444	20.014	3.593	0.451
123.500	138.611	80.003	19.995	100.449	20.016	3.408	0.492
124.000	138.822	80.002	19.996	100.452	20.015	3.521	0.489
124.501	139.068	80.004	19.996	100.455	20.012	3.696	0.460
125.001	139.275	80.004	19.996	100.455	20.014	3.545	0.455
125.501	139.519	80.004	19.997	100.454	20.015	3.525	0.452
126.000	139.755	80.003	19.997	100.451	20.013	3.644	0.465
126.500	139.974	80.003	19.996	100.445	20.013	3.677	0.468
127.000	140.214	80.004	19.994	100.439	20.015	3.498	0.458
127.500	140.476	80.003	19.994	100.438	20.011	3.791	0.481
128.000	140.700	80.003	19.992	100.435	20.017	3.372	0.494
128.500	140.902	80.003	19.996	100.438	20.012	3.747	0.456
129.000	141.178	80.004	19.994	100.443	20.013	3.609	0.452
129.500	141.440	80.003	19.995	100.447	20.015	3.524	0.508
130.000	141.680	80.003	19.994	100.449	20.013	3.677	0.520
130.500	141.900	80.004	19.996	100.453	20.013	3.644	0.481
131.000	142.148	80.004	19.994	100.452	20.012	3.714	0.465
131.500	142.421	80.004	19.997	100.450	20.014	3.543	0.495
132.000	142.629	80.004	19.996	100.448	20.016	3.436	0.500
132.500	142.875	80.004	19.997	100.444	20.016	3.426	0.467
133.000	143.111	80.004	19.995	100.444	20.013	3.657	0.469
133.500	143.409	80.005	19.997	100.444	20.015	3.463	0.508
134.000	143.635	80.005	19.995	100.445	20.014	3.552	0.529
134.500	143.867	80.004	19.995	100.445	20.010	3.855	0.491
135.000	144.104	80.004	19.994	100.444	20.014	3.535	0.463
135.500	144.374	80.004	19.996	100.442	20.015	3.496	0.488
136.000	144.601	80.004	19.994	100.442	20.015	3.496	0.503
136.500	144.862	80.004	19.994	100.443	20.015	3.522	0.493
137.000	145.093	80.004	19.995	100.446	20.015	3.496	0.490
137.500	145.344	80.003	19.993	100.446	20.018	3.271	0.487
138.000	145.605	80.005	19.995	100.443	20.016	3.403	0.496
138.500	145.854	80.004	19.995	100.441	20.016	3.399	0.511
139.000	146.055	80.004	19.996	100.438	20.018	3.275	0.480
139.500	146.324	80.003	19.996	100.432	20.014	3.559	0.461
140.000	146.586	80.004	19.995	100.432	20.015	3.475	0.500
140.500	146.807	80.004	19.995	100.430	20.016	3.405	0.507
141.000	147.021	80.005	19.995	100.428	20.016	3.450	0.459
141.500	147.284	80.003	19.995	100.430	20.016	3.434	0.456
142.000	147.545	80.003	19.994	100.437	20.018	3.261	0.501
142.500	147.792	80.003	19.995	100.439	20.017	3.337	0.516
143.000	148.033	80.003	19.992	100.438	20.016	3.446	0.498
143.500	148.269	80.002	19.996	100.439	20.016	3.420	0.482
144.000	148.521	80.004	19.996	100.441	20.018	3.294	0.482
144.500	148.753	80.003	19.996	100.441	20.020	3.121	0.486
145.000	149.000	80.004	19.994	100.444	20.021	3.049	0.482
145.500	149.270	80.004	19.995	100.448	20.020	3.079	0.498
146.000	149.526	80.003	19.996	100.446	20.019	3.168	0.522
146.500	149.756	80.003	19.995	100.440	20.019	3.170	0.506
147.000	150.034	80.002	19.995	100.435	20.021	3.065	0.497
147.500	150.263	80.004	19.996	100.432	20.018	3.236	0.507
148.000	150.521	80.004	19.996	100.430	20.019	3.221	0.497
148.500	150.775	80.003	19.994	100.431	20.019	3.168	0.499
149.000	151.002	80.003	19.994	100.433	20.016	3.384	0.497
149.500	151.270	80.003	19.996	100.431	20.017	3.361	0.488
150.000	151.507	80.003	19.994	100.430	20.020	3.131	0.500
150.500	151.754	80.003	19.996	100.429	20.018	3.267	0.495
151.000	152.034	80.002	19.995	100.426	20.015	3.489	0.505
151.500	152.220	80.004	19.995	100.423	20.020	3.135	0.496
152.000	152.500	80.004	19.996	100.426	20.018	3.269	0.466
152.500	152.754	80.004	19.995	100.429	20.016	3.401	0.500
153.000	153.011	80.003	19.995	100.432	20.018	3.234	0.522
153.500	153.294	80.004	19.995	100.437	20.016	3.384	0.525
154.000	153.486	80.003	19.995	100.440	20.019	3.205	0.508
154.500	153.753	80.004	19.995	100.438	20.018	3.277	0.467
155.000	153.987	80.003	19.995	100.433	20.020	3.131	0.480
155.500	154.261	80.005	19.994	100.434	20.019	3.191	0.504
156.000	154.490	80.004	19.996	100.431	20.018	3.283	0.505
156.500	154.751	80.003	19.994	100.430	20.019	3.195	0.496
157.000	154.978	80.004	19.996	100.430	20.018	3.265	0.489
157.500	155.237	80.005	19.994	100.430	20.020	3.116	0.487
158.000	155.479	80.005	19.996	100.427	20.016	3.448	0.493
158.500	155.742	80.002	19.995	100.424	20.017	3.335	0.503
159.000	155.945	80.005	19.994	100.422	20.018	3.254	0.486
159.500	156.251	80.004	19.995	100.421	20.016	3.431	0.487
160.000	156.480	80.005	19.994	100.420	20.017	3.345	0.522
160.500	156.733	80.004	19.995	100.421	20.016	3.409	0.509
161.000	157.004	80.006	19.995	100.421	20.016	3.407	0.503
161.500	157.224	80.004	19.994	100.421	20.015	3.493	0.507
162.000	157.481	80.005	19.995	100.421	20.015	3.528	0.484
162.500	157.734	80.006	19.995	100.421	20.015	3.489	0.494
163.000	157.945	80.006	19.995	100.421	20.016	3.444	0.487
163.500	158.207	80.005	19.994	100.421	20.015	3.462	0.468
164.000	158.507	80.005	19.995	100.421	20.014	3.584	0.518
164.500	158.739	80.005	19.995	100.421	20.018	3.298	0.547
165.001	158.966	80.005	19.992	100.423	20.018	3.294	0.495
165.500	159.229	80.004	19.997	100.424	20.016	3.394	0.474
166.000	159.500	80.006	19.995	100.425	20.018	3.300	0.512
166.500	159.733	80.006	19.993	100.428	20.018	3.248	0.519
167.000	159.995	80.005	19.996	100.429	20.019	3.207	0.500
167.500	160.211	80.006	19.995	100.429	20.018	3.273	0.487
168.000	160.480	80.006	19.995	100.429	20.019	3.221	0.481
168.500	160.719	80.006	19.994	100.428	20.018	3.250	0.496
169.000	160.974	80.006	19.996	100.425	20.023	2.910	0.502
169.500	161.237	80.005	19.995	100.425	20.020	3.145	0.506
170.000	161.453	80.004	19.995	100.423	20.017	3.304	0.498
170.500	161.717	80.005	19.995	100.422	20.022	2.968	0.479
171.000	161.979	80.004	19.996	100.422	20.018	3.275	0.503
171.500	162.221	80.006	19.996	100.422	20.019	3.196	0.515
172.000	162.436	80.006	19.995	100.420	20.017	3.324	0.481
172.500	162.710	80.004	19.996	100.419	20.020	3.139	0.473
173.000	162.958	80.004	19.995	100.419	20.016	3.400	0.505
173.500	163.220	80.005	19.995	100.419	20.019	3.180	0.516
174.000	163.445	80.005	19.997	100.418	20.022	2.953	0.498
174.500	163.708	80.006	19.996	100.418	20.017	3.302	0.488
175.000	163.910	80.005	19.995	100.418	20.020	3.081	0.476
175.500	164.242	80.006	19.996	100.423	20.021	3.046	0.499
176.000	164.472	80.005	19.996	100.425	20.020	3.141	0.548
176.500	164.710	80.007	19.995	100.425	20.021	3.073	0.515
177.000	164.966	80.005	19.997	100.425	20.022	2.953	0.481
177.500	165.229	80.005	19.995	100.424	20.021	3.030	0.507
178.000	165.467	80.006	19.995	100.418	20.020	3.100	0.511
178.500	165.724	80.005	19.997	100.416	20.024	2.842	0.498
179.000	165.992	80.004	19.996	100.416	20.024	2.782	0.510
179.500	166.246	80.005	19.995	100.416	20.021	2.999	0.524
180.000	166.501	80.006	19.996	100.418	20.021	3.056	0.515
180.500	166.741	80.006	19.997	100.418	20.025	2.758	0.502
181.000	167.033	80.005	19.996	100.419	20.024	2.834	0.514
181.500	167.249	80.007	19.996	100.420	20.023	2.890	0.520
182.000	167.490	80.004	19.995	100.419	20.023	2.890	0.482
182.500	167.762	80.006	19.997	100.416	20.024	2.828	0.484
183.000	167.994	80.005	19.995	100.416	20.026	2.688	0.509
183.501	168.280	80.005	19.995	100.415	20.024	2.832	0.511
184.000	168.500	80.007	19.996	100.415	20.024	2.791	0.512
184.500	168.767	80.006	19.995	100.416	20.027	2.615	0.496
185.000	168.981	80.006	19.995	100.416	20.025	2.757	0.484
185.500	169.248	80.006	19.996	100.417	20.026	2.628	0.481
186.000	169.508	80.007	19.995	100.417	20.025	2.702	0.504
186.500	169.726	80.007	19.994	100.417	20.024	2.803	0.502
187.000	170.018	80.008	19.995	100.417	20.025	2.766	0.494
187.500	170.294	80.007	19.995	100.417	20.026	2.667	0.539
188.000	170.521	80.007	19.995	100.416	20.025	2.700	0.536
188.500	170.791	80.006	19.995	100.416	20.025	2.733	0.500
189.000	171.021	80.007	19.996	100.416	20.025	2.706	0.499
189.500	171.312	80.007	19.995	100.416	20.025	2.737	0.511
190.000	171.581	80.007	19.994	100.416	20.028	2.533	0.540
190.500	171.777	80.007	19.995	100.415	20.027	2.549	0.512
191.000	172.053	80.007	19.994	100.415	20.025	2.737	0.468
191.500	172.304	80.007	19.995	100.415	20.024	2.819	0.500
192.000	172.582	80.006	19.995	100.414	20.027	2.609	0.528
192.500	172.864	80.007	19.995	100.414	20.028	2.514	0.544
193.000	173.092	80.006	19.994	100.414	20.023	2.877	0.535
193.500	173.311	80.006	19.995	100.412	20.024	2.833	0.479
194.000	173.550	80.006	19.995	100.410	20.027	2.611	0.453
194.500	173.833	80.006	19.995	100.410	20.025	2.747	0.490
195.000	174.055	80.006	19.995	100.408	20.027	2.599	0.513
195.500	174.317	80.006	19.995	100.407	20.025	2.747	0.494
196.000	174.566	80.005	19.996	100.406	20.026	2.683	0.497
196.500	174.829	80.005	19.996	100.406	20.026	2.654	0.511
197.000	175.059	80.005	19.995	100.404	20.028	2.492	0.503
197.500	175.304	80.005	19.996	100.404	20.026	2.625	0.484
198.000	175.571	80.004	19.996	100.404	20.024	2.805	0.494
198.500	175.819	80.004	19.996	100.405	20.024	2.780	0.513
199.000	176.066	80.006	19.997	100.406	20.025	2.764	0.505
199.500	176.335	80.004	19.996	100.403	20.024	2.801	0.506
200.000	176.565	80.003	19.997	100.399	20.027	2.581	0.507
200.500	176.868	80.004	19.996	100.398	20.024	2.795	0.516
201.000	177.079	80.003	19.996	100.398	20.024	2.832	0.524
201.500	177.326	80.004	19.996	100.400	20.026	2.667	0.486
202.000	177.552	80.004	19.996	100.402	20.025	2.719	0.465
202.500	177.837	80.005	19.996	100.403	20.028	2.519	0.492
203.000	178.067	80.003	19.996	100.406	20.028	2.533	0.513
203.500	178.326	80.004	19.996	100.404	20.028	2.513	0.502
204.000	178.581	80.003	19.997	100.399	20.025	2.723	0.502
204.500	178.818	80.003	19.997	100.398	20.025	2.696	0.503
205.000	179.077	80.004	19.996	100.399	20.029	2.434	0.494
205.500	179.345	80.004	19.996	100.399	20.030	2.335	0.511
206.000	179.528	80.004	19.996	100.400	20.027	2.566	0.489
206.500	179.758	80.004	19.996	100.401	20.029	2.407	0.433
207.000	180.001	80.003	19.996	100.402	20.030	2.372	0.443
207.500	180.242	80.004	19.997	100.400	20.032	2.224	0.478
208.000	180.539	80.004	19.996	100.399	20.031	2.308	0.511
208.500	180.765	80.004	19.996	100.398	20.027	2.580	0.530
209.000	181.011	80.003	19.996	100.400	20.026	2.638	0.498
209.500	181.252	80.004	19.996	100.405	20.030	2.368	0.480
210.000	181.541	80.002	19.996	100.410	20.029	2.453	0.508
210.501	181.773	80.003	19.995	100.410	20.025	2.696	0.525
211.000	182.057	80.004	19.996	100.412	20.029	2.397	0.518
211.500	182.266	80.004	19.995	100.415	20.030	2.345	0.504
212.001	182.483	80.004	19.995	100.416	20.027	2.572	0.459
212.501	182.760	80.004	19.995	100.416	20.027	2.593	0.460
213.000	183.012	80.005	19.995	100.419	20.029	2.457	0.512
213.500	183.234	80.004	19.995	100.419	20.029	2.444	0.502
214.000	183.485	80.003	19.995	100.418	20.025	2.749	0.473
214.500	183.726	80.003	19.995	100.415	20.028	2.516	0.482
215.000	183.953	80.004	19.995	100.411	20.025	2.702	0.480
215.500	184.186	80.004	19.996	100.406	20.026	2.648	0.464
216.000	184.447	80.004	19.995	100.402	20.025	2.757	0.477
216.500	184.714	80.004	19.995	100.399	20.026	2.650	0.511
217.000	184.967	80.004	19.995	100.398	20.025	2.742	0.524
217.500	185.203	80.004	19.995	100.401	20.028	2.477	0.505
218.000	185.460	80.004	19.995	100.399	20.027	2.590	0.491
218.500	185.768	80.004	19.995	100.399	20.030	2.368	0.529
219.000	185.984	80.004	19.995	100.401	20.026	2.625	0.544
219.500	186.260	80.003	19.995	100.402	20.026	2.619	0.508
220.000	186.515	80.004	19.995	100.398	20.026	2.667	0.512
220.500	186.732	80.004	19.995	100.399	20.026	2.677	0.502
221.000	187.000	80.004	19.996	100.399	20.030	2.368	0.479
221.500	187.229	80.005	19.994	100.400	20.027	2.589	0.491
222.000	187.480	80.004	19.995	100.395	20.027	2.552	0.488
222.500	187.739	80.003	19.995	100.401	20.029	2.424	0.495
223.000	187.945	80.004	19.995	100.406	20.031	2.299	0.487
223.500	188.212	80.003	19.995	100.409	20.027	2.595	0.469
224.000	188.446	80.003	19.994	100.404	20.027	2.552	0.487
224.500	188.682	80.002	19.995	100.403	20.030	2.319	0.486
225.000	188.936	80.004	19.996	100.397	20.031	2.243	0.480
225.500	189.169	80.003	19.995	100.397	20.029	2.449	0.488
226.000	189.403	80.004	19.994	100.392	20.032	2.237	0.477
226.500	189.661	80.004	19.995	100.392	20.031	2.302	0.480
227.000	189.907	80.003	19.995	100.392	20.032	2.173	0.498
227.500	190.130	80.004	19.995	100.390	20.028	2.469	0.487
228.000	190.408	80.004	19.994	100.384	20.030	2.317	0.485
228.501	190.637	80.004	19.996	100.382	20.028	2.523	0.504
229.000	190.852	80.002	19.995	100.384	20.028	2.476	0.475
229.500	191.086	80.002	19.996	100.386	20.029	2.395	0.446
230.000	191.344	80.005	19.996	100.391	20.027	2.603	0.470
230.500	191.580	80.003	19.994	100.395	20.025	2.725	0.493
231.000	191.839	80.003	19.994	100.402	20.026	2.655	0.495
231.500	192.081	80.002	19.996	100.407	20.027	2.611	0.499
232.000	192.334	80.002	19.995	100.413	20.026	2.687	0.498
232.500	192.564	80.003	19.996	100.415	20.030	2.341	0.489
233.000	192.815	80.004	19.995	100.418	20.029	2.423	0.482
233.500	193.070	80.002	19.995	100.418	20.030	2.314	0.493
234.000	193.301	80.003	19.995	100.419	20.031	2.281	0.496
234.500	193.553	80.003	19.995	100.419	20.033	2.133	0.484
235.000	193.769	80.004	19.995	100.420	20.028	2.487	0.476
235.500	194.064	80.004	19.996	100.419	20.027	2.543	0.489
236.000	194.266	80.003	19.996	100.419	20.032	2.181	0.504
236.500	194.513	80.004	19.996	100.416	20.028	2.471	0.473
237.000	194.755	80.003	19.995	100.412	20.030	2.356	0.469
237.500	195.033	80.003	19.995	100.410	20.032	2.236	0.505
238.000	195.259	80.004	19.996	100.410	20.029	2.456	0.512
238.500	195.513	80.004	19.995	100.409	20.028	2.475	0.492
239.000	195.755	80.005	19.995	100.409	20.027	2.559	0.488
239.500	195.994	80.005	19.995	100.413	20.030	2.355	0.488
240.000	196.311	80.005	19.996	100.413	20.030	2.357	0.518
240.500	196.510	80.005	19.995	100.412	20.028	2.535	0.536
241.000	196.760	80.004	19.995	100.412	20.028	2.504	0.483
241.500	196.978	80.005	19.996	100.413	20.030	2.384	0.459
242.000	197.243	80.005	19.994	100.411	20.029	2.444	0.475
242.500	197.461	80.004	19.996	100.407	20.029	2.450	0.483
243.000	197.730	80.005	19.995	100.400	20.030	2.376	0.485
243.500	197.957	80.006	19.995	100.394	20.027	2.584	0.491
244.001	198.125	80.005	19.995	100.388	20.031	2.290	0.445
244.501	198.422	80.005	19.995	100.383	20.030	2.376	0.430
245.000	198.650	80.006	19.995	100.382	20.032	2.195	0.495
245.500	198.943	80.004	19.995	100.387	20.029	2.415	0.523
246.000	199.159	80.006	19.995	100.391	20.029	2.440	0.515
246.500	199.417	80.005	19.995	100.397	20.029	2.411	0.492
247.000	199.680	80.007	19.996	100.399	20.033	2.162	0.497
247.500	199.960	80.006	19.995	100.402	20.030	2.337	0.532
248.000	200.163	80.006	19.995	100.397	20.029	2.397	0.513
248.500	200.409	80.006	19.995	100.395	20.029	2.456	0.467
249.000	200.646	80.006	19.995	100.389	20.029	2.393	0.466
249.500	200.901	80.006	19.995	100.386	20.026	2.619	0.487
250.000	201.104	80.007	19.994	100.382	20.028	2.491	0.475
250.500	201.371	80.006	19.995	100.386	20.028	2.506	0.464
251.000	201.593	80.006	19.995	100.386	20.028	2.504	0.480
251.500	201.894	80.007	19.994	100.389	20.031	2.252	0.506
252.000	202.104	80.007	19.996	100.390	20.032	2.230	0.517
252.500	202.351	80.006	19.995	100.390	20.029	2.405	0.484
253.000	202.624	80.005	19.995	100.386	20.032	2.219	0.488
253.500	202.854	80.005	19.995	100.389	20.032	2.201	0.511
254.000	203.099	80.006	19.995	100.389	20.030	2.345	0.489
254.500	203.316	80.004	19.994	100.390	20.030	2.386	0.469
255.000	203.585	80.005	19.995	100.391	20.030	2.376	0.474
255.500	203.817	80.004	19.996	100.390	20.029	2.413	0.493
256.000	204.073	80.007	19.995	100.386	20.029	2.403	0.495
256.500	204.324	80.005	19.996	100.386	20.031	2.304	0.498
257.000	204.554	80.005	19.994	100.385	20.033	2.112	0.494
257.500	204.848	80.006	19.995	100.386	20.030	2.353	0.503
258.000	205.049	80.006	19.996	100.387	20.029	2.398	0.510
258.500	205.315	80.004	19.995	100.390	20.030	2.318	0.481
259.000	205.555	80.005	19.995	100.389	20.031	2.277	0.486
259.500	205.819	80.006	19.995	100.388	20.032	2.217	0.505
260.000	206.071	80.006	19.995	100.386	20.034	2.028	0.510
260.500	206.307	80.006	19.995	100.384	20.032	2.223	0.502
261.000	206.549	80.005	19.996	100.381	20.030	2.382	0.483
261.500	206.797	80.005	19.996	100.378	20.033	2.102	0.484
262.000	207.040	80.005	19.996	100.379	20.031	2.285	0.491
262.500	207.311	80.004	19.995	100.380	20.030	2.374	0.503
263.000	207.527	80.005	19.995	100.380	20.030	2.331	0.501
263.500	207.766	80.006	19.996	100.380	20.032	2.201	0.471
264.000	208.049	80.006	19.996	100.381	20.034	2.036	0.488
264.500	208.298	80.007	19.995	100.380	20.033	2.100	0.527
265.000	208.521	80.005	19.996	100.380	20.032	2.232	0.502
265.500	208.812	80.007	19.997	100.380	20.032	2.166	0.493
266.000	209.042	80.006	19.996	100.379	20.033	2.154	0.518
266.500	209.265	80.006	19.997	100.377	20.032	2.166	0.487
267.000	209.529	80.004	19.997	100.377	20.032	2.234	0.470
267.500	209.741	80.006	19.996	100.377	20.035	2.001	0.481
268.000	210.016	80.006	19.997	100.377	20.033	2.102	0.481
268.500	210.244	80.008	19.996	100.378	20.032	2.166	0.495
269.000	210.562	80.007	19.997	100.377	20.030	2.361	0.525
269.500	210.782	80.006	19.997	100.377	20.033	2.090	0.542
270.000	211.052	80.007	19.995	100.377	20.031	2.256	0.514
270.500	211.234	80.006	19.996	100.377	20.031	2.291	0.471
271.000	211.482	80.006	19.996	100.377	20.033	2.145	0.441
271.500	211.706	80.007	19.996	100.378	20.033	2.088	0.451
272.000	211.988	80.009	19.996	100.378	20.030	2.320	0.489
272.500	212.233	80.007	19.995	100.378	20.030	2.370	0.516
273.000	212.500	80.006	19.996	100.378	20.029	2.390	0.520
273.500	212.739	80.007	19.996	100.378	20.032	2.205	0.509
274.000	212.998	80.008	19.996	100.378	20.031	2.296	0.502
274.500	213.248	80.007	19.996	100.377	20.032	2.186	0.503
275.000	213.454	80.007	19.995	100.377	20.032	2.232	0.483
275.500	213.738	80.007	19.995	100.379	20.035	1.981	0.473
276.000	213.968	80.008	19.996	100.379	20.032	2.186	0.502
276.500	214.225	80.007	19.996	100.379	20.034	2.075	0.500
277.000	214.479	80.005	19.995	100.380	20.033	2.127	0.499
277.500	214.692	80.005	19.995	100.381	20.032	2.193	0.489
278.000	214.937	80.006	19.994	100.380	20.034	2.071	0.462
278.500	215.183	80.007	19.996	100.380	20.034	2.046	0.474
279.000	215.447	80.005	19.996	100.379	20.033	2.102	0.501
279.500	215.683	80.005	19.996	100.379	20.032	2.207	0.505
280.000	215.953	80.005	19.997	100.379	20.032	2.213	0.503
280.500	216.191	80.005	19.995	100.379	20.034	2.079	0.507
281.000	216.395	80.005	19.995	100.379	20.031	2.289	0.475
281.500	216.637	80.005	19.995	100.380	20.033	2.100	0.444
282.000	216.894	80.004	19.995	100.379	20.031	2.273	0.473
282.500	217.168	80.005	19.995	100.379	20.035	1.960	0.515
283.000	217.395	80.004	19.996	100.380	20.031	2.263	0.516
283.500	217.639	80.003	19.996	100.380	20.032	2.170	0.486
284.000	217.858	80.004	19.995	100.379	20.034	2.084	0.467
284.500	218.127	80.003	19.996	100.379	20.035	1.979	0.475
285.000	218.391	80.005	19.995	100.379	20.032	2.213	0.511
285.500	218.638	80.004	19.995	100.379	20.035	2.003	0.522
286.000	218.890	80.004	19.995	100.379	20.036	1.896	0.504
286.500	219.115	80.003	19.995	100.379	20.035	1.989	0.488
287.000	219.367	80.004	19.995	100.380	20.034	2.063	0.477
287.500	219.577	80.005	19.995	100.380	20.034	2.011	0.470
288.001	219.827	80.005	19.995	100.380	20.035	1.991	0.461
288.501	220.081	80.003	19.996	100.380	20.031	2.289	0.482
289.001	220.343	80.003	19.997	100.380	20.036	1.911	0.510
289.500	220.570	80.004	19.996	100.380	20.033	2.149	0.503
290.000	220.835	80.004	19.996	100.380	20.031	2.250	0.490
290.500	221.095	80.004	19.995	100.380	20.034	2.071	0.508
291.000	221.324	80.003	19.995	100.380	20.035	1.981	0.507
291.500	221.564	80.003	19.996	100.380	20.031	2.261	0.479
292.000	221.797	80.003	19.996	100.380	20.035	1.956	0.471
292.500	222.072	80.004	19.997	100.380	20.032	2.176	0.491
293.000	222.298	80.003	19.996	100.381	20.034	2.061	0.504
293.500	222.540	80.003	19.996	100.381	20.033	2.125	0.484
294.000	222.847	80.004	19.996	100.381	20.035	1.999	0.509
294.500	223.040	80.004	19.996	100.381	20.035	2.009	0.525
295.000	223.285	80.003	19.995	100.380	20.035	1.935	0.469
295.500	223.524	80.004	19.996	100.380	20.032	2.182	0.461
296.001	223.752	80.003	19.996	100.380	20.036	1.923	0.476
296.500	224.030	80.002	19.997	100.378	20.036	1.873	0.487
297.000	224.272	80.002	19.996	100.378	20.036	1.915	0.513
297.500	224.519	80.004	19.996	100.378	20.036	1.878	0.504
298.000	224.775	80.002	19.995	100.378	20.033	2.129	0.496
298.500	225.032	80.004	19.995	100.379	20.038	1.731	0.508
299.000	225.277	80.003	19.995	100.380	20.036	1.867	0.507
299.500	225.524	80.003	19.996	100.380	20.037	1.851	0.497
300.000	225.781	80.005	19.997	100.380	20.034	2.065	0.499
300.500	226.016	80.003	19.996	100.379	20.038	1.783	0.498
301.000	226.243	80.004	19.997	100.378	20.037	1.824	0.477
301.500	226.471	80.004	19.996	100.377	20.039	1.647	0.459
302.000	226.730	80.005	19.997	100.376	20.037	1.812	0.471
302.500	226.969	80.004	19.997	100.376	20.037	1.787	0.492
303.000	227.227	80.003	19.997	100.377	20.037	1.803	0.497
303.500	227.463	80.005	19.996	100.377	20.037	1.834	0.496
304.000	227.709	80.004	19.996	100.378	20.039	1.696	0.488
304.500	227.973	80.006	19.996	100.378	20.036	1.906	0.496
305.000	228.212	80.003	19.996	100.378	20.036	1.921	0.506
305.500	228.408	80.004	19.995	100.377	20.038	1.717	0.469
306.000	228.684	80.005	19.997	100.376	20.037	1.851	0.453
306.500	228.932	80.005	19.996	100.375	20.035	1.985	0.498
307.000	229.192	80.005	19.996	100.373	20.035	1.954	0.516
307.500	229.451	80.005	19.996	100.373	20.037	1.845	0.513
308.000	229.697	80.004	19.996	100.372	20.039	1.694	0.512
308.500	229.934	80.004	19.995	100.372	20.040	1.612	0.494
309.000	230.181	80.004	19.996	100.373	20.036	1.880	0.484
309.500	230.439	80.005	19.995	100.374	20.038	1.721	0.495
310.000	230.715	80.004	19.995	100.375	20.039	1.678	0.519
310.500	230.941	80.004	19.996	100.375	20.039	1.703	0.518
311.000	231.198	80.003	19.995	100.376	20.038	1.738	0.492
311.500	231.455	80.004	19.996	100.376	20.037	1.822	0.499
312.000	231.682	80.004	19.995	100.376	20.036	1.876	0.499
312.500	231.959	80.003	19.995	100.377	20.039	1.680	0.494
313.000	232.196	80.004	19.996	100.376	20.039	1.682	0.509
313.500	232.431	80.003	19.995	100.376	20.040	1.624	0.493
314.000	232.676	80.003	19.995	100.375	20.038	1.736	0.476
314.500	232.943	80.004	19.996	100.374	20.039	1.705	0.496
315.000	233.221	80.003	19.995	100.371	20.039	1.678	0.528
315.500	233.432	80.003	19.996	100.370	20.039	1.659	0.517
316.000	233.697	80.004	19.995	100.369	20.037	1.838	0.482
316.500	233.923	80.002	19.995	100.367	20.040	1.612	0.484
317.000	234.203	80.003	19.996	100.368	20.040	1.575	0.499
317.500	234.406	80.004	19.995	100.372	20.037	1.818	0.495
318.001	234.663	80.003	19.995	100.375	20.038	1.742	0.472
318.500	234.911	80.004	19.996	100.376	20.040	1.610	0.483
319.000	235.141	80.004	19.996	100.378	20.038	1.733	0.492
319.500	235.404	80.003	19.995	100.378	20.037	1.793	0.485
320.000	235.686	80.004	19.995	100.378	20.038	1.752	0.519
320.500	235.882	80.003	19.995	100.377	20.041	1.497	0.512
321.000	236.149	80.005	19.996	100.378	20.040	1.556	0.470
321.500	236.408	80.005	19.996	100.378	20.040	1.612	0.495
322.000	236.665	80.005	19.996	100.378	20.038	1.731	0.521
322.500	236.868	80.005	19.996	100.378	20.038	1.740	0.488
323.000	237.159	80.003	19.995	100.378	20.040	1.626	0.477
323.500	237.455	80.004	19.996	100.378	20.039	1.637	0.540
324.000	237.662	80.007	19.997	100.378	20.040	1.628	0.545
324.500	237.903	80.005	19.996	100.378	20.040	1.622	0.475
325.000	238.156	80.006	19.995	100.378	20.038	1.760	0.471
325.500	238.416	80.005	19.995	100.378	20.034	2.013	0.504
326.000	238.661	80.005	19.996	100.377	20.041	1.544	0.509
326.500	238.899	80.007	19.995	100.377	20.038	1.775	0.493
327.000	239.170	80.006	19.996	100.377	20.037	1.853	0.496
327.500	239.426	80.007	19.995	100.377	20.041	1.548	0.518
328.000	239.676	80.007	19.996	100.377	20.034	2.016	0.517
328.500	239.919	80.006	19.995	100.377	20.038	1.727	0.500
329.000	240.147	80.006	19.996	100.376	20.039	1.635	0.482
329.500	240.402	80.006	19.995	100.371	20.041	1.542	0.477
330.000	240.677	80.006	19.995	100.369	20.039	1.694	0.506
330.500	240.915	80.006	19.995	100.368	20.038	1.723	0.522
331.000	241.129	80.006	19.996	100.368	20.038	1.715	0.483
331.500	241.399	80.006	19.995	100.370	20.039	1.696	0.468
332.000	241.624	80.006	19.995	100.373	20.037	1.828	0.489
332.500	241.911	80.006	19.995	100.372	20.037	1.851	0.503
333.000	242.127	80.007	19.996	100.373	20.038	1.744	0.508
333.500	242.397	80.008	19.995	100.372	20.039	1.694	0.495
334.000	242.658	80.006	19.995	100.372	20.034	2.046	0.508
334.500	242.892	80.006	19.995	100.373	20.039	1.651	0.513
335.000	243.145	80.006	19.995	100.376	20.039	1.686	0.491
335.500	243.424	80.005	19.995	100.376	20.040	1.608	0.510
336.000	243.666	80.006	19.996	100.377	20.039	1.647	0.526
336.500	243.903	80.007	19.995	100.377	20.040	1.581	0.500
337.000	244.136	80.005	19.995	100.377	20.041	1.499	0.475
337.500	244.386	80.005	19.995	100.377	20.038	1.777	0.476
338.000	244.620	80.005	19.994	100.377	20.038	1.773	0.483
338.500	244.913	80.005	19.995	100.377	20.038	1.721	0.506
339.000	245.119	80.006	19.995	100.377	20.040	1.624	0.514
339.500	245.387	80.004	19.995	100.377	20.038	1.723	0.487
340.000	245.629	80.006	19.996	100.377	20.041	1.517	0.491
340.500	245.882	80.005	19.994	100.378	20.040	1.569	0.502
341.000	246.179	80.006	19.994	100.378	20.040	1.628	0.523
341.500	246.440	80.004	19.995	100.379	20.038	1.725	0.554
342.000	246.660	80.004	19.995	100.380	20.039	1.682	0.520
342.500	246.936	80.005	19.995	100.380	20.041	1.534	0.489
343.000	247.144	80.006	19.995	100.380	20.041	1.499	0.490
343.500	247.418	80.004	19.995	100.380	20.038	1.713	0.483
344.000	247.698	80.005	19.994	100.380	20.041	1.493	0.519
344.500	247.885	80.006	19.995	100.381	20.039	1.678	0.511
345.000	248.181	80.006	19.994	100.381	20.036	1.873	0.475
345.500	248.385	80.004	19.995	100.381	20.038	1.779	0.491
346.000	248.656	80.006	19.995	100.381	20.041	1.519	0.488
346.500	248.904	80.005	19.994	100.381	20.040	1.575	0.497
347.000	249.163	80.006	19.995	100.379	20.040	1.618	0.513
347.500	249.410	80.005	19.994	100.380	20.041	1.552	0.507
348.000	249.691	80.006	19.994	100.381	20.038	1.713	0.517
348.500	249.976	80.006	19.995	100.381	20.040	1.569	0.547
349.000	250.194	80.006	19.995	100.380	20.040	1.608	0.534
349.500	250.476	80.007	19.995	100.381	20.040	1.558	0.501
350.000	250.723	80.006	19.995	100.380	20.038	1.742	0.515
350.500	250.985	80.007	19.995	100.379	20.037	1.845	0.519
351.000	251.241	80.006	19.995	100.376	20.034	2.011	0.513
351.500	251.524	80.006	19.995	100.376	20.038	1.709	0.529
352.000	251.715	80.006	19.994	100.377	20.037	1.830	0.507
352.500	251.972	80.006	19.995	100.377	20.036	1.894	0.460
353.000	252.238	80.007	19.995	100.378	20.036	1.861	0.485
353.500	252.502	80.006	19.994	100.379	20.033	2.100	0.527
354.000	252.737	80.007	19.995	100.376	20.037	1.814	0.515
354.500	253.012	80.007	19.994	100.376	20.034	2.042	0.504
355.001	253.251	80.008	19.995	100.375	20.036	1.929	0.512
355.500	253.500	80.007	19.995	100.376	20.038	1.756	0.501
356.000	253.734	80.007	19.995	100.376	20.037	1.847	0.485
356.500	253.984	80.007	19.995	100.378	20.036	1.929	0.484
357.000	254.260	80.007	19.995	100.378	20.036	1.919	0.505
357.500	254.493	80.007	19.995	100.377	20.040	1.593	0.517
358.000	254.738	80.006	19.995	100.377	20.039	1.653	0.494
358.500	254.999	80.006	19.995	100.376	20.037	1.847	0.492
359.000	255.228	80.008	19.996	100.378	20.038	1.777	0.498
359.500	255.476	80.005	19.995	100.377	20.038	1.723	0.483
360.000	255.710	80.006	19.996	100.378	20.041	1.548	0.479
360.500	256.021	80.005	19.995	100.378	20.036	1.896	0.513
361.000	256.238	80.005	19.995	100.378	20.038	1.764	0.537
361.500	256.499	80.007	19.996	100.379	20.038	1.721	0.503
362.000	256.750	80.006	19.996	100.379	20.038	1.723	0.495
362.500	256.978	80.005	19.996	100.380	20.042	1.439	0.496
363.000	257.242	80.004	19.996	100.380	20.041	1.542	0.485
363.500	257.488	80.006	19.996	100.379	20.041	1.554	0.501
364.000	257.717	80.005	19.997	100.375	20.041	1.497	0.493
364.500	257.955	80.004	19.997	100.371	20.041	1.540	0.471
365.000	258.176	80.003	19.996	100.368	20.038	1.752	0.463
365.500	258.444	80.003	19.995	100.366	20.038	1.709	0.474
366.000	258.690	80.003	19.995	100.368	20.039	1.647	0.501
366.500	258.949	80.004	19.997	100.371	20.038	1.733	0.510
367.000	259.203	80.004	19.996	100.373	20.037	1.795	0.509
367.500	259.450	80.003	19.997	100.376	20.037	1.816	0.507
368.000	259.713	80.005	19.996	100.377	20.036	1.865	0.506
368.500	259.912	80.003	19.995	100.377	20.037	1.853	0.486
369.000	260.187	80.003	19.996	100.376	20.038	1.773	0.467
369.500	260.481	80.003	19.996	100.377	20.037	1.793	0.521
370.000	260.692	80.005	19.995	100.377	20.037	1.830	0.537
370.500	260.902	80.003	19.996	100.376	20.034	2.032	0.463
371.000	261.174	80.004	19.996	100.376	20.036	1.904	0.451
371.500	261.426	80.003	19.996	100.377	20.040	1.598	0.503
372.000	261.710	80.003	19.996	100.377	20.040	1.620	0.530
372.500	261.928	80.004	19.996	100.376	20.040	1.583	0.520
373.000	262.173	80.003	19.995	100.377	20.037	1.803	0.483
373.500	262.428	80.004	19.997	100.376	20.036	1.886	0.481
374.000	262.663	80.005	19.995	100.376	20.039	1.686	0.495
374.500	262.914	80.005	19.996	100.375	20.037	1.797	0.488
375.000	263.203	80.005	19.995	100.376	20.039	1.657	0.513
375.500	263.443	80.004	19.996	100.375	20.037	1.857	0.535
376.000	263.698	80.003	19.995	100.376	20.037	1.847	0.512
376.500	263.944	80.003	19.996	100.376	20.038	1.768	0.498
377.000	264.205	80.003	19.996	100.375	20.036	1.859	0.504
377.500	264.460	80.004	19.995	100.376	20.037	1.828	0.512
378.000	264.693	80.004	19.996	100.375	20.038	1.717	0.502
378.501	264.931	80.004	19.996	100.374	20.036	1.859	0.479
379.000	265.228	80.003	19.996	100.375	20.035	1.958	0.503
379.500	265.412	80.006	19.997	100.375	20.036	1.861	0.508
380.000	265.709	80.003	19.996	100.374	20.037	1.824	0.481
380.500	265.922	80.004	19.996	100.373	20.037	1.851	0.496
381.000	266.161	80.004	19.997	100.371	20.033	2.091	0.481
381.500	266.386	80.003	19.996	100.370	20.035	1.990	0.459
382.000	266.648	80.003	19.996	100.370	20.035	1.937	0.475
382.500	266.890	80.005	19.996	100.371	20.037	1.828	0.495
383.000	267.118	80.004	19.995	100.371	20.035	1.992	0.487
383.500	267.414	80.005	19.996	100.375	20.035	1.990	0.497
384.000	267.640	80.003	19.996	100.376	20.033	2.104	0.523
384.500	267.891	80.004	19.997	100.374	20.038	1.717	0.500
385.000	268.157	80.004	19.996	100.373	20.035	1.949	0.497
385.500	268.425	80.003	19.996	100.374	20.036	1.927	0.525
386.000	268.643	80.003	19.997	100.374	20.035	1.993	0.510
386.500	268.920	80.003	19.995	100.373	20.033	2.157	0.490
387.000	269.161	80.003	19.996	100.371	20.037	1.848	0.506
387.500	269.389	80.004	19.997	100.367	20.037	1.793	0.493
388.000	269.691	80.003	19.996	100.363	20.036	1.914	0.500
388.500	269.899	80.003	19.997	100.358	20.032	2.184	0.520
389.000	270.164	80.002	19.996	100.356	20.036	1.875	0.491
389.500	270.428	80.002	19.996	100.358	20.033	2.155	0.501
390.000	270.666	80.003	19.996	100.361	20.035	1.984	0.516
390.500	270.958	80.003	19.996	100.363	20.036	1.894	0.516
391.000	271.186	80.003	19.996	100.364	20.035	1.974	0.525
391.500	271.419	80.003	19.998	100.361	20.035	1.998	0.491
392.000	271.681	80.004	19.997	100.356	20.038	1.760	0.478
392.500	271.914	80.004	19.996	100.349	20.036	1.887	0.495
393.000	272.161	80.003	19.997	100.344	20.034	2.050	0.487
393.500	272.415	80.002	19.997	100.342	20.038	1.768	0.490
394.000	272.674	80.001	19.997	100.344	20.036	1.881	0.507
394.500	272.894	80.004	19.997	100.349	20.037	1.809	0.497
395.000	273.123	80.003	19.996	100.356	20.038	1.733	0.464
395.500	273.377	80.004	19.997	100.360	20.034	2.034	0.466
396.000	273.673	80.004	19.996	100.361	20.036	1.933	0.517
396.500	273.882	80.003	19.997	100.363	20.038	1.766	0.527
397.000	274.149	80.002	19.997	100.362	20.036	1.933	0.490
397.500	274.409	80.003	19.996	100.359	20.037	1.844	0.502
398.000	274.630	80.002	19.996	100.358	20.035	1.964	0.504
398.500	274.902	80.003	19.997	100.357	20.035	1.939	0.487
399.000	275.121	80.004	19.996	100.356	20.036	1.920	0.492
399.500	275.384	80.003	19.996	100.354	20.037	1.795	0.487
400.000	275.636	80.003	19.996	100.356	20.036	1.926	0.499
400.500	275.888	80.005	19.995	100.356	20.034	2.027	0.510
401.000	276.125	80.003	19.996	100.354	20.037	1.836	0.497
401.500	276.398	80.004	19.996	100.352	20.037	1.832	0.499
402.000	276.641	80.004	19.996	100.349	20.037	1.815	0.513
402.500	276.870	80.004	19.996	100.344	20.039	1.696	0.494
403.000	277.109	80.004	19.995	100.343	20.040	1.566	0.470
403.500	277.364	80.003	19.996	100.342	20.037	1.848	0.481
404.000	277.617	80.004	19.996	100.344	20.038	1.731	0.501
404.500	277.831	80.003	19.995	100.344	20.039	1.679	0.488
405.000	278.128	80.003	19.995	100.349	20.036	1.918	0.489
405.500	278.375	80.004	19.995	100.352	20.038	1.776	0.527
406.000	278.611	80.005	19.995	100.352	20.036	1.898	0.514
406.500	278.889	80.004	19.995	100.351	20.037	1.801	0.499
407.000	279.144	80.005	19.996	100.350	20.038	1.760	0.524
407.500	279.370	80.005	19.995	100.345	20.036	1.887	0.507
408.000	279.641	80.004	19.996	100.345	20.038	1.727	0.489
408.500	279.939	80.004	19.995	100.348	20.038	1.729	0.533
409.000	280.147	80.004	19.995	100.349	20.040	1.568	0.538
409.500	280.363	80.004	19.995	100.350	20.041	1.521	0.465
410.000	280.622	80.004	19.995	100.349	20.039	1.677	0.449
410.500	280.911	80.005	19.995	100.347	20.043	1.391	0.512
411.000	281.134	80.005	19.994	100.343	20.040	1.574	0.530
411.500	281.365	80.006	19.995	100.341	20.041	1.525	0.482
412.000	281.588	80.006	19.995	100.341	20.037	1.832	0.454
412.500	281.893	80.004	19.995	100.341	20.038	1.776	0.491
413.000	282.106	80.006	19.996	100.342	20.039	1.647	0.523
413.500	282.342	80.005	19.995	100.341	20.037	1.836	0.484
414.000	282.564	80.005	19.995	100.342	20.038	1.708	0.454
414.500	282.837	80.005	19.995	100.346	20.037	1.815	0.477
415.000	283.092	80.004	19.995	100.348	20.036	1.859	0.512
415.500	283.387	80.006	19.994	100.349	20.040	1.560	0.539
416.000	283.618	80.005	19.995	100.352	20.040	1.562	0.538
416.500	283.872	80.005	19.995	100.354	20.040	1.593	0.505
417.000	284.104	80.004	19.994	100.355	20.038	1.719	0.485
417.500	284.382	80.006	19.995	100.354	20.040	1.614	0.498
418.000	284.634	80.005	19.996	100.357	20.040	1.628	0.520
418.500	284.864	80.005	19.995	100.354	20.039	1.642	0.506
419.000	285.096	80.006	19.995	100.353	20.039	1.692	0.472
419.500	285.316	80.003	19.996	100.353	20.042	1.435	0.457
420.000	285.615	80.004	19.995	100.352	20.038	1.745	0.486
420.500	285.821	80.005	19.996	100.348	20.038	1.733	0.512
421.000	286.093	80.005	19.995	100.349	20.037	1.838	0.491
421.500	286.333	80.004	19.995	100.348	20.039	1.692	0.495
422.000	286.636	80.004	19.995	100.346	20.036	1.871	0.528
422.500	286.832	80.004	19.995	100.348	20.033	2.159	0.520
423.001	287.112	80.004	19.996	100.355	20.036	1.881	0.487
423.500	287.389	80.004	19.996	100.356	20.037	1.805	0.517
424.000	287.624	80.004	19.995	100.358	20.038	1.727	0.535
424.500	287.867	80.003	19.995	100.359	20.037	1.811	0.495
425.000	288.107	80.004	19.995	100.357	20.038	1.756	0.480
425.500	288.363	80.003	19.996	100.351	20.038	1.768	0.490
426.000	288.596	80.005	19.995	100.352	20.035	1.945	0.492
426.500	288.858	80.003	19.997	100.354	20.035	1.984	0.492
427.000	289.124	80.004	19.995	100.354	20.037	1.821	0.511
427.500	289.395	80.005	19.996	100.356	20.039	1.704	0.532
428.000	289.612	80.005	19.995	100.357	20.039	1.681	0.512
428.500	289.913	80.004	19.995	100.353	20.038	1.760	0.503
429.000	290.145	80.005	19.995	100.349	20.040	1.616	0.526
429.500	290.402	80.007	19.995	100.348	20.038	1.708	0.512
430.000	290.608	80.005	19.995	100.347	20.037	1.797	0.476
430.500	290.920	80.005	19.995	100.347	20.037	1.823	0.491
431.000	291.159	80.005	19.995	100.347	20.035	2.003	0.534
431.500	291.431	80.005	19.996	100.347	20.037	1.832	0.531
432.000	291.690	80.005	19.994	100.346	20.039	1.704	0.521
432.500	291.920	80.005	19.995	100.345	20.035	1.966	0.510
433.000	292.191	80.007	19.995	100.343	20.037	1.803	0.495
433.500	292.442	80.006	19.995	100.343	20.037	1.819	0.512
434.000	292.653	80.006	19.995	100.343	20.037	1.799	0.492
434.500	292.912	80.009	19.995	100.344	20.038	1.780	0.466
435.000	293.150	80.005	19.994	100.344	20.037	1.793	0.483
435.500	293.439	80.008	19.995	100.343	20.036	1.891	0.512
436.000	293.673	80.006	19.995	100.343	20.036	1.908	0.525
436.500	293.915	80.008	19.995	100.343	20.038	1.782	0.500
437.000	294.130	80.007	19.995	100.343	20.037	1.815	0.467
437.500	294.433	80.006	19.995	100.343	20.038	1.755	0.487
438.000	294.660	80.007	19.996	100.343	20.039	1.638	0.524
438.500	294.904	80.007	19.995	100.345	20.039	1.644	0.500
439.000	295.190	80.007	19.995	100.343	20.040	1.628	0.501
439.500	295.470	80.008	19.994	100.342	20.038	1.735	0.548
440.000	295.688	80.009	19.994	100.344	20.041	1.525	0.532
440.500	295.945	80.008	19.995	100.344	20.041	1.513	0.486
441.000	296.163	80.007	19.994	100.342	20.041	1.554	0.475
441.500	296.523	80.008	19.995	100.345	20.037	1.791	0.526
442.000	296.678	80.008	19.995	100.349	20.039	1.665	0.546
442.500	296.953	80.008	19.995	100.348	20.041	1.484	0.473
443.000	297.190	80.007	19.994	100.347	20.041	1.484	0.471
443.500	297.471	80.007	19.996	100.349	20.040	1.630	0.515
444.000	297.724	80.005	19.995	100.349	20.039	1.696	0.526
444.500	297.977	80.006	19.994	100.346	20.039	1.655	0.520
445.000	298.262	80.006	19.995	100.345	20.041	1.506	0.522
445.500	298.463	80.005	19.994	100.345	20.041	1.502	0.512
446.001	298.724	80.005	19.995	100.343	20.041	1.548	0.474
446.501	298.956	80.003	19.996	100.340	20.043	1.360	0.478
447.001	299.217	80.005	19.996	100.339	20.043	1.332	0.494
447.501	299.502	80.003	19.996	100.339	20.043	1.383	0.520
448.000	299.719	80.004	19.996	100.339	20.042	1.439	0.524
448.500	299.999	80.005	19.996	100.339	20.042	1.447	0.499
449.000	300.190	80.004	19.995	100.339	20.042	1.420	0.484
449.500	300.468	80.005	19.996	100.339	20.043	1.356	0.470
450.000	300.731	80.005	19.996	100.339	20.044	1.274	0.505
450.500	300.972	80.005	19.996	100.341	20.040	1.568	0.523
451.000	301.212	80.003	19.996	100.341	20.043	1.334	0.492
451.500	301.466	80.004	19.995	100.342	20.044	1.253	0.487
452.000	301.759	80.004	19.995	100.342	20.041	1.490	0.520
452.500	301.999	80.004	19.995	100.343	20.044	1.258	0.540
453.000	302.270	80.003	19.995	100.341	20.044	1.301	0.522
453.500	302.529	80.004	19.995	100.341	20.040	1.558	0.521
454.000	302.755	80.005	19.995	100.339	20.040	1.587	0.508
454.500	303.011	80.004	19.996	100.339	20.042	1.422	0.483
455.000	303.241	80.006	19.996	100.338	20.043	1.364	0.484
455.500	303.487	80.003	19.996	100.339	20.040	1.603	0.481
456.000	303.751	80.003	19.996	100.339	20.039	1.669	0.493
456.500	304.008	80.003	19.997	100.340	20.039	1.657	0.516
457.000	304.277	80.002	19.996	100.340	20.041	1.496	0.524
457.501	304.513	80.003	19.997	100.340	20.041	1.517	0.516
458.000	304.766	80.005	19.996	100.339	20.042	1.443	0.497
458.500	304.997	80.005	19.996	100.339	20.042	1.449	0.487
459.000	305.254	80.004	19.996	100.340	20.044	1.299	0.486
459.500	305.521	80.004	19.995	100.343	20.045	1.214	0.506
460.000	305.788	80.004	19.996	100.347	20.043	1.391	0.529
460.500	306.024	80.003	19.996	100.348	20.041	1.504	0.519
461.000	306.263	80.005	19.996	100.348	20.044	1.303	0.489
461.500	306.506	80.004	19.996	100.346	20.047	1.068	0.479
462.000	306.757	80.005	19.996	100.345	20.042	1.434	0.488
462.500	306.970	80.003	19.996	100.344	20.044	1.311	0.479
463.000	307.253	80.003	19.997	100.346	20.042	1.459	0.480
463.500	307.520	80.005	19.996	100.349	20.041	1.523	0.523
464.000	307.785	80.003	19.996	100.353	20.044	1.327	0.541
464.500	308.005	80.004	19.996	100.351	20.044	1.290	0.509
465.000	308.241	80.004	19.996	100.348	20.043	1.371	0.470
465.500	308.534	80.005	19.996	100.345	20.045	1.225	0.492
466.000	308.741	80.004	19.996	100.342	20.044	1.323	0.514
466.500	308.987	80.006	19.996	100.338	20.046	1.107	0.477
467.000	309.253	80.004	19.995	100.338	20.046	1.113	0.483
467.500	309.479	80.006	19.995	100.339	20.041	1.490	0.502
468.000	309.717	80.002	19.994	100.338	20.045	1.233	0.478
468.500	309.962	80.004	19.996	100.339	20.046	1.103	0.474
469.000	310.234	80.003	19.996	100.341	20.043	1.373	0.500
469.500	310.515	80.007	19.996	100.341	20.042	1.410	0.535
470.000	310.722	80.004	19.996	100.340	20.047	1.093	0.520
470.500	310.980	80.004	19.996	100.340	20.048	0.994	0.476
471.000	311.234	80.005	19.996	100.339	20.046	1.169	0.488
471.500	311.469	80.005	19.996	100.338	20.047	1.056	0.501
472.000	311.751	80.005	19.995	100.338	20.044	1.280	0.503
472.500	312.012	80.004	19.996	100.338	20.047	1.080	0.530
473.000	312.268	80.003	19.995	100.340	20.047	1.097	0.530
473.500	312.538	80.005	19.996	100.341	20.046	1.159	0.522
474.000	312.782	80.004	19.995	100.342	20.046	1.113	0.520
474.500	312.993	80.005	19.995	100.343	20.043	1.354	0.485
475.000	313.282	80.003	19.996	100.343	20.047	1.070	0.478
475.500	313.519	80.005	19.995	100.343	20.045	1.237	0.513
476.000	313.760	80.004	19.996	100.342	20.044	1.328	0.501
476.500	313.979	80.002	19.995	100.343	20.045	1.243	0.469
477.000	314.275	80.002	19.996	100.342	20.045	1.198	0.488
477.500	314.515	80.003	19.995	100.342	20.043	1.360	0.525
478.000	314.796	80.001	19.996	100.341	20.045	1.243	0.529
478.500	315.018	80.002	19.995	100.341	20.042	1.424	0.512
479.000	315.254	80.003	19.996	100.341	20.043	1.385	0.481
479.500	315.497	80.004	19.997	100.341	20.041	1.521	0.469
480.000	315.762	80.002	19.997	100.341	20.041	1.496	0.493
480.500	316.028	80.001	19.996	100.340	20.046	1.173	0.519
481.000	316.277	80.002	19.996	100.341	20.042	1.468	0.523
481.500	316.504	80.002	19.996	100.340	20.044	1.253	0.496
482.000	316.741	80.003	19.997	100.341	20.041	1.498	0.470
482.500	317.022	80.001	19.996	100.341	20.043	1.332	0.491
483.000	317.282	80.002	19.997	100.342	20.044	1.280	0.530
483.500	317.495	80.002	19.997	100.342	20.040	1.562	0.507
484.000	317.761	80.002	19.997	100.343	20.041	1.548	0.476
484.500	318.041	80.002	19.997	100.345	20.042	1.414	0.513
485.000	318.297	80.002	19.996	100.347	20.043	1.358	0.541
485.500	318.517	80.004	19.997	100.352	20.041	1.523	0.506
486.000	318.775	80.003	19.997	100.353	20.040	1.603	0.476
486.500	319.026	80.003	19.997	100.355	20.040	1.630	0.493
487.000	319.286	80.004	19.997	100.356	20.040	1.568	0.510
487.500	319.558	80.002	19.997	100.355	20.041	1.517	0.522
488.000	319.760	80.004	19.996	100.351	20.043	1.352	0.503
488.500	320.035	80.003	19.997	100.350	20.043	1.338	0.475
489.000	320.294	80.003	19.996	100.349	20.038	1.745	0.505
489.500	320.550	80.005	19.996	100.350	20.043	1.377	0.524
490.000	320.769	80.004	19.997	100.353	20.041	1.486	0.495
490.500	321.068	80.003	19.996	100.356	20.041	1.546	0.497
491.000	321.318	80.004	19.996	100.357	20.041	1.504	0.534
491.500	321.600	80.004	19.996	100.356	20.039	1.632	0.541
492.000	321.830	80.003	19.996	100.353	20.041	1.480	0.522
492.500	322.073	80.006	19.995	100.352	20.037	1.811	0.493
493.000	322.319	80.005	19.996	100.353	20.041	1.484	0.481
493.500	322.579	80.006	19.996	100.357	20.037	1.784	0.497
494.000	322.845	80.005	19.996	100.360	20.042	1.441	0.515
494.500	323.117	80.005	19.995	100.361	20.042	1.424	0.532
495.000	323.368	80.005	19.995	100.360	20.038	1.714	0.531
495.500	323.602	80.005	19.995	100.356	20.042	1.408	0.504
496.000	323.832	80.006	19.995	100.352	20.042	1.451	0.475
496.500	324.148	80.005	19.995	100.349	20.039	1.685	0.505
497.000	324.366	80.003	19.995	100.346	20.040	1.595	0.540
497.500	324.602	80.006	19.995	100.344	20.040	1.558	0.494
498.000	324.851	80.005	19.995	100.342	20.040	1.601	0.470
498.500	325.144	80.004	19.995	100.342	20.040	1.605	0.513
499.001	325.413	80.007	19.995	100.341	20.039	1.698	0.552
499.500	325.685	80.007	19.996	100.341	20.040	1.603	0.552
500.000	325.904	80.006	19.996	100.341	20.040	1.630	0.516
500.500	326.178	80.007	19.996	100.341	20.039	1.657	0.492
501.000	326.426	80.007	19.994	100.339	20.038	1.735	0.508
501.500	326.678	80.004	19.995	100.339	20.038	1.712	0.511
502.000	326.965	80.006	19.995	100.338	20.040	1.585	0.519
502.500	327.183	80.006	19.995	100.338	20.042	1.445	0.522
503.000	327.444	80.006	19.994	100.339	20.039	1.692	0.492
503.500	327.709	80.007	19.996	100.340	20.041	1.498	0.502
504.000	327.968	80.005	19.995	100.340	20.040	1.620	0.525
504.500	328.181	80.004	19.995	100.340	20.040	1.605	0.498
505.000	328.441	80.005	19.995	100.340	20.039	1.694	0.473
505.500	328.722	80.006	19.995	100.339	20.038	1.735	0.507
506.000	328.987	80.004	19.995	100.338	20.039	1.696	0.543
506.500	329.234	80.003	19.995	100.338	20.039	1.632	0.528
507.000	329.485	80.005	19.995	100.339	20.041	1.494	0.505
507.500	329.755	80.005	19.996	100.339	20.042	1.459	0.510
508.000	330.021	80.003	19.995	100.339	20.038	1.760	0.529
508.500	330.252	80.004	19.996	100.340	20.042	1.455	0.517
509.000	330.513	80.005	19.995	100.342	20.038	1.722	0.494
509.500	330.782	80.005	19.995	100.343	20.040	1.595	0.510
510.001	331.051	80.006	19.995	100.343	20.037	1.819	0.534
510.500	331.282	80.004	19.995	100.344	20.039	1.677	0.519
511.000	331.520	80.005	19.995	100.344	20.037	1.817	0.485
511.500	331.814	80.006	19.995	100.341	20.040	1.595	0.501
512.000	332.035	80.004	19.995	100.339	20.038	1.772	0.524
512.500	332.300	80.006	19.996	100.339	20.038	1.710	0.500
513.000	332.552	80.005	19.995	100.337	20.039	1.694	0.501
513.500	332.836	80.005	19.995	100.337	20.038	1.745	0.527
514.000	333.109	80.006	19.996	100.337	20.040	1.618	0.546
514.500	333.327	80.006	19.995	100.338	20.037	1.811	0.523
515.000	333.633	80.006	19.996	100.337	20.039	1.681	0.507
515.500	333.847	80.005	19.995	100.337	20.039	1.636	0.522
516.000	334.146	80.005	19.996	100.338	20.039	1.659	0.517
516.500	334.363	80.009	19.995	100.338	20.039	1.669	0.515
517.000	334.651	80.007	19.995	100.338	20.039	1.698	0.511
517.500	334.909	80.010	19.996	100.338	20.037	1.801	0.526
518.000	335.175	80.005	19.994	100.337	20.040	1.595	0.535
518.500	335.405	80.005	19.995	100.336	20.039	1.657	0.510
519.000	335.679	80.007	19.995	100.335	20.040	1.628	0.500
519.500	335.923	80.007	19.994	100.334	20.040	1.605	0.511
520.000	336.155	80.006	19.995	100.335	20.041	1.541	0.497
520.500	336.450	80.008	19.994	100.334	20.036	1.926	0.501
521.000	336.685	80.008	19.995	100.335	20.041	1.484	0.528
521.500	336.917	80.008	19.994	100.333	20.040	1.595	0.498
522.000	337.189	80.007	19.995	100.333	20.041	1.535	0.486
522.500	337.483	80.008	19.995	100.333	20.037	1.786	0.535
523.000	337.747	80.008	19.995	100.333	20.040	1.585	0.562
523.500	337.952	80.007	19.994	100.333	20.038	1.725	0.513
524.000	338.205	80.009	19.995	100.336	20.040	1.620	0.463
524.500	338.473	80.008	19.993	100.336	20.039	1.698	0.489
525.000	338.731	80.004	19.995	100.335	20.040	1.624	0.524
525.500	338.986	80.007	19.996	100.335	20.041	1.550	0.520
526.000	339.196	80.006	19.994	100.335	20.040	1.591	0.489
526.500	339.474	80.006	19.994	100.335	20.039	1.657	0.477
527.000	339.773	80.005	19.995	100.335	20.040	1.566	0.532
527.500	339.995	80.004	19.995	100.336	20.041	1.490	0.549
528.000	340.255	80.003	19.994	100.337	20.041	1.513	0.502
528.500	340.518	80.007	19.995	100.337	20.041	1.539	0.502
529.000	340.786	80.003	19.995	100.334	20.042	1.469	0.527
529.500	341.054	80.005	19.995	100.330	20.040	1.585	0.534
530.000	341.266	80.005	19.995	100.329	20.039	1.688	0.509
530.500	341.529	80.006	19.995	100.329	20.040	1.628	0.478
531.000	341.770	80.006	19.995	100.328	20.038	1.768	0.489
531.500	342.057	80.008	19.996	100.332	20.038	1.737	0.516
532.000	342.325	80.005	19.995	100.335	20.038	1.766	0.542
532.500	342.522	80.005	19.995	100.337	20.038	1.745	0.510
533.000	342.804	80.004	19.994	100.338	20.042	1.469	0.472
533.500	343.044	80.006	19.995	100.338	20.040	1.595	0.501
534.000	343.273	80.004	19.995	100.339	20.039	1.688	0.495
534.500	343.555	80.005	19.995	100.339	20.040	1.618	0.490
535.000	343.801	80.005	19.997	100.338	20.040	1.587	0.520
535.500	344.065	80.005	19.995	100.336	20.041	1.494	0.518
536.000	344.307	80.003	19.995	100.335	20.040	1.616	0.508
536.500	344.564	80.004	19.995	100.332	20.040	1.589	0.503
537.001	344.807	80.005	19.995	100.332	20.041	1.554	0.500
537.500	345.094	80.003	19.995	100.332	20.038	1.776	0.515
538.000	345.321	80.003	19.995	100.331	20.037	1.807	0.522
538.500	345.574	80.003	19.995	100.331	20.038	1.782	0.497
539.000	345.817	80.004	19.996	100.335	20.040	1.556	0.488
539.500	346.067	80.006	19.995	100.335	20.040	1.609	0.495
540.000	346.378	80.006	19.995	100.336	20.039	1.700	0.527
540.501	346.576	80.004	19.995	100.340	20.040	1.595	0.535
541.001	346.849	80.005	19.995	100.341	20.041	1.529	0.490
541.500	347.105	80.004	19.995	100.341	20.037	1.799	0.500
542.000	347.333	80.004	19.996	100.342	20.037	1.788	0.506
542.500	347.591	80.004	19.995	100.342	20.038	1.766	0.486
543.000	347.808	80.003	19.996	100.343	20.036	1.902	0.481
543.500	348.086	80.006	19.996	100.342	20.038	1.720	0.485
544.000	348.360	80.004	19.996	100.341	20.038	1.733	0.523
544.500	348.563	80.004	19.996	100.340	20.040	1.576	0.514
545.000	348.827	80.004	19.996	100.340	20.037	1.809	0.472
545.500	349.087	80.005	19.996	100.340	20.039	1.638	0.495
546.000	349.355	80.004	19.995	100.340	20.035	1.976	0.526
546.500	349.619	80.005	19.995	100.340	20.037	1.838	0.530
547.000	349.886	80.004	19.996	100.341	20.038	1.716	0.532
547.500	350.071	80.003	19.996	100.340	20.038	1.747	0.491
548.000	350.321	80.005	19.995	100.336	20.039	1.691	0.443
548.500	350.625	80.004	19.996	100.334	20.036	1.887	0.494
549.000	350.852	80.006	19.995	100.333	20.036	1.883	0.543
549.500	351.108	80.005	19.997	100.333	20.036	1.868	0.507
550.000	351.378	80.006	19.996	100.334	20.036	1.918	0.504
550.500	351.610	80.003	19.996	100.336	20.035	1.934	0.514
551.000	351.849	80.004	19.995	100.339	20.037	1.848	0.487
551.500	352.098	80.005	19.996	100.341	20.037	1.811	0.480
552.000	352.346	80.007	19.995	100.341	20.033	2.093	0.493
552.500	352.571	80.005	19.996	100.340	20.037	1.825	0.485
553.000	352.862	80.004	19.996	100.339	20.037	1.854	0.495
553.500	353.098	80.002	19.996	100.338	20.038	1.782	0.522
554.000	353.375	80.004	19.995	100.338	20.036	1.906	0.520
554.500	353.643	80.005	19.996	100.337	20.033	2.112	0.529
555.000	353.909	80.005	19.995	100.337	20.034	2.031	0.539
555.501	354.134	80.004	19.996	100.336	20.034	2.021	0.512
556.001	354.401	80.003	19.995	100.336	20.035	1.957	0.492
556.500	354.636	80.006	19.995	100.332	20.037	1.825	0.497
557.000	354.825	80.006	19.996	100.332	20.035	1.951	0.463
557.500	355.115	80.005	19.995	100.329	20.032	2.188	0.451
558.000	355.329	80.003	19.995	100.327	20.037	1.819	0.491
558.500	355.627	80.004	19.995	100.322	20.036	1.864	0.508
559.000	355.863	80.006	19.996	100.324	20.036	1.881	0.523
559.500	356.112	80.004	19.995	100.324	20.037	1.825	0.509
560.000	356.398	80.005	19.996	100.327	20.035	1.971	0.510
560.500	356.579	80.004	19.996	100.330	20.036	1.871	0.501
561.000	356.865	80.003	19.996	100.333	20.035	1.969	0.466
561.500	357.097	80.003	19.996	100.330	20.037	1.821	0.492
562.000	357.344	80.006	19.996	100.328	20.036	1.885	0.499
562.500	357.630	80.007	19.996	100.329	20.037	1.840	0.507
563.000	357.854	80.002	19.995	100.329	20.035	1.984	0.522
563.500	358.079	80.004	19.996	100.332	20.037	1.854	0.480
564.000	358.349	80.004	19.996	100.336	20.037	1.794	0.472
564.500	358.603	80.005	19.997	100.341	20.037	1.848	0.510
565.000	358.829	80.001	19.996	100.342	20.037	1.815	0.502
565.500	359.074	80.002	19.997	100.343	20.034	2.021	0.475
566.000	359.339	80.003	19.995	100.343	20.034	2.043	0.491
566.500	359.560	80.003	19.996	100.343	20.037	1.838	0.498
567.000	359.860	80.003	19.995	100.342	20.036	1.930	0.503
567.500	360.108	80.003	19.995	100.341	20.033	2.140	0.534
568.000	360.351	80.002	19.996	100.341	20.035	1.994	0.520
568.500	360.594	80.007	19.996	100.340	20.036	1.932	0.488
569.000	360.871	80.005	19.996	100.338	20.036	1.879	0.503
569.500	361.094	80.003	19.996	100.337	20.031	2.243	0.510
570.000	361.361	80.004	19.997	100.336	20.033	2.095	0.495
570.500	361.623	80.004	19.996	100.335	20.034	2.021	0.509
571.000	361.881	80.005	19.996	100.333	20.032	2.173	0.524
571.500	362.126	80.004	19.996	100.333	20.033	2.138	0.511
572.000	362.373	80.005	19.996	100.333	20.035	1.969	0.498
572.500	362.681	80.005	19.996	100.334	20.031	2.243	0.524
573.000	362.922	80.005	19.997	100.329	20.031	2.280	0.552
573.500	363.151	80.005	19.996	100.328	20.029	2.434	0.510
574.000	363.364	80.005	19.997	100.328	20.029	2.447	0.457
574.500	363.615	80.005	19.997	100.329	20.029	2.457	0.453
575.000	363.917	80.006	19.997	100.329	20.028	2.521	0.508
575.500	364.122	80.006	19.997	100.333	20.030	2.329	0.530
576.000	364.381	80.005	19.997	100.334	20.032	2.198	0.486
576.500	364.611	80.005	19.997	100.333	20.028	2.465	0.477
577.000	364.889	80.004	19.997	100.333	20.031	2.307	0.499
577.500	365.123	80.005	19.998	100.332	20.029	2.403	0.510
578.000	365.408	80.008	19.997	100.332	20.029	2.420	0.515
578.500	365.657	80.007	19.997	100.333	20.030	2.372	0.526
579.000	365.887	80.004	19.997	100.334	20.027	2.609	0.506
579.500	366.159	80.005	19.996	100.333	20.029	2.436	0.490
580.000	366.395	80.007	19.996	100.332	20.025	2.706	0.505
580.500	366.674	80.004	19.997	100.329	20.027	2.597	0.512
581.000	366.900	80.007	19.998	100.327	20.026	2.673	0.510
581.500	367.161	80.004	19.995	100.327	20.025	2.734	0.496
582.000	367.436	80.005	19.996	100.329	20.023	2.851	0.512
582.500	367.655	80.006	19.997	100.330	20.026	2.691	0.515
583.000	367.903	80.004	19.996	100.331	20.024	2.773	0.480
583.500	368.158	80.005	19.998	100.332	20.026	2.685	0.485
584.000	368.410	80.007	19.996	100.333	20.022	2.930	0.505
584.500	368.675	80.005	19.996	100.331	20.021	3.012	0.511
585.000	368.936	80.005	19.996	100.329	20.023	2.872	0.521
585.500	369.166	80.006	19.996	100.328	20.024	2.805	0.509
586.000	369.403	80.005	19.997	100.328	20.022	2.947	0.480
586.500	369.683	80.005	19.997	100.329	20.026	2.685	0.492
587.000	369.937	80.006	19.996	100.327	20.022	2.980	0.525
587.500	370.173	80.006	19.996	100.325	20.020	3.076	0.511
588.000	370.398	80.003	19.996	100.327	20.024	2.794	0.475
588.500	370.672	80.005	19.995	100.326	20.022	2.986	0.480
589.000	370.945	80.006	19.996	100.323	20.022	2.990	0.523
589.500	371.157	80.004	19.995	100.322	20.018	3.247	0.516
590.000	371.438	80.005	19.996	100.322	20.021	3.016	0.489
590.500	371.700	80.006	19.995	100.319	20.019	3.210	0.518
591.000	371.926	80.005	19.995	100.316	20.019	3.220	0.516
591.500	372.211	80.007	19.996	100.314	20.018	3.230	0.500
592.000	372.476	80.006	19.996	100.311	20.023	2.843	0.531
592.500	372.693	80.005	19.996	100.309	20.020	3.088	0.516
593.000	372.967	80.007	19.995	100.307	20.021	3.066	0.487
593.500	373.227	80.006	19.995	100.307	20.017	3.321	0.513
594.000	373.510	80.004	19.996	100.304	20.017	3.329	0.538
594.500	373.734	80.005	19.995	100.304	20.016	3.385	0.525
595.000	373.972	80.008	19.996	100.308	20.018	3.266	0.484
595.500	374.208	80.006	19.995	100.313	20.018	3.235	0.468
596.000	374.504	80.005	19.995	100.317	20.015	3.488	0.503
596.500	374.760	80.006	19.996	100.323	20.014	3.552	0.542
597.000	375.008	80.007	19.995	100.326	20.012	3.719	0.528
597.500	375.252	80.007	19.995	100.325	20.012	3.709	0.498
598.000	375.515	80.007	19.995	100.325	20.014	3.573	0.500
598.500	375.748	80.007	19.995	100.327	20.008	3.999	0.501
599.000	376.032	80.006	19.995	100.328	20.012	3.708	0.507
599.500	376.250	80.007	19.994	100.332	20.009	3.968	0.510
600.000	376.542	80.008	19.996	100.331	20.009	3.980	0.506
600.500	376.771	80.007	19.995	100.327	20.008	3.984	0.516
601.000	377.019	80.008	19.996	100.321	20.009	3.916	0.499
601.501	377.296	80.006	19.995	100.314	20.008	3.994	0.501
602.001	377.572	80.008	19.995	100.308	20.008	4.054	0.539
602.500	377.805	80.008	19.995	100.304	20.008	3.984	0.531
603.000	378.050	80.008	19.994	100.304	20.007	4.128	0.493
603.500	378.323	80.006	19.996	100.306	20.005	4.280	0.498
604.000	378.581	80.005	19.995	100.314	20.004	4.313	0.525
604.500	378.802	80.007	19.994	100.321	20.010	3.867	0.505
605.000	379.073	80.009	19.995	100.328	20.003	4.412	0.485
605.500	379.353	80.008	19.995	100.334	20.006	4.151	0.521
606.000	379.644	80.007	19.996	100.339	20.005	4.208	0.561
606.500	379.892	80.007	19.995	100.339	20.004	4.342	0.556
607.000	380.158	80.008	19.995	100.340	20.004	4.350	0.527
607.500	380.363	80.006	19.995	100.342	20.004	4.317	0.492
608.000	380.633	80.005	19.995	100.344	20.002	4.441	0.473
608.500	380.915	80.006	19.995	100.347	20.003	4.408	0.513
609.000	381.171	80.008	19.995	100.346	20.000	4.601	0.545
609.500	381.407	80.006	19.995	100.344	20.001	4.562	0.515
610.000	381.681	80.004	19.995	100.338	19.997	4.840	0.501
610.500	381.921	80.006	19.995	100.333	19.998	4.789	0.512
611.000	382.159	80.004	19.995	100.330	19.999	4.698	0.496
611.500	382.440	80.006	19.996	100.331	19.995	4.974	0.499
612.000	382.683	80.005	19.995	100.331	19.996	4.947	0.522
612.500	382.918	80.005	19.995	100.331	19.998	4.752	0.501
613.000	383.176	80.003	19.996	100.331	19.998	4.807	0.486
613.500	383.481	80.003	19.995	100.330	19.994	5.069	0.528
614.000	383.721	80.003	19.995	100.330	19.997	4.867	0.554
614.500	383.958	80.005	19.996	100.332	19.996	4.929	0.511
615.000	384.204	80.004	19.995	100.337	19.995	5.004	0.479
615.500	384.517	80.005	19.996	100.339	19.994	5.043	0.520
616.000	384.769	80.004	19.996	100.336	19.995	4.995	0.562
616.500	385.029	80.006	19.996	100.335	19.994	5.042	0.539
617.000	385.290	80.002	19.995	100.335	19.992	5.240	0.517
617.500	385.532	80.004	19.997	100.335	19.994	5.065	0.512
618.000	385.816	80.004	19.995	100.333	19.991	5.300	0.515
618.501	386.031	80.005	19.996	100.331	19.992	5.253	0.512
619.001	386.282	80.005	19.995	100.328	19.992	5.265	0.482
619.500	386.547	80.004	19.996	100.327	19.993	5.170	0.491
620.000	386.807	80.005	19.996	100.326	19.989	5.448	0.520
620.500	387.075	80.004	19.995	100.328	19.991	5.314	0.527
621.000	387.321	80.006	19.995	100.335	19.989	5.431	0.521
621.500	387.588	80.005	19.995	100.339	19.990	5.374	0.513
622.000	387.855	80.005	19.996	100.340	19.990	5.396	0.523
622.500	388.110	80.003	19.995	100.339	19.983	5.902	0.528
623.000	388.386	80.003	19.995	100.337	19.983	5.880	0.527
623.500	388.635	80.003	19.996	100.337	19.982	5.960	0.528
624.000	388.858	80.005	19.996	100.337	19.984	5.855	0.498
624.500	389.119	80.004	19.995	100.338	19.982	5.975	0.478
625.000	389.405	80.005	19.995	100.337	19.981	6.028	0.516
625.500	389.632	80.005	19.996	100.332	19.981	6.040	0.530
626.000	389.909	80.004	19.996	100.325	19.979	6.250	0.508
626.500	390.211	80.002	19.994	100.317	19.977	6.339	0.541
627.000	390.411	80.004	19.995	100.310	19.977	6.394	0.540
627.500	390.701	80.002	19.995	100.307	19.977	6.337	0.496
628.000	390.986	80.005	19.995	100.309	19.975	6.501	0.532
628.500	391.205	80.004	19.995	100.313	19.974	6.577	0.539
629.000	391.473	80.005	19.995	100.314	19.973	6.703	0.496
629.500	391.760	80.004	19.994	100.314	19.972	6.773	0.521
630.000	392.002	80.003	19.995	100.313	19.973	6.674	0.542
630.500	392.263	80.005	19.996	100.310	19.973	6.649	0.516
631.000	392.493	80.005	19.995	100.306	19.970	6.871	0.497
631.500	392.772	80.004	19.996	100.305	19.969	6.958	0.500
632.000	393.069	80.007	19.995	100.306	19.966	7.184	0.542
632.501	393.308	80.004	19.995	100.306	19.966	7.202	0.556
633.000	393.589	80.004	19.995	100.305	19.965	7.303	0.528
633.500	393.864	80.006	19.995	100.305	19.962	7.476	0.538
634.000	394.098	80.003	19.997	100.308	19.966	7.188	0.533
634.500	394.377	80.004	19.995	100.311	19.961	7.561	0.511
635.000	394.634	80.005	19.996	100.312	19.963	7.458	0.524
635.500	394.871	80.005	19.995	100.314	19.960	7.641	0.514
636.000	395.139	80.006	19.996	100.314	19.959	7.744	0.499
636.500	395.382	80.005	19.996	100.310	19.959	7.736	0.508
637.000	395.630	80.004	19.995	100.308	19.960	7.674	0.501
637.500	395.888	80.004	19.995	100.308	19.957	7.851	0.498
638.000	396.173	80.005	19.995	100.307	19.954	8.110	0.525
638.500	396.401	80.006	19.996	100.306	19.954	8.110	0.528
639.000	396.646	80.005	19.996	100.307	19.954	8.110	0.493
639.500	396.914	80.004	19.997	100.305	19.953	8.169	0.493
640.000	397.152	80.004	19.996	100.305	19.951	8.354	0.509
640.500	397.406	80.005	19.996	100.305	19.950	8.406	0.498
641.000	397.643	80.003	19.995	100.305	19.948	8.593	0.492
641.500	397.955	80.004	19.996	100.305	19.947	8.614	0.520
642.000	398.188	80.005	19.996	100.304	19.943	8.953	0.547
642.500	398.428	80.007	19.996	100.302	19.942	8.996	0.509
643.000	398.685	80.003	19.996	100.302	19.941	9.074	0.485
643.500	398.943	80.005	19.995	100.302	19.940	9.194	0.506
644.000	399.174	80.003	19.996	100.304	19.938	9.298	0.502
644.500	399.473	80.004	19.996	100.308	19.939	9.216	0.510
645.001	399.728	80.005	19.996	100.308	19.936	9.492	0.542
645.500	399.951	80.006	19.996	100.308	19.933	9.720	0.515
646.001	400.204	80.003	19.996	100.308	19.933	9.679	0.477
646.501	400.461	80.003	19.997	100.308	19.931	9.831	0.493
647.000	400.714	80.002	19.996	100.306	19.930	9.953	0.510
647.500	400.975	80.003	19.997	100.307	19.929	9.979	0.512
648.000	401.209	80.005	19.996	100.307	19.928	10.072	0.504
648.500	401.486	80.004	19.997	100.309	19.927	10.150	0.503
649.000	401.704	80.002	19.997	100.306	19.926	10.230	0.503
649.500	401.994	80.005	19.996	100.304	19.923	10.428	0.502
650.000	402.234	80.002	19.996	100.303	19.921	10.630	0.519
650.500	402.498	80.006	19.996	100.303	19.921	10.644	0.517
651.000	402.737	80.005	19.997	100.301	19.918	10.819	0.504
651.500	403.007	80.006	19.997	100.303	19.916	10.975	0.506
652.000	403.239	80.007	19.997	100.303	19.912	11.284	0.505
652.500	403.504	80.007	19.997	100.302	19.912	11.318	0.499
653.000	403.756	80.004	19.995	100.302	19.910	11.448	0.507
653.500	404.048	80.004	19.996	100.303	19.906	11.755	0.530
654.000	404.225	80.006	19.996	100.301	19.904	11.886	0.506
654.500	404.511	80.005	19.996	100.301	19.900	12.181	0.466
655.000	404.782	80.006	19.997	100.299	19.897	12.426	0.510
655.500	404.966	80.005	19.995	100.299	19.896	12.511	0.507
656.000	405.212	80.006	19.995	100.297	19.897	12.398	0.442
656.500	405.491	80.009	19.997	100.297	19.896	12.499	0.477
657.000	405.723	80.006	19.995	100.297	19.896	12.475	0.518
657.500	405.988	80.005	19.996	100.299	19.891	12.888	0.504
658.000	406.211	80.006	19.996	100.298	19.889	13.062	0.493
658.500	406.501	80.006	19.996	100.299	19.889	13.000	0.500
659.000	406.746	80.006	19.995	100.299	19.887	13.210	0.524
659.500	406.990	80.005	19.994	100.299	19.883	13.522	0.512
660.000	407.231	80.007	19.995	100.300	19.879	13.819	0.487
660.500	407.465	80.005	19.995	100.301	19.878	13.833	0.480
661.000	407.747	80.008	19.996	100.301	19.872	14.283	0.495
661.500	407.974	80.005	19.995	100.301	19.874	14.133	0.512
662.000	408.221	80.007	19.996	100.301	19.871	14.416	0.492
662.500	408.489	80.005	19.995	100.300	19.869	14.513	0.495
663.000	408.734	80.005	19.996	100.299	19.868	14.607	0.514
663.500	408.935	80.007	19.995	100.298	19.866	14.796	0.479
664.000	409.218	80.005	19.995	100.298	19.863	14.997	0.465
664.500	409.476	80.007	19.996	100.298	19.861	15.124	0.513
665.000	409.738	80.005	19.996	100.299	19.858	15.366	0.531
665.500	410.003	80.005	19.997	100.299	19.856	15.544	0.523
666.000	410.230	80.006	19.995	100.306	19.853	15.777	0.509
666.501	410.461	80.006	19.996	100.312	19.849	16.064	0.475
667.000	410.720	80.005	19.997	100.314	19.849	16.037	0.474
667.500	410.928	80.004	19.996	100.316	19.843	16.548	0.479
668.000	411.239	80.003	19.996	100.317	19.840	16.739	0.493
668.500	411.496	80.003	19.996	100.312	19.839	16.832	0.543
669.000	411.750	80.004	19.996	100.307	19.837	16.985	0.539
669.500	412.023	80.005	19.996	100.304	19.834	17.226	0.519
670.000	412.244	80.006	19.996	100.303	19.832	17.360	0.510
670.500	412.531	80.006	19.996	100.299	19.828	17.665	0.501
671.000	412.775	80.003	19.996	100.295	19.821	18.224	0.520
671.500	413.041	80.004	19.998	100.290	19.821	18.183	0.521
672.000	413.274	80.005	19.997	100.287	19.818	18.407	0.504
672.500	413.531	80.005	19.996	100.283	19.814	18.719	0.495
673.000	413.774	80.003	19.996	100.284	19.812	18.861	0.495
673.500	414.040	80.004	19.997	100.282	19.806	19.292	0.505
674.000	414.281	80.006	19.996	100.279	19.806	19.354	0.508
674.500	414.493	80.004	19.997	100.274	19.803	19.549	0.480
675.000	414.759	80.004	19.997	100.273	19.800	19.749	0.465
675.500	415.031	80.005	19.996	100.273	19.798	19.924	0.508
676.000	415.277	80.003	19.996	100.277	19.796	20.115	0.528
676.500	415.519	80.004	19.996	100.283	19.790	20.572	0.503
677.000	415.757	80.003	19.997	100.290	19.788	20.661	0.484
677.500	416.086	80.005	19.997	100.294	19.785	20.895	0.524
678.000	416.290	80.002	19.996	100.298	19.781	21.251	0.550
678.500	416.548	80.005	19.997	100.298	19.779	21.331	0.498
679.000	416.812	80.007	19.995	100.298	19.774	21.718	0.492
679.500	417.042	80.005	19.997	100.300	19.774	21.775	0.508
680.000	417.327	80.007	19.996	100.303	19.770	22.063	0.505
680.500	417.528	80.007	19.996	100.306	19.765	22.411	0.500
681.000	417.822	80.007	19.996	100.308	19.760	22.779	0.490
681.500	418.068	80.008	19.996	100.310	19.758	22.959	0.518
682.000	418.332	80.007	19.996	100.310	19.757	23.061	0.525
682.501	418.583	80.005	19.997	100.309	19.754	23.264	0.512
683.000	418.835	80.006	19.996	100.306	19.750	23.583	0.509
683.500	419.100	80.007	19.997	100.302	19.745	23.919	0.510
684.000	419.349	80.005	19.995	100.301	19.743	24.081	0.516
684.500	419.601	80.007	19.996	100.300	19.739	24.389	0.508
685.000	419.828	80.006	19.996	100.299	19.734	24.803	0.490
685.500	420.076	80.009	19.995	100.299	19.729	25.160	0.477
686.000	420.337	80.006	19.995	100.300	19.723	25.585	0.492
686.500	420.611	80.006	19.995	100.300	19.720	25.795	0.522
687.000	420.899	80.009	19.996	100.301	19.720	25.849	0.549
687.500	421.140	80.006	19.994	100.301	19.713	26.372	0.545
688.000	421.398	80.006	19.995	100.301	19.707	26.798	0.514
688.501	421.624	80.007	19.995	100.301	19.705	27.007	0.491
689.000	421.894	80.007	19.995	100.300	19.702	27.222	0.490
689.500	422.166	80.008	19.994	100.300	19.695	27.727	0.519
690.000	422.396	80.005	19.996	100.300	19.688	28.255	0.522
690.500	422.637	80.006	19.994	100.300	19.686	28.436	0.487
691.000	422.885	80.004	19.994	100.300	19.679	28.930	0.480
691.500	423.128	80.005	19.995	100.301	19.676	29.189	0.490
692.000	423.406	80.003	19.995	100.298	19.670	29.645	0.506
692.500	423.641	80.006	19.995	100.294	19.665	29.965	0.517
693.000	423.910	80.004	19.995	100.291	19.661	30.279	0.508
693.500	424.164	80.007	19.995	100.289	19.655	30.790	0.513
694.000	424.395	80.006	19.994	100.289	19.648	31.252	0.504
694.500	424.676	80.004	19.995	100.291	19.644	31.564	0.499
695.000	424.912	80.005	19.995	100.291	19.639	31.941	0.515
695.500	425.159	80.006	19.996	100.287	19.635	32.311	0.500
696.000	425.451	80.006	19.996	100.282	19.629	32.723	0.511
696.501	425.698	80.004	19.995	100.277	19.622	33.258	0.539
697.000	425.952	80.005	19.996	100.273	19.614	33.846	0.520
697.500	426.194	80.005	19.996	100.274	19.615	33.765	0.498
698.000	426.492	80.006	19.995	100.277	19.602	34.770	0.518
698.500	426.742	80.007	19.996	100.280	19.599	34.993	0.544
699.000	426.957	80.005	19.996	100.281	19.597	35.157	0.507
699.501	427.195	80.005	19.996	100.286	19.586	35.983	0.460
700.001	427.473	80.004	19.996	100.283	19.582	36.323	0.485
700.500	427.725	80.005	19.996	100.280	19.575	36.823	0.523
701.000	427.992	80.006	19.996	100.277	19.570	37.158	0.524
701.500	428.240	80.006	19.997	100.278	19.565	37.588	0.517
702.000	428.487	80.004	19.995	100.272	19.553	38.468	0.505
702.500	428.733	80.005	19.996	100.270	19.549	38.776	0.494
703.000	428.977	80.003	19.996	100.270	19.544	39.174	0.492
703.500	429.246	80.004	19.995	100.271	19.539	39.552	0.502
704.000	429.505	80.005	19.995	100.270	19.529	40.272	0.520
704.500	429.755	80.004	19.996	100.274	19.521	40.914	0.518
705.000	430.035	80.005	19.995	100.279	19.513	41.540	0.520
705.500	430.279	80.006	19.996	100.284	19.505	42.079	0.527
706.000	430.507	80.004	19.996	100.283	19.497	42.745	0.498
706.500	430.792	80.005	19.996	100.283	19.491	43.164	0.493
707.000	431.072	80.005	19.996	100.286	19.481	43.924	0.539
707.500	431.305	80.006	19.996	100.287	19.474	44.462	0.539
708.000	431.534	80.005	19.995	100.286	19.465	45.130	0.487
708.500	431.817	80.004	19.995	100.289	19.458	45.679	0.487
709.000	432.016	80.007	19.996	100.292	19.449	46.317	0.497
709.500	432.315	80.003	19.995	100.290	19.440	47.004	0.490
710.000	432.570	80.004	19.996	100.288	19.430	47.758	0.526
710.500	432.820	80.007	19.996	100.284	19.424	48.279	0.530
711.000	433.067	80.005	19.996	100.280	19.413	49.110	0.501
711.500	433.367	80.005	19.995	100.275	19.404	49.733	0.522
712.000	433.582	80.005	19.995	100.270	19.392	50.637	0.531
712.500	433.860	80.003	19.996	100.264	19.387	51.058	0.504
713.000	434.115	80.005	19.996	100.264	19.378	51.729	0.513
713.500	434.361	80.005	19.995	100.264	19.366	52.646	0.517
714.000	434.665	80.006	19.995	100.261	19.356	53.420	0.526
714.500	434.923	80.004	19.995	100.259	19.344	54.289	0.556
715.000	435.187	80.006	19.995	100.260	19.335	55.009	0.542
715.500	435.394	80.004	19.995	100.260	19.326	55.658	0.496
716.000	435.654	80.006	19.996	100.259	19.314	56.580	0.469
716.500	435.941	80.005	19.996	100.259	19.301	57.576	0.507
717.000	436.169	80.004	19.995	100.257	19.290	58.368	0.531
717.500	436.393	80.006	19.996	100.257	19.279	59.247	0.483
718.000	436.692	80.005	19.995	100.256	19.268	60.048	0.487
718.500	436.916	80.005	19.995	100.254	19.252	61.226	0.523
719.000	437.145	80.006	19.995	100.253	19.242	61.991	0.488
719.500	437.425	80.003	19.996	100.254	19.229	62.994	0.481
720.000	437.656	80.005	19.995	100.254	19.217	63.942	0.510
720.500	437.904	80.004	19.996	100.255	19.200	65.196	0.495
721.000	438.186	80.006	19.995	100.257	19.189	66.031	0.505
721.500	438.436	80.007	19.996	100.259	19.173	67.219	0.532
722.000	438.672	80.004	19.996	100.259	19.159	68.299	0.509
722.500	438.929	80.004	19.995	100.259	19.145	69.338	0.489
723.000	439.159	80.004	19.995	100.258	19.129	70.561	0.490
723.500	439.435	80.004	19.996	100.258	19.116	71.595	0.497
724.000	439.676	80.005	19.995	100.258	19.100	72.804	0.512
724.500	439.913	80.006	19.996	100.257	19.086	73.862	0.497
725.000	440.162	80.004	19.996	100.255	19.074	74.760	0.482
725.500	440.419	80.005	19.996	100.254	19.058	75.935	0.496
726.000	440.682	80.005	19.995	100.251	19.041	77.248	0.513
726.500	440.944	80.003	19.995	100.250	19.028	78.261	0.523
727.000	441.167	80.003	19.995	100.247	19.011	79.493	0.505
727.500	441.438	80.004	19.994	100.245	18.997	80.588	0.490
728.000	441.682	80.005	19.995	100.242	18.983	81.593	0.505
728.500	441.928	80.004	19.994	100.238	18.961	83.284	0.503
729.000	442.166	80.004	19.994	100.232	18.947	84.319	0.487
729.500	442.427	80.004	19.995	100.229	18.927	85.796	0.491
730.000	442.686	80.003	19.997	100.226	18.912	86.991	0.509
730.500	442.926	80.005	19.995	100.227	18.892	88.477	0.509
731.000	443.130	80.004	19.996	100.227	18.870	90.112	0.472
731.500	443.403	80.003	19.996	100.227	18.849	91.687	0.461
732.000	443.667	80.005	19.994	100.228	18.832	93.006	0.507
732.500	443.910	80.006	19.996	100.234	18.807	94.888	0.522
733.000	444.173	80.004	19.996	100.235	18.784	96.652	0.506
733.500	444.414	80.005	19.995	100.236	18.759	98.560	0.505
734.000	444.681	80.004	19.995	100.238	18.733	100.497	0.506
734.500	444.919	80.004	19.996	100.244	18.707	102.476	0.507
735.000	445.183	80.005	19.995	100.244	18.687	103.980	0.503
735.500	445.412	80.006	19.996	100.245	18.662	105.910	0.497
736.000	445.652	80.004	19.996	100.248	18.641	107.457	0.481
736.500	445.903	80.005	19.995	100.251	18.618	109.201	0.480
737.000	446.166	80.003	19.997	100.250	18.598	110.754	0.503
737.500	446.426	80.005	19.996	100.244	18.574	112.505	0.518
738.000	446.665	80.004	19.995	100.239	18.552	114.194	0.511
738.500	446.907	80.004	19.996	100.233	18.531	115.818	0.490
739.000	447.167	80.005	19.995	100.220	18.507	117.592	0.491
739.500	447.397	80.006	19.996	100.207	18.487	119.126	0.496
740.000	447.655	80.005	19.997	100.197	18.468	120.552	0.490
740.500	447.893	80.006	19.995	100.189	18.444	122.331	0.492
741.000	448.163	80.006	19.995	100.176	18.420	124.155	0.502
741.500	448.385	80.006	19.997	100.167	18.394	126.101	0.499
742.000	448.642	80.006	19.996	100.159	18.371	127.837	0.486
742.500	448.905	80.005	19.997	100.161	18.344	129.861	0.500
743.001	449.138	80.005	19.996	100.162	18.319	131.770	0.507
743.500	449.409	80.007	19.996	100.168	18.296	133.512	0.500
744.000	449.636	80.006	19.996	100.175	18.271	135.447	0.501
744.500	449.911	80.006	19.996	100.183	18.241	137.722	0.501
745.000	450.141	80.005	19.996	100.186	18.219	139.343	0.504
745.500	450.407	80.007	19.997	100.189	18.198	140.977	0.500
746.000	450.646	80.006	19.995	100.191	18.168	143.176	0.500
746.500	450.913	80.005	19.995	100.191	18.141	145.213	0.505
747.000	451.139	80.007	19.995	100.190	18.114	147.298	0.500
747.500	451.380	80.005	19.995	100.188	18.085	149.491	0.480
748.000	451.634	80.007	19.996	100.185	18.055	151.722	0.481
748.500	451.864	80.006	19.997	100.184	18.028	153.746	0.489
749.000	452.117	80.006	19.996	100.184	17.998	156.041	0.483
749.500	452.366	80.006	19.995	100.183	17.968	158.266	0.493
750.000	452.651	80.004	19.996	100.175	17.938	160.536	0.518
750.500	452.863	80.005	19.995	100.168	17.906	162.941	0.515
751.000	453.119	80.005	19.995	100.160	17.877	165.085	0.483
751.500	453.382	80.004	19.995	100.152	17.846	167.441	0.493
752.000	453.653	80.004	19.996	100.145	17.817	169.586	0.526
752.500	453.841	80.005	19.994	100.145	17.786	171.950	0.496
753.000	454.099	80.005	19.996	100.144	17.751	174.565	0.452
753.500	454.355	80.003	19.994	100.143	17.720	176.926	0.480
754.000	454.621	80.005	19.996	100.142	17.683	179.710	0.518
754.500	454.914	80.005	19.996	100.142	17.649	182.330	0.540
755.000	455.137	80.003	19.996	100.142	17.619	184.589	0.537
755.500	455.381	80.005	19.995	100.142	17.585	187.094	0.492
756.000	455.673	80.005	19.996	100.143	17.554	189.463	0.502
756.500	455.918	80.004	19.996	100.145	17.515	192.408	0.536
757.001	456.167	80.006	19.996	100.145	17.480	195.057	0.515
757.500	456.424	80.005	19.995	100.137	17.444	197.774	0.500
758.000	456.637	80.005	19.996	100.129	17.410	200.320	0.488
758.500	456.909	80.006	19.997	100.122	17.372	203.208	0.477
759.000	457.190	80.006	19.996	100.114	17.336	205.901	0.519
759.500	457.444	80.005	19.995	100.107	17.301	208.508	0.544
760.000	457.710	80.006	19.996	100.105	17.262	211.409	0.528
760.500	457.930	80.006	19.996	100.105	17.223	214.392	0.503
761.000	458.201	80.007	19.995	100.097	17.186	217.211	0.488
761.500	458.478	80.006	19.996	100.086	17.147	220.077	0.520
762.000	458.704	80.006	19.996	100.078	17.113	222.615	0.525
762.500	458.952	80.007	19.996	100.068	17.070	225.883	0.488
763.001	459.228	80.007	19.997	100.051	17.030	228.910	0.499
763.500	459.441	80.006	19.996	100.045	16.986	232.182	0.506
764.000	459.692	80.007	19.996	100.051	16.947	235.126	0.477
764.500	459.955	80.008	19.996	100.042	16.907	238.120	0.490
765.000	460.210	80.008	19.996	100.043	16.862	241.509	0.516
765.500	460.482	80.007	19.998	100.046	16.824	244.383	0.522
766.000	460.752	80.008	19.996	100.041	16.780	247.714	0.534
766.500	460.994	80.007	19.997	100.032	16.734	251.159	0.527
767.000	461.249	80.008	19.996	100.031	16.693	254.207	0.504
767.500	461.483	80.006	19.996	100.027	16.646	257.706	0.493
768.000	461.778	80.007	19.997	100.026	16.603	260.991	0.509
768.500	461.982	80.006	19.996	100.024	16.556	264.508	0.514
769.000	462.224	80.007	19.997	100.027	16.512	267.802	0.473
769.500	462.485	80.007	19.998	100.016	16.462	271.510	0.475
770.000	462.779	80.006	19.997	100.012	16.417	274.922	0.529
770.500	462.993	80.006	19.996	100.007	16.369	278.523	0.531
771.000	463.247	80.006	19.997	99.995	16.320	282.183	0.488
771.500	463.452	80.006	19.996	99.984	16.273	285.680	0.463
772.000	463.743	80.006	19.997	99.993	16.220	289.696	0.477
772.500	463.969	80.005	19.996	99.984	16.174	293.138	0.507
773.000	464.237	80.007	19.997	99.969	16.121	297.183	0.506
773.500	464.464	80.005	19.996	99.969	16.074	300.686	0.495
774.000	464.734	80.006	19.996	99.963	16.021	304.669	0.496
774.500	464.940	80.004	19.996	99.955	15.972	308.361	0.487
775.000	465.228	80.005	19.995	99.951	15.920	312.325	0.485
775.500	465.478	80.005	19.996	99.952	15.868	316.217	0.516
776.000	465.742	80.004	19.997	99.947	15.817	319.959	0.526
776.500	465.971	80.005	19.997	99.939	15.766	323.768	0.504
777.000	466.241	80.005	19.995	99.931	15.713	327.771	0.496
777.500	466.498	80.005	19.997	99.922	15.664	331.396	0.513
778.000	466.730	80.006	19.997	99.912	15.609	335.438	0.508
778.500	466.984	80.005	19.996	99.904	15.562	339.005	0.488
779.000	467.250	80.005	19.997	99.898	15.507	343.067	0.503
779.500	467.530	80.005	19.996	99.890	15.455	346.956	0.533
780.000	467.756	80.005	19.996	99.882	15.399	351.159	0.526
780.500	468.028	80.005	19.996	99.875	15.346	355.154	0.502
781.000	468.280	80.006	19.995	99.863	15.294	359.111	0.511
781.500	468.506	80.006	19.995	99.850	15.234	363.645	0.501
782.000	468.761	80.005	19.996	99.842	15.177	367.846	0.479
782.500	469.003	80.006	19.996	99.842	15.119	372.259	0.489
783.000	469.226	80.006	19.995	99.842	15.067	376.128	0.481
783.500	469.504	80.006	19.996	99.837	15.008	380.531	0.483
784.000	469.738	80.006	19.996	99.836	14.953	384.571	0.506
784.500	469.977	80.005	19.994	99.842	14.892	389.133	0.493
785.000	470.254	80.005	19.995	99.834	14.840	393.007	0.495
785.500	470.496	80.005	19.996	99.824	14.790	396.804	0.518
786.000	470.732	80.005	19.996	99.831	14.733	400.973	0.498
786.500	470.987	80.005	19.995	99.827	14.680	404.979	0.484
787.000	471.232	80.004	19.995	99.803	14.625	409.074	0.496
787.500	471.476	80.005	19.994	99.796	14.571	413.106	0.495
788.000	471.695	80.006	19.996	99.780	14.516	417.136	0.475
788.500	471.955	80.006	19.995	99.762	14.467	420.897	0.471
789.000	472.196	80.003	19.996	99.745	14.410	425.152	0.490
789.500	472.421	80.006	19.995	99.737	14.363	428.576	0.483
790.000	472.669	80.005	19.996	99.724	14.312	432.418	0.470
790.500	472.946	80.005	19.995	99.722	14.262	436.148	0.500
791.000	473.177	80.005	19.996	99.715	14.213	439.865	0.517
791.500	473.448	80.006	19.997	99.715	14.161	443.912	0.505
792.000	473.718	80.006	19.995	99.713	14.109	447.909	0.522
792.500	473.944	80.006	19.995	99.713	14.060	451.620	0.519
793.000	474.210	80.003	19.995	99.706	14.011	455.220	0.494
793.500	474.459	80.004	19.996	99.703	13.960	459.019	0.503
794.000	474.734	80.005	19.995	99.688	13.907	462.743	0.520
794.500	474.942	80.004	19.996	99.681	13.859	466.155	0.504
795.000	475.194	80.005	19.996	99.668	13.809	469.782	0.472
795.500	475.454	80.005	19.996	99.660	13.761	473.381	0.486
796.000	475.724	80.005	19.997	99.648	13.710	477.141	0.521
796.500	475.979	80.005	19.995	99.646	13.665	480.470	0.527
797.000	476.214	80.004	19.995	99.629	13.616	484.051	0.508
797.500	476.462	80.004	19.996	99.617	13.570	487.465	0.487
798.000	476.701	80.006	19.994	99.619	13.523	490.962	0.485
798.500	476.956	80.005	19.995	99.603	13.474	494.551	0.490
799.000	477.204	80.005	19.994	99.588	13.431	497.769	0.499
799.500	477.452	80.004	19.995	99.591	13.390	500.819	0.500
800.000	477.747	80.005	19.996	99.582	13.345	504.123	0.519
800.500	478.010	80.004	19.995	99.565	13.303	507.190	0.550
801.000	478.269	80.005	19.996	99.560	13.258	510.548	0.540
801.500	478.487	80.004	19.995	99.561	13.220	513.376	0.499
802.000	478.755	80.005	19.996	99.562	13.180	516.284	0.482
802.500	479.026	80.005	19.995	99.602	13.144	519.024	0.513
803.000	479.271	80.004	19.994	99.620	13.104	521.942	0.528
803.500	479.491	80.004	19.995	99.620	13.075	524.092	0.490
804.000	479.764	80.003	19.996	99.609	13.038	526.805	0.479
804.500	480.004	80.004	19.995	99.586	13.005	529.279	0.503
805.000	480.267	80.004	19.996	99.528	12.976	531.433	0.508
805.500	480.501	80.004	19.995	99.493	12.946	533.650	0.500
806.000	480.758	80.005	19.996	99.472	12.919	535.639	0.494
806.500	481.041	80.004	19.996	99.457	12.896	537.312	0.516
807.000	481.296	80.005	19.996	99.447	12.872	539.101	0.539
807.500	481.537	80.004	19.995	99.432	12.851	540.645	0.517
808.000	481.841	80.004	19.996	99.422	12.840	541.448	0.520
808.500	482.059	80.005	19.995	99.414	12.820	542.943	0.533
809.000	482.346	80.004	19.995	99.403	12.808	543.837	0.514
809.500	482.592	80.004	19.995	99.390	12.795	544.827	0.519
810.000	482.821	80.003	19.996	99.382	12.781	545.930	0.504
810.500	483.098	80.003	19.996	99.374	12.776	546.288	0.491
811.000	483.347	80.004	19.996	99.360	12.771	546.668	0.516
811.500	483.632	80.002	19.996	99.348	12.767	547.017	0.530
812.000	483.854	80.003	19.993	99.340	12.763	547.353	0.521
812.500	484.131	80.003	19.995	99.332	12.763	547.359	0.503
813.000	484.358	80.004	19.997	99.325	12.772	546.734	0.501
813.500	484.614	80.003	19.996	99.322	12.778	546.273	0.493
814.000	484.915	80.003	19.994	99.314	12.788	545.507	0.520
814.500	485.166	80.003	19.995	99.307	12.803	544.135	0.555
815.000	485.440	80.004	19.994	99.299	12.819	542.723	0.538
815.500	485.652	80.004	19.994	99.293	12.837	541.338	0.505
816.000	485.892	80.004	19.994	99.287	12.859	539.733	0.469
816.500	486.200	80.005	19.995	99.287	12.887	537.568	0.500
817.000	486.468	80.006	19.996	99.280	12.914	535.886	0.562
817.500	486.711	80.004	19.995	99.274	12.946	533.651	0.544
818.000	486.950	80.005	19.995	99.266	12.977	531.412	0.497
818.501	487.208	80.004	19.994	99.258	13.017	528.474	0.490
819.000	487.476	80.005	19.995	99.253	13.056	525.645	0.511
819.500	487.722	80.004	19.996	99.255	13.098	522.526	0.520
820.000	487.931	80.005	19.994	99.255	13.143	519.274	0.485
820.500	488.174	80.004	19.996	99.257	13.196	515.348	0.454
821.000	488.474	80.005	19.995	99.263	13.250	511.405	0.497
821.500	488.738	80.005	19.995	99.266	13.306	507.182	0.553
822.000	488.987	80.004	19.996	99.270	13.366	502.745	0.538
822.500	489.248	80.005	19.995	99.275	13.426	498.321	0.512
823.000	489.520	80.006	19.996	99.279	13.495	493.210	0.522
823.500	489.806	80.006	19.994	99.281	13.564	488.026	0.546
824.000	490.061	80.007	19.995	99.284	13.634	482.642	0.549
824.500	490.328	80.006	19.994	99.285	13.710	476.711	0.531
825.000	490.573	80.007	19.995	99.284	13.790	470.493	0.518
825.500	490.865	80.006	19.997	99.240	13.872	464.194	0.524
826.000	491.076	80.005	19.994	99.208	13.959	457.548	0.520
826.500	491.293	80.006	19.996	99.200	14.046	451.086	0.466
827.000	491.598	80.005	19.996	99.196	14.134	444.673	0.475
827.500	491.845	80.005	19.995	99.197	14.231	437.528	0.537
828.000	492.076	80.005	19.994	99.249	14.331	430.213	0.515
828.500	492.378	80.005	19.994	99.282	14.432	422.771	0.505
829.000	492.641	80.007	19.995	99.305	14.532	415.333	0.549
829.500	492.874	80.006	19.995	99.315	14.637	407.522	0.530
830.000	493.149	80.006	19.996	99.335	14.743	399.685	0.502
830.500	493.397	80.005	19.995	99.343	14.854	391.445	0.515
831.000	493.673	80.005	19.995	99.357	14.964	383.301	0.523
831.500	493.944	80.005	19.996	99.367	15.079	374.703	0.536
832.000	494.205	80.006	19.996	99.387	15.195	366.093	0.540
832.500	494.449	80.005	19.997	99.395	15.315	357.092	0.518
833.000	494.704	80.005	19.996	99.407	15.432	348.430	0.502
833.500	495.003	80.004	19.994	99.423	15.553	339.342	0.527
834.000	495.218	80.004	19.995	99.428	15.674	330.306	0.534
834.500	495.453	80.006	19.997	99.426	15.799	320.956	0.482
835.000	495.750	80.004	19.996	99.400	15.919	311.942	0.491
835.500	496.032	80.004	19.994	99.362	16.046	302.451	0.555
836.000	496.257	80.005	19.996	99.318	16.169	293.282	0.543
836.500	496.516	80.006	19.996	99.282	16.294	283.907	0.496
837.000	496.797	80.005	19.996	99.264	16.422	274.432	0.512
837.500	497.055	80.004	19.996	99.277	16.542	265.479	0.539
838.000	497.327	80.005	19.994	99.306	16.664	256.319	0.534
838.500	497.562	80.004	19.997	99.346	16.790	246.902	0.519
839.000	497.814	80.005	19.996	99.383	16.914	237.601	0.497
839.500	498.106	80.004	19.995	99.412	17.032	228.705	0.516
840.000	498.366	80.006	19.996	99.437	17.148	220.023	0.548
840.500	498.611	80.007	19.996	99.462	17.267	211.023	0.529
841.000	498.859	80.006	19.998	99.488	17.382	202.363	0.499
841.500	499.148	80.005	19.996	99.515	17.494	193.948	0.515
842.000	499.389	80.007	19.996	99.540	17.603	185.756	0.534
842.500	499.634	80.007	19.996	99.562	17.712	177.527	0.508
843.000	499.888	80.006	19.995	99.584	17.817	169.638	0.492
843.500	500.166	80.006	19.995	99.607	17.921	161.774	0.515
844.000	500.412	80.007	19.995	99.630	18.026	153.859	0.528
844.500	500.668	80.007	19.997	99.651	18.123	146.535	0.513
845.000	500.913	80.006	19.995	99.669	18.217	139.404	0.502
845.500	501.209	80.007	19.996	99.676	18.310	132.420	0.521
846.000	501.461	80.008	19.996	99.691	18.398	125.760	0.545
846.500	501.733	80.006	19.996	99.712	18.489	118.919	0.536
847.000	501.977	80.006	19.996	99.737	18.574	112.515	0.520
847.500	502.251	80.007	19.994	99.772	18.657	106.240	0.517
848.000	502.487	80.009	19.994	99.821	18.731	100.582	0.514
848.500	502.725	80.007	19.994	99.857	18.807	94.902	0.492
849.000	502.997	80.006	19.995	99.888	18.878	89.488	0.492
849.500	503.287	80.006	19.995	99.915	18.947	84.297	0.536
850.000	503.505	80.008	19.994	99.940	19.011	79.444	0.535
850.500	503.791	80.007	19.995	99.956	19.077	74.451	0.505
851.000	504.061	80.008	19.996	99.974	19.138	69.811	0.530
851.500	504.295	80.007	19.996	99.990	19.195	65.507	0.530
852.000	504.566	80.006	19.995	100.005	19.254	61.105	0.505
852.500	504.826	80.006	19.996	100.020	19.305	57.196	0.518
853.000	505.052	80.006	19.994	100.034	19.354	53.555	0.509
853.500	505.328	80.006	19.996	100.047	19.401	49.966	0.494
854.000	505.572	80.006	19.996	100.059	19.445	46.604	0.511
854.500	505.837	80.007	19.995	100.072	19.486	43.501	0.515
855.000	506.068	80.006	19.997	100.080	19.529	40.301	0.502
855.500	506.345	80.006	19.996	100.089	19.564	37.605	0.502
856.000	506.579	80.007	19.996	100.095	19.601	34.813	0.510
856.500	506.860	80.006	19.996	100.103	19.639	31.929	0.513
857.000	507.105	80.004	19.996	100.112	19.670	29.617	0.520
857.500	507.356	80.005	19.996	100.119	19.700	27.304	0.510
858.000	507.616	80.003	19.997	100.127	19.724	25.539	0.503
858.500	507.858	80.004	19.997	100.135	19.753	23.286	0.507
859.000	508.121	80.004	19.997	100.140	19.775	21.674	0.504
859.500	508.359	80.005	19.996	100.142	19.795	20.112	0.503
860.001	508.627	80.005	19.998	100.143	19.819	18.357	0.503
860.500	508.879	80.005	19.997	100.149	19.839	16.782	0.513
861.000	509.148	80.003	19.999	100.156	19.856	15.548	0.521
861.500	509.365	80.005	19.995	100.164	19.872	14.341	0.504
862.000	509.642	80.005	19.997	100.171	19.888	13.137	0.490
862.500	509.891	80.004	19.996	100.177	19.901	12.137	0.510
863.000	510.120	80.003	19.996	100.186	19.913	11.216	0.502
863.500	510.407	80.004	19.998	100.192	19.922	10.495	0.497
864.000	510.666	80.005	19.997	100.200	19.936	9.444	0.531
864.500	510.896	80.003	19.997	100.208	19.942	8.988	0.517
865.000	511.146	80.005	19.997	100.216	19.950	8.398	0.485
865.500	511.413	80.004	19.996	100.219	19.958	7.831	0.499
866.000	511.685	80.003	19.996	100.220	19.967	7.138	0.528
866.500	511.895	80.005	19.997	100.221	19.974	6.603	0.510
867.000	512.158	80.003	19.998	100.221	19.978	6.282	0.478
867.500	512.408	80.004	19.996	100.221	19.981	6.089	0.493
868.000	512.672	80.004	19.996	100.222	19.987	5.606	0.513
868.500	512.919	80.004	19.997	100.222	19.991	5.339	0.513
869.000	513.176	80.005	19.996	100.223	19.997	4.817	0.508
869.500	513.424	80.004	19.996	100.222	19.996	4.893	0.504
870.000	513.715	80.006	19.997	100.223	20.003	4.428	0.522
870.500	513.950	80.004	19.996	100.223	20.003	4.431	0.532
871.000	514.239	80.005	19.997	100.224	20.007	4.056	0.525
871.500	514.487	80.004	19.996	100.226	20.005	4.219	0.531
872.000	514.742	80.005	19.994	100.230	20.007	4.065	0.520
872.500	514.976	80.004	19.996	100.232	20.009	3.923	0.496
873.000	515.283	80.006	19.996	100.235	20.014	3.536	0.515
873.500	515.526	80.006	19.995	100.242	20.017	3.332	0.546
874.000	515.809	80.005	19.995	100.247	20.018	3.260	0.538
874.500	516.058	80.005	19.995	100.251	20.021	3.032	0.530
875.000	516.327	80.005	19.996	100.256	20.021	3.040	0.525
875.500	516.560	80.004	19.995	100.260	20.021	3.040	0.510
876.000	516.821	80.004	19.995	100.261	20.026	2.631	0.498
876.500	517.090	80.004	19.996	100.262	20.025	2.738	0.512
877.000	517.340	80.004	19.995	100.262	20.028	2.501	0.524
877.500	517.591	80.006	19.996	100.263	20.029	2.397	0.510
878.000	517.875	80.007	19.997	100.263	20.028	2.477	0.518
878.500	518.144	80.005	19.996	100.264	20.028	2.530	0.544
879.000	518.379	80.004	19.996	100.266	20.031	2.296	0.528
879.500	518.602	80.005	19.995	100.269	20.029	2.395	0.482
880.000	518.897	80.004	19.995	100.275	20.032	2.218	0.488
880.500	519.156	80.005	19.997	100.280	20.032	2.207	0.535
881.000	519.403	80.006	19.995	100.285	20.032	2.215	0.529
881.500	519.641	80.005	19.996	100.288	20.030	2.382	0.495
882.000	519.901	80.005	19.995	100.289	20.035	2.008	0.492
882.500	520.172	80.004	19.996	100.291	20.035	1.969	0.515
883.000	520.452	80.005	19.996	100.292	20.034	2.012	0.541
883.500	520.666	80.005	19.995	100.291	20.032	2.174	0.522
884.000	520.947	80.005	19.996	100.290	20.031	2.273	0.495
884.500	521.178	80.004	19.997	100.292	20.037	1.804	0.504
885.000	521.425	80.003	19.996	100.291	20.035	1.950	0.495
885.500	521.701	80.005	19.998	100.288	20.035	1.946	0.500
886.000	521.934	80.003	19.994	100.288	20.034	2.022	0.516
886.500	522.190	80.004	19.996	100.288	20.032	2.209	0.499
887.000	522.446	80.004	19.995	100.287	20.034	2.057	0.500
887.500	522.699	80.005	19.996	100.289	20.036	1.858	0.510
888.000	522.995	80.004	19.996	100.292	20.038	1.779	0.529
888.500	523.260	80.003	19.996	100.295	20.036	1.899	0.555
889.000	523.517	80.005	19.997	100.299	20.037	1.796	0.541
889.500	523.739	80.002	19.996	100.301	20.037	1.845	0.501
890.000	524.000	80.005	19.996	100.298	20.038	1.782	0.481
890.500	524.264	80.004	19.994	100.298	20.037	1.810	0.504
891.000	524.523	80.004	19.996	100.297	20.038	1.757	0.524
891.500	524.776	80.005	19.995	100.296	20.036	1.886	0.517
892.000	525.023	80.003	19.997	100.295	20.036	1.915	0.506
892.500	525.251	80.004	19.995	100.294	20.040	1.586	0.488
893.000	525.503	80.004	19.994	100.293	20.040	1.613	0.477
893.500	525.751	80.006	19.996	100.293	20.039	1.668	0.490
894.000	526.007	80.005	19.997	100.293	20.036	1.872	0.502
894.500	526.288	80.005	19.995	100.294	20.040	1.582	0.521
895.000	526.525	80.004	19.997	100.298	20.039	1.679	0.528
895.500	526.779	80.003	19.995	100.299	20.039	1.675	0.504
896.000	527.013	80.004	19.996	100.298	20.040	1.584	0.489
896.500	527.274	80.005	19.996	100.297	20.039	1.697	0.491
897.000	527.548	80.006	19.997	100.295	20.041	1.485	0.515
897.500	527.795	80.007	19.996	100.295	20.039	1.662	0.528
898.000	528.058	80.005	19.996	100.295	20.039	1.693	0.516
898.500	528.310	80.005	19.996	100.295	20.041	1.508	0.512
899.000	528.552	80.004	19.994	100.296	20.042	1.407	0.505
899.500	528.845	80.006	19.995	100.298	20.040	1.582	0.515
900.000	529.077	80.005	19.995	100.299	20.041	1.485	0.530
900.500	529.302	80.006	19.995	100.299	20.041	1.553	0.491
901.000	529.580	80.006	19.996	100.299	20.042	1.473	0.480
901.500	529.851	80.006	19.996	100.300	20.043	1.387	0.527
902.000	530.110	80.006	19.996	100.299	20.041	1.524	0.540
902.500	530.355	80.006	19.995	100.299	20.040	1.605	0.517
903.000	530.635	80.006	19.996	100.299	20.044	1.259	0.515
903.500	530.879	80.006	19.995	100.301	20.040	1.617	0.524
904.000	531.133	80.008	19.995	100.304	20.042	1.422	0.511
904.500	531.390	80.006	19.995	100.306	20.042	1.454	0.504
905.000	531.649	80.006	19.995	100.307	20.044	1.304	0.513
905.500	531.908	80.007	19.995	100.307	20.042	1.442	0.517
906.000	532.158	80.006	19.994	100.304	20.041	1.496	0.513
906.500	532.398	80.008	19.998	100.301	20.040	1.570	0.499
907.000	532.685	80.007	19.996	100.300	20.047	1.074	0.509
907.500	532.953	80.007	19.996	100.299	20.042	1.442	0.541
908.000	533.249	80.008	19.995	100.298	20.044	1.255	0.560
908.500	533.445	80.007	19.996	100.299	20.044	1.300	0.528
909.000	533.715	80.007	19.997	100.299	20.044	1.300	0.479
909.500	533.944	80.007	19.994	100.299	20.045	1.249	0.483
910.000	534.264	80.007	19.996	100.299	20.042	1.450	0.524
910.500	534.497	80.007	19.995	100.299	20.042	1.471	0.551
911.000	534.761	80.008	19.996	100.299	20.041	1.489	0.525
911.500	534.994	80.008	19.995	100.300	20.042	1.442	0.497
912.000	535.295	80.007	19.996	100.300	20.041	1.496	0.516
912.500	535.546	80.005	19.995	100.300	20.040	1.578	0.543
913.000	535.809	80.007	19.996	100.300	20.041	1.514	0.533
913.500	536.031	80.006	19.993	100.300	20.040	1.586	0.499
914.000	536.335	80.005	19.993	100.299	20.039	1.662	0.505
914.500	536.579	80.007	19.995	100.300	20.040	1.565	0.537
915.000	536.820	80.006	19.995	100.300	20.040	1.592	0.517
915.500	537.073	80.006	19.997	100.299	20.042	1.405	0.490
916.000	537.349	80.007	19.996	100.301	20.041	1.506	0.511
916.500	537.585	80.005	19.998	100.303	20.039	1.677	0.520
917.000	537.878	80.006	19.998	100.302	20.039	1.681	0.521
917.500	538.105	80.006	19.994	100.302	20.041	1.483	0.525
918.000	538.364	80.006	19.996	100.302	20.042	1.454	0.503
918.500	538.622	80.007	19.998	100.301	20.042	1.409	0.502
919.000	538.843	80.007	19.996	100.299	20.041	1.502	0.498
919.500	539.153	80.006	19.996	100.299	20.042	1.430	0.505
920.000	539.386	80.007	19.995	100.299	20.043	1.366	0.537
920.500	539.678	80.004	19.996	100.299	20.045	1.238	0.534
921.000	539.918	80.007	19.995	100.299	20.042	1.405	0.529
921.500	540.169	80.008	19.996	100.300	20.041	1.487	0.512
922.000	540.453	80.008	19.995	100.300	20.041	1.487	0.513
922.500	540.723	80.006	19.997	100.299	20.043	1.382	0.544
923.000	540.963	80.007	19.996	100.299	20.044	1.271	0.531
923.500	541.220	80.005	19.996	100.300	20.041	1.502	0.504
924.000	541.451	80.005	19.997	100.300	20.042	1.475	0.493
924.500	541.689	80.006	19.997	100.300	20.042	1.407	0.479
925.000	541.959	80.007	19.997	100.299	20.041	1.512	0.488
925.500	542.203	80.005	19.995	100.298	20.041	1.496	0.511
926.000	542.482	80.006	19.996	100.297	20.042	1.405	0.519
926.500	542.671	80.007	19.996	100.297	20.042	1.424	0.496
927.000	542.970	80.007	19.996	100.297	20.042	1.440	0.478
927.500	543.232	80.006	19.996	100.298	20.042	1.432	0.524
928.000	543.476	80.006	19.995	100.299	20.040	1.578	0.534
928.500	543.720	80.007	19.996	100.298	20.040	1.613	0.497
929.000	544.003	80.007	19.996	100.298	20.039	1.642	0.507
929.500	544.225	80.008	19.996	100.298	20.040	1.560	0.516
930.000	544.468	80.008	19.996	100.299	20.041	1.496	0.485
930.500	544.722	80.008	19.997	100.298	20.042	1.422	0.481
931.000	544.994	80.008	19.997	100.298	20.040	1.570	0.512
931.500	545.264	80.006	19.995	100.298	20.041	1.514	0.534
932.000	545.495	80.006	19.996	100.299	20.040	1.597	0.521
932.500	545.758	80.007	19.996	100.298	20.041	1.535	0.498
933.000	546.014	80.007	19.995	100.299	20.040	1.556	0.507
933.500	546.286	80.007	19.997	100.299	20.043	1.352	0.524
934.000	546.566	80.006	19.995	100.301	20.043	1.342	0.540
934.500	546.824	80.005	19.994	100.303	20.042	1.432	0.545
935.000	547.099	80.006	19.995	100.305	20.043	1.360	0.535
935.500	547.393	80.007	19.996	100.306	20.042	1.430	0.551
936.000	547.616	80.005	19.995	100.306	20.047	1.055	0.543
936.500	547.843	80.006	19.997	100.307	20.045	1.187	0.483
937.000	548.126	80.005	19.995	100.307	20.043	1.391	0.480
937.500	548.372	80.004	19.995	100.309	20.043	1.331	0.520
938.000	548.646	80.005	19.996	100.308	20.046	1.158	0.525
938.500	548.879	80.005	19.996	100.311	20.043	1.362	0.513
939.000	549.151	80.005	19.995	100.313	20.043	1.356	0.506
939.500	549.407	80.005	19.996	100.313	20.047	1.082	0.517
940.000	549.689	80.003	19.995	100.311	20.045	1.177	0.534
940.500	549.981	80.003	19.995	100.313	20.046	1.127	0.556
941.000	550.221	80.004	19.997	100.310	20.047	1.066	0.552
941.500	550.483	80.005	19.996	100.307	20.045	1.218	0.517
942.000	550.754	80.004	19.996	100.309	20.046	1.171	0.518
942.500	551.009	80.003	19.994	100.313	20.045	1.234	0.529
943.000	551.308	80.004	19.994	100.318	20.047	1.037	0.540
943.500	551.541	80.005	19.992	100.323	20.041	1.527	0.543
944.000	551.798	80.004	19.993	100.330	20.045	1.247	0.511
944.500	552.051	80.004	19.995	100.331	20.048	0.996	0.500
945.000	552.336	80.002	19.997	100.329	20.045	1.193	0.524
945.500	552.608	80.004	19.995	100.325	20.044	1.292	0.548
946.000	552.886	80.004	19.997	100.323	20.047	1.064	0.553
946.500	553.119	80.004	19.995	100.319	20.045	1.212	0.530
947.000	553.400	80.004	19.993	100.315	20.046	1.109	0.513
947.500	553.657	80.004	19.996	100.315	20.045	1.206	0.526
948.000	553.954	80.005	19.995	100.319	20.046	1.162	0.546
948.500	554.256	80.005	19.998	100.322	20.045	1.191	0.576
949.000	554.480	80.006	19.997	100.323	20.045	1.179	0.563
949.500	554.723	80.004	19.996	100.322	20.047	1.076	0.497
950.000	555.025	80.003	19.997	100.319	20.045	1.218	0.506
950.500	555.303	80.004	19.996	100.314	20.047	1.088	0.562
951.000	555.533	80.004	19.996	100.309	20.044	1.267	0.544
951.500	555.830	80.004	19.995	100.306	20.044	1.294	0.518
952.000	556.116	80.002	19.996	100.305	20.045	1.197	0.555
952.500	556.337	80.003	19.997	100.305	20.040	1.623	0.545
953.000	556.640	80.003	19.996	100.304	20.039	1.681	0.516
953.500	556.915	80.003	19.995	100.305	20.045	1.193	0.551
954.000	557.173	80.004	19.997	100.307	20.042	1.407	0.555
954.500	557.421	80.004	19.996	100.308	20.045	1.251	0.519
955.000	557.715	80.003	19.997	100.307	20.044	1.282	0.524
955.500	557.954	80.005	19.997	100.307	20.041	1.508	0.537
956.000	558.222	80.005	19.995	100.305	20.045	1.247	0.520
956.500	558.496	80.005	19.998	100.302	20.043	1.331	0.525
957.000	558.740	80.004	19.996	100.301	20.044	1.267	0.530
957.500	559.030	80.005	19.997	100.301	20.043	1.366	0.526
958.000	559.277	80.006	19.998	100.300	20.044	1.280	0.535
958.500	559.541	80.005	19.997	100.300	20.041	1.487	0.524
959.000	559.806	80.005	19.997	100.299	20.043	1.378	0.520
959.500	560.042	80.003	19.997	100.299	20.041	1.504	0.514
960.000	560.314	80.004	19.997	100.299	20.043	1.331	0.504
960.500	560.567	80.005	19.994	100.298	20.042	1.405	0.517
961.000	560.879	80.005	19.996	100.298	20.043	1.399	0.545
961.500	561.134	80.005	19.996	100.298	20.038	1.708	0.566
962.000	561.380	80.005	19.995	100.297	20.043	1.399	0.534
962.500	561.651	80.004	19.997	100.298	20.040	1.582	0.509
963.000	561.886	80.007	19.997	100.298	20.043	1.401	0.512
963.500	562.147	80.006	19.995	100.298	20.044	1.313	0.501
964.000	562.414	80.005	19.997	100.297	20.042	1.422	0.512
964.500	562.706	80.007	19.997	100.297	20.041	1.508	0.544
965.000	562.994	80.004	19.996	100.297	20.045	1.226	0.569
965.500	563.193	80.005	19.994	100.297	20.045	1.247	0.534
966.000	563.443	80.005	19.997	100.297	20.044	1.271	0.468
966.500	563.692	80.007	19.997	100.298	20.040	1.559	0.474
967.000	563.943	80.004	19.997	100.297	20.044	1.259	0.500
967.500	564.222	80.004	19.996	100.298	20.048	1.004	0.515
968.000	564.488	80.004	19.995	100.298	20.044	1.278	0.538
968.500	564.735	80.006	19.997	100.298	20.044	1.280	0.529
969.000	564.995	80.005	19.995	100.299	20.045	1.208	0.510
969.500	565.255	80.005	19.995	100.299	20.044	1.253	0.513
970.000	565.532	80.006	19.996	100.300	20.042	1.473	0.528
970.500	565.770	80.004	19.997	100.299	20.046	1.158	0.526
971.000	565.981	80.004	19.996	100.301	20.045	1.206	0.482
971.500	566.232	80.003	19.993	100.301	20.045	1.191	0.456
972.000	566.534	80.005	19.995	100.302	20.043	1.333	0.507
972.500	566.770	80.005	19.996	100.306	20.042	1.432	0.545
973.000	567.056	80.004	19.995	100.309	20.041	1.548	0.530
973.500	567.295	80.004	19.996	100.309	20.043	1.366	0.524
974.000	567.542	80.005	19.994	100.309	20.047	1.084	0.506
974.500	567.774	80.005	19.996	100.307	20.042	1.414	0.483
975.000	568.014	80.006	19.995	100.302	20.045	1.202	0.475
975.500	568.296	80.005	19.996	100.300	20.044	1.296	0.497
976.000	568.516	80.005	19.996	100.298	20.044	1.265	0.512
976.500	568.807	80.005	19.995	100.298	20.044	1.304	0.506
977.000	569.044	80.007	19.997	100.298	20.041	1.535	0.519
977.500	569.334	80.005	19.996	100.298	20.042	1.453	0.527
978.000	569.583	80.005	19.993	100.299	20.047	1.051	0.533
978.500	569.849	80.005	19.994	100.301	20.044	1.286	0.527
979.000	570.081	80.006	19.996	100.301	20.041	1.554	0.506
979.500	570.345	80.006	19.996	100.301	20.044	1.259	0.497
980.000	570.604	80.005	19.995	100.301	20.045	1.247	0.510
980.500	570.859	80.007	19.995	100.302	20.046	1.144	0.518
981.000	571.101	80.006	19.996	100.302	20.048	0.983	0.505
981.500	571.365	80.005	19.994	100.304	20.048	0.990	0.501
982.000	571.608	80.005	19.998	100.310	20.047	1.068	0.507
982.500	571.845	80.006	19.996	100.318	20.047	1.055	0.494
983.000	572.107	80.005	19.995	100.324	20.049	0.946	0.490
983.500	572.355	80.007	19.996	100.330	20.046	1.129	0.504
984.000	572.622	80.006	19.998	100.335	20.048	0.955	0.512
984.500	572.883	80.007	19.995	100.335	20.048	0.948	0.522
985.000	573.110	80.008	19.997	100.331	20.050	0.825	0.508
985.500	573.369	80.007	19.996	100.325	20.050	0.852	0.487
986.000	573.579	80.007	19.995	100.317	20.046	1.162	0.477
986.500	573.877	80.008	19.996	100.311	20.049	0.922	0.488
987.000	574.123	80.008	19.996	100.308	20.048	1.016	0.526
987.500	574.396	80.008	19.994	100.307	20.048	0.979	0.532
988.000	574.675	80.008	19.997	100.308	20.048	0.952	0.536
988.500	574.918	80.007	19.995	100.312	20.049	0.880	0.537
989.000	575.159	80.007	19.995	100.316	20.048	1.000	0.503
989.500	575.448	80.006	19.994	100.319	20.048	0.963	0.507
990.000	575.645	80.007	19.995	100.322	20.045	1.191	0.508
990.500	575.896	80.006	19.995	100.325	20.050	0.846	0.467
991.000	576.195	80.005	19.995	100.323	20.047	1.031	0.499
991.500	576.428	80.007	19.995	100.320	20.045	1.187	0.541
992.000	576.668	80.006	19.995	100.315	20.044	1.269	0.502
992.500	576.951	80.005	19.994	100.307	20.044	1.267	0.498
993.000	577.171	80.006	19.997	100.302	20.045	1.187	0.513
993.500	577.395	80.007	19.996	100.301	20.046	1.175	0.474
994.000	577.680	80.005	19.997	100.300	20.047	1.066	0.477
994.500	577.993	80.006	19.996	100.301	20.043	1.393	0.553
995.000	578.188	80.005	19.995	100.305	20.043	1.380	0.553
995.500	578.449	80.005	19.994	100.307	20.044	1.292	0.482
996.000	578.733	80.006	19.998	100.306	20.044	1.321	0.500
996.500	578.973	80.006	19.996	100.307	20.044	1.300	0.534
997.000	579.215	80.004	19.996	100.306	20.043	1.380	0.503
997.500	579.464	80.007	19.993	100.303	20.044	1.255	0.487
998.000	579.730	80.005	19.994	100.301	20.045	1.189	0.503
998.500	579.970	80.006	19.994	100.302	20.044	1.290	0.510
999.000	580.219	80.007	19.994	100.301	20.041	1.479	0.497
999.500	580.499	80.006	19.997	100.301	20.045	1.232	0.509
1000.000	580.752	80.004	19.995	100.302	20.044	1.309	0.531
1000.500	580.983	80.005	19.995	100.303	20.044	1.282	0.509
1001.000	581.246	80.007	19.996	100.303	20.042	1.413	0.489
1001.501	581.520	80.004	19.995	100.303	20.043	1.372	0.515
1002.000	581.752	80.005	19.994	100.302	20.044	1.319	0.521
1002.500	582.015	80.006	19.994	100.301	20.042	1.426	0.500
1003.000	582.231	80.006	19.995	100.301	20.043	1.366	0.487
1003.500	582.488	80.005	19.993	100.301	20.042	1.444	0.476
1004.000	582.753	80.007	19.996	100.301	20.042	1.436	0.497
1004.500	583.002	80.006	19.994	100.302	20.044	1.267	0.518
1005.000	583.265	80.007	19.997	100.301	20.044	1.265	0.513
1005.500	583.511	80.008	19.994	100.302	20.043	1.329	0.511
1006.000	583.754	80.007	19.994	100.307	20.044	1.267	0.499
1006.500	584.017	80.007	19.996	100.308	20.043	1.368	0.498
1007.000	584.257	80.007	19.996	100.309	20.046	1.117	0.504
1007.500	584.505	80.007	19.994	100.310	20.045	1.208	0.495
1008.000	584.758	80.008	19.994	100.308	20.047	1.051	0.494
1008.500	585.030	80.007	19.994	100.305	20.045	1.179	0.513
1009.000	585.283	80.007	19.994	100.304	20.047	1.062	0.525
1009.500	585.486	80.008	19.993	100.305	20.042	1.442	0.490
1010.000	585.746	80.007	19.996	100.307	20.046	1.152	0.459
1010.500	586.028	80.007	19.993	100.311	20.046	1.109	0.503
1011.000	586.260	80.008	19.995	100.312	20.048	0.992	0.529
1011.500	586.568	80.008	19.996	100.313	20.049	0.897	0.527
1012.000	586.805	80.007	19.994	100.313	20.048	0.965	0.542
1012.500	587.055	80.008	19.994	100.313	20.047	1.060	0.516
1013.000	587.287	80.008	19.994	100.312	20.047	1.041	0.485
1013.500	587.566	80.008	19.994	100.310	20.046	1.127	0.496
1014.000	587.802	80.008	19.995	100.309	20.050	0.829	0.513
1014.500	588.044	80.007	19.995	100.308	20.046	1.101	0.497
1015.000	588.312	80.008	19.995	100.305	20.047	1.049	0.495
1015.500	588.552	80.006	19.996	100.302	20.046	1.136	0.509
1016.000	588.800	80.008	19.995	100.302	20.045	1.220	0.498
1016.500	589.041	80.008	19.994	100.302	20.048	0.953	0.488
1017.000	589.289	80.007	19.994	100.302	20.046	1.115	0.488
1017.500	589.546	80.006	19.996	100.303	20.052	0.704	0.497
1018.000	589.811	80.007	19.995	100.306	20.048	1.014	0.514
1018.500	590.083	80.006	19.995	100.310	20.045	1.220	0.530
1019.000	590.320	80.005	19.995	100.310	20.049	0.934	0.523
1019.500	590.577	80.005	19.996	100.310	20.047	1.086	0.501
1020.000	590.802	80.007	19.997	100.311	20.047	1.082	0.488
1020.500	591.072	80.006	19.995	100.309	20.044	1.259	0.489
1021.000	591.351	80.004	19.996	100.305	20.044	1.280	0.522
1021.500	591.558	80.003	19.996	100.307	20.043	1.354	0.517
1022.000	591.873	80.005	19.995	100.312	20.046	1.162	0.504
1022.500	592.076	80.004	19.994	100.314	20.045	1.212	0.520
1023.000	592.350	80.005	19.992	100.315	20.043	1.337	0.498
1023.500	592.590	80.004	19.997	100.318	20.044	1.273	0.496
1024.000	592.863	80.006	19.996	100.315	20.043	1.350	0.514
1024.501	593.085	80.005	19.995	100.309	20.046	1.105	0.504
1025.001	593.362	80.006	19.996	100.306	20.043	1.343	0.497
1025.500	593.618	80.006	19.996	100.304	20.049	0.880	0.516
1026.000	593.855	80.005	19.996	100.304	20.045	1.243	0.513
1026.500	594.091	80.005	19.997	100.306	20.048	1.000	0.482
1027.001	594.374	80.005	19.996	100.306	20.043	1.331	0.496
1027.501	594.605	80.005	19.997	100.305	20.044	1.300	0.517
1028.000	594.902	80.005	19.997	100.305	20.043	1.331	0.521
1028.500	595.102	80.004	19.995	100.303	20.044	1.308	0.513
1029.000	595.402	80.005	19.997	100.300	20.045	1.208	0.498
1029.500	595.628	80.003	19.996	100.299	20.045	1.197	0.513
1030.000	595.886	80.004	19.995	100.300	20.046	1.167	0.505
1030.500	596.141	80.006	19.995	100.302	20.048	0.983	0.498
1031.000	596.356	80.004	19.997	100.302	20.044	1.278	0.491
1031.500	596.629	80.006	19.997	100.302	20.048	0.998	0.479
1032.000	596.887	80.005	19.996	100.304	20.047	1.035	0.509
1032.500	597.123	80.005	19.996	100.304	20.047	1.047	0.513
1033.000	597.391	80.006	19.995	100.306	20.049	0.936	0.499
1033.500	597.629	80.006	19.998	100.306	20.048	1.006	0.505
1034.000	597.860	80.006	19.996	100.307	20.046	1.163	0.487
1034.500	598.072	80.006	19.997	100.307	20.046	1.138	0.456
1035.000	598.370	80.006	19.996	100.308	20.046	1.175	0.477
1035.500	598.589	80.005	19.994	100.304	20.050	0.837	0.514
1036.000	598.834	80.005	19.997	100.303	20.045	1.195	0.490
1036.500	599.093	80.007	19.996	100.302	20.046	1.103	0.484
1037.000	599.350	80.006	19.996	100.300	20.048	1.012	0.510
1037.500	599.594	80.007	19.997	100.298	20.046	1.152	0.509
1038.000	599.829	80.007	19.993	100.298	20.047	1.062	0.490
1038.500	600.077	80.008	19.996	100.299	20.045	1.202	0.481
1039.000	600.340	80.006	19.996	100.303	20.046	1.158	0.497
1039.500	600.625	80.005	19.996	100.306	20.046	1.134	0.530
1040.000	600.895	80.006	19.997	100.307	20.048	0.965	0.552
1040.500	601.093	80.007	19.994	100.307	20.046	1.152	0.511
1041.000	601.383	80.007	19.997	100.307	20.045	1.204	0.478
1041.500	601.621	80.006	19.995	100.305	20.047	1.027	0.508
1042.000	601.863	80.005	19.995	100.303	20.048	1.006	0.504
1042.500	602.076	80.006	19.997	100.309	20.044	1.290	0.467
1043.000	602.327	80.005	19.996	100.314	20.046	1.130	0.459
1043.500	602.597	80.005	19.996	100.318	20.047	1.058	0.493
1044.000	602.849	80.004	19.996	100.324	20.047	1.090	0.522
1044.500	603.110	80.005	19.996	100.329	20.046	1.105	0.518
1045.000	603.358	80.004	19.997	100.330	20.047	1.080	0.511
1045.500	603.623	80.005	19.996	100.327	20.049	0.938	0.510
1046.001	603.868	80.005	19.997	100.325	20.047	1.062	0.511
1046.501	604.100	80.006	19.995	100.320	20.047	1.052	0.494
1047.000	604.373	80.005	19.997	100.318	20.048	0.973	0.491
1047.501	604.606	80.005	19.997	100.315	20.048	1.019	0.505
1048.001	604.866	80.004	19.996	100.316	20.049	0.926	0.500
1048.500	605.131	80.003	19.996	100.319	20.049	0.932	0.509
1049.000	605.402	80.004	19.995	100.319	20.048	0.992	0.530
1049.500	605.614	80.005	19.996	100.318	20.047	1.084	0.510
1050.000	605.865	80.007	19.995	100.316	20.047	1.074	0.473
1050.500	606.127	80.003	19.997	100.317	20.046	1.158	0.487
1051.000	606.367	80.004	19.997	100.314	20.045	1.195	0.507
1051.500	606.645	80.005	19.998	100.317	20.048	0.949	0.510
1052.001	606.846	80.005	19.997	100.318	20.046	1.167	0.499
1052.501	607.101	80.004	19.996	100.320	20.047	1.045	0.468
1053.000	607.336	80.005	19.997	100.318	20.046	1.132	0.473
1053.500	607.583	80.005	19.997	100.317	20.043	1.395	0.486
1054.000	607.842	80.004	19.996	100.313	20.046	1.119	0.494
1054.500	608.104	80.004	19.998	100.313	20.044	1.276	0.513
1055.000	608.360	80.004	19.997	100.311	20.045	1.226	0.519
1055.500	608.654	80.005	19.997	100.315	20.043	1.375	0.534
1056.000	608.859	80.005	19.997	100.321	20.046	1.136	0.524
1056.500	609.085	80.006	19.996	100.327	20.046	1.175	0.465
1057.000	609.385	80.004	19.995	100.329	20.049	0.875	0.479
1057.500	609.596	80.006	19.997	100.334	20.046	1.115	0.518
1058.000	609.893	80.006	19.997	100.335	20.042	1.403	0.509
1058.500	610.110	80.004	19.996	100.333	20.044	1.278	0.511
1059.000	610.371	80.005	19.995	100.334	20.044	1.278	0.497
1059.500	610.615	80.005	19.996	100.333	20.047	1.027	0.492
1060.000	610.889	80.006	19.996	100.329	20.045	1.251	0.512
1060.500	611.123	80.004	19.996	100.325	20.047	1.058	0.513
1061.000	611.382	80.007	19.995	100.321	20.045	1.198	0.500
1061.500	611.631	80.005	19.995	100.321	20.042	1.436	0.500
1062.000	611.859	80.005	19.997	100.321	20.046	1.142	0.492
1062.500	612.150	80.006	19.996	100.325	20.045	1.192	0.498
1063.000	612.385	80.006	19.994	100.326	20.043	1.348	0.523
1063.500	612.653	80.006	19.996	100.330	20.044	1.296	0.515
1064.000	612.888	80.006	19.996	100.328	20.044	1.253	0.503
1064.500	613.132	80.005	19.996	100.327	20.044	1.323	0.491
1065.000	613.404	80.006	19.995	100.324	20.046	1.117	0.497
1065.501	613.667	80.006	19.996	100.326	20.041	1.488	0.526
1066.001	613.904	80.006	19.995	100.328	20.043	1.332	0.518
1066.500	614.150	80.005	19.996	100.331	20.044	1.297	0.491
1067.000	614.398	80.006	19.996	100.334	20.045	1.187	0.488
1067.501	614.680	80.007	19.995	100.336	20.046	1.171	0.512
1068.001	614.933	80.007	19.996	100.337	20.043	1.375	0.532
1068.501	615.200	80.007	19.995	100.335	20.045	1.227	0.528
1069.000	615.460	80.007	19.995	100.334	20.045	1.194	0.524
1069.500	615.715	80.009	19.996	100.335	20.046	1.150	0.521
1070.000	615.987	80.007	19.994	100.333	20.044	1.295	0.521
1070.500	616.246	80.007	19.996	100.330	20.045	1.177	0.529
1071.001	616.466	80.007	19.994	100.332	20.043	1.334	0.505
1071.501	616.723	80.006	19.995	100.333	20.043	1.340	0.478
1072.000	616.990	80.006	19.995	100.334	20.046	1.126	0.500
1072.500	617.239	80.006	19.994	100.337	20.045	1.216	0.520
1073.000	617.522	80.009	19.995	100.339	20.046	1.105	0.525
1073.501	617.755	80.007	19.995	100.338	20.045	1.179	0.524
1074.001	617.996	80.008	19.996	100.336	20.044	1.321	0.495
1074.501	618.245	80.007	19.996	100.332	20.043	1.397	0.482
1075.000	618.542	80.005	19.995	100.330	20.045	1.249	0.518
1075.500	618.795	80.006	19.995	100.332	20.046	1.124	0.547
1076.000	619.065	80.007	19.995	100.334	20.045	1.241	0.536
1076.500	619.301	80.005	19.996	100.333	20.044	1.301	0.515
1077.000	619.526	80.007	19.995	100.338	20.045	1.206	0.484
1077.500	619.770	80.005	19.996	100.340	20.047	1.093	0.465
1078.000	620.039	80.005	19.996	100.341	20.046	1.109	0.490
1078.500	620.300	80.006	19.996	100.341	20.046	1.103	0.521
1079.000	620.604	80.005	19.996	100.342	20.045	1.204	0.548
1079.500	620.796	80.005	19.996	100.343	20.047	1.025	0.531
1080.000	621.081	80.006	19.995	100.343	20.045	1.241	0.486
1080.500	621.299	80.005	19.993	100.343	20.044	1.255	0.490
1081.001	621.580	80.005	19.995	100.345	20.044	1.288	0.501
1081.501	621.835	80.005	19.996	100.345	20.044	1.307	0.517
1082.000	622.109	80.005	19.996	100.345	20.048	1.008	0.532
1082.501	622.343	80.005	19.995	100.345	20.042	1.410	0.519
1083.001	622.614	80.006	19.995	100.346	20.043	1.338	0.507
1083.500	622.849	80.004	19.996	100.344	20.043	1.383	0.505
1084.000	623.111	80.007	19.995	100.344	20.045	1.179	0.501
1084.500	623.363	80.004	19.996	100.343	20.045	1.194	0.506
1085.000	623.623	80.005	19.995	100.341	20.046	1.111	0.513
1085.501	623.857	80.005	19.995	100.338	20.047	1.045	0.503
1086.001	624.132	80.007	19.995	100.338	20.046	1.175	0.502
1086.501	624.345	80.006	19.996	100.338	20.042	1.412	0.499
1087.001	624.614	80.006	19.996	100.338	20.044	1.325	0.485
1087.500	624.867	80.006	19.995	100.340	20.042	1.436	0.502
1088.000	625.114	80.006	19.995	100.342	20.043	1.387	0.511
1088.500	625.370	80.007	19.996	100.342	20.044	1.288	0.501
1089.000	625.634	80.007	19.996	100.341	20.044	1.301	0.512
1089.500	625.852	80.008	19.995	100.337	20.043	1.399	0.501
1090.000	626.125	80.007	19.995	100.336	20.049	0.895	0.487
1090.500	626.424	80.007	19.996	100.334	20.046	1.152	0.532
1091.000	626.624	80.007	19.995	100.333	20.044	1.290	0.535
1091.500	626.897	80.009	19.995	100.332	20.045	1.247	0.485
1092.000	627.139	80.007	19.995	100.334	20.045	1.183	0.494
1092.500	627.414	80.009	19.995	100.334	20.044	1.313	0.517
1093.000	627.654	80.009	19.996	100.335	20.043	1.336	0.516
1093.500	627.886	80.008	19.997	100.333	20.042	1.469	0.493
1094.000	628.129	80.008	19.995	100.333	20.044	1.299	0.473
1094.500	628.377	80.008	19.995	100.334	20.043	1.360	0.483
1095.000	628.639	80.009	19.994	100.335	20.043	1.381	0.500
1095.500	628.887	80.009	19.995	100.335	20.041	1.486	0.510
1096.000	629.156	80.009	19.995	100.337	20.041	1.554	0.514
1096.500	629.376	80.008	19.995	100.338	20.040	1.595	0.503
1097.000	629.629	80.009	19.995	100.338	20.042	1.420	0.481
1097.500	629.894	80.008	19.995	100.337	20.039	1.642	0.496
1098.000	630.134	80.009	19.996	100.336	20.040	1.570	0.512
1098.500	630.398	80.009	19.996	100.336	20.039	1.640	0.505
1099.000	630.634	80.007	19.996	100.336	20.039	1.659	0.502
1099.500	630.921	80.008	19.994	100.335	20.042	1.416	0.511
1100.000	631.101	80.008	19.994	100.331	20.043	1.373	0.495
1100.500	631.378	80.008	19.994	100.329	20.042	1.434	0.462
1101.000	631.596	80.007	19.995	100.328	20.042	1.461	0.476
1101.500	631.868	80.007	19.996	100.328	20.040	1.599	0.492
1102.000	632.094	80.008	19.995	100.328	20.041	1.492	0.494
1102.500	632.363	80.007	19.996	100.332	20.044	1.309	0.497
1103.000	632.600	80.006	19.994	100.333	20.044	1.257	0.500
1103.501	632.856	80.005	19.997	100.333	20.041	1.490	0.499
1104.001	633.106	80.006	19.996	100.333	20.043	1.395	0.499
1104.501	633.371	80.006	19.997	100.334	20.039	1.651	0.510
1105.001	633.617	80.005	19.994	100.335	20.043	1.389	0.513
1105.501	633.837	80.006	19.997	100.337	20.045	1.252	0.489
1106.000	634.106	80.004	19.996	100.335	20.042	1.455	0.478
1106.501	634.340	80.006	19.995	100.334	20.041	1.488	0.496
1107.001	634.587	80.007	19.997	100.333	20.039	1.632	0.492
1107.500	634.836	80.006	19.993	100.331	20.041	1.519	0.489
1108.001	635.100	80.006	19.994	100.331	20.043	1.375	0.505
1108.501	635.300	80.006	19.995	100.334	20.038	1.731	0.489
1109.000	635.564	80.005	19.994	100.334	20.037	1.786	0.464
1109.500	635.797	80.005	19.997	100.332	20.040	1.579	0.480
1110.000	636.055	80.005	19.995	100.334	20.040	1.562	0.494
1110.500	636.316	80.005	19.996	100.335	20.041	1.499	0.505
1111.000	636.551	80.006	19.997	100.333	20.041	1.515	0.508
1111.501	636.817	80.005	19.996	100.335	20.041	1.494	0.499
1112.001	637.041	80.006	19.995	100.338	20.040	1.560	0.496
1112.501	637.318	80.006	19.997	100.338	20.043	1.402	0.495
1113.001	637.542	80.006	19.996	100.339	20.042	1.404	0.501
1113.500	637.800	80.005	19.996	100.340	20.042	1.406	0.491
1114.000	638.034	80.004	19.996	100.340	20.041	1.525	0.487
1114.500	638.299	80.005	19.996	100.341	20.042	1.420	0.495
1115.000	638.516	80.006	19.996	100.345	20.043	1.362	0.491
1115.501	638.757	80.005	19.997	100.351	20.040	1.595	0.471
1116.001	639.052	80.006	19.996	100.357	20.045	1.210	0.497
1116.501	639.272	80.006	19.996	100.363	20.041	1.482	0.525
1117.000	639.532	80.004	19.997	100.370	20.041	1.521	0.497
1117.500	639.752	80.004	19.997	100.373	20.042	1.422	0.480
1118.001	640.022	80.005	19.997	100.367	20.042	1.445	0.485
1118.501	640.267	80.006	19.996	100.361	20.043	1.396	0.502
1119.000	640.487	80.006	19.998	100.354	20.040	1.616	0.490
1119.500	640.750	80.005	19.996	100.348	20.045	1.237	0.474
1120.000	641.013	80.004	19.996	100.346	20.041	1.538	0.505
1120.500	641.236	80.006	19.998	100.352	20.042	1.418	0.506
1121.000	641.483	80.006	19.996	100.359	20.041	1.540	0.478
1121.500	641.722	80.006	19.996	100.362	20.039	1.634	0.478
1122.001	641.970	80.006	19.997	100.361	20.037	1.791	0.486
1122.501	642.236	80.006	19.998	100.356	20.039	1.636	0.500
1123.000	642.453	80.005	19.996	100.348	20.043	1.391	0.498
1123.500	642.722	80.006	19.995	100.341	20.040	1.605	0.485
1124.000	642.946	80.004	19.996	100.338	20.040	1.585	0.490
1124.500	643.202	80.005	19.996	100.338	20.039	1.692	0.487
1125.000	643.446	80.005	19.996	100.338	20.042	1.441	0.490
1125.500	643.661	80.006	19.995	100.338	20.040	1.626	0.479
1126.000	643.909	80.006	19.995	100.340	20.040	1.600	0.461
1126.500	644.151	80.005	19.996	100.341	20.039	1.645	0.477
1127.000	644.420	80.006	19.995	100.341	20.040	1.558	0.501
1127.500	644.657	80.006	19.996	100.342	20.040	1.608	0.508
1128.000	644.923	80.007	19.996	100.342	20.041	1.550	0.504
1128.500	645.135	80.005	19.996	100.345	20.040	1.620	0.490
1129.000	645.396	80.006	19.996	100.352	20.041	1.536	0.476
1129.500	645.649	80.005	19.997	100.359	20.041	1.531	0.494
1130.000	645.864	80.006	19.997	100.363	20.039	1.643	0.491
1130.500	646.121	80.006	19.995	100.367	20.041	1.511	0.470
1131.001	646.375	80.004	19.995	100.366	20.040	1.564	0.492
1131.501	646.630	80.005	19.996	100.365	20.041	1.509	0.510
1132.000	646.875	80.005	19.996	100.365	20.040	1.606	0.504
1132.500	647.113	80.004	19.997	100.363	20.040	1.569	0.491
1133.000	647.380	80.006	19.996	100.359	20.038	1.743	0.494
1133.500	647.643	80.004	19.997	100.355	20.039	1.675	0.518
1134.000	647.876	80.005	19.996	100.351	20.038	1.710	0.513
1134.500	648.093	80.003	19.996	100.349	20.040	1.630	0.473
1135.000	648.350	80.004	19.996	100.355	20.038	1.760	0.463
1135.500	648.531	80.003	19.997	100.362	20.036	1.875	0.457
1136.000	648.857	80.004	19.996	100.371	20.039	1.657	0.473
1136.500	649.114	80.005	19.996	100.377	20.040	1.608	0.545
1137.000	649.350	80.005	19.995	100.377	20.040	1.589	0.538
1137.500	649.635	80.004	19.995	100.375	20.038	1.762	0.507
1138.000	649.848	80.004	19.997	100.372	20.040	1.573	0.509
1138.500	650.099	80.004	19.997	100.368	20.040	1.624	0.481
1139.000	650.333	80.005	19.997	100.368	20.039	1.635	0.475
1139.500	650.621	80.003	19.997	100.369	20.041	1.505	0.503
1140.000	650.867	80.005	19.996	100.365	20.043	1.392	0.528
1140.500	651.142	80.003	19.997	100.361	20.038	1.734	0.528
1141.000	651.347	80.004	19.996	100.364	20.038	1.740	0.500
1141.500	651.643	80.004	19.998	100.364	20.040	1.563	0.491
1142.000	651.863	80.005	19.997	100.364	20.042	1.472	0.508
1142.500	652.138	80.004	19.997	100.364	20.041	1.484	0.505
1143.000	652.400	80.004	19.997	100.365	20.041	1.519	0.516
1143.500	652.590	80.004	19.997	100.362	20.038	1.760	0.495
1144.000	652.864	80.004	19.997	100.357	20.039	1.657	0.458
1144.500	653.101	80.005	19.997	100.354	20.035	1.939	0.487
1145.000	653.354	80.005	19.997	100.356	20.038	1.748	0.500
1145.500	653.637	80.004	19.996	100.358	20.040	1.618	0.513
1146.000	653.888	80.004	19.996	100.362	20.040	1.571	0.535
1146.500	654.111	80.004	19.997	100.365	20.041	1.501	0.504
1147.001	654.383	80.005	19.996	100.370	20.041	1.544	0.484
1147.501	654.613	80.005	19.996	100.374	20.042	1.422	0.499
1148.000	654.874	80.006	19.996	100.377	20.041	1.482	0.497
1148.500	655.136	80.006	19.995	100.375	20.041	1.521	0.508
1149.000	655.359	80.005	19.996	100.376	20.041	1.513	0.505
1149.501	655.604	80.004	19.996	100.375	20.042	1.404	0.477
1150.001	655.878	80.005	19.996	100.376	20.040	1.569	0.493
1150.500	656.122	80.005	19.995	100.377	20.040	1.610	0.518
1151.000	656.346	80.005	19.995	100.379	20.039	1.634	0.492
1151.501	656.631	80.005	19.997	100.378	20.041	1.507	0.489
1152.001	656.868	80.007	19.995	100.378	20.042	1.443	0.516
1152.500	657.132	80.005	19.995	100.376	20.042	1.459	0.511
1153.000	657.390	80.006	19.996	100.374	20.043	1.375	0.512
1153.500	657.630	80.007	19.996	100.374	20.041	1.535	0.510
1154.000	657.887	80.007	19.996	100.372	20.038	1.750	0.497
1154.500	658.153	80.008	19.996	100.372	20.040	1.601	0.510
1155.000	658.393	80.008	19.995	100.374	20.042	1.410	0.514
1155.500	658.664	80.008	19.994	100.375	20.039	1.655	0.509
1156.001	658.934	80.006	19.995	100.374	20.039	1.671	0.526
1156.501	659.163	80.007	19.995	100.373	20.038	1.719	0.520
1157.000	659.439	80.006	19.996	100.369	20.042	1.453	0.502
1157.501	659.674	80.008	19.995	100.367	20.039	1.647	0.508
1158.001	659.906	80.006	19.995	100.366	20.038	1.773	0.489
1158.500	660.185	80.006	19.994	100.364	20.039	1.643	0.489
1159.000	660.462	80.007	19.995	100.365	20.038	1.711	0.533
1159.500	660.675	80.006	19.995	100.368	20.040	1.593	0.523
1160.000	660.969	80.006	19.996	100.364	20.040	1.631	0.499
1160.501	661.202	80.006	19.995	100.363	20.038	1.727	0.517
1161.001	661.425	80.005	19.995	100.361	20.039	1.688	0.491
1161.501	661.701	80.006	19.995	100.361	20.041	1.509	0.478
1162.001	661.966	80.005	19.996	100.359	20.037	1.853	0.520
1162.501	662.212	80.006	19.996	100.362	20.037	1.832	0.526
1163.001	662.471	80.005	19.995	100.359	20.035	1.935	0.507
1163.500	662.744	80.007	19.996	100.357	20.035	1.974	0.518
1164.000	662.977	80.005	19.996	100.354	20.037	1.797	0.519
1164.500	663.264	80.005	19.996	100.354	20.034	2.057	0.513
1165.000	663.481	80.005	19.994	100.353	20.034	2.042	0.512
1165.500	663.717	80.007	19.996	100.355	20.035	1.937	0.478
1166.000	664.014	80.007	19.996	100.357	20.037	1.795	0.493
1166.500	664.299	80.006	19.995	100.362	20.036	1.931	0.558
1167.000	664.505	80.006	19.995	100.364	20.036	1.911	0.537
1167.500	664.799	80.006	19.996	100.367	20.036	1.923	0.496
1168.001	665.038	80.005	19.995	100.371	20.035	1.958	0.517
1168.501	665.283	80.007	19.996	100.375	20.033	2.112	0.508
1169.000	665.562	80.006	19.996	100.376	20.035	1.983	0.504
1169.500	665.825	80.007	19.996	100.377	20.035	1.935	0.533
1170.000	666.099	80.007	19.996	100.375	20.033	2.100	0.540
1170.501	666.373	80.006	19.996	100.375	20.037	1.849	0.542
1171.001	666.602	80.007	19.994	100.375	20.037	1.838	0.525
1171.500	666.857	80.007	19.995	100.375	20.036	1.859	0.493
1172.000	667.108	80.007	19.995	100.375	20.036	1.867	0.495
1172.500	667.370	80.007	19.995	100.375	20.038	1.742	0.510
1173.000	667.650	80.008	19.995	100.375	20.035	1.991	0.528
1173.500	667.885	80.008	19.996	100.375	20.037	1.826	0.528
1174.000	668.172	80.008	19.995	100.375	20.038	1.719	0.518
1174.500	668.430	80.008	19.995	100.374	20.036	1.919	0.534
1175.000	668.684	80.008	19.995	100.375	20.038	1.725	0.529
1175.500	668.911	80.006	19.996	100.376	20.037	1.791	0.496
1176.000	669.201	80.007	19.995	100.376	20.036	1.906	0.499
1176.501	669.407	80.007	19.995	100.380	20.036	1.882	0.507
1177.001	669.659	80.009	19.995	100.380	20.035	1.966	0.477
1177.500	669.917	80.006	19.995	100.380	20.040	1.604	0.483
1178.000	670.201	80.007	19.995	100.379	20.036	1.884	0.526
1178.500	670.451	80.008	19.994	100.377	20.037	1.789	0.538
1179.000	670.717	80.008	19.995	100.373	20.040	1.627	0.525
1179.500	670.988	80.007	19.996	100.373	20.041	1.507	0.527
1180.000	671.250	80.007	19.996	100.373	20.035	1.952	0.536
1180.500	671.504	80.007	19.995	100.373	20.035	1.979	0.524
1181.000	671.747	80.005	19.997	100.373	20.039	1.699	0.506
1181.500	672.025	80.006	19.995	100.375	20.037	1.851	0.509
1182.000	672.247	80.007	19.996	100.377	20.036	1.890	0.510
1182.500	672.523	80.007	19.994	100.377	20.037	1.857	0.499
1183.000	672.793	80.007	19.995	100.378	20.037	1.803	0.522
1183.501	673.047	80.005	19.996	100.379	20.038	1.740	0.535
1184.001	673.310	80.005	19.997	100.378	20.037	1.789	0.521
1184.500	673.563	80.004	19.996	100.378	20.037	1.802	0.516
1185.000	673.842	80.004	19.995	100.379	20.037	1.837	0.524
1185.500	674.102	80.005	19.996	100.379	20.036	1.861	0.535
1186.000	674.349	80.005	19.994	100.379	20.034	2.049	0.523
1186.500	674.644	80.005	19.995	100.378	20.036	1.880	0.525
1187.001	674.871	80.005	19.995	100.378	20.036	1.886	0.532
1187.501	675.135	80.005	19.995	100.378	20.039	1.649	0.507
1188.000	675.397	80.003	19.995	100.378	20.037	1.837	0.508
1188.500	675.671	80.006	19.996	100.383	20.038	1.715	0.531
1189.000	675.949	80.004	19.996	100.388	20.038	1.781	0.545
1189.500	676.174	80.004	19.994	100.389	20.037	1.800	0.528
1190.000	676.436	80.005	19.994	100.389	20.036	1.894	0.495
1190.500	676.685	80.004	19.995	100.390	20.035	1.956	0.499
1191.000	676.932	80.003	19.996	100.385	20.036	1.870	0.503
1191.500	677.163	80.005	19.994	100.380	20.035	2.001	0.487
1192.000	677.431	80.005	19.995	100.380	20.032	2.199	0.489
1192.500	677.695	80.006	19.996	100.379	20.035	1.950	0.515
1193.000	677.955	80.005	19.996	100.378	20.037	1.818	0.528
1193.500	678.202	80.005	19.996	100.378	20.036	1.866	0.516
1194.000	678.478	80.005	19.995	100.378	20.036	1.866	0.515
1194.500	678.754	80.004	19.996	100.379	20.037	1.812	0.537
1195.001	679.000	80.005	19.996	100.385	20.037	1.847	0.537
1195.501	679.234	80.005	19.995	100.388	20.038	1.721	0.501
1196.000	679.496	80.005	19.995	100.389	20.037	1.826	0.488
1196.500	679.745	80.004	19.996	100.389	20.039	1.664	0.504
1197.000	680.015	80.005	19.995	100.389	20.037	1.826	0.515
1197.500	680.239	80.004	19.995	100.386	20.038	1.781	0.507
1198.000	680.508	80.005	19.995	100.385	20.035	1.999	0.494
1198.500	680.750	80.005	19.995	100.388	20.039	1.659	0.502
1199.000	681.022	80.004	19.996	100.387	20.039	1.674	0.512
1199.500	681.277	80.005	19.996	100.386	20.038	1.756	0.520
1200.000	681.545	80.005	19.995	100.387	20.035	1.968	0.525
1200.500	681.769	80.005	19.995	100.386	20.033	2.137	0.508
1201.000	682.050	80.005	19.997	100.382	20.037	1.832	0.499
1201.501	682.323	80.004	19.996	100.383	20.036	1.886	0.530
1202.001	682.584	80.003	19.996	100.386	20.034	2.036	0.544
1202.500	682.824	80.005	19.995	100.390	20.039	1.699	0.517
1203.000	683.079	80.006	19.996	100.394	20.035	1.954	0.498
1203.500	683.338	80.006	19.995	100.397	20.036	1.925	0.505
1204.001	683.590	80.004	19.997	100.400	20.037	1.851	0.512
1204.501	683.840	80.005	19.996	100.399	20.037	1.795	0.506
1205.001	684.120	80.004	19.998	100.395	20.035	1.968	0.516
1205.500	684.355	80.004	19.997	100.391	20.034	2.014	0.523
1206.000	684.613	80.003	19.995	100.388	20.037	1.833	0.504
1206.501	684.839	80.004	19.997	100.384	20.037	1.837	0.489
1207.001	685.088	80.005	19.996	100.384	20.032	2.214	0.480
1207.501	685.367	80.005	19.996	100.383	20.034	2.029	0.501
1208.001	685.673	80.004	19.996	100.384	20.031	2.284	0.556
1208.500	685.910	80.004	19.995	100.385	20.036	1.880	0.564
1209.000	686.160	80.003	19.996	100.384	20.033	2.125	0.515
1209.500	686.418	80.004	19.996	100.383	20.031	2.249	0.498
1210.000	686.683	80.005	19.996	100.382	20.035	1.987	0.516
1210.500	686.922	80.003	19.996	100.382	20.034	2.061	0.514
1211.001	687.164	80.004	19.996	100.382	20.032	2.197	0.493
1211.501	687.422	80.004	19.996	100.383	20.034	2.036	0.490
1212.001	687.685	80.003	19.996	100.383	20.036	1.927	0.510
1212.500	687.967	80.003	19.996	100.383	20.033	2.109	0.533
1213.001	688.202	80.004	19.996	100.386	20.030	2.354	0.531
1213.501	688.456	80.004	19.997	100.389	20.034	2.053	0.503
1214.000	688.690	80.004	19.995	100.390	20.030	2.343	0.488
1214.501	688.971	80.003	19.997	100.390	20.034	2.030	0.501
1215.001	689.228	80.004	19.996	100.390	20.035	1.954	0.527
1215.500	689.471	80.003	19.997	100.389	20.033	2.121	0.519
1216.001	689.746	80.003	19.996	100.390	20.037	1.787	0.509
1216.501	689.974	80.004	19.996	100.395	20.037	1.816	0.510
1217.000	690.248	80.003	19.996	100.403	20.035	1.971	0.503
1217.500	690.488	80.004	19.996	100.409	20.033	2.160	0.508
1218.000	690.765	80.003	19.996	100.413	20.036	1.899	0.515
1218.501	691.014	80.003	19.997	100.411	20.037	1.829	0.521
1219.001	691.261	80.004	19.995	100.408	20.034	2.022	0.511
1219.500	691.488	80.003	19.996	100.404	20.036	1.911	0.486
1220.000	691.762	80.003	19.995	100.404	20.036	1.891	0.487
1220.500	692.041	80.004	19.997	100.404	20.037	1.856	0.527
1221.000	692.264	80.003	19.996	100.403	20.034	2.022	0.528
1221.500	692.526	80.004	19.996	100.398	20.036	1.878	0.494
1222.000	692.795	80.003	19.995	100.393	20.033	2.103	0.508
1222.500	693.043	80.002	19.995	100.390	20.034	2.057	0.524
1223.000	693.270	80.004	19.995	100.391	20.035	2.006	0.496
1223.500	693.556	80.005	19.997	100.394	20.035	1.977	0.494
1224.000	693.786	80.005	19.996	100.396	20.034	2.033	0.515
1224.500	694.064	80.005	19.996	100.396	20.030	2.368	0.512
1225.000	694.316	80.004	19.996	100.392	20.035	1.965	0.518
1225.500	694.589	80.006	19.996	100.385	20.034	2.051	0.528
1226.000	694.832	80.005	19.996	100.385	20.033	2.146	0.521
1226.500	695.045	80.005	19.997	100.387	20.036	1.913	0.486
1227.000	695.325	80.006	19.996	100.394	20.035	1.991	0.475
1227.500	695.609	80.005	19.996	100.399	20.033	2.111	0.529
1228.000	695.846	80.006	19.997	100.406	20.031	2.265	0.543
1228.501	696.083	80.005	19.996	100.403	20.031	2.251	0.498
1229.001	696.371	80.005	19.996	100.403	20.034	2.039	0.499
1229.500	696.628	80.006	19.996	100.401	20.034	2.014	0.535
1230.000	696.861	80.006	19.996	100.403	20.036	1.889	0.517
1230.500	697.080	80.006	19.996	100.404	20.034	2.057	0.471
1231.000	697.394	80.007	19.996	100.407	20.032	2.177	0.492
1231.500	697.597	80.006	19.996	100.410	20.032	2.166	0.525
1232.000	697.892	80.007	19.997	100.412	20.036	1.913	0.507
1232.500	698.115	80.006	19.996	100.412	20.033	2.098	0.508
1233.000	698.355	80.007	19.996	100.413	20.032	2.191	0.490
1233.500	698.620	80.006	19.996	100.413	20.033	2.160	0.484
1234.000	698.879	80.005	19.996	100.412	20.031	2.278	0.515
1234.500	699.133	80.006	19.997	100.412	20.029	2.430	0.519
1235.000	699.367	80.007	19.997	100.411	20.034	2.066	0.500
1235.500	699.647	80.006	19.997	100.409	20.033	2.096	0.501
1236.000	699.842	80.006	19.997	100.408	20.029	2.459	0.495
1236.500	700.132	80.005	19.996	100.409	20.032	2.197	0.480
1237.000	700.391	80.005	19.997	100.409	20.033	2.105	0.517
1237.500	700.665	80.006	19.998	100.408	20.031	2.251	0.541
1238.000	700.880	80.006	19.996	100.408	20.033	2.160	0.511
1238.500	701.153	80.006	19.996	100.408	20.032	2.212	0.488
1239.000	701.410	80.006	19.997	100.408	20.031	2.259	0.509
1239.501	701.665	80.005	19.997	100.406	20.033	2.117	0.521
1240.001	701.914	80.005	19.998	100.408	20.031	2.261	0.508
1240.500	702.164	80.005	19.997	100.410	20.031	2.304	0.501
1241.000	702.449	80.006	19.997	100.410	20.035	1.967	0.517
1241.501	702.659	80.006	19.997	100.408	20.031	2.286	0.515
1242.001	702.921	80.005	19.996	100.407	20.031	2.248	0.484
1242.501	703.161	80.005	19.997	100.405	20.030	2.384	0.487
1243.000	703.462	80.007	19.997	100.400	20.030	2.335	0.522
1243.500	703.709	80.005	19.997	100.398	20.032	2.222	0.545
1244.000	703.968	80.005	19.996	100.400	20.029	2.422	0.527
1244.500	704.202	80.007	19.996	100.402	20.029	2.459	0.499
1245.000	704.429	80.006	19.996	100.404	20.030	2.368	0.477
1245.500	704.722	80.007	19.996	100.408	20.029	2.461	0.491
1246.000	704.997	80.005	19.996	100.407	20.030	2.336	0.544
1246.501	705.236	80.007	19.996	100.407	20.029	2.393	0.541
1247.001	705.483	80.006	19.996	100.407	20.031	2.311	0.500
1247.500	705.725	80.006	19.996	100.408	20.033	2.140	0.487
1248.000	705.962	80.008	19.996	100.408	20.034	2.062	0.484
1248.500	706.217	80.007	19.996	100.411	20.029	2.399	0.486
1249.000	706.495	80.008	19.996	100.406	20.030	2.344	0.513
1249.501	706.749	80.007	19.995	100.402	20.029	2.461	0.532
1250.001	706.981	80.008	19.996	100.399	20.033	2.132	0.508
1250.500	707.250	80.006	19.995	100.400	20.028	2.498	0.494
1251.001	707.483	80.007	19.995	100.401	20.028	2.535	0.502
1251.501	707.786	80.007	19.995	100.404	20.027	2.574	0.518
1252.001	707.991	80.007	19.996	100.402	20.026	2.642	0.522
1252.500	708.232	80.008	19.995	100.397	20.030	2.356	0.477
1253.000	708.529	80.007	19.995	100.390	20.027	2.562	0.492
1253.500	708.766	80.008	19.996	100.387	20.029	2.393	0.537
1254.000	709.065	80.007	19.995	100.389	20.031	2.288	0.535
1254.500	709.280	80.009	19.996	100.395	20.028	2.488	0.525
1255.000	709.565	80.009	19.995	100.402	20.031	2.288	0.507
1255.500	709.784	80.008	19.995	100.410	20.030	2.356	0.502
1256.000	710.040	80.009	19.995	100.414	20.031	2.303	0.489
1256.500	710.294	80.007	19.995	100.414	20.031	2.301	0.492
1257.000	710.548	80.009	19.995	100.415	20.027	2.574	0.509
1257.501	710.824	80.008	19.995	100.416	20.025	2.733	0.519
1258.001	711.055	80.008	19.995	100.415	20.030	2.356	0.519
1258.500	711.282	80.008	19.995	100.415	20.028	2.541	0.483
1259.001	711.520	80.008	19.995	100.416	20.030	2.381	0.461
1259.501	711.800	80.008	19.996	100.416	20.027	2.584	0.492
1260.000	712.049	80.008	19.995	100.416	20.029	2.455	0.523
1260.500	712.318	80.007	19.996	100.417	20.028	2.475	0.523
1261.000	712.574	80.008	19.995	100.417	20.028	2.539	0.521
1261.500	712.808	80.009	19.994	100.416	20.031	2.243	0.507
1262.000	713.105	80.007	19.995	100.417	20.029	2.393	0.511
1262.500	713.355	80.008	19.996	100.417	20.032	2.169	0.539
1263.000	713.592	80.007	19.995	100.417	20.028	2.470	0.517
1263.500	713.860	80.006	19.995	100.417	20.029	2.397	0.496
1264.000	714.088	80.007	19.996	100.417	20.032	2.185	0.501
1264.500	714.350	80.007	19.995	100.417	20.028	2.505	0.493
1265.000	714.567	80.005	19.995	100.417	20.032	2.233	0.484
1265.500	714.824	80.005	19.995	100.417	20.034	2.023	0.476
1266.000	715.069	80.006	19.996	100.417	20.032	2.233	0.488
1266.500	715.348	80.005	19.995	100.418	20.033	2.121	0.513
1267.000	715.602	80.006	19.996	100.418	20.032	2.189	0.529
1267.500	715.880	80.006	19.996	100.418	20.035	1.985	0.533
1268.000	716.057	80.004	19.996	100.417	20.028	2.469	0.494
1268.500	716.348	80.006	19.996	100.419	20.031	2.307	0.462
1269.000	716.632	80.005	19.996	100.415	20.031	2.272	0.522
1269.500	716.873	80.006	19.995	100.410	20.030	2.373	0.550
1270.001	717.169	80.004	19.996	100.406	20.028	2.490	0.531
1270.501	717.411	80.005	19.995	100.401	20.027	2.554	0.537
1271.000	717.602	80.004	19.996	100.401	20.033	2.126	0.485
1271.500	717.859	80.004	19.994	100.404	20.031	2.255	0.441
1272.000	718.092	80.005	19.996	100.410	20.030	2.383	0.469
1272.500	718.368	80.004	19.995	100.414	20.029	2.457	0.499
1273.000	718.611	80.006	19.996	100.419	20.032	2.227	0.514
1273.500	718.828	80.004	19.996	100.421	20.032	2.175	0.490
1274.000	719.092	80.005	19.996	100.420	20.029	2.424	0.470
1274.500	719.341	80.005	19.996	100.420	20.029	2.449	0.497
1275.000	719.616	80.005	19.996	100.420	20.032	2.225	0.519
1275.500	719.862	80.005	19.995	100.420	20.028	2.486	0.522
1276.000	720.138	80.006	19.996	100.419	20.029	2.457	0.521
1276.500	720.342	80.004	19.995	100.419	20.032	2.169	0.501
1277.000	720.598	80.006	19.995	100.419	20.029	2.393	0.470
1277.500	720.881	80.004	19.995	100.419	20.028	2.469	0.500
1278.000	721.122	80.005	19.995	100.419	20.029	2.401	0.532
1278.500	721.339	80.005	19.994	100.418	20.029	2.434	0.491
1279.000	721.624	80.005	19.996	100.418	20.032	2.239	0.479
1279.500	721.863	80.005	19.995	100.419	20.029	2.410	0.513
1280.000	722.155	80.005	19.996	100.419	20.031	2.251	0.528
1280.500	722.378	80.006	19.996	100.420	20.029	2.463	0.523
1281.000	722.645	80.005	19.995	100.421	20.030	2.319	0.503
1281.500	722.899	80.006	19.995	100.421	20.032	2.204	0.505
1282.000	723.165	80.006	19.996	100.421	20.032	2.183	0.521
1282.501	723.353	80.005	19.995	100.421	20.031	2.257	0.487
1283.001	723.664	80.008	19.996	100.421	20.030	2.354	0.476
1283.501	723.862	80.006	19.995	100.421	20.029	2.416	0.504
1284.000	724.110	80.006	19.995	100.422	20.029	2.406	0.477
1284.500	724.380	80.005	19.996	100.424	20.030	2.373	0.482
1285.000	724.596	80.007	19.996	100.425	20.028	2.502	0.502
1285.500	724.843	80.005	19.995	100.427	20.027	2.558	0.474
1286.000	725.137	80.007	19.995	100.427	20.031	2.249	0.502
1286.500	725.393	80.007	19.995	100.425	20.028	2.523	0.546
1287.000	725.619	80.007	19.995	100.423	20.024	2.803	0.516
1287.500	725.863	80.006	19.995	100.420	20.027	2.560	0.476
1288.000	726.127	80.006	19.994	100.417	20.025	2.756	0.489
1288.500	726.346	80.007	19.995	100.416	20.026	2.643	0.495
1289.000	726.594	80.006	19.995	100.416	20.027	2.562	0.475
1289.500	726.859	80.006	19.995	100.417	20.028	2.502	0.490
1290.000	727.096	80.007	19.995	100.416	20.022	2.931	0.507
1290.500	727.354	80.006	19.996	100.417	20.024	2.830	0.498
1291.000	727.589	80.008	19.995	100.417	20.022	2.956	0.494
1291.500	727.854	80.005	19.996	100.417	20.024	2.801	0.496
1292.000	728.082	80.006	19.996	100.417	20.026	2.692	0.497
1292.500	728.318	80.006	19.995	100.417	20.025	2.713	0.479
1293.000	728.591	80.007	19.995	100.417	20.027	2.606	0.486
1293.501	728.876	80.007	19.996	100.417	20.023	2.853	0.534
1294.001	729.089	80.005	19.995	100.417	20.023	2.851	0.528
1294.500	729.313	80.005	19.995	100.416	20.023	2.917	0.468
1295.000	729.537	80.006	19.996	100.416	20.027	2.585	0.443
1295.500	729.800	80.006	19.996	100.416	20.023	2.892	0.467
1296.000	730.075	80.006	19.997	100.417	20.019	3.160	0.512
1296.500	730.290	80.004	19.997	100.417	20.023	2.878	0.514
1297.001	730.548	80.006	19.997	100.417	20.025	2.752	0.482
1297.501	730.792	80.005	19.996	100.417	20.026	2.672	0.487
1298.001	731.077	80.005	19.995	100.420	20.023	2.892	0.516
1298.500	731.276	80.005	19.995	100.422	20.024	2.814	0.507
1299.000	731.528	80.006	19.996	100.423	20.024	2.791	0.467
1299.501	731.779	80.004	19.996	100.423	20.024	2.785	0.477
1300.001	731.996	80.005	19.997	100.423	20.021	3.003	0.485
1300.500	732.246	80.005	19.996	100.420	20.022	2.962	0.467
1301.000	732.498	80.005	19.997	100.418	20.024	2.778	0.485
1301.500	732.731	80.005	19.997	100.417	20.022	2.962	0.494
1302.000	732.969	80.006	19.997	100.417	20.026	2.692	0.478
1302.500	733.190	80.004	19.996	100.417	20.020	3.127	0.465
1303.000	733.463	80.003	19.997	100.418	20.020	3.079	0.477
1303.500	733.722	80.003	19.996	100.420	20.022	2.970	0.513
1304.000	733.942	80.004	19.997	100.423	20.021	3.009	0.506
1304.500	734.205	80.004	19.997	100.422	20.017	3.332	0.481
1305.000	734.455	80.004	19.996	100.422	20.020	3.104	0.498
1305.500	734.702	80.006	19.996	100.422	20.021	3.054	0.505
1306.001	734.944	80.006	19.996	100.422	20.022	2.935	0.493
1306.501	735.189	80.005	19.996	100.423	20.022	2.980	0.488
1307.001	735.430	80.007	19.995	100.424	20.020	3.133	0.487
1307.501	735.686	80.006	19.997	100.427	20.020	3.094	0.491
1308.000	735.900	80.007	19.997	100.430	20.022	2.927	0.483
1308.500	736.166	80.005	19.997	100.429	20.021	3.024	0.475
1309.000	736.368	80.007	19.997	100.426	20.023	2.851	0.474
1309.501	736.602	80.006	19.996	100.425	20.020	3.092	0.452
1310.001	736.869	80.007	19.995	100.422	20.022	2.997	0.469
1310.500	737.146	80.006	19.995	100.418	20.022	2.966	0.523
1311.001	737.379	80.006	19.996	100.417	20.022	2.981	0.527
1311.501	737.620	80.007	19.996	100.417	20.021	3.065	0.492
1312.001	737.860	80.007	19.996	100.417	20.020	3.137	0.477
1312.500	738.144	80.008	19.996	100.417	20.020	3.137	0.502
1313.000	738.348	80.008	19.996	100.418	20.022	2.931	0.506
1313.500	738.615	80.007	19.994	100.419	20.021	3.040	0.479
1314.000	738.861	80.008	19.996	100.420	20.021	3.046	0.492
1314.500	739.097	80.008	19.996	100.419	20.019	3.158	0.498
1315.000	739.308	80.008	19.996	100.419	20.025	2.766	0.464
1315.500	739.597	80.007	19.996	100.419	20.021	3.030	0.473
1316.000	739.820	80.006	19.996	100.417	20.023	2.888	0.506
1316.500	740.067	80.007	19.995	100.416	20.023	2.882	0.491
1317.000	740.303	80.006	19.996	100.417	20.024	2.818	0.477
1317.500	740.512	80.007	19.996	100.418	20.021	3.022	0.464
1318.001	740.788	80.007	19.995	100.419	20.020	3.082	0.464
1318.501	741.008	80.007	19.995	100.419	20.020	3.107	0.490
1319.000	741.266	80.007	19.997	100.422	20.021	3.008	0.487
1319.501	741.515	80.005	19.995	100.425	20.020	3.082	0.493
1320.001	741.756	80.005	19.995	100.429	20.018	3.236	0.499
1320.500	742.056	80.008	19.996	100.432	20.018	3.259	0.515
1321.000	742.292	80.005	19.996	100.435	20.019	3.224	0.538
1321.501	742.496	80.005	19.995	100.433	20.020	3.131	0.488
1322.001	742.755	80.007	19.995	100.430	20.020	3.094	0.451
1322.500	743.007	80.007	19.996	100.428	20.021	3.020	0.487
1323.001	743.258	80.006	19.997	100.427	20.020	3.080	0.508
1323.501	743.557	80.006	19.995	100.426	20.019	3.191	0.526
