Sample ID:	C:\MCC\MCC Cal\Test\Basswood_Panel_MCC_30K_min_211116_R1.txt
Sample Weight (mg):	4.68
Heating Rate (C/s):	0.5
Combustor Temp (C):	900
N2 Flow Rate (cc/min):	80
O2 Flow Rate (cc/min):	20
Calibration File:	C:\MCC\MCC Cal\Coeff1 JN10440_30_210304.txt.txt
T Correction Coefficients:	0	1.024463	0
Time Shift (s):	14
*
Time (s)	Temperature (C)	N2 flow rate (cc/min)	O2 flow rate (cc/min)	Flow Rate (cc/min)	Oxygen (%)	HRR (W/g)	Heating rate (C/s)
0.000	106.963	80.004	19.998	102.982	20.312	0.159	0.021
0.500	106.925	80.000	19.994	102.983	20.308	0.420	-0.011
1.000	106.948	80.001	19.994	102.984	20.310	0.304	-0.032
1.500	106.966	80.002	19.995	102.984	20.312	0.155	0.014
2.000	106.963	80.000	19.994	102.984	20.311	0.250	0.028
2.500	106.965	80.001	19.994	102.984	20.313	0.090	0.007
3.000	106.927	80.000	19.995	102.984	20.311	0.252	-0.019
3.500	106.950	80.000	19.995	102.984	20.311	0.269	-0.026
4.000	106.978	80.001	19.996	102.984	20.313	0.106	0.018
4.500	106.965	80.002	19.995	102.984	20.314	0.049	0.033
5.000	106.973	80.000	19.995	102.985	20.310	0.306	0.005
5.500	106.963	80.002	19.994	102.984	20.313	0.093	-0.004
6.000	106.967	80.001	19.995	102.985	20.309	0.388	-0.004
6.500	106.980	80.001	19.994	102.985	20.309	0.347	0.005
7.000	106.981	80.000	19.995	102.986	20.312	0.187	0.016
7.500	107.014	80.000	19.995	102.986	20.310	0.323	0.024
8.000	106.949	80.000	19.995	102.987	20.313	0.133	0.001
8.500	106.945	80.001	19.993	102.991	20.310	0.327	-0.051
9.000	106.990	80.001	19.994	102.994	20.311	0.247	-0.015
9.500	106.946	80.000	19.995	102.999	20.313	0.093	0.020
10.000	106.945	80.000	19.995	103.003	20.312	0.200	-0.022
10.500	106.967	80.002	19.994	103.010	20.309	0.357	-0.011
11.000	106.964	80.000	19.995	103.014	20.307	0.512	0.020
11.500	106.962	80.002	19.995	103.018	20.309	0.347	0.007
12.000	106.926	80.001	19.995	103.021	20.310	0.323	-0.021
12.500	106.976	80.002	19.995	103.024	20.308	0.450	-0.012
13.000	106.948	80.003	19.996	103.023	20.304	0.721	0.017
13.500	107.027	80.001	19.994	103.023	20.302	0.830	0.036
14.000	106.979	80.001	19.995	103.023	20.307	0.518	0.042
14.500	106.999	80.002	19.995	103.023	20.306	0.576	0.002
15.001	106.998	80.002	19.995	103.024	20.305	0.639	-0.005
15.501	106.998	80.002	19.994	103.026	20.307	0.525	0.009
16.000	106.989	80.003	19.995	103.025	20.305	0.658	-0.005
16.500	106.997	80.002	19.995	103.025	20.307	0.520	-0.005
17.000	107.028	80.003	19.994	103.026	20.301	0.910	0.019
17.500	107.028	80.003	19.994	103.025	20.309	0.398	0.036
18.000	107.064	80.003	19.995	103.025	20.301	0.942	0.034
18.500	107.069	80.003	19.995	103.026	20.301	0.903	0.038
19.000	107.092	80.003	19.995	103.029	20.306	0.598	0.034
19.500	107.104	80.001	19.994	103.029	20.306	0.598	0.032
20.001	107.097	80.002	19.994	103.030	20.303	0.755	0.020
20.500	107.082	80.002	19.995	103.033	20.303	0.783	-0.008
21.000	107.111	80.003	19.995	103.038	20.301	0.897	-0.004
21.500	107.170	80.002	19.993	103.040	20.301	0.905	0.051
22.000	107.152	80.003	19.994	103.047	20.298	1.105	0.065
22.500	107.161	80.002	19.995	103.060	20.297	1.187	0.016
23.000	107.190	80.002	19.994	103.074	20.296	1.281	0.015
23.500	107.223	80.000	19.994	103.086	20.292	1.561	0.050
24.000	107.222	80.003	19.996	103.096	20.296	1.298	0.047
24.500	107.290	80.003	19.995	103.105	20.292	1.559	0.049
25.000	107.280	80.002	19.994	103.109	20.286	1.933	0.063
25.500	107.290	80.002	19.995	103.113	20.294	1.429	0.029
26.000	107.340	80.002	19.994	103.118	20.291	1.634	0.030
26.500	107.353	80.001	19.995	103.125	20.287	1.861	0.062
27.000	107.398	80.001	19.994	103.132	20.288	1.799	0.060
27.500	107.410	80.001	19.994	103.137	20.287	1.868	0.057
28.000	107.461	80.001	19.995	103.138	20.288	1.810	0.061
28.500	107.476	80.001	19.994	103.140	20.289	1.769	0.064
29.000	107.536	80.001	19.993	103.140	20.282	2.250	0.070
29.500	107.585	80.003	19.994	103.139	20.284	2.072	0.092
30.000	107.627	80.002	19.993	103.139	20.281	2.278	0.100
30.500	107.658	80.003	19.995	103.140	20.282	2.220	0.082
31.000	107.690	80.002	19.994	103.140	20.284	2.089	0.068
31.500	107.738	80.003	19.994	103.140	20.282	2.252	0.071
32.001	107.806	80.000	19.995	103.141	20.279	2.451	0.098
32.501	107.838	80.002	19.995	103.140	20.284	2.122	0.108
33.000	107.864	80.004	19.994	103.142	20.278	2.543	0.079
33.500	107.930	80.000	19.994	103.146	20.280	2.350	0.075
34.000	107.992	80.001	19.993	103.152	20.280	2.370	0.110
34.500	108.030	80.001	19.994	103.153	20.279	2.460	0.114
35.000	108.117	80.003	19.993	103.157	20.281	2.269	0.113
35.501	108.191	80.004	19.995	103.160	20.274	2.795	0.143
36.001	108.235	80.003	19.994	103.161	20.276	2.645	0.139
36.501	108.289	80.004	19.994	103.163	20.283	2.159	0.108
37.000	108.350	80.004	19.994	103.167	20.275	2.703	0.107
37.500	108.400	80.004	19.994	103.171	20.274	2.765	0.113
38.000	108.460	80.001	19.994	103.173	20.277	2.572	0.110
38.500	108.544	80.002	19.994	103.177	20.274	2.818	0.127
39.000	108.560	80.003	19.993	103.178	20.276	2.627	0.122
39.501	108.682	80.003	19.995	103.181	20.272	2.956	0.119
40.001	108.734	80.003	19.995	103.183	20.274	2.820	0.156
40.500	108.817	80.003	19.994	103.186	20.276	2.636	0.155
41.000	108.904	80.003	19.993	103.190	20.272	2.919	0.153
41.500	108.967	80.003	19.994	103.194	20.269	3.129	0.160
42.000	109.098	80.004	19.993	103.200	20.268	3.174	0.171
42.500	109.153	80.005	19.993	103.206	20.270	3.061	0.190
43.000	109.227	80.005	19.995	103.210	20.267	3.282	0.158
43.500	109.268	80.004	19.994	103.212	20.271	2.985	0.122
44.000	109.379	80.004	19.994	103.216	20.266	3.325	0.134
44.500	109.468	80.006	19.994	103.216	20.267	3.249	0.176
45.000	109.570	80.004	19.995	103.215	20.267	3.245	0.195
45.500	109.665	80.003	19.994	103.216	20.266	3.339	0.194
46.000	109.785	80.003	19.994	103.217	20.263	3.556	0.206
46.500	109.856	80.004	19.994	103.217	20.266	3.341	0.203
47.000	109.916	80.002	19.994	103.217	20.264	3.460	0.161
47.500	110.045	80.003	19.994	103.217	20.264	3.442	0.160
48.000	110.139	80.003	19.995	103.217	20.264	3.459	0.206
48.500	110.231	80.002	19.994	103.217	20.267	3.279	0.205
49.000	110.364	80.002	19.995	103.216	20.268	3.213	0.206
49.500	110.513	80.001	19.994	103.217	20.263	3.539	0.254
50.000	110.588	80.002	19.994	103.219	20.262	3.623	0.253
50.500	110.680	80.003	19.996	103.222	20.260	3.764	0.195
51.000	110.832	80.003	19.994	103.224	20.266	3.320	0.205
51.500	110.885	80.001	19.994	103.228	20.261	3.655	0.224
52.000	111.032	80.000	19.995	103.233	20.259	3.801	0.202
52.500	111.128	80.002	19.994	103.235	20.263	3.530	0.221
53.000	111.280	80.001	19.995	103.237	20.264	3.500	0.246
53.500	111.405	80.000	19.995	103.240	20.261	3.698	0.263
54.000	111.526	80.000	19.996	103.240	20.259	3.841	0.262
54.500	111.652	80.000	19.996	103.240	20.259	3.837	0.246
55.000	111.745	80.000	19.995	103.245	20.260	3.760	0.233
55.500	111.880	80.001	19.995	103.246	20.259	3.790	0.224
56.000	112.021	80.001	19.994	103.244	20.259	3.807	0.252
56.500	112.163	80.001	19.995	103.246	20.259	3.792	0.279
57.000	112.279	80.001	19.994	103.248	20.258	3.856	0.271
57.500	112.413	80.001	19.995	103.249	20.260	3.725	0.254
58.001	112.534	80.001	19.994	103.250	20.259	3.852	0.252
58.501	112.689	80.000	19.995	103.254	20.257	3.968	0.266
59.001	112.810	80.000	19.994	103.254	20.258	3.895	0.276
59.501	112.904	80.001	19.994	103.254	20.256	4.024	0.246
60.001	113.116	80.002	19.994	103.254	20.255	4.063	0.261
60.500	113.250	80.001	19.996	103.254	20.258	3.867	0.326
61.000	113.362	80.001	19.994	103.254	20.260	3.781	0.296
61.500	113.497	80.000	19.994	103.254	20.260	3.745	0.247
62.000	113.686	80.001	19.994	103.255	20.257	3.932	0.286
62.500	113.818	80.000	19.995	103.255	20.254	4.157	0.322
63.000	113.988	80.002	19.995	103.255	20.252	4.318	0.311
63.500	114.160	80.001	19.995	103.256	20.257	3.962	0.322
64.000	114.285	80.001	19.996	103.256	20.261	3.653	0.319
64.501	114.453	80.001	19.995	103.256	20.259	3.833	0.295
65.001	114.588	80.001	19.995	103.257	20.263	3.528	0.298
65.500	114.786	80.001	19.995	103.255	20.262	3.612	0.318
66.000	114.993	80.002	19.994	103.255	20.261	3.674	0.369
66.500	115.097	80.000	19.995	103.255	20.256	4.056	0.358
67.000	115.249	80.001	19.995	103.255	20.259	3.842	0.284
67.500	115.417	80.000	19.995	103.256	20.256	4.050	0.288
68.000	115.593	80.000	19.995	103.258	20.258	3.884	0.332
68.500	115.770	80.001	19.995	103.259	20.260	3.736	0.348
69.000	115.887	80.002	19.995	103.259	20.258	3.921	0.323
69.500	116.100	79.999	19.995	103.259	20.260	3.771	0.312
70.000	116.253	80.001	19.996	103.258	20.258	3.871	0.348
70.501	116.462	80.000	19.995	103.258	20.255	4.112	0.364
71.001	116.631	80.000	19.995	103.258	20.259	3.852	0.370
71.500	116.791	80.000	19.995	103.258	20.257	3.929	0.353
72.000	116.961	80.001	19.995	103.256	20.255	4.125	0.330
72.500	117.111	80.000	19.995	103.256	20.256	4.034	0.325
73.000	117.273	80.000	19.995	103.255	20.257	3.938	0.316
73.501	117.465	80.000	19.995	103.254	20.260	3.764	0.333
74.001	117.650	80.000	19.995	103.254	20.254	4.148	0.365
74.501	117.827	80.001	19.996	103.254	20.258	3.871	0.369
75.001	117.975	80.001	19.995	103.256	20.255	4.067	0.344
75.500	118.179	80.000	19.996	103.256	20.256	4.017	0.339
76.000	118.347	80.001	19.997	103.257	20.256	4.009	0.362
76.501	118.573	80.000	19.997	103.257	20.256	4.019	0.383
77.001	118.715	80.001	19.996	103.258	20.255	4.118	0.381
77.500	118.924	80.001	19.996	103.257	20.255	4.118	0.359
78.000	119.074	80.000	19.998	103.257	20.255	4.065	0.355
78.500	119.277	79.999	19.996	103.257	20.254	4.189	0.357
79.000	119.547	80.002	19.996	103.257	20.258	3.897	0.414
79.500	119.718	80.000	19.996	103.257	20.255	4.077	0.457
80.000	119.919	80.000	19.995	103.257	20.259	3.848	0.406
80.500	120.051	80.001	19.995	103.256	20.255	4.120	0.352
81.001	120.277	80.000	19.996	103.256	20.258	3.917	0.345
81.501	120.443	80.001	19.996	103.257	20.255	4.075	0.375
82.000	120.639	80.000	19.995	103.257	20.255	4.101	0.377
82.500	120.817	80.000	19.995	103.259	20.254	4.153	0.368
83.000	121.031	80.000	19.995	103.260	20.253	4.215	0.384
83.500	121.196	80.001	19.996	103.262	20.256	4.041	0.385
84.000	121.451	79.999	19.995	103.264	20.253	4.222	0.399
84.501	121.626	79.999	19.995	103.264	20.256	4.060	0.425
85.001	121.785	80.000	19.994	103.263	20.257	3.981	0.382
85.501	122.013	80.000	19.994	103.262	20.254	4.170	0.360
86.000	122.178	80.000	19.994	103.260	20.255	4.061	0.390
86.500	122.394	79.999	19.995	103.260	20.257	3.932	0.387
87.000	122.625	80.001	19.994	103.260	20.250	4.426	0.414
87.500	122.819	80.001	19.995	103.260	20.252	4.288	0.436
88.000	123.068	80.001	19.995	103.260	20.254	4.161	0.434
88.501	123.234	80.000	19.993	103.260	20.254	4.129	0.429
89.001	123.428	80.001	19.994	103.260	20.256	4.001	0.387
89.501	123.577	80.001	19.994	103.260	20.256	4.007	0.352
90.000	123.823	80.001	19.995	103.260	20.254	4.159	0.369
90.501	124.058	80.001	19.995	103.260	20.257	3.949	0.438
91.001	124.248	80.000	19.995	103.259	20.256	4.009	0.453
91.501	124.482	80.002	19.995	103.259	20.255	4.121	0.424
92.000	124.672	80.001	19.993	103.260	20.254	4.131	0.424
92.500	124.900	80.002	19.993	103.259	20.254	4.157	0.421
93.000	125.116	80.002	19.995	103.259	20.254	4.187	0.431
93.500	125.307	80.002	19.994	103.259	20.254	4.132	0.426
94.000	125.560	80.001	19.994	103.258	20.255	4.063	0.426
94.500	125.737	80.001	19.993	103.258	20.254	4.149	0.437
95.000	125.962	80.003	19.994	103.258	20.252	4.286	0.416
95.501	126.156	80.002	19.995	103.258	20.255	4.089	0.410
96.001	126.403	80.003	19.994	103.257	20.255	4.127	0.430
96.500	126.616	80.003	19.996	103.257	20.257	3.972	0.451
97.000	126.779	80.002	19.994	103.257	20.257	3.928	0.418
97.500	127.049	80.003	19.994	103.257	20.253	4.256	0.404
98.000	127.252	80.004	19.994	103.256	20.254	4.157	0.453
98.500	127.496	80.002	19.995	103.256	20.254	4.142	0.460
99.000	127.697	80.004	19.994	103.256	20.254	4.168	0.446
99.501	127.877	80.004	19.993	103.256	20.254	4.174	0.413
100.001	128.112	80.004	19.995	103.256	20.255	4.082	0.398
100.501	128.359	80.003	19.996	103.256	20.256	4.050	0.449
101.000	128.556	80.003	19.993	103.256	20.250	4.458	0.463
101.500	128.791	80.002	19.995	103.256	20.248	4.563	0.437
102.001	128.987	80.002	19.993	103.256	20.248	4.544	0.431
102.501	129.275	80.002	19.994	103.256	20.253	4.215	0.458
103.000	129.447	80.002	19.996	103.256	20.254	4.176	0.472
103.500	129.669	80.003	19.994	103.255	20.258	3.857	0.427
104.001	129.870	80.003	19.995	103.255	20.252	4.267	0.409
104.501	130.128	80.003	19.994	103.255	20.254	4.159	0.441
105.000	130.344	80.003	19.995	103.255	20.247	4.645	0.466
105.500	130.549	80.001	19.994	103.255	20.252	4.271	0.447
106.000	130.791	80.002	19.994	103.256	20.249	4.475	0.434
106.500	131.021	80.004	19.995	103.256	20.252	4.271	0.459
107.000	131.255	80.002	19.994	103.256	20.250	4.413	0.468
107.500	131.466	80.003	19.995	103.256	20.253	4.219	0.455
108.000	131.698	80.002	19.995	103.255	20.253	4.243	0.444
108.500	131.894	80.002	19.994	103.256	20.252	4.308	0.436
109.001	132.139	80.002	19.996	103.256	20.247	4.632	0.434
109.501	132.385	80.002	19.995	103.257	20.249	4.512	0.466
110.001	132.614	80.001	19.995	103.256	20.251	4.359	0.483
110.500	132.837	80.002	19.993	103.256	20.249	4.509	0.463
111.001	133.043	80.003	19.996	103.256	20.255	4.110	0.441
111.501	133.278	80.002	19.996	103.256	20.254	4.168	0.435
112.000	133.530	80.003	19.995	103.256	20.251	4.350	0.464
112.500	133.760	80.003	19.994	103.256	20.247	4.664	0.485
113.000	133.972	80.003	19.994	103.256	20.252	4.267	0.462
113.500	134.233	80.003	19.994	103.255	20.248	4.565	0.457
114.000	134.430	80.004	19.995	103.255	20.250	4.468	0.465
114.500	134.653	80.004	19.995	103.256	20.250	4.451	0.439
115.000	134.920	80.002	19.994	103.256	20.250	4.458	0.455
115.500	135.067	80.004	19.994	103.256	20.247	4.628	0.452
116.000	135.374	80.003	19.995	103.256	20.251	4.363	0.434
116.500	135.618	80.002	19.994	103.256	20.250	4.471	0.503
117.000	135.814	80.003	19.994	103.256	20.248	4.584	0.496
117.500	136.158	80.003	19.995	103.256	20.248	4.587	0.490
118.000	136.305	80.003	19.993	103.257	20.251	4.393	0.516
118.500	136.519	80.004	19.994	103.256	20.247	4.679	0.426
119.000	136.782	80.003	19.993	103.257	20.249	4.488	0.419
119.500	137.041	80.003	19.994	103.257	20.248	4.557	0.499
120.000	137.237	80.003	19.994	103.256	20.252	4.277	0.488
120.500	137.441	80.005	19.994	103.256	20.249	4.535	0.427
121.000	137.716	80.005	19.994	103.257	20.251	4.383	0.440
121.500	137.951	80.005	19.995	103.257	20.247	4.623	0.495
122.000	138.162	80.004	19.994	103.257	20.253	4.260	0.478
122.501	138.451	80.006	19.994	103.257	20.250	4.440	0.473
123.001	138.641	80.006	19.993	103.257	20.246	4.720	0.489
123.501	138.902	80.006	19.994	103.257	20.247	4.647	0.465
124.000	139.177	80.004	19.995	103.256	20.250	4.458	0.493
124.500	139.379	80.005	19.993	103.255	20.249	4.522	0.507
125.000	139.634	80.005	19.994	103.255	20.248	4.589	0.467
125.500	139.875	80.005	19.994	103.255	20.244	4.851	0.476
126.000	140.088	80.005	19.993	103.255	20.246	4.717	0.475
126.500	140.330	80.004	19.993	103.256	20.247	4.631	0.455
127.000	140.610	80.004	19.993	103.256	20.245	4.788	0.489
127.500	140.893	80.003	19.994	103.257	20.249	4.499	0.543
128.000	141.091	80.004	19.993	103.257	20.249	4.473	0.522
128.500	141.291	80.004	19.994	103.257	20.250	4.464	0.440
129.000	141.587	80.003	19.994	103.258	20.252	4.301	0.447
129.500	141.811	80.003	19.994	103.258	20.251	4.376	0.508
130.000	142.058	80.003	19.994	103.257	20.249	4.492	0.495
130.500	142.291	80.002	19.995	103.258	20.248	4.568	0.475
131.000	142.553	80.001	19.994	103.258	20.250	4.450	0.487
131.500	142.838	80.001	19.994	103.258	20.250	4.467	0.521
132.000	143.037	80.001	19.994	103.258	20.252	4.287	0.516
132.500	143.293	80.001	19.992	103.259	20.252	4.282	0.469
133.000	143.549	80.001	19.994	103.258	20.252	4.274	0.484
133.500	143.834	80.001	19.994	103.258	20.251	4.375	0.526
134.000	144.046	80.000	19.994	103.258	20.253	4.260	0.519
134.500	144.335	80.004	19.993	103.258	20.252	4.327	0.499
135.000	144.589	80.001	19.993	103.257	20.248	4.591	0.522
135.500	144.768	80.000	19.993	103.257	20.254	4.185	0.488
136.000	145.057	80.000	19.994	103.258	20.255	4.088	0.451
136.500	145.298	80.002	19.996	103.258	20.253	4.237	0.499
137.000	145.560	80.001	19.994	103.258	20.250	4.435	0.517
137.500	145.774	80.002	19.995	103.259	20.252	4.272	0.490
138.000	146.076	80.000	19.994	103.258	20.248	4.576	0.496
138.500	146.303	80.000	19.995	103.258	20.246	4.699	0.522
139.000	146.535	80.000	19.995	103.258	20.252	4.310	0.494
139.501	146.772	80.000	19.995	103.257	20.248	4.588	0.464
140.001	147.077	80.001	19.995	103.256	20.249	4.493	0.506
140.500	147.277	80.001	19.995	103.253	20.247	4.622	0.524
141.000	147.520	80.001	19.995	103.249	20.248	4.564	0.474
141.500	147.744	80.001	19.997	103.246	20.247	4.644	0.455
142.000	148.048	80.000	19.995	103.242	20.248	4.603	0.497
142.501	148.326	80.000	19.993	103.240	20.247	4.663	0.555
143.000	148.533	80.000	19.995	103.242	20.247	4.625	0.534
143.500	148.831	80.002	19.995	103.244	20.247	4.611	0.494
144.000	149.070	80.001	19.994	103.244	20.249	4.532	0.521
144.500	149.331	80.002	19.995	103.247	20.252	4.293	0.519
145.000	149.574	80.001	19.994	103.250	20.248	4.574	0.502
145.501	149.857	80.000	19.997	103.250	20.253	4.216	0.515
146.000	150.091	80.001	19.998	103.250	20.249	4.515	0.522
146.500	150.357	80.002	19.996	103.253	20.251	4.392	0.508
147.000	150.573	80.001	19.996	103.255	20.251	4.395	0.491
147.500	150.861	80.001	19.996	103.252	20.249	4.535	0.493
148.000	151.118	80.002	19.995	103.248	20.251	4.365	0.524
148.500	151.338	80.001	19.995	103.244	20.251	4.356	0.511
149.000	151.625	80.001	19.994	103.243	20.252	4.324	0.493
149.500	151.859	80.002	19.995	103.238	20.257	3.933	0.514
150.000	152.138	80.002	19.995	103.239	20.255	4.075	0.516
150.500	152.334	80.003	19.996	103.239	20.252	4.332	0.494
151.000	152.617	80.002	19.994	103.240	20.251	4.371	0.477
151.500	152.848	80.001	19.995	103.235	20.251	4.351	0.496
152.000	153.093	80.002	19.994	103.233	20.252	4.293	0.495
152.500	153.354	80.001	19.995	103.230	20.253	4.208	0.491
153.000	153.588	80.002	19.994	103.228	20.255	4.087	0.501
153.500	153.845	80.002	19.994	103.225	20.250	4.427	0.493
154.001	154.094	80.004	19.994	103.228	20.252	4.290	0.498
154.500	154.340	80.002	19.995	103.232	20.253	4.240	0.501
155.000	154.564	80.001	19.994	103.235	20.248	4.582	0.483
155.500	154.826	80.000	19.994	103.237	20.250	4.436	0.478
156.000	155.085	80.001	19.994	103.241	20.252	4.320	0.503
156.500	155.345	80.000	19.994	103.238	20.249	4.534	0.520
157.000	155.588	80.001	19.994	103.233	20.250	4.449	0.511
157.500	155.864	80.001	19.996	103.229	20.251	4.348	0.511
158.000	156.088	80.001	19.996	103.225	20.252	4.330	0.510
158.500	156.335	80.001	19.996	103.224	20.249	4.491	0.485
159.000	156.606	80.001	19.996	103.226	20.250	4.468	0.495
159.500	156.878	80.001	19.996	103.228	20.251	4.397	0.530
160.000	157.107	80.002	19.996	103.230	20.250	4.443	0.522
160.500	157.359	80.001	19.996	103.231	20.248	4.552	0.491
161.000	157.579	80.000	19.996	103.230	20.252	4.314	0.477
161.500	157.865	80.000	19.994	103.231	20.253	4.198	0.489
162.000	158.133	80.002	19.997	103.235	20.247	4.664	0.530
162.500	158.382	80.001	19.995	103.233	20.252	4.292	0.535
163.000	158.633	79.999	19.995	103.233	20.252	4.266	0.509
163.500	158.870	80.000	19.996	103.234	20.252	4.268	0.494
164.000	159.197	79.999	19.996	103.232	20.252	4.268	0.525
164.500	159.361	80.000	19.995	103.228	20.254	4.142	0.527
165.000	159.638	80.001	19.995	103.228	20.251	4.359	0.466
165.500	159.929	79.999	19.994	103.228	20.253	4.239	0.505
166.000	160.139	80.000	19.994	103.230	20.253	4.198	0.535
166.500	160.413	80.000	19.996	103.229	20.249	4.503	0.493
167.000	160.672	80.001	19.995	103.227	20.253	4.215	0.509
167.500	160.901	80.000	19.996	103.226	20.253	4.213	0.511
168.000	161.162	80.000	19.996	103.228	20.253	4.210	0.489
168.500	161.396	80.000	19.996	103.227	20.250	4.438	0.493
169.000	161.657	80.000	19.996	103.225	20.256	4.058	0.495
169.500	161.904	80.002	19.995	103.225	20.249	4.511	0.501
170.000	162.197	80.002	19.995	103.224	20.249	4.483	0.524
170.500	162.405	80.002	19.996	103.220	20.252	4.324	0.521
171.000	162.657	80.002	19.996	103.217	20.252	4.266	0.481
171.500	162.897	80.001	19.995	103.217	20.247	4.651	0.476
172.000	163.161	80.001	19.996	103.217	20.254	4.152	0.498
172.500	163.403	80.001	19.995	103.217	20.250	4.440	0.505
173.000	163.650	80.002	19.996	103.217	20.247	4.617	0.497
173.500	163.928	80.001	19.996	103.217	20.249	4.518	0.507
174.000	164.148	80.003	19.995	103.217	20.246	4.698	0.512
174.500	164.414	80.000	19.995	103.217	20.250	4.464	0.492
175.000	164.662	80.002	19.994	103.216	20.250	4.440	0.500
175.500	164.926	80.001	19.995	103.217	20.249	4.492	0.513
176.000	165.189	80.001	19.996	103.218	20.248	4.544	0.519
176.500	165.482	80.003	19.994	103.217	20.252	4.313	0.541
177.000	165.728	80.003	19.994	103.217	20.250	4.455	0.548
177.500	165.975	80.002	19.995	103.217	20.249	4.496	0.516
178.000	166.223	80.004	19.995	103.217	20.250	4.425	0.494
178.500	166.479	80.004	19.995	103.217	20.249	4.500	0.500
179.000	166.738	80.005	19.995	103.217	20.250	4.460	0.509
179.500	166.989	80.003	19.994	103.218	20.247	4.670	0.512
180.000	167.229	80.003	19.994	103.219	20.250	4.445	0.501
180.500	167.484	80.003	19.994	103.219	20.250	4.415	0.493
181.000	167.720	80.003	19.994	103.219	20.249	4.533	0.493
181.500	168.014	80.004	19.994	103.219	20.248	4.547	0.511
182.000	168.218	80.003	19.995	103.217	20.252	4.317	0.514
182.500	168.531	80.004	19.993	103.217	20.248	4.557	0.507
183.000	168.737	80.003	19.995	103.217	20.246	4.731	0.518
183.500	168.994	80.003	19.994	103.217	20.245	4.795	0.491
184.000	169.241	80.002	19.994	103.216	20.245	4.750	0.484
184.500	169.469	80.001	19.994	103.216	20.251	4.368	0.490
185.000	169.751	80.002	19.995	103.216	20.249	4.525	0.493
185.500	169.974	80.003	19.995	103.216	20.247	4.628	0.508
186.000	170.272	80.002	19.995	103.217	20.250	4.449	0.513
186.500	170.452	80.002	19.995	103.218	20.248	4.570	0.499
187.000	170.703	80.003	19.995	103.218	20.248	4.606	0.455
187.500	170.946	80.001	19.995	103.219	20.251	4.355	0.463
188.000	171.233	80.003	19.995	103.219	20.253	4.209	0.511
188.500	171.497	80.002	19.995	103.218	20.252	4.323	0.541
189.000	171.689	80.003	19.996	103.217	20.249	4.493	0.504
189.500	171.921	80.002	19.994	103.217	20.249	4.514	0.440
190.000	172.199	80.001	19.995	103.216	20.248	4.577	0.467
190.500	172.434	80.002	19.995	103.216	20.251	4.360	0.512
191.000	172.683	80.001	19.996	103.216	20.251	4.376	0.499
191.500	172.949	80.004	19.996	103.213	20.251	4.389	0.499
192.000	173.186	80.003	19.995	103.207	20.254	4.189	0.509
192.500	173.377	80.003	19.995	103.200	20.252	4.269	0.465
193.000	173.701	80.002	19.995	103.198	20.248	4.583	0.472
193.500	173.940	80.001	19.994	103.198	20.252	4.291	0.539
194.000	174.179	80.002	19.995	103.201	20.253	4.228	0.520
194.500	174.412	80.003	19.995	103.207	20.250	4.467	0.475
195.000	174.669	80.002	19.995	103.212	20.253	4.252	0.481
195.500	174.942	80.003	19.994	103.211	20.248	4.546	0.510
196.000	175.145	80.002	19.996	103.209	20.251	4.365	0.503
196.500	175.398	80.001	19.996	103.210	20.249	4.494	0.466
197.000	175.597	80.004	19.996	103.211	20.250	4.413	0.454
197.501	175.858	80.003	19.995	103.212	20.250	4.412	0.456
198.001	176.136	80.003	19.995	103.210	20.250	4.423	0.499
198.500	176.370	80.003	19.994	103.209	20.246	4.679	0.526
199.000	176.600	80.003	19.995	103.202	20.248	4.584	0.488
199.500	176.866	80.003	19.994	103.196	20.252	4.305	0.480
200.000	177.092	80.003	19.995	103.192	20.252	4.299	0.494
200.500	177.328	80.003	19.994	103.197	20.251	4.357	0.477
201.000	177.573	80.003	19.994	103.196	20.250	4.423	0.471
201.500	177.832	80.004	19.995	103.201	20.251	4.361	0.492
202.000	178.082	80.005	19.994	103.206	20.251	4.391	0.506
202.500	178.333	80.005	19.995	103.209	20.249	4.516	0.505
203.000	178.567	80.004	19.994	103.207	20.251	4.350	0.493
203.500	178.797	80.004	19.995	103.207	20.249	4.487	0.475
204.000	179.003	80.003	19.993	103.202	20.250	4.440	0.450
204.500	179.323	80.005	19.994	103.201	20.249	4.472	0.481
205.000	179.497	80.005	19.994	103.201	20.248	4.595	0.510
205.500	179.801	80.005	19.994	103.202	20.247	4.625	0.486
206.000	180.017	80.004	19.994	103.205	20.246	4.700	0.499
206.500	180.239	80.005	19.994	103.209	20.244	4.834	0.479
207.000	180.472	80.002	19.994	103.211	20.249	4.496	0.446
207.500	180.748	80.004	19.994	103.213	20.247	4.675	0.481
208.000	180.969	80.003	19.994	103.215	20.246	4.709	0.503
208.500	181.164	80.003	19.994	103.215	20.252	4.325	0.457
209.000	181.408	80.002	19.995	103.217	20.247	4.636	0.427
209.500	181.699	80.001	19.993	103.217	20.246	4.705	0.487
210.000	181.955	80.002	19.994	103.216	20.248	4.595	0.541
210.500	182.173	80.003	19.993	103.217	20.246	4.696	0.510
211.000	182.413	80.003	19.994	103.217	20.249	4.516	0.466
211.500	182.625	80.001	19.993	103.217	20.246	4.741	0.455
212.000	182.846	80.001	19.993	103.218	20.247	4.614	0.443
212.500	183.124	80.003	19.994	103.217	20.244	4.827	0.466
213.000	183.340	80.002	19.994	103.218	20.242	4.969	0.496
213.500	183.613	80.002	19.994	103.218	20.246	4.707	0.492
214.000	183.846	80.003	19.994	103.218	20.246	4.698	0.498
214.500	184.119	80.002	19.996	103.219	20.247	4.643	0.506
215.000	184.360	80.001	19.994	103.220	20.242	5.012	0.510
215.500	184.613	80.002	19.994	103.219	20.244	4.817	0.504
216.000	184.819	80.002	19.994	103.218	20.244	4.827	0.476
216.500	185.082	80.002	19.994	103.219	20.246	4.698	0.464
217.000	185.317	80.002	19.994	103.218	20.242	4.957	0.483
217.500	185.551	80.001	19.995	103.217	20.246	4.725	0.484
218.000	185.814	80.001	19.995	103.217	20.242	4.959	0.483
218.500	186.028	80.000	19.994	103.217	20.245	4.787	0.487
219.000	186.318	80.002	19.995	103.216	20.245	4.755	0.490
219.500	186.561	80.003	19.996	103.216	20.239	5.197	0.519
220.000	186.774	80.002	19.994	103.216	20.242	4.975	0.494
220.500	187.049	80.003	19.994	103.216	20.241	5.055	0.472
221.000	187.248	80.002	19.994	103.217	20.243	4.937	0.482
221.500	187.503	80.002	19.994	103.217	20.243	4.920	0.464
222.000	187.752	80.003	19.995	103.217	20.245	4.774	0.479
222.500	188.021	80.002	19.995	103.216	20.244	4.862	0.511
223.000	188.250	80.001	19.994	103.215	20.245	4.782	0.508
223.500	188.538	80.004	19.995	103.213	20.243	4.933	0.507
224.000	188.717	80.002	19.995	103.212	20.240	5.147	0.492
224.500	188.935	80.002	19.994	103.210	20.245	4.804	0.432
225.001	189.198	80.002	19.995	103.211	20.242	4.963	0.439
225.501	189.496	80.002	19.994	103.212	20.241	5.047	0.521
226.000	189.699	80.002	19.994	103.213	20.242	5.003	0.531
226.500	189.950	80.002	19.994	103.213	20.237	5.300	0.478
227.000	190.200	80.003	19.995	103.215	20.244	4.872	0.478
227.500	190.433	80.001	19.995	103.214	20.237	5.321	0.492
228.000	190.694	80.002	19.995	103.208	20.242	5.020	0.488
228.500	190.923	80.001	19.996	103.205	20.239	5.225	0.492
229.000	191.147	80.001	19.995	103.205	20.242	4.965	0.471
229.500	191.410	80.003	19.996	103.205	20.242	4.959	0.470
230.000	191.620	80.001	19.995	103.206	20.240	5.113	0.480
230.500	191.904	80.003	19.995	103.212	20.239	5.208	0.484
231.000	192.148	80.003	19.995	103.214	20.238	5.273	0.511
231.500	192.347	80.002	19.996	103.213	20.240	5.131	0.485
232.000	192.610	80.002	19.994	103.212	20.237	5.303	0.452
232.500	192.852	80.002	19.995	103.212	20.236	5.419	0.484
233.000	193.130	80.003	19.995	103.212	20.239	5.195	0.513
233.500	193.377	80.001	19.994	103.213	20.239	5.219	0.523
234.000	193.596	80.002	19.995	103.214	20.240	5.146	0.496
234.500	193.849	80.002	19.996	103.215	20.235	5.485	0.469
235.000	194.137	80.002	19.995	103.215	20.240	5.146	0.506
235.500	194.372	80.002	19.994	103.214	20.238	5.294	0.533
236.000	194.623	80.002	19.995	103.212	20.233	5.579	0.505
236.500	194.840	80.003	19.995	103.212	20.238	5.283	0.477
237.000	195.091	80.001	19.995	103.212	20.236	5.386	0.468
237.500	195.340	80.002	19.996	103.211	20.237	5.307	0.484
238.000	195.598	80.002	19.996	103.212	20.237	5.313	0.504
238.500	195.811	80.001	19.995	103.215	20.239	5.160	0.489
239.000	196.056	80.002	19.996	103.215	20.237	5.347	0.464
239.500	196.275	80.002	19.994	103.216	20.239	5.225	0.461
240.000	196.529	80.001	19.995	103.216	20.239	5.179	0.468
240.500	196.790	80.001	19.996	103.211	20.236	5.433	0.493
241.000	197.008	80.002	19.996	103.205	20.238	5.265	0.497
241.500	197.264	80.001	19.994	103.200	20.240	5.132	0.477
242.000	197.545	80.001	19.994	103.199	20.237	5.352	0.505
242.500	197.712	80.001	19.995	103.200	20.234	5.523	0.492
243.000	198.011	80.002	19.996	103.202	20.235	5.479	0.457
243.500	198.215	80.000	19.995	103.207	20.236	5.431	0.485
244.000	198.480	80.001	19.995	103.209	20.235	5.436	0.486
244.500	198.753	80.000	19.994	103.206	20.240	5.141	0.503
245.000	199.032	80.000	19.996	103.204	20.239	5.200	0.545
245.500	199.209	79.999	19.995	103.206	20.233	5.574	0.504
246.000	199.447	80.000	19.995	103.205	20.233	5.586	0.435
246.500	199.695	80.002	19.996	103.207	20.233	5.616	0.451
247.000	199.925	80.000	19.995	103.208	20.234	5.530	0.482
247.500	200.193	80.002	19.995	103.211	20.237	5.326	0.488
248.000	200.434	80.002	19.996	103.208	20.232	5.687	0.503
248.500	200.639	80.001	19.995	103.210	20.236	5.384	0.477
249.000	200.893	80.000	19.996	103.210	20.234	5.545	0.453
249.500	201.165	80.001	19.995	103.213	20.234	5.532	0.493
250.000	201.386	80.000	19.994	103.212	20.234	5.530	0.509
250.500	201.585	80.003	19.996	103.213	20.233	5.590	0.456
251.000	201.857	80.001	19.996	103.214	20.232	5.698	0.445
251.500	202.133	80.001	19.995	103.214	20.232	5.706	0.510
252.000	202.365	80.002	19.996	103.215	20.230	5.797	0.528
252.500	202.624	80.000	19.997	103.215	20.230	5.788	0.499
253.000	202.875	80.003	19.995	103.213	20.234	5.545	0.500
253.500	203.151	80.002	19.996	103.211	20.230	5.812	0.518
254.000	203.341	80.001	19.997	103.208	20.230	5.844	0.496
254.500	203.608	80.001	19.996	103.206	20.232	5.662	0.462
255.000	203.871	80.002	19.995	103.204	20.230	5.791	0.494
255.500	204.126	80.001	19.995	103.202	20.231	5.741	0.524
256.000	204.396	80.001	19.995	103.199	20.231	5.756	0.521
256.500	204.607	80.002	19.996	103.202	20.228	5.939	0.503
257.000	204.877	80.001	19.996	103.204	20.233	5.638	0.481
257.500	205.087	80.001	19.996	103.205	20.229	5.877	0.481
258.000	205.314	80.002	19.996	103.210	20.231	5.752	0.459
258.500	205.605	80.000	19.996	103.215	20.230	5.835	0.478
259.000	205.866	80.002	19.996	103.215	20.225	6.143	0.535
259.500	206.114	80.003	19.995	103.216	20.228	5.975	0.531
260.000	206.328	80.003	19.996	103.218	20.226	6.117	0.485
260.500	206.611	80.002	19.997	103.216	20.227	5.990	0.479
261.000	206.857	80.002	19.995	103.214	20.225	6.136	0.513
261.500	207.074	80.001	19.995	103.210	20.222	6.364	0.496
262.000	207.339	80.002	19.995	103.206	20.225	6.181	0.472
262.500	207.580	80.002	19.996	103.206	20.227	6.035	0.494
263.000	207.847	80.001	19.995	103.207	20.229	5.895	0.507
263.500	208.067	80.002	19.996	103.206	20.221	6.462	0.497
264.000	208.339	80.001	19.995	103.207	20.225	6.155	0.490
264.500	208.566	80.002	19.995	103.205	20.223	6.289	0.495
265.000	208.803	80.002	19.995	103.202	20.222	6.330	0.481
265.500	209.048	80.001	19.994	103.201	20.224	6.244	0.473
266.000	209.291	80.002	19.995	103.199	20.226	6.119	0.485
266.500	209.512	80.001	19.994	103.198	20.225	6.169	0.476
267.000	209.806	80.002	19.995	103.198	20.224	6.233	0.490
267.500	210.106	80.002	19.994	103.199	20.224	6.198	0.554
268.000	210.298	80.002	19.994	103.196	20.223	6.325	0.543
268.500	210.550	80.002	19.993	103.200	20.222	6.368	0.468
269.000	210.761	80.002	19.995	103.201	20.224	6.227	0.454
269.501	211.026	80.001	19.994	103.205	20.226	6.076	0.469
270.000	211.297	80.002	19.994	103.207	20.220	6.509	0.506
270.500	211.518	80.003	19.993	103.209	20.218	6.610	0.513
271.000	211.758	80.001	19.995	103.205	20.221	6.421	0.476
271.500	212.024	80.003	19.994	103.203	20.224	6.244	0.483
272.000	212.306	80.002	19.993	103.199	20.225	6.159	0.527
272.500	212.488	80.001	19.995	103.199	20.223	6.324	0.506
273.000	212.734	80.003	19.994	103.201	20.222	6.362	0.446
273.500	213.018	80.001	19.995	103.206	20.222	6.395	0.479
274.000	213.251	80.002	19.995	103.210	20.223	6.298	0.523
274.500	213.507	80.002	19.994	103.210	20.219	6.552	0.503
275.000	213.771	80.001	19.993	103.207	20.222	6.382	0.505
275.500	214.004	80.001	19.995	103.205	20.220	6.478	0.508
276.000	214.236	80.002	19.995	103.202	20.225	6.175	0.481
276.500	214.472	80.001	19.994	103.198	20.218	6.670	0.466
277.000	214.712	80.001	19.995	103.200	20.221	6.436	0.472
277.500	214.962	80.003	19.994	103.203	20.222	6.380	0.483
278.000	215.208	80.003	19.995	103.204	20.217	6.728	0.493
278.500	215.472	80.002	19.994	103.208	20.222	6.343	0.503
279.000	215.730	80.002	19.995	103.212	20.220	6.522	0.517
279.500	216.004	80.003	19.993	103.207	20.220	6.472	0.527
280.000	216.244	80.003	19.995	103.203	20.219	6.545	0.523
280.500	216.473	80.004	19.995	103.198	20.216	6.764	0.492
281.000	216.722	80.003	19.993	103.193	20.217	6.697	0.474
281.500	216.956	80.004	19.994	103.190	20.215	6.821	0.480
282.000	217.201	80.004	19.994	103.192	20.219	6.587	0.481
282.500	217.451	80.004	19.993	103.192	20.217	6.729	0.487
283.000	217.704	80.003	19.994	103.191	20.215	6.843	0.499
283.500	217.945	80.004	19.994	103.194	20.218	6.637	0.499
284.000	218.203	80.003	19.995	103.196	20.219	6.594	0.497
284.500	218.483	80.003	19.994	103.194	20.215	6.820	0.519
285.000	218.713	80.005	19.995	103.194	20.213	6.985	0.524
285.500	218.928	80.004	19.994	103.195	20.212	7.032	0.478
286.000	219.204	80.003	19.994	103.197	20.215	6.832	0.468
286.500	219.446	80.005	19.994	103.197	20.213	6.954	0.504
287.000	219.736	80.004	19.995	103.196	20.214	6.909	0.525
287.500	219.962	80.004	19.994	103.197	20.217	6.737	0.524
288.000	220.200	80.002	19.996	103.194	20.214	6.942	0.490
288.500	220.422	80.003	19.995	103.190	20.210	7.201	0.462
289.000	220.713	80.004	19.995	103.188	20.212	7.070	0.487
289.500	220.957	80.003	19.995	103.193	20.214	6.928	0.524
290.000	221.182	80.004	19.995	103.194	20.209	7.251	0.502
290.500	221.424	80.002	19.994	103.199	20.213	7.001	0.468
291.000	221.720	80.001	19.995	103.203	20.208	7.309	0.503
291.500	221.907	80.002	19.995	103.206	20.212	7.061	0.511
292.000	222.190	80.001	19.995	103.208	20.207	7.401	0.476
292.500	222.478	80.001	19.996	103.210	20.213	6.978	0.520
293.000	222.706	80.001	19.994	103.212	20.211	7.141	0.543
293.501	222.961	80.002	19.995	103.210	20.209	7.258	0.499
294.000	223.194	80.001	19.996	103.207	20.208	7.331	0.486
294.500	223.425	80.002	19.994	103.204	20.207	7.404	0.476
295.000	223.701	80.002	19.994	103.199	20.206	7.470	0.485
295.500	223.932	80.001	19.994	103.197	20.208	7.311	0.507
296.000	224.187	80.000	19.995	103.200	20.202	7.707	0.497
296.500	224.416	80.002	19.995	103.204	20.206	7.434	0.485
297.000	224.691	80.002	19.996	103.206	20.204	7.631	0.494
297.500	224.929	80.002	19.995	103.208	20.206	7.430	0.509
298.000	225.210	80.002	19.994	103.210	20.204	7.576	0.516
298.500	225.401	80.003	19.996	103.210	20.210	7.172	0.495
299.000	225.698	80.002	19.994	103.209	20.207	7.380	0.479
299.500	225.956	80.003	19.996	103.210	20.207	7.390	0.521
300.000	226.188	80.003	19.995	103.213	20.204	7.590	0.523
300.500	226.418	80.001	19.994	103.213	20.206	7.461	0.476
301.000	226.677	80.002	19.994	103.213	20.207	7.371	0.475
301.500	226.888	80.002	19.994	103.213	20.205	7.529	0.480
302.001	227.196	80.001	19.995	103.214	20.204	7.604	0.495
302.500	227.423	80.001	19.994	103.213	20.202	7.733	0.527
303.000	227.668	80.001	19.993	103.210	20.205	7.510	0.503
303.500	227.924	80.000	19.994	103.207	20.201	7.813	0.486
304.000	228.161	80.002	19.994	103.207	20.197	8.051	0.497
304.500	228.469	80.003	19.994	103.206	20.202	7.728	0.519
305.000	228.691	80.002	19.995	103.208	20.200	7.867	0.537
305.500	228.960	80.002	19.994	103.208	20.200	7.852	0.511
306.000	229.243	80.002	19.994	103.209	20.200	7.889	0.522
306.500	229.468	80.002	19.994	103.209	20.196	8.130	0.530
307.000	229.693	80.002	19.994	103.206	20.198	8.003	0.479
307.500	229.955	80.003	19.996	103.204	20.198	8.037	0.468
308.000	230.205	80.002	19.995	103.205	20.200	7.882	0.499
308.500	230.481	80.002	19.995	103.206	20.200	7.902	0.519
309.000	230.687	80.003	19.995	103.205	20.197	8.106	0.504
309.500	230.969	80.002	19.995	103.207	20.199	7.962	0.485
310.000	231.272	80.002	19.995	103.209	20.197	8.064	0.536
310.500	231.425	80.001	19.995	103.210	20.192	8.423	0.520
311.000	231.738	80.002	19.994	103.212	20.192	8.455	0.461
311.500	231.982	80.002	19.995	103.210	20.196	8.177	0.512
312.000	232.190	80.003	19.995	103.209	20.195	8.222	0.504
312.500	232.477	80.002	19.995	103.204	20.192	8.433	0.473
313.000	232.739	80.002	19.995	103.199	20.192	8.420	0.522
313.500	233.000	80.003	19.994	103.194	20.192	8.454	0.536
314.000	233.258	80.003	19.994	103.196	20.190	8.541	0.521
314.500	233.483	80.003	19.994	103.199	20.189	8.601	0.501
315.001	233.771	80.003	19.994	103.204	20.191	8.510	0.498
315.500	233.991	80.002	19.994	103.209	20.192	8.394	0.510
316.000	234.239	80.002	19.995	103.212	20.194	8.285	0.488
316.500	234.499	80.003	19.995	103.212	20.189	8.627	0.488
317.000	234.768	80.001	19.995	103.211	20.188	8.678	0.519
317.500	234.996	80.001	19.995	103.210	20.189	8.599	0.513
318.000	235.218	80.002	19.995	103.209	20.187	8.749	0.473
318.500	235.462	80.002	19.996	103.212	20.189	8.614	0.458
319.000	235.729	80.001	19.994	103.212	20.190	8.573	0.488
319.500	235.977	80.001	19.995	103.212	20.189	8.655	0.513
320.001	236.244	80.001	19.997	103.210	20.191	8.468	0.515
320.500	236.528	80.002	19.995	103.206	20.190	8.560	0.533
321.000	236.716	80.002	19.996	103.201	20.187	8.744	0.512
321.500	236.960	80.000	19.994	103.202	20.188	8.684	0.452
322.000	237.242	80.001	19.995	103.201	20.186	8.849	0.479
322.500	237.505	80.001	19.995	103.202	20.187	8.776	0.535
323.000	237.769	80.001	19.995	103.204	20.187	8.739	0.536
323.501	238.017	80.002	19.994	103.207	20.187	8.762	0.519
324.000	238.227	80.001	19.995	103.202	20.184	8.995	0.485
324.500	238.478	80.001	19.995	103.204	20.185	8.889	0.460
325.000	238.758	80.000	19.994	103.203	20.185	8.943	0.496
325.500	238.954	80.000	19.996	103.201	20.184	8.993	0.503
326.000	239.204	80.001	19.995	103.203	20.181	9.168	0.461
326.500	239.447	80.001	19.995	103.205	20.183	9.022	0.470
327.000	239.660	80.000	19.996	103.202	20.179	9.325	0.474
327.500	239.987	80.000	19.995	103.203	20.178	9.391	0.498
328.000	240.227	80.000	19.996	103.203	20.178	9.398	0.554
328.500	240.433	80.002	19.995	103.202	20.179	9.317	0.506
329.000	240.683	80.002	19.995	103.203	20.178	9.363	0.451
329.500	240.984	80.002	19.995	103.202	20.180	9.279	0.504
330.000	241.238	80.002	19.996	103.200	20.179	9.326	0.553
330.500	241.483	80.002	19.995	103.201	20.177	9.463	0.527
331.000	241.723	80.001	19.995	103.202	20.176	9.556	0.492
331.500	241.964	80.002	19.995	103.204	20.178	9.375	0.483
332.000	242.216	80.001	19.995	103.209	20.177	9.429	0.487
332.501	242.455	80.001	19.995	103.214	20.175	9.602	0.492
333.000	242.733	80.002	19.994	103.216	20.175	9.587	0.504
333.500	243.004	80.001	19.996	103.217	20.176	9.562	0.533
334.000	243.263	80.002	19.996	103.217	20.175	9.586	0.539
334.500	243.473	80.002	19.995	103.218	20.175	9.616	0.500
335.000	243.739	80.002	19.994	103.218	20.173	9.704	0.473
335.500	244.006	80.003	19.995	103.218	20.172	9.837	0.504
336.000	244.264	80.001	19.995	103.216	20.174	9.676	0.529
336.500	244.522	80.002	19.996	103.213	20.169	9.990	0.521
337.000	244.728	80.002	19.995	103.206	20.172	9.807	0.490
337.500	245.008	80.002	19.993	103.204	20.170	9.921	0.475
338.000	245.243	80.003	19.995	103.203	20.170	9.938	0.501
338.500	245.468	80.003	19.994	103.204	20.168	10.101	0.487
339.000	245.771	80.001	19.995	103.206	20.172	9.783	0.494
339.500	245.969	80.003	19.995	103.212	20.168	10.084	0.514
340.000	246.236	80.003	19.995	103.212	20.169	9.990	0.483
340.500	246.471	80.002	19.995	103.212	20.170	9.960	0.484
341.000	246.779	80.003	19.995	103.211	20.170	9.940	0.523
341.500	246.975	80.001	19.995	103.212	20.173	9.719	0.524
342.000	247.284	80.002	19.994	103.214	20.165	10.284	0.505
342.500	247.514	80.003	19.994	103.215	20.170	9.943	0.522
343.000	247.692	80.001	19.995	103.216	20.168	10.099	0.473
343.500	248.021	80.002	19.996	103.217	20.165	10.275	0.457
344.000	248.259	80.002	19.995	103.217	20.162	10.484	0.537
344.500	248.421	80.001	19.995	103.217	20.162	10.488	0.484
345.000	248.669	80.002	19.996	103.215	20.161	10.531	0.405
345.500	248.991	80.002	19.995	103.215	20.166	10.202	0.490
346.000	249.207	80.001	19.994	103.215	20.160	10.655	0.554
346.500	249.490	80.002	19.995	103.213	20.160	10.640	0.518
347.000	249.752	80.002	19.995	103.213	20.159	10.683	0.522
347.500	250.030	80.001	19.995	103.214	20.157	10.857	0.543
348.001	250.310	80.003	19.996	103.214	20.159	10.670	0.549
348.500	250.510	80.002	19.995	103.214	20.159	10.720	0.519
349.000	250.771	80.003	19.996	103.215	20.158	10.746	0.471
349.500	251.026	80.002	19.995	103.214	20.158	10.754	0.489
350.000	251.297	80.002	19.996	103.213	20.157	10.812	0.521
350.500	251.533	80.002	19.996	103.213	20.154	11.021	0.516
351.000	251.805	80.002	19.996	103.214	20.154	11.027	0.507
351.500	252.072	80.001	19.996	103.214	20.150	11.285	0.523
352.000	252.306	80.002	19.996	103.214	20.146	11.614	0.520
352.500	252.522	80.003	19.995	103.214	20.151	11.246	0.476
353.000	252.822	79.999	19.996	103.213	20.150	11.351	0.483
353.500	253.038	80.002	19.996	103.213	20.146	11.586	0.516
354.000	253.283	80.003	19.995	103.214	20.150	11.300	0.489
354.500	253.542	80.001	19.996	103.214	20.146	11.620	0.482
355.000	253.789	80.002	19.995	103.214	20.148	11.428	0.505
355.500	254.107	80.004	19.996	103.215	20.147	11.542	0.536
356.000	254.289	80.004	19.995	103.214	20.144	11.705	0.533
356.500	254.561	80.004	19.995	103.214	20.147	11.542	0.477
357.000	254.786	80.004	19.995	103.215	20.146	11.624	0.476
357.500	255.055	80.003	19.995	103.215	20.141	11.970	0.495
358.000	255.324	80.002	19.995	103.215	20.140	12.000	0.515
358.500	255.565	80.006	19.996	103.215	20.140	11.981	0.524
359.000	255.815	80.003	19.994	103.215	20.141	11.936	0.501
359.500	256.012	80.004	19.994	103.215	20.140	12.017	0.469
360.000	256.287	80.004	19.995	103.213	20.137	12.226	0.460
360.500	256.512	80.004	19.995	103.213	20.134	12.421	0.486
361.000	256.794	80.005	19.994	103.213	20.133	12.514	0.503
361.500	257.005	80.005	19.994	103.214	20.132	12.557	0.500
362.000	257.274	80.004	19.994	103.213	20.131	12.597	0.486
362.500	257.530	80.005	19.995	103.215	20.130	12.670	0.502
363.000	257.804	80.005	19.995	103.215	20.133	12.509	0.528
363.500	257.996	80.005	19.994	103.215	20.131	12.593	0.498
364.000	258.282	80.004	19.993	103.216	20.129	12.769	0.472
364.500	258.521	80.004	19.993	103.215	20.128	12.812	0.501
365.000	258.745	80.003	19.994	103.215	20.126	12.990	0.494
365.500	259.026	80.005	19.994	103.215	20.123	13.192	0.484
366.000	259.242	80.004	19.994	103.217	20.122	13.226	0.501
366.500	259.512	80.005	19.993	103.218	20.120	13.356	0.491
367.001	259.747	80.004	19.995	103.219	20.120	13.374	0.495
367.501	259.993	80.004	19.994	103.220	20.122	13.255	0.493
368.001	260.213	80.004	19.994	103.220	20.119	13.476	0.474
368.500	260.511	80.003	19.995	103.218	20.118	13.530	0.492
369.000	260.720	80.003	19.995	103.217	20.116	13.693	0.512
369.500	261.008	80.002	19.994	103.217	20.114	13.785	0.502
370.000	261.197	80.003	19.994	103.216	20.112	13.963	0.487
370.500	261.473	80.002	19.993	103.216	20.111	14.019	0.471
371.000	261.700	80.002	19.994	103.215	20.110	14.067	0.484
371.500	261.955	80.003	19.994	103.215	20.111	13.993	0.493
372.000	262.191	80.001	19.995	103.215	20.108	14.195	0.486
372.500	262.510	80.002	19.994	103.215	20.105	14.436	0.523
373.000	262.686	80.002	19.995	103.215	20.102	14.613	0.525
373.500	262.920	80.001	19.994	103.216	20.104	14.477	0.453
374.000	263.241	80.002	19.995	103.217	20.100	14.728	0.483
374.500	263.466	80.002	19.995	103.217	20.102	14.653	0.550
375.001	263.679	80.001	19.995	103.218	20.098	14.893	0.492
375.500	263.956	80.001	19.994	103.217	20.097	14.953	0.464
376.000	264.214	80.001	19.994	103.217	20.094	15.152	0.513
376.500	264.456	80.002	19.996	103.217	20.093	15.227	0.518
377.000	264.718	80.002	19.996	103.222	20.093	15.229	0.502
377.500	264.950	80.002	19.995	103.225	20.091	15.397	0.498
378.000	265.195	80.001	19.995	103.226	20.088	15.572	0.486
378.500	265.449	80.001	19.994	103.228	20.087	15.652	0.489
379.000	265.701	80.000	19.995	103.232	20.087	15.678	0.503
379.500	265.940	80.001	19.995	103.229	20.083	15.959	0.498
380.000	266.211	80.002	19.995	103.228	20.083	15.901	0.500
380.500	266.448	79.999	19.995	103.230	20.080	16.139	0.509
381.000	266.704	80.002	19.996	103.233	20.077	16.352	0.501
381.500	266.900	80.000	19.994	103.231	20.076	16.414	0.472
382.000	267.231	80.002	19.995	103.230	20.076	16.441	0.490
382.500	267.465	80.003	19.994	103.231	20.071	16.789	0.546
383.000	267.718	80.001	19.995	103.233	20.073	16.590	0.526
383.500	267.913	80.002	19.995	103.234	20.071	16.790	0.467
384.000	268.223	80.001	19.994	103.238	20.067	17.068	0.477
384.500	268.438	80.001	19.994	103.242	20.064	17.210	0.515
385.000	268.670	80.003	19.994	103.245	20.064	17.210	0.486
385.500	268.970	80.001	19.995	103.247	20.065	17.157	0.489
386.000	269.209	80.003	19.995	103.249	20.061	17.423	0.535
386.500	269.406	80.001	19.993	103.248	20.060	17.533	0.488
387.000	269.693	80.001	19.994	103.250	20.058	17.668	0.460
387.500	269.995	80.002	19.996	103.252	20.056	17.814	0.536
388.000	270.234	80.002	19.994	103.253	20.055	17.867	0.565
388.500	270.462	80.000	19.994	103.253	20.052	18.093	0.504
389.000	270.732	80.002	19.994	103.255	20.049	18.295	0.482
389.500	271.005	80.001	19.994	103.256	20.044	18.599	0.520
390.000	271.259	80.001	19.994	103.256	20.045	18.518	0.535
390.500	271.506	80.002	19.994	103.256	20.044	18.649	0.514
391.000	271.796	80.001	19.994	103.257	20.040	18.921	0.519
391.500	272.029	80.002	19.993	103.257	20.039	18.953	0.530
392.000	272.253	80.002	19.994	103.257	20.037	19.084	0.490
392.500	272.495	80.001	19.994	103.257	20.035	19.239	0.462
393.000	272.796	80.000	19.995	103.258	20.034	19.279	0.505
393.500	273.017	80.002	19.994	103.258	20.029	19.648	0.532
394.000	273.256	80.002	19.994	103.258	20.027	19.792	0.491
394.500	273.530	80.002	19.993	103.257	20.030	19.606	0.487
395.000	273.716	80.003	19.995	103.258	20.025	19.906	0.486
395.500	273.986	80.002	19.995	103.257	20.026	19.876	0.458
396.000	274.278	80.002	19.994	103.257	20.018	20.396	0.509
396.500	274.484	80.002	19.994	103.257	20.020	20.252	0.530
397.000	274.773	80.002	19.994	103.257	20.016	20.551	0.496
397.500	275.036	80.002	19.995	103.257	20.015	20.608	0.524
398.000	275.287	80.002	19.994	103.257	20.010	20.958	0.533
398.501	275.504	80.002	19.993	103.258	20.009	21.057	0.491
399.000	275.789	80.003	19.993	103.258	20.007	21.187	0.485
399.500	276.049	80.002	19.995	103.258	20.006	21.231	0.523
400.000	276.275	80.001	19.995	103.258	20.003	21.412	0.515
400.500	276.523	80.002	19.994	103.259	20.001	21.592	0.480
401.000	276.766	80.003	19.994	103.259	19.997	21.830	0.482
401.500	277.056	80.001	19.994	103.260	19.996	21.935	0.512
402.000	277.287	80.001	19.995	103.260	19.994	22.059	0.527
402.500	277.567	80.001	19.994	103.260	19.994	22.097	0.516
403.000	277.767	79.999	19.994	103.260	19.990	22.374	0.496
403.501	278.053	80.002	19.995	103.260	19.988	22.492	0.483
404.000	278.214	80.001	19.994	103.262	19.986	22.642	0.467
404.500	278.549	80.000	19.995	103.263	19.986	22.636	0.472
405.000	278.784	80.002	19.993	103.263	19.981	22.935	0.533
405.500	279.026	80.000	19.995	103.263	19.976	23.281	0.524
406.000	279.286	80.000	19.995	103.263	19.978	23.189	0.490
406.500	279.537	80.001	19.995	103.261	19.973	23.529	0.506
407.000	279.761	80.000	19.994	103.260	19.971	23.681	0.493
407.500	279.990	80.000	19.993	103.260	19.969	23.756	0.464
408.000	280.270	80.001	19.994	103.260	19.967	23.900	0.481
408.500	280.514	80.001	19.995	103.262	19.961	24.309	0.516
409.000	280.774	80.001	19.994	103.262	19.960	24.440	0.514
409.500	281.048	80.001	19.996	103.263	19.959	24.463	0.519
410.000	281.211	80.001	19.996	103.265	19.957	24.650	0.486
410.500	281.498	80.002	19.994	103.270	19.955	24.744	0.444
411.000	281.745	80.001	19.995	103.276	19.950	25.087	0.492
411.500	281.948	80.002	19.996	103.278	19.947	25.315	0.492
412.000	282.222	80.001	19.996	103.280	19.947	25.317	0.464
412.500	282.463	80.002	19.995	103.281	19.946	25.364	0.497
413.000	282.718	80.002	19.995	103.281	19.942	25.673	0.506
413.500	282.985	80.001	19.995	103.277	19.939	25.855	0.509
414.000	283.223	80.002	19.996	103.276	19.935	26.141	0.513
414.500	283.453	80.002	19.996	103.275	19.931	26.405	0.486
415.000	283.726	80.001	19.995	103.277	19.929	26.514	0.486
415.500	284.002	80.002	19.995	103.278	19.930	26.442	0.526
416.000	284.194	80.002	19.995	103.282	19.926	26.744	0.508
416.500	284.453	80.002	19.995	103.287	19.921	27.066	0.460
417.000	284.756	80.003	19.995	103.289	19.919	27.210	0.507
417.500	284.958	80.003	19.995	103.287	19.921	27.083	0.534
418.000	285.260	80.002	19.995	103.286	19.914	27.557	0.504
418.500	285.434	80.002	19.994	103.287	19.911	27.757	0.490
419.000	285.735	80.003	19.995	103.286	19.913	27.669	0.476
419.500	285.939	80.002	19.995	103.288	19.908	28.008	0.490
420.000	286.220	80.002	19.995	103.291	19.903	28.349	0.495
420.501	286.500	80.003	19.995	103.291	19.903	28.339	0.523
421.000	286.685	80.003	19.995	103.292	19.902	28.384	0.513
421.500	286.953	80.002	19.995	103.292	19.897	28.781	0.459
422.000	287.233	80.002	19.995	103.293	19.895	28.882	0.500
422.500	287.494	80.002	19.995	103.293	19.891	29.139	0.544
423.000	287.733	80.002	19.995	103.293	19.891	29.171	0.521
423.500	288.020	80.002	19.995	103.293	19.888	29.335	0.513
424.000	288.281	80.004	19.995	103.294	19.886	29.540	0.537
424.500	288.459	80.002	19.996	103.294	19.882	29.785	0.494
425.000	288.733	80.003	19.995	103.294	19.875	30.258	0.446
425.500	288.978	80.002	19.994	103.294	19.876	30.182	0.485
426.001	289.195	80.002	19.995	103.294	19.875	30.271	0.491
426.501	289.494	80.002	19.995	103.294	19.872	30.467	0.489
427.000	289.748	80.001	19.995	103.294	19.865	30.939	0.534
427.500	290.009	80.002	19.994	103.294	19.866	30.857	0.534
428.000	290.284	80.001	19.994	103.294	19.860	31.311	0.526
428.500	290.507	80.001	19.995	103.294	19.859	31.333	0.517
429.000	290.747	80.001	19.996	103.295	19.854	31.743	0.480
429.500	291.010	80.001	19.994	103.294	19.852	31.831	0.483
430.000	291.295	80.001	19.994	103.294	19.851	31.919	0.525
430.500	291.519	80.001	19.995	103.295	19.852	31.871	0.529
431.000	291.780	80.003	19.996	103.296	19.851	31.932	0.497
431.500	292.042	80.001	19.995	103.295	19.846	32.287	0.504
432.000	292.296	80.001	19.995	103.295	19.844	32.425	0.519
432.500	292.597	80.002	19.995	103.294	19.839	32.744	0.536
433.000	292.790	80.003	19.995	103.294	19.839	32.763	0.525
433.500	293.043	80.002	19.995	103.294	19.839	32.725	0.470
434.000	293.344	80.002	19.995	103.294	19.831	33.271	0.500
434.500	293.564	80.002	19.995	103.295	19.833	33.160	0.537
435.000	293.802	80.001	19.997	103.295	19.829	33.440	0.489
435.500	294.109	80.001	19.994	103.295	19.825	33.694	0.502
436.000	294.346	80.003	19.996	103.294	19.820	34.072	0.544
436.500	294.581	80.002	19.997	103.296	19.821	34.009	0.508
437.000	294.846	80.003	19.997	103.300	19.818	34.181	0.486
437.500	295.079	80.003	19.996	103.302	19.816	34.318	0.499
438.000	295.336	80.003	19.995	103.304	19.812	34.577	0.495
438.500	295.582	80.002	19.996	103.304	19.807	34.939	0.496
439.000	295.881	80.002	19.996	103.303	19.807	34.983	0.524
439.500	296.052	80.003	19.995	103.301	19.810	34.711	0.508
440.000	296.372	80.002	19.996	103.300	19.807	34.937	0.480
440.500	296.625	80.002	19.995	103.299	19.804	35.133	0.532
441.000	296.816	80.001	19.996	103.301	19.800	35.413	0.508
441.500	297.073	80.002	19.997	103.303	19.800	35.466	0.446
442.000	297.381	80.004	19.996	103.306	19.794	35.848	0.507
442.500	297.601	80.004	19.996	103.311	19.792	35.993	0.547
443.000	297.848	80.004	19.995	103.312	19.791	36.059	0.498
443.500	298.130	80.002	19.996	103.314	19.793	35.891	0.498
444.000	298.438	80.004	19.996	103.311	19.790	36.110	0.559
444.500	298.612	80.003	19.995	103.308	19.788	36.263	0.536
445.000	298.897	80.003	19.995	103.306	19.785	36.499	0.470
445.500	299.152	80.003	19.996	103.304	19.783	36.602	0.499
446.000	299.385	80.004	19.995	103.302	19.786	36.411	0.514
446.500	299.674	80.002	19.995	103.307	19.781	36.732	0.505
447.000	299.872	80.003	19.995	103.310	19.780	36.836	0.505
447.500	300.185	80.003	19.995	103.312	19.780	36.786	0.499
448.000	300.385	80.003	19.995	103.316	19.777	37.000	0.512
448.500	300.702	80.004	19.995	103.317	19.776	37.091	0.515
449.000	300.886	80.002	19.995	103.314	19.771	37.416	0.509
449.500	301.206	80.003	19.995	103.315	19.772	37.388	0.502
450.000	301.403	80.002	19.994	103.312	19.769	37.541	0.510
450.500	301.657	80.002	19.996	103.312	19.766	37.775	0.484
451.000	301.911	80.003	19.996	103.316	19.766	37.749	0.480
451.500	302.108	80.001	19.995	103.318	19.765	37.868	0.480
452.000	302.395	80.002	19.994	103.316	19.762	38.061	0.468
452.500	302.685	80.002	19.993	103.320	19.764	37.909	0.530
453.000	302.945	80.002	19.993	103.318	19.760	38.212	0.563
453.500	303.201	80.002	19.995	103.315	19.761	38.151	0.533
454.000	303.472	80.001	19.993	103.315	19.757	38.400	0.522
454.500	303.717	80.001	19.994	103.318	19.755	38.506	0.521
455.000	303.905	80.002	19.996	103.319	19.753	38.700	0.475
455.500	304.245	80.002	19.994	103.322	19.750	38.906	0.481
456.000	304.479	80.001	19.994	103.326	19.754	38.623	0.551
456.500	304.710	80.000	19.994	103.328	19.748	39.004	0.520
457.000	304.937	80.001	19.995	103.327	19.747	39.098	0.462
457.500	305.236	80.002	19.994	103.328	19.744	39.285	0.492
458.001	305.498	80.002	19.995	103.327	19.744	39.307	0.543
458.501	305.715	80.001	19.993	103.323	19.743	39.343	0.520
459.000	306.004	80.001	19.993	103.319	19.740	39.582	0.492
459.500	306.240	80.002	19.994	103.322	19.741	39.520	0.515
460.000	306.526	80.002	19.996	103.320	19.737	39.783	0.524
460.500	306.860	80.000	19.994	103.320	19.737	39.768	0.571
461.000	307.038	80.000	19.994	103.324	19.736	39.864	0.566
461.500	307.281	80.002	19.995	103.328	19.735	39.889	0.467
462.000	307.549	80.000	19.995	103.329	19.732	40.131	0.466
462.501	307.766	80.001	19.996	103.331	19.736	39.854	0.498
463.000	308.042	80.001	19.994	103.332	19.726	40.565	0.489
463.500	308.293	80.001	19.995	103.331	19.732	40.126	0.510
464.000	308.549	80.002	19.995	103.329	19.727	40.467	0.517
464.500	308.839	80.001	19.994	103.326	19.728	40.387	0.526
465.000	309.103	80.002	19.994	103.323	19.730	40.232	0.550
465.500	309.353	80.002	19.995	103.320	19.724	40.643	0.534
466.000	309.584	80.000	19.995	103.318	19.724	40.674	0.497
466.500	309.846	80.000	19.995	103.317	19.725	40.619	0.487
467.000	310.107	80.001	19.994	103.318	19.722	40.802	0.508
467.500	310.404	80.000	19.995	103.320	19.722	40.811	0.541
468.000	310.670	80.002	19.995	103.325	19.720	40.929	0.561
468.500	310.900	80.000	19.994	103.329	19.716	41.197	0.529
469.000	311.138	80.001	19.994	103.332	19.717	41.188	0.482
469.500	311.373	80.002	19.994	103.333	19.714	41.387	0.470
470.000	311.680	80.001	19.993	103.333	19.714	41.341	0.507
470.500	311.899	80.003	19.995	103.331	19.712	41.481	0.534
471.000	312.143	80.002	19.994	103.329	19.716	41.258	0.495
471.500	312.448	80.001	19.995	103.330	19.712	41.515	0.507
472.000	312.665	80.002	19.996	103.330	19.713	41.427	0.536
472.500	312.891	80.001	19.994	103.331	19.711	41.580	0.482
473.000	313.243	80.002	19.995	103.333	19.709	41.704	0.510
473.500	313.400	80.001	19.994	103.334	19.707	41.813	0.544
474.000	313.766	80.002	19.995	103.333	19.704	42.060	0.516
474.500	313.942	80.002	19.996	103.330	19.703	42.148	0.532
475.000	314.136	80.002	19.994	103.325	19.704	42.084	0.456
475.500	314.515	80.001	19.995	103.321	19.700	42.299	0.471
476.000	314.648	80.002	19.994	103.318	19.702	42.179	0.542
476.500	315.053	80.003	19.994	103.317	19.697	42.521	0.525
477.000	315.212	80.002	19.995	103.318	19.699	42.389	0.551
477.500	315.469	80.003	19.995	103.322	19.697	42.537	0.490
478.000	315.806	80.001	19.995	103.324	19.696	42.590	0.505
478.500	315.954	80.002	19.995	103.328	19.691	42.972	0.539
479.000	316.324	80.002	19.995	103.329	19.696	42.587	0.502
479.500	316.431	80.000	19.996	103.330	19.688	43.146	0.498
480.000	316.819	80.002	19.994	103.328	19.693	42.825	0.486
480.500	317.063	80.003	19.995	103.327	19.694	42.737	0.563
481.000	317.199	80.002	19.994	103.327	19.684	43.448	0.506
481.500	317.518	80.002	19.996	103.328	19.691	42.963	0.418
482.000	317.748	80.001	19.995	103.327	19.681	43.634	0.502
482.500	317.991	80.002	19.994	103.328	19.683	43.512	0.511
483.000	318.350	80.002	19.994	103.329	19.684	43.406	0.538
483.500	318.462	80.001	19.995	103.327	19.680	43.717	0.536
484.000	318.770	80.002	19.994	103.328	19.680	43.733	0.445
484.500	319.052	80.001	19.995	103.329	19.671	44.305	0.505
485.000	319.187	80.002	19.995	103.327	19.678	43.835	0.504
485.500	319.542	80.001	19.995	103.327	19.669	44.443	0.453
486.000	319.826	80.001	19.995	103.327	19.674	44.095	0.564
486.500	320.034	80.002	19.995	103.326	19.672	44.288	0.566
487.000	320.190	80.003	19.995	103.325	19.669	44.479	0.428
487.501	320.515	80.001	19.995	103.327	19.666	44.687	0.422
488.000	320.816	80.001	19.995	103.326	19.669	44.440	0.553
488.500	321.009	80.000	19.995	103.326	19.668	44.550	0.560
489.000	321.271	80.001	19.994	103.327	19.664	44.818	0.474
489.500	321.529	80.001	19.994	103.328	19.662	44.928	0.487
490.000	321.777	80.001	19.994	103.329	19.655	45.453	0.513
490.500	321.997	80.003	19.993	103.332	19.664	44.818	0.488
491.000	322.224	80.003	19.995	103.333	19.652	45.612	0.457
491.500	322.543	80.002	19.994	103.334	19.655	45.440	0.496
492.000	322.767	80.002	19.994	103.334	19.650	45.780	0.545
492.500	322.982	80.003	19.994	103.334	19.647	46.014	0.491
493.000	323.220	80.002	19.994	103.334	19.647	46.007	0.446
493.500	323.455	80.002	19.995	103.334	19.642	46.318	0.463
494.000	323.863	80.002	19.993	103.335	19.648	45.931	0.558
494.500	323.982	80.004	19.996	103.335	19.639	46.527	0.585
495.000	324.240	80.004	19.995	103.334	19.641	46.423	0.452
495.500	324.640	80.002	19.994	103.334	19.638	46.574	0.517
496.000	324.531	80.003	19.994	103.334	19.632	46.998	0.474
496.500	325.124	80.003	19.996	103.334	19.637	46.704	0.387
497.000	325.134	80.004	19.996	103.335	19.634	46.862	0.543
497.500	325.420	80.003	19.995	103.335	19.631	47.080	0.449
498.000	325.707	80.003	19.995	103.335	19.631	47.082	0.435
498.500	325.945	80.004	19.995	103.335	19.626	47.423	0.549
499.000	326.270	80.002	19.993	103.335	19.623	47.659	0.544
499.500	326.299	80.003	19.995	103.334	19.619	47.926	0.459
500.000	326.856	80.003	19.995	103.334	19.619	47.920	0.470
500.500	326.937	80.003	19.995	103.334	19.615	48.164	0.612
501.000	327.151	80.004	19.995	103.334	19.613	48.341	0.467
501.500	327.380	80.004	19.994	103.334	19.616	48.139	0.369
502.000	327.694	80.002	19.996	103.334	19.607	48.779	0.493
502.500	327.938	80.004	19.996	103.334	19.613	48.371	0.551
503.000	328.257	80.003	19.995	103.333	19.606	48.856	0.561
503.500	328.503	80.003	19.995	103.333	19.606	48.818	0.564
504.000	328.492	80.002	19.995	103.334	19.600	49.212	0.400
504.500	329.055	80.003	19.995	103.334	19.601	49.171	0.393
505.001	329.157	80.004	19.996	103.335	19.594	49.668	0.608
505.500	329.393	80.003	19.996	103.336	19.597	49.416	0.501
506.000	329.501	80.002	19.994	103.337	19.587	50.121	0.341
506.500	329.892	80.002	19.997	103.337	19.591	49.872	0.422
507.000	330.331	80.001	19.996	103.339	19.585	50.247	0.665
507.500	330.221	80.002	19.996	103.339	19.585	50.270	0.579
508.000	330.849	80.002	19.994	103.340	19.581	50.570	0.423
508.500	330.717	80.003	19.995	103.342	19.578	50.785	0.507
509.000	331.320	80.003	19.995	103.345	19.575	50.980	0.483
509.500	331.169	80.003	19.996	103.345	19.574	51.032	0.462
510.000	331.339	80.001	19.994	103.351	19.572	51.135	0.236
510.500	331.998	80.003	19.996	103.355	19.570	51.322	0.424
511.000	331.942	80.003	19.995	103.355	19.564	51.752	0.716
511.500	332.351	80.002	19.994	103.356	19.561	51.935	0.478
512.000	332.704	80.003	19.996	103.359	19.564	51.726	0.558
512.500	332.938	80.002	19.994	103.360	19.557	52.174	0.674
513.000	333.073	80.002	19.996	103.361	19.553	52.481	0.478
513.500	333.274	80.002	19.994	103.366	19.550	52.714	0.352
514.000	333.757	80.001	19.995	103.370	19.549	52.775	0.510
514.500	333.792	80.002	19.995	103.372	19.543	53.199	0.601
515.000	334.203	80.002	19.995	103.374	19.544	53.137	0.482
515.500	334.317	80.002	19.994	103.375	19.535	53.754	0.486
516.000	334.787	80.003	19.995	103.374	19.537	53.574	0.555
516.500	334.704	80.002	19.995	103.373	19.532	53.925	0.486
517.000	335.176	80.003	19.995	103.373	19.532	53.933	0.388
517.500	335.267	80.002	19.995	103.374	19.523	54.558	0.476
518.000	335.701	80.003	19.994	103.374	19.525	54.414	0.544
518.500	335.906	80.003	19.994	103.376	19.519	54.865	0.582
519.000	335.840	80.001	19.995	103.376	19.508	55.592	0.389
519.500	336.568	80.003	19.995	103.376	19.511	55.409	0.400
520.000	336.569	80.005	19.996	103.375	19.506	55.709	0.696
520.500	336.836	80.002	19.996	103.375	19.495	56.468	0.499
521.000	336.936	80.003	19.995	103.374	19.502	56.035	0.318
521.500	337.477	80.003	19.995	103.374	19.503	55.971	0.504
522.000	337.609	80.003	19.995	103.377	19.489	56.912	0.657
522.500	337.768	80.004	19.995	103.381	19.483	57.349	0.482
523.000	338.039	80.003	19.995	103.384	19.485	57.186	0.360
523.500	338.364	80.004	19.994	103.385	19.487	57.032	0.513
524.000	338.552	80.005	19.995	103.387	19.476	57.819	0.555
524.500	338.795	80.003	19.995	103.389	19.475	57.908	0.472
525.000	339.118	80.004	19.996	103.387	19.472	58.059	0.498
525.500	339.360	80.004	19.996	103.391	19.460	58.910	0.565
526.000	339.601	80.003	19.995	103.395	19.456	59.170	0.524
526.500	339.687	80.003	19.995	103.399	19.452	59.457	0.406
527.000	340.061	80.003	19.994	103.403	19.456	59.192	0.394
527.500	340.344	80.004	19.995	103.407	19.446	59.911	0.558
528.000	340.656	80.002	19.994	103.408	19.440	60.268	0.626
528.500	340.873	80.003	19.995	103.410	19.446	59.910	0.562
529.000	341.098	80.003	19.995	103.411	19.430	61.004	0.486
529.500	341.112	80.001	19.995	103.412	19.434	60.741	0.341
530.000	341.740	80.002	19.994	103.412	19.422	61.518	0.440
530.500	341.640	80.002	19.995	103.412	19.424	61.398	0.585
531.000	342.353	80.000	19.995	103.413	19.424	61.404	0.570
531.500	342.295	80.001	19.995	103.412	19.419	61.760	0.634
532.000	342.528	80.000	19.995	103.412	19.407	62.577	0.415
532.500	343.077	80.001	19.995	103.413	19.403	62.840	0.479
533.000	342.884	80.001	19.996	103.412	19.398	63.215	0.569
533.500	343.083	79.999	19.995	103.412	19.398	63.174	0.181
534.000	343.793	80.000	19.995	103.413	19.399	63.163	0.457
534.500	343.540	80.001	19.994	103.413	19.388	63.914	0.683
535.000	343.821	79.998	19.996	103.413	19.380	64.475	0.243
535.500	344.487	80.001	19.995	103.413	19.373	64.948	0.487
536.000	344.392	80.000	19.995	103.416	19.370	65.145	0.759
536.500	344.402	80.000	19.996	103.421	19.371	65.038	0.243
537.000	344.849	79.999	19.996	103.421	19.367	65.347	0.186
537.500	345.381	80.001	19.995	103.424	19.365	65.466	0.718
538.000	345.816	80.002	19.995	103.426	19.359	65.920	0.973
538.500	346.118	80.001	19.996	103.428	19.350	66.492	0.852
539.000	346.307	80.002	19.996	103.430	19.350	66.508	0.615
539.500	346.351	80.000	19.995	103.436	19.346	66.784	0.362
540.000	346.151	80.002	19.996	103.442	19.336	67.523	0.039
540.500	346.409	80.001	19.996	103.446	19.338	67.319	-0.049
541.001	347.029	80.000	19.995	103.448	19.327	68.075	0.468
541.501	347.308	80.001	19.995	103.448	19.323	68.377	0.888
542.000	347.113	80.001	19.996	103.448	19.322	68.425	0.492
542.500	347.868	80.000	19.996	103.447	19.317	68.793	0.322
543.001	347.844	80.001	19.994	103.448	19.310	69.271	0.645
543.500	348.217	80.001	19.995	103.451	19.307	69.467	0.539
544.000	348.671	80.001	19.995	103.451	19.303	69.766	0.588
544.500	348.541	80.002	19.996	103.452	19.296	70.292	0.576
545.000	349.051	80.002	19.996	103.452	19.291	70.595	0.352
545.500	349.579	80.003	19.994	103.453	19.284	71.078	0.709
546.000	349.541	80.002	19.995	103.451	19.283	71.166	0.764
546.500	349.527	80.003	19.995	103.452	19.278	71.530	0.219
547.000	349.664	80.002	19.995	103.452	19.272	71.891	0.036
547.500	350.069	80.001	19.995	103.451	19.267	72.298	0.333
548.000	350.704	80.002	19.996	103.452	19.263	72.575	0.791
548.500	350.995	80.003	19.995	103.455	19.260	72.729	0.983
549.000	350.957	80.001	19.995	103.459	19.256	72.996	0.590
549.500	351.222	80.001	19.995	103.464	19.249	73.480	0.239
550.000	351.605	80.001	19.995	103.466	19.246	73.743	0.437
550.500	352.026	80.002	19.994	103.466	19.239	74.212	0.726
551.000	352.285	80.002	19.994	103.464	19.233	74.587	0.742
551.500	352.336	80.002	19.995	103.461	19.228	74.969	0.495
552.000	352.392	80.000	19.993	103.459	19.220	75.537	0.209
552.500	352.442	80.001	19.995	103.463	19.222	75.401	0.106
553.000	353.223	80.001	19.995	103.463	19.214	75.932	0.468
553.500	353.079	80.002	19.995	103.468	19.210	76.204	0.734
554.000	353.621	80.004	19.995	103.469	19.203	76.654	0.518
554.500	353.930	80.002	19.995	103.474	19.197	77.072	0.624
555.000	354.109	80.003	19.995	103.475	19.198	77.029	0.669
555.500	354.170	80.003	19.993	103.479	19.194	77.288	0.365
556.000	354.668	80.002	19.995	103.480	19.192	77.449	0.400
556.500	354.855	80.003	19.998	103.484	19.179	78.327	0.622
557.000	355.149	80.002	19.994	103.485	19.183	78.044	0.582
557.500	355.271	80.002	19.996	103.485	19.176	78.513	0.448
558.000	355.644	80.001	19.995	103.486	19.170	78.938	0.455
558.500	355.969	80.002	19.996	103.488	19.165	79.270	0.597
559.000	356.171	80.002	19.995	103.488	19.161	79.579	0.613
559.500	356.341	80.000	19.996	103.488	19.161	79.586	0.449
560.000	356.539	80.001	19.996	103.489	19.155	79.994	0.370
560.500	356.911	80.002	19.995	103.489	19.151	80.286	0.469
561.000	357.249	80.002	19.996	103.489	19.151	80.280	0.640
561.500	357.267	80.001	19.996	103.489	19.144	80.746	0.533
562.000	357.862	80.002	19.994	103.488	19.137	81.227	0.484
562.500	357.718	80.000	19.996	103.488	19.137	81.225	0.532
563.000	358.357	80.001	19.995	103.488	19.134	81.463	0.473
563.500	358.383	80.002	19.995	103.488	19.127	81.904	0.580
564.000	358.676	80.003	19.996	103.489	19.125	82.066	0.492
564.500	358.959	80.001	19.997	103.489	19.126	82.008	0.447
565.000	359.237	80.002	19.995	103.489	19.121	82.304	0.569
565.500	359.513	80.002	19.996	103.488	19.116	82.645	0.558
566.000	359.727	80.003	19.996	103.488	19.117	82.563	0.522
566.500	359.859	80.001	19.996	103.488	19.115	82.715	0.418
567.000	360.317	80.002	19.995	103.488	19.112	82.926	0.468
567.500	360.297	79.999	19.995	103.488	19.110	83.090	0.514
568.000	360.829	80.003	19.995	103.489	19.107	83.250	0.475
568.500	360.865	80.001	19.996	103.488	19.108	83.233	0.540
569.000	361.354	80.002	19.996	103.487	19.104	83.520	0.547
569.500	361.369	80.002	19.996	103.488	19.101	83.694	0.514
570.001	361.914	80.001	19.996	103.487	19.095	84.138	0.532
570.500	361.886	79.999	19.994	103.488	19.099	83.814	0.539
571.000	362.268	80.002	19.994	103.486	19.098	83.862	0.436
571.500	362.612	80.001	19.996	103.482	19.095	84.123	0.540
572.000	362.820	80.002	19.995	103.477	19.095	84.095	0.639
572.500	363.044	80.001	19.995	103.473	19.097	83.974	0.492
573.000	363.198	80.003	19.996	103.470	19.093	84.209	0.405
573.500	363.612	80.001	19.995	103.469	19.095	84.085	0.474
574.000	363.845	80.001	19.994	103.471	19.090	84.402	0.608
574.500	364.069	80.002	19.995	103.469	19.091	84.373	0.552
575.000	364.279	80.002	19.995	103.467	19.094	84.134	0.445
575.500	364.490	80.002	19.995	103.463	19.089	84.487	0.427
576.000	364.798	80.002	19.996	103.463	19.093	84.203	0.470
576.500	365.120	80.003	19.993	103.460	19.096	84.013	0.575
577.000	365.356	80.003	19.993	103.461	19.095	84.067	0.594
577.500	365.633	80.001	19.995	103.461	19.094	84.156	0.535
578.000	365.862	80.003	19.995	103.462	19.099	83.809	0.509
578.500	366.090	80.002	19.994	103.458	19.101	83.644	0.482
579.001	366.292	80.003	19.994	103.456	19.101	83.642	0.444
579.500	366.706	80.002	19.995	103.456	19.106	83.284	0.523
580.000	366.921	80.004	19.995	103.455	19.105	83.325	0.623
580.500	367.166	80.004	19.994	103.454	19.106	83.255	0.545
581.001	367.383	80.002	19.993	103.452	19.107	83.233	0.461
581.500	367.648	80.003	19.994	103.449	19.113	82.800	0.472
582.000	367.955	80.003	19.994	103.448	19.119	82.385	0.527
582.500	368.229	80.003	19.994	103.448	19.119	82.379	0.576
583.000	368.406	80.003	19.993	103.446	19.122	82.154	0.515
583.500	368.652	80.004	19.994	103.446	19.124	82.017	0.437
584.000	368.921	80.003	19.994	103.446	19.132	81.452	0.469
584.500	369.273	80.003	19.994	103.439	19.137	81.122	0.568
585.000	369.454	80.002	19.994	103.432	19.139	80.946	0.577
585.500	369.701	80.003	19.995	103.426	19.141	80.824	0.480
586.000	369.954	80.004	19.994	103.421	19.154	79.909	0.464
586.500	370.323	80.003	19.994	103.414	19.155	79.877	0.561
587.000	370.480	80.003	19.995	103.414	19.162	79.360	0.574
587.500	370.837	80.002	19.994	103.412	19.171	78.764	0.520
588.000	371.005	80.001	19.994	103.410	19.173	78.583	0.519
588.500	371.207	80.002	19.994	103.407	19.179	78.200	0.447
589.000	371.604	80.001	19.995	103.400	19.186	77.700	0.484
589.500	371.761	80.002	19.995	103.392	19.193	77.240	0.576
590.000	372.139	80.000	19.994	103.385	19.202	76.633	0.545
590.500	372.247	80.002	19.994	103.380	19.207	76.286	0.511
591.001	372.678	80.002	19.994	103.376	19.214	75.792	0.512
591.500	372.791	80.001	19.995	103.375	19.220	75.341	0.541
592.000	373.125	80.001	19.996	103.372	19.232	74.495	0.496
592.500	373.415	80.003	19.996	103.368	19.239	74.038	0.535
593.000	373.608	80.001	19.994	103.366	19.244	73.678	0.553
593.500	373.924	80.002	19.995	103.362	19.254	73.015	0.496
594.000	374.211	80.002	19.996	103.357	19.262	72.419	0.556
594.500	374.513	80.002	19.995	103.352	19.273	71.657	0.596
595.000	374.656	80.003	19.996	103.348	19.279	71.284	0.517
595.500	374.940	80.002	19.995	103.342	19.292	70.361	0.436
596.000	375.238	80.000	19.995	103.338	19.300	69.827	0.505
596.500	375.493	80.002	19.994	103.333	19.313	68.909	0.567
597.000	375.760	80.002	19.995	103.329	19.321	68.344	0.537
597.500	376.004	80.001	19.995	103.323	19.333	67.540	0.517
598.000	376.233	80.002	19.995	103.317	19.344	66.775	0.492
598.500	376.565	80.004	19.995	103.312	19.358	65.837	0.517
599.000	376.768	80.003	19.995	103.307	19.365	65.317	0.548
599.500	376.993	80.001	19.995	103.303	19.370	64.956	0.482
600.000	377.356	80.002	19.995	103.301	19.388	63.722	0.508
600.500	377.574	80.003	19.995	103.299	19.396	63.193	0.585
601.000	377.764	80.004	19.995	103.294	19.408	62.379	0.495
601.500	378.190	80.003	19.995	103.290	19.417	61.737	0.512
602.000	378.320	80.003	19.995	103.283	19.428	60.962	0.586
602.500	378.712	80.003	19.995	103.275	19.439	60.215	0.539
603.000	378.820	80.003	19.995	103.268	19.452	59.334	0.511
603.500	379.216	80.004	19.995	103.263	19.464	58.516	0.502
604.000	379.382	80.003	19.996	103.258	19.473	57.853	0.533
604.500	379.721	80.005	19.996	103.256	19.485	57.037	0.533
605.000	379.867	80.003	19.995	103.252	19.498	56.144	0.495
605.500	380.237	80.004	19.994	103.248	19.514	55.059	0.500
606.000	380.364	80.004	19.995	103.245	19.529	54.047	0.506
606.500	380.752	80.005	19.995	103.239	19.539	53.335	0.506
607.000	380.857	80.005	19.995	103.233	19.550	52.558	0.504
607.500	381.289	80.003	19.995	103.228	19.561	51.806	0.515
608.000	381.402	80.003	19.994	103.223	19.575	50.825	0.541
608.500	381.720	80.002	19.995	103.218	19.589	49.853	0.489
609.001	381.972	80.004	19.994	103.215	19.597	49.356	0.501
609.500	382.197	80.004	19.995	103.213	19.613	48.258	0.523
610.000	382.478	80.003	19.994	103.212	19.625	47.439	0.491
610.500	382.759	80.006	19.995	103.209	19.642	46.261	0.534
611.000	383.036	80.003	19.995	103.203	19.654	45.401	0.560
611.500	383.159	80.002	19.995	103.195	19.662	44.840	0.479
612.000	383.576	80.002	19.996	103.189	19.676	43.889	0.470
612.500	383.718	80.002	19.997	103.184	19.692	42.783	0.549
613.000	384.073	80.002	19.995	103.180	19.705	41.897	0.528
613.500	384.234	80.002	19.995	103.178	19.718	41.040	0.507
614.000	384.519	80.001	19.995	103.178	19.730	40.160	0.481
614.500	384.823	80.002	19.994	103.177	19.742	39.378	0.517
615.000	385.010	80.002	19.996	103.174	19.754	38.552	0.540
615.500	385.242	80.002	19.994	103.173	19.763	37.931	0.455
616.000	385.542	80.002	19.997	103.172	19.776	37.011	0.475
616.500	385.814	80.002	19.997	103.172	19.787	36.299	0.552
617.000	386.053	80.001	19.995	103.171	19.800	35.345	0.541
617.500	386.350	80.001	19.995	103.168	19.812	34.536	0.524
618.000	386.555	80.002	19.997	103.164	19.823	33.765	0.520
618.500	386.781	80.002	19.997	103.159	19.834	33.002	0.467
619.000	387.083	80.001	19.995	103.152	19.842	32.484	0.479
619.500	387.358	80.002	19.996	103.146	19.856	31.497	0.552
620.000	387.629	80.000	19.996	103.145	19.864	30.963	0.561
620.500	387.864	80.001	19.996	103.145	19.876	30.180	0.526
621.000	388.062	80.001	19.995	103.144	19.888	29.345	0.470
621.500	388.313	80.001	19.997	103.144	19.893	28.975	0.441
622.001	388.660	80.000	19.997	103.144	19.906	28.105	0.524
622.500	388.887	80.001	19.995	103.143	19.914	27.529	0.586
623.000	389.155	80.000	19.996	103.140	19.925	26.796	0.534
623.500	389.394	80.001	19.997	103.138	19.938	25.916	0.501
624.000	389.625	80.000	19.996	103.138	19.945	25.422	0.489
624.500	389.930	80.001	19.996	103.137	19.951	24.998	0.503
625.000	390.116	80.001	19.995	103.137	19.958	24.506	0.513
625.500	390.399	80.000	19.995	103.136	19.967	23.874	0.480
626.000	390.684	80.000	19.997	103.137	19.973	23.498	0.519
626.500	390.936	80.002	19.996	103.137	19.981	22.909	0.552
627.000	391.165	80.001	19.996	103.136	19.987	22.499	0.509
627.500	391.464	80.001	19.996	103.136	19.998	21.774	0.505
628.000	391.705	80.001	19.996	103.136	20.001	21.546	0.534
628.500	391.936	80.002	19.996	103.135	20.007	21.171	0.506
629.000	392.181	80.002	19.995	103.134	20.015	20.581	0.474
629.500	392.510	80.001	19.995	103.133	20.022	20.100	0.525
630.000	392.693	80.002	19.996	103.132	20.024	19.953	0.543
630.500	392.983	80.002	19.996	103.133	20.034	19.309	0.492
631.001	393.289	80.001	19.996	103.134	20.039	18.960	0.534
631.500	393.500	80.000	19.995	103.135	20.045	18.501	0.557
632.000	393.761	80.001	19.995	103.136	20.049	18.227	0.494
632.500	393.984	80.002	19.995	103.137	20.052	18.033	0.478
633.000	394.288	80.002	19.994	103.137	20.056	17.772	0.506
633.500	394.573	80.002	19.995	103.136	20.062	17.357	0.558
634.000	394.768	80.002	19.996	103.135	20.071	16.743	0.534
634.500	395.072	80.001	19.995	103.135	20.073	16.582	0.490
635.000	395.314	80.002	19.996	103.134	20.074	16.528	0.523
635.500	395.530	80.002	19.994	103.135	20.079	16.195	0.502
636.000	395.829	80.001	19.994	103.134	20.083	15.948	0.486
636.500	396.087	80.003	19.995	103.131	20.083	15.905	0.536
637.000	396.345	80.002	19.995	103.126	20.090	15.408	0.537
637.500	396.613	80.001	19.995	103.124	20.088	15.561	0.520
638.000	396.866	80.003	19.995	103.121	20.095	15.065	0.523
638.500	397.117	80.002	19.994	103.120	20.098	14.867	0.513
639.000	397.328	80.002	19.994	103.120	20.101	14.645	0.483
639.500	397.584	80.001	19.993	103.123	20.104	14.503	0.464
640.000	397.830	80.002	19.995	103.126	20.106	14.311	0.484
640.500	398.047	80.001	19.996	103.127	20.107	14.231	0.482
641.000	398.325	80.000	19.994	103.127	20.108	14.205	0.479
641.500	398.590	80.001	19.994	103.125	20.110	14.041	0.519
642.000	398.853	80.001	19.994	103.126	20.113	13.864	0.536
642.500	399.088	80.001	19.995	103.123	20.111	13.991	0.513
643.000	399.358	80.001	19.996	103.124	20.116	13.626	0.502
643.500	399.600	80.001	19.994	103.128	20.114	13.763	0.509
644.000	399.869	80.001	19.995	103.131	20.117	13.554	0.511
644.500	400.142	80.000	19.994	103.133	20.119	13.423	0.526
645.000	400.395	80.000	19.995	103.136	20.122	13.202	0.534
645.500	400.670	80.000	19.994	103.138	20.120	13.389	0.528
646.000	400.872	80.000	19.996	103.136	20.124	13.106	0.503
646.500	401.147	80.000	19.994	103.136	20.129	12.739	0.476
647.000	401.403	80.001	19.996	103.137	20.127	12.922	0.504
647.500	401.589	80.000	19.995	103.137	20.130	12.707	0.487
648.000	401.884	80.000	19.996	103.133	20.129	12.734	0.462
648.500	402.159	79.999	19.995	103.134	20.130	12.677	0.525
649.000	402.416	80.000	19.995	103.131	20.132	12.565	0.551
649.500	402.650	80.000	19.994	103.128	20.132	12.518	0.512
650.000	402.923	80.001	19.995	103.122	20.132	12.525	0.499
650.500	403.158	80.000	19.994	103.119	20.137	12.215	0.507
651.000	403.433	80.001	19.995	103.113	20.138	12.143	0.510
651.500	403.670	80.000	19.995	103.115	20.138	12.107	0.511
652.000	403.841	80.000	19.995	103.117	20.139	12.057	0.460
652.500	404.175	80.000	19.996	103.120	20.138	12.100	0.456
653.000	404.443	80.000	19.995	103.127	20.139	12.046	0.553
653.500	404.647	80.001	19.995	103.135	20.138	12.157	0.537
654.000	404.912	80.001	19.993	103.135	20.141	11.959	0.470
654.500	405.178	80.001	19.996	103.136	20.137	12.181	0.500
655.000	405.430	80.000	19.994	103.138	20.139	12.050	0.525
655.500	405.694	80.001	19.995	103.138	20.141	11.932	0.517
656.000	405.957	80.002	19.995	103.135	20.140	11.990	0.522
656.500	406.163	80.001	19.994	103.134	20.140	11.988	0.498
657.000	406.425	80.001	19.995	103.130	20.140	11.972	0.468
657.500	406.659	80.002	19.995	103.129	20.146	11.605	0.482
658.000	406.917	80.002	19.993	103.126	20.144	11.719	0.494
658.500	407.206	80.002	19.994	103.128	20.143	11.788	0.520
659.000	407.420	80.003	19.994	103.132	20.142	11.882	0.525
659.500	407.691	80.003	19.995	103.137	20.144	11.712	0.494
660.000	407.926	80.001	19.994	103.137	20.143	11.762	0.495
660.500	408.229	80.002	19.996	103.138	20.140	11.962	0.522
661.000	408.494	80.002	19.993	103.135	20.144	11.717	0.553
661.500	408.740	80.002	19.994	103.132	20.147	11.549	0.540
662.000	408.991	80.002	19.993	103.130	20.146	11.592	0.504
662.500	409.244	80.002	19.993	103.128	20.143	11.821	0.500
663.000	409.442	80.003	19.993	103.129	20.145	11.618	0.477
663.501	409.759	80.001	19.994	103.130	20.147	11.500	0.483
664.001	409.957	80.003	19.994	103.131	20.149	11.384	0.515
664.500	410.215	80.003	19.994	103.134	20.144	11.754	0.485
665.000	410.522	80.003	19.995	103.134	20.147	11.538	0.510
665.500	410.746	80.002	19.995	103.134	20.151	11.254	0.548
666.000	410.980	80.003	19.995	103.134	20.152	11.183	0.494
666.500	411.283	80.003	19.995	103.132	20.149	11.409	0.498
667.000	411.533	80.003	19.994	103.133	20.148	11.419	0.545
667.500	411.709	80.002	19.994	103.134	20.150	11.323	0.490
668.000	411.991	80.002	19.995	103.136	20.151	11.217	0.442
668.500	412.247	80.002	19.994	103.135	20.152	11.143	0.498
669.000	412.465	80.001	19.995	103.136	20.151	11.216	0.506
669.500	412.776	80.002	19.994	103.134	20.150	11.311	0.501
670.000	412.960	80.003	19.995	103.133	20.153	11.089	0.512
670.500	413.276	80.003	19.995	103.133	20.153	11.098	0.497
671.000	413.457	80.002	19.995	103.134	20.151	11.240	0.498
671.500	413.769	80.002	19.995	103.132	20.152	11.178	0.495
672.000	413.954	80.002	19.994	103.131	20.151	11.234	0.495
672.500	414.246	80.001	19.993	103.130	20.152	11.171	0.487
673.000	414.449	80.002	19.994	103.129	20.149	11.380	0.486
673.501	414.746	80.002	19.994	103.128	20.152	11.157	0.497
674.000	414.980	80.002	19.995	103.131	20.151	11.208	0.515
674.500	415.225	80.002	19.994	103.133	20.154	11.058	0.505
675.000	415.516	80.003	19.994	103.131	20.155	10.966	0.507
675.500	415.668	80.002	19.994	103.130	20.155	10.977	0.489
676.000	415.985	80.002	19.995	103.132	20.159	10.679	0.456
676.500	416.234	80.003	19.996	103.132	20.157	10.813	0.518
677.000	416.479	80.003	19.996	103.132	20.156	10.898	0.531
677.500	416.782	80.002	19.995	103.135	20.159	10.701	0.521
678.000	416.995	80.003	19.995	103.136	20.156	10.890	0.532
678.500	417.245	80.002	19.994	103.136	20.155	10.963	0.490
679.000	417.499	80.002	19.994	103.135	20.157	10.851	0.484
679.500	417.767	80.001	19.994	103.133	20.156	10.927	0.512
680.000	418.028	80.001	19.995	103.133	20.157	10.805	0.525
680.500	418.259	80.002	19.994	103.130	20.156	10.912	0.511
681.000	418.530	80.001	19.995	103.129	20.153	11.120	0.497
681.500	418.765	80.002	19.995	103.129	20.157	10.808	0.504
682.000	419.050	80.003	19.995	103.125	20.157	10.795	0.513
682.500	419.284	80.004	19.995	103.122	20.162	10.466	0.520
683.000	419.523	80.003	19.996	103.126	20.161	10.548	0.496
683.500	419.777	80.003	19.995	103.128	20.160	10.606	0.483
684.000	420.057	80.003	19.995	103.129	20.159	10.709	0.513
684.500	420.282	80.003	19.995	103.135	20.157	10.851	0.520
685.000	420.532	80.003	19.995	103.139	20.157	10.802	0.490
685.500	420.782	80.004	19.995	103.137	20.158	10.755	0.487
686.000	421.044	80.003	19.994	103.135	20.158	10.766	0.506
686.500	421.293	80.004	19.995	103.132	20.157	10.801	0.512
687.000	421.553	80.003	19.994	103.128	20.161	10.562	0.510
687.500	421.815	80.003	19.995	103.123	20.159	10.678	0.515
688.000	422.051	80.003	19.994	103.124	20.161	10.523	0.510
688.500	422.301	80.003	19.994	103.123	20.163	10.413	0.492
689.000	422.537	80.003	19.994	103.120	20.162	10.491	0.486
689.500	422.833	80.003	19.995	103.121	20.160	10.611	0.509
690.000	423.096	80.003	19.995	103.124	20.166	10.198	0.546
690.500	423.345	80.003	19.994	103.120	20.163	10.385	0.536
691.000	423.563	80.003	19.996	103.119	20.166	10.228	0.490
691.500	423.823	80.002	19.995	103.123	20.163	10.444	0.472
692.000	424.078	80.002	19.995	103.124	20.166	10.197	0.496
692.500	424.306	80.002	19.995	103.121	20.161	10.542	0.499
693.000	424.606	80.002	19.997	103.124	20.163	10.406	0.505
693.500	424.807	80.003	19.995	103.126	20.163	10.393	0.515
694.000	425.082	80.003	19.995	103.126	20.167	10.146	0.488
694.500	425.308	80.002	19.996	103.123	20.165	10.274	0.488
695.000	425.556	80.001	19.994	103.124	20.163	10.390	0.488
695.500	425.832	80.001	19.997	103.123	20.161	10.541	0.499
696.000	426.074	80.001	19.994	103.118	20.165	10.302	0.521
696.500	426.346	80.001	19.995	103.116	20.169	10.025	0.516
697.000	426.607	80.001	19.995	103.117	20.167	10.143	0.523
697.500	426.819	80.001	19.995	103.113	20.166	10.234	0.503
698.000	427.083	80.000	19.994	103.110	20.163	10.417	0.475
698.500	427.332	80.000	19.996	103.115	20.169	10.012	0.495
699.000	427.592	80.001	19.995	103.115	20.164	10.325	0.511
699.500	427.845	80.000	19.995	103.115	20.166	10.209	0.511
700.000	428.083	80.000	19.995	103.118	20.167	10.105	0.502
700.500	428.322	80.000	19.996	103.122	20.164	10.368	0.484
701.000	428.638	80.001	19.995	103.120	20.164	10.313	0.516
701.500	428.825	80.000	19.995	103.121	20.167	10.121	0.529
702.000	429.105	80.001	19.995	103.124	20.167	10.121	0.485
702.500	429.376	80.001	19.995	103.127	20.166	10.178	0.509
703.000	429.631	80.001	19.996	103.125	20.165	10.290	0.539
703.500	429.870	80.001	19.996	103.124	20.168	10.037	0.511
704.000	430.088	80.001	19.996	103.125	20.172	9.826	0.475
704.500	430.333	80.000	19.996	103.124	20.165	10.266	0.460
705.000	430.628	80.001	19.994	103.124	20.169	9.973	0.502
705.500	430.860	80.001	19.995	103.130	20.168	10.052	0.533
706.000	431.088	80.002	19.995	103.134	20.169	10.007	0.493
706.500	431.331	80.000	19.997	103.133	20.168	10.084	0.466
707.000	431.605	79.999	19.995	103.132	20.167	10.128	0.494
707.500	431.849	80.001	19.997	103.132	20.168	10.096	0.517
708.000	432.089	80.000	19.995	103.131	20.166	10.178	0.501
708.500	432.366	80.001	19.996	103.127	20.171	9.882	0.501
709.000	432.584	80.000	19.995	103.126	20.168	10.069	0.506
709.500	432.837	80.001	19.996	103.124	20.168	10.078	0.483
710.000	433.120	80.000	19.996	103.119	20.168	10.081	0.503
710.500	433.361	80.000	19.996	103.117	20.171	9.857	0.530
711.000	433.647	80.001	19.996	103.119	20.172	9.784	0.525
711.500	433.859	80.001	19.996	103.122	20.169	9.991	0.513
712.000	434.114	80.001	19.997	103.127	20.167	10.107	0.482
712.500	434.403	80.000	19.996	103.130	20.176	9.517	0.506
713.000	434.606	80.000	19.996	103.130	20.173	9.741	0.518
713.501	434.926	80.000	19.996	103.130	20.170	9.910	0.508
714.000	435.138	80.000	19.997	103.125	20.169	10.009	0.528
714.500	435.388	80.000	19.997	103.119	20.172	9.811	0.497
715.000	435.646	80.000	19.995	103.114	20.169	9.996	0.485
715.500	435.873	80.000	19.995	103.109	20.171	9.841	0.497
716.000	436.133	80.000	19.996	103.109	20.170	9.967	0.486
716.500	436.373	79.999	19.995	103.113	20.172	9.794	0.493
717.000	436.663	80.000	19.995	103.116	20.175	9.611	0.515
717.500	436.906	80.000	19.996	103.123	20.176	9.553	0.532
718.000	437.144	80.000	19.996	103.128	20.173	9.735	0.507
718.500	437.391	80.000	19.997	103.125	20.174	9.678	0.483
719.000	437.647	80.000	19.997	103.122	20.177	9.462	0.494
719.500	437.880	80.000	19.995	103.120	20.179	9.297	0.496
720.000	438.122	79.999	19.996	103.119	20.172	9.785	0.482
720.500	438.412	80.001	19.996	103.120	20.172	9.811	0.503
721.000	438.641	80.000	19.996	103.126	20.176	9.553	0.525
721.500	438.887	80.000	19.995	103.131	20.176	9.525	0.497
722.000	439.145	79.999	19.995	103.130	20.175	9.622	0.490
722.500	439.411	80.000	19.995	103.127	20.177	9.474	0.514
723.000	439.657	79.999	19.995	103.122	20.175	9.580	0.518
723.501	439.926	79.999	19.994	103.117	20.173	9.756	0.513
724.000	440.160	80.001	19.996	103.114	20.179	9.296	0.509
724.500	440.431	80.000	19.996	103.113	20.177	9.457	0.504
725.000	440.657	80.001	19.995	103.115	20.178	9.366	0.501
725.500	440.909	79.999	19.995	103.119	20.178	9.402	0.487
726.000	441.174	80.000	19.995	103.123	20.176	9.545	0.497
726.500	441.446	80.000	19.996	103.123	20.177	9.434	0.527
727.000	441.694	79.999	19.995	103.125	20.180	9.257	0.529
727.500	441.922	80.001	19.994	103.121	20.178	9.366	0.498
728.000	442.192	80.000	19.994	103.119	20.177	9.435	0.487
728.500	442.438	80.000	19.994	103.119	20.175	9.585	0.507
729.000	442.684	80.000	19.994	103.120	20.176	9.506	0.504
729.500	442.901	79.999	19.994	103.118	20.178	9.389	0.478
730.000	443.167	80.001	19.996	103.120	20.179	9.344	0.474
730.500	443.430	80.001	19.995	103.123	20.184	8.971	0.506
731.000	443.683	80.001	19.994	103.123	20.179	9.341	0.522
731.500	443.959	80.001	19.996	103.120	20.178	9.402	0.522
732.000	444.207	80.000	19.994	103.122	20.180	9.271	0.526
732.500	444.455	80.000	19.995	103.121	20.175	9.587	0.509
733.000	444.729	80.000	19.994	103.116	20.175	9.557	0.509
733.500	445.004	80.000	19.995	103.111	20.177	9.465	0.536
734.000	445.210	80.001	19.994	103.107	20.176	9.527	0.515
734.500	445.437	80.001	19.994	103.107	20.177	9.446	0.457
735.000	445.706	80.001	19.994	103.106	20.181	9.143	0.464
735.500	445.985	80.000	19.994	103.111	20.180	9.272	0.522
736.000	446.231	80.000	19.995	103.114	20.179	9.298	0.536
736.500	446.505	80.002	19.996	103.118	20.177	9.423	0.523
737.000	446.736	80.001	19.995	103.117	20.179	9.305	0.513
737.500	447.002	80.001	19.996	103.119	20.176	9.509	0.501
738.000	447.222	80.000	19.996	103.115	20.175	9.598	0.492
738.500	447.489	80.001	19.995	103.117	20.183	9.032	0.487
739.000	447.737	80.001	19.995	103.115	20.177	9.445	0.501
739.501	447.991	80.001	19.995	103.117	20.179	9.289	0.508
740.000	448.267	80.001	19.996	103.117	20.183	9.055	0.516
740.500	448.535	80.003	19.995	103.120	20.181	9.179	0.537
741.000	448.745	80.002	19.994	103.123	20.185	8.932	0.511
741.500	449.046	80.002	19.994	103.126	20.186	8.801	0.495
742.000	449.268	80.003	19.995	103.124	20.188	8.699	0.517
742.500	449.539	80.002	19.994	103.125	20.189	8.644	0.508
743.000	449.765	80.002	19.994	103.121	20.182	9.126	0.495
743.500	450.044	80.003	19.993	103.119	20.182	9.081	0.501
744.000	450.271	80.002	19.995	103.119	20.182	9.133	0.505
744.501	450.567	80.003	19.995	103.120	20.185	8.875	0.515
745.000	450.810	80.003	19.995	103.118	20.180	9.220	0.531
745.500	451.056	80.002	19.995	103.117	20.184	8.971	0.514
746.000	451.344	80.002	19.995	103.113	20.185	8.883	0.512
746.500	451.547	80.003	19.996	103.110	20.187	8.764	0.513
747.000	451.780	80.002	19.994	103.107	20.181	9.195	0.463
747.500	452.064	80.003	19.995	103.105	20.184	8.947	0.476
748.000	452.330	80.002	19.993	103.105	20.183	9.019	0.533
748.500	452.543	80.002	19.994	103.106	20.183	9.025	0.515
749.000	452.830	80.003	19.995	103.103	20.183	9.025	0.490
749.500	453.098	80.004	19.995	103.106	20.182	9.122	0.527
750.000	453.334	80.002	19.996	103.106	20.183	9.027	0.529
750.500	453.593	80.003	19.995	103.110	20.182	9.085	0.500
751.000	453.835	80.001	19.995	103.108	20.184	8.989	0.499
751.500	454.087	80.001	19.995	103.113	20.186	8.827	0.498
752.000	454.324	80.002	19.996	103.112	20.179	9.309	0.491
752.500	454.586	80.001	19.994	103.114	20.182	9.122	0.494
753.000	454.846	80.001	19.995	103.114	20.184	9.000	0.510
753.500	455.139	80.001	19.995	103.113	20.185	8.901	0.537
754.000	455.410	80.000	19.996	103.108	20.184	8.980	0.558
754.500	455.626	80.001	19.996	103.105	20.181	9.141	0.526
755.000	455.878	80.001	19.995	103.105	20.183	9.004	0.478
755.500	456.151	80.001	19.995	103.105	20.184	8.999	0.496
756.000	456.410	80.000	19.995	103.110	20.184	8.976	0.529
756.500	456.635	80.001	19.997	103.112	20.183	9.028	0.508
757.000	456.922	80.000	19.995	103.113	20.186	8.834	0.498
757.500	457.157	80.001	19.996	103.111	20.185	8.909	0.517
758.000	457.381	80.002	19.996	103.109	20.191	8.470	0.491
758.500	457.629	80.002	19.996	103.107	20.188	8.728	0.465
759.000	457.886	80.000	19.995	103.106	20.187	8.795	0.488
759.500	458.158	80.001	19.994	103.107	20.188	8.689	0.517
760.000	458.372	80.001	19.994	103.107	20.190	8.539	0.508
760.500	458.625	80.002	19.995	103.108	20.189	8.625	0.477
761.001	458.916	80.002	19.995	103.107	20.185	8.877	0.506
761.500	459.191	80.003	19.994	103.107	20.191	8.505	0.555
762.000	459.393	80.003	19.995	103.105	20.187	8.737	0.521
762.500	459.664	80.003	19.995	103.105	20.189	8.657	0.475
763.000	459.877	80.001	19.995	103.104	20.188	8.694	0.478
763.500	460.185	80.003	19.993	103.102	20.193	8.365	0.503
764.000	460.416	80.001	19.995	103.102	20.191	8.468	0.530
764.500	460.646	80.003	19.994	103.102	20.191	8.471	0.500
765.000	460.953	80.003	19.994	103.102	20.195	8.212	0.499
765.500	461.162	80.002	19.993	103.104	20.194	8.252	0.526
766.000	461.428	80.003	19.994	103.103	20.194	8.293	0.496
766.500	461.640	80.001	19.993	103.104	20.192	8.414	0.477
767.000	461.922	80.004	19.994	103.103	20.193	8.381	0.486
767.500	462.185	80.004	19.994	103.104	20.192	8.439	0.520
768.000	462.432	80.004	19.995	103.103	20.192	8.389	0.528
768.500	462.665	80.003	19.995	103.107	20.192	8.408	0.495
769.000	462.918	80.002	19.994	103.110	20.190	8.568	0.483
769.500	463.174	80.004	19.994	103.112	20.197	8.076	0.497
770.000	463.423	80.002	19.994	103.111	20.194	8.274	0.507
770.500	463.674	80.004	19.994	103.111	20.193	8.321	0.503
771.000	463.903	80.004	19.994	103.107	20.195	8.233	0.490
771.500	464.159	80.004	19.994	103.103	20.195	8.219	0.482
772.000	464.440	80.003	19.995	103.101	20.195	8.217	0.511
772.500	464.652	80.003	19.994	103.105	20.193	8.380	0.515
773.000	464.919	80.001	19.995	103.106	20.195	8.228	0.485
773.500	465.158	80.000	19.995	103.107	20.194	8.299	0.492
774.000	465.419	80.003	19.994	103.107	20.192	8.418	0.503
774.500	465.681	80.002	19.994	103.107	20.193	8.367	0.511
775.000	465.932	80.001	19.994	103.103	20.194	8.280	0.518
775.500	466.141	80.001	19.995	103.102	20.192	8.420	0.487
776.000	466.409	80.001	19.995	103.106	20.196	8.128	0.469
776.500	466.663	80.001	19.995	103.110	20.192	8.388	0.499
777.000	466.970	80.001	19.996	103.111	20.196	8.127	0.542
777.500	467.172	80.001	19.996	103.114	20.195	8.184	0.535
778.000	467.456	80.001	19.996	103.115	20.195	8.237	0.497
778.500	467.686	79.998	19.995	103.117	20.194	8.272	0.500
779.000	467.995	80.001	19.996	103.120	20.189	8.595	0.527
779.500	468.198	80.001	19.995	103.121	20.190	8.522	0.526
780.000	468.468	80.001	19.996	103.120	20.193	8.339	0.492
780.500	468.699	80.001	19.996	103.118	20.191	8.500	0.487
781.000	468.950	79.999	19.996	103.115	20.196	8.169	0.492
781.500	469.228	80.000	19.995	103.113	20.195	8.197	0.505
782.000	469.456	80.000	19.995	103.113	20.194	8.306	0.517
782.500	469.692	80.001	19.995	103.119	20.194	8.310	0.485
783.000	469.981	79.999	19.995	103.125	20.195	8.231	0.495
783.500	470.215	79.999	19.996	103.123	20.197	8.065	0.525
784.000	470.457	80.000	19.994	103.120	20.199	7.925	0.500
784.500	470.762	80.000	19.995	103.119	20.198	8.031	0.512
785.000	470.961	80.000	19.994	103.114	20.197	8.095	0.526
785.500	471.242	80.000	19.995	103.110	20.198	7.992	0.492
786.000	471.464	80.001	19.995	103.113	20.195	8.186	0.492
786.500	471.764	80.000	19.996	103.115	20.197	8.051	0.513
787.000	472.020	80.000	19.995	103.113	20.198	7.989	0.539
787.500	472.208	80.000	19.993	103.115	20.194	8.272	0.500
788.000	472.501	80.001	19.994	103.115	20.198	7.973	0.463
788.500	472.803	80.001	19.994	103.112	20.200	7.849	0.538
789.000	473.048	80.001	19.994	103.110	20.201	7.773	0.571
789.500	473.302	80.000	19.994	103.110	20.203	7.633	0.523
790.001	473.581	80.000	19.994	103.108	20.203	7.670	0.516
790.500	473.781	80.001	19.995	103.108	20.201	7.769	0.506
791.000	474.100	80.002	19.994	103.108	20.197	8.081	0.499
791.500	474.345	80.002	19.995	103.109	20.200	7.877	0.541
792.000	474.611	80.003	19.995	103.109	20.199	7.933	0.537
792.500	474.861	80.002	19.994	103.111	20.202	7.728	0.514
793.000	475.105	80.001	19.995	103.114	20.202	7.711	0.506
793.500	475.296	80.002	19.995	103.116	20.204	7.618	0.464
794.000	475.614	80.002	19.994	103.116	20.202	7.739	0.471
794.500	475.862	80.001	19.995	103.117	20.200	7.842	0.537
795.000	476.110	80.002	19.995	103.117	20.201	7.808	0.532
795.500	476.378	80.001	19.994	103.113	20.199	7.913	0.506
796.000	476.663	80.002	19.997	103.111	20.202	7.717	0.534
796.500	476.888	80.003	19.997	103.109	20.201	7.806	0.531
797.000	477.165	80.002	19.997	103.106	20.201	7.810	0.506
797.501	477.442	80.003	19.995	103.102	20.201	7.810	0.528
798.000	477.725	80.001	19.995	103.100	20.202	7.717	0.557
798.500	477.929	80.002	19.996	103.104	20.200	7.890	0.524
799.000	478.192	80.001	19.995	103.106	20.200	7.898	0.477
799.500	478.473	80.001	19.995	103.106	20.203	7.644	0.505
800.000	478.744	80.001	19.996	103.110	20.204	7.608	0.548
800.500	478.989	80.002	19.994	103.110	20.202	7.763	0.534
801.000	479.258	80.002	19.996	103.108	20.205	7.492	0.515
801.500	479.481	80.001	19.996	103.108	20.200	7.858	0.503
802.000	479.747	80.001	19.996	103.108	20.201	7.767	0.490
802.500	480.004	79.999	19.995	103.104	20.202	7.711	0.506
803.001	480.306	80.000	19.995	103.105	20.202	7.755	0.541
803.500	480.516	80.001	19.995	103.107	20.201	7.804	0.535
804.000	480.790	80.001	19.996	103.108	20.200	7.841	0.498
804.500	481.018	79.999	19.996	103.108	20.199	7.914	0.493
805.000	481.305	80.000	19.995	103.109	20.200	7.845	0.509
805.500	481.570	80.001	19.996	103.108	20.200	7.843	0.534
806.000	481.838	80.001	19.996	103.107	20.201	7.801	0.543
806.500	482.063	80.001	19.996	103.104	20.202	7.739	0.513
807.000	482.365	80.000	19.996	103.106	20.201	7.806	0.510
807.500	482.593	80.000	19.996	103.105	20.205	7.543	0.529
808.000	482.888	79.999	19.996	103.107	20.200	7.842	0.527
808.500	483.095	80.000	19.996	103.106	20.206	7.447	0.512
809.000	483.365	79.999	19.996	103.106	20.202	7.716	0.489
809.500	483.659	79.999	19.996	103.104	20.204	7.595	0.520
810.000	483.890	80.001	19.996	103.104	20.206	7.432	0.544
810.500	484.114	80.000	19.996	103.103	20.203	7.634	0.490
811.000	484.397	79.999	19.995	103.103	20.206	7.427	0.481
811.500	484.658	80.000	19.995	103.104	20.203	7.628	0.525
812.000	484.909	80.000	19.995	103.103	20.207	7.376	0.528
812.500	485.159	80.000	19.996	103.103	20.203	7.651	0.507
813.000	485.418	80.001	19.996	103.103	20.204	7.621	0.505
813.500	485.701	80.000	19.995	103.101	20.209	7.232	0.526
814.000	485.912	80.001	19.996	103.100	20.208	7.298	0.518
814.500	486.218	80.000	19.996	103.100	20.205	7.503	0.505
815.000	486.428	80.000	19.997	103.099	20.205	7.515	0.517
815.500	486.699	80.001	19.996	103.100	20.207	7.365	0.499
816.000	486.963	80.002	19.995	103.102	20.206	7.479	0.508
816.500	487.237	80.001	19.996	103.102	20.206	7.450	0.537
817.000	487.458	80.001	19.996	103.102	20.204	7.623	0.516
817.500	487.720	80.001	19.995	103.105	20.201	7.793	0.489
818.001	487.985	80.001	19.996	103.104	20.206	7.436	0.505
818.500	488.255	80.002	19.996	103.102	20.204	7.619	0.531
819.000	488.515	80.002	19.996	103.102	20.205	7.524	0.533
819.501	488.701	80.002	19.995	103.101	20.203	7.685	0.488
820.000	489.020	80.003	19.994	103.099	20.203	7.664	0.475
820.500	489.289	80.004	19.996	103.100	20.204	7.569	0.546
821.000	489.591	80.003	19.995	103.100	20.204	7.576	0.580
821.500	489.804	80.003	19.995	103.100	20.207	7.391	0.543
822.000	490.046	80.003	19.995	103.101	20.203	7.636	0.485
822.500	490.339	80.004	19.994	103.101	20.203	7.634	0.494
823.000	490.594	80.003	19.995	103.100	20.208	7.331	0.541
823.500	490.829	80.003	19.994	103.101	20.207	7.416	0.519
824.000	491.128	80.002	19.995	103.101	20.203	7.660	0.512
824.500	491.336	80.004	19.995	103.101	20.208	7.313	0.521
825.001	491.630	80.004	19.995	103.102	20.202	7.761	0.505
825.500	491.885	80.003	19.994	103.102	20.202	7.724	0.526
826.000	492.145	80.005	19.995	103.104	20.207	7.384	0.532
826.500	492.416	80.003	19.995	103.106	20.204	7.567	0.523
827.000	492.640	80.004	19.993	103.107	20.202	7.737	0.513
827.500	492.892	80.004	19.996	103.109	20.201	7.810	0.485
828.000	493.189	80.002	19.996	103.109	20.206	7.429	0.512
828.500	493.449	80.004	19.994	103.106	20.205	7.543	0.553
829.000	493.701	80.004	19.993	103.104	20.207	7.363	0.535
829.500	493.932	80.003	19.996	103.103	20.208	7.290	0.498
830.000	494.194	80.003	19.994	103.102	20.206	7.455	0.487
830.500	494.463	80.002	19.995	103.101	20.205	7.516	0.512
831.000	494.703	80.002	19.994	103.102	20.205	7.507	0.520
831.500	494.973	80.002	19.994	103.102	20.209	7.266	0.510
832.000	495.237	80.001	19.994	103.102	20.207	7.356	0.522
832.500	495.463	80.002	19.995	103.103	20.210	7.212	0.512
833.000	495.773	80.002	19.995	103.103	20.207	7.356	0.513
833.500	495.994	80.002	19.995	103.102	20.209	7.238	0.534
834.000	496.253	80.002	19.995	103.103	20.205	7.504	0.506
834.500	496.538	80.003	19.995	103.103	20.208	7.287	0.512
835.000	496.806	80.002	19.994	103.102	20.206	7.464	0.549
835.500	497.065	80.002	19.994	103.103	20.208	7.317	0.540
836.000	497.308	80.002	19.995	103.104	20.206	7.487	0.514
836.500	497.533	80.001	19.994	103.104	20.208	7.320	0.485
837.000	497.798	80.002	19.995	103.105	20.211	7.090	0.479
837.500	498.042	80.001	19.995	103.106	20.205	7.498	0.500
838.000	498.314	80.002	19.994	103.105	20.206	7.485	0.513
838.500	498.572	80.003	19.995	103.104	20.205	7.556	0.523
839.000	498.820	80.002	19.994	103.105	20.209	7.279	0.518
839.500	499.084	80.002	19.995	103.104	20.203	7.646	0.509
840.000	499.336	80.002	19.995	103.103	20.205	7.520	0.514
840.500	499.552	80.002	19.994	103.103	20.206	7.434	0.492
841.000	499.864	80.002	19.994	103.103	20.205	7.515	0.498
841.500	500.083	80.002	19.995	103.102	20.202	7.763	0.530
842.000	500.370	80.003	19.994	103.102	20.207	7.418	0.519
842.500	500.612	80.002	19.995	103.102	20.207	7.375	0.517
843.000	500.857	80.004	19.994	103.103	20.204	7.619	0.507
843.500	501.130	80.001	19.995	103.103	20.207	7.360	0.502
844.001	501.351	80.003	19.995	103.103	20.207	7.378	0.506
844.500	501.629	80.003	19.994	103.104	20.207	7.412	0.497
845.000	501.910	80.003	19.994	103.105	20.204	7.584	0.529
845.501	502.133	80.003	19.996	103.104	20.206	7.459	0.532
846.000	502.399	80.003	19.994	103.104	20.210	7.192	0.497
846.500	502.675	80.003	19.993	103.105	20.210	7.214	0.516
847.000	502.942	80.004	19.995	103.104	20.206	7.481	0.542
847.500	503.180	80.004	19.995	103.104	20.210	7.208	0.524
848.000	503.411	80.003	19.995	103.103	20.204	7.597	0.487
848.500	503.694	80.003	19.994	103.106	20.204	7.599	0.491
849.000	503.946	80.002	19.993	103.106	20.207	7.408	0.525
849.500	504.159	80.005	19.994	103.106	20.207	7.419	0.500
850.000	504.433	80.003	19.993	103.106	20.206	7.453	0.476
850.500	504.669	80.005	19.994	103.106	20.207	7.382	0.499
851.000	504.941	80.003	19.993	103.104	20.206	7.446	0.509
851.500	505.189	80.003	19.996	103.103	20.204	7.588	0.514
852.000	505.433	80.003	19.995	103.104	20.206	7.462	0.506
852.500	505.676	80.003	19.994	103.106	20.205	7.511	0.490
853.000	505.964	80.003	19.994	103.106	20.209	7.232	0.509
853.500	506.190	80.003	19.993	103.106	20.209	7.247	0.523
854.000	506.453	80.002	19.995	103.106	20.203	7.694	0.501
854.500	506.696	80.002	19.993	103.105	20.204	7.593	0.497
855.000	506.938	80.002	19.994	103.103	20.202	7.728	0.495
855.501	507.180	80.002	19.994	103.103	20.201	7.827	0.485
856.000	507.465	80.003	19.995	103.104	20.203	7.657	0.506
856.500	507.693	80.003	19.995	103.105	20.202	7.711	0.520
857.000	507.951	80.002	19.993	103.107	20.204	7.569	0.500
857.500	508.223	80.002	19.994	103.108	20.206	7.487	0.508
858.000	508.442	80.001	19.994	103.108	20.205	7.492	0.511
858.500	508.727	80.001	19.994	103.108	20.201	7.780	0.498
859.000	508.981	80.002	19.995	103.107	20.204	7.589	0.521
859.500	509.219	80.002	19.994	103.105	20.204	7.563	0.515
860.000	509.437	80.001	19.994	103.104	20.204	7.612	0.474
860.500	509.742	80.001	19.995	103.104	20.207	7.388	0.490
861.000	509.985	80.001	19.995	103.104	20.205	7.550	0.536
861.500	510.238	80.001	19.993	103.103	20.202	7.717	0.522
862.000	510.480	80.000	19.995	103.104	20.207	7.390	0.496
862.500	510.772	80.001	19.994	103.103	20.207	7.402	0.514
863.000	511.040	80.001	19.994	103.102	20.205	7.537	0.547
863.500	511.247	80.000	19.994	103.103	20.200	7.847	0.517
864.000	511.525	80.001	19.995	103.103	20.207	7.393	0.480
864.500	511.722	80.002	19.995	103.103	20.205	7.527	0.480
865.000	511.953	80.001	19.995	103.104	20.202	7.716	0.451
865.500	512.253	80.001	19.995	103.105	20.200	7.875	0.479
866.000	512.454	80.001	19.996	103.105	20.202	7.752	0.516
866.500	512.737	80.002	19.994	103.105	20.206	7.432	0.493
867.000	513.010	80.001	19.995	103.106	20.201	7.799	0.520
867.501	513.279	80.001	19.995	103.105	20.202	7.735	0.549
868.000	513.483	80.001	19.996	103.104	20.205	7.539	0.507
868.500	513.773	80.001	19.994	103.103	20.204	7.608	0.484
869.000	514.015	80.001	19.996	103.102	20.202	7.703	0.513
869.500	514.256	80.000	19.995	103.100	20.198	8.021	0.508
870.000	514.536	80.001	19.996	103.100	20.203	7.683	0.502
870.500	514.779	80.001	19.995	103.100	20.205	7.542	0.522
871.000	515.077	80.002	19.995	103.105	20.207	7.372	0.532
871.500	515.322	80.001	19.995	103.105	20.201	7.810	0.542
872.000	515.556	80.000	19.994	103.105	20.206	7.440	0.510
872.500	515.798	80.002	19.995	103.105	20.206	7.464	0.477
873.000	516.090	80.002	19.996	103.105	20.202	7.740	0.505
873.500	516.325	80.001	19.996	103.100	20.201	7.774	0.531
874.000	516.601	80.003	19.995	103.099	20.204	7.563	0.519
874.500	516.846	80.002	19.995	103.099	20.206	7.483	0.516
875.000	517.098	80.002	19.997	103.099	20.201	7.770	0.509
875.500	517.385	80.002	19.996	103.099	20.203	7.641	0.518
876.000	517.637	80.002	19.995	103.099	20.205	7.499	0.538
876.500	517.855	80.002	19.996	103.100	20.206	7.453	0.504
877.000	518.097	80.002	19.996	103.100	20.206	7.440	0.465
877.500	518.376	80.002	19.996	103.101	20.208	7.348	0.490
878.000	518.648	80.002	19.994	103.101	20.207	7.358	0.536
878.500	518.890	80.001	19.995	103.101	20.206	7.425	0.533
879.000	519.111	80.001	19.995	103.101	20.201	7.787	0.488
879.501	519.372	80.002	19.995	103.101	20.207	7.410	0.472
880.000	519.637	80.001	19.994	103.101	20.206	7.445	0.504
880.500	519.840	80.001	19.994	103.101	20.207	7.389	0.497
881.000	520.110	80.002	19.995	103.101	20.203	7.653	0.470
881.500	520.404	80.002	19.995	103.100	20.211	7.103	0.518
882.000	520.609	80.004	19.995	103.099	20.206	7.451	0.532
882.500	520.862	80.002	19.995	103.099	20.206	7.481	0.479
883.000	521.114	80.002	19.996	103.099	20.209	7.247	0.482
883.500	521.389	80.001	19.996	103.099	20.206	7.470	0.516
884.000	521.654	80.001	19.995	103.099	20.209	7.279	0.534
884.500	521.895	80.001	19.995	103.099	20.210	7.189	0.523
885.000	522.167	80.000	19.996	103.098	20.209	7.225	0.509
885.500	522.412	80.002	19.995	103.099	20.212	7.059	0.515
886.000	522.650	80.000	19.994	103.099	20.207	7.412	0.500
886.500	522.932	80.001	19.994	103.100	20.209	7.262	0.502
887.000	523.138	80.000	19.995	103.100	20.209	7.283	0.504
887.500	523.430	80.002	19.994	103.100	20.210	7.197	0.493
888.000	523.656	80.000	19.995	103.101	20.208	7.339	0.508
888.500	523.900	80.002	19.995	103.101	20.205	7.550	0.494
889.000	524.174	80.002	19.996	103.101	20.204	7.619	0.494
889.500	524.403	80.000	19.994	103.102	20.210	7.178	0.511
890.000	524.688	80.000	19.995	103.101	20.203	7.642	0.508
890.500	524.922	80.000	19.996	103.100	20.211	7.131	0.516
891.000	525.191	80.001	19.995	103.100	20.208	7.305	0.511
891.500	525.459	80.000	19.995	103.100	20.207	7.391	0.520
892.000	525.713	79.998	19.995	103.100	20.206	7.442	0.530
892.500	525.962	79.999	19.995	103.101	20.212	7.057	0.512
893.000	526.213	80.000	19.995	103.101	20.207	7.401	0.501
893.500	526.481	80.000	19.996	103.101	20.209	7.234	0.509
894.000	526.699	80.000	19.994	103.101	20.207	7.369	0.503
894.500	526.984	80.000	19.996	103.101	20.210	7.185	0.495
895.000	527.224	80.001	19.995	103.102	20.207	7.367	0.514
895.500	527.470	80.000	19.995	103.101	20.208	7.344	0.505
896.000	527.770	80.000	19.995	103.101	20.207	7.385	0.516
896.500	527.967	80.000	19.996	103.102	20.207	7.400	0.522
897.000	528.274	80.001	19.994	103.102	20.207	7.365	0.501
897.500	528.511	80.001	19.995	103.101	20.209	7.257	0.524
898.000	528.776	80.001	19.995	103.102	20.205	7.515	0.523
898.500	529.000	80.001	19.997	103.101	20.208	7.346	0.496
899.000	529.291	80.001	19.996	103.101	20.209	7.231	0.502
899.501	529.520	80.001	19.996	103.101	20.205	7.494	0.517
900.000	529.797	80.002	19.996	103.102	20.206	7.488	0.513
900.500	529.996	80.001	19.996	103.102	20.204	7.623	0.491
901.000	530.282	80.000	19.995	103.102	20.202	7.707	0.480
901.500	530.534	80.001	19.995	103.101	20.208	7.307	0.511
902.000	530.795	80.001	19.996	103.101	20.204	7.572	0.526
902.500	531.050	80.002	19.996	103.101	20.209	7.260	0.515
903.000	531.268	80.002	19.995	103.100	20.207	7.374	0.494
903.500	531.546	80.001	19.996	103.100	20.205	7.537	0.484
904.000	531.765	80.002	19.996	103.101	20.205	7.492	0.497
904.500	532.032	80.001	19.995	103.101	20.205	7.518	0.492
905.000	532.310	80.001	19.996	103.100	20.203	7.631	0.515
905.500	532.600	80.002	19.996	103.100	20.204	7.603	0.556
906.000	532.795	80.001	19.995	103.100	20.207	7.418	0.527
906.500	533.079	80.002	19.996	103.100	20.207	7.416	0.482
907.000	533.336	80.003	19.995	103.100	20.207	7.384	0.510
907.500	533.600	80.003	19.995	103.100	20.203	7.649	0.531
908.000	533.847	80.001	19.995	103.101	20.207	7.363	0.517
908.500	534.083	80.003	19.996	103.102	20.208	7.287	0.497
909.000	534.366	80.003	19.996	103.103	20.208	7.304	0.501
909.500	534.632	80.003	19.995	103.103	20.208	7.302	0.534
910.000	534.888	80.002	19.995	103.104	20.209	7.246	0.535
910.500	535.122	80.002	19.994	103.104	20.208	7.352	0.506
911.000	535.376	80.002	19.994	103.102	20.207	7.414	0.489
911.500	535.642	80.003	19.995	103.102	20.203	7.677	0.504
912.000	535.888	80.002	19.994	103.101	20.208	7.320	0.516
912.500	536.153	80.002	19.995	103.101	20.203	7.649	0.512
913.000	536.418	80.002	19.995	103.101	20.202	7.724	0.520
913.500	536.641	80.002	19.994	103.101	20.207	7.417	0.509
914.000	536.925	80.002	19.994	103.102	20.206	7.457	0.498
914.500	537.162	80.002	19.994	103.102	20.203	7.630	0.514
915.000	537.387	80.003	19.994	103.102	20.207	7.393	0.492
915.500	537.670	80.000	19.993	103.104	20.207	7.395	0.485
916.000	537.952	80.001	19.994	103.105	20.205	7.537	0.536
916.500	538.206	80.001	19.996	103.105	20.207	7.408	0.551
917.000	538.466	80.001	19.996	103.105	20.206	7.485	0.525
917.500	538.699	80.002	19.994	103.105	20.206	7.438	0.503
918.000	538.984	80.001	19.994	103.103	20.202	7.732	0.505
918.500	539.258	80.002	19.994	103.104	20.202	7.750	0.539
919.000	539.503	80.002	19.994	103.105	20.199	7.928	0.539
919.500	539.740	80.001	19.994	103.105	20.205	7.530	0.500
920.000	539.993	80.002	19.995	103.105	20.205	7.545	0.486
920.500	540.276	80.002	19.995	103.105	20.204	7.567	0.513
921.000	540.536	80.002	19.994	103.104	20.202	7.741	0.540
921.500	540.788	80.001	19.994	103.104	20.205	7.509	0.527
922.000	541.046	80.002	19.993	103.104	20.202	7.732	0.511
922.500	541.297	80.001	19.994	103.103	20.204	7.625	0.510
923.000	541.576	80.002	19.994	103.104	20.201	7.832	0.519
923.500	541.841	80.002	19.994	103.103	20.200	7.836	0.536
924.000	542.109	80.003	19.994	103.103	20.203	7.681	0.538
924.500	542.373	80.003	19.995	103.103	20.195	8.198	0.533
925.000	542.600	80.002	19.995	103.103	20.200	7.860	0.511
925.500	542.891	80.004	19.995	103.102	20.206	7.445	0.504
926.000	543.172	80.004	19.994	103.103	20.196	8.131	0.545
926.500	543.405	80.004	19.995	103.105	20.200	7.866	0.543
927.000	543.673	80.003	19.994	103.106	20.202	7.715	0.508
927.500	543.948	80.003	19.994	103.106	20.200	7.866	0.522
928.000	544.232	80.005	19.994	103.109	20.196	8.143	0.551
928.500	544.477	80.003	19.994	103.110	20.198	8.010	0.544
929.000	544.741	80.004	19.994	103.107	20.199	7.928	0.519
929.500	544.998	80.003	19.994	103.108	20.203	7.686	0.515
930.000	545.256	80.004	19.994	103.107	20.198	8.015	0.518
930.500	545.528	80.004	19.995	103.104	20.202	7.757	0.523
931.000	545.808	80.004	19.994	103.103	20.199	7.941	0.541
931.500	546.033	80.005	19.994	103.106	20.199	7.924	0.528
932.000	546.345	80.004	19.994	103.106	20.199	7.935	0.521
932.500	546.583	80.003	19.994	103.106	20.199	7.914	0.544
933.000	546.859	80.004	19.995	103.106	20.197	8.077	0.532
933.500	547.152	80.003	19.994	103.105	20.196	8.170	0.542
934.000	547.402	80.003	19.994	103.102	20.200	7.888	0.556
934.500	547.699	80.002	19.994	103.100	20.197	8.075	0.545
935.000	547.983	80.002	19.994	103.100	20.201	7.808	0.564
935.500	548.250	80.004	19.995	103.100	20.200	7.854	0.566
936.000	548.495	80.002	19.995	103.100	20.197	8.051	0.531
936.500	548.758	80.003	19.996	103.100	20.201	7.808	0.510
937.000	549.067	80.004	19.995	103.102	20.201	7.800	0.540
937.500	549.277	80.001	19.994	103.104	20.198	7.987	0.545
938.000	549.587	80.002	19.996	103.106	20.196	8.118	0.520
938.500	549.851	80.002	19.994	103.107	20.197	8.071	0.547
939.000	550.121	80.001	19.995	103.107	20.195	8.198	0.554
939.500	550.399	80.002	19.995	103.105	20.201	7.832	0.542
940.000	550.657	80.001	19.994	103.104	20.199	7.931	0.542
940.500	550.977	80.001	19.994	103.101	20.200	7.855	0.557
941.000	551.226	80.002	19.994	103.102	20.199	7.909	0.573
941.500	551.498	80.002	19.994	103.102	20.204	7.559	0.545
942.000	551.790	80.002	19.994	103.102	20.201	7.827	0.542
942.500	552.038	80.002	19.994	103.102	20.201	7.770	0.552
943.000	552.330	80.002	19.994	103.102	20.202	7.759	0.540
943.500	552.641	80.002	19.994	103.101	20.199	7.950	0.571
944.000	552.898	80.001	19.995	103.100	20.206	7.453	0.585
944.501	553.174	80.002	19.995	103.100	20.202	7.716	0.551
945.001	553.473	80.001	19.995	103.100	20.199	7.946	0.554
945.501	553.726	80.001	19.994	103.099	20.204	7.621	0.563
946.000	553.973	80.001	19.995	103.099	20.201	7.818	0.526
946.500	554.264	80.000	19.994	103.099	20.200	7.891	0.520
947.000	554.553	80.002	19.994	103.100	20.201	7.795	0.559
947.500	554.873	80.001	19.995	103.099	20.204	7.627	0.594
948.000	555.154	80.001	19.995	103.099	20.204	7.603	0.605
948.500	555.443	80.003	19.994	103.099	20.200	7.872	0.585
949.000	555.689	80.002	19.993	103.099	20.199	7.916	0.553
949.500	555.974	80.002	19.995	103.099	20.201	7.802	0.533
950.000	556.232	80.002	19.995	103.100	20.202	7.731	0.537
950.500	556.535	80.001	19.994	103.100	20.200	7.857	0.552
951.000	556.780	80.002	19.995	103.100	20.202	7.752	0.554
951.500	557.071	80.002	19.994	103.100	20.202	7.763	0.542
952.000	557.337	80.002	19.996	103.100	20.201	7.775	0.547
952.500	557.580	80.002	19.995	103.100	20.200	7.861	0.533
953.000	557.908	80.002	19.994	103.101	20.199	7.962	0.540
953.500	558.167	80.002	19.995	103.100	20.203	7.695	0.579
954.000	558.480	80.002	19.994	103.100	20.205	7.504	0.579
954.500	558.751	80.002	19.994	103.100	20.199	7.907	0.578
955.001	559.047	80.002	19.993	103.100	20.204	7.578	0.576
955.500	559.305	80.000	19.994	103.099	20.199	7.937	0.560
956.000	559.540	80.001	19.995	103.100	20.203	7.687	0.523
956.500	559.889	80.001	19.995	103.101	20.200	7.855	0.539
957.000	560.120	80.002	19.996	103.106	20.202	7.763	0.583
957.500	560.402	80.003	19.995	103.108	20.197	8.070	0.547
958.000	560.723	80.001	19.995	103.108	20.198	7.976	0.558
958.500	561.001	80.003	19.996	103.108	20.198	7.991	0.601
959.000	561.229	80.002	19.996	103.107	20.198	8.014	0.553
959.500	561.508	80.001	19.995	103.103	20.200	7.862	0.506
960.000	561.789	80.002	19.996	103.101	20.199	7.922	0.533
960.500	562.074	80.001	19.995	103.102	20.197	8.092	0.563
961.000	562.323	80.001	19.995	103.102	20.201	7.816	0.550
961.500	562.617	80.001	19.994	103.102	20.197	8.098	0.539
962.000	562.892	80.001	19.994	103.102	20.196	8.120	0.556
962.500	563.172	80.002	19.995	103.106	20.199	7.959	0.562
963.000	563.454	80.002	19.995	103.108	20.201	7.791	0.558
963.500	563.702	80.000	19.995	103.109	20.200	7.881	0.546
964.000	563.993	80.001	19.995	103.109	20.200	7.853	0.535
964.500	564.248	80.001	19.996	103.110	20.197	8.049	0.542
965.000	564.521	79.999	19.995	103.106	20.199	7.960	0.537
965.500	564.784	80.001	19.994	103.104	20.196	8.157	0.532
966.000	565.067	80.000	19.996	103.104	20.200	7.837	0.541
966.500	565.330	80.001	19.995	103.104	20.197	8.076	0.546
967.000	565.573	80.001	19.996	103.103	20.196	8.141	0.526
967.501	565.853	80.000	19.995	103.103	20.198	7.991	0.515
968.001	566.111	80.002	19.996	103.103	20.200	7.898	0.531
968.500	566.408	80.000	19.996	103.103	20.195	8.195	0.547
969.000	566.663	80.001	19.996	103.104	20.198	7.997	0.553
969.500	566.936	80.001	19.995	103.103	20.200	7.885	0.540
970.000	567.234	80.000	19.995	103.103	20.200	7.840	0.549
970.500	567.505	80.001	19.996	103.104	20.199	7.954	0.570
971.000	567.748	80.000	19.994	103.104	20.200	7.849	0.541
971.500	568.038	80.002	19.996	103.104	20.197	8.074	0.523
972.000	568.321	80.002	19.995	103.104	20.197	8.059	0.553
972.500	568.586	80.001	19.994	103.104	20.197	8.074	0.561
973.000	568.857	80.001	19.996	103.104	20.202	7.700	0.543
973.500	569.140	80.001	19.995	103.103	20.203	7.687	0.546
974.000	569.404	80.001	19.995	103.103	20.204	7.603	0.551
974.500	569.647	80.001	19.994	103.104	20.201	7.790	0.527
975.000	569.897	80.000	19.995	103.104	20.202	7.724	0.500
975.500	570.173	80.001	19.995	103.107	20.200	7.861	0.509
976.000	570.433	80.001	19.995	103.112	20.199	7.941	0.531
976.500	570.725	80.002	19.997	103.115	20.203	7.660	0.544
977.000	571.001	80.001	19.995	103.115	20.202	7.748	0.560
977.501	571.267	80.001	19.995	103.114	20.204	7.571	0.555
978.000	571.496	80.000	19.995	103.112	20.200	7.862	0.519
978.500	571.789	80.002	19.995	103.107	20.204	7.576	0.509
979.000	572.070	80.003	19.995	103.104	20.202	7.713	0.548
979.500	572.374	80.000	19.994	103.104	20.203	7.688	0.579
980.000	572.595	80.000	19.995	103.104	20.200	7.851	0.555
980.500	572.889	80.001	19.995	103.104	20.201	7.778	0.520
981.000	573.128	80.001	19.995	103.104	20.198	7.973	0.524
981.500	573.420	80.001	19.996	103.106	20.200	7.845	0.533
982.000	573.680	80.001	19.995	103.107	20.202	7.763	0.541
982.500	573.956	80.002	19.996	103.106	20.202	7.742	0.543
983.000	574.237	80.003	19.995	103.107	20.204	7.626	0.547
983.500	574.522	80.001	19.994	103.107	20.203	7.654	0.562
984.000	574.789	80.002	19.995	103.106	20.202	7.750	0.559
984.500	575.042	80.002	19.994	103.106	20.203	7.636	0.536
985.000	575.357	80.001	19.995	103.107	20.204	7.604	0.543
985.500	575.596	80.003	19.996	103.107	20.201	7.817	0.561
986.000	575.902	80.002	19.995	103.106	20.201	7.770	0.550
986.500	576.155	80.001	19.996	103.106	20.203	7.658	0.552
987.000	576.391	80.003	19.995	103.105	20.204	7.578	0.524
987.500	576.684	80.003	19.995	103.104	20.202	7.735	0.509
988.000	576.965	80.003	19.995	103.102	20.200	7.866	0.551
988.500	577.207	80.003	19.995	103.102	20.201	7.783	0.549
989.000	577.491	80.003	19.996	103.100	20.203	7.666	0.525
989.500	577.733	80.001	19.995	103.101	20.201	7.798	0.526
990.000	578.022	80.004	19.996	103.100	20.200	7.871	0.528
990.500	578.228	80.003	19.996	103.101	20.202	7.742	0.513
991.000	578.552	80.003	19.995	103.104	20.202	7.737	0.513
991.500	578.814	80.003	19.996	103.105	20.200	7.901	0.558
992.000	579.075	80.002	19.996	103.104	20.200	7.897	0.555
992.500	579.358	80.004	19.996	103.104	20.202	7.707	0.533
993.000	579.595	80.003	19.997	103.103	20.200	7.894	0.532
993.500	579.864	80.004	19.996	103.100	20.203	7.660	0.513
994.000	580.092	80.003	19.997	103.098	20.200	7.871	0.501
994.500	580.379	80.002	19.996	103.098	20.203	7.632	0.506
995.000	580.634	80.003	19.995	103.098	20.198	7.989	0.528
995.500	580.884	80.002	19.996	103.098	20.200	7.877	0.523
996.000	581.188	80.002	19.994	103.098	20.199	7.937	0.529
996.500	581.393	80.001	19.995	103.098	20.201	7.821	0.532
997.000	581.690	80.003	19.995	103.098	20.202	7.720	0.506
997.500	581.982	80.002	19.996	103.098	20.199	7.969	0.546
998.000	582.244	80.002	19.995	103.098	20.199	7.920	0.571
998.500	582.519	80.003	19.995	103.099	20.200	7.890	0.545
999.000	582.758	80.001	19.995	103.099	20.201	7.784	0.525
999.500	582.998	80.001	19.995	103.099	20.197	8.056	0.496
1000.000	583.273	80.003	19.996	103.099	20.197	8.107	0.497
1000.500	583.534	80.002	19.995	103.099	20.203	7.639	0.525
1001.000	583.815	80.002	19.996	103.099	20.197	8.051	0.539
1001.500	584.052	80.002	19.995	103.099	20.200	7.862	0.530
1002.000	584.312	80.002	19.996	103.098	20.201	7.828	0.508
1002.500	584.596	80.002	19.996	103.099	20.198	8.021	0.520
1003.000	584.815	80.004	19.995	103.099	20.199	7.941	0.523
1003.500	585.090	80.004	19.995	103.099	20.197	8.047	0.499
1004.000	585.338	80.002	19.995	103.099	20.199	7.916	0.509
1004.500	585.632	80.003	19.995	103.099	20.197	8.095	0.533
1005.000	585.871	80.003	19.996	103.100	20.203	7.660	0.537
1005.500	586.147	80.003	19.995	103.099	20.202	7.755	0.524
1006.000	586.369	80.003	19.994	103.099	20.197	8.107	0.506
1006.500	586.641	80.004	19.995	103.100	20.199	7.916	0.497
1007.000	586.873	80.004	19.994	103.100	20.202	7.765	0.499
1007.500	587.132	80.004	19.994	103.100	20.198	7.995	0.497
1008.000	587.464	80.004	19.995	103.100	20.198	8.025	0.540
1008.500	587.704	80.004	19.994	103.100	20.198	7.991	0.581
1009.000	587.970	80.005	19.994	103.101	20.202	7.718	0.539
1009.500	588.204	80.003	19.994	103.101	20.199	7.940	0.503
1010.000	588.455	80.004	19.993	103.100	20.201	7.804	0.493
1010.500	588.734	80.004	19.994	103.101	20.200	7.843	0.508
1011.000	588.994	80.003	19.994	103.100	20.203	7.673	0.534
1011.500	589.232	80.004	19.994	103.098	20.200	7.838	0.518
1012.000	589.501	80.005	19.994	103.099	20.202	7.712	0.503
1012.500	589.708	80.004	19.995	103.100	20.200	7.858	0.491
1013.000	590.016	80.004	19.994	103.100	20.201	7.778	0.495
1013.500	590.306	80.003	19.994	103.101	20.199	7.911	0.557
1014.000	590.523	80.005	19.994	103.101	20.198	8.034	0.552
1014.500	590.798	80.004	19.994	103.101	20.197	8.071	0.499
1015.000	591.062	80.004	19.994	103.100	20.198	8.004	0.515
1015.500	591.307	80.003	19.995	103.099	20.199	7.909	0.524
1016.000	591.592	80.003	19.995	103.097	20.199	7.956	0.520
1016.500	591.852	80.004	19.995	103.097	20.199	7.954	0.538
1017.000	592.080	80.005	19.995	103.096	20.198	7.989	0.517
1017.500	592.331	80.003	19.996	103.097	20.197	8.081	0.484
1018.000	592.597	80.003	19.995	103.097	20.195	8.201	0.498
1018.500	592.852	80.002	19.994	103.099	20.200	7.877	0.519
1019.000	593.136	80.003	19.994	103.100	20.196	8.111	0.530
1019.500	593.377	80.002	19.995	103.100	20.197	8.047	0.532
1020.000	593.625	80.002	19.996	103.100	20.196	8.139	0.507
1020.500	593.888	80.002	19.995	103.100	20.199	7.959	0.500
1021.001	594.154	80.002	19.995	103.100	20.197	8.096	0.520
1021.501	594.403	80.001	19.994	103.100	20.201	7.823	0.522
1022.000	594.678	80.002	19.994	103.099	20.195	8.186	0.520
1022.500	594.939	80.002	19.994	103.100	20.198	7.989	0.529
1023.000	595.224	80.002	19.995	103.100	20.195	8.217	0.541
1023.500	595.462	80.001	19.993	103.100	20.198	8.001	0.535
1024.000	595.704	80.001	19.995	103.100	20.197	8.096	0.502
1024.500	596.002	80.002	19.995	103.101	20.198	8.004	0.509
1025.000	596.217	80.000	19.994	103.101	20.199	7.958	0.526
1025.501	596.508	80.001	19.994	103.102	20.199	7.954	0.510
1026.001	596.743	80.001	19.995	103.101	20.197	8.075	0.516
1026.500	596.988	80.001	19.995	103.100	20.197	8.053	0.503
1027.000	597.245	80.000	19.995	103.101	20.200	7.890	0.491
1027.500	597.506	80.000	19.995	103.101	20.195	8.219	0.510
1028.000	597.766	80.000	19.995	103.102	20.198	8.021	0.519
1028.500	597.992	80.001	19.994	103.103	20.193	8.322	0.503
1029.000	598.273	80.001	19.995	103.104	20.193	8.331	0.496
1029.500	598.483	80.002	19.995	103.104	20.194	8.288	0.499
1030.001	598.770	80.001	19.994	103.104	20.194	8.296	0.494
1030.501	599.037	80.001	19.995	103.104	20.191	8.479	0.525
1031.000	599.256	80.002	19.994	103.104	20.195	8.208	0.519
1031.501	599.504	80.002	19.996	103.104	20.195	8.206	0.477
1032.001	599.784	80.002	19.995	103.104	20.197	8.103	0.498
1032.500	600.031	80.002	19.995	103.104	20.196	8.152	0.528
1033.000	600.278	80.003	19.995	103.103	20.194	8.305	0.511
1033.500	600.544	80.003	19.994	103.104	20.193	8.363	0.503
1034.000	600.806	80.002	19.994	103.105	20.197	8.107	0.520
1034.501	601.052	80.003	19.994	103.105	20.198	7.986	0.518
1035.001	601.329	80.002	19.996	103.104	20.196	8.152	0.516
1035.501	601.556	80.002	19.995	103.104	20.198	8.014	0.514
1036.000	601.822	80.002	19.996	103.105	20.196	8.133	0.498
1036.500	602.036	80.001	19.996	103.103	20.196	8.120	0.486
1037.001	602.318	80.002	19.993	103.104	20.195	8.201	0.488
1037.501	602.560	80.002	19.995	103.104	20.198	8.029	0.510
1038.000	602.832	80.003	19.995	103.104	20.197	8.068	0.519
1038.500	603.074	80.002	19.994	103.103	20.197	8.057	0.514
1039.000	603.316	80.002	19.994	103.103	20.193	8.328	0.499
1039.501	603.598	80.002	19.996	103.102	20.196	8.113	0.504
1040.001	603.835	80.003	19.994	103.103	20.196	8.176	0.521
1040.500	604.074	80.003	19.993	103.103	20.195	8.217	0.497
1041.000	604.366	80.003	19.995	103.103	20.195	8.223	0.503
1041.500	604.582	80.001	19.995	103.102	20.195	8.178	0.519
1042.000	604.824	80.002	19.994	103.103	20.192	8.443	0.483
1042.500	605.054	80.001	19.994	103.103	20.192	8.440	0.465
1043.000	605.277	80.001	19.995	103.103	20.191	8.501	0.463
1043.500	605.541	80.002	19.994	103.103	20.191	8.498	0.470
1044.000	605.784	80.002	19.994	103.104	20.191	8.471	0.497
1044.500	606.051	80.001	19.994	103.104	20.191	8.492	0.509
1045.000	606.314	80.002	19.994	103.104	20.193	8.324	0.520
1045.500	606.558	80.001	19.994	103.104	20.191	8.501	0.518
1046.001	606.804	80.001	19.994	103.104	20.193	8.344	0.498
1046.501	607.100	80.002	19.994	103.104	20.188	8.671	0.516
1047.000	607.336	80.002	19.993	103.105	20.192	8.447	0.537
1047.500	607.570	80.002	19.994	103.105	20.192	8.419	0.501
1048.000	607.831	80.001	19.994	103.105	20.196	8.167	0.483
1048.500	608.137	80.001	19.995	103.105	20.192	8.408	0.531
1049.000	608.355	80.001	19.995	103.105	20.193	8.335	0.546
1049.500	608.580	80.001	19.994	103.105	20.189	8.593	0.483
1050.000	608.844	80.002	19.994	103.105	20.194	8.254	0.466
1050.500	609.071	80.000	19.994	103.105	20.192	8.396	0.490
1051.000	609.368	80.001	19.994	103.104	20.192	8.410	0.507
1051.500	609.599	79.999	19.995	103.104	20.191	8.471	0.525
1052.000	609.853	80.002	19.995	103.104	20.193	8.363	0.506
1052.500	610.079	80.001	19.995	103.104	20.192	8.404	0.483
1053.000	610.314	80.001	19.994	103.104	20.192	8.402	0.471
1053.500	610.571	80.001	19.995	103.104	20.192	8.413	0.477
1054.000	610.801	80.001	19.995	103.103	20.189	8.639	0.489
1054.500	611.067	80.000	19.995	103.103	20.194	8.266	0.491
1055.000	611.366	80.000	19.995	103.103	20.191	8.501	0.531
1055.500	611.556	80.000	19.995	103.102	20.190	8.522	0.528
1056.001	611.837	80.001	19.997	103.102	20.191	8.477	0.480
1056.501	612.045	80.002	19.995	103.102	20.189	8.595	0.480
1057.000	612.309	80.000	19.996	103.100	20.187	8.748	0.480
1057.500	612.548	80.002	19.995	103.100	20.191	8.492	0.487
1058.000	612.785	80.000	19.995	103.100	20.190	8.531	0.490
1058.501	613.069	80.002	19.995	103.099	20.195	8.213	0.499
1059.001	613.296	80.001	19.996	103.099	20.186	8.813	0.516
1059.501	613.542	80.003	19.996	103.100	20.194	8.292	0.492
1060.000	613.800	80.002	19.995	103.099	20.179	9.325	0.488
1060.500	614.037	80.002	19.995	103.099	20.199	7.929	0.499
1061.000	614.243	80.001	19.996	103.099	20.204	7.587	0.469
1061.500	614.554	80.001	19.996	103.100	20.181	9.142	0.480
1062.000	614.785	80.001	19.996	103.100	20.192	8.438	0.530
1062.500	615.047	80.001	19.996	103.100	20.206	7.460	0.518
1063.000	615.258	80.002	19.996	103.100	20.197	8.090	0.483
1063.500	615.525	80.001	19.995	103.099	20.201	7.830	0.476
1064.000	615.831	80.003	19.995	103.100	20.188	8.707	0.526
1064.500	616.009	80.001	19.994	103.100	20.207	7.378	0.528
1065.000	616.307	80.002	19.996	103.100	20.200	7.895	0.479
1065.500	616.461	80.002	19.995	103.100	20.190	8.523	0.464
1066.000	616.799	80.002	19.996	103.101	20.192	8.439	0.472
1066.500	616.996	80.003	19.994	103.101	20.186	8.809	0.514
1067.000	617.224	80.002	19.994	103.101	20.188	8.718	0.480
1067.500	617.486	80.003	19.995	103.100	20.191	8.496	0.457
1068.001	617.680	80.004	19.996	103.100	20.191	8.496	0.473
1068.501	618.006	80.003	19.996	103.099	20.192	8.389	0.488
1069.001	618.206	80.003	19.995	103.099	20.190	8.569	0.523
1069.501	618.493	80.003	19.996	103.099	20.193	8.331	0.507
1070.001	618.692	80.004	19.995	103.099	20.190	8.583	0.486
1070.501	618.906	80.003	19.995	103.099	20.190	8.550	0.450
1071.001	619.149	80.003	19.994	103.099	20.195	8.241	0.435
1071.501	619.475	80.004	19.996	103.100	20.192	8.385	0.513
1072.000	619.626	80.001	19.994	103.099	20.192	8.411	0.523
1072.500	619.956	80.004	19.995	103.100	20.187	8.748	0.479
1073.000	619.946	80.003	19.995	103.100	20.188	8.679	0.400
1073.500	620.683	80.003	19.995	103.099	20.193	8.335	0.524
1074.000	620.480	80.003	19.994	103.099	20.190	8.578	0.631
1074.500	621.590	80.003	19.994	103.100	20.190	8.525	0.720
1075.000	621.031	80.001	19.995	103.098	20.189	8.607	0.729
1075.500	620.594	80.002	19.996	103.098	20.194	8.306	-0.222
1076.000	621.744	80.003	19.994	103.098	20.189	8.604	-0.141
1076.500	621.844	80.001	19.994	103.098	20.192	8.419	0.982
1077.000	622.701	80.003	19.996	103.099	20.192	8.447	1.103
1077.500	622.608	80.002	19.997	103.100	20.189	8.592	0.860
1078.000	622.716	80.003	19.997	103.100	20.191	8.505	0.389
1078.500	622.731	80.000	19.995	103.101	20.188	8.708	0.069
1079.000	622.748	80.001	19.996	103.101	20.186	8.860	0.078
1079.501	623.309	80.003	19.996	103.101	20.188	8.688	0.306
1080.001	623.590	80.001	19.995	103.102	20.192	8.436	0.710
1080.500	623.758	80.002	19.995	103.101	20.190	8.548	0.645
1081.000	624.202	80.001	19.995	103.101	20.188	8.692	0.531
1081.500	624.219	80.001	19.997	103.100	20.191	8.484	0.537
1082.000	624.579	80.003	19.995	103.098	20.188	8.708	0.419
1082.500	624.732	80.001	19.995	103.098	20.190	8.557	0.445
1083.000	624.956	80.002	19.996	103.098	20.192	8.432	0.446
1083.501	625.299	80.002	19.996	103.098	20.188	8.690	0.472
1084.001	625.499	80.002	19.997	103.098	20.193	8.336	0.555
1084.500	625.633	80.001	19.994	103.099	20.191	8.458	0.439
1085.000	625.965	80.002	19.995	103.098	20.188	8.671	0.400
1085.500	626.181	80.004	19.995	103.097	20.190	8.581	0.507
1086.000	626.371	80.002	19.996	103.097	20.186	8.808	0.477
1086.500	626.625	80.002	19.995	103.096	20.187	8.733	0.425
1087.000	626.879	80.002	19.995	103.095	20.187	8.761	0.476
1087.500	627.140	80.002	19.996	103.096	20.190	8.589	0.512
1088.000	627.340	80.003	19.996	103.096	20.188	8.688	0.488
1088.500	627.624	80.003	19.995	103.097	20.186	8.839	0.472
1089.001	627.807	80.004	19.995	103.098	20.191	8.516	0.475
1089.501	628.084	80.003	19.996	103.099	20.193	8.348	0.463
1090.000	628.285	80.004	19.995	103.099	20.189	8.652	0.468
1090.500	628.580	80.004	19.996	103.100	20.187	8.749	0.487
1091.000	628.793	80.003	19.995	103.099	20.189	8.643	0.503
1091.500	629.039	80.004	19.996	103.099	20.188	8.708	0.484
1092.000	629.204	80.002	19.994	103.099	20.192	8.411	0.435
1092.501	629.510	80.003	19.994	103.099	20.192	8.447	0.441
1093.001	629.704	80.005	19.995	103.099	20.188	8.675	0.486
1093.500	629.982	80.005	19.995	103.099	20.190	8.535	0.486
1094.001	630.186	80.003	19.994	103.099	20.192	8.413	0.477
1094.501	630.409	80.003	19.995	103.098	20.190	8.535	0.454
1095.001	630.634	80.004	19.996	103.097	20.190	8.579	0.437
1095.501	630.908	80.003	19.994	103.097	20.189	8.618	0.474
1096.001	631.126	80.003	19.995	103.097	20.192	8.385	0.495
1096.500	631.359	80.004	19.995	103.098	20.191	8.460	0.471
1097.000	631.616	80.002	19.994	103.100	20.192	8.398	0.471
1097.500	631.826	80.003	19.994	103.101	20.190	8.589	0.479
1098.000	632.106	80.004	19.995	103.100	20.193	8.346	0.479
1098.500	632.304	80.004	19.994	103.100	20.191	8.473	0.484
1099.000	632.539	80.004	19.995	103.100	20.193	8.362	0.456
1099.500	632.759	80.003	19.995	103.100	20.191	8.479	0.444
1100.000	633.002	80.002	19.994	103.099	20.192	8.449	0.459
1100.500	633.192	80.001	19.994	103.099	20.191	8.492	0.447
1101.000	633.454	80.003	19.995	103.099	20.192	8.416	0.442
1101.500	633.704	80.001	19.994	103.095	20.192	8.390	0.482
1102.000	633.919	79.999	19.994	103.094	20.189	8.592	0.489
1102.500	634.156	80.001	19.995	103.095	20.188	8.686	0.459
1103.000	634.447	80.000	19.996	103.096	20.192	8.391	0.490
1103.501	634.679	80.001	19.995	103.096	20.184	8.972	0.525
1104.001	634.877	80.002	19.996	103.100	20.193	8.346	0.476
1104.501	635.101	80.001	19.993	103.102	20.192	8.438	0.426
1105.000	635.371	80.001	19.994	103.102	20.187	8.767	0.458
1105.500	635.565	80.001	19.995	103.098	20.191	8.512	0.479
1106.001	635.840	80.002	19.994	103.095	20.180	9.239	0.467
1106.501	636.097	80.002	19.995	103.095	20.189	8.636	0.500
1107.000	636.309	80.002	19.994	103.095	20.188	8.684	0.500
1107.500	636.539	80.001	19.995	103.096	20.187	8.785	0.455
1108.000	636.799	80.001	19.995	103.100	20.189	8.651	0.466
1108.500	637.006	80.002	19.993	103.102	20.187	8.772	0.479
1109.000	637.252	80.002	19.995	103.098	20.194	8.301	0.460
1109.501	637.503	80.001	19.994	103.094	20.195	8.228	0.475
1110.001	637.725	80.001	19.995	103.087	20.191	8.506	0.485
1110.501	637.979	80.001	19.994	103.084	20.191	8.464	0.474
1111.000	638.153	80.002	19.994	103.080	20.184	9.002	0.452
1111.500	638.449	80.002	19.993	103.084	20.194	8.250	0.450
1112.000	638.677	80.001	19.995	103.088	20.190	8.563	0.497
1112.500	638.900	80.002	19.993	103.092	20.192	8.415	0.487
1113.000	639.126	80.001	19.995	103.091	20.191	8.465	0.450
1113.500	639.376	80.001	19.994	103.096	20.189	8.594	0.462
1114.000	639.638	80.001	19.994	103.096	20.188	8.683	0.494
1114.500	639.817	80.001	19.994	103.096	20.188	8.678	0.477
1115.000	640.021	80.002	19.994	103.098	20.190	8.558	0.412
1115.500	640.232	80.001	19.995	103.103	20.186	8.853	0.399
1116.000	640.592	80.001	19.994	103.102	20.189	8.631	0.493
1116.500	640.756	80.002	19.995	103.102	20.185	8.874	0.547
1117.000	640.994	80.001	19.995	103.102	20.190	8.561	0.464
1117.500	641.175	80.002	19.994	103.102	20.188	8.673	0.411
1118.001	641.611	80.001	19.995	103.102	20.186	8.845	0.518
1118.501	641.671	80.001	19.995	103.101	20.182	9.122	0.556
1119.000	642.033	80.002	19.995	103.100	20.188	8.709	0.459
1119.500	641.983	80.001	19.994	103.100	20.187	8.795	0.367
1120.000	641.843	80.001	19.995	103.099	20.184	8.940	0.061
1120.500	642.698	80.001	19.994	103.097	20.187	8.778	0.263
1121.000	642.861	80.002	19.995	103.097	20.188	8.701	0.867
1121.500	643.102	80.002	19.995	103.098	20.183	9.049	0.712
1122.000	643.438	80.002	19.994	103.097	20.186	8.839	0.491
1122.500	643.627	80.002	19.995	103.097	20.186	8.830	0.550
1123.000	643.907	80.002	19.995	103.098	20.185	8.899	0.497
1123.500	644.064	80.002	19.994	103.098	20.184	8.966	0.454
1124.001	644.394	80.002	19.995	103.097	20.184	8.991	0.462
1124.501	644.522	80.003	19.994	103.092	20.187	8.749	0.472
1125.001	644.830	80.003	19.993	103.090	20.185	8.895	0.447
1125.501	645.097	80.001	19.993	103.088	20.181	9.205	0.506
1126.000	645.221	80.002	19.995	103.087	20.186	8.826	0.483
1126.500	645.567	80.002	19.994	103.086	20.180	9.211	0.430
1127.000	645.784	80.002	19.995	103.091	20.180	9.243	0.516
1127.500	645.991	80.002	19.995	103.093	20.185	8.933	0.494
1128.000	646.292	80.003	19.995	103.095	20.180	9.235	0.466
1128.501	646.510	80.001	19.995	103.098	20.183	9.050	0.513
1129.001	646.740	80.001	19.994	103.099	20.181	9.198	0.483
1129.501	646.970	80.003	19.994	103.100	20.184	8.972	0.454
1130.001	647.229	80.002	19.994	103.101	20.185	8.875	0.475
1130.501	647.455	80.003	19.994	103.101	20.185	8.909	0.487
1131.000	647.699	80.002	19.995	103.101	20.186	8.841	0.477
1131.500	647.919	80.002	19.993	103.101	20.182	9.095	0.467
1132.000	648.195	80.002	19.994	103.101	20.177	9.426	0.480
1132.500	648.473	80.001	19.994	103.101	20.183	9.041	0.525
1133.000	648.696	80.002	19.994	103.100	20.185	8.910	0.527
1133.500	648.899	80.001	19.994	103.100	20.186	8.854	0.464
1134.000	649.176	80.001	19.995	103.100	20.182	9.129	0.453
1134.500	649.441	80.001	19.994	103.100	20.184	8.951	0.511
1135.001	649.671	80.001	19.992	103.099	20.184	8.991	0.518
1135.501	649.937	80.000	19.994	103.098	20.184	8.953	0.496
1136.000	650.169	80.002	19.994	103.096	20.185	8.875	0.497
1136.500	650.441	80.001	19.994	103.097	20.187	8.742	0.501
1137.000	650.695	80.001	19.995	103.096	20.183	9.069	0.515
1137.500	650.913	80.002	19.995	103.095	20.180	9.243	0.499
1138.000	651.186	80.001	19.994	103.097	20.181	9.205	0.481
1138.500	651.454	80.001	19.994	103.098	20.185	8.927	0.516
1139.000	651.682	80.002	19.995	103.097	20.185	8.886	0.519
1139.500	651.892	80.002	19.995	103.097	20.184	8.991	0.467
1140.000	652.164	80.002	19.995	103.099	20.183	9.028	0.460
1140.501	652.435	80.002	19.994	103.099	20.181	9.149	0.512
1141.001	652.656	80.002	19.995	103.099	20.188	8.667	0.518
1141.501	652.958	80.002	19.996	103.101	20.183	9.020	0.508
1142.001	653.142	80.002	19.994	103.101	20.184	8.947	0.504
1142.501	653.464	80.003	19.995	103.100	20.184	8.940	0.496
1143.001	653.662	80.003	19.997	103.100	20.180	9.211	0.513
1143.500	653.912	80.002	19.995	103.099	20.185	8.872	0.484
1144.000	654.141	80.002	19.994	103.099	20.183	9.052	0.464
1144.500	654.426	80.003	19.994	103.097	20.179	9.289	0.497
1145.000	654.677	80.003	19.995	103.098	20.183	9.052	0.525
1145.500	654.923	80.002	19.995	103.097	20.180	9.270	0.516
1146.001	655.200	80.003	19.995	103.098	20.183	9.052	0.510
1146.501	655.414	80.003	19.996	103.097	20.183	9.024	0.507
1147.000	655.673	80.002	19.996	103.099	20.181	9.174	0.483
1147.500	655.929	80.002	19.996	103.097	20.184	8.955	0.494
1148.000	656.196	80.003	19.996	103.098	20.181	9.183	0.518
1148.500	656.446	80.003	19.995	103.098	20.177	9.419	0.520
1149.000	656.683	80.003	19.995	103.098	20.181	9.187	0.502
1149.500	656.948	80.003	19.996	103.098	20.183	9.058	0.494
1150.001	657.186	80.002	19.995	103.099	20.179	9.318	0.502
1150.501	657.423	80.003	19.995	103.099	20.180	9.228	0.489
1151.000	657.668	80.004	19.994	103.099	20.178	9.385	0.479
1151.500	657.890	80.003	19.995	103.099	20.181	9.202	0.474
1152.001	658.171	80.003	19.993	103.099	20.177	9.432	0.485
1152.501	658.415	80.003	19.995	103.098	20.177	9.437	0.514
1153.001	658.654	80.002	19.994	103.096	20.178	9.348	0.504
1153.501	658.915	80.004	19.994	103.094	20.175	9.609	0.492
1154.001	659.150	80.003	19.995	103.093	20.177	9.463	0.498
1154.501	659.436	80.002	19.996	103.093	20.176	9.486	0.508
1155.001	659.679	80.003	19.995	103.092	20.176	9.484	0.525
1155.501	659.919	80.002	19.995	103.093	20.178	9.377	0.506
1156.000	660.176	80.002	19.996	103.093	20.177	9.443	0.491
1156.500	660.374	80.001	19.996	103.094	20.177	9.424	0.476
1157.000	660.695	80.003	19.995	103.095	20.178	9.378	0.487
1157.500	660.920	80.003	19.995	103.096	20.177	9.436	0.532
1158.000	661.154	80.002	19.995	103.098	20.176	9.495	0.503
1158.500	661.383	80.002	19.994	103.101	20.179	9.308	0.461
1159.000	661.667	80.002	19.995	103.101	20.177	9.430	0.487
1159.500	661.874	80.002	19.994	103.101	20.173	9.734	0.502
1160.001	662.185	80.002	19.995	103.101	20.181	9.202	0.505
1160.501	662.402	80.001	19.995	103.102	20.178	9.364	0.523
1161.000	662.663	80.004	19.995	103.102	20.178	9.402	0.503
1161.500	662.927	80.003	19.994	103.100	20.176	9.506	0.502
1162.000	663.159	80.001	19.995	103.099	20.179	9.301	0.510
1162.500	663.401	80.003	19.995	103.098	20.175	9.570	0.485
1163.000	663.674	80.003	19.994	103.097	20.173	9.716	0.494
1163.500	663.894	80.003	19.995	103.097	20.177	9.465	0.504
1164.000	664.137	80.003	19.995	103.098	20.178	9.379	0.478
1164.500	664.393	80.003	19.994	103.097	20.176	9.512	0.481
1165.000	664.652	80.002	19.996	103.098	20.174	9.656	0.507
1165.500	664.909	80.003	19.995	103.098	20.177	9.426	0.515
1166.000	665.099	80.002	19.995	103.098	20.172	9.792	0.482
1166.500	665.380	80.003	19.995	103.099	20.165	10.269	0.459
1167.000	665.610	80.003	19.994	103.101	20.178	9.405	0.491
1167.500	665.897	80.003	19.995	103.101	20.175	9.583	0.514
1168.000	666.131	80.003	19.995	103.102	20.181	9.189	0.519
1168.500	666.348	80.002	19.994	103.102	20.172	9.772	0.486
1169.000	666.649	80.003	19.995	103.101	20.177	9.454	0.485
1169.500	666.885	80.002	19.996	103.100	20.170	9.899	0.527
1170.000	667.090	80.002	19.995	103.100	20.173	9.739	0.489
1170.501	667.416	80.004	19.994	103.098	20.175	9.597	0.485
1171.001	667.681	80.003	19.995	103.098	20.173	9.718	0.561
1171.501	667.919	80.003	19.995	103.098	20.175	9.614	0.548
1172.000	668.158	80.003	19.995	103.099	20.175	9.608	0.491
1172.500	668.388	80.003	19.994	103.098	20.177	9.470	0.473
1173.000	668.648	80.003	19.995	103.099	20.176	9.548	0.479
1173.500	668.894	80.003	19.995	103.099	20.177	9.431	0.498
1174.000	669.142	80.005	19.995	103.098	20.178	9.412	0.500
1174.500	669.411	80.003	19.995	103.097	20.174	9.668	0.505
1175.000	669.680	80.003	19.996	103.098	20.176	9.494	0.527
1175.501	669.940	80.003	19.997	103.096	20.175	9.599	0.533
1176.001	670.189	80.003	19.994	103.095	20.176	9.539	0.518
1176.500	670.413	80.003	19.995	103.097	20.176	9.528	0.491
1177.000	670.689	80.003	19.995	103.097	20.174	9.638	0.487
1177.501	670.966	80.002	19.996	103.097	20.173	9.715	0.526
1178.001	671.200	80.003	19.995	103.098	20.179	9.316	0.532
1178.500	671.409	80.002	19.996	103.099	20.178	9.346	0.477
1179.000	671.659	80.003	19.995	103.099	20.175	9.585	0.451
1179.500	671.994	80.002	19.995	103.099	20.173	9.748	0.522
1180.000	672.147	80.002	19.996	103.098	20.175	9.590	0.536
1180.501	672.541	80.002	19.996	103.095	20.175	9.618	0.518
1181.001	672.695	80.002	19.995	103.092	20.172	9.805	0.548
1181.500	672.931	80.001	19.995	103.091	20.173	9.708	0.469
1182.000	673.266	80.002	19.995	103.088	20.173	9.742	0.481
1182.500	673.488	80.001	19.996	103.088	20.173	9.703	0.564
1183.000	673.726	80.001	19.996	103.090	20.171	9.884	0.508
1183.500	673.967	80.000	19.996	103.090	20.173	9.727	0.470
1184.000	674.286	80.001	19.996	103.085	20.170	9.936	0.519
1184.500	674.513	80.001	19.997	103.087	20.175	9.605	0.553
1185.000	674.763	79.999	19.995	103.089	20.174	9.646	0.512
1185.501	675.025	80.001	19.996	103.086	20.172	9.768	0.495
1186.001	675.253	80.000	19.996	103.088	20.177	9.463	0.501
1186.500	675.532	80.003	19.996	103.090	20.174	9.663	0.499
1187.000	675.851	80.001	19.995	103.089	20.173	9.727	0.552
1187.500	676.037	80.001	19.996	103.089	20.177	9.426	0.551
1188.000	676.326	80.001	19.996	103.087	20.176	9.500	0.490
1188.500	676.591	80.002	19.996	103.087	20.174	9.624	0.514
1189.000	676.849	80.000	19.995	103.086	20.173	9.710	0.538
1189.500	677.095	80.003	19.994	103.084	20.174	9.632	0.514
1190.001	677.388	80.001	19.995	103.082	20.174	9.624	0.522
1190.501	677.650	80.001	19.995	103.087	20.174	9.654	0.547
1191.001	677.907	80.000	19.996	103.089	20.175	9.560	0.537
1191.501	678.122	80.001	19.995	103.093	20.172	9.771	0.495
1192.000	678.464	80.001	19.994	103.096	20.175	9.606	0.514
1192.500	678.690	80.000	19.994	103.099	20.177	9.451	0.562
1193.000	678.934	80.001	19.995	103.098	20.176	9.550	0.519
1193.500	679.205	80.002	19.994	103.098	20.179	9.333	0.493
1194.000	679.459	80.001	19.994	103.097	20.175	9.606	0.520
1194.500	679.685	80.003	19.994	103.096	20.175	9.570	0.502
1195.000	679.940	80.001	19.994	103.096	20.177	9.438	0.481
1195.500	680.230	80.003	19.995	103.097	20.176	9.533	0.513
1196.000	680.452	80.003	19.994	103.097	20.172	9.806	0.529
1196.500	680.726	80.001	19.995	103.099	20.176	9.509	0.504
1197.000	680.980	80.002	19.996	103.099	20.173	9.702	0.512
1197.500	681.280	80.003	19.994	103.097	20.175	9.615	0.541
1198.000	681.506	80.002	19.995	103.095	20.176	9.507	0.540
1198.500	681.758	80.001	19.993	103.094	20.174	9.637	0.502
1199.000	682.005	80.002	19.995	103.094	20.175	9.563	0.488
1199.501	682.237	80.001	19.995	103.095	20.176	9.514	0.489
1200.001	682.669	80.002	19.995	103.096	20.174	9.683	0.571
1200.500	682.776	80.003	19.994	103.098	20.175	9.614	0.601
1201.000	683.045	80.003	19.994	103.098	20.175	9.595	0.458
1201.500	683.308	80.002	19.995	103.096	20.173	9.708	0.455
1202.000	683.562	80.003	19.994	103.093	20.171	9.866	0.524
1202.500	683.797	80.002	19.995	103.091	20.175	9.565	0.503
1203.000	684.039	80.001	19.996	103.089	20.175	9.558	0.483
1203.501	684.321	80.002	19.994	103.084	20.170	9.949	0.501
1204.001	684.573	80.002	19.995	103.082	20.172	9.773	0.529
1204.500	684.834	80.001	19.994	103.083	20.176	9.506	0.524
1205.000	685.077	80.002	19.994	103.084	20.174	9.678	0.509
1205.500	685.339	80.003	19.994	103.084	20.171	9.868	0.504
1206.000	685.569	80.002	19.995	103.086	20.172	9.784	0.498
1206.500	685.858	80.001	19.995	103.087	20.172	9.770	0.505
1207.000	686.139	80.002	19.994	103.087	20.171	9.877	0.545
1207.500	686.342	80.001	19.994	103.087	20.170	9.905	0.527
1208.001	686.621	80.001	19.995	103.087	20.174	9.684	0.483
1208.501	686.847	80.001	19.994	103.085	20.172	9.783	0.493
1209.000	687.123	80.001	19.995	103.084	20.173	9.738	0.503
1209.500	687.389	80.001	19.995	103.080	20.171	9.867	0.522
1210.000	687.660	80.003	19.995	103.079	20.171	9.874	0.540
1210.500	687.862	80.002	19.995	103.081	20.171	9.893	0.505
1211.000	688.107	80.003	19.995	103.086	20.173	9.714	0.460
1211.500	688.364	80.000	19.995	103.086	20.174	9.686	0.475
1212.000	688.616	80.001	19.995	103.090	20.172	9.759	0.505
1212.501	688.877	80.001	19.995	103.091	20.173	9.757	0.511
1213.001	689.126	80.001	19.995	103.089	20.172	9.821	0.512
1213.500	689.369	80.000	19.995	103.086	20.172	9.805	0.501
1214.000	689.624	80.001	19.994	103.089	20.171	9.863	0.495
1214.500	689.869	80.000	19.994	103.091	20.172	9.762	0.499
1215.001	690.121	80.000	19.995	103.090	20.173	9.708	0.498
1215.501	690.345	79.999	19.994	103.090	20.173	9.714	0.486
1216.000	690.641	80.001	19.995	103.092	20.173	9.697	0.498
1216.500	690.917	80.002	19.995	103.094	20.170	9.959	0.546
1217.000	691.162	80.001	19.995	103.094	20.172	9.802	0.546
1217.500	691.402	80.002	19.996	103.097	20.169	9.998	0.503
1218.000	691.670	80.001	19.994	103.100	20.169	9.992	0.496
1218.500	691.923	80.002	19.994	103.102	20.171	9.835	0.514
1219.000	692.169	80.002	19.995	103.102	20.170	9.925	0.511
1219.500	692.399	80.001	19.995	103.098	20.176	9.536	0.487
1220.000	692.676	80.001	19.995	103.097	20.171	9.828	0.491
1220.500	692.957	80.000	19.994	103.095	20.168	10.048	0.533
1221.000	693.233	80.003	19.995	103.095	20.170	9.931	0.558
1221.500	693.487	80.001	19.995	103.093	20.172	9.813	0.543
1222.000	693.729	80.002	19.994	103.096	20.169	9.981	0.513
1222.500	693.979	80.001	19.993	103.097	20.171	9.828	0.494
1223.000	694.282	80.001	19.994	103.099	20.174	9.663	0.522
1223.500	694.497	80.002	19.994	103.100	20.169	9.987	0.535
1224.000	694.795	80.002	19.994	103.101	20.172	9.777	0.516
1224.500	695.031	80.003	19.993	103.098	20.169	9.973	0.524
1225.000	695.343	80.002	19.994	103.096	20.169	9.983	0.541
1225.500	695.617	80.004	19.994	103.097	20.172	9.816	0.567
1226.000	695.846	80.002	19.994	103.097	20.168	10.037	0.545
1226.500	696.134	80.003	19.994	103.097	20.171	9.850	0.510
1227.000	696.387	80.003	19.993	103.100	20.172	9.804	0.529
1227.500	696.666	80.003	19.994	103.101	20.167	10.125	0.536
1228.000	696.924	80.004	19.995	103.100	20.169	9.966	0.534
1228.500	697.208	80.004	19.993	103.100	20.171	9.830	0.540
1229.000	697.445	80.004	19.994	103.100	20.165	10.265	0.532
1229.500	697.685	80.004	19.994	103.100	20.169	10.002	0.499
1230.000	698.010	80.003	19.995	103.099	20.168	10.100	0.521
1230.500	698.242	80.003	19.994	103.100	20.168	10.098	0.561
1231.000	698.483	80.003	19.994	103.100	20.169	10.009	0.515
1231.500	698.756	80.004	19.994	103.100	20.171	9.833	0.494
1232.000	699.032	80.003	19.993	103.100	20.167	10.141	0.531
1232.500	699.305	80.002	19.994	103.101	20.167	10.117	0.549
1233.000	699.569	80.004	19.994	103.100	20.169	9.992	0.543
1233.500	699.854	80.004	19.995	103.100	20.168	10.073	0.544
1234.000	700.154	80.004	19.994	103.099	20.167	10.153	0.567
1234.500	700.386	80.002	19.995	103.100	20.168	10.101	0.558
1235.000	700.636	80.004	19.995	103.097	20.171	9.881	0.507
1235.500	700.902	80.002	19.995	103.096	20.167	10.105	0.499
1236.000	701.184	80.001	19.995	103.095	20.167	10.132	0.532
1236.500	701.456	80.002	19.994	103.095	20.168	10.087	0.551
1237.000	701.686	80.003	19.994	103.095	20.167	10.163	0.528
1237.500	701.992	80.002	19.995	103.098	20.167	10.122	0.519
1238.000	702.274	80.003	19.995	103.099	20.164	10.328	0.562
1238.500	702.551	80.004	19.995	103.098	20.171	9.867	0.573
1239.000	702.772	80.003	19.995	103.097	20.166	10.175	0.528
1239.500	703.091	80.002	19.995	103.097	20.168	10.053	0.519
1240.001	703.357	80.003	19.996	103.097	20.168	10.087	0.563
1240.501	703.592	80.002	19.995	103.098	20.169	10.019	0.543
1241.001	703.855	80.002	19.994	103.094	20.168	10.079	0.499
1241.501	704.145	80.002	19.995	103.094	20.168	10.049	0.526
1242.000	704.380	80.001	19.995	103.094	20.168	10.058	0.539
1242.501	704.669	80.002	19.995	103.093	20.166	10.180	0.524
1243.001	704.916	80.002	19.996	103.091	20.162	10.449	0.529
1243.501	705.184	80.000	19.995	103.094	20.167	10.131	0.526
1244.001	705.459	80.001	19.996	103.097	20.161	10.555	0.530
1244.501	705.731	80.003	19.996	103.097	20.164	10.323	0.545
1245.000	705.994	80.002	19.995	103.098	20.165	10.267	0.541
1245.500	706.262	80.003	19.995	103.101	20.165	10.269	0.533
1246.000	706.526	80.002	19.994	103.103	20.162	10.445	0.531
1246.500	706.797	80.003	19.995	103.100	20.162	10.458	0.533
1247.000	707.035	80.002	19.995	103.095	20.162	10.486	0.522
1247.500	707.347	80.003	19.994	103.093	20.159	10.682	0.530
1248.000	707.566	80.003	19.995	103.091	20.166	10.222	0.540
1248.500	707.858	80.002	19.995	103.090	20.162	10.479	0.521
1249.000	708.137	80.002	19.994	103.092	20.161	10.571	0.541
1249.500	708.419	80.003	19.995	103.096	20.165	10.259	0.566
1250.000	708.651	80.003	19.995	103.096	20.160	10.601	0.537
1250.500	708.923	80.002	19.995	103.093	20.163	10.417	0.509
1251.000	709.191	80.002	19.995	103.091	20.159	10.718	0.522
1251.500	709.496	80.003	19.996	103.089	20.162	10.465	0.557
1252.000	709.731	80.005	19.994	103.086	20.163	10.419	0.556
1252.500	710.006	80.004	19.995	103.086	20.164	10.354	0.525
1253.000	710.315	80.004	19.994	103.086	20.163	10.382	0.547
1253.500	710.567	80.004	19.996	103.086	20.164	10.354	0.572
1254.000	710.844	80.004	19.995	103.087	20.162	10.461	0.545
1254.500	711.125	80.003	19.994	103.086	20.163	10.386	0.544
1255.000	711.404	80.005	19.993	103.083	20.163	10.420	0.559
1255.500	711.658	80.003	19.994	103.083	20.162	10.454	0.546
1256.001	711.924	80.004	19.995	103.085	20.163	10.390	0.527
1256.501	712.178	80.005	19.995	103.086	20.163	10.388	0.520
1257.000	712.446	80.004	19.995	103.087	20.159	10.697	0.521
1257.500	712.695	80.004	19.994	103.085	20.160	10.584	0.520
1258.000	712.980	80.004	19.994	103.085	20.161	10.549	0.526
1258.501	713.256	80.002	19.994	103.083	20.158	10.764	0.547
1259.001	713.482	80.004	19.995	103.082	20.161	10.554	0.532
1259.500	713.754	80.003	19.995	103.084	20.158	10.735	0.500
1260.000	714.016	80.004	19.994	103.090	20.161	10.559	0.516
1260.500	714.318	80.005	19.996	103.091	20.162	10.483	0.549
1261.000	714.587	80.003	19.994	103.089	20.161	10.567	0.568
1261.501	714.851	80.004	19.995	103.088	20.161	10.522	0.552
1262.001	715.105	80.003	19.995	103.085	20.160	10.595	0.525
1262.500	715.384	80.003	19.997	103.083	20.159	10.704	0.525
1263.000	715.666	80.001	19.997	103.083	20.157	10.838	0.547
1263.500	715.962	80.002	19.996	103.086	20.161	10.562	0.569
1264.000	716.204	80.002	19.997	103.089	20.163	10.377	0.558
1264.500	716.504	80.002	19.996	103.092	20.159	10.659	0.540
1265.000	716.743	80.002	19.997	103.095	20.160	10.619	0.541
1265.500	717.015	80.001	19.995	103.096	20.160	10.630	0.525
1266.000	717.342	80.002	19.996	103.096	20.158	10.771	0.555
1266.500	717.604	80.002	19.996	103.096	20.160	10.627	0.594
1267.000	717.891	80.002	19.996	103.096	20.158	10.739	0.569
1267.500	718.165	80.003	19.996	103.096	20.158	10.765	0.555
1268.000	718.443	80.000	19.995	103.097	20.156	10.897	0.556
1268.500	718.705	80.002	19.996	103.096	20.161	10.514	0.546
1269.000	718.954	80.000	19.995	103.095	20.159	10.667	0.526
1269.500	719.249	80.001	19.997	103.094	20.157	10.813	0.527
1270.000	719.522	80.001	19.995	103.093	20.158	10.759	0.555
1270.500	719.774	80.002	19.996	103.092	20.157	10.836	0.547
1271.000	720.011	80.001	19.996	103.090	20.160	10.640	0.508
1271.500	720.300	80.001	19.996	103.091	20.161	10.534	0.508
1272.000	720.576	80.002	19.996	103.091	20.161	10.579	0.545
1272.500	720.807	80.003	19.995	103.092	20.162	10.464	0.535
1273.000	721.103	80.001	19.996	103.093	20.162	10.485	0.517
1273.500	721.350	80.001	19.996	103.095	20.161	10.567	0.535
1274.000	721.649	80.001	19.995	103.095	20.158	10.734	0.545
1274.500	721.874	80.001	19.996	103.094	20.159	10.661	0.535
1275.001	722.155	80.001	19.996	103.093	20.161	10.521	0.515
1275.501	722.434	80.001	19.994	103.093	20.158	10.725	0.533
1276.001	722.697	80.001	19.996	103.091	20.161	10.575	0.550
1276.500	722.960	80.002	19.995	103.090	20.160	10.590	0.534
1277.000	723.247	80.001	19.997	103.091	20.157	10.799	0.538
1277.500	723.534	80.002	19.995	103.090	20.159	10.663	0.562
1278.001	723.776	80.003	19.996	103.089	20.159	10.710	0.552
1278.501	724.072	80.002	19.996	103.086	20.158	10.740	0.534
1279.001	724.361	80.002	19.997	103.083	20.157	10.848	0.562
1279.501	724.571	80.002	19.996	103.079	20.157	10.792	0.542
1280.001	724.853	80.003	19.995	103.079	20.164	10.324	0.495
1280.500	725.107	80.001	19.995	103.081	20.163	10.421	0.514
1281.000	725.357	80.003	19.994	103.085	20.162	10.504	0.520
1281.500	725.643	80.002	19.995	103.090	20.162	10.453	0.520
1282.000	725.906	80.003	19.996	103.094	20.159	10.655	0.542
1282.500	726.180	80.002	19.994	103.095	20.165	10.279	0.543
1283.000	726.443	80.002	19.995	103.095	20.163	10.418	0.537
1283.500	726.693	80.002	19.994	103.093	20.161	10.579	0.525
1284.000	726.986	80.002	19.995	103.093	20.162	10.448	0.528
1284.500	727.248	80.001	19.995	103.093	20.161	10.562	0.549
1285.000	727.504	80.003	19.993	103.094	20.157	10.813	0.537
1285.501	727.789	80.002	19.994	103.095	20.160	10.607	0.529
1286.001	728.051	80.002	19.994	103.099	20.162	10.500	0.544
1286.500	728.325	80.002	19.994	103.099	20.159	10.686	0.541
1287.000	728.576	80.003	19.994	103.098	20.160	10.626	0.531
1287.500	728.846	80.003	19.993	103.096	20.161	10.531	0.523
1288.000	729.129	80.002	19.994	103.094	20.159	10.682	0.537
1288.500	729.354	80.003	19.995	103.094	20.163	10.395	0.531
1289.000	729.632	80.003	19.994	103.095	20.162	10.489	0.505
1289.500	729.900	80.002	19.993	103.097	20.157	10.831	0.524
1290.000	730.136	80.003	19.995	103.099	20.160	10.650	0.525
1290.500	730.401	80.001	19.995	103.098	20.158	10.742	0.503
1291.000	730.673	80.002	19.994	103.092	20.163	10.411	0.519
1291.500	730.933	80.002	19.994	103.086	20.159	10.689	0.535
1292.000	731.183	80.001	19.994	103.079	20.159	10.667	0.521
1292.500	731.439	80.003	19.994	103.077	20.160	10.605	0.508
1293.000	731.743	80.001	19.994	103.078	20.161	10.558	0.533
1293.501	731.970	80.001	19.994	103.084	20.159	10.683	0.545
1294.001	732.236	80.002	19.994	103.091	20.160	10.622	0.512
1294.501	732.502	80.001	19.995	103.097	20.159	10.713	0.512
1295.000	732.785	80.002	19.995	103.098	20.161	10.558	0.540
1295.500	733.014	80.002	19.995	103.100	20.157	10.807	0.531
1296.000	733.277	80.001	19.994	103.098	20.160	10.650	0.502
1296.500	733.526	80.002	19.994	103.094	20.161	10.558	0.502
1297.000	733.790	80.001	19.995	103.090	20.160	10.610	0.512
1297.501	734.049	80.001	19.995	103.086	20.161	10.515	0.518
1298.001	734.312	80.001	19.996	103.084	20.160	10.644	0.523
1298.501	734.557	80.001	19.996	103.084	20.157	10.840	0.515
1299.000	734.827	80.002	19.994	103.087	20.156	10.881	0.512
1299.500	735.074	80.001	19.995	103.091	20.157	10.805	0.516
1300.000	735.305	80.000	19.994	103.097	20.158	10.776	0.497
1300.500	735.563	80.000	19.993	103.099	20.161	10.568	0.484
1301.000	735.828	80.001	19.995	103.101	20.157	10.817	0.506
1301.500	736.071	80.001	19.994	103.101	20.160	10.613	0.515
1302.000	736.316	79.999	19.993	103.101	20.158	10.725	0.498
1302.500	736.578	80.001	19.995	103.096	20.157	10.813	0.498
1303.000	736.846	80.001	19.994	103.096	20.161	10.570	0.518
1303.501	737.081	80.001	19.995	103.096	20.160	10.586	0.516
1304.001	737.357	80.002	19.995	103.093	20.162	10.481	0.507
1304.500	737.610	80.000	19.994	103.091	20.161	10.514	0.520
1305.000	737.833	80.000	19.994	103.096	20.159	10.708	0.503
1305.500	738.100	80.001	19.994	103.095	20.161	10.566	0.483
1306.000	738.361	80.001	19.995	103.092	20.160	10.634	0.509
1306.500	738.639	80.002	19.994	103.095	20.160	10.625	0.534
1307.000	738.885	80.002	19.993	103.097	20.161	10.558	0.531
1307.500	739.130	80.002	19.995	103.090	20.164	10.334	0.507
1308.000	739.394	80.002	19.994	103.088	20.160	10.594	0.500
1308.500	739.658	80.002	19.994	103.091	20.160	10.648	0.518
1309.001	739.903	80.003	19.994	103.089	20.160	10.594	0.519
1309.501	740.147	80.001	19.994	103.089	20.160	10.611	0.499
1310.000	740.440	80.002	19.994	103.093	20.165	10.239	0.513
1310.500	740.661	80.004	19.995	103.093	20.156	10.886	0.525
1311.000	740.936	80.002	19.994	103.087	20.159	10.672	0.506
1311.500	741.182	80.003	19.994	103.085	20.159	10.687	0.509
1312.000	741.407	80.002	19.994	103.084	20.159	10.662	0.496
1312.500	741.691	80.004	19.994	103.082	20.159	10.657	0.490
1313.000	741.969	80.003	19.994	103.085	20.158	10.756	0.536
1313.500	742.205	80.004	19.993	103.083	20.158	10.726	0.538
1314.000	742.451	80.004	19.994	103.080	20.155	10.940	0.498
1314.500	742.702	80.003	19.993	103.076	20.157	10.850	0.490
1315.000	743.001	80.003	19.994	103.071	20.158	10.755	0.524
1315.500	743.249	80.005	19.993	103.064	20.158	10.764	0.548
1316.000	743.498	80.002	19.994	103.063	20.159	10.713	0.522
