Sample ID:	C:\MCC\MCC Cal\Test\Basswood_Panel_MCC_30K_min_211117_R2.txt
Sample Weight (mg):	4.78
Heating Rate (C/s):	0.5
Combustor Temp (C):	900
N2 Flow Rate (cc/min):	80
O2 Flow Rate (cc/min):	20
Calibration File:	C:\MCC\MCC Cal\Coeff1 JN10440_30_210304.txt.txt
T Correction Coefficients:	0	1.024463	0
Time Shift (s):	14
*
Time (s)	Temperature (C)	N2 flow rate (cc/min)	O2 flow rate (cc/min)	Flow Rate (cc/min)	Oxygen (%)	HRR (W/g)	Heating rate (C/s)
0.000	108.663	80.002	19.996	103.002	19.894	-0.183	0.006
0.500	108.641	80.001	19.996	103.001	19.889	0.200	-0.018
1.000	108.690	80.002	19.995	103.006	19.892	0.009	0.004
1.500	108.636	80.002	19.995	103.007	19.892	-0.031	0.011
2.000	108.641	80.000	19.996	103.008	19.891	0.015	-0.027
2.500	108.660	80.001	19.996	103.009	19.893	-0.100	-0.012
3.000	108.642	80.001	19.995	103.013	19.892	-0.040	0.013
3.500	108.617	80.001	19.996	103.012	19.895	-0.205	-0.021
4.000	108.645	80.000	19.996	103.014	19.893	-0.111	-0.020
4.500	108.624	80.001	19.995	103.010	19.898	-0.397	0.006
5.000	108.631	80.002	19.995	103.007	19.894	-0.141	-0.003
5.500	108.687	80.004	19.995	103.006	19.889	0.192	0.024
6.000	108.617	80.001	19.994	103.006	19.890	0.098	0.024
6.500	108.646	80.002	19.994	103.004	19.893	-0.056	-0.027
7.000	108.639	80.002	19.995	103.007	19.892	-0.013	-0.009
7.500	108.642	80.000	19.995	103.012	19.895	-0.209	0.008
8.000	108.637	80.002	19.995	103.013	19.893	-0.067	-0.003
8.500	108.634	80.001	19.996	103.010	19.894	-0.187	-0.005
9.000	108.616	80.002	19.994	103.012	19.895	-0.252	-0.014
9.500	108.626	80.001	19.996	103.012	19.894	-0.132	-0.014
10.000	108.596	80.001	19.995	103.009	19.894	-0.134	-0.014
10.500	108.598	80.001	19.995	103.011	19.895	-0.229	-0.024
11.000	108.604	80.002	19.995	103.016	19.892	-0.045	-0.010
11.500	108.609	80.001	19.996	103.018	19.894	-0.178	0.010
12.000	108.593	80.002	19.994	103.021	19.895	-0.207	0.000
12.500	108.575	80.003	19.995	103.022	19.893	-0.094	-0.022
13.000	108.610	80.001	19.996	103.021	19.894	-0.174	-0.009
13.501	108.560	80.001	19.995	103.020	19.894	-0.158	0.001
14.001	108.612	80.003	19.995	103.017	19.891	0.031	-0.006
14.500	108.614	80.001	19.995	103.009	19.895	-0.251	0.028
15.000	108.604	80.002	19.995	103.010	19.891	0.031	0.023
15.500	108.609	80.003	19.994	103.011	19.894	-0.151	-0.007
16.000	108.595	80.002	19.995	103.012	19.892	-0.005	-0.007
16.500	108.584	80.000	19.996	103.015	19.895	-0.216	-0.017
17.000	108.602	80.002	19.995	103.023	19.894	-0.149	-0.009
17.500	108.586	80.002	19.995	103.023	19.894	-0.151	0.005
18.000	108.594	80.000	19.995	103.021	19.893	-0.073	-0.003
18.500	108.587	80.002	19.994	103.022	19.891	0.078	-0.004
19.000	108.571	80.002	19.995	103.025	19.891	0.044	-0.011
19.500	108.566	80.003	19.995	103.028	19.891	0.016	-0.022
20.000	108.550	80.003	19.995	103.030	19.889	0.209	-0.021
20.500	108.573	80.003	19.994	103.031	19.891	0.020	-0.007
21.000	108.570	80.002	19.995	103.035	19.889	0.191	0.014
21.500	108.579	80.003	19.995	103.041	19.888	0.278	0.013
22.000	108.589	80.003	19.995	103.051	19.889	0.165	0.012
22.500	108.581	80.002	19.995	103.065	19.887	0.285	0.011
23.000	108.635	80.002	19.996	103.079	19.889	0.149	0.025
23.500	108.613	80.004	19.994	103.090	19.886	0.378	0.039
24.000	108.649	80.002	19.994	103.095	19.886	0.362	0.023
24.500	108.612	80.003	19.995	103.097	19.885	0.443	0.006
25.000	108.607	80.002	19.995	103.098	19.887	0.285	-0.022
25.500	108.659	80.003	19.997	103.103	19.883	0.572	0.002
26.000	108.691	80.002	19.995	103.109	19.879	0.887	0.065
26.500	108.702	80.001	19.996	103.112	19.878	0.927	0.064
27.000	108.681	80.001	19.995	103.113	19.879	0.832	0.017
27.500	108.697	80.002	19.995	103.119	19.878	0.936	-0.007
28.000	108.742	80.003	19.995	103.121	19.877	0.972	0.028
28.500	108.764	80.001	19.995	103.120	19.878	0.949	0.064
29.000	108.775	80.003	19.995	103.125	19.874	1.167	0.050
29.500	108.793	80.002	19.996	103.132	19.873	1.260	0.031
30.000	108.821	80.002	19.996	103.133	19.876	1.054	0.038
30.500	108.867	80.002	19.995	103.142	19.871	1.420	0.060
31.000	108.849	80.002	19.996	103.155	19.872	1.353	0.051
31.500	108.926	80.001	19.996	103.163	19.867	1.651	0.043
32.000	108.935	80.002	19.995	103.170	19.870	1.442	0.073
32.500	108.958	80.002	19.994	103.177	19.867	1.671	0.059
33.000	109.006	80.001	19.996	103.178	19.868	1.611	0.052
33.500	109.063	80.002	19.996	103.178	19.866	1.709	0.088
34.000	109.105	80.002	19.996	103.179	19.864	1.873	0.102
34.500	109.162	80.001	19.995	103.180	19.865	1.809	0.099
35.000	109.173	80.000	19.995	103.181	19.864	1.860	0.084
35.500	109.249	80.002	19.994	103.182	19.865	1.815	0.078
36.000	109.280	80.002	19.993	103.182	19.864	1.887	0.097
36.500	109.354	80.001	19.995	103.182	19.864	1.886	0.106
37.000	109.381	80.001	19.995	103.183	19.862	2.008	0.103
37.501	109.455	80.002	19.995	103.187	19.862	1.989	0.101
38.001	109.480	80.001	19.995	103.193	19.861	2.069	0.100
38.501	109.550	80.002	19.995	103.199	19.860	2.169	0.097
39.001	109.592	80.002	19.994	103.203	19.860	2.117	0.103
39.500	109.654	80.003	19.994	103.210	19.857	2.340	0.108
40.000	109.747	80.002	19.994	103.214	19.858	2.295	0.130
40.500	109.763	80.003	19.994	103.217	19.857	2.366	0.132
41.000	109.888	80.003	19.995	103.220	19.855	2.464	0.125
41.500	109.938	80.002	19.995	103.229	19.853	2.577	0.158
42.000	110.003	80.002	19.995	103.235	19.851	2.728	0.145
42.501	110.098	80.004	19.995	103.236	19.855	2.464	0.138
43.001	110.144	80.003	19.996	103.238	19.857	2.353	0.151
43.501	110.247	80.003	19.995	103.238	19.854	2.519	0.145
44.001	110.294	80.004	19.994	103.238	19.854	2.559	0.149
44.500	110.380	80.003	19.994	103.238	19.850	2.839	0.142
45.000	110.438	80.005	19.995	103.241	19.852	2.684	0.138
45.500	110.545	80.004	19.994	103.242	19.853	2.611	0.154
46.000	110.629	80.004	19.995	103.245	19.851	2.713	0.178
46.500	110.690	80.004	19.994	103.249	19.848	2.957	0.168
47.000	110.795	80.003	19.994	103.251	19.849	2.873	0.156
47.500	110.903	80.003	19.994	103.254	19.847	2.995	0.190
48.000	110.994	80.003	19.996	103.259	19.851	2.770	0.206
48.500	111.114	80.003	19.994	103.261	19.849	2.884	0.205
49.000	111.232	80.003	19.996	103.262	19.850	2.833	0.224
49.500	111.327	80.005	19.996	103.262	19.847	3.039	0.226
50.000	111.409	80.003	19.997	103.263	19.844	3.241	0.195
50.500	111.518	80.003	19.995	103.263	19.843	3.310	0.184
51.000	111.639	80.003	19.996	103.264	19.847	3.019	0.210
51.500	111.747	80.003	19.995	103.264	19.842	3.332	0.230
52.000	111.871	80.002	19.995	103.264	19.848	2.935	0.231
52.500	111.974	80.002	19.995	103.264	19.847	3.026	0.230
53.000	112.075	80.003	19.995	103.266	19.849	2.884	0.215
53.500	112.177	80.003	19.995	103.266	19.846	3.072	0.203
54.000	112.310	80.002	19.995	103.266	19.845	3.157	0.219
54.501	112.406	80.003	19.994	103.266	19.847	3.042	0.232
55.001	112.540	80.002	19.995	103.265	19.846	3.104	0.229
55.500	112.632	80.002	19.995	103.263	19.845	3.179	0.228
56.000	112.770	80.003	19.995	103.262	19.843	3.264	0.228
56.500	112.896	80.002	19.994	103.266	19.845	3.168	0.247
57.000	113.029	80.003	19.995	103.267	19.845	3.181	0.262
57.500	113.149	80.001	19.995	103.269	19.843	3.306	0.256
58.000	113.297	80.003	19.994	103.270	19.843	3.270	0.260
58.501	113.440	80.002	19.994	103.270	19.845	3.155	0.280
59.001	113.581	80.002	19.995	103.268	19.846	3.050	0.288
59.500	113.731	80.002	19.995	103.270	19.844	3.244	0.288
60.000	113.869	80.001	19.995	103.268	19.842	3.333	0.289
60.500	113.991	80.003	19.995	103.268	19.844	3.233	0.274
61.000	114.124	80.003	19.995	103.268	19.844	3.215	0.258
61.500	114.299	80.002	19.995	103.268	19.846	3.108	0.282
62.000	114.419	80.003	19.994	103.268	19.844	3.195	0.301
62.500	114.551	80.003	19.995	103.271	19.845	3.137	0.274
63.001	114.740	80.003	19.996	103.274	19.846	3.066	0.287
63.501	114.853	80.003	19.994	103.276	19.846	3.068	0.311
64.000	115.005	80.003	19.995	103.274	19.846	3.053	0.284
64.500	115.134	80.003	19.994	103.272	19.844	3.209	0.273
65.000	115.300	80.004	19.995	103.270	19.847	3.020	0.288
65.500	115.492	80.003	19.994	103.265	19.844	3.242	0.326
66.000	115.612	80.005	19.996	103.263	19.848	2.962	0.335
66.500	115.760	80.005	19.995	103.263	19.848	2.939	0.290
67.000	115.948	80.002	19.995	103.265	19.845	3.128	0.302
67.500	116.096	80.004	19.995	103.266	19.847	2.982	0.336
68.000	116.228	80.005	19.995	103.271	19.845	3.144	0.308
68.500	116.402	80.004	19.995	103.272	19.846	3.072	0.293
69.000	116.589	80.005	19.995	103.272	19.845	3.130	0.333
69.501	116.763	80.004	19.994	103.269	19.847	2.997	0.360
70.001	116.927	80.005	19.995	103.266	19.849	2.866	0.349
70.500	117.098	80.005	19.994	103.260	19.847	2.995	0.337
71.000	117.241	80.005	19.995	103.259	19.844	3.197	0.325
71.500	117.432	80.006	19.995	103.258	19.845	3.140	0.324
72.000	117.629	80.006	19.996	103.259	19.847	3.035	0.361
72.500	117.780	80.004	19.994	103.259	19.846	3.091	0.368
73.000	117.951	80.005	19.995	103.260	19.844	3.242	0.335
73.500	118.117	80.006	19.996	103.260	19.847	3.044	0.330
74.000	118.288	80.005	19.995	103.260	19.848	2.944	0.337
74.500	118.477	80.005	19.994	103.260	19.849	2.890	0.348
75.000	118.658	80.005	19.994	103.260	19.846	3.060	0.365
75.500	118.822	80.004	19.995	103.260	19.848	2.920	0.357
76.000	118.992	80.005	19.996	103.262	19.847	3.002	0.339
76.500	119.169	80.005	19.995	103.263	19.846	3.077	0.341
77.000	119.360	80.005	19.995	103.263	19.847	3.002	0.358
77.500	119.554	80.005	19.995	103.264	19.845	3.120	0.377
78.000	119.747	80.003	19.994	103.267	19.847	3.006	0.386
78.500	119.904	80.004	19.995	103.265	19.846	3.097	0.369
79.000	120.086	80.004	19.995	103.266	19.846	3.053	0.344
79.500	120.294	80.002	19.995	103.270	19.846	3.104	0.364
80.000	120.487	80.004	19.996	103.273	19.848	2.919	0.396
80.500	120.644	80.002	19.995	103.269	19.846	3.112	0.376
81.000	120.810	80.002	19.994	103.268	19.844	3.222	0.337
81.501	121.034	80.002	19.995	103.266	19.844	3.201	0.356
82.001	121.212	80.001	19.996	103.262	19.844	3.222	0.396
82.500	121.385	80.003	19.996	103.259	19.846	3.073	0.376
83.000	121.629	80.001	19.996	103.260	19.845	3.171	0.384
83.500	121.771	80.002	19.995	103.262	19.845	3.117	0.402
84.000	122.014	80.001	19.995	103.262	19.844	3.222	0.386
84.500	122.180	80.003	19.997	103.262	19.844	3.191	0.397
85.000	122.396	80.001	19.996	103.262	19.842	3.350	0.395
85.500	122.581	80.002	19.997	103.261	19.844	3.239	0.391
86.000	122.764	80.002	19.997	103.259	19.844	3.224	0.384
86.501	122.945	80.001	19.995	103.258	19.844	3.210	0.366
87.001	123.207	80.002	19.997	103.257	19.844	3.208	0.404
87.501	123.327	80.002	19.996	103.258	19.844	3.200	0.413
88.000	123.571	80.001	19.996	103.258	19.844	3.217	0.373
88.500	123.743	80.002	19.996	103.260	19.845	3.152	0.390
89.000	123.956	80.001	19.996	103.261	19.845	3.181	0.401
89.500	124.146	80.003	19.996	103.265	19.847	2.994	0.394
90.000	124.343	80.001	19.996	103.269	19.845	3.172	0.395
90.500	124.542	80.001	19.995	103.272	19.847	3.026	0.392
91.000	124.753	80.002	19.996	103.272	19.842	3.326	0.403
91.500	124.952	80.001	19.995	103.271	19.844	3.212	0.409
92.000	125.183	80.002	19.996	103.267	19.846	3.084	0.420
92.500	125.387	80.001	19.996	103.263	19.847	3.035	0.433
93.001	125.593	80.003	19.996	103.262	19.847	3.001	0.423
93.501	125.809	80.001	19.996	103.261	19.847	3.022	0.416
94.001	125.983	80.002	19.995	103.262	19.846	3.092	0.406
94.501	126.199	80.003	19.997	103.262	19.842	3.346	0.390
95.000	126.394	80.001	19.996	103.262	19.844	3.241	0.400
95.500	126.585	80.003	19.995	103.262	19.844	3.232	0.398
96.000	126.777	80.002	19.996	103.262	19.845	3.141	0.384
96.500	127.005	80.002	19.995	103.262	19.843	3.286	0.401
97.000	127.245	80.002	19.996	103.262	19.844	3.230	0.444
97.500	127.432	80.003	19.995	103.262	19.845	3.159	0.448
98.001	127.636	80.003	19.995	103.261	19.844	3.237	0.410
98.501	127.877	80.003	19.994	103.262	19.845	3.170	0.418
99.000	128.070	80.004	19.995	103.268	19.847	2.990	0.439
99.500	128.268	80.002	19.996	103.273	19.845	3.179	0.413
100.001	128.504	80.003	19.995	103.275	19.843	3.292	0.413
100.501	128.728	80.003	19.995	103.277	19.846	3.084	0.447
101.000	128.930	80.003	19.996	103.276	19.844	3.204	0.443
101.500	129.180	80.002	19.994	103.271	19.846	3.097	0.439
102.000	129.361	80.002	19.995	103.270	19.841	3.392	0.442
102.500	129.578	80.002	19.996	103.269	19.845	3.177	0.414
103.001	129.817	80.002	19.995	103.268	19.842	3.373	0.427
103.501	130.012	80.002	19.995	103.268	19.844	3.217	0.445
104.000	130.242	80.004	19.995	103.269	19.842	3.342	0.429
104.500	130.454	80.003	19.994	103.268	19.845	3.179	0.433
105.000	130.689	80.001	19.995	103.267	19.848	2.926	0.444
105.500	130.900	80.004	19.995	103.270	19.844	3.208	0.447
106.001	131.138	80.003	19.994	103.270	19.846	3.050	0.448
106.501	131.360	80.003	19.995	103.269	19.845	3.143	0.455
107.000	131.542	80.002	19.995	103.270	19.845	3.115	0.432
107.500	131.771	80.002	19.994	103.274	19.844	3.226	0.408
108.000	131.997	80.004	19.995	103.272	19.847	3.037	0.433
108.500	132.210	80.001	19.995	103.271	19.845	3.117	0.447
109.000	132.452	80.003	19.996	103.271	19.848	2.963	0.447
109.501	132.658	80.002	19.995	103.268	19.847	3.036	0.452
110.001	132.885	80.003	19.995	103.264	19.844	3.219	0.441
110.501	133.088	80.003	19.995	103.265	19.843	3.256	0.432
111.001	133.330	80.000	19.994	103.268	19.844	3.232	0.437
111.500	133.563	80.002	19.996	103.270	19.843	3.273	0.460
112.000	133.808	80.003	19.996	103.270	19.848	2.977	0.476
112.500	134.002	80.003	19.995	103.270	19.842	3.355	0.458
113.000	134.251	80.002	19.994	103.268	19.844	3.219	0.441
113.500	134.488	80.002	19.995	103.265	19.843	3.293	0.465
114.000	134.704	80.003	19.995	103.263	19.843	3.281	0.470
114.500	134.916	80.001	19.995	103.264	19.844	3.244	0.440
115.000	135.172	80.003	19.996	103.266	19.843	3.272	0.448
115.500	135.407	80.002	19.994	103.272	19.842	3.355	0.479
116.001	135.593	80.002	19.996	103.272	19.842	3.382	0.456
116.501	135.823	80.003	19.995	103.273	19.842	3.324	0.419
117.001	136.040	80.002	19.994	103.272	19.844	3.199	0.432
117.501	136.296	80.002	19.995	103.270	19.842	3.366	0.459
118.000	136.500	80.001	19.995	103.266	19.844	3.222	0.466
118.500	136.754	80.002	19.995	103.268	19.843	3.262	0.459
119.000	137.009	80.002	19.994	103.272	19.843	3.306	0.484
119.500	137.222	80.002	19.994	103.279	19.842	3.348	0.488
120.000	137.470	80.002	19.995	103.282	19.846	3.090	0.464
120.500	137.700	80.002	19.994	103.284	19.844	3.228	0.469
121.000	137.960	80.002	19.996	103.283	19.839	3.562	0.484
121.500	138.166	80.002	19.995	103.278	19.841	3.406	0.478
122.001	138.361	80.003	19.994	103.271	19.839	3.564	0.434
122.501	138.633	80.003	19.995	103.268	19.840	3.499	0.434
123.000	138.846	80.003	19.994	103.264	19.840	3.511	0.476
123.501	139.085	80.003	19.995	103.265	19.840	3.488	0.469
124.001	139.306	80.003	19.995	103.266	19.842	3.377	0.456
124.501	139.550	80.002	19.994	103.266	19.840	3.486	0.462
125.000	139.798	80.004	19.994	103.268	19.841	3.430	0.479
125.500	140.022	80.003	19.994	103.268	19.843	3.273	0.482
126.000	140.246	80.004	19.994	103.268	19.842	3.350	0.460
126.500	140.445	80.005	19.994	103.268	19.843	3.310	0.436
127.000	140.699	80.005	19.994	103.267	19.843	3.300	0.438
127.500	140.944	80.005	19.994	103.266	19.841	3.413	0.476
128.000	141.165	80.003	19.995	103.265	19.841	3.426	0.482
128.500	141.436	80.004	19.996	103.264	19.844	3.197	0.479
129.001	141.649	80.004	19.995	103.263	19.842	3.366	0.488
129.501	141.858	80.005	19.996	103.263	19.845	3.175	0.453
130.000	142.121	80.003	19.995	103.263	19.837	3.664	0.447
130.500	142.324	80.005	19.994	103.263	19.842	3.381	0.469
131.000	142.600	80.004	19.995	103.263	19.841	3.390	0.472
131.500	142.818	80.004	19.994	103.264	19.842	3.380	0.486
132.000	143.072	80.005	19.994	103.264	19.842	3.355	0.483
132.501	143.305	80.004	19.996	103.263	19.844	3.191	0.480
133.000	143.553	80.005	19.995	103.262	19.841	3.430	0.484
133.500	143.778	80.005	19.994	103.263	19.844	3.211	0.477
134.000	144.076	80.004	19.994	103.261	19.843	3.284	0.498
134.500	144.235	80.006	19.994	103.262	19.840	3.481	0.490
135.000	144.525	80.004	19.995	103.262	19.843	3.270	0.453
135.500	144.735	80.003	19.995	103.262	19.843	3.281	0.475
136.000	145.005	80.004	19.995	103.261	19.843	3.262	0.490
136.500	145.222	80.003	19.994	103.261	19.843	3.297	0.484
137.000	145.466	80.003	19.995	103.260	19.843	3.306	0.474
137.500	145.681	80.004	19.994	103.260	19.842	3.340	0.460
138.000	145.929	80.004	19.995	103.260	19.842	3.328	0.461
138.500	146.188	80.003	19.995	103.260	19.842	3.360	0.485
139.000	146.417	80.003	19.994	103.259	19.842	3.357	0.498
139.500	146.667	80.004	19.994	103.259	19.841	3.428	0.484
140.000	146.913	80.002	19.996	103.261	19.843	3.297	0.488
140.500	147.148	80.003	19.995	103.262	19.843	3.304	0.488
141.000	147.406	80.003	19.995	103.263	19.840	3.453	0.487
141.500	147.594	80.003	19.995	103.263	19.840	3.511	0.469
142.000	147.850	80.004	19.994	103.263	19.839	3.531	0.445
142.500	148.097	80.003	19.995	103.262	19.840	3.460	0.473
143.000	148.363	80.003	19.995	103.260	19.840	3.511	0.508
143.500	148.607	80.002	19.995	103.259	19.842	3.319	0.512
144.000	148.804	80.004	19.995	103.260	19.839	3.542	0.476
144.500	149.104	80.004	19.995	103.259	19.839	3.528	0.469
145.000	149.335	80.003	19.995	103.260	19.842	3.379	0.514
145.500	149.543	80.004	19.995	103.262	19.841	3.419	0.485
146.000	149.813	80.002	19.995	103.263	19.837	3.673	0.459
146.500	150.076	80.004	19.995	103.263	19.839	3.566	0.506
147.000	150.308	80.004	19.995	103.263	19.837	3.711	0.514
147.500	150.543	80.003	19.996	103.262	19.840	3.455	0.481
148.000	150.795	80.003	19.995	103.260	19.841	3.437	0.476
148.500	151.004	80.003	19.996	103.260	19.839	3.580	0.474
149.000	151.276	80.004	19.994	103.259	19.836	3.766	0.472
149.500	151.493	80.005	19.995	103.259	19.839	3.562	0.485
150.000	151.751	80.005	19.995	103.259	19.839	3.557	0.482
150.500	152.018	80.003	19.995	103.258	19.839	3.529	0.501
151.000	152.261	80.005	19.995	103.258	19.839	3.566	0.517
151.500	152.506	80.004	19.995	103.257	19.837	3.657	0.498
152.000	152.729	80.004	19.995	103.256	19.838	3.635	0.478
152.500	152.968	80.005	19.995	103.256	19.835	3.815	0.465
153.000	153.251	80.004	19.995	103.256	19.837	3.673	0.492
153.500	153.434	80.005	19.996	103.256	19.839	3.562	0.494
154.000	153.687	80.005	19.995	103.257	19.839	3.522	0.451
154.500	153.933	80.004	19.995	103.258	19.839	3.562	0.468
155.000	154.113	80.004	19.995	103.257	19.838	3.613	0.463
155.500	154.390	80.004	19.996	103.257	19.841	3.428	0.441
156.000	154.644	80.006	19.995	103.257	19.837	3.655	0.494
156.500	154.862	80.004	19.995	103.256	19.837	3.699	0.502
157.000	155.116	80.003	19.995	103.256	19.836	3.728	0.473
157.500	155.363	80.004	19.995	103.256	19.837	3.693	0.486
158.000	155.617	80.004	19.995	103.256	19.838	3.637	0.501
158.500	155.860	80.005	19.995	103.255	19.836	3.742	0.499
159.000	156.085	80.005	19.995	103.255	19.837	3.715	0.482
159.500	156.347	80.004	19.995	103.255	19.839	3.555	0.477
160.000	156.549	80.003	19.995	103.256	19.837	3.691	0.476
160.500	156.840	80.003	19.995	103.256	19.837	3.669	0.479
161.000	157.057	80.003	19.995	103.257	19.838	3.638	0.500
161.500	157.306	80.004	19.995	103.258	19.837	3.660	0.487
162.000	157.550	80.003	19.995	103.258	19.836	3.742	0.480
162.500	157.792	80.003	19.996	103.258	19.839	3.534	0.489
163.000	158.042	80.002	19.994	103.258	19.838	3.589	0.489
163.500	158.296	80.003	19.995	103.257	19.839	3.555	0.498
164.000	158.547	80.002	19.995	103.256	19.841	3.434	0.505
164.500	158.765	80.001	19.996	103.257	19.839	3.531	0.487
165.000	159.010	80.001	19.996	103.257	19.839	3.524	0.466
165.500	159.263	80.001	19.995	103.258	19.837	3.714	0.480
166.000	159.500	80.001	19.995	103.259	19.839	3.572	0.494
166.500	159.757	80.002	19.995	103.259	19.841	3.431	0.492
167.000	159.993	80.002	19.996	103.259	19.839	3.574	0.493
167.500	160.265	80.002	19.994	103.259	19.839	3.567	0.500
168.000	160.527	80.002	19.995	103.260	19.839	3.583	0.521
168.500	160.745	80.002	19.997	103.261	19.839	3.534	0.507
169.000	161.015	80.002	19.996	103.259	19.840	3.491	0.484
169.500	161.270	80.003	19.996	103.258	19.840	3.501	0.507
170.000	161.497	80.002	19.995	103.258	19.841	3.418	0.504
170.500	161.757	80.003	19.995	103.254	19.842	3.368	0.484
171.000	161.966	80.002	19.995	103.248	19.838	3.616	0.478
171.500	162.187	80.002	19.996	103.245	19.840	3.499	0.449
172.000	162.478	80.002	19.995	103.240	19.839	3.583	0.471
172.500	162.739	80.001	19.995	103.239	19.836	3.738	0.532
173.000	162.950	80.001	19.995	103.240	19.837	3.696	0.513
173.500	163.172	80.002	19.996	103.239	19.837	3.680	0.453
174.000	163.473	80.002	19.996	103.243	19.837	3.667	0.478
174.500	163.721	80.003	19.996	103.246	19.836	3.780	0.536
175.000	163.953	80.002	19.996	103.244	19.835	3.829	0.515
175.500	164.209	80.002	19.997	103.243	19.837	3.696	0.484
176.000	164.458	80.002	19.995	103.246	19.838	3.623	0.497
176.500	164.723	80.001	19.997	103.243	19.834	3.863	0.509
177.000	164.992	80.003	19.996	103.239	19.837	3.688	0.524
177.500	165.277	80.000	19.995	103.239	19.839	3.572	0.545
178.000	165.486	80.002	19.996	103.240	19.837	3.717	0.524
178.500	165.765	80.002	19.996	103.240	19.839	3.519	0.491
179.000	165.985	80.001	19.996	103.238	19.838	3.625	0.493
179.500	166.200	80.003	19.996	103.237	19.836	3.734	0.467
180.000	166.491	80.001	19.997	103.239	19.839	3.576	0.471
180.500	166.699	80.003	19.996	103.233	19.837	3.680	0.503
181.000	166.941	80.001	19.996	103.228	19.836	3.776	0.475
181.500	167.211	80.001	19.997	103.228	19.841	3.436	0.481
182.000	167.471	80.001	19.996	103.229	19.839	3.543	0.521
182.500	167.700	80.002	19.997	103.228	19.840	3.501	0.509
183.000	167.977	80.001	19.996	103.231	19.836	3.752	0.497
183.500	168.193	80.001	19.997	103.233	19.840	3.516	0.499
184.000	168.454	80.003	19.997	103.235	19.838	3.591	0.485
184.500	168.722	80.001	19.995	103.240	19.840	3.514	0.503
185.000	168.960	80.001	19.996	103.245	19.841	3.447	0.518
185.500	169.173	80.002	19.997	103.247	19.839	3.561	0.478
186.000	169.454	80.001	19.996	103.246	19.839	3.581	0.472
186.501	169.642	80.001	19.996	103.244	19.837	3.669	0.482
187.000	169.896	80.001	19.995	103.237	19.839	3.583	0.456
187.500	170.136	80.001	19.996	103.232	19.839	3.518	0.468
188.000	170.413	80.003	19.995	103.229	19.836	3.723	0.505
188.500	170.646	80.000	19.996	103.229	19.836	3.752	0.514
189.000	170.910	80.002	19.995	103.228	19.840	3.510	0.503
189.500	171.141	80.001	19.995	103.227	19.837	3.712	0.496
190.000	171.422	80.001	19.996	103.225	19.838	3.598	0.504
190.500	171.642	80.002	19.995	103.226	19.838	3.590	0.507
191.000	171.888	80.002	19.995	103.233	19.837	3.667	0.483
191.500	172.125	80.003	19.995	103.235	19.837	3.696	0.475
192.000	172.378	80.002	19.995	103.236	19.836	3.763	0.487
192.500	172.611	80.002	19.995	103.236	19.835	3.819	0.488
193.000	172.880	80.002	19.995	103.233	19.836	3.734	0.494
193.500	173.151	80.002	19.995	103.228	19.833	3.937	0.521
194.000	173.364	80.003	19.995	103.232	19.836	3.772	0.512
194.500	173.625	80.003	19.994	103.234	19.832	4.032	0.479
195.000	173.868	80.002	19.996	103.235	19.837	3.705	0.489
195.500	174.115	80.003	19.995	103.239	19.836	3.757	0.497
196.000	174.389	80.002	19.995	103.239	19.836	3.745	0.505
196.500	174.599	80.002	19.994	103.234	19.837	3.686	0.503
197.000	174.849	80.001	19.996	103.232	19.835	3.817	0.472
197.500	175.122	80.003	19.995	103.233	19.836	3.757	0.491
198.000	175.365	80.002	19.994	103.229	19.835	3.790	0.520
198.500	175.601	80.003	19.994	103.228	19.837	3.714	0.498
199.000	175.810	80.002	19.994	103.229	19.835	3.839	0.462
199.500	176.047	80.002	19.994	103.229	19.837	3.712	0.445
200.000	176.302	80.002	19.996	103.229	19.835	3.839	0.469
200.500	176.622	80.002	19.994	103.230	19.836	3.781	0.534
201.000	176.795	80.002	19.994	103.231	19.835	3.825	0.534
201.500	177.054	80.003	19.995	103.231	19.835	3.845	0.463
202.000	177.276	80.002	19.995	103.232	19.833	3.952	0.456
202.500	177.549	80.003	19.996	103.235	19.834	3.863	0.488
203.000	177.793	80.002	19.995	103.233	19.836	3.764	0.506
203.500	178.012	80.003	19.994	103.230	19.835	3.828	0.490
204.000	178.296	80.002	19.995	103.228	19.836	3.764	0.483
204.500	178.497	80.002	19.995	103.226	19.836	3.743	0.494
205.000	178.755	80.003	19.994	103.222	19.833	3.937	0.472
205.500	179.010	80.004	19.995	103.222	19.836	3.784	0.486
206.000	179.238	80.003	19.995	103.222	19.834	3.903	0.498
206.500	179.498	80.002	19.995	103.223	19.833	3.979	0.486
207.000	179.741	80.002	19.995	103.223	19.831	4.113	0.495
207.500	179.961	80.003	19.994	103.222	19.836	3.774	0.483
208.000	180.212	80.003	19.995	103.223	19.836	3.732	0.467
208.500	180.487	80.004	19.995	103.222	19.835	3.814	0.498
209.000	180.741	80.003	19.995	103.220	19.836	3.772	0.527
209.500	180.965	80.003	19.994	103.220	19.833	3.950	0.504
210.000	181.211	80.004	19.995	103.224	19.834	3.866	0.474
210.500	181.466	80.004	19.996	103.226	19.833	3.974	0.485
211.000	181.726	80.003	19.995	103.230	19.835	3.832	0.508
211.500	181.960	80.004	19.994	103.234	19.837	3.714	0.505
212.000	182.222	80.004	19.996	103.236	19.836	3.739	0.495
212.500	182.451	80.003	19.995	103.231	19.833	3.932	0.493
213.000	182.692	80.004	19.995	103.228	19.835	3.814	0.481
213.500	182.954	80.003	19.995	103.225	19.836	3.766	0.487
214.000	183.165	80.003	19.995	103.220	19.832	3.999	0.488
214.500	183.445	80.004	19.995	103.219	19.834	3.855	0.482
215.000	183.656	80.004	19.995	103.220	19.834	3.901	0.491
215.500	183.920	80.004	19.995	103.220	19.834	3.892	0.483
216.000	184.112	80.004	19.994	103.220	19.832	4.033	0.465
216.500	184.413	80.004	19.994	103.220	19.830	4.179	0.474
217.000	184.645	80.003	19.995	103.220	19.833	3.930	0.513
217.500	184.878	80.002	19.995	103.219	19.832	4.021	0.499
218.000	185.122	80.003	19.995	103.219	19.834	3.864	0.471
218.500	185.378	80.003	19.995	103.219	19.836	3.768	0.488
219.000	185.623	80.004	19.995	103.220	19.834	3.884	0.501
219.500	185.903	80.003	19.995	103.220	19.833	3.944	0.513
220.000	186.143	80.004	19.995	103.220	19.830	4.166	0.523
220.500	186.389	80.002	19.995	103.222	19.831	4.068	0.503
221.000	186.639	80.003	19.995	103.222	19.831	4.090	0.491
221.500	186.869	80.003	19.996	103.223	19.830	4.130	0.488
222.000	187.129	80.003	19.995	103.222	19.832	4.017	0.485
222.500	187.366	80.003	19.995	103.222	19.835	3.817	0.494
223.000	187.620	80.003	19.995	103.220	19.829	4.208	0.494
223.500	187.882	80.002	19.996	103.220	19.832	3.997	0.503
224.000	188.137	80.003	19.996	103.220	19.834	3.921	0.516
224.500	188.385	80.003	19.995	103.220	19.834	3.857	0.510
225.000	188.624	80.003	19.996	103.219	19.833	3.955	0.495
225.500	188.865	80.004	19.995	103.220	19.829	4.199	0.483
226.000	189.065	80.003	19.995	103.219	19.831	4.114	0.461
226.500	189.319	80.003	19.995	103.219	19.830	4.170	0.447
227.000	189.581	80.002	19.995	103.220	19.830	4.128	0.485
227.500	189.823	80.003	19.994	103.219	19.831	4.106	0.510
228.000	190.068	80.003	19.995	103.220	19.829	4.192	0.495
228.500	190.300	80.003	19.996	103.220	19.828	4.279	0.482
229.000	190.560	80.004	19.994	103.220	19.827	4.363	0.485
229.500	190.794	80.004	19.996	103.220	19.829	4.197	0.493
230.000	191.073	80.003	19.995	103.220	19.827	4.392	0.503
230.500	191.307	80.004	19.994	103.221	19.830	4.183	0.513
231.000	191.532	80.003	19.994	103.221	19.827	4.379	0.486
231.500	191.792	80.004	19.994	103.221	19.826	4.410	0.473
232.000	192.036	80.002	19.994	103.222	19.829	4.239	0.495
232.500	192.260	80.004	19.994	103.222	19.826	4.437	0.486
233.000	192.526	80.005	19.994	103.222	19.827	4.384	0.479
233.500	192.750	80.007	19.994	103.222	19.829	4.212	0.490
234.000	192.997	80.005	19.994	103.222	19.828	4.304	0.480
234.500	193.240	80.004	19.995	103.221	19.827	4.339	0.481
235.000	193.521	80.002	19.994	103.222	19.828	4.299	0.507
235.500	193.721	80.004	19.996	103.222	19.831	4.061	0.503
236.000	193.982	80.005	19.996	103.222	19.830	4.159	0.471
236.500	194.225	80.004	19.996	103.223	19.830	4.146	0.483
237.000	194.474	80.004	19.994	103.223	19.827	4.328	0.498
237.500	194.690	80.005	19.995	103.223	19.831	4.097	0.478
238.000	194.964	80.004	19.995	103.223	19.828	4.294	0.477
238.500	195.202	80.005	19.996	103.223	19.825	4.524	0.501
239.000	195.437	80.004	19.995	103.222	19.828	4.277	0.493
239.500	195.702	80.004	19.994	103.221	19.826	4.457	0.486
240.000	195.912	80.004	19.996	103.221	19.827	4.344	0.487
240.500	196.152	80.004	19.994	103.221	19.828	4.308	0.462
241.000	196.407	80.003	19.996	103.220	19.827	4.339	0.472
241.500	196.648	80.003	19.995	103.220	19.827	4.384	0.496
242.000	196.852	80.003	19.995	103.221	19.824	4.572	0.470
242.500	197.125	80.002	19.995	103.221	19.824	4.581	0.461
243.000	197.365	80.002	19.996	103.221	19.826	4.437	0.495
243.500	197.606	80.003	19.997	103.221	19.825	4.504	0.497
244.000	197.861	80.000	19.995	103.221	19.829	4.237	0.488
244.500	198.079	80.000	19.996	103.221	19.824	4.552	0.485
245.000	198.345	80.002	19.994	103.222	19.825	4.468	0.479
245.500	198.585	79.999	19.995	103.222	19.823	4.599	0.495
246.000	198.829	80.002	19.995	103.223	19.824	4.584	0.495
246.501	199.070	80.000	19.995	103.223	19.825	4.503	0.484
247.001	199.348	80.002	19.995	103.225	19.824	4.534	0.502
247.501	199.569	80.001	19.997	103.225	19.822	4.706	0.509
248.000	199.820	80.002	19.996	103.225	19.824	4.554	0.486
248.500	200.101	80.001	19.996	103.224	19.824	4.566	0.502
249.000	200.289	80.001	19.995	103.224	19.823	4.641	0.500
249.500	200.542	80.001	19.996	103.223	19.823	4.614	0.455
250.000	200.829	80.002	19.996	103.223	19.823	4.624	0.490
250.500	201.080	80.001	19.995	103.223	19.820	4.801	0.539
251.000	201.308	80.002	19.995	103.223	19.823	4.606	0.508
251.500	201.537	80.002	19.995	103.223	19.824	4.555	0.468
252.000	201.793	80.003	19.995	103.223	19.821	4.731	0.471
252.500	202.042	80.000	19.995	103.223	19.824	4.586	0.495
253.000	202.307	80.001	19.994	103.222	19.823	4.608	0.510
253.500	202.567	80.002	19.994	103.223	19.817	5.042	0.519
254.000	202.775	80.001	19.995	103.224	19.819	4.910	0.496
254.500	203.002	80.001	19.995	103.224	19.823	4.641	0.451
255.000	203.289	80.001	19.995	103.224	19.820	4.855	0.475
255.500	203.510	80.000	19.996	103.225	19.820	4.824	0.511
256.000	203.738	80.001	19.995	103.225	19.824	4.553	0.478
256.500	204.006	80.002	19.995	103.225	19.822	4.706	0.473
257.000	204.229	80.001	19.995	103.225	19.823	4.641	0.494
257.500	204.487	80.001	19.995	103.225	19.822	4.681	0.486
258.000	204.781	80.000	19.996	103.224	19.822	4.681	0.517
258.500	205.009	80.001	19.995	103.225	19.825	4.519	0.537
259.000	205.251	80.002	19.995	103.225	19.823	4.657	0.495
259.500	205.465	80.002	19.996	103.225	19.821	4.742	0.463
260.000	205.751	80.002	19.996	103.225	19.820	4.813	0.478
260.500	205.979	80.002	19.995	103.224	19.823	4.604	0.507
261.000	206.198	80.002	19.996	103.223	19.818	4.942	0.480
261.500	206.512	80.003	19.996	103.221	19.821	4.735	0.490
262.000	206.724	80.001	19.996	103.221	19.820	4.830	0.530
262.500	207.025	80.002	19.995	103.220	19.818	4.979	0.520
263.000	207.241	80.001	19.996	103.220	19.822	4.726	0.515
263.500	207.499	80.002	19.996	103.220	19.824	4.564	0.496
264.000	207.750	80.002	19.996	103.220	19.819	4.882	0.491
264.500	208.019	80.002	19.996	103.219	19.820	4.860	0.514
265.000	208.273	80.002	19.995	103.220	19.819	4.920	0.522
265.500	208.509	80.002	19.995	103.220	19.820	4.859	0.507
266.000	208.738	80.001	19.996	103.220	19.820	4.815	0.478
266.500	208.930	80.003	19.996	103.221	19.819	4.931	0.443
267.000	209.230	80.002	19.995	103.221	19.819	4.871	0.456
267.500	209.465	80.003	19.995	103.221	19.819	4.884	0.514
268.000	209.712	80.003	19.994	103.221	19.819	4.884	0.509
268.500	209.968	80.003	19.996	103.221	19.816	5.122	0.492
269.000	210.203	80.001	19.995	103.220	19.820	4.824	0.497
269.500	210.480	80.002	19.996	103.220	19.817	5.051	0.502
270.000	210.735	80.002	19.995	103.220	19.816	5.091	0.522
270.500	210.971	80.003	19.996	103.220	19.815	5.159	0.512
271.000	211.218	80.002	19.997	103.219	19.815	5.144	0.487
271.500	211.451	80.001	19.997	103.219	19.818	4.975	0.481
272.000	211.702	80.003	19.997	103.219	19.816	5.088	0.482
272.500	211.945	80.001	19.997	103.219	19.818	4.953	0.489
273.000	212.228	80.001	19.996	103.220	19.817	5.031	0.510
273.500	212.469	80.001	19.997	103.220	19.815	5.160	0.525
274.000	212.695	80.003	19.996	103.221	19.811	5.420	0.496
274.500	212.957	80.002	19.997	103.220	19.815	5.180	0.478
275.000	213.173	80.002	19.997	103.219	19.815	5.140	0.483
275.500	213.446	80.001	19.996	103.218	19.812	5.360	0.484
276.000	213.684	80.001	19.997	103.218	19.813	5.313	0.500
276.500	213.945	80.000	19.997	103.218	19.812	5.373	0.505
277.000	214.196	80.001	19.997	103.218	19.813	5.295	0.506
277.500	214.444	80.002	19.997	103.218	19.813	5.313	0.506
278.000	214.728	80.001	19.997	103.217	19.812	5.362	0.515
278.500	214.945	80.001	19.997	103.217	19.811	5.439	0.517
279.000	215.225	80.001	19.996	103.217	19.810	5.491	0.499
279.500	215.441	80.001	19.997	103.218	19.811	5.415	0.496
280.000	215.687	80.001	19.996	103.218	19.808	5.658	0.479
280.500	215.894	80.000	19.996	103.218	19.811	5.457	0.457
281.000	216.148	80.000	19.996	103.219	19.812	5.375	0.457
281.500	216.411	80.002	19.996	103.218	19.810	5.504	0.489
282.000	216.675	80.001	19.996	103.217	19.808	5.613	0.522
282.500	216.894	80.002	19.997	103.217	19.809	5.571	0.505
283.000	217.157	80.002	19.995	103.218	19.808	5.626	0.483
283.500	217.379	80.001	19.997	103.217	19.809	5.578	0.483
284.000	217.671	80.002	19.997	103.217	19.808	5.637	0.499
284.500	217.870	80.001	19.997	103.218	19.806	5.771	0.503
285.000	218.112	80.003	19.995	103.217	19.809	5.584	0.466
285.500	218.414	80.003	19.996	103.218	19.808	5.611	0.492
286.000	218.616	80.002	19.996	103.218	19.807	5.684	0.524
286.500	218.843	80.002	19.996	103.219	19.806	5.771	0.467
287.000	219.144	80.002	19.995	103.218	19.804	5.898	0.479
287.500	219.358	80.002	19.994	103.218	19.804	5.934	0.521
288.000	219.627	80.004	19.995	103.218	19.807	5.684	0.499
288.500	219.859	80.003	19.995	103.219	19.807	5.738	0.492
289.000	220.113	80.004	19.996	103.219	19.807	5.680	0.494
289.500	220.367	80.003	19.995	103.221	19.804	5.877	0.497
290.000	220.619	80.004	19.995	103.220	19.804	5.889	0.507
290.500	220.860	80.004	19.995	103.221	19.807	5.728	0.500
291.000	221.097	80.004	19.995	103.219	19.807	5.726	0.485
291.500	221.329	80.004	19.995	103.219	19.807	5.717	0.473
292.000	221.593	80.003	19.995	103.218	19.805	5.869	0.483
292.500	221.812	80.005	19.995	103.216	19.806	5.757	0.490
293.000	222.065	80.005	19.995	103.216	19.804	5.886	0.478
293.500	222.310	80.002	19.995	103.216	19.808	5.673	0.485
294.000	222.538	80.003	19.995	103.217	19.805	5.871	0.485
294.500	222.811	80.003	19.995	103.218	19.801	6.108	0.487
295.000	223.041	80.003	19.994	103.220	19.803	5.960	0.502
295.500	223.284	80.003	19.995	103.220	19.803	5.951	0.488
296.000	223.537	80.003	19.996	103.218	19.804	5.915	0.484
296.500	223.774	80.003	19.995	103.215	19.803	6.000	0.493
297.000	224.011	80.004	19.995	103.212	19.804	5.939	0.482
297.500	224.281	80.004	19.995	103.211	19.801	6.088	0.491
298.000	224.518	80.003	19.994	103.211	19.800	6.186	0.507
298.500	224.759	80.004	19.995	103.212	19.801	6.126	0.492
299.000	225.016	80.003	19.995	103.215	19.800	6.200	0.487
299.500	225.257	80.004	19.994	103.218	19.799	6.220	0.498
300.000	225.501	80.003	19.996	103.219	19.798	6.339	0.492
300.500	225.762	80.002	19.994	103.219	19.801	6.122	0.495
301.000	225.992	80.002	19.995	103.220	19.802	6.062	0.498
301.500	226.214	80.003	19.995	103.220	19.802	6.062	0.472
302.000	226.508	80.002	19.995	103.221	19.802	6.037	0.484
302.500	226.751	80.003	19.996	103.221	19.801	6.131	0.527
303.000	226.964	80.002	19.994	103.222	19.799	6.249	0.497
303.500	227.263	80.004	19.995	103.222	19.800	6.173	0.484
304.000	227.495	80.003	19.996	103.223	19.800	6.206	0.521
304.500	227.726	80.002	19.995	103.222	19.799	6.217	0.497
305.000	227.973	80.003	19.995	103.222	19.799	6.215	0.470
305.500	228.226	80.003	19.995	103.222	19.801	6.142	0.489
306.000	228.504	80.002	19.995	103.222	19.802	6.069	0.515
306.500	228.749	80.003	19.995	103.221	19.800	6.155	0.527
307.000	228.993	80.003	19.995	103.222	19.799	6.275	0.506
307.500	229.272	80.003	19.996	103.222	19.800	6.193	0.506
308.000	229.485	80.003	19.996	103.222	19.801	6.133	0.508
308.500	229.731	80.004	19.995	103.222	19.802	6.053	0.475
309.001	229.959	80.002	19.995	103.222	19.799	6.240	0.466
309.500	230.208	80.003	19.995	103.221	19.798	6.313	0.475
310.000	230.510	80.003	19.994	103.222	19.797	6.353	0.514
310.500	230.759	80.003	19.995	103.222	19.798	6.309	0.551
311.000	230.972	80.003	19.995	103.222	19.796	6.418	0.507
311.500	231.223	80.003	19.995	103.222	19.797	6.398	0.463
312.000	231.464	80.003	19.996	103.223	19.797	6.380	0.479
312.500	231.678	80.003	19.994	103.223	19.796	6.428	0.474
313.000	231.939	80.004	19.994	103.222	19.795	6.542	0.465
313.500	232.177	80.003	19.994	103.222	19.796	6.480	0.487
314.000	232.447	80.003	19.995	103.221	19.794	6.591	0.504
314.500	232.669	80.005	19.995	103.221	19.795	6.546	0.500
315.000	232.968	80.003	19.996	103.222	19.794	6.606	0.506
315.500	233.233	80.005	19.994	103.222	19.793	6.616	0.543
316.000	233.460	80.003	19.995	103.222	19.792	6.745	0.528
316.500	233.729	80.003	19.995	103.222	19.793	6.624	0.494
317.000	233.959	80.005	19.994	103.222	19.790	6.856	0.497
317.500	234.232	80.004	19.994	103.221	19.792	6.695	0.501
318.000	234.449	80.005	19.994	103.221	19.791	6.758	0.496
318.500	234.722	80.004	19.995	103.220	19.791	6.762	0.490
319.000	234.976	80.006	19.994	103.220	19.791	6.764	0.509
319.500	235.206	80.004	19.994	103.220	19.789	6.940	0.506
320.000	235.499	80.006	19.994	103.220	19.791	6.762	0.504
320.500	235.706	80.005	19.995	103.220	19.790	6.880	0.511
321.000	235.938	80.004	19.995	103.221	19.787	7.022	0.469
321.500	236.214	80.004	19.994	103.221	19.788	6.971	0.474
322.000	236.453	80.005	19.994	103.222	19.786	7.122	0.512
322.500	236.729	80.004	19.994	103.221	19.787	7.080	0.515
323.000	237.004	80.004	19.994	103.222	19.787	7.067	0.532
323.500	237.223	80.004	19.995	103.222	19.786	7.129	0.522
324.000	237.476	80.005	19.994	103.222	19.787	7.042	0.483
324.500	237.740	80.005	19.994	103.221	19.783	7.325	0.495
325.000	237.977	80.004	19.995	103.220	19.784	7.236	0.509
325.500	238.214	80.002	19.995	103.220	19.784	7.231	0.487
326.000	238.451	80.004	19.995	103.219	19.782	7.384	0.473
326.500	238.698	80.003	19.996	103.218	19.783	7.347	0.479
327.000	238.990	80.003	19.995	103.218	19.787	7.087	0.512
327.500	239.217	80.002	19.995	103.219	19.780	7.518	0.529
328.000	239.490	80.002	19.996	103.220	19.782	7.422	0.509
328.500	239.662	80.002	19.996	103.220	19.779	7.611	0.473
329.000	239.931	80.001	19.995	103.220	19.782	7.366	0.443
329.500	240.210	80.002	19.995	103.221	19.781	7.426	0.494
330.000	240.442	80.003	19.995	103.220	19.782	7.389	0.529
330.500	240.664	80.002	19.995	103.219	19.780	7.504	0.483
331.000	240.910	80.002	19.995	103.219	19.783	7.298	0.461
331.500	241.186	80.002	19.995	103.219	19.779	7.596	0.495
332.000	241.437	80.001	19.996	103.219	19.779	7.584	0.524
332.500	241.678	80.001	19.995	103.219	19.779	7.582	0.510
333.000	241.906	80.002	19.995	103.220	19.780	7.527	0.481
333.500	242.165	80.002	19.995	103.220	19.777	7.713	0.478
334.000	242.432	80.002	19.996	103.220	19.777	7.758	0.506
334.500	242.661	80.001	19.995	103.220	19.778	7.651	0.511
335.000	242.944	80.002	19.995	103.220	19.778	7.667	0.504
335.500	243.179	80.002	19.996	103.220	19.779	7.618	0.515
336.000	243.419	80.002	19.994	103.219	19.777	7.758	0.497
336.500	243.649	80.001	19.996	103.219	19.777	7.738	0.472
337.000	243.929	80.002	19.995	103.219	19.775	7.864	0.490
337.500	244.183	80.002	19.996	103.220	19.774	7.909	0.522
338.000	244.425	80.002	19.996	103.220	19.773	7.968	0.515
338.500	244.632	80.003	19.995	103.221	19.773	8.024	0.473
339.000	244.906	80.002	19.997	103.221	19.773	7.978	0.465
339.500	245.146	80.003	19.996	103.225	19.772	8.058	0.498
340.000	245.398	80.002	19.996	103.226	19.771	8.145	0.503
340.500	245.650	80.002	19.997	103.225	19.768	8.305	0.498
341.000	245.925	80.002	19.996	103.225	19.769	8.247	0.515
341.500	246.126	80.002	19.995	103.225	19.771	8.163	0.501
342.000	246.421	80.002	19.996	103.222	19.769	8.249	0.486
342.501	246.662	80.003	19.997	103.221	19.768	8.358	0.516
343.000	246.926	80.001	19.996	103.222	19.767	8.434	0.520
343.500	247.179	80.002	19.996	103.222	19.767	8.407	0.511
344.000	247.440	80.000	19.996	103.223	19.768	8.364	0.516
344.500	247.664	80.003	19.995	103.222	19.767	8.387	0.499
345.000	247.943	80.001	19.996	103.221	19.762	8.745	0.494
345.500	248.175	80.003	19.996	103.220	19.767	8.395	0.507
346.000	248.428	80.003	19.995	103.220	19.763	8.653	0.498
346.500	248.681	80.002	19.996	103.219	19.761	8.785	0.495
347.000	248.927	80.003	19.996	103.221	19.762	8.765	0.502
347.500	249.167	80.001	19.995	103.222	19.763	8.674	0.493
348.000	249.472	80.003	19.996	103.223	19.761	8.822	0.515
348.500	249.696	80.003	19.996	103.225	19.761	8.802	0.537
349.000	249.993	80.002	19.998	103.228	19.760	8.851	0.525
349.500	250.223	80.002	19.996	103.227	19.759	8.928	0.524
350.000	250.515	80.003	19.994	103.226	19.755	9.226	0.524
350.500	250.752	80.001	19.996	103.225	19.757	9.057	0.526
351.000	250.980	80.002	19.996	103.224	19.755	9.192	0.497
351.500	251.226	80.003	19.996	103.220	19.754	9.281	0.469
352.000	251.499	80.000	19.995	103.219	19.755	9.193	0.497
352.500	251.738	80.002	19.995	103.221	19.754	9.251	0.516
353.000	251.991	80.002	19.995	103.221	19.753	9.320	0.502
353.500	252.232	80.002	19.995	103.221	19.752	9.428	0.493
354.000	252.490	80.003	19.995	103.222	19.751	9.471	0.496
354.500	252.747	80.001	19.994	103.223	19.749	9.587	0.507
355.000	252.985	80.001	19.995	103.223	19.749	9.584	0.505
355.500	253.251	80.002	19.995	103.225	19.748	9.678	0.500
356.000	253.486	80.002	19.995	103.225	19.747	9.740	0.503
356.500	253.750	80.002	19.995	103.224	19.747	9.769	0.500
357.000	253.991	80.001	19.995	103.223	19.746	9.838	0.502
357.500	254.268	80.002	19.995	103.223	19.743	10.016	0.512
358.000	254.532	80.001	19.995	103.221	19.748	9.689	0.529
358.500	254.748	80.001	19.995	103.222	19.744	9.951	0.510
359.000	254.990	80.000	19.995	103.222	19.740	10.233	0.469
359.500	255.251	80.001	19.995	103.222	19.742	10.076	0.481
360.000	255.537	80.001	19.995	103.225	19.741	10.135	0.525
360.500	255.773	80.000	19.995	103.232	19.738	10.360	0.535
361.000	255.999	80.001	19.996	103.233	19.737	10.422	0.492
361.500	256.274	80.000	19.996	103.234	19.735	10.556	0.481
362.000	256.510	80.002	19.996	103.234	19.735	10.546	0.506
362.500	256.745	80.002	19.995	103.232	19.733	10.724	0.491
363.000	257.007	80.001	19.996	103.226	19.732	10.780	0.484
363.500	257.271	80.000	19.996	103.225	19.733	10.700	0.511
364.000	257.502	80.000	19.995	103.226	19.733	10.669	0.510
364.500	257.742	80.001	19.996	103.229	19.731	10.838	0.483
365.000	258.001	80.001	19.996	103.229	19.730	10.887	0.485
365.500	258.261	80.000	19.996	103.229	19.726	11.170	0.509
366.000	258.535	80.001	19.996	103.228	19.726	11.159	0.527
366.500	258.788	80.000	19.996	103.227	19.727	11.118	0.531
367.000	259.057	80.001	19.996	103.224	19.723	11.394	0.524
367.500	259.304	80.001	19.995	103.223	19.723	11.384	0.519
368.000	259.537	80.003	19.997	103.223	19.718	11.709	0.498
368.500	259.793	80.002	19.996	103.223	19.720	11.573	0.485
369.000	260.069	80.001	19.997	103.224	19.720	11.598	0.510
369.501	260.276	80.002	19.996	103.230	19.717	11.780	0.507
370.000	260.507	80.001	19.996	103.235	19.718	11.677	0.461
370.500	260.747	80.002	19.996	103.240	19.714	11.952	0.455
371.000	261.019	80.003	19.996	103.247	19.715	11.932	0.492
371.500	261.289	80.004	19.996	103.251	19.713	12.020	0.527
372.000	261.542	80.003	19.995	103.245	19.711	12.200	0.532
372.500	261.775	80.002	19.997	103.241	19.709	12.327	0.504
373.000	262.014	80.003	19.996	103.236	19.709	12.326	0.479
373.500	262.272	80.003	19.996	103.230	19.707	12.444	0.485
374.000	262.521	80.004	19.996	103.225	19.706	12.487	0.502
374.500	262.781	80.002	19.995	103.228	19.702	12.773	0.508
375.000	263.014	80.003	19.996	103.230	19.699	12.991	0.501
375.500	263.255	80.003	19.996	103.229	19.700	12.892	0.484
376.000	263.513	80.004	19.995	103.230	19.697	13.090	0.486
376.500	263.772	80.003	19.995	103.237	19.695	13.243	0.508
377.000	264.049	80.003	19.996	103.241	19.696	13.214	0.527
377.500	264.277	80.004	19.995	103.242	19.691	13.525	0.521
378.000	264.520	80.003	19.996	103.246	19.690	13.583	0.488
378.500	264.768	80.004	19.995	103.247	19.691	13.554	0.481
379.000	265.033	80.004	19.995	103.246	19.690	13.561	0.502
379.500	265.286	80.001	19.995	103.245	19.685	13.923	0.516
380.000	265.533	80.003	19.994	103.246	19.688	13.698	0.509
380.500	265.795	80.004	19.995	103.249	19.686	13.858	0.504
381.000	266.054	80.003	19.995	103.251	19.682	14.113	0.515
381.500	266.314	80.004	19.993	103.253	19.682	14.136	0.521
382.000	266.533	80.002	19.994	103.253	19.679	14.344	0.499
382.500	266.789	80.002	19.995	103.248	19.676	14.537	0.477
383.000	267.014	80.003	19.994	103.245	19.678	14.417	0.478
383.500	267.290	80.002	19.995	103.243	19.675	14.593	0.491
384.000	267.547	80.002	19.995	103.239	19.671	14.891	0.517
384.500	267.777	80.001	19.995	103.236	19.671	14.856	0.509
385.000	268.027	80.002	19.995	103.241	19.669	14.998	0.483
385.500	268.275	80.002	19.994	103.246	19.666	15.231	0.489
386.000	268.543	80.004	19.995	103.250	19.665	15.289	0.507
386.500	268.750	80.001	19.995	103.254	19.665	15.311	0.495
387.000	269.046	80.002	19.994	103.256	19.660	15.606	0.489
387.500	269.251	80.002	19.994	103.256	19.658	15.741	0.502
388.000	269.556	80.002	19.995	103.256	19.659	15.659	0.506
388.500	269.792	80.002	19.995	103.254	19.654	16.053	0.526
389.000	270.032	80.004	19.995	103.254	19.653	16.115	0.508
389.500	270.329	80.002	19.994	103.255	19.651	16.221	0.506
390.000	270.557	80.003	19.994	103.256	19.649	16.361	0.531
390.500	270.803	80.003	19.995	103.257	19.649	16.371	0.500
391.000	271.081	80.002	19.994	103.259	19.646	16.570	0.499
391.500	271.362	80.002	19.995	103.259	19.644	16.726	0.542
392.000	271.594	80.004	19.995	103.259	19.643	16.790	0.536
392.501	271.884	80.003	19.994	103.260	19.642	16.845	0.517
393.000	272.091	80.002	19.995	103.261	19.639	17.001	0.509
393.500	272.367	80.003	19.995	103.261	19.635	17.285	0.489
394.000	272.588	80.002	19.995	103.262	19.635	17.332	0.490
394.500	272.849	80.003	19.995	103.261	19.633	17.457	0.490
395.000	273.107	80.004	19.995	103.260	19.631	17.605	0.500
395.500	273.350	80.004	19.996	103.259	19.627	17.836	0.510
396.000	273.608	80.005	19.994	103.259	19.626	17.896	0.501
396.500	273.844	80.003	19.994	103.258	19.624	18.029	0.497
397.000	274.105	80.004	19.994	103.259	19.621	18.277	0.496
397.500	274.349	80.004	19.995	103.262	19.621	18.218	0.501
398.000	274.625	80.004	19.995	103.262	19.620	18.328	0.512
398.500	274.867	80.004	19.995	103.262	19.618	18.462	0.519
399.000	275.123	80.004	19.994	103.262	19.613	18.774	0.508
399.500	275.356	80.005	19.994	103.261	19.612	18.830	0.494
400.000	275.608	80.004	19.995	103.263	19.612	18.856	0.487
400.500	275.839	80.005	19.995	103.263	19.607	19.175	0.484
401.000	276.101	80.005	19.995	103.264	19.605	19.333	0.488
401.500	276.338	80.004	19.995	103.269	19.603	19.445	0.496
402.000	276.573	80.005	19.995	103.273	19.602	19.549	0.485
402.500	276.833	80.005	19.996	103.274	19.598	19.780	0.484
403.000	277.107	80.005	19.995	103.277	19.596	19.960	0.515
403.500	277.313	80.004	19.994	103.276	19.596	19.946	0.507
404.000	277.589	80.004	19.995	103.275	19.591	20.252	0.481
404.500	277.826	80.004	19.996	103.274	19.591	20.303	0.497
405.000	278.117	80.005	19.994	103.276	19.589	20.430	0.521
405.500	278.352	80.004	19.994	103.280	19.589	20.434	0.527
406.000	278.599	80.003	19.995	103.285	19.584	20.741	0.504
406.500	278.830	80.004	19.996	103.286	19.582	20.850	0.480
407.000	279.123	80.004	19.995	103.289	19.581	20.950	0.501
407.500	279.371	80.002	19.995	103.289	19.576	21.269	0.533
408.000	279.609	80.002	19.995	103.289	19.574	21.452	0.514
408.500	279.839	80.003	19.996	103.287	19.570	21.673	0.477
409.000	280.107	80.002	19.995	103.290	19.569	21.747	0.483
409.500	280.369	80.003	19.995	103.288	19.567	21.860	0.514
410.000	280.617	80.003	19.995	103.284	19.566	21.942	0.519
410.500	280.843	80.002	19.995	103.284	19.564	22.112	0.492
411.000	281.120	80.002	19.995	103.287	19.564	22.106	0.488
411.500	281.373	80.002	19.995	103.287	19.561	22.317	0.516
412.000	281.632	80.002	19.995	103.289	19.557	22.591	0.521
412.500	281.838	80.003	19.995	103.293	19.553	22.810	0.489
413.000	282.112	80.001	19.995	103.294	19.553	22.839	0.473
413.500	282.359	80.004	19.995	103.294	19.550	23.043	0.500
414.000	282.622	80.003	19.995	103.295	19.547	23.227	0.515
414.500	282.872	80.002	19.996	103.295	19.543	23.527	0.511
415.000	283.088	80.002	19.994	103.297	19.540	23.688	0.490
415.500	283.351	80.002	19.996	103.298	19.541	23.650	0.472
416.000	283.597	80.003	19.995	103.297	19.536	23.980	0.493
416.500	283.842	80.003	19.995	103.297	19.534	24.101	0.500
417.000	284.112	80.002	19.994	103.298	19.532	24.261	0.503
417.500	284.335	80.002	19.995	103.297	19.529	24.494	0.505
418.000	284.621	80.002	19.995	103.298	19.527	24.603	0.501
418.500	284.870	80.003	19.995	103.297	19.526	24.641	0.522
419.000	285.099	80.002	19.995	103.298	19.519	25.123	0.507
419.500	285.315	80.003	19.995	103.298	19.515	25.371	0.461
420.000	285.591	80.003	19.995	103.298	19.516	25.343	0.468
420.500	285.831	80.003	19.994	103.300	19.513	25.530	0.504
421.000	286.097	80.002	19.995	103.300	19.510	25.716	0.511
421.500	286.367	80.001	19.994	103.300	19.508	25.881	0.521
422.000	286.558	80.003	19.994	103.301	19.505	26.080	0.499
422.500	286.833	80.002	19.995	103.301	19.504	26.174	0.463
423.000	287.089	80.002	19.994	103.299	19.502	26.251	0.498
423.500	287.371	80.002	19.995	103.299	19.497	26.613	0.534
424.000	287.601	80.002	19.995	103.300	19.495	26.731	0.525
424.500	287.863	80.003	19.995	103.302	19.491	27.008	0.502
425.000	288.108	80.002	19.996	103.302	19.489	27.133	0.500
425.500	288.324	80.003	19.996	103.303	19.485	27.459	0.484
426.000	288.606	80.001	19.995	103.306	19.484	27.531	0.479
426.500	288.818	80.000	19.994	103.306	19.482	27.613	0.496
427.000	289.073	80.001	19.995	103.308	19.480	27.744	0.481
427.500	289.331	80.002	19.994	103.314	19.476	28.069	0.490
428.000	289.542	80.002	19.995	103.320	19.476	28.005	0.491
428.500	289.830	80.002	19.996	103.320	19.474	28.186	0.485
429.000	290.054	80.001	19.995	103.321	19.472	28.337	0.506
429.500	290.317	80.002	19.994	103.321	19.470	28.464	0.499
430.000	290.556	80.001	19.995	103.317	19.466	28.691	0.494
430.500	290.836	80.002	19.994	103.315	19.463	28.912	0.510
431.000	291.088	80.002	19.996	103.320	19.461	29.069	0.526
431.500	291.321	80.001	19.995	103.323	19.460	29.104	0.509
432.000	291.608	80.001	19.995	103.324	19.453	29.598	0.502
432.500	291.841	80.001	19.994	103.331	19.451	29.719	0.520
433.000	292.148	80.001	19.995	103.333	19.450	29.805	0.530
433.500	292.347	80.001	19.995	103.331	19.451	29.743	0.523
434.000	292.586	80.001	19.996	103.333	19.445	30.127	0.472
434.500	292.852	80.001	19.996	103.331	19.441	30.377	0.471
435.000	293.052	80.000	19.996	103.330	19.441	30.382	0.485
435.500	293.323	80.001	19.995	103.331	19.437	30.672	0.468
436.000	293.569	80.001	19.995	103.332	19.437	30.675	0.494
436.500	293.836	80.001	19.995	103.332	19.433	30.939	0.515
437.000	294.063	80.002	19.996	103.335	19.430	31.115	0.503
437.500	294.317	80.001	19.996	103.335	19.433	30.953	0.488
438.000	294.554	80.001	19.996	103.334	19.427	31.346	0.486
438.500	294.798	80.001	19.996	103.334	19.425	31.481	0.486
439.000	295.073	80.002	19.995	103.331	19.420	31.809	0.500
439.500	295.330	80.002	19.996	103.330	19.419	31.863	0.525
440.000	295.606	80.001	19.996	103.330	19.418	31.933	0.532
440.500	295.830	80.001	19.995	103.328	19.418	31.931	0.516
441.000	296.080	79.999	19.995	103.327	19.412	32.340	0.487
441.500	296.306	80.001	19.995	103.329	19.413	32.271	0.475
442.000	296.567	80.000	19.996	103.330	19.410	32.493	0.482
442.500	296.800	80.001	19.996	103.331	19.407	32.664	0.491
443.000	297.092	80.000	19.995	103.335	19.407	32.724	0.510
443.500	297.322	80.001	19.995	103.338	19.406	32.765	0.523
444.000	297.591	80.001	19.995	103.339	19.403	32.934	0.510
444.500	297.839	80.000	19.996	103.340	19.401	33.094	0.508
445.000	298.063	80.001	19.996	103.340	19.399	33.249	0.494
445.500	298.314	80.000	19.995	103.341	19.398	33.318	0.474
446.000	298.552	80.000	19.996	103.341	19.394	33.536	0.483
446.500	298.824	80.000	19.996	103.341	19.392	33.687	0.499
447.000	299.070	80.001	19.996	103.342	19.389	33.881	0.514
447.500	299.354	80.001	19.996	103.341	19.386	34.125	0.524
448.000	299.580	80.002	19.994	103.340	19.382	34.398	0.520
448.500	299.802	80.001	19.994	103.340	19.384	34.210	0.479
449.000	300.049	80.002	19.994	103.340	19.382	34.360	0.459
449.501	300.322	80.001	19.995	103.339	19.380	34.529	0.495
450.000	300.562	80.002	19.994	103.339	19.380	34.537	0.516
450.500	300.814	80.001	19.996	103.340	19.378	34.675	0.502
451.000	301.068	80.002	19.996	103.341	19.374	34.919	0.499
451.500	301.333	80.000	19.994	103.340	19.371	35.103	0.513
452.000	301.554	80.001	19.995	103.340	19.374	34.917	0.503
452.500	301.836	80.003	19.994	103.340	19.371	35.128	0.495
453.000	302.078	80.002	19.995	103.339	19.372	35.061	0.513
453.500	302.325	80.002	19.996	103.339	19.365	35.496	0.506
454.000	302.587	80.003	19.994	103.339	19.362	35.743	0.500
454.500	302.867	80.004	19.995	103.338	19.365	35.528	0.526
455.000	303.079	80.002	19.995	103.336	19.359	35.927	0.516
455.500	303.349	80.002	19.996	103.336	19.360	35.858	0.487
456.000	303.596	80.003	19.995	103.336	19.360	35.862	0.500
456.500	303.838	80.002	19.997	103.335	19.357	36.067	0.503
457.000	304.068	80.003	19.996	103.334	19.357	36.065	0.481
457.500	304.372	80.003	19.996	103.335	19.355	36.206	0.503
458.000	304.585	80.002	19.996	103.334	19.356	36.149	0.525
458.500	304.840	80.002	19.996	103.332	19.355	36.222	0.492
459.000	305.075	80.002	19.996	103.333	19.350	36.504	0.479
459.500	305.336	80.003	19.996	103.333	19.351	36.446	0.493
460.000	305.612	80.003	19.996	103.333	19.351	36.475	0.516
460.500	305.851	80.002	19.996	103.333	19.348	36.650	0.526
461.000	306.097	80.003	19.997	103.335	19.347	36.708	0.500
461.500	306.363	80.002	19.996	103.335	19.345	36.850	0.499
462.000	306.602	80.004	19.996	103.335	19.346	36.786	0.509
462.500	306.846	80.002	19.997	103.335	19.343	37.012	0.494
463.000	307.104	80.002	19.996	103.335	19.341	37.141	0.492
463.500	307.342	80.002	19.997	103.335	19.343	36.978	0.499
464.000	307.605	80.002	19.996	103.334	19.340	37.207	0.498
464.500	307.848	80.003	19.996	103.334	19.338	37.369	0.503
465.000	308.128	80.002	19.997	103.334	19.335	37.522	0.514
465.500	308.340	80.003	19.997	103.334	19.336	37.462	0.508
466.000	308.612	80.003	19.997	103.335	19.333	37.651	0.488
466.500	308.834	80.002	19.997	103.335	19.335	37.518	0.489
467.000	309.116	80.002	19.995	103.335	19.333	37.658	0.499
467.500	309.341	80.000	19.995	103.335	19.330	37.871	0.506
468.000	309.637	80.002	19.998	103.335	19.330	37.860	0.514
468.500	309.873	80.004	19.997	103.335	19.327	38.106	0.527
469.000	310.119	80.002	19.996	103.335	19.326	38.151	0.507
469.500	310.377	80.003	19.996	103.335	19.330	37.860	0.493
470.000	310.609	80.005	19.997	103.335	19.327	38.094	0.497
470.500	310.843	80.002	19.996	103.335	19.323	38.336	0.478
471.000	311.105	80.003	19.996	103.335	19.323	38.383	0.481
471.500	311.371	80.003	19.997	103.335	19.318	38.665	0.512
472.000	311.664	80.004	19.996	103.336	19.319	38.605	0.544
472.500	311.905	80.003	19.996	103.336	19.319	38.647	0.547
473.000	312.159	80.004	19.996	103.336	19.317	38.764	0.514
473.500	312.421	80.004	19.995	103.337	19.318	38.704	0.506
474.000	312.680	80.003	19.997	103.337	19.314	38.964	0.518
474.500	312.948	80.004	19.994	103.336	19.317	38.739	0.523
475.000	313.186	80.004	19.995	103.337	19.315	38.930	0.516
475.500	313.469	80.005	19.995	103.337	19.310	39.214	0.514
476.000	313.700	80.006	19.995	103.337	19.312	39.099	0.518
476.500	313.967	80.005	19.996	103.336	19.308	39.380	0.505
477.000	314.220	80.004	19.994	103.336	19.310	39.248	0.509
477.500	314.477	80.005	19.996	103.335	19.307	39.443	0.516
478.000	314.773	80.004	19.996	103.335	19.308	39.350	0.532
478.500	314.976	80.005	19.996	103.335	19.308	39.357	0.526
479.000	315.193	80.006	19.995	103.336	19.305	39.547	0.459
479.500	315.480	80.006	19.996	103.336	19.306	39.498	0.462
480.000	315.731	80.005	19.995	103.340	19.304	39.622	0.521
480.500	315.944	80.006	19.994	103.345	19.304	39.646	0.501
481.000	316.248	80.006	19.994	103.345	19.302	39.785	0.491
481.500	316.500	80.007	19.995	103.345	19.299	40.009	0.536
482.000	316.754	80.006	19.995	103.344	19.298	40.039	0.530
482.500	316.960	80.005	19.994	103.339	19.296	40.164	0.483
483.000	317.223	80.004	19.994	103.334	19.294	40.305	0.465
483.500	317.509	80.006	19.994	103.334	19.291	40.495	0.509
484.000	317.734	80.005	19.994	103.334	19.290	40.558	0.530
484.500	318.011	80.005	19.994	103.334	19.292	40.428	0.507
485.000	318.266	80.006	19.993	103.335	19.288	40.728	0.517
485.500	318.484	80.006	19.995	103.336	19.286	40.836	0.502
486.000	318.746	80.004	19.994	103.335	19.285	40.937	0.477
486.500	319.012	80.005	19.993	103.336	19.285	40.948	0.504
487.000	319.275	80.003	19.994	103.336	19.284	41.026	0.528
487.500	319.461	80.005	19.994	103.338	19.282	41.154	0.489
488.000	319.776	80.004	19.995	103.339	19.281	41.221	0.475
488.500	320.028	80.004	19.995	103.339	19.277	41.481	0.534
489.000	320.253	80.003	19.994	103.338	19.277	41.498	0.522
489.500	320.509	80.003	19.995	103.338	19.274	41.663	0.479
490.000	320.767	80.002	19.996	103.337	19.272	41.828	0.497
490.500	321.009	80.001	19.996	103.337	19.274	41.679	0.507
491.000	321.302	80.003	19.995	103.337	19.271	41.857	0.518
491.500	321.550	80.002	19.995	103.338	19.270	41.976	0.538
492.000	321.799	80.001	19.995	103.339	19.263	42.386	0.519
492.500	322.048	80.003	19.995	103.341	19.266	42.237	0.497
493.000	322.281	80.002	19.996	103.343	19.262	42.498	0.490
493.500	322.553	80.003	19.994	103.345	19.259	42.702	0.493
494.000	322.782	80.001	19.996	103.349	19.261	42.590	0.503
494.500	323.018	80.003	19.995	103.350	19.260	42.616	0.483
495.000	323.289	80.002	19.995	103.353	19.255	42.929	0.486
495.500	323.560	80.000	19.995	103.356	19.252	43.164	0.524
496.000	323.795	80.002	19.995	103.360	19.254	43.049	0.524
496.500	324.044	80.002	19.994	103.360	19.252	43.182	0.495
497.000	324.304	80.003	19.995	103.358	19.247	43.510	0.496
497.500	324.527	80.002	19.996	103.355	19.247	43.517	0.496
498.000	324.772	80.003	19.995	103.353	19.246	43.546	0.475
498.500	325.042	80.003	19.994	103.349	19.245	43.661	0.492
499.000	325.277	80.001	19.995	103.350	19.242	43.861	0.510
499.500	325.564	80.004	19.994	103.357	19.239	44.010	0.513
500.000	325.789	80.001	19.995	103.363	19.238	44.081	0.517
500.500	326.040	80.002	19.996	103.368	19.233	44.428	0.495
501.000	326.271	80.003	19.995	103.374	19.230	44.634	0.479
501.500	326.566	80.002	19.996	103.376	19.230	44.643	0.504
502.000	326.800	80.002	19.995	103.374	19.227	44.863	0.528
502.500	327.029	80.004	19.995	103.370	19.226	44.938	0.496
503.000	327.250	80.001	19.995	103.369	19.227	44.843	0.456
503.500	327.550	80.000	19.994	103.369	19.218	45.478	0.485
504.000	327.789	80.001	19.995	103.369	19.218	45.452	0.530
504.500	328.029	80.002	19.996	103.371	19.217	45.566	0.509
505.000	328.248	80.002	19.995	103.376	19.215	45.660	0.469
505.500	328.525	80.003	19.994	103.377	19.212	45.881	0.478
506.000	328.743	80.003	19.993	103.377	19.211	45.950	0.496
506.500	329.020	80.002	19.994	103.378	19.205	46.358	0.495
507.000	329.281	80.002	19.994	103.378	19.205	46.316	0.516
507.500	329.508	80.001	19.995	103.378	19.202	46.534	0.513
508.000	329.757	80.002	19.995	103.378	19.197	46.877	0.482
508.500	330.025	80.002	19.994	103.379	19.196	46.982	0.497
509.000	330.250	80.004	19.993	103.377	19.193	47.163	0.505
509.500	330.532	80.001	19.994	103.377	19.189	47.412	0.500
510.000	330.755	80.004	19.994	103.378	19.187	47.546	0.506
510.500	331.008	80.002	19.994	103.378	19.183	47.826	0.491
511.000	331.252	80.003	19.994	103.378	19.177	48.214	0.486
511.500	331.496	80.002	19.995	103.379	19.180	48.015	0.492
512.000	331.796	80.003	19.995	103.380	19.178	48.162	0.516
512.500	332.029	80.003	19.995	103.379	19.173	48.515	0.538
513.000	332.223	80.003	19.994	103.379	19.168	48.843	0.480
513.500	332.538	80.002	19.994	103.379	19.166	49.006	0.468
514.000	332.777	80.002	19.995	103.380	19.162	49.269	0.532
514.500	332.982	80.002	19.995	103.383	19.160	49.376	0.499
515.000	333.274	80.003	19.994	103.389	19.160	49.405	0.470
515.500	333.510	80.003	19.994	103.393	19.152	49.903	0.512
516.001	333.728	80.002	19.994	103.394	19.152	49.961	0.491
516.500	334.007	80.002	19.995	103.396	19.148	50.182	0.476
517.000	334.266	80.002	19.995	103.396	19.141	50.669	0.518
517.500	334.482	80.003	19.995	103.397	19.139	50.834	0.507
518.000	334.747	80.003	19.996	103.399	19.137	50.954	0.478
518.500	335.010	80.003	19.995	103.404	19.130	51.396	0.505
519.000	335.225	80.003	19.995	103.409	19.129	51.476	0.503
519.500	335.506	80.003	19.996	103.412	19.125	51.766	0.487
520.000	335.763	80.003	19.996	103.412	19.120	52.075	0.517
520.500	335.985	80.002	19.996	103.411	19.117	52.282	0.509
521.000	336.219	80.003	19.996	103.410	19.112	52.615	0.467
521.500	336.501	80.002	19.995	103.410	19.111	52.743	0.486
522.000	336.713	80.001	19.996	103.409	19.106	53.070	0.505
522.500	337.003	80.001	19.994	103.405	19.104	53.152	0.498
523.000	337.239	80.002	19.995	103.407	19.099	53.540	0.514
523.500	337.484	80.002	19.995	103.407	19.097	53.687	0.503
524.000	337.738	80.001	19.996	103.407	19.093	53.958	0.490
524.500	337.973	80.001	19.996	103.409	19.086	54.416	0.494
525.000	338.234	80.001	19.997	103.413	19.081	54.755	0.492
525.500	338.495	80.001	19.995	103.414	19.079	54.901	0.509
526.000	338.754	80.000	19.996	103.417	19.069	55.538	0.521
526.500	338.997	80.000	19.997	103.419	19.066	55.762	0.511
527.000	339.250	80.001	19.996	103.419	19.064	55.874	0.499
527.500	339.488	80.000	19.996	103.420	19.058	56.311	0.493
528.000	339.689	80.001	19.996	103.421	19.059	56.240	0.465
528.500	339.978	80.000	19.997	103.419	19.051	56.796	0.464
529.000	340.214	80.002	19.995	103.420	19.049	56.905	0.508
529.500	340.486	80.004	19.995	103.422	19.044	57.257	0.516
530.000	340.716	80.001	19.996	103.422	19.037	57.684	0.505
530.500	340.961	80.003	19.994	103.425	19.034	57.935	0.489
531.000	341.214	80.002	19.996	103.431	19.030	58.181	0.487
531.500	341.433	80.001	19.997	103.434	19.023	58.638	0.484
532.000	341.714	80.002	19.997	103.437	19.017	59.050	0.486
532.500	341.945	80.003	19.996	103.441	19.014	59.267	0.506
533.000	342.191	80.004	19.996	103.440	19.012	59.409	0.494
533.500	342.441	80.002	19.995	103.441	19.004	59.941	0.487
534.000	342.683	80.002	19.996	103.443	19.002	60.107	0.494
534.500	342.927	80.002	19.996	103.446	18.995	60.568	0.489
535.000	343.171	80.003	19.995	103.448	18.992	60.756	0.488
535.500	343.426	80.003	19.996	103.453	18.987	61.128	0.493
536.000	343.652	80.003	19.995	103.453	18.983	61.361	0.490
536.500	343.933	80.004	19.997	103.454	18.977	61.775	0.494
537.000	344.130	80.005	19.995	103.454	18.973	62.045	0.492
537.500	344.399	80.004	19.996	103.454	18.967	62.465	0.472
538.000	344.631	80.006	19.995	103.454	18.965	62.588	0.484
538.500	344.884	80.003	19.996	103.454	18.960	62.952	0.493
539.000	345.138	80.005	19.996	103.454	18.954	63.345	0.496
539.500	345.404	80.004	19.994	103.454	18.946	63.865	0.513
540.000	345.614	80.004	19.996	103.454	18.944	64.050	0.498
540.500	345.873	80.002	19.995	103.454	18.939	64.358	0.473
541.000	346.154	80.003	19.996	103.455	18.935	64.640	0.504
541.500	346.351	80.005	19.995	103.455	18.931	64.879	0.509
542.000	346.633	80.003	19.996	103.456	18.923	65.464	0.479
542.500	346.868	80.004	19.995	103.457	18.918	65.784	0.498
543.000	347.116	80.003	19.993	103.458	18.912	66.173	0.500
543.500	347.373	80.004	19.995	103.461	18.911	66.298	0.494
544.000	347.632	80.003	19.994	103.468	18.902	66.844	0.510
544.500	347.877	80.003	19.996	103.474	18.900	67.011	0.510
545.000	348.113	80.005	19.995	103.481	18.896	67.265	0.493
545.500	348.353	80.002	19.995	103.486	18.894	67.409	0.478
546.000	348.613	80.001	19.996	103.490	18.884	68.091	0.488
546.500	348.868	80.004	19.996	103.491	18.882	68.233	0.508
547.000	349.114	80.002	19.995	103.491	18.873	68.848	0.508
547.500	349.385	80.002	19.995	103.491	18.870	69.016	0.509
548.000	349.638	80.002	19.997	103.491	18.865	69.379	0.520
548.500	349.899	80.003	19.996	103.492	18.861	69.664	0.519
549.000	350.171	80.002	19.996	103.497	18.856	70.000	0.524
549.500	350.441	80.003	19.997	103.500	18.850	70.380	0.538
550.000	350.673	80.002	19.995	103.499	18.847	70.578	0.522
550.500	350.927	80.003	19.997	103.499	18.839	71.105	0.494
551.000	351.190	80.002	19.997	103.498	18.836	71.349	0.501
551.500	351.439	80.003	19.996	103.495	18.830	71.717	0.514
552.000	351.706	80.002	19.996	103.494	18.827	71.979	0.514
552.500	351.977	80.003	19.997	103.501	18.820	72.454	0.527
553.000	352.209	80.001	19.998	103.508	18.818	72.563	0.521
553.500	352.493	80.002	19.996	103.513	18.811	73.054	0.509
554.000	352.759	80.002	19.996	103.520	18.806	73.368	0.533
554.500	353.049	80.003	19.996	103.524	18.801	73.673	0.553
555.000	353.266	80.002	19.996	103.524	18.796	74.018	0.532
555.500	353.613	80.002	19.996	103.522	18.791	74.362	0.536
556.000	353.854	80.003	19.995	103.525	18.787	74.685	0.576
556.500	354.123	80.003	19.996	103.522	18.783	74.911	0.549
557.000	354.391	80.002	19.996	103.523	18.779	75.168	0.524
557.501	354.669	80.002	19.996	103.526	18.774	75.511	0.542
558.000	354.914	80.004	19.996	103.527	18.766	76.047	0.534
558.500	355.203	80.002	19.996	103.527	18.766	76.040	0.529
559.000	355.461	80.004	19.996	103.531	18.759	76.526	0.541
559.500	355.725	80.004	19.996	103.532	18.756	76.716	0.534
560.000	356.012	80.002	19.997	103.531	18.750	77.178	0.537
560.500	356.257	80.005	19.994	103.532	18.746	77.448	0.542
561.000	356.507	80.003	19.995	103.532	18.743	77.653	0.513
561.500	356.821	80.003	19.996	103.531	18.740	77.824	0.529
562.000	357.050	80.006	19.994	103.531	18.736	78.100	0.554
562.500	357.317	80.003	19.995	103.531	18.728	78.596	0.520
563.000	357.601	80.005	19.995	103.531	18.728	78.652	0.524
563.500	357.887	80.005	19.994	103.531	18.721	79.079	0.560
564.000	358.163	80.005	19.994	103.531	18.721	79.103	0.566
564.500	358.412	80.005	19.995	103.531	18.717	79.392	0.544
565.000	358.687	80.004	19.994	103.532	18.714	79.571	0.525
565.500	358.936	80.006	19.994	103.531	18.713	79.669	0.524
566.000	359.227	80.005	19.995	103.531	18.707	80.021	0.533
566.500	359.461	80.005	19.996	103.530	18.704	80.244	0.533
567.000	359.784	80.004	19.995	103.530	18.703	80.282	0.541
567.500	360.017	80.006	19.995	103.531	18.692	81.064	0.556
568.000	360.302	80.004	19.995	103.531	18.698	80.614	0.537
568.500	360.617	80.004	19.994	103.531	18.692	81.020	0.559
569.000	360.879	80.003	19.995	103.531	18.688	81.290	0.589
569.500	361.054	80.003	19.994	103.532	18.682	81.755	0.507
570.000	361.368	80.002	19.995	103.531	18.677	82.056	0.463
570.500	361.675	80.003	19.994	103.531	18.681	81.775	0.555
571.000	361.950	80.004	19.995	103.532	18.686	81.455	0.601
571.500	362.206	80.004	19.993	103.532	18.681	81.776	0.557
572.000	362.414	80.001	19.994	103.530	18.674	82.278	0.498
572.500	362.741	80.002	19.994	103.528	18.679	81.914	0.500
573.000	363.010	80.002	19.995	103.521	18.677	82.022	0.565
573.500	363.283	80.002	19.995	103.517	18.678	81.980	0.569
574.000	363.522	80.003	19.994	103.516	18.672	82.352	0.527
574.500	363.823	80.002	19.995	103.512	18.675	82.152	0.526
575.000	364.075	80.002	19.994	103.510	18.676	82.119	0.546
575.500	364.339	80.002	19.995	103.514	18.675	82.165	0.535
576.000	364.640	80.002	19.995	103.514	18.674	82.203	0.541
576.500	364.862	80.002	19.995	103.513	18.677	82.039	0.544
577.000	365.199	80.001	19.994	103.514	18.679	81.869	0.541
577.500	365.418	80.001	19.995	103.512	18.681	81.758	0.558
578.000	365.695	80.003	19.994	103.508	18.682	81.641	0.526
578.500	365.965	80.003	19.995	103.505	18.680	81.795	0.521
579.000	366.215	80.003	19.996	103.501	18.685	81.422	0.533
579.500	366.592	80.002	19.995	103.498	18.685	81.472	0.574
580.000	366.793	80.004	19.995	103.498	18.687	81.346	0.603
580.500	367.130	80.002	19.995	103.498	18.691	81.069	0.558
581.000	367.361	80.003	19.996	103.496	18.695	80.798	0.553
581.500	367.433	80.001	19.994	103.495	18.696	80.663	0.435
582.000	367.967	80.004	19.995	103.492	18.701	80.381	0.455
582.500	367.845	80.001	19.996	103.488	18.706	80.039	0.509
583.000	368.107	80.001	19.995	103.484	18.712	79.627	0.275
583.500	368.366	80.002	19.995	103.480	18.712	79.561	0.330
584.000	368.800	80.004	19.995	103.479	18.719	79.116	0.607
584.500	369.444	80.003	19.996	103.476	18.723	78.862	0.886
585.000	369.786	80.002	19.996	103.471	18.729	78.414	1.032
585.500	369.982	80.002	19.995	103.465	18.735	78.044	0.762
586.000	370.016	80.004	19.995	103.461	18.739	77.722	0.384
586.500	370.216	80.003	19.996	103.452	18.745	77.358	0.232
587.000	370.666	80.003	19.995	103.445	18.750	77.031	0.442
587.500	370.889	80.002	19.994	103.438	18.755	76.674	0.662
588.000	371.032	80.002	19.995	103.432	18.763	76.143	0.520
588.500	371.355	80.003	19.996	103.425	18.768	75.744	0.416
589.000	371.619	80.004	19.994	103.420	18.777	75.189	0.526
589.500	371.882	80.002	19.995	103.417	18.784	74.693	0.557
590.000	372.155	80.003	19.995	103.416	18.793	74.089	0.532
590.500	372.446	80.002	19.995	103.411	18.804	73.307	0.549
591.000	372.760	80.003	19.996	103.409	18.809	73.003	0.584
591.500	373.033	80.003	19.996	103.405	18.820	72.273	0.596
592.000	373.289	80.002	19.995	103.398	18.827	71.752	0.558
592.500	373.525	80.003	19.995	103.390	18.835	71.209	0.511
593.000	373.864	80.003	19.995	103.386	18.844	70.586	0.534
593.500	374.026	80.002	19.996	103.376	18.856	69.795	0.538
594.000	374.351	80.002	19.995	103.369	18.868	68.983	0.494
594.500	374.617	80.003	19.994	103.366	18.878	68.298	0.539
595.000	374.872	80.004	19.995	103.363	18.887	67.701	0.556
595.500	375.106	80.002	19.995	103.357	18.900	66.846	0.504
596.000	375.446	80.002	19.995	103.354	18.908	66.295	0.531
596.500	375.674	80.002	19.994	103.349	18.923	65.298	0.571
597.000	375.930	80.002	19.995	103.341	18.933	64.620	0.526
597.500	376.245	80.003	19.995	103.332	18.945	63.781	0.527
598.000	376.506	80.004	19.996	103.325	18.957	63.000	0.574
598.500	376.820	80.002	19.995	103.319	18.968	62.205	0.576
599.000	377.069	80.004	19.996	103.313	18.982	61.308	0.569
599.500	377.290	80.002	19.995	103.306	18.998	60.221	0.517
600.000	377.549	80.004	19.995	103.303	19.005	59.765	0.475
600.500	377.817	80.002	19.996	103.300	19.021	58.682	0.504
601.000	378.092	80.003	19.995	103.295	19.035	57.703	0.535
601.500	378.317	80.002	19.995	103.290	19.046	56.935	0.522
602.000	378.581	80.003	19.995	103.284	19.060	55.992	0.495
602.500	378.860	80.003	19.995	103.276	19.074	55.079	0.516
603.000	379.110	80.002	19.996	103.270	19.086	54.250	0.536
603.500	379.390	80.003	19.995	103.265	19.105	52.991	0.530
604.000	379.632	80.003	19.995	103.261	19.118	52.124	0.526
604.500	379.879	80.003	19.994	103.259	19.130	51.291	0.506
605.000	380.158	80.004	19.995	103.256	19.145	50.257	0.507
605.500	380.437	80.003	19.995	103.251	19.159	49.315	0.541
606.000	380.631	80.004	19.994	103.250	19.173	48.417	0.516
606.500	380.919	80.002	19.995	103.248	19.187	47.468	0.478
607.000	381.218	80.003	19.994	103.245	19.197	46.815	0.535
607.500	381.487	80.003	19.996	103.241	19.215	45.571	0.577
608.000	381.727	80.002	19.993	103.238	19.228	44.693	0.538
608.500	381.974	80.002	19.994	103.231	19.243	43.659	0.498
609.000	382.223	80.002	19.995	103.226	19.256	42.823	0.491
609.500	382.473	80.001	19.995	103.219	19.270	41.884	0.497
610.000	382.738	80.002	19.995	103.217	19.282	41.046	0.507
610.500	382.982	80.004	19.995	103.218	19.295	40.172	0.512
611.000	383.238	80.004	19.995	103.214	19.310	39.196	0.505
611.500	383.508	80.002	19.996	103.209	19.322	38.376	0.513
612.000	383.780	80.004	19.995	103.203	19.337	37.329	0.533
612.500	384.008	80.003	19.995	103.195	19.347	36.680	0.521
613.000	384.270	80.002	19.996	103.188	19.364	35.555	0.495
613.500	384.526	80.003	19.995	103.184	19.375	34.783	0.504
614.000	384.770	80.002	19.997	103.183	19.390	33.764	0.509
614.500	385.059	80.004	19.996	103.183	19.400	33.096	0.516
615.000	385.304	80.003	19.997	103.182	19.416	32.037	0.533
615.500	385.565	80.003	19.995	103.181	19.427	31.306	0.520
616.000	385.792	80.004	19.994	103.180	19.440	30.401	0.497
616.500	386.057	80.004	19.995	103.179	19.449	29.802	0.490
617.000	386.315	80.003	19.995	103.178	19.464	28.810	0.508
617.500	386.565	80.002	19.996	103.178	19.470	28.399	0.516
618.000	386.842	80.003	19.997	103.176	19.480	27.690	0.517
618.500	387.056	80.002	19.995	103.174	19.496	26.670	0.509
619.000	387.347	80.004	19.996	103.172	19.505	26.019	0.498
619.500	387.584	80.004	19.995	103.172	19.514	25.418	0.516
620.000	387.841	80.004	19.995	103.171	19.527	24.538	0.511
620.500	388.114	80.005	19.995	103.170	19.535	24.042	0.512
621.000	388.346	80.004	19.995	103.167	19.542	23.513	0.518
621.500	388.597	80.005	19.996	103.162	19.554	22.752	0.493
622.000	388.860	80.003	19.996	103.156	19.565	21.991	0.498
622.500	389.124	80.003	19.995	103.149	19.570	21.657	0.520
623.000	389.365	80.005	19.995	103.146	19.578	21.139	0.516
623.500	389.623	80.004	19.996	103.150	19.587	20.538	0.502
624.000	389.872	80.003	19.995	103.153	19.596	19.932	0.503
624.500	390.134	80.004	19.996	103.153	19.600	19.648	0.509
625.000	390.363	80.004	19.996	103.154	19.608	19.127	0.501
625.500	390.615	80.003	19.995	103.154	19.618	18.404	0.486
626.000	390.869	80.004	19.996	103.149	19.622	18.156	0.494
626.500	391.115	80.004	19.995	103.146	19.628	17.720	0.503
627.000	391.380	80.004	19.995	103.146	19.636	17.201	0.506
627.500	391.672	80.005	19.996	103.146	19.642	16.838	0.534
628.000	391.918	80.004	19.997	103.144	19.647	16.485	0.548
628.500	392.124	80.004	19.995	103.144	19.654	15.977	0.495
629.000	392.373	80.003	19.996	103.143	19.659	15.650	0.453
629.500	392.637	80.003	19.995	103.143	19.666	15.198	0.484
630.000	392.879	80.003	19.995	103.144	19.668	15.072	0.510
630.500	393.138	80.003	19.995	103.144	19.673	14.713	0.504
631.000	393.393	80.004	19.995	103.145	19.679	14.313	0.508
631.500	393.663	80.004	19.995	103.145	19.683	14.070	0.519
632.000	393.908	80.002	19.995	103.145	19.686	13.843	0.520
632.500	394.141	80.003	19.995	103.144	19.691	13.479	0.496
633.000	394.395	80.002	19.995	103.144	19.693	13.405	0.482
633.500	394.663	80.003	19.995	103.144	19.700	12.922	0.505
634.000	394.895	80.002	19.994	103.145	19.705	12.591	0.511
634.500	395.150	80.003	19.995	103.147	19.706	12.473	0.493
635.000	395.380	80.003	19.995	103.148	19.707	12.455	0.486
635.500	395.654	80.002	19.995	103.147	19.715	11.888	0.495
636.000	395.881	80.003	19.995	103.148	19.718	11.698	0.502
636.500	396.117	80.001	19.995	103.146	19.720	11.590	0.482
637.000	396.358	80.003	19.994	103.144	19.722	11.412	0.470
637.500	396.621	80.002	19.996	103.144	19.724	11.267	0.491
638.000	396.843	80.002	19.996	103.143	19.723	11.354	0.495
638.500	397.076	80.003	19.994	103.142	19.728	11.036	0.470
639.000	397.324	80.003	19.995	103.143	19.729	10.978	0.468
639.500	397.560	80.003	19.994	103.143	19.732	10.729	0.482
640.000	397.782	80.004	19.995	103.143	19.734	10.603	0.471
640.500	398.060	80.005	19.995	103.144	19.737	10.423	0.479
641.000	398.282	80.003	19.995	103.144	19.736	10.503	0.500
641.500	398.522	80.004	19.997	103.143	19.737	10.383	0.481
642.000	398.741	80.006	19.996	103.144	19.739	10.284	0.460
642.500	399.011	80.004	19.996	103.143	19.737	10.386	0.474
643.000	399.206	80.004	19.995	103.143	19.741	10.133	0.477
643.500	399.473	80.003	19.996	103.143	19.743	10.002	0.464
644.000	399.716	80.005	19.995	103.144	19.743	10.039	0.486
644.501	399.965	80.005	19.996	103.145	19.748	9.672	0.501
645.000	400.160	80.004	19.995	103.146	19.746	9.830	0.468
645.500	400.423	80.006	19.995	103.147	19.746	9.795	0.451
646.000	400.673	80.004	19.996	103.147	19.749	9.623	0.485
646.500	400.884	80.005	19.996	103.145	19.749	9.576	0.487
647.000	401.125	80.003	19.996	103.145	19.749	9.630	0.456
647.500	401.342	80.004	19.996	103.143	19.752	9.419	0.455
648.000	401.573	80.003	19.996	103.142	19.750	9.570	0.454
648.500	401.818	80.004	19.997	103.142	19.752	9.423	0.462
649.000	402.059	80.005	19.997	103.142	19.755	9.214	0.481
649.500	402.290	80.004	19.997	103.140	19.756	9.143	0.479
650.000	402.535	80.005	19.997	103.139	19.758	9.029	0.474
650.500	402.759	80.004	19.996	103.137	19.759	8.958	0.472
651.000	402.999	80.005	19.996	103.136	19.752	9.373	0.466
651.500	403.231	80.003	19.997	103.135	19.757	9.061	0.468
652.000	403.461	80.004	19.996	103.136	19.760	8.883	0.467
652.500	403.713	80.004	19.997	103.137	19.756	9.108	0.472
653.000	403.921	80.002	19.997	103.138	19.761	8.824	0.471
653.500	404.173	80.002	19.998	103.139	19.761	8.773	0.460
654.000	404.389	80.003	19.996	103.139	19.762	8.733	0.464
654.500	404.641	80.003	19.996	103.139	19.758	8.971	0.468
655.000	404.864	80.004	19.997	103.138	19.762	8.764	0.471
655.500	405.113	80.003	19.996	103.138	19.763	8.673	0.473
656.000	405.332	80.003	19.996	103.138	19.761	8.786	0.470
656.500	405.530	80.002	19.996	103.138	19.760	8.862	0.443
657.000	405.773	80.002	19.996	103.139	19.764	8.622	0.429
657.500	406.018	80.004	19.997	103.140	19.765	8.524	0.465
658.000	406.196	80.003	19.996	103.141	19.765	8.531	0.456
658.500	406.438	80.003	19.996	103.140	19.765	8.502	0.421
659.000	406.692	80.003	19.995	103.140	19.765	8.502	0.458
659.500	406.932	80.003	19.996	103.140	19.767	8.379	0.495
660.000	407.188	80.003	19.995	103.140	19.769	8.252	0.496
660.500	407.415	80.004	19.995	103.140	19.769	8.237	0.489
661.000	407.656	80.004	19.995	103.138	19.771	8.143	0.475
661.500	407.863	80.004	19.995	103.135	19.772	8.054	0.458
662.000	408.080	80.004	19.995	103.135	19.769	8.270	0.437
662.500	408.343	80.004	19.995	103.135	19.773	8.010	0.453
663.001	408.571	80.003	19.996	103.135	19.769	8.281	0.485
663.500	408.823	80.003	19.995	103.136	19.770	8.168	0.485
664.000	409.016	80.004	19.996	103.139	19.770	8.177	0.463
664.500	409.272	80.003	19.996	103.139	19.773	7.983	0.447
665.000	409.481	80.003	19.995	103.139	19.770	8.208	0.457
665.500	409.746	80.003	19.995	103.139	19.771	8.146	0.469
666.000	409.948	80.002	19.996	103.140	19.776	7.789	0.471
666.500	410.184	80.002	19.995	103.141	19.774	7.939	0.453
667.000	410.396	80.003	19.996	103.141	19.772	8.074	0.443
667.500	410.690	80.003	19.996	103.141	19.770	8.195	0.477
668.000	410.888	80.004	19.996	103.141	19.769	8.235	0.499
668.500	411.116	80.004	19.995	103.141	19.774	7.912	0.459
669.000	411.394	80.004	19.995	103.141	19.774	7.921	0.466
669.500	411.659	80.004	19.995	103.141	19.773	8.007	0.525
670.000	411.846	80.004	19.995	103.140	19.773	7.976	0.498
670.500	412.082	80.004	19.996	103.141	19.775	7.843	0.437
671.000	412.291	80.003	19.996	103.141	19.774	7.943	0.434
671.500	412.523	80.004	19.996	103.141	19.777	7.736	0.443
672.000	412.769	80.003	19.996	103.142	19.775	7.859	0.459
672.500	413.015	80.005	19.995	103.143	19.777	7.701	0.485
673.000	413.245	80.004	19.995	103.143	19.779	7.594	0.484
673.500	413.519	80.003	19.995	103.143	19.777	7.711	0.490
674.000	413.741	80.004	19.995	103.143	19.778	7.682	0.500
674.500	413.909	80.003	19.996	103.141	19.780	7.504	0.443
675.000	414.182	80.004	19.995	103.141	19.778	7.631	0.415
675.500	414.454	80.003	19.994	103.141	19.780	7.544	0.493
676.000	414.673	80.004	19.995	103.141	19.781	7.442	0.518
676.500	414.886	80.003	19.995	103.142	19.782	7.369	0.462
677.000	415.126	80.004	19.996	103.144	19.780	7.513	0.442
677.500	415.385	80.004	19.995	103.143	19.779	7.585	0.476
678.000	415.604	80.004	19.995	103.144	19.781	7.478	0.489
678.500	415.889	80.004	19.995	103.144	19.784	7.242	0.491
679.000	416.104	80.004	19.996	103.144	19.778	7.678	0.502
679.500	416.309	80.003	19.995	103.143	19.778	7.649	0.460
680.000	416.552	80.002	19.996	103.143	19.783	7.313	0.434
680.500	416.786	80.003	19.995	103.143	19.784	7.246	0.463
681.000	417.021	80.004	19.996	103.143	19.781	7.425	0.473
681.500	417.272	80.004	19.996	103.143	19.780	7.496	0.477
682.000	417.524	80.003	19.995	103.143	19.781	7.467	0.494
682.500	417.777	80.004	19.995	103.143	19.781	7.431	0.504
683.000	418.001	80.002	19.995	103.144	19.782	7.353	0.491
683.500	418.247	80.002	19.995	103.144	19.781	7.427	0.474
684.000	418.489	80.003	19.995	103.145	19.783	7.335	0.479
684.500	418.727	80.001	19.996	103.145	19.780	7.520	0.484
685.000	418.942	80.003	19.995	103.145	19.780	7.533	0.466
685.500	419.218	80.002	19.997	103.148	19.785	7.207	0.472
686.000	419.425	80.002	19.995	103.148	19.781	7.456	0.487
686.500	419.727	80.003	19.996	103.146	19.783	7.338	0.496
687.000	419.971	80.003	19.995	103.147	19.785	7.169	0.527
687.500	420.204	80.001	19.995	103.147	19.785	7.153	0.511
688.000	420.478	80.001	19.996	103.145	19.784	7.238	0.492
688.500	420.720	80.002	19.995	103.145	19.783	7.335	0.511
689.000	420.925	80.003	19.996	103.146	19.785	7.213	0.481
689.500	421.196	80.002	19.995	103.146	19.786	7.118	0.462
690.000	421.455	80.002	19.995	103.146	19.783	7.351	0.503
690.500	421.703	80.003	19.996	103.146	19.782	7.367	0.518
691.000	421.940	80.003	19.995	103.146	19.784	7.280	0.496
691.500	422.187	80.003	19.996	103.145	19.784	7.222	0.484
692.000	422.442	80.002	19.994	103.145	19.784	7.265	0.493
692.500	422.684	80.001	19.994	103.145	19.786	7.122	0.500
693.000	422.939	80.003	19.995	103.144	19.784	7.222	0.497
693.500	423.194	80.002	19.995	103.144	19.786	7.138	0.503
694.000	423.435	80.003	19.994	103.144	19.787	7.055	0.503
694.500	423.679	80.004	19.994	103.144	19.785	7.215	0.491
695.000	423.927	80.003	19.995	103.145	19.786	7.149	0.488
695.500	424.177	80.004	19.993	103.145	19.790	6.864	0.494
696.000	424.390	80.004	19.994	103.145	19.787	7.017	0.480
696.500	424.667	80.004	19.994	103.145	19.787	7.022	0.477
697.000	424.902	80.005	19.994	103.145	19.787	7.020	0.501
697.500	425.152	80.005	19.994	103.145	19.787	7.080	0.498
698.000	425.403	80.004	19.995	103.145	19.787	7.039	0.493
698.500	425.626	80.004	19.993	103.144	19.788	6.997	0.488
699.000	425.929	80.004	19.996	103.144	19.788	7.002	0.500
699.500	426.178	80.005	19.995	103.144	19.784	7.264	0.539
700.000	426.429	80.005	19.995	103.144	19.786	7.090	0.526
700.500	426.682	80.005	19.996	103.145	19.788	7.013	0.502
701.000	426.965	80.004	19.995	103.145	19.786	7.119	0.520
701.500	427.181	80.004	19.995	103.145	19.788	6.999	0.517
702.000	427.402	80.004	19.995	103.145	19.787	7.079	0.468
702.500	427.620	80.004	19.994	103.144	19.786	7.108	0.438
703.000	427.901	80.004	19.994	103.142	19.788	6.984	0.469
703.500	428.153	80.004	19.994	103.141	19.787	7.048	0.516
704.000	428.424	80.004	19.995	103.140	19.787	7.040	0.528
704.500	428.664	80.004	19.994	103.140	19.792	6.728	0.517
705.000	428.898	80.005	19.994	103.141	19.788	6.951	0.492
705.500	429.166	80.004	19.995	103.143	19.789	6.897	0.488
706.000	429.464	80.002	19.994	103.144	19.790	6.861	0.534
706.500	429.686	80.002	19.995	103.145	19.790	6.877	0.543
707.000	429.929	80.003	19.993	103.146	19.787	7.028	0.493
707.500	430.197	80.003	19.994	103.146	19.788	6.982	0.488
708.000	430.398	80.003	19.996	103.146	19.786	7.142	0.490
708.500	430.697	80.003	19.995	103.145	19.791	6.798	0.484
709.000	430.936	80.003	19.995	103.145	19.790	6.855	0.519
709.500	431.219	80.002	19.996	103.145	19.790	6.829	0.530
710.000	431.477	80.004	19.995	103.145	19.788	6.991	0.532
710.500	431.735	80.003	19.996	103.146	19.789	6.913	0.528
711.000	431.972	80.003	19.995	103.147	19.792	6.733	0.505
711.500	432.211	80.003	19.995	103.148	19.790	6.858	0.486
712.000	432.488	80.003	19.995	103.148	19.790	6.849	0.496
712.500	432.772	80.003	19.995	103.148	19.791	6.780	0.538
713.000	433.008	80.003	19.995	103.148	19.790	6.817	0.541
713.500	433.265	80.002	19.996	103.146	19.792	6.684	0.507
714.000	433.508	80.004	19.997	103.146	19.794	6.604	0.497
714.500	433.772	80.003	19.995	103.145	19.791	6.806	0.503
715.000	434.040	80.004	19.996	103.144	19.791	6.755	0.519
715.500	434.304	80.004	19.995	103.144	19.794	6.579	0.532
716.000	434.580	80.005	19.996	103.147	19.792	6.713	0.537
716.500	434.839	80.002	19.995	103.148	19.792	6.689	0.538
717.000	435.123	80.005	19.996	103.147	19.793	6.617	0.539
717.500	435.372	80.003	19.996	103.147	19.793	6.639	0.538
718.000	435.657	80.004	19.996	103.146	19.795	6.530	0.533
718.500	435.903	80.004	19.996	103.142	19.796	6.455	0.532
719.000	436.167	80.004	19.996	103.141	19.795	6.510	0.520
719.500	436.426	80.005	19.996	103.141	19.797	6.386	0.517
720.000	436.700	80.004	19.995	103.141	19.794	6.597	0.528
720.500	436.942	80.006	19.995	103.141	19.795	6.497	0.524
721.000	437.212	80.004	19.996	103.141	19.794	6.553	0.514
721.500	437.482	80.004	19.994	103.141	19.794	6.553	0.526
722.000	437.751	80.005	19.995	103.141	19.795	6.497	0.540
722.500	438.021	80.006	19.995	103.140	19.794	6.609	0.539
723.000	438.284	80.006	19.995	103.140	19.796	6.453	0.536
723.500	438.546	80.004	19.994	103.139	19.797	6.346	0.529
724.000	438.815	80.005	19.997	103.139	19.796	6.464	0.528
724.500	439.090	80.005	19.995	103.139	19.795	6.497	0.537
725.000	439.366	80.005	19.995	103.139	19.797	6.362	0.548
725.500	439.610	80.005	19.996	103.139	19.794	6.571	0.536
726.000	439.896	80.006	19.994	103.140	19.795	6.541	0.525
726.500	440.161	80.005	19.995	103.139	19.799	6.264	0.540
727.000	440.403	80.005	19.994	103.140	19.798	6.308	0.529
727.500	440.663	80.005	19.995	103.140	19.796	6.462	0.505
728.000	440.939	80.008	19.995	103.141	19.800	6.186	0.519
728.500	441.220	80.007	19.996	103.142	19.800	6.183	0.546
729.000	441.498	80.006	19.993	103.141	19.795	6.477	0.558
729.500	441.737	80.007	19.995	103.141	19.802	6.028	0.538
730.000	442.004	80.006	19.996	103.140	19.799	6.272	0.511
730.500	442.298	80.006	19.995	103.140	19.799	6.234	0.533
731.000	442.597	80.005	19.995	103.138	19.802	6.054	0.577
731.500	442.811	80.006	19.994	103.138	19.803	5.950	0.553
732.000	443.082	80.004	19.995	103.138	19.802	6.016	0.500
732.500	443.347	80.004	19.996	103.138	19.800	6.172	0.511
733.000	443.611	80.004	19.996	103.139	19.799	6.234	0.532
733.500	443.885	80.005	19.996	103.139	19.801	6.083	0.533
734.000	444.170	80.005	19.994	103.140	19.800	6.159	0.548
734.500	444.415	80.004	19.997	103.140	19.800	6.161	0.544
735.000	444.686	80.003	19.996	103.139	19.801	6.086	0.523
735.500	444.956	80.004	19.996	103.139	19.801	6.106	0.529
736.000	445.255	80.001	19.995	103.139	19.800	6.150	0.554
736.500	445.509	80.004	19.995	103.139	19.801	6.114	0.561
737.000	445.813	80.003	19.996	103.140	19.799	6.246	0.556
737.500	446.040	80.003	19.996	103.140	19.800	6.188	0.544
738.000	446.313	80.002	19.997	103.140	19.799	6.212	0.516
738.500	446.574	80.002	19.996	103.140	19.802	6.014	0.517
739.000	446.825	80.002	19.996	103.140	19.801	6.085	0.523
739.500	447.085	80.002	19.995	103.140	19.802	6.052	0.512
740.000	447.371	80.003	19.997	103.140	19.803	5.976	0.529
740.500	447.649	80.003	19.996	103.140	19.803	5.972	0.555
741.000	447.897	80.001	19.997	103.139	19.802	6.016	0.545
741.500	448.174	80.002	19.996	103.139	19.803	5.954	0.526
742.000	448.458	80.003	19.997	103.139	19.805	5.845	0.543
742.500	448.720	80.003	19.996	103.140	19.805	5.810	0.553
743.001	448.972	80.002	19.997	103.139	19.805	5.869	0.530
743.500	449.279	80.002	19.997	103.139	19.804	5.876	0.537
744.000	449.523	80.001	19.997	103.139	19.808	5.665	0.555
744.500	449.823	80.002	19.997	103.140	19.805	5.841	0.547
745.001	450.022	80.000	19.996	103.139	19.806	5.803	0.522
745.500	450.303	80.002	19.997	103.140	19.807	5.674	0.490
746.000	450.601	80.002	19.996	103.140	19.809	5.534	0.529
746.500	450.881	80.002	19.997	103.140	19.807	5.703	0.578
747.000	451.105	80.003	19.997	103.140	19.806	5.778	0.541
747.500	451.361	80.001	19.997	103.140	19.806	5.791	0.492
748.000	451.643	80.001	19.997	103.139	19.809	5.582	0.509
748.500	451.919	80.003	19.996	103.139	19.808	5.652	0.548
749.000	452.230	80.003	19.996	103.139	19.808	5.632	0.572
749.500	452.454	80.001	19.997	103.138	19.803	5.983	0.561
750.000	452.702	80.002	19.997	103.139	19.805	5.848	0.503
750.500	452.954	80.002	19.997	103.139	19.805	5.807	0.486
751.000	453.221	80.001	19.996	103.140	19.807	5.712	0.510
751.500	453.500	80.002	19.996	103.140	19.806	5.754	0.532
752.000	453.766	80.003	19.998	103.141	19.806	5.743	0.545
752.500	454.048	80.001	19.996	103.142	19.808	5.626	0.547
753.000	454.281	80.002	19.997	103.142	19.807	5.684	0.532
753.500	454.572	80.003	19.996	103.142	19.808	5.622	0.519
754.000	454.811	80.001	19.996	103.143	19.809	5.541	0.527
754.500	455.130	80.003	19.996	103.142	19.810	5.528	0.544
755.000	455.349	80.002	19.996	103.142	19.811	5.414	0.548
755.500	455.620	80.001	19.994	103.142	19.809	5.554	0.514
756.000	455.922	80.001	19.996	103.142	19.812	5.370	0.531
756.500	456.170	80.002	19.995	103.141	19.811	5.449	0.562
757.000	456.446	80.002	19.997	103.142	19.810	5.492	0.537
757.500	456.726	80.003	19.996	103.142	19.811	5.443	0.540
758.000	456.953	80.003	19.994	103.142	19.812	5.363	0.532
758.500	457.248	80.002	19.995	103.142	19.814	5.232	0.514
759.000	457.509	80.004	19.994	103.143	19.816	5.113	0.538
759.500	457.779	80.003	19.996	103.142	19.816	5.120	0.543
760.000	458.017	80.002	19.996	103.141	19.814	5.200	0.520
760.500	458.266	80.003	19.996	103.139	19.814	5.209	0.498
761.000	458.534	80.001	19.996	103.137	19.813	5.311	0.503
761.500	458.793	80.003	19.996	103.138	19.816	5.116	0.522
762.000	459.083	80.001	19.995	103.137	19.816	5.073	0.538
762.500	459.353	80.003	19.995	103.133	19.815	5.170	0.554
763.000	459.613	80.002	19.995	103.130	19.812	5.352	0.545
763.500	459.845	80.001	19.996	103.127	19.813	5.272	0.511
764.000	460.090	80.002	19.994	103.126	19.813	5.276	0.485
764.500	460.358	80.002	19.995	103.125	19.815	5.181	0.495
765.000	460.611	80.002	19.994	103.126	19.815	5.180	0.517
765.500	460.900	80.001	19.996	103.129	19.815	5.135	0.532
766.000	461.165	80.002	19.996	103.134	19.814	5.256	0.548
766.500	461.392	80.002	19.995	103.131	19.815	5.189	0.523
767.000	461.665	80.001	19.995	103.132	19.816	5.078	0.496
767.500	461.911	80.002	19.996	103.133	19.815	5.131	0.510
768.000	462.156	80.001	19.995	103.131	19.817	5.022	0.505
768.500	462.428	80.001	19.996	103.129	19.817	5.038	0.504
769.000	462.687	80.000	19.997	103.132	19.821	4.747	0.524
769.500	462.936	80.001	19.995	103.134	19.817	5.002	0.519
770.000	463.189	80.001	19.995	103.136	19.820	4.822	0.505
770.500	463.455	80.002	19.998	103.140	19.821	4.745	0.511
771.000	463.667	80.000	19.996	103.142	19.821	4.765	0.498
771.500	463.926	80.002	19.997	103.141	19.820	4.796	0.474
772.000	464.192	80.001	19.996	103.136	19.820	4.832	0.498
772.500	464.441	80.002	19.996	103.134	19.817	5.057	0.520
773.000	464.698	80.002	19.995	103.132	19.819	4.925	0.510
773.500	464.923	80.002	19.995	103.129	19.819	4.871	0.495
774.000	465.215	80.000	19.995	103.127	19.820	4.855	0.500
774.500	465.438	80.001	19.996	103.128	19.818	4.985	0.516
775.000	465.673	80.002	19.996	103.129	19.820	4.844	0.486
775.500	465.915	80.002	19.994	103.131	19.818	4.964	0.467
776.000	466.171	80.001	19.995	103.134	19.817	5.011	0.487
776.500	466.456	80.002	19.996	103.137	19.821	4.762	0.520
777.000	466.678	80.003	19.995	103.140	19.822	4.688	0.524
777.500	466.904	80.003	19.996	103.139	19.820	4.856	0.477
778.000	467.169	80.002	19.996	103.137	19.821	4.742	0.469
778.500	467.428	80.003	19.995	103.132	19.822	4.668	0.507
779.000	467.680	80.002	19.995	103.131	19.820	4.846	0.517
779.500	467.936	80.003	19.995	103.129	19.822	4.664	0.510
780.000	468.171	80.003	19.995	103.128	19.825	4.470	0.500
780.500	468.381	80.003	19.995	103.130	19.822	4.704	0.468
781.000	468.659	80.004	19.994	103.132	19.822	4.713	0.466
781.500	468.948	80.002	19.995	103.125	19.823	4.649	0.527
782.000	469.172	80.004	19.995	103.120	19.824	4.535	0.540
782.500	469.387	80.005	19.995	103.117	19.821	4.784	0.477
783.000	469.663	80.006	19.995	103.117	19.823	4.604	0.465
783.500	469.914	80.005	19.994	103.117	19.825	4.497	0.509
784.000	470.170	80.005	19.994	103.123	19.826	4.448	0.517
784.500	470.437	80.005	19.996	103.130	19.824	4.566	0.515
785.000	470.669	80.004	19.994	103.133	19.824	4.531	0.511
785.500	470.897	80.005	19.995	103.134	19.829	4.226	0.480
786.000	471.166	80.005	19.994	103.134	19.827	4.334	0.478
786.500	471.383	80.004	19.994	103.133	19.829	4.197	0.491
787.000	471.629	80.005	19.995	103.131	19.826	4.437	0.474
787.500	471.860	80.004	19.996	103.133	19.826	4.423	0.470
788.000	472.094	80.005	19.995	103.133	19.827	4.352	0.471
788.500	472.360	80.005	19.995	103.133	19.826	4.421	0.483
789.000	472.597	80.004	19.994	103.134	19.826	4.421	0.502
789.500	472.880	80.005	19.995	103.135	19.826	4.419	0.511
790.000	473.139	80.004	19.996	103.136	19.825	4.466	0.531
790.500	473.376	80.005	19.995	103.132	19.825	4.461	0.519
791.000	473.626	80.005	19.996	103.133	19.828	4.259	0.491
791.500	473.894	80.005	19.996	103.136	19.829	4.250	0.503
792.000	474.143	80.004	19.994	103.134	19.827	4.337	0.518
792.500	474.392	80.003	19.996	103.132	19.829	4.217	0.507
793.000	474.672	80.003	19.995	103.134	19.827	4.322	0.513
793.500	474.905	80.005	19.995	103.134	19.828	4.266	0.521
794.000	475.115	80.003	19.994	103.129	19.829	4.240	0.478
794.500	475.399	80.004	19.995	103.128	19.827	4.331	0.469
795.000	475.631	80.004	19.995	103.131	19.829	4.210	0.505
795.500	475.867	80.004	19.994	103.132	19.827	4.351	0.492
796.000	476.123	80.005	19.995	103.132	19.828	4.295	0.480
796.500	476.365	80.004	19.995	103.136	19.829	4.219	0.495
797.001	476.609	80.002	19.995	103.138	19.831	4.061	0.492
797.500	476.846	80.005	19.995	103.138	19.830	4.181	0.484
798.000	477.063	80.004	19.995	103.137	19.828	4.308	0.467
798.500	477.361	80.003	19.994	103.136	19.829	4.217	0.485
799.000	477.609	80.004	19.995	103.134	19.830	4.177	0.530
799.500	477.822	80.005	19.995	103.133	19.827	4.361	0.503
800.000	478.054	80.005	19.995	103.132	19.830	4.123	0.453
800.500	478.370	80.003	19.995	103.133	19.827	4.333	0.496
801.000	478.571	80.005	19.994	103.136	19.831	4.101	0.532
801.500	478.814	80.005	19.995	103.137	19.830	4.137	0.481
802.000	479.052	80.005	19.995	103.136	19.830	4.186	0.463
802.500	479.313	80.005	19.995	103.131	19.825	4.522	0.490
803.000	479.564	80.006	19.995	103.123	19.827	4.379	0.505
803.500	479.784	80.005	19.995	103.119	19.827	4.386	0.491
804.000	480.060	80.005	19.996	103.116	19.827	4.324	0.484
804.500	480.319	80.006	19.996	103.118	19.826	4.444	0.516
805.000	480.581	80.004	19.994	103.123	19.825	4.488	0.528
805.500	480.789	80.004	19.995	103.128	19.826	4.424	0.495
806.000	481.059	80.005	19.996	103.125	19.826	4.423	0.473
806.500	481.301	80.005	19.996	103.123	19.827	4.344	0.494
807.000	481.552	80.006	19.996	103.122	19.825	4.495	0.502
807.500	481.804	80.006	19.995	103.122	19.829	4.210	0.498
808.000	482.069	80.006	19.995	103.124	19.827	4.364	0.510
808.500	482.305	80.006	19.996	103.131	19.823	4.651	0.509
809.001	482.521	80.005	19.995	103.135	19.828	4.272	0.477
809.501	482.799	80.006	19.995	103.135	19.826	4.443	0.473
810.000	483.027	80.005	19.995	103.131	19.827	4.363	0.500
810.500	483.269	80.005	19.996	103.131	19.832	4.010	0.488
811.000	483.550	80.006	19.994	103.131	19.831	4.086	0.496
811.500	483.807	80.005	19.996	103.133	19.829	4.208	0.531
812.000	484.015	80.005	19.996	103.133	19.830	4.182	0.501
812.500	484.250	80.007	19.995	103.136	19.828	4.273	0.454
813.000	484.496	80.004	19.995	103.134	19.829	4.243	0.462
813.500	484.757	80.005	19.995	103.131	19.828	4.277	0.494
814.000	485.002	80.004	19.995	103.129	19.831	4.066	0.506
814.500	485.235	80.004	19.995	103.131	19.828	4.317	0.492
815.000	485.514	80.004	19.994	103.133	19.832	4.007	0.495
815.500	485.764	80.004	19.995	103.134	19.829	4.194	0.520
816.000	486.004	80.004	19.995	103.134	19.829	4.250	0.509
816.500	486.270	80.001	19.994	103.136	19.830	4.178	0.498
817.000	486.487	80.004	19.996	103.136	19.830	4.159	0.494
817.500	486.729	80.002	19.994	103.133	19.829	4.248	0.471
818.000	486.983	80.002	19.996	103.131	19.828	4.270	0.478
818.500	487.213	80.003	19.995	103.133	19.828	4.264	0.491
819.000	487.484	80.002	19.995	103.132	19.827	4.322	0.493
819.500	487.722	80.003	19.996	103.132	19.830	4.157	0.505
820.001	487.969	80.002	19.995	103.136	19.830	4.148	0.497
820.500	488.250	80.002	19.996	103.137	19.829	4.248	0.506
821.000	488.491	80.002	19.995	103.137	19.828	4.279	0.524
821.501	488.769	80.002	19.996	103.133	19.829	4.235	0.521
822.000	488.995	80.002	19.995	103.130	19.830	4.175	0.512
822.500	489.241	80.003	19.996	103.128	19.828	4.292	0.488
823.000	489.508	80.003	19.994	103.128	19.828	4.308	0.493
823.500	489.738	80.001	19.995	103.128	19.831	4.074	0.505
824.000	490.035	80.003	19.996	103.132	19.832	4.041	0.512
824.500	490.276	80.001	19.997	103.131	19.833	3.921	0.532
825.000	490.534	80.001	19.996	103.131	19.833	3.934	0.518
825.500	490.769	80.002	19.996	103.133	19.831	4.068	0.496
826.000	491.034	80.002	19.995	103.136	19.833	3.950	0.497
826.500	491.266	80.001	19.995	103.138	19.831	4.086	0.499
827.000	491.542	80.003	19.996	103.141	19.829	4.208	0.503
827.500	491.772	80.003	19.995	103.141	19.832	4.039	0.507
828.000	492.050	80.002	19.997	103.135	19.832	4.025	0.507
828.500	492.266	80.002	19.997	103.130	19.831	4.070	0.501
829.000	492.583	80.002	19.996	103.128	19.834	3.866	0.514
829.500	492.812	80.002	19.995	103.126	19.832	4.032	0.540
830.000	493.053	80.003	19.996	103.122	19.832	4.019	0.508
830.500	493.314	80.002	19.996	103.122	19.831	4.111	0.486
831.000	493.565	80.002	19.996	103.122	19.832	3.986	0.507
831.500	493.787	80.002	19.995	103.122	19.835	3.833	0.493
832.000	494.064	80.001	19.997	103.124	19.833	3.951	0.486
832.500	494.339	80.002	19.996	103.129	19.832	4.030	0.525
833.000	494.593	80.001	19.995	103.134	19.833	3.926	0.540
833.500	494.886	80.000	19.996	103.137	19.832	4.008	0.538
834.000	495.124	80.001	19.997	103.137	19.830	4.157	0.539
834.500	495.372	80.001	19.995	103.138	19.831	4.110	0.509
835.000	495.631	80.003	19.996	103.138	19.829	4.248	0.496
835.500	495.878	80.001	19.996	103.136	19.831	4.088	0.506
836.000	496.108	80.001	19.996	103.136	19.831	4.097	0.491
836.500	496.365	80.001	19.996	103.134	19.828	4.311	0.482
837.000	496.631	80.000	19.995	103.133	19.830	4.149	0.505
837.500	496.900	80.000	19.995	103.133	19.831	4.104	0.529
838.000	497.180	80.001	19.997	103.136	19.829	4.217	0.542
838.500	497.405	80.002	19.996	103.137	19.830	4.168	0.527
839.000	497.715	80.002	19.996	103.134	19.829	4.206	0.519
839.500	497.980	80.002	19.996	103.129	19.827	4.335	0.555
840.000	498.177	80.002	19.997	103.128	19.830	4.179	0.519
840.500	498.437	80.001	19.997	103.125	19.829	4.197	0.459
841.000	498.698	80.002	19.995	103.121	19.831	4.072	0.489
841.500	498.950	80.002	19.997	103.121	19.827	4.384	0.517
842.000	499.225	80.001	19.996	103.121	19.834	3.906	0.520
842.500	499.412	80.002	19.996	103.119	19.828	4.255	0.495
843.000	499.709	80.002	19.996	103.117	19.829	4.188	0.473
843.500	499.950	80.002	19.997	103.121	19.832	4.037	0.511
844.000	500.219	80.003	19.996	103.123	19.832	4.035	0.524
844.500	500.457	80.002	19.996	103.126	19.833	3.948	0.508
845.000	500.712	80.001	19.996	103.126	19.832	4.005	0.500
845.500	500.973	80.001	19.996	103.129	19.830	4.175	0.505
846.001	501.249	80.003	19.996	103.129	19.833	3.975	0.527
846.500	501.476	80.002	19.995	103.128	19.832	4.019	0.520
847.000	501.757	80.003	19.996	103.125	19.835	3.797	0.505
847.500	501.998	80.002	19.995	103.122	19.832	4.039	0.515
848.000	502.267	80.002	19.995	103.119	19.836	3.747	0.516
848.500	502.484	80.002	19.995	103.119	19.834	3.914	0.498
849.000	502.780	80.001	19.995	103.122	19.835	3.790	0.500
849.500	503.002	80.002	19.996	103.126	19.833	3.957	0.516
850.000	503.202	80.001	19.997	103.132	19.835	3.812	0.470
850.500	503.457	80.002	19.997	103.135	19.835	3.805	0.438
851.000	503.748	80.001	19.995	103.132	19.835	3.836	0.500
851.500	504.009	80.001	19.995	103.128	19.835	3.830	0.549
852.000	504.256	80.003	19.995	103.129	19.838	3.638	0.530
852.500	504.504	80.001	19.995	103.129	19.834	3.874	0.502
853.000	504.739	80.001	19.996	103.126	19.834	3.868	0.489
853.500	505.000	80.002	19.997	103.127	19.833	3.930	0.490
854.000	505.267	80.002	19.995	103.129	19.836	3.734	0.512
854.500	505.495	80.003	19.995	103.128	19.835	3.814	0.511
855.000	505.785	80.002	19.995	103.130	19.835	3.785	0.506
855.500	506.038	80.003	19.995	103.134	19.837	3.711	0.531
856.000	506.274	80.001	19.995	103.134	19.836	3.765	0.516
856.500	506.539	80.002	19.994	103.129	19.837	3.700	0.495
857.000	506.778	80.002	19.995	103.127	19.837	3.665	0.503
857.500	507.075	80.002	19.996	103.127	19.839	3.547	0.520
858.000	507.302	80.002	19.995	103.127	19.837	3.712	0.530
858.500	507.552	80.003	19.995	103.129	19.836	3.734	0.500
859.000	507.833	80.003	19.996	103.131	19.835	3.805	0.504
859.500	508.100	80.003	19.997	103.130	19.838	3.616	0.539
860.000	508.309	80.002	19.995	103.129	19.839	3.545	0.512
860.500	508.589	80.003	19.995	103.129	19.837	3.672	0.483
861.000	508.861	80.004	19.997	103.128	19.839	3.577	0.520
861.500	509.109	80.003	19.995	103.132	19.837	3.650	0.535
862.000	509.395	80.003	19.995	103.137	19.840	3.512	0.527
862.500	509.610	80.005	19.995	103.136	19.839	3.565	0.517
863.000	509.884	80.004	19.995	103.136	19.836	3.748	0.495
863.500	510.124	80.003	19.994	103.135	19.840	3.505	0.502
864.000	510.376	80.004	19.995	103.134	19.838	3.621	0.503
864.500	510.677	80.004	19.995	103.133	19.841	3.409	0.522
865.000	510.896	80.004	19.996	103.136	19.839	3.527	0.536
865.500	511.121	80.004	19.996	103.136	19.837	3.712	0.482
866.000	511.402	80.004	19.994	103.139	19.840	3.463	0.475
866.500	511.666	80.004	19.994	103.139	19.838	3.590	0.526
867.000	511.889	80.005	19.995	103.139	19.838	3.608	0.516
867.500	512.177	80.004	19.995	103.138	19.837	3.665	0.499
868.000	512.420	80.004	19.995	103.137	19.836	3.777	0.521
868.500	512.703	80.004	19.995	103.136	19.836	3.723	0.529
869.000	512.942	80.003	19.995	103.134	19.835	3.803	0.524
869.500	513.185	80.003	19.995	103.127	19.836	3.761	0.502
870.000	513.459	80.005	19.995	103.124	19.837	3.683	0.500
870.500	513.721	80.003	19.996	103.123	19.837	3.714	0.527
871.000	513.969	80.004	19.997	103.120	19.837	3.698	0.523
871.500	514.261	80.005	19.996	103.120	19.835	3.810	0.525
872.000	514.490	80.004	19.994	103.122	19.835	3.805	0.530
872.500	514.774	80.006	19.997	103.123	19.836	3.780	0.517
873.000	515.016	80.003	19.996	103.124	19.837	3.670	0.520
873.500	515.297	80.004	19.995	103.126	19.835	3.823	0.525
874.000	515.556	80.004	19.996	103.129	19.836	3.730	0.532
874.500	515.799	80.003	19.996	103.133	19.834	3.867	0.521
875.000	516.065	80.003	19.995	103.134	19.835	3.803	0.505
875.500	516.314	80.004	19.995	103.129	19.837	3.687	0.512
876.000	516.594	80.004	19.996	103.126	19.835	3.843	0.522
876.500	516.847	80.004	19.994	103.121	19.835	3.851	0.531
877.000	517.111	80.004	19.995	103.115	19.832	4.014	0.525
877.500	517.336	80.003	19.996	103.115	19.835	3.825	0.503
878.000	517.623	80.003	19.996	103.118	19.833	3.951	0.500
878.500	517.892	80.004	19.995	103.118	19.834	3.856	0.534
879.000	518.134	80.003	19.996	103.119	19.836	3.772	0.533
879.500	518.395	80.003	19.994	103.120	19.833	3.930	0.507
880.000	518.643	80.003	19.995	103.123	19.836	3.743	0.506
880.500	518.922	80.003	19.996	103.127	19.839	3.563	0.518
881.000	519.132	80.004	19.995	103.129	19.836	3.777	0.508
881.500	519.412	80.004	19.996	103.133	19.838	3.585	0.490
882.000	519.669	80.005	19.994	103.136	19.839	3.569	0.514
882.500	519.915	80.004	19.995	103.137	19.834	3.863	0.520
883.000	520.205	80.004	19.995	103.134	19.833	3.924	0.519
883.500	520.454	80.004	19.995	103.134	19.838	3.648	0.537
884.000	520.710	80.004	19.995	103.133	19.837	3.713	0.522
884.500	520.965	80.004	19.994	103.133	19.841	3.434	0.508
885.000	521.219	80.003	19.995	103.133	19.839	3.527	0.511
885.500	521.473	80.006	19.993	103.136	19.838	3.623	0.508
886.000	521.754	80.005	19.995	103.137	19.838	3.589	0.521
886.500	521.966	80.004	19.996	103.140	19.839	3.567	0.513
887.000	522.264	80.004	19.995	103.142	19.837	3.716	0.502
887.500	522.489	80.005	19.995	103.141	19.839	3.565	0.517
888.000	522.780	80.006	19.995	103.142	19.838	3.598	0.520
888.500	523.013	80.005	19.995	103.143	19.839	3.525	0.520
889.000	523.250	80.005	19.995	103.142	19.839	3.532	0.497
889.500	523.529	80.005	19.995	103.141	19.836	3.779	0.493
890.000	523.786	80.006	19.995	103.137	19.836	3.719	0.526
890.500	524.074	80.006	19.995	103.132	19.838	3.614	0.540
891.000	524.287	80.005	19.997	103.127	19.837	3.668	0.523
891.500	524.568	80.005	19.995	103.124	19.839	3.563	0.498
892.000	524.780	80.005	19.993	103.124	19.840	3.480	0.494
892.500	525.060	80.005	19.994	103.128	19.837	3.665	0.492
893.000	525.308	80.005	19.995	103.129	19.838	3.596	0.510
893.500	525.581	80.004	19.994	103.127	19.837	3.674	0.524
894.000	525.834	80.006	19.996	103.124	19.839	3.514	0.524
894.500	526.095	80.004	19.995	103.119	19.839	3.581	0.520
895.000	526.341	80.004	19.994	103.114	19.839	3.514	0.511
895.500	526.606	80.004	19.996	103.113	19.837	3.661	0.509
896.000	526.850	80.004	19.994	103.118	19.835	3.821	0.509
896.500	527.106	80.004	19.994	103.123	19.838	3.628	0.504
897.000	527.331	80.003	19.995	103.127	19.839	3.525	0.491
897.500	527.653	80.003	19.995	103.133	19.836	3.737	0.514
898.000	527.900	80.002	19.995	103.134	19.838	3.594	0.558
898.500	528.167	80.002	19.995	103.128	19.841	3.427	0.541
899.000	528.410	80.002	19.995	103.126	19.838	3.632	0.512
899.500	528.660	80.002	19.995	103.125	19.837	3.659	0.502
900.000	528.915	80.002	19.995	103.123	19.839	3.518	0.500
900.500	529.157	80.001	19.996	103.119	19.841	3.438	0.501
901.000	529.412	80.001	19.995	103.125	19.840	3.489	0.497
901.500	529.637	80.001	19.995	103.125	19.839	3.529	0.488
902.000	529.913	80.001	19.995	103.126	19.838	3.587	0.490
902.500	530.176	80.003	19.996	103.129	19.838	3.596	0.519
903.000	530.446	80.000	19.995	103.134	19.838	3.639	0.536
903.500	530.673	80.001	19.995	103.132	19.838	3.612	0.515
904.000	530.941	80.002	19.995	103.130	19.839	3.534	0.496
904.500	531.196	80.000	19.995	103.126	19.838	3.614	0.509
905.000	531.462	80.003	19.994	103.120	19.839	3.528	0.522
905.500	531.712	80.002	19.996	103.115	19.839	3.528	0.518
906.000	531.990	80.004	19.996	103.114	19.837	3.698	0.522
906.500	532.209	80.003	19.995	103.114	19.839	3.554	0.512
907.000	532.457	80.003	19.995	103.114	19.840	3.500	0.482
907.500	532.742	80.002	19.995	103.115	19.837	3.663	0.500
908.000	532.994	80.003	19.996	103.116	19.839	3.549	0.535
908.500	533.254	80.003	19.996	103.116	19.835	3.795	0.524
909.000	533.510	80.001	19.996	103.118	19.839	3.552	0.514
909.500	533.733	80.002	19.995	103.119	19.836	3.764	0.498
910.000	534.005	80.002	19.995	103.123	19.839	3.581	0.487
910.500	534.259	80.002	19.995	103.123	19.837	3.691	0.511
911.000	534.476	80.003	19.996	103.125	19.836	3.739	0.498
911.500	534.781	80.003	19.996	103.128	19.839	3.573	0.496
912.000	535.054	80.002	19.994	103.132	19.840	3.477	0.550
912.500	535.305	80.003	19.995	103.130	19.839	3.555	0.551
913.000	535.527	80.001	19.996	103.129	19.839	3.519	0.499
913.500	535.809	80.004	19.996	103.127	19.840	3.495	0.489
914.000	536.091	80.003	19.996	103.121	19.838	3.635	0.534
914.501	536.340	80.004	19.996	103.114	19.837	3.681	0.547
915.000	536.602	80.003	19.995	103.114	19.840	3.497	0.520
915.500	536.827	80.003	19.995	103.118	19.840	3.506	0.499
916.000	537.076	80.002	19.996	103.116	19.842	3.345	0.481
916.500	537.362	80.004	19.995	103.121	19.840	3.510	0.505
917.000	537.607	80.003	19.995	103.128	19.839	3.530	0.534
917.500	537.875	80.002	19.996	103.130	19.838	3.603	0.522
918.000	538.100	80.002	19.995	103.128	19.839	3.552	0.503
918.500	538.349	80.003	19.996	103.131	19.836	3.761	0.483
919.000	538.647	80.003	19.995	103.126	19.838	3.587	0.511
919.500	538.910	80.004	19.995	103.122	19.836	3.719	0.554
920.000	539.166	80.003	19.996	103.119	19.837	3.710	0.540
920.500	539.432	80.004	19.995	103.115	19.839	3.575	0.520
921.000	539.649	80.001	19.995	103.111	19.838	3.606	0.502
921.500	539.934	80.004	19.995	103.109	19.838	3.628	0.493
922.000	540.172	80.003	19.996	103.108	19.836	3.728	0.512
922.500	540.419	80.003	19.996	103.107	19.836	3.751	0.503
923.000	540.675	80.002	19.997	103.110	19.836	3.744	0.494
923.500	540.924	80.002	19.996	103.111	19.836	3.717	0.504
924.000	541.188	80.003	19.996	103.111	19.834	3.903	0.509
924.500	541.462	80.003	19.996	103.109	19.834	3.874	0.525
925.000	541.710	80.003	19.997	103.108	19.837	3.716	0.530
925.500	541.964	80.003	19.996	103.109	19.835	3.817	0.512
926.000	542.264	80.002	19.999	103.110	19.836	3.783	0.528
926.500	542.496	80.003	19.996	103.112	19.836	3.755	0.543
927.000	542.736	80.002	19.996	103.112	19.836	3.732	0.502
927.500	543.037	80.003	19.996	103.115	19.836	3.783	0.506
928.000	543.283	80.003	19.996	103.114	19.838	3.596	0.544
928.500	543.533	80.003	19.997	103.117	19.838	3.614	0.522
929.000	543.757	80.002	19.996	103.118	19.836	3.732	0.485
929.500	544.021	80.002	19.995	103.122	19.833	3.924	0.481
930.000	544.320	80.001	19.997	103.121	19.838	3.631	0.526
930.500	544.535	80.002	19.996	103.121	19.837	3.688	0.539
931.000	544.762	80.001	19.995	103.118	19.838	3.603	0.478
931.500	545.042	80.002	19.998	103.115	19.839	3.534	0.474
932.000	545.268	80.001	19.997	103.112	19.837	3.674	0.507
932.500	545.554	80.003	19.997	103.112	19.840	3.510	0.509
933.001	545.826	80.001	19.998	103.111	19.836	3.739	0.535
933.500	546.085	80.002	19.996	103.110	19.836	3.743	0.544
934.000	546.317	80.001	19.996	103.114	19.838	3.641	0.510
934.500	546.584	80.002	19.997	103.120	19.837	3.697	0.495
935.000	546.846	80.001	19.996	103.124	19.837	3.696	0.515
935.500	547.114	80.000	19.998	103.126	19.836	3.774	0.530
936.000	547.354	80.002	19.995	103.126	19.838	3.645	0.519
936.500	547.604	80.001	19.998	103.121	19.836	3.721	0.499
937.000	547.880	80.003	19.998	103.117	19.837	3.683	0.508
937.500	548.145	80.003	19.996	103.116	19.839	3.530	0.534
938.000	548.375	80.001	19.996	103.118	19.836	3.779	0.518
938.500	548.670	80.003	19.995	103.123	19.838	3.630	0.510
939.000	548.877	80.003	19.995	103.124	19.840	3.468	0.514
939.500	549.133	80.003	19.996	103.122	19.837	3.674	0.482
940.000	549.400	80.001	19.995	103.115	19.837	3.663	0.493
940.500	549.665	80.002	19.995	103.109	19.837	3.677	0.528
941.000	549.918	80.003	19.995	103.107	19.840	3.477	0.525
941.500	550.176	80.003	19.995	103.111	19.838	3.648	0.514
942.000	550.443	80.003	19.996	103.116	19.839	3.536	0.518
942.500	550.705	80.004	19.995	103.119	19.840	3.497	0.527
943.000	550.982	80.003	19.995	103.122	19.839	3.527	0.534
943.500	551.254	80.004	19.995	103.127	19.839	3.550	0.544
944.000	551.506	80.004	19.995	103.126	19.840	3.503	0.536
944.500	551.751	80.004	19.995	103.124	19.837	3.658	0.511
945.000	552.020	80.005	19.993	103.123	19.840	3.510	0.506
945.500	552.262	80.004	19.994	103.124	19.841	3.420	0.513
946.000	552.537	80.005	19.995	103.123	19.839	3.559	0.514
946.500	552.785	80.006	19.993	103.125	19.839	3.519	0.520
947.000	553.047	80.004	19.996	103.124	19.840	3.479	0.516
947.500	553.279	80.004	19.993	103.127	19.838	3.624	0.502
948.000	553.556	80.005	19.996	103.123	19.841	3.425	0.502
948.500	553.799	80.004	19.995	103.121	19.837	3.704	0.515
949.000	554.064	80.004	19.996	103.117	19.837	3.652	0.514
949.500	554.313	80.006	19.996	103.117	19.841	3.432	0.511
950.000	554.598	80.006	19.996	103.111	19.837	3.668	0.524
950.500	554.859	80.006	19.995	103.116	19.839	3.561	0.540
951.000	555.092	80.005	19.995	103.115	19.836	3.723	0.520
951.500	555.386	80.004	19.995	103.116	19.838	3.583	0.510
952.000	555.625	80.004	19.996	103.119	19.838	3.586	0.530
952.500	555.876	80.004	19.996	103.118	19.839	3.572	0.512
953.000	556.159	80.003	19.994	103.119	19.839	3.539	0.512
953.500	556.412	80.004	19.996	103.118	19.841	3.412	0.535
954.000	556.685	80.004	19.996	103.118	19.838	3.635	0.531
954.501	556.935	80.005	19.996	103.119	19.840	3.503	0.524
955.000	557.205	80.003	19.996	103.124	19.840	3.503	0.521
955.500	557.462	80.003	19.996	103.125	19.839	3.530	0.523
956.000	557.723	80.002	19.995	103.126	19.839	3.558	0.523
956.500	557.958	80.004	19.996	103.123	19.840	3.474	0.507
957.000	558.223	80.004	19.994	103.119	19.840	3.450	0.498
957.500	558.504	80.005	19.996	103.114	19.841	3.385	0.523
958.000	558.776	80.003	19.995	103.108	19.839	3.579	0.549
958.500	559.018	80.004	19.995	103.108	19.838	3.625	0.534
959.000	559.263	80.004	19.996	103.113	19.838	3.585	0.501
959.500	559.530	80.005	19.995	103.115	19.839	3.536	0.500
960.000	559.776	80.003	19.995	103.116	19.839	3.519	0.513
960.500	560.010	80.003	19.995	103.117	19.839	3.554	0.496
961.000	560.258	80.003	19.996	103.115	19.840	3.457	0.481
961.500	560.524	80.004	19.995	103.113	19.839	3.537	0.498
962.000	560.794	80.003	19.994	103.116	19.839	3.533	0.525
962.500	561.048	80.003	19.994	103.117	19.840	3.466	0.530
963.000	561.330	80.002	19.996	103.116	19.840	3.461	0.530
963.500	561.572	80.004	19.996	103.115	19.840	3.508	0.530
964.000	561.848	80.003	19.995	103.113	19.839	3.577	0.520
964.500	562.109	80.003	19.996	103.109	19.836	3.723	0.527
965.000	562.365	80.003	19.994	103.115	19.837	3.655	0.527
965.500	562.619	80.003	19.994	103.120	19.837	3.695	0.514
966.000	562.870	80.003	19.996	103.120	19.837	3.652	0.508
966.500	563.121	80.003	19.994	103.119	19.837	3.668	0.504
967.000	563.361	80.003	19.994	103.123	19.840	3.510	0.496
967.500	563.642	80.006	19.995	103.118	19.842	3.312	0.505
968.000	563.894	80.004	19.994	103.115	19.838	3.646	0.527
968.500	564.175	80.005	19.995	103.118	19.839	3.581	0.533
969.000	564.429	80.004	19.995	103.120	19.841	3.407	0.534
969.500	564.687	80.005	19.995	103.121	19.840	3.468	0.524
970.000	564.902	80.004	19.994	103.118	19.835	3.814	0.493
970.500	565.174	80.005	19.995	103.117	19.838	3.616	0.480
971.000	565.399	80.005	19.995	103.115	19.840	3.510	0.492
971.500	565.683	80.006	19.995	103.114	19.837	3.694	0.503
972.000	565.933	80.005	19.995	103.108	19.838	3.612	0.522
972.500	566.219	80.006	19.995	103.109	19.836	3.730	0.535
973.000	566.468	80.006	19.993	103.109	19.839	3.534	0.536
973.500	566.721	80.006	19.994	103.110	19.839	3.521	0.518
974.000	566.975	80.006	19.993	103.116	19.838	3.637	0.505
974.500	567.226	80.005	19.994	103.118	19.836	3.720	0.506
975.000	567.484	80.007	19.994	103.117	19.835	3.799	0.507
975.500	567.771	80.005	19.994	103.116	19.840	3.463	0.527
976.000	568.040	80.005	19.994	103.114	19.841	3.441	0.551
976.500	568.275	80.005	19.996	103.111	19.838	3.607	0.530
977.000	568.518	80.005	19.994	103.112	19.840	3.468	0.491
977.500	568.777	80.005	19.994	103.113	19.839	3.517	0.490
978.000	569.059	80.005	19.995	103.113	19.836	3.732	0.522
978.500	569.285	80.004	19.995	103.113	19.838	3.614	0.525
979.000	569.540	80.005	19.995	103.115	19.835	3.841	0.494
979.500	569.825	80.003	19.994	103.114	19.839	3.537	0.510
980.000	570.053	80.004	19.995	103.116	19.838	3.626	0.526
980.501	570.301	80.004	19.994	103.120	19.839	3.564	0.494
981.001	570.577	80.003	19.994	103.121	19.840	3.494	0.501
981.500	570.823	80.003	19.995	103.119	19.839	3.568	0.523
982.000	571.101	80.002	19.995	103.118	19.835	3.833	0.523
982.500	571.391	80.004	19.994	103.119	19.837	3.693	0.546
983.000	571.608	80.003	19.995	103.118	19.837	3.684	0.537
983.500	571.840	80.003	19.994	103.116	19.837	3.693	0.478
984.000	572.107	80.002	19.994	103.113	19.838	3.617	0.474
984.500	572.377	80.002	19.995	103.111	19.837	3.691	0.518
985.000	572.648	80.003	19.994	103.109	19.836	3.771	0.539
985.500	572.917	80.004	19.995	103.108	19.837	3.661	0.541
986.000	573.169	80.003	19.995	103.112	19.837	3.715	0.530
986.500	573.416	80.005	19.994	103.116	19.838	3.613	0.510
987.000	573.647	80.003	19.995	103.119	19.836	3.735	0.489
987.500	573.953	80.002	19.995	103.121	19.836	3.768	0.507
988.000	574.207	80.003	19.995	103.121	19.838	3.601	0.548
988.500	574.455	80.003	19.995	103.118	19.837	3.693	0.531
989.000	574.726	80.003	19.994	103.118	19.834	3.900	0.510
989.500	575.007	80.004	19.994	103.116	19.836	3.723	0.535
990.000	575.278	80.002	19.995	103.114	19.839	3.517	0.552
990.500	575.499	80.002	19.994	103.113	19.839	3.517	0.522
991.000	575.821	80.004	19.996	103.113	19.840	3.450	0.517
991.500	576.054	80.003	19.994	103.112	19.837	3.695	0.549
992.000	576.298	80.003	19.996	103.113	19.839	3.539	0.516
992.500	576.555	80.003	19.997	103.115	19.839	3.544	0.489
993.000	576.813	80.003	19.995	103.115	19.842	3.363	0.508
993.500	577.091	80.003	19.995	103.115	19.838	3.604	0.525
994.000	577.337	80.003	19.995	103.111	19.839	3.539	0.530
994.500	577.592	80.002	19.996	103.110	19.839	3.521	0.512
995.000	577.821	80.003	19.996	103.108	19.840	3.472	0.493
995.500	578.102	80.003	19.996	103.111	19.844	3.203	0.498
996.000	578.329	80.003	19.995	103.113	19.837	3.686	0.509
996.500	578.608	80.003	19.995	103.113	19.840	3.499	0.507
997.000	578.840	80.003	19.994	103.111	19.838	3.639	0.509
997.500	579.117	80.003	19.994	103.109	19.839	3.537	0.510
998.000	579.351	80.003	19.996	103.105	19.837	3.681	0.510
998.500	579.621	80.004	19.995	103.104	19.836	3.740	0.508
999.000	579.874	80.004	19.996	103.108	19.840	3.493	0.513
999.500	580.125	80.004	19.996	103.113	19.839	3.530	0.513
1000.000	580.409	80.005	19.994	103.115	19.839	3.542	0.520
1000.500	580.641	80.004	19.996	103.117	19.838	3.591	0.526
1001.000	580.917	80.003	19.996	103.119	19.839	3.552	0.512
1001.500	581.122	80.005	19.995	103.116	19.839	3.517	0.494
1002.000	581.418	80.003	19.996	103.112	19.839	3.541	0.491
1002.500	581.651	80.005	19.996	103.110	19.838	3.604	0.515
1003.000	581.917	80.002	19.997	103.108	19.841	3.436	0.514
1003.500	582.177	80.005	19.996	103.105	19.840	3.488	0.513
1004.000	582.455	80.003	19.995	103.105	19.842	3.377	0.532
1004.500	582.711	80.004	19.995	103.106	19.841	3.432	0.536
1005.000	582.973	80.004	19.996	103.108	19.839	3.561	0.526
1005.500	583.227	80.003	19.995	103.111	19.840	3.465	0.517
1006.000	583.476	80.004	19.997	103.112	19.836	3.753	0.509
1006.500	583.693	80.003	19.996	103.113	19.840	3.506	0.485
1007.000	583.995	80.003	19.995	103.111	19.840	3.461	0.493
1007.500	584.233	80.002	19.995	103.109	19.837	3.711	0.529
1008.000	584.488	80.003	19.996	103.107	19.841	3.392	0.516
1008.500	584.760	80.002	19.997	103.108	19.841	3.390	0.510
1009.000	585.009	80.003	19.995	103.108	19.840	3.504	0.524
1009.500	585.278	80.004	19.995	103.107	19.840	3.477	0.520
1010.000	585.544	80.003	19.995	103.108	19.837	3.659	0.527
1010.500	585.766	80.003	19.996	103.108	19.836	3.769	0.512
1011.000	586.033	80.001	19.996	103.108	19.837	3.677	0.488
1011.500	586.284	80.003	19.996	103.105	19.838	3.610	0.503
1012.000	586.534	80.002	19.995	103.107	19.837	3.668	0.509
1012.500	586.816	80.002	19.995	103.107	19.838	3.599	0.517
1013.000	587.049	80.002	19.996	103.109	19.837	3.671	0.524
1013.500	587.318	80.003	19.995	103.111	19.838	3.619	0.508
1014.000	587.600	80.003	19.995	103.114	19.837	3.655	0.526
1014.500	587.801	80.003	19.997	103.113	19.839	3.532	0.517
1015.000	588.097	80.002	19.996	103.113	19.838	3.623	0.490
1015.500	588.354	80.002	19.997	103.114	19.836	3.737	0.525
1016.000	588.606	80.002	19.995	103.112	19.839	3.546	0.531
1016.500	588.867	80.002	19.996	103.110	19.837	3.651	0.511
1017.000	589.097	80.004	19.996	103.110	19.838	3.582	0.502
1017.500	589.385	80.002	19.996	103.109	19.839	3.532	0.505
1018.000	589.644	80.003	19.994	103.107	19.837	3.715	0.533
1018.500	589.861	80.003	19.995	103.107	19.839	3.514	0.511
1019.000	590.136	80.002	19.996	103.106	19.837	3.690	0.484
1019.500	590.382	80.004	19.995	103.106	19.839	3.550	0.506
1020.000	590.640	80.002	19.995	103.107	19.838	3.588	0.513
1020.500	590.871	80.002	19.995	103.108	19.838	3.648	0.497
1021.000	591.161	80.002	19.995	103.107	19.839	3.541	0.505
1021.500	591.422	80.004	19.996	103.108	19.834	3.904	0.536
1022.000	591.666	80.002	19.996	103.108	19.834	3.851	0.528
1022.500	591.937	80.003	19.997	103.107	19.835	3.817	0.510
1023.000	592.185	80.004	19.995	103.106	19.836	3.757	0.517
1023.500	592.425	80.002	19.995	103.106	19.835	3.806	0.504
1024.000	592.711	80.003	19.996	103.107	19.836	3.761	0.507
1024.500	592.927	80.003	19.996	103.106	19.837	3.683	0.513
1025.000	593.219	80.004	19.996	103.107	19.839	3.530	0.505
1025.500	593.487	80.003	19.996	103.109	19.840	3.459	0.534
1026.000	593.740	80.005	19.996	103.111	19.843	3.287	0.541
1026.500	594.005	80.004	19.995	103.109	19.838	3.648	0.520
1027.000	594.256	80.004	19.995	103.109	19.838	3.602	0.517
1027.500	594.514	80.005	19.995	103.108	19.841	3.381	0.512
1028.000	594.789	80.003	19.996	103.107	19.836	3.782	0.521
1028.500	595.002	80.003	19.995	103.107	19.839	3.539	0.511
1029.000	595.263	80.004	19.996	103.110	19.840	3.470	0.481
1029.500	595.551	80.003	19.995	103.112	19.839	3.564	0.511
1030.000	595.792	80.005	19.997	103.113	19.839	3.566	0.539
1030.500	596.065	80.003	19.995	103.112	19.840	3.486	0.522
1031.000	596.335	80.004	19.997	103.112	19.840	3.479	0.529
1031.500	596.593	80.005	19.996	103.111	19.838	3.592	0.535
1032.000	596.841	80.004	19.996	103.109	19.838	3.606	0.517
1032.501	597.081	80.004	19.995	103.112	19.839	3.544	0.498
1033.001	597.364	80.004	19.996	103.115	19.840	3.466	0.506
1033.500	597.621	80.004	19.996	103.118	19.839	3.544	0.531
1034.001	597.835	80.004	19.994	103.120	19.839	3.517	0.505
1034.501	598.118	80.004	19.997	103.123	19.839	3.550	0.484
1035.000	598.362	80.005	19.994	103.126	19.835	3.835	0.512
1035.500	598.623	80.002	19.996	103.123	19.837	3.673	0.516
1036.000	598.889	80.004	19.996	103.119	19.836	3.777	0.516
1036.500	599.113	80.004	19.994	103.116	19.834	3.868	0.509
1037.000	599.428	80.004	19.995	103.114	19.836	3.744	0.515
1037.500	599.669	80.005	19.994	103.108	19.839	3.526	0.548
1038.000	599.940	80.003	19.995	103.107	19.834	3.858	0.534
1038.500	600.186	80.005	19.995	103.107	19.834	3.895	0.515
1039.000	600.421	80.004	19.995	103.108	19.837	3.709	0.499
1039.500	600.694	80.004	19.995	103.107	19.839	3.566	0.495
1040.000	600.940	80.004	19.996	103.106	19.834	3.875	0.513
1040.500	601.228	80.002	19.996	103.106	19.837	3.691	0.526
1041.001	601.457	80.003	19.995	103.106	19.837	3.688	0.525
1041.501	601.747	80.003	19.995	103.105	19.837	3.704	0.518
1042.000	601.988	80.004	19.993	103.107	19.835	3.810	0.525
1042.500	602.242	80.004	19.996	103.107	19.835	3.832	0.514
1043.000	602.468	80.003	19.995	103.107	19.836	3.730	0.488
1043.501	602.713	80.004	19.995	103.107	19.837	3.661	0.475
1044.001	602.966	80.004	19.994	103.106	19.838	3.630	0.484
1044.500	603.278	80.004	19.994	103.105	19.836	3.726	0.532
1045.000	603.497	80.003	19.995	103.105	19.834	3.906	0.548
1045.500	603.750	80.005	19.996	103.106	19.836	3.764	0.501
1046.001	604.010	80.005	19.995	103.108	19.836	3.753	0.492
1046.501	604.280	80.003	19.996	103.111	19.836	3.754	0.521
1047.000	604.530	80.004	19.995	103.110	19.835	3.801	0.525
1047.500	604.791	80.004	19.994	103.110	19.839	3.517	0.516
1048.000	605.015	80.004	19.995	103.108	19.837	3.664	0.498
1048.500	605.277	80.006	19.996	103.107	19.837	3.706	0.486
1049.000	605.566	80.005	19.996	103.103	19.837	3.697	0.519
1049.500	605.773	80.005	19.995	103.103	19.833	3.964	0.523
1050.000	606.047	80.004	19.995	103.103	19.836	3.741	0.489
1050.500	606.273	80.005	19.996	103.104	19.839	3.536	0.491
1051.000	606.545	80.005	19.995	103.107	19.837	3.712	0.499
1051.500	606.794	80.005	19.996	103.111	19.839	3.565	0.509
1052.000	607.069	80.005	19.994	103.114	19.839	3.577	0.523
1052.500	607.310	80.004	19.995	103.117	19.840	3.452	0.520
1053.000	607.560	80.006	19.995	103.121	19.838	3.584	0.503
1053.500	607.830	80.005	19.994	103.121	19.838	3.635	0.505
1054.000	608.110	80.006	19.996	103.121	19.841	3.414	0.535
1054.500	608.352	80.005	19.993	103.118	19.838	3.593	0.536
1055.000	608.592	80.005	19.995	103.115	19.838	3.633	0.503
1055.500	608.836	80.007	19.995	103.114	19.841	3.415	0.483
1056.000	609.142	80.006	19.994	103.115	19.841	3.394	0.517
1056.500	609.392	80.007	19.994	103.113	19.838	3.590	0.553
1057.000	609.633	80.006	19.994	103.117	19.839	3.573	0.524
1057.500	609.915	80.006	19.995	103.118	19.834	3.864	0.507
1058.000	610.144	80.006	19.994	103.114	19.836	3.781	0.517
1058.500	610.404	80.006	19.994	103.110	19.840	3.494	0.500
1059.000	610.660	80.005	19.995	103.108	19.839	3.554	0.503
1059.500	610.921	80.005	19.994	103.104	19.838	3.605	0.517
1060.000	611.205	80.005	19.994	103.104	19.838	3.592	0.531
1060.500	611.469	80.004	19.995	103.108	19.839	3.550	0.546
1061.000	611.729	80.003	19.994	103.115	19.840	3.483	0.536
1061.501	611.974	80.004	19.996	103.116	19.839	3.543	0.515
1062.001	612.225	80.004	19.994	103.117	19.841	3.424	0.501
1062.500	612.503	80.003	19.995	103.117	19.837	3.706	0.513
1063.000	612.732	80.003	19.995	103.113	19.838	3.606	0.518
1063.500	612.986	80.003	19.994	103.106	19.840	3.512	0.494
1064.000	613.266	80.003	19.996	103.104	19.840	3.476	0.508
1064.500	613.500	80.002	19.995	103.104	19.838	3.636	0.524
1065.000	613.746	80.003	19.996	103.106	19.839	3.549	0.497
1065.500	614.017	80.004	19.996	103.108	19.836	3.758	0.499
1066.000	614.295	80.003	19.995	103.109	19.841	3.405	0.533
1066.500	614.568	80.004	19.993	103.110	19.840	3.485	0.550
1067.000	614.847	80.004	19.995	103.109	19.843	3.307	0.552
1067.500	615.028	80.004	19.993	103.107	19.843	3.252	0.506
1068.000	615.331	80.004	19.996	103.107	19.840	3.501	0.472
1068.500	615.587	80.004	19.996	103.111	19.839	3.541	0.521
1069.000	615.871	80.003	19.996	103.117	19.841	3.399	0.550
1069.501	616.135	80.004	19.995	103.122	19.838	3.599	0.544
1070.001	616.380	80.004	19.995	103.123	19.837	3.670	0.528
1070.500	616.623	80.004	19.996	103.121	19.840	3.503	0.498
1071.000	616.871	80.003	19.996	103.117	19.839	3.552	0.489
1071.500	617.094	80.004	19.995	103.114	19.841	3.425	0.481
1072.000	617.381	80.003	19.996	103.110	19.839	3.566	0.491
1072.500	617.643	80.003	19.995	103.108	19.840	3.454	0.530
1073.000	617.878	80.003	19.994	103.108	19.839	3.541	0.523
1073.500	618.169	80.005	19.995	103.110	19.842	3.325	0.512
1074.000	618.405	80.004	19.995	103.111	19.839	3.521	0.526
1074.501	618.658	80.003	19.996	103.116	19.838	3.612	0.508
1075.001	618.933	80.003	19.994	103.119	19.839	3.519	0.509
1075.500	619.160	80.003	19.995	103.125	19.841	3.423	0.515
1076.000	619.457	80.004	19.995	103.130	19.836	3.739	0.513
1076.500	619.692	80.004	19.994	103.133	19.835	3.817	0.528
1077.000	619.946	80.003	19.995	103.127	19.835	3.797	0.511
1077.500	620.191	80.004	19.994	103.127	19.838	3.633	0.494
1078.000	620.445	80.004	19.995	103.121	19.837	3.715	0.498
1078.500	620.747	80.004	19.994	103.114	19.836	3.717	0.528
1079.000	620.962	80.002	19.995	103.109	19.838	3.602	0.537
1079.500	621.230	80.004	19.994	103.111	19.838	3.604	0.500
1080.000	621.474	80.003	19.995	103.111	19.838	3.590	0.497
1080.500	621.754	80.004	19.995	103.113	19.838	3.588	0.518
1081.000	622.004	80.003	19.995	103.115	19.838	3.619	0.527
1081.501	622.264	80.004	19.994	103.115	19.837	3.677	0.520
1082.001	622.507	80.003	19.994	103.112	19.839	3.529	0.507
1082.500	622.772	80.003	19.995	103.111	19.838	3.599	0.506
1083.000	623.024	80.004	19.994	103.110	19.841	3.405	0.512
1083.500	623.270	80.003	19.995	103.109	19.840	3.459	0.507
1084.000	623.530	80.003	19.995	103.109	19.840	3.452	0.502
1084.500	623.803	80.004	19.994	103.111	19.840	3.474	0.520
1085.000	624.051	80.002	19.994	103.115	19.837	3.702	0.527
1085.500	624.315	80.002	19.996	103.118	19.839	3.579	0.516
1086.000	624.542	80.002	19.996	103.118	19.839	3.535	0.501
1086.500	624.813	80.003	19.995	103.119	19.838	3.619	0.494
1087.000	625.071	80.004	19.995	103.116	19.838	3.582	0.513
1087.501	625.311	80.002	19.995	103.112	19.838	3.601	0.514
1088.001	625.588	80.002	19.995	103.108	19.840	3.461	0.508
1088.500	625.841	80.002	19.996	103.107	19.841	3.444	0.524
1089.000	626.070	80.002	19.995	103.106	19.840	3.497	0.506
1089.500	626.371	80.002	19.995	103.106	19.840	3.499	0.506
1090.000	626.583	80.002	19.996	103.107	19.840	3.486	0.522
1090.500	626.822	80.002	19.996	103.108	19.841	3.385	0.482
1091.000	627.068	80.001	19.996	103.115	19.843	3.301	0.468
1091.500	627.344	80.002	19.996	103.121	19.839	3.577	0.504
1092.000	627.626	80.001	19.996	103.124	19.842	3.336	0.540
1092.500	627.835	80.004	19.996	103.124	19.838	3.608	0.524
1093.001	628.145	80.002	19.996	103.124	19.838	3.619	0.504
1093.501	628.366	80.002	19.996	103.118	19.838	3.604	0.525
1094.000	628.628	80.002	19.995	103.113	19.838	3.626	0.508
1094.500	628.890	80.001	19.996	103.112	19.839	3.539	0.504
1095.000	629.154	80.002	19.996	103.114	19.842	3.368	0.525
1095.500	629.407	80.002	19.996	103.112	19.842	3.341	0.521
1096.000	629.665	80.002	19.996	103.112	19.842	3.368	0.514
1096.500	629.931	80.000	19.997	103.111	19.843	3.281	0.518
1097.001	630.188	80.001	19.996	103.110	19.840	3.495	0.523
1097.501	630.429	80.002	19.996	103.107	19.839	3.517	0.510
1098.000	630.722	80.001	19.995	103.108	19.842	3.335	0.516
1098.500	630.948	80.002	19.995	103.108	19.839	3.533	0.527
1099.000	631.188	80.001	19.994	103.108	19.840	3.472	0.493
1099.500	631.453	80.000	19.996	103.108	19.841	3.443	0.485
1100.001	631.727	80.003	19.995	103.111	19.841	3.415	0.522
1100.501	632.001	80.002	19.995	103.110	19.841	3.430	0.544
1101.000	632.242	80.002	19.995	103.111	19.840	3.510	0.532
1101.500	632.500	80.002	19.995	103.112	19.842	3.366	0.507
1102.000	632.730	80.002	19.996	103.117	19.839	3.539	0.494
1102.500	633.008	80.004	19.995	103.116	19.840	3.459	0.498
1103.000	633.261	80.002	19.995	103.115	19.839	3.581	0.520
1103.500	633.532	80.004	19.995	103.118	19.837	3.697	0.528
1104.001	633.783	80.004	19.994	103.117	19.838	3.599	0.523
1104.501	634.031	80.002	19.994	103.110	19.838	3.631	0.510
1105.000	634.305	80.003	19.995	103.108	19.842	3.346	0.510
1105.500	634.564	80.004	19.995	103.108	19.837	3.669	0.528
1106.000	634.830	80.004	19.994	103.104	19.841	3.437	0.529
1106.500	635.107	80.003	19.996	103.104	19.838	3.637	0.534
1107.000	635.344	80.005	19.995	103.104	19.839	3.548	0.529
1107.500	635.612	80.004	19.994	103.104	19.839	3.551	0.510
1108.000	635.835	80.003	19.995	103.104	19.837	3.700	0.498
1108.500	636.141	80.007	19.994	103.104	19.840	3.488	0.510
1109.000	636.392	80.005	19.996	103.104	19.843	3.299	0.543
1109.500	636.634	80.005	19.994	103.105	19.839	3.564	0.525
1110.000	636.882	80.004	19.994	103.104	19.839	3.513	0.492
1110.500	637.169	80.005	19.995	103.104	19.838	3.635	0.512
1111.000	637.403	80.004	19.996	103.104	19.840	3.486	0.528
1111.500	637.660	80.004	19.995	103.107	19.839	3.537	0.507
1112.000	637.944	80.005	19.995	103.108	19.842	3.359	0.516
1112.500	638.192	80.004	19.995	103.108	19.841	3.379	0.536
1113.000	638.433	80.005	19.996	103.109	19.841	3.435	0.511
1113.500	638.674	80.004	19.995	103.109	19.836	3.742	0.486
1114.001	638.929	80.003	19.995	103.107	19.839	3.517	0.489
1114.501	639.217	80.004	19.995	103.106	19.841	3.403	0.519
1115.000	639.442	80.004	19.996	103.106	19.840	3.457	0.528
1115.500	639.710	80.005	19.996	103.105	19.838	3.608	0.503
1116.000	639.982	80.003	19.996	103.104	19.837	3.657	0.516
1116.500	640.243	80.004	19.996	103.105	19.836	3.760	0.537
1117.000	640.476	80.003	19.997	103.104	19.836	3.737	0.514
1117.500	640.722	80.004	19.996	103.103	19.839	3.513	0.486
1118.000	640.963	80.003	19.996	103.103	19.839	3.570	0.483
1118.500	641.235	80.003	19.996	103.104	19.837	3.668	0.500
1119.000	641.482	80.004	19.996	103.103	19.837	3.686	0.516
1119.500	641.735	80.004	19.996	103.103	19.839	3.577	0.510
1120.000	642.001	80.002	19.996	103.103	19.838	3.608	0.509
1120.500	642.284	80.003	19.995	103.103	19.838	3.644	0.534
1121.000	642.519	80.003	19.996	103.101	19.839	3.575	0.534
1121.500	642.791	80.005	19.997	103.104	19.836	3.717	0.513
1122.000	643.030	80.003	19.996	103.105	19.837	3.697	0.509
1122.500	643.303	80.004	19.996	103.108	19.838	3.612	0.511
1123.001	643.598	80.002	19.997	103.108	19.841	3.403	0.540
1123.501	643.825	80.003	19.996	103.110	19.837	3.657	0.545
1124.000	644.054	80.005	19.995	103.107	19.838	3.644	0.489
1124.500	644.307	80.003	19.996	103.106	19.836	3.757	0.469
1125.000	644.577	80.003	19.997	103.104	19.840	3.511	0.503
1125.500	644.856	80.004	19.996	103.103	19.839	3.513	0.536
1126.000	645.086	80.003	19.995	103.102	19.837	3.661	0.529
1126.500	645.348	80.005	19.994	103.103	19.839	3.558	0.501
1127.001	645.592	80.003	19.997	103.102	19.840	3.485	0.499
1127.501	645.838	80.005	19.995	103.102	19.838	3.593	0.497
1128.000	646.085	80.005	19.996	103.103	19.840	3.506	0.491
1128.500	646.351	80.004	19.995	103.107	19.838	3.609	0.503
1129.001	646.604	80.005	19.995	103.113	19.841	3.422	0.516
1129.501	646.860	80.004	19.994	103.115	19.835	3.811	0.514
1130.000	647.114	80.005	19.995	103.115	19.839	3.566	0.510
1130.500	647.379	80.005	19.994	103.115	19.839	3.544	0.515
1131.000	647.618	80.005	19.995	103.110	19.840	3.466	0.512
1131.500	647.875	80.005	19.994	103.105	19.838	3.635	0.500
1132.000	648.098	80.006	19.994	103.106	19.840	3.511	0.488
1132.500	648.409	80.006	19.995	103.110	19.838	3.626	0.507
1133.000	648.622	80.006	19.994	103.109	19.839	3.551	0.529
1133.500	648.902	80.006	19.994	103.109	19.838	3.626	0.509
1134.000	649.141	80.005	19.995	103.108	19.837	3.715	0.506
1134.501	649.389	80.005	19.994	103.106	19.838	3.597	0.503
1135.001	649.677	80.005	19.995	103.101	19.837	3.711	0.512
1135.500	649.915	80.005	19.994	103.102	19.835	3.831	0.531
1136.000	650.174	80.015	19.993	103.103	19.837	3.709	0.511
1136.500	650.432	80.026	20.000	103.108	19.837	3.699	0.507
1137.001	650.689	80.023	20.000	103.116	19.839	3.566	0.516
1137.501	650.948	80.022	19.999	103.123	19.840	3.506	0.515
1138.000	651.184	80.023	20.002	103.131	19.836	3.757	0.506
1138.500	651.449	80.023	20.003	103.140	19.838	3.611	0.499
1139.000	651.688	80.021	20.005	103.143	19.838	3.633	0.503
1139.500	651.929	80.023	20.005	103.145	19.841	3.403	0.492
1140.000	652.184	80.021	20.006	103.145	19.836	3.717	0.488
1140.500	652.450	80.025	20.007	103.146	19.839	3.526	0.508
1141.000	652.725	80.039	20.009	103.147	19.839	3.555	0.531
1141.500	652.997	80.041	20.008	103.149	19.841	3.423	0.544
1142.001	653.226	80.041	20.009	103.149	19.840	3.499	0.524
1142.501	653.492	80.041	20.011	103.156	19.841	3.428	0.498
1143.000	653.721	80.040	20.010	103.156	19.836	3.746	0.495
1143.501	654.007	80.040	20.009	103.155	19.837	3.650	0.505
1144.001	654.222	80.040	20.009	103.153	19.839	3.567	0.508
1144.500	654.518	80.040	20.010	103.154	19.839	3.578	0.507
1145.000	654.715	80.040	20.011	103.150	19.842	3.367	0.502
1145.500	655.026	80.032	20.010	103.152	19.841	3.441	0.500
1146.000	655.274	80.023	20.007	103.151	19.839	3.565	0.534
1146.500	655.496	80.023	20.004	103.148	19.840	3.485	0.514
1147.000	655.770	80.023	20.004	103.138	19.836	3.764	0.483
1147.501	655.999	80.023	20.003	103.128	19.839	3.561	0.500
1148.001	656.285	80.023	20.003	103.117	19.841	3.421	0.509
1148.500	656.537	80.021	20.002	103.110	19.838	3.599	0.527
1149.000	656.772	80.021	20.002	103.107	19.838	3.630	0.512
1149.500	657.068	80.014	19.997	103.107	19.836	3.728	0.508
1150.000	657.290	80.003	20.000	103.108	19.838	3.595	0.524
1150.500	657.544	80.003	19.997	103.108	19.837	3.650	0.497
1151.000	657.787	80.002	19.998	103.110	19.838	3.642	0.486
1151.500	658.043	80.003	19.997	103.110	19.838	3.601	0.498
1152.000	658.294	80.002	19.997	103.113	19.834	3.884	0.503
1152.501	658.566	80.003	19.996	103.113	19.836	3.755	0.515
1153.001	658.807	80.003	19.996	103.115	19.837	3.695	0.518
1153.500	659.037	80.003	19.995	103.114	19.837	3.677	0.493
1154.000	659.308	80.003	19.996	103.116	19.834	3.869	0.486
1154.500	659.595	80.003	19.996	103.117	19.836	3.722	0.529
1155.000	659.853	80.002	19.996	103.121	19.835	3.793	0.551
1155.501	660.041	80.003	19.996	103.126	19.835	3.795	0.495
1156.001	660.327	80.003	19.996	103.128	19.834	3.871	0.460
1156.501	660.547	80.003	19.996	103.126	19.835	3.828	0.490
1157.000	660.836	80.002	19.996	103.121	19.832	4.004	0.507
1157.501	661.052	80.003	19.995	103.117	19.835	3.826	0.507
1158.001	661.292	80.002	19.995	103.112	19.835	3.822	0.481
1158.501	661.598	80.003	19.995	103.109	19.831	4.053	0.501
1159.000	661.825	80.003	19.993	103.108	19.832	3.989	0.540
1159.500	662.118	80.004	19.996	103.108	19.830	4.156	0.526
1160.000	662.327	80.004	19.995	103.107	19.830	4.183	0.510
1160.500	662.591	80.003	19.995	103.107	19.831	4.089	0.487
1161.000	662.884	80.004	19.995	103.108	19.833	3.924	0.515
1161.500	663.052	80.003	19.994	103.109	19.833	3.984	0.509
1162.000	663.345	80.003	19.995	103.110	19.833	3.962	0.461
1162.500	663.626	80.004	19.994	103.110	19.830	4.144	0.518
1163.000	663.904	80.002	19.995	103.110	19.832	3.995	0.567
1163.500	664.097	80.003	19.995	103.109	19.833	3.939	0.514
1164.000	664.360	80.003	19.995	103.108	19.832	4.013	0.463
1164.500	664.617	80.003	19.995	103.107	19.833	3.944	0.489
1165.000	664.838	80.003	19.994	103.107	19.834	3.862	0.499
1165.500	665.100	80.003	19.994	103.108	19.835	3.789	0.480
1166.000	665.354	80.004	19.995	103.111	19.837	3.711	0.500
1166.500	665.611	80.004	19.996	103.115	19.834	3.898	0.514
1167.000	665.862	80.004	19.996	103.116	19.832	4.042	0.509
1167.500	666.105	80.003	19.994	103.116	19.834	3.878	0.501
1168.000	666.355	80.003	19.994	103.115	19.834	3.855	0.493
1168.500	666.593	80.002	19.994	103.113	19.835	3.831	0.491
1169.000	666.856	80.003	19.995	103.108	19.833	3.935	0.495
1169.500	667.109	80.004	19.993	103.107	19.834	3.862	0.509
1170.000	667.348	80.003	19.994	103.107	19.835	3.827	0.504
1170.501	667.609	80.004	19.994	103.106	19.833	3.935	0.496
1171.001	667.862	80.002	19.995	103.106	19.835	3.798	0.507
1171.501	668.067	80.003	19.993	103.106	19.835	3.849	0.486
1172.001	668.363	80.002	19.994	103.106	19.836	3.726	0.479
1172.500	668.564	80.003	19.996	103.106	19.836	3.769	0.499
1173.000	668.820	80.003	19.995	103.110	19.832	4.051	0.478
1173.501	669.125	80.003	19.995	103.114	19.835	3.791	0.509
1174.001	669.334	80.003	19.994	103.114	19.834	3.904	0.537
1174.501	669.641	80.003	19.995	103.114	19.835	3.822	0.515
1175.001	669.819	80.003	19.994	103.112	19.835	3.847	0.501
1175.500	670.054	80.002	19.995	103.110	19.836	3.764	0.449
1176.000	670.390	80.003	19.997	103.109	19.838	3.613	0.492
1176.500	670.612	80.003	19.995	103.109	19.837	3.708	0.565
1177.000	670.886	80.003	19.996	103.109	19.835	3.795	0.527
1177.500	671.125	80.003	19.996	103.109	19.839	3.577	0.504
1178.000	671.391	80.003	19.996	103.107	19.840	3.479	0.509
1178.501	671.663	80.002	19.995	103.103	19.838	3.624	0.522
1179.001	671.878	80.002	19.996	103.103	19.837	3.693	0.513
1179.500	672.159	80.002	19.996	103.102	19.835	3.800	0.492
1180.000	672.412	80.003	19.995	103.103	19.837	3.659	0.515
1180.500	672.662	80.003	19.995	103.103	19.837	3.708	0.518
1181.000	672.892	80.002	19.996	103.103	19.834	3.860	0.492
1181.500	673.143	80.003	19.995	103.103	19.835	3.798	0.481
1182.000	673.405	80.003	19.995	103.103	19.836	3.749	0.497
1182.500	673.695	80.003	19.996	103.104	19.834	3.864	0.533
1183.000	673.907	80.001	19.996	103.105	19.836	3.771	0.527
1183.500	674.157	80.002	19.995	103.105	19.830	4.169	0.482
1184.000	674.421	80.003	19.995	103.105	19.835	3.813	0.488
1184.501	674.677	80.003	19.995	103.105	19.834	3.898	0.517
1185.001	674.933	80.003	19.996	103.104	19.834	3.902	0.516
1185.500	675.189	80.004	19.996	103.101	19.833	3.964	0.512
1186.000	675.479	80.003	19.996	103.100	19.833	3.935	0.529
1186.500	675.703	80.003	19.995	103.101	19.833	3.924	0.530
1187.000	675.932	80.002	19.995	103.101	19.832	4.002	0.484
1187.500	676.209	80.003	19.995	103.104	19.835	3.849	0.480
1188.000	676.446	80.005	19.996	103.111	19.835	3.820	0.510
1188.500	676.725	80.005	19.997	103.114	19.833	3.940	0.514
1189.000	676.967	80.004	19.996	103.114	19.833	3.960	0.518
1189.501	677.218	80.004	19.996	103.115	19.836	3.769	0.508
1190.001	677.479	80.005	19.995	103.112	19.834	3.886	0.503
1190.500	677.716	80.005	19.996	103.107	19.834	3.876	0.504
1191.000	677.973	80.006	19.995	103.104	19.835	3.822	0.496
1191.500	678.212	80.005	19.996	103.102	19.836	3.764	0.496
1192.000	678.456	80.005	19.994	103.101	19.831	4.093	0.490
1192.500	678.708	80.004	19.996	103.101	19.833	3.929	0.489
1193.000	678.974	80.004	19.995	103.101	19.832	4.013	0.507
1193.500	679.198	80.005	19.996	103.101	19.835	3.802	0.504
1194.000	679.494	80.005	19.996	103.102	19.833	3.982	0.505
1194.500	679.704	80.005	19.996	103.102	19.837	3.670	0.513
1195.000	679.972	80.005	19.995	103.102	19.833	3.938	0.492
1195.500	680.192	80.005	19.995	103.103	19.834	3.913	0.482
1196.000	680.464	80.004	19.995	103.103	19.833	3.980	0.490
1196.500	680.713	80.004	19.995	103.103	19.836	3.742	0.507
1197.000	680.955	80.004	19.995	103.103	19.836	3.758	0.506
1197.501	681.195	80.004	19.995	103.103	19.832	3.994	0.487
1198.001	681.423	80.004	19.996	103.102	19.834	3.887	0.475
1198.501	681.656	80.004	19.995	103.102	19.832	4.038	0.465
1199.001	681.954	80.003	19.996	103.102	19.833	3.958	0.496
1199.500	682.161	80.004	19.997	103.103	19.838	3.592	0.518
1200.000	682.441	80.003	19.995	103.103	19.833	3.977	0.496
1200.500	682.658	80.004	19.996	103.104	19.830	4.164	0.492
1201.000	682.954	80.003	19.995	103.104	19.834	3.884	0.505
1201.500	683.208	80.004	19.996	103.104	19.836	3.719	0.532
1202.000	683.469	80.003	19.996	103.103	19.835	3.811	0.533
1202.500	683.676	80.003	19.995	103.104	19.835	3.818	0.491
1203.001	683.942	80.002	19.995	103.105	19.837	3.657	0.470
1203.501	684.221	80.003	19.996	103.105	19.838	3.619	0.509
1204.000	684.462	80.003	19.995	103.105	19.836	3.766	0.532
1204.500	684.707	80.003	19.995	103.106	19.833	3.929	0.503
1205.000	684.968	80.002	19.995	103.105	19.836	3.737	0.496
1205.500	685.227	80.004	19.996	103.106	19.834	3.866	0.513
1206.000	685.425	80.002	19.996	103.107	19.837	3.686	0.489
1206.500	685.744	80.003	19.995	103.108	19.835	3.833	0.487
1207.000	685.930	80.003	19.995	103.107	19.834	3.878	0.511
1207.500	686.307	80.003	19.995	103.106	19.838	3.619	0.534
1208.001	686.510	80.004	19.996	103.102	19.835	3.800	0.572
1208.501	686.689	80.003	19.996	103.101	19.837	3.668	0.481
1209.001	686.935	80.002	19.996	103.101	19.837	3.702	0.403
1209.500	687.218	80.003	19.996	103.101	19.838	3.628	0.477
1210.000	687.493	80.002	19.995	103.104	19.835	3.842	0.544
1210.500	687.712	80.003	19.996	103.108	19.835	3.806	0.526
1211.000	687.983	80.003	19.995	103.113	19.838	3.611	0.492
1211.500	688.234	80.004	19.996	103.114	19.841	3.439	0.506
1212.000	688.513	80.004	19.995	103.113	19.839	3.568	0.526
1212.500	688.755	80.004	19.996	103.111	19.836	3.758	0.526
1213.000	688.979	80.005	19.995	103.109	19.839	3.537	0.494
1213.500	689.291	80.004	19.995	103.105	19.837	3.679	0.501
1214.000	689.529	80.004	19.995	103.104	19.838	3.637	0.543
1214.500	689.740	80.005	19.996	103.104	19.835	3.791	0.499
1215.000	690.030	80.004	19.997	103.103	19.835	3.842	0.475
1215.500	690.288	80.006	19.995	103.103	19.838	3.611	0.524
1216.000	690.531	80.006	19.995	103.103	19.836	3.735	0.525
1216.500	690.775	80.004	19.996	103.103	19.834	3.893	0.494
1217.000	691.075	80.005	19.995	103.103	19.835	3.784	0.516
1217.500	691.275	80.006	19.996	103.104	19.834	3.851	0.522
1218.000	691.535	80.005	19.995	103.104	19.833	3.947	0.480
1218.500	691.792	80.005	19.995	103.104	19.836	3.737	0.488
1219.000	692.035	80.005	19.994	103.105	19.838	3.595	0.508
1219.500	692.310	80.004	19.995	103.105	19.837	3.706	0.509
1220.000	692.523	80.006	19.995	103.104	19.836	3.771	0.503
1220.500	692.796	80.005	19.996	103.104	19.835	3.797	0.487
1221.000	693.049	80.005	19.995	103.104	19.837	3.668	0.506
1221.500	693.302	80.004	19.994	103.103	19.835	3.789	0.516
1222.000	693.540	80.005	19.995	103.103	19.837	3.662	0.499
1222.501	693.828	80.005	19.994	103.104	19.833	3.929	0.509
1223.001	694.093	80.005	19.994	103.104	19.837	3.688	0.539
1223.500	694.342	80.004	19.994	103.104	19.836	3.748	0.534
1224.000	694.576	80.004	19.995	103.104	19.834	3.884	0.499
1224.500	694.850	80.004	19.993	103.106	19.833	3.984	0.495
1225.000	695.121	80.004	19.994	103.107	19.835	3.844	0.526
1225.500	695.343	80.003	19.993	103.107	19.833	3.924	0.519
1226.000	695.683	80.003	19.994	103.106	19.835	3.791	0.527
1226.500	695.848	80.002	19.995	103.105	19.834	3.895	0.533
1227.000	696.157	80.002	19.994	103.104	19.834	3.907	0.489
1227.500	696.390	80.002	19.995	103.104	19.838	3.619	0.508
1228.000	696.668	80.002	19.994	103.104	19.838	3.628	0.526
1228.500	696.886	80.004	19.993	103.106	19.837	3.668	0.504
1229.000	697.136	80.002	19.995	103.107	19.837	3.706	0.482
1229.500	697.395	80.002	19.994	103.108	19.835	3.797	0.488
1230.000	697.687	80.002	19.995	103.108	19.835	3.807	0.530
1230.500	697.876	80.003	19.994	103.109	19.836	3.740	0.516
1231.000	698.149	80.003	19.995	103.109	19.835	3.784	0.472
1231.500	698.396	80.003	19.995	103.109	19.834	3.862	0.491
1232.000	698.665	80.003	19.995	103.108	19.836	3.724	0.518
1232.500	698.877	80.002	19.994	103.108	19.836	3.728	0.499
1233.000	699.161	80.003	19.995	103.108	19.836	3.757	0.488
1233.500	699.445	80.002	19.994	103.109	19.836	3.751	0.532
1234.001	699.685	80.002	19.994	103.109	19.833	3.942	0.546
1234.501	699.913	80.003	19.995	103.109	19.834	3.871	0.496
1235.000	700.173	80.001	19.994	103.108	19.837	3.713	0.478
1235.501	700.447	80.002	19.995	103.108	19.836	3.775	0.511
1236.001	700.669	80.002	19.994	103.108	19.840	3.499	0.515
1236.501	700.920	80.002	19.995	103.107	19.838	3.642	0.485
1237.001	701.183	80.003	19.995	103.106	19.836	3.718	0.494
1237.501	701.469	80.004	19.994	103.106	19.838	3.610	0.532
1238.001	701.673	80.003	19.995	103.107	19.838	3.624	0.519
1238.500	701.921	80.004	19.995	103.107	19.836	3.777	0.471
1239.000	702.177	80.003	19.995	103.107	19.836	3.746	0.478
1239.500	702.418	80.001	19.994	103.107	19.837	3.704	0.501
1240.000	702.659	80.001	19.994	103.107	19.838	3.613	0.489
1240.500	702.973	80.003	19.995	103.105	19.835	3.795	0.518
1241.000	703.195	80.002	19.996	103.104	19.833	3.955	0.545
1241.500	703.427	80.003	19.995	103.103	19.836	3.755	0.495
1242.000	703.718	80.003	19.994	103.104	19.833	3.929	0.489
1242.500	703.942	80.004	19.995	103.103	19.839	3.557	0.520
1243.000	704.215	80.004	19.995	103.102	19.836	3.742	0.506
1243.500	704.470	80.001	19.995	103.103	19.833	3.944	0.512
1244.000	704.695	80.003	19.994	103.103	19.833	3.920	0.504
1244.500	704.935	80.004	19.995	103.103	19.831	4.102	0.473
1245.000	705.191	80.002	19.994	103.103	19.835	3.833	0.481
1245.500	705.462	80.002	19.994	103.103	19.832	4.004	0.511
1246.000	705.699	80.002	19.995	103.103	19.833	3.922	0.518
1246.500	705.970	80.002	19.994	103.103	19.831	4.065	0.508
1247.000	706.188	80.002	19.996	103.103	19.831	4.076	0.498
1247.500	706.463	80.002	19.993	103.103	19.832	4.013	0.490
1248.000	706.708	80.003	19.995	103.104	19.832	4.004	0.506
1248.500	706.937	80.002	19.995	103.104	19.830	4.169	0.497
1249.000	707.206	80.004	19.995	103.105	19.833	3.955	0.486
1249.500	707.471	80.002	19.995	103.104	19.829	4.223	0.516
1250.000	707.726	80.002	19.995	103.104	19.829	4.220	0.527
1250.500	707.989	80.001	19.995	103.104	19.830	4.143	0.519
1251.000	708.225	80.002	19.993	103.104	19.830	4.170	0.508
1251.500	708.463	80.004	19.994	103.104	19.831	4.056	0.486
1252.000	708.709	80.004	19.994	103.106	19.832	4.051	0.479
1252.501	709.002	80.003	19.995	103.106	19.830	4.185	0.511
1253.001	709.253	80.003	19.994	103.109	19.828	4.258	0.541
1253.500	709.497	80.003	19.994	103.109	19.831	4.080	0.520
1254.000	709.747	80.003	19.995	103.108	19.831	4.112	0.494
1254.501	710.021	80.003	19.995	103.109	19.829	4.200	0.509
1255.001	710.223	80.002	19.995	103.111	19.829	4.250	0.500
1255.500	710.510	80.003	19.994	103.109	19.828	4.269	0.483
1256.000	710.748	80.003	19.994	103.109	19.830	4.171	0.507
1256.501	710.995	80.003	19.994	103.109	19.832	4.009	0.505
1257.001	711.250	80.003	19.994	103.107	19.829	4.196	0.493
1257.500	711.499	80.004	19.994	103.104	19.830	4.154	0.503
1258.000	711.706	80.002	19.996	103.104	19.832	4.033	0.481
1258.500	712.012	80.003	19.995	103.104	19.832	3.998	0.485
1259.000	712.229	80.001	19.995	103.104	19.831	4.082	0.518
1259.500	712.471	80.003	19.994	103.104	19.831	4.114	0.491
1260.000	712.738	80.003	19.994	103.104	19.831	4.094	0.484
1260.501	712.999	80.003	19.994	103.104	19.830	4.152	0.518
1261.001	713.221	80.003	19.995	103.103	19.833	3.974	0.505
1261.501	713.478	80.002	19.994	103.099	19.830	4.158	0.481
1262.001	713.732	80.001	19.995	103.099	19.831	4.062	0.495
1262.500	714.009	80.002	19.994	103.099	19.831	4.062	0.521
1263.000	714.233	80.002	19.995	103.098	19.829	4.205	0.516
1263.500	714.487	80.002	19.994	103.099	19.831	4.103	0.490
1264.000	714.758	80.003	19.995	103.102	19.835	3.802	0.502
1264.501	714.979	80.003	19.996	103.103	19.835	3.831	0.509
1265.001	715.226	80.002	19.995	103.102	19.835	3.822	0.480
1265.500	715.526	80.002	19.995	103.103	19.835	3.833	0.507
1266.000	715.755	80.003	19.995	103.103	19.835	3.784	0.538
1266.500	716.021	80.003	19.995	103.105	19.835	3.847	0.512
1267.000	716.246	80.002	19.995	103.104	19.834	3.916	0.493
1267.500	716.509	80.002	19.994	103.106	19.832	4.018	0.490
1268.000	716.785	80.003	19.995	103.105	19.832	4.033	0.514
1268.500	717.011	80.003	19.994	103.106	19.832	4.009	0.521
1269.000	717.252	80.003	19.994	103.106	19.833	3.918	0.485
1269.501	717.502	80.003	19.995	103.106	19.829	4.205	0.479
1270.001	717.780	80.003	19.995	103.105	19.829	4.189	0.509
1270.500	718.008	80.002	19.994	103.105	19.831	4.110	0.517
1271.000	718.289	80.002	19.995	103.105	19.831	4.062	0.507
1271.500	718.534	80.005	19.995	103.103	19.830	4.174	0.517
1272.000	718.830	80.003	19.995	103.103	19.831	4.082	0.534
1272.500	719.075	80.004	19.994	103.105	19.831	4.111	0.541
1273.000	719.305	80.004	19.995	103.105	19.832	3.986	0.508
1273.500	719.518	80.005	19.995	103.105	19.833	3.927	0.459
1274.000	719.792	80.004	19.994	103.106	19.833	3.976	0.465
1274.500	720.042	80.004	19.995	103.106	19.831	4.085	0.506
1275.000	720.296	80.004	19.994	103.105	19.831	4.091	0.514
1275.501	720.538	80.005	19.995	103.105	19.833	3.925	0.500
1276.001	720.801	80.004	19.995	103.105	19.833	3.971	0.500
1276.500	721.057	80.004	19.995	103.105	19.831	4.116	0.512
1277.000	721.292	80.003	19.995	103.104	19.832	3.985	0.505
1277.500	721.557	80.004	19.995	103.104	19.833	3.962	0.496
1278.000	721.794	80.003	19.995	103.104	19.831	4.067	0.501
1278.500	722.083	80.004	19.995	103.104	19.829	4.192	0.514
1279.000	722.334	80.004	19.994	103.104	19.833	3.980	0.533
1279.501	722.537	80.004	19.994	103.100	19.830	4.131	0.497
1280.001	722.804	80.003	19.995	103.100	19.832	4.051	0.462
1280.500	723.054	80.004	19.995	103.100	19.831	4.105	0.494
1281.001	723.290	80.004	19.995	103.099	19.831	4.069	0.502
1281.501	723.538	80.004	19.996	103.099	19.830	4.172	0.485
1282.000	723.806	80.002	19.996	103.104	19.831	4.085	0.500
1282.500	724.048	80.004	19.994	103.103	19.831	4.060	0.513
1283.000	724.267	80.003	19.995	103.104	19.831	4.118	0.486
1283.500	724.501	80.004	19.996	103.106	19.830	4.143	0.457
1284.000	724.781	80.003	19.994	103.107	19.830	4.132	0.484
1284.500	725.031	80.004	19.995	103.106	19.835	3.824	0.522
1285.000	725.280	80.003	19.995	103.107	19.827	4.359	0.514
1285.500	725.554	80.004	19.994	103.106	19.833	3.967	0.511
1286.000	725.774	80.003	19.994	103.104	19.831	4.074	0.508
1286.500	726.053	80.002	19.995	103.103	19.828	4.312	0.496
1287.001	726.306	80.004	19.995	103.104	19.830	4.125	0.516
1287.501	726.572	80.003	19.995	103.103	19.827	4.332	0.526
1288.000	726.783	80.003	19.995	103.104	19.829	4.220	0.498
1288.500	727.063	80.003	19.995	103.104	19.828	4.279	0.484
1289.000	727.327	80.003	19.995	103.104	19.829	4.245	0.517
1289.500	727.578	80.004	19.994	103.102	19.826	4.452	0.529
1290.000	727.828	80.002	19.995	103.102	19.826	4.441	0.508
1290.500	728.064	80.003	19.994	103.103	19.829	4.252	0.493
1291.000	728.311	80.003	19.995	103.103	19.829	4.232	0.484
1291.500	728.561	80.003	19.995	103.105	19.829	4.227	0.490
1292.000	728.829	80.004	19.995	103.106	19.829	4.234	0.508
1292.500	729.121	80.004	19.995	103.104	19.828	4.287	0.540
1293.000	729.347	80.004	19.994	103.103	19.829	4.201	0.539
1293.500	729.594	80.004	19.993	103.103	19.827	4.352	0.495
1294.000	729.826	80.004	19.994	103.103	19.828	4.285	0.476
1294.500	730.096	80.006	19.994	103.103	19.830	4.156	0.491
1295.000	730.315	80.005	19.994	103.104	19.831	4.089	0.495
1295.501	730.590	80.004	19.995	103.104	19.831	4.087	0.491
1296.001	730.845	80.005	19.995	103.102	19.832	4.005	0.512
1296.500	731.107	80.005	19.995	103.102	19.828	4.282	0.524
1297.000	731.363	80.006	19.994	103.101	19.829	4.203	0.518
1297.500	731.615	80.005	19.995	103.103	19.827	4.381	0.513
1298.000	731.887	80.005	19.994	103.103	19.830	4.125	0.516
1298.500	732.116	80.007	19.995	103.104	19.828	4.305	0.513
1299.000	732.377	80.006	19.995	103.103	19.828	4.299	0.496
1299.500	732.613	80.005	19.995	103.102	19.828	4.296	0.494
1300.000	732.838	80.006	19.995	103.098	19.830	4.134	0.479
1300.500	733.095	80.006	19.995	103.098	19.832	3.988	0.471
1301.001	733.366	80.005	19.994	103.097	19.830	4.150	0.505
1301.501	733.603	80.005	19.995	103.095	19.829	4.221	0.518
1302.000	733.831	80.006	19.995	103.096	19.829	4.195	0.486
1302.500	734.106	80.005	19.996	103.099	19.828	4.295	0.484
1303.000	734.374	80.005	19.996	103.099	19.829	4.215	0.523
1303.500	734.639	80.006	19.996	103.099	19.826	4.428	0.538
1304.000	734.878	80.004	19.997	103.101	19.828	4.305	0.518
1304.500	735.130	80.004	19.995	103.102	19.828	4.254	0.497
1305.000	735.397	80.003	19.996	103.102	19.831	4.105	0.505
1305.500	735.635	80.004	19.996	103.102	19.830	4.139	0.512
1306.000	735.889	80.004	19.996	103.100	19.829	4.208	0.499
1306.500	736.100	80.003	19.996	103.093	19.829	4.218	0.479
1307.000	736.370	80.004	19.996	103.088	19.830	4.178	0.473
1307.500	736.652	80.002	19.996	103.088	19.831	4.054	0.516
1308.000	736.874	80.003	19.996	103.088	19.830	4.145	0.528
1308.500	737.157	80.002	19.997	103.090	19.832	3.996	0.504
1309.000	737.362	80.003	19.997	103.096	19.829	4.227	0.497
1309.500	737.627	80.003	19.997	103.100	19.831	4.091	0.479
1310.000	737.880	80.002	19.997	103.098	19.829	4.238	0.494
1310.500	738.125	80.003	19.995	103.095	19.831	4.116	0.507
1311.000	738.405	80.002	19.997	103.094	19.828	4.310	0.511
1311.500	738.631	80.004	19.996	103.088	19.830	4.169	0.516
1312.000	738.878	80.003	19.996	103.084	19.830	4.170	0.490
1312.500	739.110	80.003	19.996	103.085	19.831	4.116	0.476
1313.000	739.379	80.003	19.997	103.086	19.833	3.965	0.490
1313.500	739.607	80.003	19.996	103.087	19.831	4.063	0.499
1314.000	739.895	80.003	19.996	103.091	19.831	4.112	0.506
1314.500	740.169	80.002	19.996	103.096	19.830	4.163	0.539
1315.000	740.383	80.004	19.996	103.095	19.832	4.043	0.525
1315.500	740.668	80.003	19.995	103.095	19.830	4.150	0.493
1316.000	740.860	80.003	19.995	103.095	19.833	3.971	0.488
1316.500	741.130	80.004	19.995	103.097	19.830	4.161	0.470
1317.000	741.383	80.003	19.995	103.098	19.830	4.132	0.493
1317.500	741.661	80.003	19.995	103.100	19.833	3.938	0.527
1318.001	741.916	80.003	19.996	103.102	19.831	4.114	0.532
1318.501	742.141	80.003	19.994	103.102	19.830	4.130	0.506
1319.001	742.387	80.004	19.995	103.102	19.832	4.021	0.475
1319.501	742.636	80.003	19.995	103.102	19.833	3.945	0.483
1320.000	742.882	80.003	19.995	103.102	19.831	4.100	0.495
1320.500	743.143	80.004	19.995	103.103	19.832	4.007	0.501
1321.000	743.396	80.004	19.995	103.103	19.832	4.002	0.511
1321.500	743.679	80.003	19.995	103.103	19.834	3.915	0.525
