Sample ID:	C:\MCC\MCC Cal\Test\Basswood_Panel_MCC_30K_min_211117_R3.txt
Sample Weight (mg):	4.66
Heating Rate (C/s):	0.5
Combustor Temp (C):	900
N2 Flow Rate (cc/min):	80
O2 Flow Rate (cc/min):	20
Calibration File:	C:\MCC\MCC Cal\Coeff1 JN10440_30_210304.txt.txt
T Correction Coefficients:	0	1.024463	0
Time Shift (s):	14
*
Time (s)	Temperature (C)	N2 flow rate (cc/min)	O2 flow rate (cc/min)	Flow Rate (cc/min)	Oxygen (%)	HRR (W/g)	Heating rate (C/s)
0.000	108.819	80.004	19.995	103.023	19.864	0.002	-0.007
0.500	108.815	80.003	19.994	103.019	19.865	-0.069	-0.005
1.000	108.842	80.003	19.995	103.015	19.865	-0.069	0.004
1.500	108.832	80.003	19.995	103.015	19.864	0.015	0.020
2.000	108.822	80.003	19.996	103.011	19.865	-0.063	-0.002
2.500	108.839	80.004	19.994	103.008	19.863	0.067	-0.007
3.000	108.830	80.003	19.995	103.012	19.862	0.134	0.008
3.500	108.826	80.003	19.995	103.016	19.865	-0.082	-0.002
4.000	108.790	80.002	19.996	103.016	19.863	0.047	-0.026
4.500	108.810	80.003	19.996	103.019	19.865	-0.099	-0.028
5.000	108.825	80.003	19.995	103.022	19.864	0.007	0.010
5.500	108.816	80.003	19.996	103.021	19.863	0.052	0.020
6.001	108.780	80.003	19.995	103.021	19.863	0.065	-0.020
6.501	108.752	80.003	19.995	103.020	19.862	0.110	-0.054
7.001	108.771	80.003	19.997	103.022	19.864	-0.030	-0.037
7.501	108.770	80.004	19.995	103.021	19.862	0.114	0.004
8.000	108.757	80.004	19.996	103.023	19.863	0.078	0.002
8.500	108.770	80.003	19.996	103.024	19.864	0.011	-0.007
9.000	108.781	80.002	19.995	103.024	19.865	-0.032	0.012
9.500	108.788	80.003	19.996	103.025	19.861	0.194	0.022
10.000	108.758	80.001	19.996	103.026	19.865	-0.047	-0.002
10.500	108.761	80.003	19.995	103.026	19.865	-0.048	-0.025
11.000	108.765	80.001	19.996	103.026	19.865	-0.065	-0.010
11.500	108.751	80.002	19.995	103.026	19.859	0.341	-0.002
12.000	108.793	80.003	19.996	103.025	19.862	0.138	0.009
12.500	108.790	80.002	19.995	103.025	19.860	0.277	0.034
13.001	108.766	80.002	19.995	103.027	19.859	0.346	0.006
13.501	108.768	80.003	19.996	103.029	19.862	0.136	-0.025
14.001	108.782	80.001	19.996	103.028	19.861	0.207	-0.003
14.500	108.782	80.001	19.996	103.032	19.862	0.114	0.015
15.000	108.776	80.002	19.995	103.036	19.861	0.231	0.004
15.501	108.780	80.003	19.996	103.040	19.859	0.356	-0.004
16.001	108.808	80.003	19.996	103.041	19.859	0.343	0.016
16.500	108.766	80.003	19.995	103.043	19.858	0.401	0.010
17.000	108.816	80.002	19.997	103.042	19.860	0.268	-0.003
17.500	108.845	80.002	19.995	103.037	19.857	0.475	0.043
18.000	108.784	80.002	19.995	103.033	19.860	0.268	0.023
18.501	108.783	80.002	19.996	103.033	19.857	0.490	-0.047
19.001	108.803	80.002	19.995	103.035	19.855	0.598	-0.021
19.500	108.813	80.002	19.996	103.041	19.857	0.492	0.025
20.000	108.805	80.003	19.996	103.048	19.854	0.693	0.016
20.501	108.840	80.003	19.996	103.055	19.855	0.608	0.014
21.001	108.877	80.004	19.996	103.060	19.855	0.610	0.049
21.500	108.849	80.002	19.995	103.065	19.854	0.680	0.040
22.000	108.879	80.001	19.996	103.064	19.853	0.753	0.006
22.500	108.856	80.003	19.996	103.066	19.854	0.718	0.005
23.000	108.907	80.003	19.996	103.067	19.851	0.895	0.018
23.500	108.912	80.004	19.995	103.068	19.854	0.695	0.042
24.000	108.934	80.002	19.996	103.070	19.853	0.731	0.041
24.500	108.940	80.003	19.996	103.077	19.851	0.914	0.028
25.000	108.922	80.002	19.996	103.083	19.849	1.066	0.009
25.500	108.963	80.003	19.995	103.091	19.851	0.936	0.006
26.000	108.977	80.004	19.995	103.101	19.847	1.158	0.039
26.500	109.006	80.002	19.997	103.113	19.849	1.074	0.049
27.000	109.027	80.003	19.994	103.120	19.846	1.229	0.047
27.500	109.079	80.003	19.994	103.129	19.847	1.210	0.062
28.000	109.054	80.003	19.995	103.140	19.843	1.439	0.050
28.500	109.103	80.003	19.995	103.152	19.844	1.361	0.026
29.000	109.143	80.003	19.995	103.162	19.841	1.576	0.056
29.500	109.181	80.003	19.996	103.175	19.843	1.434	0.083
30.000	109.204	80.002	19.994	103.185	19.841	1.622	0.069
30.501	109.220	80.004	19.995	103.188	19.837	1.887	0.050
31.001	109.274	80.003	19.995	103.193	19.838	1.822	0.055
31.501	109.310	80.003	19.995	103.199	19.838	1.835	0.080
32.000	109.325	80.003	19.996	103.203	19.835	1.982	0.071
32.500	109.384	80.003	19.996	103.206	19.835	1.986	0.063
33.001	109.415	80.004	19.995	103.211	19.836	1.969	0.082
33.501	109.472	80.003	19.995	103.213	19.836	1.932	0.089
34.000	109.521	80.004	19.995	103.214	19.832	2.236	0.097
34.500	109.584	80.003	19.996	103.214	19.831	2.264	0.109
35.000	109.635	80.002	19.994	103.216	19.829	2.398	0.113
35.500	109.681	80.004	19.995	103.218	19.830	2.334	0.105
36.001	109.737	80.003	19.995	103.219	19.830	2.347	0.099
36.501	109.806	80.004	19.996	103.220	19.830	2.323	0.114
37.000	109.889	80.002	19.995	103.220	19.826	2.603	0.139
37.501	109.945	80.004	19.995	103.221	19.829	2.443	0.145
38.001	110.022	80.005	19.995	103.221	19.827	2.563	0.136
38.500	110.083	80.004	19.995	103.223	19.826	2.599	0.136
39.000	110.157	80.004	19.995	103.222	19.826	2.641	0.136
39.500	110.226	80.006	19.995	103.223	19.826	2.663	0.139
40.001	110.295	80.004	19.995	103.223	19.827	2.534	0.141
40.501	110.384	80.005	19.995	103.223	19.826	2.642	0.148
41.000	110.479	80.005	19.994	103.224	19.823	2.845	0.171
41.500	110.538	80.007	19.994	103.225	19.824	2.742	0.169
42.000	110.640	80.005	19.995	103.230	19.823	2.805	0.158
42.500	110.716	80.005	19.995	103.233	19.824	2.744	0.170
43.000	110.782	80.005	19.994	103.240	19.823	2.856	0.160
43.501	110.880	80.007	19.995	103.240	19.825	2.675	0.153
44.001	110.981	80.005	19.994	103.238	19.822	2.899	0.182
44.500	111.034	80.006	19.994	103.234	19.822	2.916	0.176
45.000	111.161	80.006	19.995	103.235	19.823	2.841	0.166
45.500	111.237	80.005	19.995	103.237	19.822	2.882	0.191
46.000	111.311	80.005	19.995	103.230	19.819	3.140	0.177
46.500	111.381	80.006	19.995	103.217	19.821	2.993	0.148
47.000	111.492	80.005	19.996	103.212	19.821	2.996	0.163
47.500	111.611	80.005	19.995	103.210	19.819	3.110	0.205
48.000	111.668	80.004	19.995	103.210	19.819	3.097	0.203
48.500	111.792	80.004	19.994	103.224	19.819	3.124	0.179
49.000	111.913	80.003	19.996	103.258	19.820	3.042	0.213
49.500	112.008	80.005	19.996	103.299	19.819	3.130	0.230
50.000	112.133	80.004	19.995	103.310	19.817	3.225	0.218
50.500	112.232	80.004	19.996	103.311	19.819	3.141	0.222
51.000	112.354	80.004	19.996	103.310	19.818	3.218	0.223
51.500	112.401	80.005	19.995	103.297	19.821	2.947	0.196
52.000	112.559	80.004	19.995	103.269	19.819	3.123	0.187
52.500	112.713	80.005	19.996	103.265	19.820	3.050	0.258
53.000	112.831	80.003	19.995	103.264	19.819	3.104	0.292
53.500	112.922	80.005	19.996	103.264	19.820	3.065	0.241
54.000	113.040	80.004	19.995	103.264	19.823	2.860	0.209
54.500	113.160	80.004	19.994	103.264	19.818	3.181	0.223
55.000	113.306	80.005	19.995	103.265	19.817	3.227	0.252
55.500	113.441	80.005	19.994	103.270	19.815	3.380	0.274
56.000	113.576	80.005	19.996	103.277	19.816	3.311	0.276
56.500	113.692	80.004	19.995	103.284	19.817	3.242	0.260
57.000	113.818	80.004	19.994	103.286	19.820	3.058	0.246
57.500	113.979	80.005	19.996	103.284	19.820	3.056	0.265
58.000	114.098	80.004	19.994	103.283	19.817	3.280	0.283
58.500	114.266	80.004	19.994	103.277	19.819	3.142	0.283
59.000	114.384	80.003	19.995	103.270	19.818	3.194	0.287
59.500	114.543	80.005	19.995	103.266	19.816	3.350	0.281
60.000	114.691	80.006	19.995	103.264	19.818	3.192	0.292
60.500	114.837	80.004	19.994	103.260	19.821	2.975	0.301
61.000	114.967	80.006	19.995	103.259	19.820	3.035	0.285
61.500	115.117	80.006	19.995	103.259	19.817	3.238	0.278
62.000	115.253	80.004	19.993	103.260	19.819	3.142	0.283
62.500	115.423	80.005	19.994	103.262	19.820	3.078	0.296
63.000	115.535	80.005	19.993	103.263	19.820	3.018	0.294
63.500	115.695	80.005	19.994	103.265	19.820	3.024	0.277
64.000	115.873	80.005	19.994	103.271	19.822	2.922	0.305
64.500	116.000	80.006	19.993	103.274	19.820	3.071	0.322
65.000	116.157	80.006	19.994	103.275	19.819	3.136	0.294
65.500	116.350	80.005	19.994	103.277	19.820	3.052	0.317
66.000	116.499	80.005	19.994	103.274	19.820	3.076	0.346
66.500	116.662	80.006	19.995	103.272	19.819	3.091	0.326
67.000	116.802	80.007	19.994	103.270	19.821	3.007	0.307
67.500	116.992	80.006	19.995	103.271	19.818	3.216	0.317
68.000	117.168	80.005	19.994	103.273	19.821	2.996	0.348
68.500	117.309	80.006	19.994	103.276	19.818	3.177	0.341
69.000	117.488	80.006	19.994	103.277	19.816	3.343	0.319
69.500	117.628	80.006	19.995	103.279	19.817	3.227	0.320
70.000	117.831	80.006	19.995	103.277	19.819	3.136	0.331
70.500	117.975	80.006	19.994	103.274	19.818	3.211	0.344
71.000	118.144	80.006	19.995	103.272	19.817	3.281	0.330
71.500	118.332	80.005	19.995	103.271	19.818	3.196	0.335
72.001	118.488	80.006	19.995	103.269	19.819	3.140	0.351
72.501	118.639	80.006	19.994	103.273	19.819	3.108	0.325
73.000	118.834	80.006	19.994	103.274	19.817	3.241	0.326
73.500	118.989	80.006	19.995	103.274	19.818	3.207	0.348
74.000	119.171	80.005	19.995	103.278	19.817	3.228	0.343
74.500	119.366	80.005	19.994	103.281	19.817	3.282	0.357
75.000	119.527	80.006	19.994	103.279	19.817	3.261	0.366
75.500	119.684	80.005	19.994	103.276	19.817	3.250	0.337
76.000	119.877	80.004	19.994	103.275	19.817	3.235	0.334
76.500	120.066	80.003	19.995	103.269	19.815	3.401	0.365
77.000	120.276	80.003	19.995	103.263	19.818	3.183	0.390
77.500	120.435	80.003	19.995	103.263	19.816	3.347	0.384
78.000	120.635	80.003	19.995	103.265	19.817	3.246	0.364
78.500	120.868	80.002	19.994	103.266	19.818	3.155	0.396
79.000	121.035	80.002	19.996	103.268	19.817	3.253	0.417
79.500	121.202	80.002	19.996	103.269	19.816	3.302	0.367
80.000	121.402	80.002	19.995	103.271	19.813	3.518	0.351
80.500	121.586	80.004	19.994	103.272	19.817	3.283	0.375
81.000	121.748	80.003	19.995	103.272	19.817	3.252	0.365
81.500	121.942	80.003	19.996	103.274	19.819	3.084	0.351
82.000	122.137	80.002	19.996	103.274	19.818	3.198	0.373
82.500	122.322	80.002	19.996	103.273	19.816	3.291	0.384
83.000	122.529	80.003	19.997	103.275	19.820	3.060	0.386
83.500	122.724	80.003	19.995	103.279	19.820	3.065	0.397
84.000	122.915	80.002	19.995	103.282	19.820	3.021	0.394
84.500	123.131	80.002	19.995	103.287	19.821	2.980	0.396
85.000	123.298	80.002	19.995	103.285	19.819	3.120	0.395
85.500	123.518	80.002	19.995	103.284	19.820	3.075	0.385
86.000	123.682	80.002	19.995	103.279	19.816	3.289	0.386
86.500	123.866	80.004	19.995	103.274	19.820	3.060	0.366
87.000	124.075	80.003	19.996	103.274	19.818	3.168	0.370
87.500	124.254	80.004	19.995	103.280	19.820	3.056	0.390
88.000	124.461	80.002	19.997	103.283	19.820	3.049	0.387
88.500	124.648	80.004	19.994	103.286	19.823	2.868	0.390
89.000	124.836	80.002	19.995	103.284	19.817	3.220	0.384
89.501	125.045	80.002	19.995	103.279	19.817	3.274	0.386
90.001	125.246	80.004	19.994	103.273	19.818	3.151	0.403
90.500	125.465	80.003	19.995	103.265	19.818	3.190	0.415
91.000	125.662	80.004	19.995	103.262	19.818	3.216	0.418
91.500	125.832	80.003	19.995	103.267	19.818	3.188	0.391
92.000	126.057	80.003	19.995	103.273	19.820	3.045	0.381
92.500	126.286	80.005	19.994	103.277	19.816	3.317	0.425
93.000	126.467	80.004	19.995	103.284	19.819	3.130	0.432
93.500	126.635	80.004	19.995	103.289	19.818	3.198	0.379
94.000	126.856	80.002	19.996	103.288	19.818	3.156	0.369
94.500	127.100	80.005	19.996	103.288	19.819	3.104	0.427
95.000	127.316	80.003	19.995	103.291	19.818	3.164	0.463
95.500	127.522	80.005	19.995	103.289	19.819	3.108	0.441
96.000	127.715	80.005	19.995	103.288	19.819	3.144	0.411
96.500	127.951	80.004	19.994	103.288	19.816	3.312	0.414
97.000	128.174	80.004	19.995	103.288	19.818	3.153	0.444
97.500	128.362	80.003	19.996	103.287	19.819	3.086	0.435
98.000	128.577	80.004	19.995	103.288	19.819	3.123	0.407
98.500	128.797	80.004	19.996	103.292	19.818	3.215	0.420
99.000	128.999	80.004	19.995	103.294	19.818	3.215	0.428
99.500	129.220	80.005	19.996	103.290	19.815	3.390	0.422
100.000	129.407	80.003	19.995	103.286	19.818	3.219	0.415
100.500	129.619	80.003	19.995	103.280	19.818	3.200	0.403
101.000	129.850	80.003	19.995	103.275	19.819	3.105	0.421
101.501	130.068	80.003	19.995	103.270	19.818	3.153	0.446
102.001	130.282	80.003	19.995	103.272	19.816	3.317	0.440
102.501	130.500	80.004	19.995	103.274	19.820	3.078	0.432
103.001	130.737	80.003	19.995	103.277	19.815	3.420	0.444
103.501	130.930	80.003	19.996	103.277	19.816	3.312	0.443
104.001	131.123	80.003	19.996	103.280	19.814	3.455	0.408
104.501	131.348	80.003	19.996	103.277	19.811	3.683	0.402
105.000	131.565	80.004	19.995	103.273	19.815	3.392	0.430
105.501	131.784	80.003	19.996	103.271	19.815	3.426	0.439
106.001	132.030	80.003	19.996	103.273	19.813	3.506	0.450
106.500	132.249	80.003	19.996	103.274	19.813	3.528	0.465
107.001	132.457	80.003	19.996	103.281	19.811	3.651	0.446
107.501	132.704	80.003	19.996	103.284	19.814	3.436	0.441
108.000	132.919	80.002	19.995	103.287	19.811	3.673	0.458
108.500	133.136	80.002	19.995	103.289	19.813	3.518	0.447
109.000	133.341	80.002	19.996	103.289	19.814	3.479	0.427
109.500	133.589	80.002	19.996	103.287	19.813	3.544	0.438
110.000	133.810	80.002	19.997	103.290	19.813	3.546	0.461
110.500	134.043	80.002	19.997	103.293	19.815	3.373	0.462
111.000	134.257	80.002	19.997	103.293	19.813	3.531	0.451
111.500	134.531	80.002	19.997	103.292	19.813	3.517	0.468
112.000	134.741	80.002	19.996	103.289	19.812	3.584	0.486
112.500	134.946	80.002	19.997	103.284	19.811	3.645	0.450
113.000	135.168	80.002	19.997	103.284	19.813	3.560	0.421
113.501	135.394	80.003	19.996	103.283	19.816	3.317	0.437
114.001	135.649	80.002	19.996	103.283	19.814	3.437	0.465
114.500	135.853	80.003	19.996	103.287	19.813	3.521	0.470
115.000	136.037	80.002	19.996	103.291	19.814	3.459	0.423
115.501	136.335	80.003	19.997	103.291	19.815	3.418	0.435
116.001	136.565	80.004	19.996	103.290	19.813	3.528	0.505
116.500	136.800	80.003	19.996	103.288	19.814	3.459	0.497
117.000	137.020	80.002	19.996	103.284	19.814	3.427	0.460
117.500	137.252	80.002	19.996	103.281	19.813	3.519	0.453
118.001	137.471	80.003	19.996	103.279	19.814	3.468	0.451
118.501	137.730	80.003	19.995	103.273	19.813	3.550	0.464
119.000	137.950	80.003	19.996	103.270	19.812	3.567	0.478
119.500	138.189	80.003	19.996	103.267	19.813	3.496	0.469
120.000	138.395	80.004	19.995	103.266	19.814	3.485	0.452
120.500	138.643	80.003	19.995	103.268	19.812	3.585	0.450
121.000	138.880	80.004	19.996	103.273	19.813	3.535	0.470
121.500	139.136	80.004	19.995	103.276	19.813	3.505	0.489
122.000	139.343	80.005	19.995	103.277	19.811	3.653	0.478
122.500	139.592	80.004	19.994	103.278	19.814	3.460	0.459
123.000	139.803	80.003	19.994	103.278	19.816	3.354	0.458
123.501	140.028	80.003	19.995	103.281	19.814	3.430	0.448
124.001	140.300	80.004	19.995	103.284	19.813	3.499	0.467
124.500	140.525	80.006	19.996	103.292	19.814	3.447	0.497
125.000	140.736	80.005	19.994	103.295	19.815	3.393	0.466
125.500	141.005	80.005	19.994	103.296	19.814	3.476	0.458
126.000	141.229	80.004	19.995	103.291	19.813	3.548	0.486
126.500	141.472	80.005	19.995	103.289	19.813	3.558	0.480
127.000	141.722	80.004	19.995	103.288	19.811	3.699	0.480
127.500	141.930	80.005	19.994	103.289	19.813	3.509	0.476
128.000	142.211	80.005	19.995	103.286	19.809	3.828	0.474
128.500	142.400	80.004	19.994	103.286	19.813	3.505	0.479
129.000	142.678	80.006	19.994	103.282	19.813	3.502	0.468
129.500	142.905	80.004	19.994	103.278	19.813	3.528	0.486
130.000	143.164	80.006	19.995	103.275	19.813	3.498	0.495
130.500	143.418	80.004	19.995	103.271	19.811	3.697	0.499
131.000	143.643	80.004	19.995	103.272	19.814	3.471	0.496
131.500	143.894	80.005	19.995	103.271	19.811	3.649	0.477
132.000	144.163	80.005	19.994	103.275	19.814	3.473	0.498
132.500	144.395	80.005	19.995	103.275	19.811	3.680	0.510
133.000	144.613	80.005	19.994	103.277	19.809	3.775	0.475
133.500	144.859	80.004	19.995	103.274	19.811	3.695	0.457
134.000	145.099	80.005	19.996	103.273	19.813	3.563	0.476
134.500	145.346	80.003	19.994	103.268	19.812	3.628	0.487
135.000	145.609	80.002	19.995	103.269	19.810	3.746	0.498
135.500	145.850	80.003	19.995	103.272	19.810	3.762	0.507
136.000	146.097	80.002	19.996	103.273	19.809	3.828	0.496
136.500	146.314	80.003	19.995	103.278	19.811	3.684	0.475
137.000	146.592	80.003	19.995	103.279	19.811	3.673	0.479
137.500	146.815	80.004	19.995	103.275	19.811	3.675	0.498
138.000	147.078	80.004	19.995	103.272	19.811	3.641	0.494
138.501	147.319	80.004	19.995	103.274	19.811	3.671	0.496
139.000	147.539	80.002	19.995	103.273	19.811	3.639	0.483
139.500	147.812	80.003	19.995	103.276	19.812	3.567	0.477
140.000	148.050	80.004	19.994	103.279	19.810	3.749	0.502
140.500	148.284	80.003	19.995	103.277	19.810	3.712	0.492
141.000	148.507	80.003	19.995	103.274	19.812	3.617	0.465
141.500	148.762	80.003	19.995	103.271	19.811	3.678	0.467
142.000	149.037	80.004	19.996	103.266	19.813	3.520	0.504
142.500	149.290	80.004	19.994	103.264	19.814	3.456	0.529
143.000	149.530	80.003	19.994	103.263	19.813	3.542	0.511
143.500	149.826	80.003	19.995	103.264	19.810	3.736	0.515
144.000	150.056	80.004	19.995	103.266	19.814	3.484	0.531
144.500	150.326	80.005	19.996	103.267	19.810	3.734	0.513
145.000	150.521	80.002	19.995	103.267	19.811	3.686	0.483
145.500	150.789	80.004	19.995	103.268	19.809	3.783	0.464
146.000	151.027	80.004	19.994	103.267	19.809	3.771	0.485
146.500	151.281	80.005	19.994	103.265	19.812	3.572	0.499
147.000	151.512	80.004	19.995	103.265	19.809	3.801	0.489
147.500	151.764	80.004	19.995	103.264	19.810	3.760	0.484
148.000	152.026	80.005	19.995	103.263	19.814	3.456	0.499
148.500	152.266	80.005	19.995	103.262	19.810	3.712	0.508
149.000	152.488	80.006	19.994	103.262	19.810	3.742	0.482
149.500	152.765	80.005	19.993	103.262	19.810	3.738	0.480
150.000	153.011	80.006	19.994	103.264	19.810	3.714	0.511
150.500	153.265	80.005	19.995	103.266	19.813	3.553	0.512
151.000	153.501	80.005	19.994	103.268	19.812	3.630	0.495
151.500	153.747	80.006	19.995	103.267	19.811	3.661	0.485
152.000	153.971	80.006	19.995	103.266	19.812	3.611	0.476
152.500	154.266	80.006	19.995	103.264	19.812	3.564	0.495
153.000	154.502	80.005	19.995	103.261	19.813	3.523	0.525
153.500	154.723	80.005	19.994	103.259	19.811	3.658	0.494
154.000	154.957	80.005	19.994	103.259	19.812	3.626	0.456
154.500	155.201	80.005	19.995	103.258	19.811	3.680	0.466
155.000	155.439	80.005	19.995	103.257	19.812	3.604	0.480
155.500	155.735	80.006	19.994	103.258	19.810	3.721	0.508
156.000	155.957	80.005	19.993	103.258	19.810	3.753	0.526
156.500	156.244	80.005	19.995	103.258	19.811	3.669	0.514
157.000	156.481	80.005	19.993	103.259	19.812	3.596	0.517
157.500	156.720	80.006	19.993	103.258	19.813	3.533	0.500
158.000	156.990	80.005	19.994	103.257	19.807	3.911	0.492
158.500	157.237	80.004	19.994	103.258	19.812	3.592	0.513
159.000	157.449	80.004	19.994	103.258	19.812	3.607	0.488
159.500	157.718	80.004	19.994	103.258	19.810	3.758	0.470
160.000	157.978	80.004	19.995	103.258	19.811	3.665	0.505
160.500	158.200	80.004	19.994	103.258	19.809	3.794	0.505
161.000	158.456	80.004	19.995	103.258	19.812	3.613	0.480
161.500	158.695	80.004	19.995	103.259	19.813	3.507	0.486
162.000	158.954	80.003	19.995	103.259	19.810	3.734	0.497
162.500	159.193	80.005	19.994	103.259	19.809	3.835	0.499
163.000	159.460	80.003	19.994	103.259	19.811	3.686	0.502
163.500	159.696	80.004	19.994	103.258	19.810	3.717	0.504
164.000	159.949	80.002	19.994	103.257	19.809	3.812	0.496
164.500	160.229	80.004	19.994	103.258	19.811	3.689	0.511
165.000	160.442	80.003	19.995	103.258	19.810	3.758	0.513
165.500	160.715	80.004	19.995	103.258	19.809	3.773	0.490
166.000	160.976	80.004	19.994	103.258	19.811	3.691	0.510
166.500	161.258	80.002	19.994	103.258	19.810	3.749	0.539
167.000	161.471	80.004	19.995	103.258	19.811	3.674	0.519
167.500	161.698	80.003	19.995	103.258	19.811	3.693	0.467
168.000	161.959	80.004	19.995	103.258	19.809	3.836	0.464
168.500	162.223	80.003	19.994	103.258	19.810	3.764	0.507
169.000	162.486	80.003	19.995	103.259	19.808	3.894	0.527
169.501	162.727	80.002	19.996	103.259	19.809	3.812	0.516
170.000	162.970	80.004	19.995	103.259	19.812	3.600	0.494
170.500	163.216	80.004	19.997	103.258	19.811	3.671	0.486
171.000	163.484	80.004	19.996	103.259	19.810	3.738	0.501
171.500	163.707	80.003	19.996	103.257	19.814	3.471	0.502
172.000	163.992	80.003	19.996	103.256	19.812	3.600	0.500
172.500	164.236	80.003	19.995	103.257	19.809	3.794	0.519
173.000	164.533	80.004	19.995	103.257	19.811	3.686	0.535
173.500	164.785	80.004	19.995	103.257	19.811	3.697	0.545
174.000	165.011	80.004	19.995	103.256	19.812	3.564	0.513
174.500	165.261	80.004	19.996	103.256	19.813	3.534	0.477
175.000	165.537	80.005	19.995	103.255	19.812	3.631	0.501
175.501	165.746	80.003	19.995	103.254	19.810	3.754	0.506
176.000	165.978	80.003	19.996	103.252	19.810	3.765	0.463
176.500	166.272	80.004	19.996	103.252	19.813	3.553	0.483
177.000	166.542	80.004	19.996	103.250	19.812	3.570	0.545
177.500	166.808	80.004	19.995	103.251	19.813	3.536	0.550
178.000	167.031	80.003	19.995	103.253	19.811	3.648	0.512
178.500	167.291	80.004	19.996	103.251	19.814	3.467	0.486
179.000	167.499	80.004	19.995	103.250	19.812	3.607	0.476
179.500	167.762	80.003	19.995	103.251	19.815	3.375	0.470
180.000	168.059	80.004	19.996	103.251	19.815	3.409	0.515
180.500	168.288	80.003	19.995	103.251	19.815	3.372	0.543
181.000	168.521	80.003	19.995	103.253	19.813	3.499	0.494
181.500	168.741	80.004	19.996	103.254	19.813	3.544	0.457
182.000	169.032	80.003	19.995	103.255	19.812	3.564	0.482
182.500	169.260	80.003	19.995	103.255	19.813	3.517	0.516
183.000	169.505	80.004	19.995	103.255	19.815	3.407	0.496
183.500	169.809	80.004	19.995	103.257	19.813	3.554	0.511
184.000	170.052	80.003	19.995	103.256	19.818	3.206	0.547
184.500	170.277	80.003	19.995	103.255	19.817	3.251	0.507
185.000	170.543	80.004	19.995	103.255	19.814	3.430	0.480
185.500	170.792	80.004	19.995	103.253	19.814	3.461	0.503
186.000	171.024	80.004	19.995	103.249	19.812	3.566	0.498
186.500	171.281	80.002	19.995	103.246	19.814	3.437	0.485
187.000	171.537	80.004	19.994	103.246	19.816	3.353	0.501
187.500	171.807	80.003	19.996	103.246	19.813	3.513	0.519
188.000	172.054	80.002	19.995	103.246	19.815	3.377	0.521
188.500	172.271	80.003	19.996	103.246	19.815	3.422	0.490
189.000	172.524	80.001	19.994	103.247	19.813	3.521	0.467
189.500	172.761	80.003	19.996	103.241	19.815	3.396	0.481
190.000	173.014	80.003	19.995	103.239	19.815	3.362	0.490
190.500	173.249	80.003	19.996	103.240	19.814	3.481	0.489
191.000	173.510	80.002	19.994	103.244	19.815	3.373	0.492
191.500	173.774	80.002	19.996	103.249	19.814	3.448	0.510
192.000	174.063	80.003	19.994	103.254	19.817	3.263	0.539
192.500	174.315	80.001	19.995	103.251	19.816	3.299	0.547
193.000	174.576	80.002	19.995	103.250	19.814	3.470	0.527
193.501	174.812	80.002	19.996	103.249	19.815	3.379	0.505
194.000	175.010	80.003	19.995	103.244	19.815	3.392	0.466
194.500	175.312	80.003	19.996	103.241	19.815	3.411	0.467
195.000	175.540	80.001	19.995	103.244	19.815	3.357	0.515
195.500	175.788	80.002	19.996	103.244	19.814	3.455	0.502
196.000	176.011	80.001	19.996	103.242	19.815	3.383	0.473
196.500	176.263	80.002	19.996	103.246	19.819	3.088	0.473
197.000	176.549	80.001	19.996	103.247	19.815	3.371	0.507
197.500	176.747	80.003	19.996	103.242	19.817	3.286	0.511
198.000	177.040	80.002	19.996	103.237	19.815	3.368	0.487
198.500	177.278	80.002	19.996	103.238	19.818	3.192	0.510
199.000	177.520	80.002	19.995	103.233	19.817	3.271	0.505
199.500	177.763	80.002	19.996	103.229	19.813	3.517	0.482
200.000	178.042	80.003	19.997	103.230	19.817	3.273	0.504
200.500	178.270	80.002	19.996	103.231	19.814	3.442	0.515
201.000	178.517	80.003	19.996	103.229	19.816	3.331	0.491
201.500	178.741	80.001	19.996	103.230	19.811	3.653	0.473
202.000	178.979	80.003	19.995	103.236	19.817	3.284	0.467
202.500	179.233	80.003	19.996	103.239	19.812	3.580	0.477
203.000	179.470	80.003	19.996	103.238	19.816	3.341	0.492
203.500	179.712	80.002	19.997	103.235	19.814	3.438	0.486
204.000	179.982	80.003	19.996	103.235	19.817	3.284	0.496
204.500	180.220	80.002	19.996	103.228	19.816	3.347	0.509
205.000	180.449	80.003	19.996	103.227	19.818	3.196	0.487
205.500	180.726	80.003	19.995	103.233	19.815	3.381	0.487
206.000	180.964	80.004	19.996	103.236	19.814	3.452	0.511
206.500	181.188	80.004	19.995	103.235	19.817	3.282	0.488
207.000	181.454	80.003	19.995	103.235	19.814	3.431	0.476
207.500	181.732	80.003	19.997	103.233	19.815	3.418	0.517
208.000	181.923	80.003	19.996	103.232	19.816	3.353	0.507
208.500	182.207	80.003	19.995	103.230	19.814	3.437	0.472
209.000	182.451	80.004	19.995	103.230	19.817	3.267	0.502
209.500	182.705	80.004	19.996	103.233	19.813	3.522	0.513
210.000	182.928	80.002	19.996	103.236	19.817	3.284	0.488
210.500	183.186	80.005	19.995	103.233	19.814	3.491	0.480
211.000	183.419	80.002	19.996	103.234	19.817	3.278	0.486
211.500	183.677	80.004	19.996	103.238	19.815	3.388	0.490
212.000	183.923	80.004	19.995	103.237	19.815	3.371	0.497
212.500	184.144	80.004	19.996	103.235	19.815	3.362	0.486
213.000	184.418	80.004	19.995	103.233	19.815	3.362	0.481
213.500	184.634	80.004	19.995	103.231	19.813	3.543	0.493
214.000	184.874	80.004	19.995	103.229	19.814	3.461	0.473
214.500	185.147	80.003	19.995	103.227	19.814	3.459	0.484
215.000	185.355	80.003	19.995	103.227	19.817	3.285	0.497
215.500	185.604	80.002	19.994	103.232	19.814	3.448	0.469
216.000	185.881	80.004	19.994	103.236	19.814	3.492	0.491
216.500	186.143	80.004	19.995	103.239	19.813	3.543	0.533
217.000	186.400	80.003	19.995	103.240	19.813	3.496	0.529
217.500	186.617	80.004	19.995	103.238	19.814	3.489	0.497
218.000	186.884	80.004	19.995	103.235	19.811	3.640	0.479
218.500	187.147	80.004	19.995	103.234	19.815	3.381	0.507
219.000	187.380	80.004	19.995	103.229	19.813	3.521	0.513
219.500	187.622	80.004	19.996	103.230	19.812	3.590	0.485
220.000	187.850	80.005	19.995	103.232	19.812	3.612	0.473
220.500	188.079	80.004	19.995	103.230	19.812	3.564	0.463
221.000	188.344	80.004	19.996	103.227	19.815	3.412	0.475
221.500	188.607	80.004	19.994	103.227	19.814	3.485	0.511
222.000	188.828	80.004	19.995	103.225	19.814	3.444	0.506
222.500	189.101	80.004	19.994	103.224	19.812	3.597	0.489
223.000	189.309	80.004	19.995	103.223	19.817	3.274	0.488
223.500	189.603	80.003	19.994	103.224	19.812	3.621	0.491
224.000	189.816	80.004	19.995	103.225	19.813	3.548	0.504
224.500	190.067	80.004	19.995	103.227	19.814	3.433	0.486
225.000	190.293	80.004	19.995	103.226	19.813	3.522	0.471
225.500	190.549	80.004	19.996	103.226	19.813	3.533	0.480
226.000	190.796	80.004	19.995	103.225	19.812	3.608	0.492
226.500	191.058	80.005	19.994	103.225	19.809	3.824	0.506
227.000	191.305	80.004	19.995	103.223	19.813	3.522	0.509
227.500	191.509	80.005	19.995	103.223	19.813	3.546	0.480
228.000	191.796	80.005	19.995	103.222	19.808	3.850	0.471
228.500	192.013	80.003	19.994	103.223	19.811	3.645	0.497
229.000	192.239	80.006	19.995	103.223	19.815	3.423	0.474
229.500	192.491	80.004	19.996	103.228	19.812	3.623	0.461
230.000	192.737	80.004	19.995	103.233	19.813	3.505	0.488
230.500	192.996	80.005	19.995	103.235	19.809	3.778	0.501
231.000	193.227	80.005	19.995	103.234	19.809	3.834	0.497
231.500	193.483	80.005	19.995	103.234	19.809	3.835	0.489
232.000	193.725	80.005	19.995	103.231	19.813	3.520	0.493
232.500	193.949	80.005	19.996	103.226	19.808	3.860	0.482
233.000	194.192	80.006	19.996	103.225	19.810	3.707	0.467
233.500	194.445	80.006	19.994	103.226	19.808	3.901	0.481
234.000	194.702	80.005	19.994	103.225	19.811	3.692	0.503
234.500	194.955	80.006	19.996	103.225	19.808	3.863	0.510
235.000	195.161	80.006	19.995	103.226	19.810	3.707	0.484
235.500	195.389	80.006	19.995	103.228	19.807	3.929	0.447
236.000	195.695	80.005	19.995	103.227	19.808	3.895	0.484
236.500	195.918	80.006	19.995	103.226	19.809	3.772	0.531
237.000	196.140	80.006	19.995	103.225	19.810	3.722	0.488
237.500	196.365	80.006	19.995	103.222	19.808	3.847	0.446
238.000	196.640	80.006	19.995	103.221	19.806	4.003	0.473
238.500	196.846	80.005	19.995	103.220	19.806	3.981	0.490
239.000	197.106	80.005	19.995	103.220	19.806	3.983	0.473
239.500	197.332	80.005	19.995	103.220	19.808	3.871	0.475
240.000	197.576	80.005	19.995	103.221	19.810	3.740	0.478
240.500	197.843	80.005	19.994	103.222	19.807	3.921	0.491
241.000	198.077	80.005	19.996	103.222	19.805	4.072	0.506
241.500	198.307	80.004	19.995	103.222	19.810	3.727	0.482
242.000	198.564	80.004	19.996	103.222	19.806	4.039	0.475
242.501	198.801	80.003	19.995	103.223	19.805	4.048	0.490
243.000	199.086	80.005	19.995	103.224	19.808	3.905	0.508
243.500	199.327	80.006	19.995	103.224	19.805	4.058	0.524
244.000	199.512	80.003	19.995	103.225	19.805	4.063	0.476
244.500	199.767	80.004	19.996	103.226	19.807	3.970	0.433
245.000	200.015	80.003	19.995	103.225	19.809	3.795	0.471
245.500	200.281	80.004	19.995	103.225	19.809	3.830	0.508
246.000	200.519	80.004	19.995	103.225	19.804	4.121	0.509
246.500	200.721	80.003	19.995	103.225	19.808	3.843	0.472
247.000	200.994	80.003	19.996	103.226	19.809	3.836	0.457
247.500	201.239	80.004	19.994	103.225	19.808	3.901	0.496
248.000	201.459	80.003	19.995	103.224	19.805	4.115	0.491
248.500	201.728	80.004	19.995	103.226	19.809	3.778	0.477
249.000	201.991	80.004	19.995	103.226	19.805	4.063	0.511
249.500	202.230	80.005	19.995	103.225	19.809	3.830	0.517
250.000	202.493	80.004	19.995	103.224	19.807	3.910	0.502
250.500	202.724	80.005	19.994	103.224	19.807	3.950	0.498
251.000	202.969	80.003	19.994	103.222	19.807	3.953	0.485
251.500	203.236	80.004	19.994	103.223	19.806	3.985	0.494
252.000	203.445	80.003	19.994	103.224	19.806	3.992	0.494
252.500	203.692	80.003	19.994	103.228	19.807	3.966	0.465
253.000	203.952	80.004	19.994	103.230	19.808	3.849	0.481
253.500	204.197	80.004	19.995	103.231	19.803	4.190	0.506
254.000	204.465	80.004	19.995	103.230	19.806	3.998	0.509
254.500	204.684	80.004	19.994	103.231	19.802	4.279	0.500
255.000	204.908	80.004	19.995	103.228	19.804	4.171	0.465
255.500	205.203	80.003	19.994	103.226	19.803	4.216	0.481
256.000	205.412	80.004	19.994	103.226	19.804	4.126	0.512
256.500	205.661	80.004	19.995	103.226	19.803	4.212	0.481
257.000	205.928	80.004	19.993	103.225	19.804	4.141	0.487
257.500	206.162	80.004	19.994	103.225	19.804	4.175	0.508
258.000	206.406	80.004	19.994	103.226	19.802	4.266	0.489
258.500	206.667	80.004	19.995	103.229	19.803	4.251	0.491
259.000	206.900	80.003	19.996	103.232	19.803	4.227	0.500
259.500	207.158	80.002	19.995	103.232	19.802	4.285	0.493
260.000	207.422	80.004	19.995	103.233	19.803	4.225	0.507
260.500	207.669	80.003	19.994	103.233	19.801	4.335	0.517
261.000	207.924	80.005	19.994	103.233	19.801	4.333	0.506
261.500	208.151	80.004	19.994	103.232	19.801	4.352	0.492
262.000	208.410	80.004	19.995	103.232	19.799	4.468	0.484
262.500	208.682	80.004	19.995	103.230	19.802	4.315	0.509
263.000	208.889	80.002	19.995	103.229	19.803	4.251	0.505
263.500	209.167	80.003	19.994	103.226	19.802	4.285	0.482
264.000	209.390	80.004	19.996	103.227	19.806	4.015	0.493
264.500	209.630	80.003	19.995	103.228	19.806	4.043	0.482
265.000	209.903	80.003	19.994	103.227	19.804	4.179	0.488
265.500	210.166	80.004	19.996	103.228	19.802	4.298	0.525
266.000	210.393	80.004	19.996	103.228	19.803	4.253	0.514
266.500	210.624	80.002	19.995	103.226	19.803	4.207	0.474
267.000	210.840	80.002	19.995	103.226	19.800	4.430	0.452
267.500	211.103	80.002	19.995	103.226	19.802	4.276	0.463
268.000	211.370	80.003	19.994	103.225	19.801	4.384	0.505
268.500	211.603	80.003	19.996	103.225	19.799	4.494	0.515
269.000	211.843	80.003	19.995	103.225	19.803	4.238	0.486
269.500	212.103	80.003	19.995	103.224	19.798	4.553	0.486
270.000	212.323	80.002	19.995	103.224	19.801	4.332	0.490
270.500	212.558	80.002	19.995	103.225	19.804	4.117	0.467
271.000	212.780	80.002	19.995	103.225	19.803	4.251	0.456
271.500	213.069	80.002	19.996	103.224	19.800	4.425	0.484
272.000	213.323	80.003	19.995	103.223	19.800	4.436	0.527
272.500	213.570	80.003	19.996	103.224	19.798	4.531	0.522
273.000	213.824	80.001	19.995	103.224	19.801	4.369	0.501
273.500	214.051	80.002	19.995	103.225	19.799	4.481	0.491
274.000	214.315	80.002	19.995	103.225	19.799	4.516	0.486
274.500	214.588	80.003	19.997	103.225	19.800	4.397	0.514
275.000	214.763	80.002	19.997	103.226	19.799	4.488	0.492
275.500	215.039	80.002	19.996	103.227	19.796	4.682	0.449
276.000	215.289	80.003	19.995	103.226	19.797	4.606	0.489
276.500	215.542	80.002	19.995	103.226	19.795	4.753	0.515
277.000	215.772	80.001	19.995	103.226	19.799	4.512	0.493
277.500	216.053	80.002	19.995	103.226	19.796	4.691	0.497
278.000	216.305	80.002	19.996	103.225	19.795	4.760	0.523
278.500	216.551	80.002	19.995	103.225	19.798	4.546	0.516
279.000	216.806	80.003	19.996	103.225	19.799	4.484	0.499
279.500	217.034	80.001	19.995	103.225	19.798	4.593	0.492
280.000	217.313	80.002	19.996	103.225	19.797	4.602	0.495
280.500	217.559	80.003	19.995	103.225	19.798	4.583	0.516
281.000	217.784	80.002	19.995	103.225	19.795	4.749	0.498
281.500	218.029	80.004	19.994	103.225	19.797	4.621	0.470
282.000	218.252	80.003	19.995	103.225	19.795	4.746	0.469
282.500	218.501	80.003	19.995	103.224	19.795	4.772	0.470
283.000	218.766	80.004	19.995	103.223	19.793	4.904	0.493
283.500	219.017	80.003	19.994	103.223	19.793	4.916	0.515
284.000	219.254	80.003	19.995	103.225	19.792	4.984	0.502
284.500	219.509	80.004	19.995	103.226	19.792	4.992	0.490
285.001	219.727	80.004	19.996	103.225	19.792	4.947	0.482
285.500	219.973	80.004	19.995	103.224	19.792	4.973	0.469
286.000	220.256	80.004	19.995	103.225	19.793	4.917	0.497
286.500	220.485	80.004	19.996	103.224	19.790	5.090	0.521
287.000	220.743	80.004	19.995	103.224	19.794	4.816	0.500
287.500	220.948	80.004	19.995	103.226	19.793	4.934	0.475
288.000	221.195	80.003	19.996	103.226	19.790	5.093	0.457
288.500	221.473	80.003	19.994	103.225	19.790	5.087	0.488
289.000	221.729	80.004	19.996	103.225	19.793	4.908	0.529
289.500	221.958	80.004	19.995	103.227	19.791	5.044	0.510
290.000	222.207	80.005	19.994	103.227	19.790	5.093	0.482
290.500	222.438	80.004	19.995	103.229	19.791	5.080	0.479
291.000	222.715	80.004	19.995	103.230	19.792	4.998	0.494
291.500	222.966	80.005	19.996	103.229	19.787	5.311	0.518
292.000	223.187	80.003	19.995	103.226	19.788	5.269	0.500
292.500	223.449	80.004	19.995	103.228	19.789	5.221	0.477
293.000	223.684	80.004	19.997	103.231	19.789	5.215	0.490
293.500	223.966	80.005	19.996	103.235	19.787	5.320	0.507
294.000	224.200	80.003	19.996	103.236	19.787	5.309	0.517
294.500	224.443	80.004	19.996	103.236	19.790	5.113	0.496
295.000	224.666	80.003	19.996	103.233	19.788	5.251	0.471
295.500	224.948	80.004	19.995	103.228	19.785	5.484	0.486
296.000	225.174	80.004	19.997	103.222	19.781	5.711	0.507
296.500	225.413	80.003	19.995	103.222	19.785	5.439	0.486
297.000	225.656	80.003	19.995	103.224	19.786	5.426	0.473
297.500	225.880	80.004	19.996	103.225	19.783	5.575	0.475
298.000	226.144	80.003	19.996	103.226	19.781	5.758	0.478
298.500	226.391	80.004	19.995	103.227	19.783	5.573	0.499
299.000	226.634	80.004	19.997	103.231	19.785	5.480	0.501
299.500	226.925	80.003	19.996	103.233	19.781	5.750	0.512
300.000	227.163	80.003	19.995	103.236	19.781	5.762	0.531
300.500	227.420	80.003	19.995	103.240	19.781	5.758	0.512
301.000	227.653	80.004	19.996	103.241	19.782	5.695	0.493
301.500	227.912	80.004	19.996	103.235	19.781	5.715	0.491
302.000	228.163	80.003	19.996	103.233	19.780	5.793	0.501
302.500	228.402	80.003	19.995	103.228	19.784	5.499	0.500
303.000	228.671	80.003	19.995	103.222	19.783	5.574	0.499
303.500	228.930	80.004	19.997	103.221	19.780	5.794	0.518
304.000	229.161	80.004	19.996	103.224	19.782	5.652	0.509
304.500	229.447	80.003	19.996	103.223	19.777	6.004	0.504
305.000	229.683	80.003	19.997	103.224	19.781	5.741	0.519
305.500	229.943	80.004	19.996	103.223	19.777	6.006	0.509
306.000	230.179	80.004	19.996	103.223	19.779	5.889	0.496
306.500	230.427	80.004	19.996	103.220	19.780	5.777	0.490
307.000	230.681	80.004	19.995	103.224	19.780	5.814	0.493
307.500	230.937	80.005	19.995	103.223	19.773	6.293	0.506
308.000	231.197	80.005	19.995	103.224	19.778	5.954	0.513
308.500	231.444	80.004	19.996	103.224	19.775	6.140	0.511
309.000	231.687	80.006	19.994	103.225	19.777	6.006	0.499
309.500	231.939	80.006	19.994	103.223	19.775	6.178	0.493
310.000	232.191	80.004	19.995	103.222	19.777	6.044	0.499
310.500	232.415	80.005	19.995	103.224	19.774	6.200	0.490
311.000	232.672	80.005	19.994	103.227	19.775	6.167	0.478
311.500	232.907	80.006	19.994	103.225	19.774	6.259	0.487
312.000	233.191	80.005	19.994	103.225	19.774	6.240	0.506
312.500	233.420	80.005	19.995	103.227	19.774	6.249	0.516
313.000	233.695	80.005	19.994	103.227	19.775	6.135	0.509
313.500	233.899	80.005	19.994	103.231	19.777	6.047	0.491
314.000	234.211	80.007	19.993	103.231	19.772	6.387	0.497
314.500	234.409	80.007	19.994	103.231	19.775	6.150	0.513
315.000	234.715	80.006	19.994	103.230	19.775	6.178	0.507
315.500	234.975	80.006	19.994	103.229	19.773	6.268	0.534
316.000	235.199	80.006	19.994	103.225	19.771	6.439	0.525
316.500	235.487	80.005	19.994	103.230	19.773	6.322	0.499
317.000	235.735	80.006	19.994	103.230	19.773	6.320	0.524
317.500	235.970	80.006	19.994	103.229	19.772	6.383	0.509
318.000	236.198	80.005	19.993	103.231	19.772	6.391	0.473
318.500	236.445	80.006	19.994	103.230	19.771	6.424	0.469
319.000	236.680	80.004	19.994	103.226	19.773	6.306	0.478
319.500	236.943	80.004	19.995	103.226	19.770	6.472	0.490
320.000	237.177	80.005	19.994	103.229	19.769	6.552	0.497
320.500	237.432	80.003	19.994	103.228	19.770	6.510	0.493
321.000	237.694	80.005	19.995	103.232	19.770	6.487	0.503
321.500	237.934	80.004	19.994	103.235	19.773	6.286	0.509
322.000	238.212	80.005	19.993	103.239	19.771	6.437	0.510
322.500	238.487	80.002	19.994	103.242	19.769	6.560	0.535
323.000	238.747	80.003	19.994	103.242	19.771	6.448	0.544
323.500	238.946	80.003	19.995	103.239	19.766	6.776	0.497
324.000	239.175	80.003	19.995	103.235	19.768	6.644	0.444
324.500	239.436	80.004	19.995	103.233	19.767	6.715	0.459
325.000	239.681	80.002	19.995	103.233	19.767	6.676	0.498
325.500	239.938	80.003	19.995	103.233	19.765	6.834	0.504
326.000	240.188	80.001	19.995	103.235	19.766	6.786	0.504
326.500	240.456	80.003	19.995	103.239	19.766	6.784	0.512
327.000	240.704	80.002	19.993	103.237	19.769	6.588	0.517
327.500	240.951	80.002	19.996	103.238	19.768	6.633	0.506
328.000	241.201	80.002	19.995	103.239	19.769	6.545	0.496
328.500	241.467	80.004	19.995	103.237	19.766	6.797	0.506
329.000	241.704	80.002	19.994	103.234	19.767	6.685	0.509
329.500	241.944	80.002	19.994	103.233	19.766	6.778	0.490
330.000	242.257	80.002	19.994	103.230	19.762	7.047	0.515
330.500	242.468	80.002	19.996	103.228	19.764	6.931	0.539
331.000	242.729	80.002	19.994	103.229	19.762	7.049	0.498
331.500	242.956	80.003	19.995	103.228	19.762	7.071	0.480
332.000	243.222	80.003	19.994	103.229	19.763	7.004	0.490
332.500	243.474	80.002	19.994	103.230	19.759	7.295	0.506
333.000	243.732	80.003	19.995	103.229	19.758	7.347	0.514
333.500	243.954	80.003	19.995	103.228	19.758	7.362	0.495
334.000	244.209	80.002	19.995	103.228	19.758	7.324	0.478
334.500	244.472	80.003	19.995	103.228	19.755	7.505	0.498
335.000	244.782	80.003	19.994	103.226	19.755	7.503	0.546
335.500	245.001	80.003	19.994	103.228	19.754	7.613	0.551
336.000	245.226	80.003	19.994	103.231	19.756	7.464	0.486
336.500	245.471	80.004	19.994	103.233	19.754	7.623	0.457
337.000	245.718	80.002	19.995	103.238	19.753	7.686	0.481
337.500	245.937	80.002	19.994	103.238	19.755	7.552	0.480
338.000	246.218	80.003	19.994	103.238	19.755	7.552	0.483
338.500	246.496	80.003	19.995	103.235	19.754	7.634	0.529
339.000	246.710	80.004	19.994	103.235	19.752	7.715	0.525
339.500	246.981	80.003	19.994	103.232	19.750	7.862	0.488
340.000	247.222	80.003	19.994	103.231	19.750	7.914	0.499
340.500	247.490	80.004	19.994	103.233	19.751	7.806	0.511
341.000	247.740	80.002	19.995	103.232	19.747	8.067	0.514
341.500	248.008	80.003	19.994	103.230	19.749	7.951	0.518
342.000	248.266	80.002	19.994	103.230	19.749	7.919	0.522
342.500	248.518	80.004	19.994	103.232	19.748	8.041	0.518
343.001	248.752	80.003	19.994	103.229	19.749	7.966	0.498
343.500	249.026	80.003	19.993	103.230	19.746	8.169	0.497
344.000	249.254	80.003	19.994	103.231	19.744	8.294	0.505
344.500	249.523	80.004	19.994	103.230	19.745	8.212	0.500
345.000	249.752	80.005	19.994	103.228	19.746	8.143	0.498
345.500	250.021	80.002	19.994	103.226	19.740	8.574	0.498
346.000	250.284	80.004	19.994	103.225	19.742	8.443	0.515
346.500	250.482	80.003	19.994	103.226	19.738	8.723	0.496
347.000	250.775	80.005	19.994	103.226	19.740	8.550	0.476
347.500	251.004	80.003	19.994	103.227	19.741	8.524	0.506
348.000	251.242	80.002	19.994	103.227	19.740	8.559	0.495
348.500	251.512	80.003	19.994	103.227	19.741	8.528	0.488
349.000	251.774	80.003	19.994	103.228	19.739	8.633	0.520
349.500	251.956	80.003	19.995	103.231	19.739	8.672	0.488
350.000	252.247	80.003	19.994	103.234	19.738	8.719	0.459
350.500	252.503	80.003	19.995	103.237	19.738	8.709	0.510
351.000	252.759	80.004	19.995	103.238	19.734	9.013	0.529
351.500	253.044	80.003	19.994	103.237	19.737	8.770	0.526
352.000	253.249	80.004	19.995	103.235	19.733	9.055	0.516
352.500	253.490	80.003	19.995	103.234	19.732	9.096	0.468
353.000	253.738	80.004	19.994	103.230	19.731	9.203	0.468
353.500	253.970	80.003	19.994	103.230	19.730	9.275	0.485
354.000	254.194	80.003	19.994	103.231	19.728	9.396	0.468
354.500	254.474	80.002	19.995	103.229	19.728	9.431	0.479
355.000	254.718	80.004	19.994	103.228	19.727	9.465	0.514
355.500	254.980	80.003	19.996	103.229	19.728	9.410	0.515
356.000	255.215	80.003	19.995	103.230	19.728	9.377	0.502
356.500	255.494	80.002	19.996	103.228	19.725	9.640	0.506
357.000	255.750	80.003	19.995	103.231	19.723	9.722	0.525
357.500	255.960	80.003	19.994	103.230	19.724	9.681	0.501
358.000	256.227	80.003	19.995	103.231	19.723	9.752	0.471
358.500	256.456	80.003	19.995	103.232	19.722	9.814	0.487
359.001	256.723	80.003	19.996	103.235	19.719	10.047	0.496
359.500	256.917	80.002	19.995	103.238	19.718	10.112	0.478
360.000	257.183	80.003	19.995	103.243	19.718	10.084	0.460
360.500	257.441	80.003	19.996	103.247	19.718	10.116	0.492
361.000	257.686	80.002	19.995	103.246	19.717	10.177	0.514
361.500	257.923	80.002	19.996	103.244	19.715	10.308	0.493
362.000	258.197	80.002	19.995	103.239	19.712	10.512	0.496
362.500	258.451	80.004	19.995	103.235	19.713	10.465	0.519
363.000	258.674	80.004	19.995	103.232	19.711	10.585	0.502
363.500	258.967	80.001	19.995	103.233	19.710	10.652	0.497
364.000	259.176	80.004	19.995	103.238	19.708	10.817	0.509
364.500	259.412	80.003	19.995	103.245	19.705	10.964	0.473
365.000	259.683	80.004	19.995	103.247	19.707	10.851	0.476
365.500	259.915	80.002	19.995	103.247	19.705	10.980	0.505
366.000	260.147	80.003	19.995	103.248	19.703	11.135	0.483
366.500	260.387	80.003	19.995	103.242	19.701	11.254	0.468
367.000	260.645	80.004	19.995	103.239	19.701	11.284	0.485
367.500	260.902	80.004	19.995	103.240	19.697	11.540	0.507
368.000	261.129	80.005	19.995	103.242	19.698	11.478	0.499
368.500	261.362	80.005	19.994	103.243	19.697	11.558	0.472
369.000	261.647	80.004	19.996	103.248	19.697	11.577	0.489
369.500	261.829	80.005	19.996	103.252	19.691	11.969	0.493
370.000	262.137	80.005	19.996	103.251	19.693	11.842	0.478
370.500	262.406	80.004	19.995	103.250	19.691	11.980	0.533
371.000	262.603	80.004	19.995	103.250	19.690	12.008	0.522
371.500	262.879	80.004	19.996	103.249	19.691	11.980	0.470
372.000	263.075	80.006	19.994	103.248	19.686	12.323	0.472
372.500	263.357	80.004	19.995	103.250	19.685	12.376	0.474
373.000	263.616	80.005	19.996	103.252	19.684	12.419	0.510
373.500	263.828	80.005	19.996	103.253	19.682	12.589	0.506
374.000	264.110	80.005	19.995	103.253	19.682	12.559	0.482
374.500	264.319	80.006	19.996	103.252	19.681	12.641	0.492
375.000	264.579	80.004	19.995	103.251	19.680	12.710	0.480
375.500	264.827	80.005	19.995	103.248	19.678	12.893	0.488
376.000	265.073	80.006	19.995	103.247	19.676	13.011	0.501
376.500	265.362	80.005	19.995	103.250	19.675	13.050	0.514
377.000	265.553	80.006	19.995	103.253	19.673	13.177	0.507
377.500	265.815	80.004	19.995	103.253	19.672	13.292	0.467
378.000	266.101	80.005	19.996	103.255	19.672	13.307	0.501
378.500	266.320	80.005	19.995	103.256	19.668	13.557	0.526
379.000	266.551	80.003	19.995	103.255	19.671	13.342	0.477
379.500	266.802	80.003	19.995	103.256	19.665	13.794	0.466
380.000	267.024	80.004	19.995	103.257	19.666	13.707	0.477
380.500	267.302	80.004	19.996	103.258	19.663	13.922	0.487
381.000	267.554	80.004	19.995	103.258	19.663	13.900	0.515
381.500	267.814	80.004	19.995	103.258	19.658	14.239	0.521
382.000	268.005	80.003	19.994	103.258	19.654	14.506	0.482
382.500	268.251	80.003	19.996	103.257	19.654	14.549	0.444
383.000	268.544	80.004	19.995	103.258	19.655	14.482	0.487
383.500	268.752	80.003	19.996	103.258	19.651	14.710	0.520
384.000	269.042	80.004	19.996	103.260	19.647	14.982	0.500
384.500	269.285	80.004	19.996	103.260	19.646	15.103	0.516
385.000	269.546	80.004	19.996	103.261	19.646	15.043	0.519
385.500	269.764	80.003	19.996	103.263	19.646	15.087	0.492
386.000	270.005	80.003	19.995	103.264	19.644	15.188	0.469
386.500	270.256	80.004	19.995	103.264	19.640	15.506	0.475
387.000	270.533	80.004	19.995	103.267	19.640	15.476	0.510
387.500	270.785	80.003	19.996	103.267	19.640	15.497	0.529
388.000	271.051	80.004	19.995	103.264	19.638	15.597	0.524
388.500	271.269	80.003	19.995	103.264	19.635	15.845	0.501
389.000	271.531	80.004	19.995	103.264	19.630	16.159	0.482
389.500	271.809	80.004	19.995	103.261	19.629	16.234	0.510
390.000	272.051	80.004	19.995	103.262	19.628	16.357	0.530
390.500	272.284	80.005	19.995	103.264	19.627	16.406	0.497
391.000	272.518	80.004	19.996	103.267	19.624	16.593	0.471
391.500	272.778	80.003	19.995	103.269	19.623	16.697	0.480
392.000	273.020	80.004	19.995	103.274	19.622	16.769	0.498
392.500	273.278	80.006	19.996	103.274	19.618	16.982	0.501
393.000	273.495	80.004	19.995	103.274	19.620	16.889	0.487
393.500	273.733	80.005	19.996	103.276	19.616	17.144	0.465
394.000	273.961	80.005	19.996	103.277	19.613	17.369	0.460
394.500	274.213	80.004	19.996	103.275	19.615	17.201	0.473
395.000	274.480	80.005	19.997	103.275	19.614	17.324	0.499
395.500	274.723	80.005	19.996	103.274	19.607	17.792	0.514
396.000	274.958	80.005	19.996	103.271	19.605	17.895	0.494
396.500	275.231	80.005	19.995	103.268	19.603	18.073	0.493
397.000	275.426	80.005	19.995	103.268	19.604	17.992	0.488
397.500	275.705	80.006	19.994	103.271	19.600	18.255	0.472
398.000	275.916	80.005	19.996	103.274	19.597	18.464	0.482
398.500	276.204	80.006	19.995	103.277	19.594	18.667	0.494
399.000	276.456	80.007	19.995	103.281	19.593	18.777	0.519
399.500	276.708	80.006	19.995	103.286	19.590	18.925	0.522
400.000	276.930	80.005	19.995	103.287	19.589	18.990	0.489
400.500	277.199	80.005	19.995	103.288	19.587	19.154	0.482
401.000	277.461	80.005	19.995	103.290	19.584	19.347	0.511
401.500	277.687	80.006	19.995	103.288	19.582	19.509	0.510
402.000	277.946	80.006	19.994	103.283	19.581	19.543	0.487
402.500	278.203	80.004	19.995	103.281	19.577	19.867	0.501
403.000	278.445	80.005	19.994	103.284	19.574	20.052	0.507
403.500	278.632	80.005	19.995	103.286	19.571	20.255	0.464
404.000	278.907	80.005	19.994	103.289	19.569	20.391	0.446
404.500	279.157	80.006	19.994	103.295	19.568	20.473	0.494
405.000	279.406	80.004	19.995	103.294	19.566	20.623	0.512
405.500	279.621	80.004	19.995	103.290	19.565	20.699	0.481
406.000	279.898	80.005	19.995	103.290	19.559	21.110	0.478
406.500	280.159	80.002	19.995	103.289	19.556	21.311	0.516
407.000	280.455	80.004	19.994	103.290	19.555	21.389	0.548
407.500	280.665	80.003	19.994	103.295	19.554	21.412	0.531
408.000	280.877	80.002	19.994	103.299	19.550	21.735	0.464
408.500	281.177	80.003	19.993	103.301	19.548	21.841	0.467
409.000	281.440	80.003	19.994	103.301	19.546	22.018	0.537
409.500	281.630	80.002	19.994	103.301	19.544	22.149	0.508
410.000	281.913	80.005	19.994	103.301	19.544	22.116	0.463
410.500	282.144	80.003	19.995	103.301	19.539	22.490	0.494
411.000	282.395	80.003	19.995	103.301	19.536	22.673	0.498
411.500	282.595	80.003	19.995	103.301	19.535	22.760	0.467
412.000	282.898	80.003	19.996	103.301	19.530	23.100	0.477
412.500	283.145	80.004	19.995	103.302	19.530	23.096	0.526
413.000	283.415	80.004	19.996	103.301	19.525	23.445	0.533
413.500	283.619	80.004	19.995	103.301	19.525	23.422	0.496
414.000	283.903	80.003	19.995	103.300	19.521	23.697	0.481
414.500	284.161	80.003	19.995	103.301	19.520	23.795	0.515
415.000	284.359	80.004	19.995	103.300	19.518	23.903	0.499
415.500	284.636	80.003	19.995	103.300	19.515	24.111	0.465
416.000	284.877	80.003	19.994	103.300	19.509	24.532	0.496
416.500	285.152	80.004	19.996	103.300	19.511	24.407	0.517
417.000	285.371	80.004	19.995	103.300	19.509	24.589	0.505
417.500	285.596	80.003	19.996	103.299	19.507	24.731	0.469
418.000	285.877	80.004	19.995	103.299	19.507	24.732	0.475
418.500	286.125	80.004	19.995	103.299	19.501	25.095	0.517
419.000	286.366	80.003	19.996	103.299	19.500	25.215	0.509
419.500	286.659	80.004	19.995	103.299	19.497	25.378	0.512
420.000	286.875	80.003	19.996	103.298	19.494	25.602	0.522
420.500	287.126	80.004	19.994	103.300	19.491	25.784	0.488
421.000	287.371	80.003	19.995	103.303	19.490	25.900	0.482
421.500	287.624	80.004	19.995	103.305	19.483	26.382	0.497
422.000	287.847	80.004	19.996	103.309	19.483	26.395	0.487
422.500	288.098	80.004	19.995	103.311	19.482	26.426	0.475
423.000	288.371	80.004	19.995	103.313	19.480	26.572	0.499
423.500	288.597	80.003	19.995	103.312	19.477	26.754	0.511
424.000	288.883	80.003	19.994	103.311	19.475	26.907	0.505
424.500	289.128	80.003	19.995	103.308	19.470	27.241	0.522
425.000	289.335	80.004	19.995	103.312	19.469	27.324	0.492
425.500	289.610	80.003	19.995	103.309	19.468	27.427	0.467
426.000	289.823	80.005	19.996	103.308	19.465	27.602	0.485
426.500	290.095	80.004	19.994	103.311	19.462	27.833	0.487
427.000	290.334	80.004	19.995	103.315	19.459	28.017	0.498
427.500	290.617	80.004	19.995	103.316	19.459	28.046	0.516
428.000	290.881	80.004	19.995	103.319	19.458	28.125	0.535
428.500	291.094	80.005	19.995	103.322	19.456	28.215	0.512
429.000	291.378	80.004	19.994	103.324	19.454	28.403	0.487
429.500	291.621	80.005	19.995	103.322	19.450	28.642	0.512
430.000	291.851	80.004	19.995	103.323	19.449	28.720	0.500
430.500	292.135	80.004	19.994	103.325	19.445	29.014	0.493
431.000	292.397	80.004	19.995	103.326	19.443	29.158	0.530
431.500	292.606	80.004	19.995	103.322	19.440	29.352	0.509
432.000	292.875	80.004	19.995	103.326	19.440	29.345	0.475
432.500	293.092	80.004	19.995	103.326	19.436	29.593	0.482
433.000	293.366	80.002	19.995	103.325	19.435	29.712	0.488
433.500	293.595	80.004	19.995	103.328	19.433	29.812	0.497
434.000	293.843	80.003	19.995	103.333	19.432	29.862	0.490
434.500	294.109	80.005	19.995	103.334	19.428	30.162	0.496
435.000	294.353	80.004	19.994	103.335	19.428	30.140	0.512
435.500	294.604	80.003	19.994	103.335	19.423	30.487	0.502
436.000	294.816	80.004	19.994	103.330	19.420	30.745	0.479
436.500	295.111	80.004	19.994	103.326	19.419	30.806	0.485
437.000	295.357	80.005	19.994	103.324	19.419	30.824	0.524
437.500	295.603	80.004	19.995	103.323	19.416	30.973	0.517
438.000	295.846	80.003	19.994	103.325	19.413	31.186	0.491
438.500	296.093	80.003	19.995	103.330	19.410	31.390	0.490
439.000	296.362	80.004	19.994	103.332	19.411	31.371	0.503
439.500	296.613	80.004	19.994	103.332	19.407	31.630	0.518
440.000	296.867	80.002	19.994	103.331	19.407	31.651	0.512
440.500	297.078	80.005	19.994	103.331	19.403	31.915	0.485
441.000	297.344	80.004	19.995	103.331	19.398	32.257	0.471
441.500	297.602	80.003	19.995	103.333	19.401	32.009	0.501
442.000	297.874	80.004	19.996	103.333	19.399	32.173	0.527
442.500	298.116	80.004	19.995	103.336	19.396	32.354	0.522
443.000	298.352	80.003	19.995	103.335	19.396	32.366	0.496
443.500	298.622	80.004	19.994	103.335	19.396	32.414	0.492
444.000	298.924	80.003	19.994	103.335	19.391	32.758	0.539
444.500	299.122	80.004	19.994	103.336	19.387	33.034	0.536
445.000	299.387	80.004	19.995	103.334	19.385	33.170	0.482
445.500	299.625	80.004	19.993	103.335	19.387	33.040	0.483
446.000	299.891	80.005	19.994	103.336	19.385	33.167	0.503
446.500	300.132	80.005	19.996	103.336	19.383	33.292	0.506
447.000	300.358	80.004	19.995	103.337	19.379	33.559	0.487
447.500	300.588	80.004	19.994	103.339	19.379	33.548	0.461
448.000	300.885	80.004	19.994	103.338	19.376	33.742	0.492
448.500	301.135	80.005	19.995	103.338	19.374	33.923	0.537
449.000	301.414	80.004	19.995	103.338	19.374	33.908	0.537
449.500	301.625	80.004	19.994	103.338	19.373	34.003	0.509
450.000	301.876	80.005	19.995	103.338	19.372	34.040	0.476
450.500	302.131	80.005	19.994	103.338	19.370	34.197	0.484
451.000	302.380	80.004	19.994	103.337	19.367	34.367	0.505
451.500	302.642	80.006	19.995	103.336	19.366	34.468	0.507
452.000	302.872	80.004	19.994	103.336	19.365	34.529	0.501
452.500	303.110	80.006	19.995	103.336	19.365	34.535	0.480
453.000	303.391	80.005	19.995	103.337	19.363	34.692	0.493
453.500	303.589	80.004	19.996	103.337	19.363	34.696	0.499
454.000	303.851	80.005	19.995	103.337	19.361	34.831	0.470
454.500	304.129	80.004	19.995	103.338	19.360	34.872	0.501
455.000	304.346	80.004	19.995	103.338	19.363	34.699	0.518
455.500	304.585	80.005	19.995	103.338	19.355	35.197	0.475
456.000	304.857	80.005	19.995	103.338	19.358	34.999	0.484
456.500	305.062	80.005	19.994	103.339	19.354	35.261	0.494
457.000	305.345	80.004	19.995	103.339	19.354	35.282	0.483
457.500	305.626	80.004	19.995	103.339	19.351	35.510	0.526
458.000	305.851	80.004	19.995	103.339	19.351	35.514	0.535
458.500	306.070	80.004	19.995	103.339	19.349	35.643	0.475
459.000	306.328	80.004	19.995	103.339	19.349	35.634	0.460
459.500	306.584	80.004	19.995	103.338	19.347	35.761	0.496
460.000	306.831	80.004	19.995	103.338	19.347	35.762	0.508
460.500	307.116	80.004	19.996	103.338	19.347	35.747	0.517
461.000	307.365	80.005	19.994	103.337	19.343	36.027	0.533
461.500	307.563	80.005	19.995	103.338	19.344	35.963	0.491
462.000	307.823	80.006	19.996	103.338	19.342	36.115	0.452
462.500	308.076	80.005	19.995	103.338	19.340	36.283	0.485
463.000	308.341	80.004	19.996	103.338	19.337	36.453	0.515
463.500	308.591	80.004	19.995	103.339	19.337	36.462	0.516
464.000	308.811	80.004	19.996	103.339	19.333	36.736	0.492
464.500	309.053	80.005	19.995	103.339	19.333	36.764	0.466
465.000	309.329	80.004	19.995	103.340	19.331	36.872	0.490
465.500	309.562	80.004	19.995	103.341	19.330	36.979	0.513
466.000	309.817	80.004	19.995	103.343	19.329	37.039	0.499
466.500	310.043	80.005	19.994	103.343	19.328	37.121	0.485
467.000	310.314	80.003	19.994	103.342	19.327	37.154	0.489
467.500	310.557	80.003	19.994	103.342	19.326	37.199	0.505
468.000	310.842	80.004	19.996	103.340	19.323	37.400	0.521
468.500	311.074	80.004	19.994	103.339	19.327	37.187	0.522
469.000	311.327	80.004	19.995	103.340	19.324	37.384	0.501
469.500	311.561	80.003	19.995	103.342	19.323	37.407	0.486
470.000	311.848	80.005	19.995	103.343	19.321	37.560	0.504
470.500	312.109	80.006	19.996	103.346	19.321	37.566	0.535
471.000	312.348	80.004	19.995	103.346	19.320	37.627	0.524
471.500	312.612	80.005	19.995	103.345	19.318	37.769	0.501
472.000	312.854	80.005	19.995	103.344	19.317	37.849	0.504
472.500	313.081	80.004	19.996	103.342	19.314	38.054	0.488
473.000	313.356	80.005	19.995	103.341	19.313	38.129	0.486
473.500	313.599	80.005	19.995	103.341	19.315	37.995	0.510
474.000	313.856	80.006	19.994	103.341	19.314	38.084	0.508
474.500	314.127	80.005	19.995	103.341	19.313	38.132	0.513
475.000	314.373	80.006	19.996	103.340	19.312	38.163	0.523
475.500	314.641	80.006	19.996	103.339	19.314	38.048	0.516
476.000	314.854	80.006	19.995	103.338	19.309	38.431	0.498
476.501	315.079	80.006	19.996	103.339	19.309	38.412	0.460
477.000	315.329	80.007	19.994	103.339	19.308	38.505	0.457
477.500	315.571	80.006	19.996	103.339	19.305	38.686	0.483
478.000	315.833	80.005	19.994	103.339	19.304	38.749	0.498
478.500	316.056	80.006	19.995	103.339	19.303	38.819	0.495
479.000	316.290	80.006	19.995	103.337	19.301	38.955	0.471
479.500	316.554	80.007	19.995	103.336	19.296	39.275	0.477
480.000	316.806	80.006	19.996	103.335	19.299	39.106	0.507
480.500	317.053	80.007	19.995	103.335	19.297	39.239	0.508
481.000	317.306	80.006	19.995	103.336	19.297	39.264	0.500
481.500	317.543	80.006	19.996	103.337	19.297	39.239	0.495
482.000	317.799	80.005	19.996	103.341	19.296	39.286	0.491
482.500	318.022	80.003	19.996	103.346	19.294	39.450	0.486
483.000	318.297	80.005	19.996	103.351	19.294	39.453	0.489
483.500	318.525	80.005	19.996	103.354	19.290	39.731	0.501
484.000	318.814	80.006	19.995	103.354	19.291	39.678	0.510
484.500	319.043	80.005	19.996	103.350	19.289	39.805	0.517
485.000	319.303	80.004	19.997	103.346	19.286	40.031	0.503
485.500	319.544	80.005	19.995	103.344	19.286	39.969	0.495
486.000	319.798	80.004	19.996	103.342	19.285	40.092	0.498
486.500	320.025	80.002	19.995	103.343	19.280	40.435	0.488
487.000	320.279	80.003	19.996	103.343	19.279	40.500	0.482
487.500	320.493	80.003	19.995	103.342	19.275	40.763	0.475
488.000	320.794	80.001	19.995	103.342	19.276	40.709	0.491
488.500	321.041	80.003	19.996	103.342	19.276	40.718	0.531
489.000	321.274	80.003	19.996	103.341	19.277	40.651	0.514
489.500	321.528	80.004	19.996	103.344	19.274	40.832	0.483
490.000	321.761	80.002	19.996	103.347	19.270	41.088	0.487
490.500	322.036	80.004	19.996	103.348	19.270	41.136	0.498
491.000	322.277	80.002	19.996	103.346	19.267	41.346	0.512
491.500	322.521	80.004	19.995	103.347	19.269	41.191	0.500
492.000	322.762	80.003	19.996	103.349	19.264	41.553	0.485
492.500	322.992	80.004	19.995	103.348	19.264	41.557	0.478
493.000	323.222	80.004	19.995	103.345	19.260	41.801	0.466
493.500	323.481	80.003	19.995	103.348	19.260	41.775	0.474
494.000	323.763	80.003	19.995	103.355	19.257	42.029	0.515
494.500	323.988	80.004	19.995	103.355	19.256	42.104	0.524
495.000	324.245	80.004	19.997	103.358	19.255	42.128	0.495
495.500	324.527	80.004	19.994	103.362	19.252	42.382	0.510
496.000	324.760	80.003	19.995	103.363	19.248	42.658	0.527
496.500	324.979	80.003	19.995	103.362	19.247	42.720	0.483
497.000	325.265	80.004	19.993	103.363	19.244	42.922	0.478
497.500	325.481	80.003	19.995	103.365	19.243	43.014	0.504
498.000	325.758	80.004	19.995	103.369	19.238	43.354	0.498
498.500	325.996	80.003	19.995	103.373	19.237	43.390	0.504
499.000	326.250	80.003	19.995	103.373	19.236	43.455	0.503
499.500	326.494	80.004	19.994	103.373	19.232	43.721	0.495
500.000	326.760	80.003	19.994	103.374	19.232	43.718	0.504
500.500	326.957	80.004	19.995	103.373	19.232	43.770	0.487
501.000	327.203	80.003	19.996	103.373	19.229	43.939	0.453
501.500	327.480	80.006	19.995	103.373	19.224	44.269	0.483
502.000	327.738	80.004	19.995	103.374	19.220	44.565	0.529
502.500	327.968	80.006	19.996	103.374	19.219	44.648	0.512
503.000	328.223	80.005	19.995	103.374	19.217	44.809	0.487
503.500	328.464	80.005	19.994	103.374	19.216	44.892	0.491
504.000	328.735	80.004	19.996	103.374	19.211	45.225	0.504
504.500	328.980	80.005	19.995	103.374	19.211	45.237	0.514
505.000	329.260	80.004	19.995	103.374	19.206	45.573	0.521
505.500	329.511	80.005	19.995	103.373	19.205	45.658	0.528
506.000	329.707	80.005	19.995	103.374	19.202	45.856	0.489
506.500	330.001	80.005	19.995	103.374	19.202	45.860	0.468
507.001	330.240	80.006	19.994	103.374	19.199	46.011	0.511
507.500	330.468	80.006	19.994	103.374	19.195	46.335	0.500
508.000	330.723	80.004	19.995	103.374	19.190	46.661	0.475
508.500	330.967	80.006	19.995	103.377	19.189	46.759	0.491
509.000	331.216	80.005	19.995	103.381	19.181	47.259	0.496
509.500	331.450	80.006	19.994	103.381	19.184	47.093	0.488
510.000	331.705	80.006	19.995	103.381	19.180	47.348	0.486
510.500	331.952	80.004	19.995	103.382	19.178	47.473	0.495
511.000	332.224	80.004	19.995	103.379	19.176	47.614	0.510
511.500	332.412	80.004	19.994	103.376	19.169	48.107	0.490
512.000	332.696	80.004	19.995	103.376	19.168	48.163	0.466
512.500	332.951	80.005	19.995	103.377	19.164	48.454	0.505
513.000	333.194	80.003	19.995	103.378	19.161	48.658	0.518
513.500	333.480	80.003	19.994	103.384	19.160	48.766	0.513
514.000	333.730	80.004	19.996	103.389	19.157	48.970	0.533
514.500	333.974	80.004	19.996	103.392	19.153	49.265	0.515
515.000	334.210	80.003	19.994	103.397	19.150	49.409	0.487
515.500	334.473	80.004	19.996	103.399	19.146	49.723	0.489
516.000	334.722	80.003	19.994	103.399	19.141	50.082	0.505
516.500	334.957	80.004	19.995	103.401	19.139	50.210	0.498
517.000	335.230	80.003	19.994	103.405	19.139	50.175	0.497
517.500	335.477	80.002	19.995	103.405	19.133	50.618	0.514
518.000	335.717	80.002	19.995	103.408	19.128	50.982	0.503
518.500	335.952	80.003	19.995	103.407	19.123	51.305	0.481
519.000	336.192	80.002	19.996	103.404	19.124	51.234	0.475
519.500	336.449	80.003	19.994	103.402	19.118	51.646	0.486
520.000	336.663	80.002	19.995	103.405	19.112	52.094	0.484
520.500	336.940	80.003	19.996	103.405	19.109	52.259	0.481
521.000	337.213	80.003	19.994	103.403	19.106	52.498	0.521
521.500	337.447	80.002	19.996	103.404	19.100	52.895	0.528
522.000	337.679	80.002	19.994	103.406	19.100	52.881	0.487
522.500	337.925	80.002	19.995	103.406	19.091	53.544	0.472
523.000	338.177	80.003	19.996	103.408	19.089	53.689	0.488
523.500	338.446	80.005	19.995	103.413	19.086	53.858	0.509
524.000	338.680	80.003	19.996	103.416	19.080	54.289	0.512
524.500	338.956	80.003	19.994	103.417	19.078	54.457	0.507
525.000	339.190	80.003	19.995	103.418	19.073	54.804	0.510
525.500	339.430	80.003	19.994	103.417	19.072	54.829	0.492
526.000	339.625	80.004	19.995	103.418	19.067	55.220	0.455
526.500	339.925	80.003	19.994	103.418	19.067	55.220	0.465
527.000	340.149	80.004	19.995	103.418	19.061	55.600	0.509
527.500	340.396	80.005	19.993	103.417	19.056	55.938	0.497
528.000	340.663	80.003	19.995	103.417	19.051	56.325	0.492
528.500	340.900	80.002	19.994	103.418	19.045	56.755	0.509
529.000	341.150	80.004	19.996	103.418	19.046	56.645	0.496
529.501	341.397	80.005	19.995	103.421	19.039	57.153	0.492
530.000	341.618	80.003	19.996	103.429	19.034	57.497	0.483
530.500	341.898	80.004	19.994	103.435	19.031	57.702	0.485
531.000	342.123	80.005	19.994	103.438	19.026	58.033	0.503
531.500	342.372	80.004	19.993	103.439	19.021	58.427	0.489
532.000	342.636	80.003	19.995	103.437	19.017	58.648	0.493
532.500	342.862	80.004	19.994	103.433	19.013	58.926	0.501
533.000	343.098	80.005	19.994	103.431	19.011	59.082	0.476
533.500	343.356	80.004	19.995	103.433	19.000	59.823	0.478
534.000	343.591	80.005	19.994	103.438	18.999	59.955	0.494
534.500	343.802	80.004	19.994	103.445	18.994	60.302	0.469
535.000	344.037	80.004	19.995	103.450	18.987	60.742	0.446
535.500	344.315	80.005	19.994	103.454	18.982	61.082	0.479
536.000	344.557	80.005	19.994	103.457	18.980	61.250	0.516
536.500	344.825	80.005	19.994	103.458	18.976	61.527	0.515
537.000	345.078	80.005	19.993	103.458	18.971	61.845	0.516
537.500	345.301	80.004	19.994	103.459	18.966	62.190	0.499
538.000	345.553	80.004	19.995	103.459	18.961	62.535	0.475
538.501	345.797	80.005	19.994	103.459	18.958	62.809	0.485
539.000	346.009	80.005	19.994	103.459	18.955	62.993	0.476
539.500	346.298	80.004	19.995	103.460	18.947	63.568	0.478
540.000	346.541	80.004	19.994	103.461	18.945	63.660	0.517
540.500	346.766	80.004	19.995	103.463	18.941	63.965	0.500
541.000	347.003	80.005	19.996	103.464	18.937	64.262	0.465
541.500	347.250	80.005	19.995	103.465	18.932	64.604	0.473
542.000	347.540	80.004	19.994	103.466	18.927	64.929	0.511
542.500	347.767	80.005	19.996	103.468	18.919	65.452	0.527
543.000	347.990	80.004	19.996	103.466	18.917	65.626	0.484
543.500	348.244	80.005	19.995	103.468	18.908	66.240	0.464
544.000	348.516	80.004	19.995	103.469	18.903	66.567	0.502
544.500	348.722	80.004	19.995	103.467	18.901	66.744	0.502
545.000	348.972	80.004	19.995	103.464	18.895	67.115	0.467
545.500	349.230	80.004	19.996	103.466	18.890	67.526	0.482
546.000	349.516	80.005	19.993	103.471	18.885	67.836	0.526
546.500	349.764	80.003	19.996	103.473	18.885	67.853	0.539
547.000	349.976	80.003	19.996	103.479	18.877	68.383	0.497
547.500	350.219	80.005	19.994	103.484	18.873	68.708	0.458
548.000	350.495	80.003	19.995	103.483	18.869	68.991	0.487
548.500	350.732	80.003	19.996	103.481	18.862	69.436	0.516
549.000	350.955	80.004	19.996	103.483	18.861	69.483	0.486
549.500	351.222	80.004	19.995	103.485	18.856	69.876	0.475
550.000	351.503	80.004	19.996	103.487	18.850	70.304	0.519
550.500	351.692	80.004	19.995	103.491	18.845	70.617	0.509
551.000	351.977	80.003	19.996	103.493	18.844	70.691	0.472
551.500	352.261	80.004	19.996	103.492	18.841	70.878	0.521
552.000	352.500	80.004	19.995	103.492	18.835	71.294	0.546
552.501	352.720	80.004	19.996	103.492	18.829	71.717	0.491
553.000	353.026	80.005	19.995	103.492	18.828	71.783	0.492
553.500	353.242	80.005	19.995	103.492	18.824	72.097	0.524
554.000	353.575	80.005	19.995	103.492	18.820	72.318	0.535
554.500	353.748	80.006	19.995	103.492	18.811	72.992	0.528
555.000	354.043	80.006	19.996	103.492	18.806	73.317	0.487
555.500	354.278	80.006	19.995	103.492	18.805	73.403	0.499
556.000	354.536	80.005	19.994	103.493	18.802	73.585	0.512
556.500	354.769	80.006	19.996	103.493	18.798	73.860	0.492
557.000	355.025	80.007	19.995	103.495	18.790	74.409	0.490
557.500	355.244	80.006	19.996	103.501	18.790	74.407	0.482
558.000	355.531	80.007	19.995	103.508	18.789	74.528	0.491
558.500	355.776	80.007	19.994	103.513	18.784	74.849	0.519
559.000	355.988	80.006	19.995	103.516	18.773	75.582	0.494
559.500	356.248	80.005	19.996	103.519	18.777	75.320	0.464
560.000	356.551	80.006	19.994	103.513	18.773	75.631	0.518
560.500	356.749	80.006	19.994	103.507	18.770	75.829	0.532
561.000	357.033	80.007	19.994	103.501	18.767	75.999	0.492
561.501	357.298	80.007	19.995	103.498	18.770	75.816	0.516
562.001	357.485	80.006	19.995	103.495	18.766	76.050	0.501
562.500	357.723	80.006	19.995	103.498	18.758	76.612	0.438
563.000	358.029	80.007	19.994	103.499	18.755	76.852	0.485
563.500	358.333	80.007	19.995	103.502	18.747	77.390	0.577
564.000	358.500	80.008	19.994	103.501	18.744	77.634	0.540
564.500	358.801	80.006	19.996	103.501	18.752	77.038	0.469
565.000	359.058	80.006	19.995	103.498	18.752	77.066	0.512
565.500	359.284	80.007	19.993	103.497	18.740	77.865	0.521
566.000	359.568	80.006	19.996	103.494	18.746	77.435	0.497
566.500	359.755	80.006	19.994	103.495	18.739	77.942	0.491
567.000	360.012	80.005	19.993	103.496	18.739	77.953	0.458
567.500	360.327	80.006	19.994	103.498	18.741	77.800	0.508
568.000	360.590	80.004	19.995	103.497	18.736	78.176	0.575
568.500	360.845	80.005	19.996	103.496	18.731	78.492	0.548
569.000	360.983	80.003	19.995	103.496	18.734	78.251	0.455
569.500	361.374	80.003	19.994	103.495	18.734	78.307	0.461
570.000	361.575	80.004	19.995	103.493	18.733	78.331	0.561
570.500	361.841	80.002	19.995	103.493	18.729	78.602	0.530
571.000	362.053	80.003	19.995	103.494	18.733	78.316	0.472
571.500	362.274	80.003	19.995	103.493	18.732	78.420	0.455
572.000	362.647	80.003	19.995	103.493	18.730	78.520	0.513
572.500	362.973	80.004	19.994	103.492	18.730	78.537	0.646
573.000	363.107	80.003	19.994	103.492	18.732	78.435	0.580
573.500	363.367	80.003	19.997	103.491	18.735	78.211	0.427
574.000	363.499	80.003	19.996	103.491	18.728	78.658	0.393
574.500	363.838	80.002	19.995	103.491	18.731	78.460	0.432
575.000	364.320	80.003	19.996	103.492	18.737	78.066	0.646
575.500	364.542	80.004	19.995	103.490	18.736	78.111	0.762
576.000	365.064	80.003	19.995	103.487	18.733	78.334	0.724
576.500	365.155	80.002	19.996	103.484	18.733	78.287	0.679
577.000	365.287	80.003	19.995	103.484	18.740	77.808	0.418
577.500	365.489	80.004	19.995	103.482	18.741	77.772	0.278
578.000	365.475	80.002	19.997	103.479	18.742	77.713	0.261
578.500	365.862	80.002	19.996	103.477	18.747	77.311	0.280
579.000	366.527	80.002	19.996	103.472	18.749	77.222	0.713
579.500	366.386	80.003	19.996	103.465	18.750	77.142	0.788
580.000	366.920	80.003	19.995	103.460	18.755	76.757	0.458
580.500	366.886	80.002	19.996	103.457	18.757	76.627	0.446
581.000	367.214	80.003	19.997	103.455	18.761	76.379	0.397
581.500	367.572	80.002	19.996	103.455	18.766	76.015	0.490
582.000	367.791	80.004	19.996	103.455	18.767	75.929	0.631
582.500	367.947	80.004	19.996	103.453	18.775	75.375	0.476
583.000	368.329	80.003	19.995	103.453	18.779	75.089	0.457
583.500	368.474	80.002	19.996	103.451	18.779	75.064	0.532
584.000	368.796	80.003	19.995	103.449	18.788	74.476	0.496
584.500	369.060	80.004	19.995	103.444	18.790	74.346	0.527
585.000	369.308	80.004	19.996	103.443	18.797	73.820	0.550
585.500	369.590	80.004	19.995	103.437	18.802	73.460	0.521
586.000	369.863	80.003	19.995	103.435	18.806	73.164	0.542
586.500	370.061	80.004	19.995	103.433	18.812	72.752	0.512
587.000	370.376	80.004	19.996	103.431	18.821	72.133	0.492
587.500	370.615	80.004	19.995	103.426	18.829	71.621	0.534
588.000	370.849	80.004	19.995	103.423	18.835	71.154	0.514
588.500	371.066	80.003	19.994	103.417	18.842	70.714	0.462
589.000	371.422	80.003	19.996	103.406	18.849	70.170	0.512
589.500	371.631	80.005	19.995	103.402	18.852	69.970	0.569
590.000	371.841	80.003	19.995	103.398	18.862	69.316	0.492
590.500	372.103	80.005	19.994	103.394	18.871	68.683	0.446
591.000	372.423	80.002	19.994	103.388	18.876	68.307	0.527
591.500	372.709	80.004	19.994	103.388	18.885	67.717	0.594
592.000	372.922	80.004	19.994	103.382	18.898	66.770	0.552
592.500	373.209	80.004	19.994	103.375	18.908	66.126	0.499
593.000	373.470	80.004	19.994	103.368	18.917	65.463	0.524
593.500	373.755	80.003	19.995	103.360	18.926	64.876	0.547
594.000	374.007	80.003	19.994	103.353	18.933	64.379	0.541
594.500	374.247	80.005	19.994	103.346	18.945	63.516	0.514
595.000	374.493	80.002	19.995	103.341	18.955	62.876	0.489
595.500	374.760	80.005	19.995	103.339	18.968	61.950	0.500
596.000	374.999	80.004	19.995	103.338	18.975	61.461	0.510
596.500	375.276	80.003	19.995	103.335	18.987	60.627	0.511
597.000	375.565	80.003	19.995	103.330	18.997	59.954	0.541
597.500	375.746	80.003	19.995	103.324	19.009	59.121	0.518
598.000	376.055	80.003	19.994	103.316	19.021	58.239	0.480
598.500	376.315	80.004	19.995	103.310	19.034	57.382	0.530
599.000	376.600	80.004	19.995	103.304	19.047	56.479	0.557
599.500	376.801	80.004	19.995	103.301	19.058	55.709	0.515
600.000	377.094	80.002	19.997	103.301	19.069	54.900	0.490
600.500	377.314	80.002	19.993	103.300	19.081	54.115	0.504
601.000	377.607	80.002	19.995	103.293	19.092	53.318	0.513
601.500	377.856	80.003	19.996	103.287	19.107	52.320	0.527
602.000	378.130	80.004	19.994	103.280	19.120	51.405	0.532
602.500	378.356	80.002	19.995	103.273	19.132	50.562	0.511
603.000	378.626	80.003	19.994	103.266	19.145	49.669	0.498
603.500	378.850	80.001	19.996	103.264	19.160	48.627	0.495
604.000	379.133	80.003	19.995	103.263	19.172	47.818	0.501
604.500	379.369	80.003	19.995	103.262	19.182	47.094	0.513
605.000	379.634	80.002	19.995	103.260	19.200	45.862	0.510
605.500	379.890	80.003	19.995	103.257	19.207	45.357	0.511
606.001	380.180	80.002	19.995	103.254	19.221	44.402	0.534
606.500	380.404	80.003	19.995	103.247	19.235	43.428	0.530
607.000	380.684	80.001	19.995	103.239	19.247	42.593	0.509
607.500	380.897	80.004	19.996	103.233	19.260	41.751	0.499
608.001	381.214	80.002	19.995	103.227	19.271	40.979	0.512
608.500	381.465	80.003	19.996	103.222	19.285	40.001	0.549
609.000	381.664	80.004	19.994	103.219	19.297	39.172	0.509
609.500	381.922	80.003	19.996	103.216	19.314	37.972	0.454
610.000	382.245	80.003	19.995	103.212	19.325	37.200	0.519
610.500	382.459	80.004	19.995	103.208	19.333	36.656	0.559
611.000	382.689	80.004	19.993	103.200	19.347	35.727	0.491
611.500	382.971	80.004	19.995	103.194	19.359	34.863	0.478
612.000	383.223	80.004	19.996	103.188	19.371	34.024	0.522
612.500	383.484	80.004	19.995	103.186	19.386	33.036	0.523
613.000	383.765	80.004	19.995	103.182	19.395	32.373	0.528
613.500	384.016	80.005	19.995	103.181	19.407	31.586	0.537
614.000	384.257	80.005	19.994	103.182	19.418	30.788	0.512
614.500	384.539	80.005	19.994	103.181	19.432	29.861	0.508
615.000	384.755	80.006	19.994	103.180	19.447	28.810	0.511
615.500	385.015	80.005	19.995	103.179	19.453	28.372	0.487
616.000	385.294	80.005	19.995	103.179	19.464	27.638	0.507
616.500	385.508	80.004	19.994	103.179	19.474	26.952	0.516
617.000	385.776	80.006	19.996	103.177	19.483	26.292	0.487
617.500	386.063	80.006	19.995	103.176	19.496	25.410	0.518
618.000	386.314	80.005	19.996	103.173	19.506	24.748	0.546
618.500	386.530	80.005	19.996	103.171	19.518	23.931	0.503
619.000	386.810	80.007	19.994	103.170	19.528	23.221	0.482
619.500	387.050	80.004	19.994	103.171	19.536	22.668	0.508
620.000	387.318	80.006	19.994	103.166	19.546	21.981	0.514
620.500	387.556	80.006	19.994	103.167	19.551	21.606	0.507
621.000	387.825	80.006	19.994	103.166	19.561	20.911	0.506
621.500	388.090	80.005	19.994	103.162	19.569	20.403	0.520
622.000	388.325	80.005	19.996	103.162	19.577	19.814	0.517
622.500	388.600	80.006	19.995	103.166	19.584	19.306	0.505
623.000	388.859	80.007	19.994	103.166	19.590	18.902	0.522
623.500	389.062	80.006	19.996	103.168	19.596	18.479	0.498
624.000	389.357	80.006	19.995	103.169	19.606	17.826	0.480
624.500	389.593	80.004	19.994	103.170	19.613	17.303	0.515
625.000	389.863	80.005	19.995	103.169	19.621	16.815	0.518
625.500	390.083	80.006	19.994	103.170	19.626	16.424	0.498
626.000	390.360	80.004	19.995	103.170	19.630	16.193	0.494
626.500	390.581	80.005	19.995	103.172	19.637	15.704	0.498
627.000	390.834	80.005	19.995	103.166	19.644	15.197	0.486
627.500	391.055	80.005	19.996	103.164	19.647	14.984	0.474
628.000	391.346	80.005	19.996	103.158	19.654	14.490	0.493
628.500	391.582	80.004	19.995	103.152	19.656	14.348	0.520
629.000	391.829	80.005	19.994	103.150	19.662	13.969	0.505
629.500	392.082	80.005	19.995	103.154	19.668	13.549	0.491
630.000	392.334	80.005	19.994	103.155	19.674	13.106	0.502
630.500	392.595	80.006	19.996	103.155	19.679	12.776	0.509
631.000	392.838	80.005	19.995	103.160	19.680	12.703	0.508
631.500	393.085	80.005	19.995	103.156	19.685	12.394	0.497
632.000	393.341	80.005	19.994	103.150	19.688	12.181	0.496
632.500	393.637	80.005	19.994	103.150	19.691	11.928	0.528
633.000	393.874	80.005	19.995	103.151	19.693	11.822	0.542
633.500	394.124	80.004	19.995	103.146	19.698	11.502	0.510
634.000	394.370	80.005	19.994	103.146	19.700	11.342	0.492
634.500	394.629	80.006	19.994	103.145	19.700	11.297	0.500
635.000	394.898	80.005	19.995	103.142	19.706	10.943	0.516
635.500	395.109	80.006	19.994	103.141	19.706	10.919	0.504
636.000	395.357	80.004	19.995	103.144	19.709	10.694	0.469
636.500	395.588	80.006	19.996	103.146	19.714	10.383	0.469
637.000	395.853	80.005	19.995	103.150	19.712	10.495	0.487
637.500	396.118	80.005	19.994	103.152	19.713	10.463	0.513
638.000	396.366	80.006	19.995	103.151	19.718	10.117	0.521
638.500	396.613	80.006	19.995	103.147	19.717	10.122	0.504
639.000	396.853	80.007	19.993	103.146	19.722	9.811	0.491
639.500	397.098	80.004	19.995	103.143	19.719	9.986	0.486
640.000	397.342	80.006	19.995	103.141	19.724	9.698	0.488
640.500	397.583	80.004	19.995	103.142	19.726	9.506	0.487
641.000	397.844	80.005	19.995	103.145	19.730	9.264	0.494
641.500	398.085	80.006	19.994	103.146	19.731	9.180	0.502
642.000	398.329	80.006	19.994	103.146	19.729	9.305	0.493
642.500	398.569	80.006	19.996	103.146	19.732	9.110	0.484
643.000	398.835	80.006	19.995	103.146	19.733	9.026	0.495
643.500	399.065	80.006	19.995	103.143	19.733	9.082	0.501
644.000	399.343	80.005	19.995	103.146	19.736	8.810	0.502
644.500	399.599	80.006	19.995	103.151	19.736	8.858	0.521
645.000	399.841	80.005	19.996	103.151	19.739	8.636	0.516
645.500	400.091	80.005	19.996	103.152	19.736	8.809	0.495
646.000	400.346	80.005	19.996	103.151	19.746	8.170	0.499
646.500	400.591	80.005	19.997	103.149	19.740	8.582	0.503
647.000	400.815	80.005	19.997	103.143	19.743	8.359	0.484
647.500	401.080	80.005	19.996	103.144	19.747	8.083	0.478
648.000	401.318	80.006	19.995	103.143	19.744	8.297	0.496
648.500	401.545	80.004	19.995	103.143	19.746	8.122	0.484
649.000	401.817	80.004	19.997	103.143	19.748	7.984	0.482
649.500	402.079	80.003	19.996	103.143	19.750	7.883	0.517
650.000	402.326	80.004	19.996	103.142	19.745	8.222	0.521
650.500	402.537	80.005	19.995	103.142	19.747	8.056	0.483
651.000	402.818	80.003	19.998	103.144	19.748	7.987	0.475
651.500	403.049	80.002	19.995	103.147	19.750	7.851	0.502
652.000	403.298	80.003	19.994	103.148	19.749	7.971	0.496
652.500	403.534	80.002	19.997	103.152	19.751	7.820	0.482
653.000	403.776	80.004	19.997	103.152	19.751	7.799	0.481
653.500	404.030	80.003	19.996	103.155	19.751	7.781	0.487
654.000	404.278	80.004	19.998	103.155	19.754	7.576	0.499
654.500	404.516	80.004	19.994	103.154	19.754	7.621	0.494
655.000	404.767	80.003	19.996	103.151	19.754	7.619	0.487
655.500	405.008	80.004	19.995	103.150	19.752	7.766	0.491
656.000	405.261	80.003	19.994	103.151	19.752	7.751	0.493
656.500	405.523	80.004	19.996	103.149	19.754	7.581	0.504
657.000	405.738	80.004	19.995	103.149	19.750	7.864	0.496
657.500	406.037	80.003	19.995	103.150	19.756	7.460	0.496
658.000	406.236	80.004	19.994	103.150	19.756	7.466	0.506
658.500	406.525	80.003	19.996	103.147	19.755	7.516	0.493
659.000	406.738	80.002	19.997	103.147	19.754	7.572	0.495
659.500	407.018	80.004	19.995	103.147	19.757	7.419	0.498
660.000	407.279	80.003	19.995	103.146	19.754	7.611	0.517
660.500	407.527	80.002	19.995	103.145	19.758	7.315	0.525
661.000	407.751	80.003	19.996	103.144	19.756	7.473	0.490
661.500	408.018	80.002	19.995	103.145	19.758	7.348	0.481
662.000	408.262	80.003	19.996	103.145	19.756	7.473	0.501
662.500	408.513	80.001	19.995	103.145	19.758	7.300	0.504
663.000	408.779	80.004	19.995	103.145	19.762	7.032	0.506
663.500	408.999	80.002	19.994	103.146	19.758	7.309	0.501
664.000	409.251	80.004	19.996	103.148	19.762	7.043	0.479
664.500	409.482	80.002	19.995	103.150	19.759	7.255	0.477
665.000	409.735	80.003	19.995	103.151	19.758	7.331	0.484
665.500	409.990	80.003	19.995	103.154	19.761	7.108	0.496
666.000	410.240	80.003	19.995	103.153	19.762	7.081	0.506
666.500	410.495	80.003	19.996	103.150	19.761	7.111	0.505
667.000	410.727	80.002	19.996	103.148	19.760	7.210	0.496
667.500	410.963	80.003	19.995	103.148	19.763	6.972	0.477
668.000	411.217	80.002	19.996	103.146	19.760	7.160	0.479
668.500	411.504	80.003	19.996	103.145	19.761	7.093	0.516
669.000	411.751	80.004	19.996	103.145	19.760	7.190	0.538
669.500	411.915	80.003	19.997	103.144	19.761	7.115	0.472
670.000	412.187	80.003	19.996	103.143	19.760	7.199	0.424
670.500	412.442	80.003	19.996	103.143	19.759	7.259	0.482
671.000	412.653	80.004	19.995	103.143	19.761	7.124	0.496
671.500	412.947	80.004	19.994	103.143	19.758	7.355	0.485
672.000	413.202	80.003	19.995	103.143	19.764	6.880	0.527
672.500	413.409	80.003	19.996	103.143	19.762	7.061	0.505
673.000	413.662	80.003	19.995	103.144	19.763	6.947	0.461
673.500	413.923	80.001	19.996	103.146	19.766	6.756	0.487
674.000	414.168	80.004	19.996	103.145	19.763	6.953	0.510
674.500	414.370	80.003	19.995	103.145	19.764	6.888	0.476
675.000	414.640	80.003	19.996	103.144	19.762	7.035	0.460
675.500	414.905	80.003	19.996	103.141	19.762	7.063	0.504
676.000	415.115	80.002	19.996	103.139	19.761	7.091	0.504
676.500	415.374	80.002	19.996	103.139	19.764	6.910	0.472
677.000	415.618	80.002	19.996	103.139	19.762	7.076	0.486
677.500	415.852	80.003	19.997	103.138	19.766	6.763	0.490
678.000	416.107	80.002	19.997	103.139	19.763	6.945	0.483
678.500	416.351	80.003	19.996	103.139	19.768	6.640	0.494
679.000	416.610	80.003	19.996	103.139	19.764	6.901	0.501
679.500	416.852	80.003	19.997	103.140	19.765	6.856	0.502
680.000	417.097	80.003	19.996	103.140	19.767	6.715	0.494
680.500	417.311	80.004	19.996	103.141	19.765	6.821	0.473
681.000	417.594	80.003	19.996	103.140	19.766	6.791	0.478
681.500	417.781	80.003	19.996	103.141	19.766	6.748	0.484
682.000	418.053	80.003	19.996	103.140	19.767	6.702	0.465
682.500	418.299	80.003	19.995	103.140	19.769	6.593	0.488
683.000	418.528	80.004	19.996	103.140	19.768	6.631	0.497
683.500	418.790	80.004	19.996	103.141	19.770	6.471	0.483
684.000	419.053	80.003	19.997	103.141	19.767	6.694	0.508
684.500	419.286	80.004	19.995	103.140	19.769	6.584	0.510
685.000	419.518	80.003	19.995	103.140	19.767	6.674	0.480
685.500	419.796	80.004	19.995	103.139	19.771	6.439	0.487
686.000	420.031	80.004	19.995	103.139	19.770	6.527	0.512
686.500	420.318	80.003	19.995	103.139	19.770	6.501	0.518
687.000	420.526	80.003	19.995	103.140	19.767	6.716	0.509
687.500	420.796	80.003	19.995	103.138	19.769	6.580	0.486
688.000	421.037	80.004	19.995	103.136	19.769	6.571	0.494
688.501	421.244	80.004	19.995	103.136	19.769	6.543	0.480
689.000	421.508	80.004	19.995	103.136	19.769	6.558	0.460
689.500	421.764	80.005	19.994	103.136	19.771	6.441	0.495
690.000	422.001	80.004	19.995	103.139	19.772	6.370	0.506
690.500	422.238	80.004	19.994	103.142	19.772	6.380	0.484
691.000	422.478	80.004	19.994	103.142	19.770	6.492	0.476
691.500	422.752	80.006	19.995	103.142	19.771	6.395	0.495
692.000	422.980	80.005	19.995	103.141	19.770	6.464	0.508
692.500	423.237	80.006	19.995	103.141	19.772	6.375	0.494
693.000	423.475	80.005	19.994	103.141	19.770	6.520	0.490
693.500	423.739	80.005	19.993	103.141	19.769	6.566	0.498
694.000	423.994	80.006	19.995	103.140	19.773	6.281	0.510
694.500	424.233	80.005	19.994	103.141	19.773	6.307	0.506
695.000	424.472	80.005	19.994	103.140	19.775	6.183	0.486
695.500	424.739	80.005	19.995	103.143	19.774	6.244	0.492
696.000	424.968	80.005	19.995	103.144	19.773	6.265	0.501
696.500	425.231	80.007	19.994	103.144	19.774	6.216	0.494
697.000	425.518	80.006	19.996	103.144	19.774	6.253	0.521
697.500	425.755	80.006	19.994	103.144	19.775	6.160	0.537
698.000	426.000	80.006	19.995	103.140	19.775	6.156	0.503
698.500	426.248	80.005	19.995	103.139	19.774	6.210	0.488
699.000	426.519	80.006	19.995	103.140	19.775	6.147	0.506
699.500	426.772	80.006	19.996	103.140	19.774	6.218	0.522
700.000	427.038	80.005	19.994	103.140	19.773	6.265	0.522
700.500	427.247	80.006	19.996	103.142	19.776	6.074	0.497
701.000	427.492	80.006	19.994	103.144	19.774	6.214	0.465
701.500	427.776	80.005	19.995	103.150	19.777	6.015	0.492
702.000	428.034	80.006	19.995	103.156	19.776	6.086	0.535
702.500	428.308	80.007	19.994	103.160	19.779	5.875	0.537
703.000	428.533	80.006	19.994	103.161	19.771	6.395	0.516
703.500	428.812	80.005	19.994	103.159	19.777	6.017	0.502
704.000	429.088	80.005	19.994	103.156	19.772	6.344	0.530
704.500	429.312	80.005	19.996	103.154	19.775	6.117	0.527
705.000	429.563	80.006	19.995	103.154	19.776	6.110	0.487
705.500	429.800	80.005	19.995	103.153	19.778	5.933	0.481
706.000	430.040	80.005	19.996	103.155	19.776	6.115	0.483
706.500	430.328	80.006	19.996	103.156	19.775	6.121	0.502
707.000	430.602	80.006	19.994	103.158	19.781	5.757	0.545
707.500	430.813	80.005	19.994	103.154	19.778	5.938	0.524
708.000	431.088	80.005	19.996	103.154	19.777	6.011	0.485
708.500	431.400	80.005	19.995	103.154	19.779	5.849	0.536
709.000	431.662	80.005	19.996	103.151	19.780	5.791	0.580
709.500	431.893	80.005	19.994	103.149	19.777	5.983	0.533
710.000	432.164	80.005	19.996	103.153	19.778	5.909	0.498
710.500	432.403	80.005	19.996	103.155	19.784	5.545	0.506
711.000	432.688	80.005	19.995	103.154	19.780	5.834	0.517
711.500	432.935	80.004	19.996	103.153	19.780	5.830	0.528
712.000	433.212	80.005	19.994	103.151	19.781	5.724	0.528
712.500	433.462	80.005	19.995	103.153	19.781	5.705	0.525
713.000	433.732	80.004	19.995	103.153	19.779	5.843	0.524
713.500	434.009	80.004	19.995	103.153	19.786	5.407	0.534
714.000	434.253	80.004	19.995	103.154	19.785	5.478	0.534
714.500	434.563	80.006	19.994	103.154	19.782	5.681	0.537
715.000	434.816	80.005	19.992	103.150	19.783	5.592	0.559
715.500	435.094	80.004	19.996	103.149	19.783	5.568	0.547
716.000	435.344	80.006	19.996	103.149	19.784	5.562	0.530
716.500	435.611	80.006	19.996	103.150	19.779	5.853	0.522
717.000	435.875	80.005	19.994	103.148	19.783	5.596	0.523
717.500	436.152	80.006	19.995	103.146	19.784	5.528	0.535
718.000	436.379	80.006	19.995	103.147	19.781	5.702	0.522
718.500	436.678	80.006	19.994	103.146	19.780	5.834	0.515
719.000	436.960	80.006	19.993	103.148	19.782	5.644	0.554
719.500	437.270	80.006	19.994	103.152	19.784	5.542	0.587
720.000	437.542	80.006	19.994	103.156	19.783	5.614	0.587
720.500	437.803	80.007	19.994	103.156	19.783	5.597	0.557
721.000	438.078	80.006	19.994	103.156	19.785	5.465	0.534
721.500	438.335	80.007	19.994	103.153	19.786	5.385	0.534
722.000	438.607	80.006	19.994	103.149	19.786	5.380	0.531
722.500	438.885	80.007	19.994	103.146	19.785	5.492	0.540
723.000	439.144	80.007	19.995	103.146	19.785	5.428	0.543
723.500	439.441	80.008	19.994	103.146	19.784	5.529	0.547
724.000	439.712	80.007	19.995	103.147	19.785	5.480	0.562
724.501	439.990	80.007	19.993	103.147	19.786	5.396	0.558
725.000	440.242	80.007	19.994	103.147	19.785	5.487	0.539
725.500	440.555	80.007	19.993	103.149	19.785	5.454	0.548
726.000	440.823	80.007	19.992	103.153	19.786	5.359	0.573
726.500	441.086	80.006	19.994	103.154	19.786	5.387	0.556
727.000	441.386	80.006	19.993	103.154	19.787	5.297	0.548
727.500	441.672	80.005	19.994	103.154	19.785	5.487	0.575
728.000	441.956	80.007	19.994	103.153	19.786	5.405	0.578
728.500	442.228	80.004	19.994	103.152	19.786	5.386	0.563
729.000	442.483	80.006	19.994	103.152	19.787	5.332	0.542
729.500	442.769	80.005	19.993	103.155	19.788	5.273	0.534
730.000	443.024	80.003	19.995	103.154	19.784	5.558	0.541
730.500	443.323	80.005	19.994	103.154	19.786	5.360	0.548
731.000	443.574	80.003	19.995	103.154	19.788	5.260	0.552
731.500	443.905	80.004	19.994	103.154	19.784	5.504	0.566
732.000	444.137	80.003	19.996	103.154	19.785	5.442	0.572
732.500	444.423	80.003	19.995	103.159	19.786	5.384	0.541
733.000	444.699	80.003	19.993	103.163	19.788	5.262	0.540
733.500	444.969	80.003	19.996	103.162	19.785	5.446	0.554
734.000	445.274	80.003	19.995	103.161	19.783	5.582	0.561
734.500	445.567	80.004	19.995	103.159	19.785	5.470	0.586
735.000	445.854	80.004	19.994	103.153	19.787	5.347	0.589
735.500	446.139	80.004	19.994	103.148	19.786	5.368	0.576
736.000	446.386	80.004	19.995	103.148	19.788	5.271	0.552
736.500	446.663	80.003	19.995	103.149	19.787	5.321	0.528
737.000	446.972	80.004	19.996	103.150	19.790	5.086	0.555
737.500	447.212	80.004	19.997	103.151	19.791	5.028	0.568
738.000	447.519	80.005	19.996	103.150	19.790	5.088	0.548
738.500	447.787	80.004	19.995	103.148	19.789	5.211	0.561
739.000	448.056	80.004	19.995	103.145	19.795	4.777	0.556
739.500	448.344	80.004	19.995	103.144	19.787	5.308	0.547
740.000	448.640	80.004	19.997	103.142	19.791	5.040	0.570
740.500	448.922	80.004	19.995	103.143	19.792	4.977	0.581
741.000	449.230	80.005	19.996	103.143	19.790	5.086	0.584
741.500	449.481	80.004	19.995	103.143	19.791	5.060	0.574
742.000	449.750	80.006	19.995	103.141	19.793	4.876	0.540
742.500	450.046	80.003	19.995	103.141	19.792	5.001	0.543
743.000	450.334	80.005	19.995	103.142	19.793	4.881	0.574
743.500	450.572	80.005	19.995	103.143	19.790	5.127	0.555
744.000	450.867	80.004	19.995	103.143	19.794	4.851	0.529
744.500	451.140	80.003	19.996	103.143	19.792	4.969	0.550
745.000	451.424	80.004	19.995	103.143	19.793	4.933	0.562
745.500	451.699	80.005	19.995	103.142	19.792	4.969	0.558
746.000	451.958	80.005	19.995	103.143	19.793	4.874	0.547
746.500	452.253	80.004	19.996	103.144	19.794	4.863	0.544
747.000	452.534	80.004	19.995	103.143	19.795	4.738	0.565
747.500	452.818	80.004	19.994	103.143	19.797	4.628	0.571
748.000	453.089	80.005	19.997	103.142	19.797	4.656	0.560
748.500	453.336	80.004	19.996	103.141	19.796	4.671	0.536
749.000	453.647	80.004	19.996	103.141	19.796	4.732	0.538
749.500	453.921	80.005	19.997	103.144	19.795	4.788	0.572
750.000	454.205	80.004	19.995	103.145	19.793	4.890	0.572
750.500	454.474	80.005	19.997	103.146	19.798	4.576	0.556
751.001	454.719	80.005	19.994	103.146	19.797	4.598	0.533
751.500	455.023	80.004	19.994	103.145	19.795	4.799	0.531
752.000	455.351	80.004	19.995	103.143	19.798	4.540	0.590
752.500	455.558	80.004	19.995	103.141	19.796	4.732	0.584
753.000	455.864	80.005	19.995	103.141	19.799	4.509	0.524
753.500	456.141	80.006	19.996	103.140	19.801	4.367	0.548
754.000	456.421	80.005	19.995	103.140	19.799	4.499	0.570
754.500	456.702	80.004	19.996	103.140	19.799	4.524	0.559
755.000	456.964	80.005	19.995	103.140	19.797	4.604	0.552
755.500	457.236	80.005	19.995	103.141	19.800	4.412	0.538
756.000	457.511	80.003	19.995	103.141	19.799	4.483	0.540
756.500	457.776	80.004	19.994	103.141	19.796	4.667	0.544
757.000	458.041	80.005	19.994	103.141	19.801	4.332	0.535
757.500	458.317	80.004	19.995	103.140	19.801	4.350	0.535
758.000	458.628	80.005	19.996	103.140	19.800	4.453	0.564
758.500	458.880	80.003	19.995	103.140	19.799	4.490	0.575
759.000	459.195	80.005	19.995	103.140	19.799	4.481	0.565
759.500	459.465	80.003	19.996	103.138	19.797	4.613	0.576
760.000	459.728	80.006	19.995	103.138	19.806	3.981	0.559
760.500	460.016	80.005	19.994	103.137	19.802	4.313	0.542
761.000	460.295	80.004	19.996	103.136	19.802	4.259	0.558
761.500	460.545	80.003	19.996	103.136	19.805	4.097	0.548
762.000	460.813	80.004	19.995	103.137	19.800	4.404	0.524
762.500	461.081	80.004	19.996	103.136	19.800	4.413	0.527
763.000	461.334	80.002	19.998	103.137	19.802	4.300	0.528
763.500	461.608	80.004	19.996	103.137	19.805	4.084	0.524
764.000	461.888	80.003	19.997	103.137	19.807	3.964	0.541
764.500	462.155	80.003	19.996	103.138	19.804	4.145	0.551
765.000	462.398	80.003	19.996	103.139	19.806	3.987	0.528
765.500	462.660	80.002	19.996	103.140	19.807	3.968	0.508
766.000	463.028	80.002	19.997	103.140	19.807	3.959	0.567
766.500	463.228	80.004	19.996	103.140	19.809	3.797	0.599
767.001	463.453	80.003	19.995	103.140	19.808	3.894	0.496
767.501	463.748	80.004	19.996	103.140	19.807	3.965	0.473
768.000	464.029	80.003	19.997	103.140	19.809	3.827	0.548
768.500	464.296	80.003	19.995	103.141	19.809	3.812	0.562
769.000	464.551	80.004	19.996	103.141	19.811	3.693	0.535
769.500	464.823	80.004	19.997	103.142	19.807	3.940	0.524
770.000	465.065	80.002	19.998	103.143	19.809	3.775	0.521
770.500	465.337	80.003	19.995	103.143	19.810	3.747	0.514
771.000	465.642	80.002	19.997	103.142	19.808	3.875	0.546
771.500	465.898	80.004	19.996	103.143	19.808	3.866	0.569
772.000	466.125	80.002	19.995	103.142	19.810	3.724	0.522
772.501	466.406	80.003	19.996	103.141	19.812	3.609	0.496
773.000	466.669	80.003	19.997	103.138	19.810	3.698	0.526
773.500	466.931	80.004	19.995	103.136	19.817	3.258	0.534
774.000	467.212	80.003	19.995	103.135	19.814	3.476	0.534
774.500	467.455	80.003	19.995	103.136	19.811	3.631	0.533
775.000	467.744	80.005	19.995	103.136	19.812	3.596	0.528
775.500	467.988	80.005	19.995	103.139	19.812	3.596	0.533
776.000	468.259	80.004	19.995	103.140	19.813	3.545	0.524
776.500	468.573	80.004	19.995	103.142	19.812	3.612	0.549
777.000	468.819	80.005	19.995	103.141	19.813	3.558	0.572
777.500	469.049	80.004	19.995	103.141	19.816	3.316	0.518
778.000	469.333	80.004	19.995	103.141	19.813	3.528	0.495
778.500	469.597	80.005	19.994	103.141	19.811	3.638	0.531
779.000	469.870	80.005	19.995	103.140	19.813	3.502	0.542
779.500	470.124	80.006	19.994	103.142	19.812	3.579	0.532
780.000	470.389	80.005	19.994	103.142	19.813	3.514	0.523
780.500	470.659	80.005	19.995	103.142	19.813	3.538	0.527
781.000	470.909	80.005	19.995	103.143	19.816	3.344	0.527
781.500	471.152	80.005	19.995	103.143	19.813	3.547	0.506
782.000	471.430	80.006	19.993	103.142	19.815	3.400	0.506
782.500	471.688	80.006	19.994	103.142	19.810	3.745	0.529
783.000	471.932	80.006	19.993	103.141	19.812	3.620	0.519
783.500	472.213	80.005	19.994	103.140	19.812	3.569	0.514
784.000	472.452	80.005	19.994	103.137	19.813	3.500	0.523
784.500	472.733	80.006	19.994	103.135	19.811	3.638	0.520
785.000	473.004	80.004	19.995	103.135	19.814	3.452	0.536
785.500	473.258	80.006	19.994	103.133	19.809	3.774	0.539
786.000	473.516	80.005	19.995	103.134	19.813	3.493	0.518
786.500	473.804	80.005	19.994	103.139	19.812	3.580	0.529
787.000	474.056	80.005	19.995	103.137	19.813	3.519	0.543
787.500	474.339	80.005	19.994	103.134	19.811	3.660	0.538
788.000	474.619	80.004	19.994	103.132	19.811	3.649	0.550
788.500	474.840	80.005	19.995	103.128	19.816	3.286	0.532
789.001	475.140	80.005	19.996	103.128	19.814	3.452	0.510
789.500	475.388	80.005	19.995	103.132	19.814	3.480	0.534
790.000	475.655	80.004	19.994	103.133	19.816	3.329	0.532
790.500	475.884	80.004	19.994	103.136	19.816	3.351	0.506
791.000	476.171	80.004	19.993	103.138	19.812	3.574	0.506
791.500	476.433	80.004	19.996	103.137	19.813	3.520	0.532
792.000	476.682	80.003	19.995	103.137	19.813	3.519	0.530
792.500	476.909	80.003	19.994	103.139	19.812	3.565	0.494
793.000	477.177	80.003	19.995	103.140	19.816	3.344	0.486
793.500	477.421	80.003	19.995	103.137	19.815	3.390	0.504
794.000	477.707	80.004	19.995	103.136	19.815	3.407	0.521
794.500	477.932	80.004	19.994	103.128	19.818	3.159	0.520
795.000	478.196	80.003	19.995	103.127	19.816	3.338	0.500
795.500	478.438	80.004	19.995	103.124	19.816	3.342	0.497
796.000	478.684	80.004	19.995	103.124	19.816	3.301	0.497
796.500	479.000	80.004	19.994	103.123	19.816	3.345	0.525
797.000	479.225	80.004	19.995	103.128	19.817	3.243	0.551
797.500	479.484	80.004	19.994	103.128	19.816	3.297	0.513
798.000	479.774	80.004	19.995	103.127	19.815	3.366	0.517
798.500	480.014	80.004	19.995	103.127	19.816	3.319	0.540
799.000	480.285	80.004	19.994	103.131	19.816	3.341	0.521
799.500	480.503	80.004	19.995	103.133	19.817	3.274	0.500
800.000	480.737	80.005	19.995	103.130	19.814	3.422	0.470
800.500	481.017	80.005	19.995	103.128	19.818	3.170	0.483
801.000	481.281	80.004	19.994	103.127	19.815	3.383	0.529
801.500	481.506	80.006	19.995	103.120	19.817	3.280	0.516
802.000	481.757	80.005	19.994	103.117	19.821	2.977	0.482
802.500	482.041	80.005	19.996	103.118	19.818	3.163	0.506
803.001	482.282	80.007	19.995	103.117	19.819	3.116	0.530
803.500	482.530	80.007	19.994	103.117	19.820	3.053	0.507
804.000	482.822	80.007	19.993	103.119	19.819	3.090	0.514
804.500	483.046	80.006	19.994	103.118	19.819	3.110	0.528
805.000	483.279	80.006	19.994	103.115	19.817	3.241	0.487
805.500	483.526	80.007	19.995	103.118	19.818	3.164	0.468
806.000	483.774	80.007	19.995	103.119	19.817	3.233	0.487
806.500	484.016	80.007	19.994	103.117	19.819	3.131	0.493
807.000	484.273	80.007	19.994	103.115	19.817	3.263	0.495
807.500	484.544	80.007	19.993	103.113	19.818	3.159	0.513
808.000	484.769	80.006	19.993	103.109	19.818	3.167	0.512
808.500	485.030	80.008	19.994	103.107	19.821	2.973	0.492
809.000	485.262	80.005	19.995	103.108	19.819	3.081	0.490
809.500	485.492	80.006	19.995	103.109	19.819	3.077	0.477
810.000	485.742	80.007	19.995	103.111	19.820	3.038	0.471
810.500	486.005	80.004	19.994	103.113	19.822	2.935	0.496
811.000	486.199	80.005	19.993	103.113	19.823	2.842	0.485
811.500	486.475	80.006	19.993	103.113	19.822	2.872	0.463
812.000	486.736	80.008	19.994	103.117	19.821	2.971	0.504
812.500	486.964	80.021	19.996	103.121	19.821	2.993	0.513
813.000	487.183	80.022	19.997	103.120	19.821	2.952	0.468
813.500	487.443	80.012	19.999	103.122	19.824	2.784	0.463
814.000	487.676	80.005	19.994	103.119	19.822	2.902	0.486
814.500	487.932	80.004	19.995	103.115	19.822	2.919	0.491
815.000	488.173	80.004	19.996	103.109	19.819	3.098	0.493
815.500	488.436	80.003	19.994	103.107	19.823	2.828	0.500
816.000	488.655	80.003	19.994	103.105	19.821	2.956	0.493
816.500	488.914	80.004	19.994	103.104	19.824	2.750	0.480
817.000	489.172	80.006	19.994	103.104	19.820	3.029	0.497
817.500	489.430	80.004	19.994	103.107	19.822	2.936	0.517
818.000	489.648	80.003	19.995	103.109	19.823	2.811	0.496
818.500	489.894	80.004	19.995	103.113	19.823	2.839	0.469
819.000	490.121	80.005	19.995	103.116	19.823	2.843	0.468
819.500	490.405	80.004	19.995	103.115	19.825	2.724	0.493
820.000	490.628	80.004	19.996	103.112	19.824	2.753	0.509
820.500	490.867	80.004	19.994	103.110	19.825	2.692	0.484
821.000	491.140	80.004	19.994	103.108	19.824	2.796	0.487
821.500	491.367	80.003	19.995	103.108	19.828	2.463	0.506
822.000	491.618	80.004	19.994	103.112	19.825	2.690	0.489
822.500	491.873	80.004	19.993	103.115	19.825	2.686	0.492
823.000	492.109	80.002	19.993	103.115	19.826	2.639	0.498
823.500	492.377	80.003	19.996	103.113	19.826	2.615	0.497
824.000	492.643	80.003	19.995	103.110	19.827	2.576	0.519
824.500	492.892	80.004	19.995	103.107	19.826	2.643	0.525
825.000	493.148	80.003	19.994	103.108	19.824	2.740	0.510
825.500	493.334	80.003	19.995	103.112	19.821	2.950	0.473
826.000	493.641	80.004	19.996	103.118	19.824	2.742	0.467
826.500	493.890	80.004	19.994	103.125	19.825	2.665	0.524
827.000	494.151	80.003	19.995	103.128	19.827	2.542	0.533
827.500	494.442	80.004	19.994	103.131	19.824	2.740	0.531
828.000	494.663	80.003	19.995	103.133	19.827	2.557	0.532
828.500	494.873	80.003	19.995	103.133	19.826	2.645	0.472
829.000	495.154	80.002	19.997	103.132	19.828	2.505	0.461
829.500	495.394	80.004	19.997	103.135	19.826	2.593	0.506
830.000	495.667	80.003	19.997	103.134	19.828	2.496	0.517
830.500	495.924	80.004	19.996	103.130	19.830	2.337	0.522
831.000	496.144	80.004	19.996	103.131	19.832	2.185	0.504
831.500	496.411	80.003	19.996	103.128	19.827	2.567	0.482
832.000	496.640	80.004	19.995	103.124	19.829	2.401	0.491
832.500	496.913	80.003	19.995	103.122	19.827	2.542	0.499
833.000	497.157	80.003	19.995	103.119	19.831	2.297	0.510
833.500	497.391	80.004	19.997	103.114	19.830	2.377	0.497
834.000	497.622	80.004	19.996	103.112	19.830	2.349	0.471
834.500	497.861	80.004	19.997	103.109	19.828	2.496	0.468
835.000	498.141	80.004	19.996	103.108	19.830	2.377	0.494
835.500	498.428	80.004	19.995	103.108	19.833	2.131	0.543
836.000	498.639	80.003	19.995	103.106	19.831	2.312	0.533
836.500	498.885	80.004	19.996	103.105	19.831	2.310	0.478
837.000	499.103	80.004	19.996	103.105	19.832	2.217	0.461
837.500	499.337	80.004	19.996	103.105	19.831	2.289	0.458
838.000	499.620	80.004	19.996	103.105	19.831	2.261	0.485
838.500	499.853	80.005	19.995	103.105	19.833	2.146	0.517
839.000	500.088	80.005	19.995	103.106	19.831	2.259	0.492
839.500	500.319	80.005	19.995	103.105	19.830	2.343	0.467
840.000	500.518	80.004	19.995	103.106	19.833	2.144	0.448
840.500	500.822	80.004	19.995	103.106	19.832	2.183	0.466
841.000	501.054	80.005	19.994	103.106	19.834	2.064	0.520
841.500	501.298	80.004	19.995	103.107	19.831	2.310	0.506
842.000	501.513	80.005	19.994	103.111	19.832	2.200	0.468
842.500	501.739	80.003	19.996	103.111	19.831	2.265	0.450
843.000	502.016	80.003	19.995	103.112	19.831	2.300	0.472
843.500	502.272	80.003	19.994	103.113	19.833	2.159	0.518
844.000	502.501	80.004	19.994	103.112	19.832	2.192	0.509
844.500	502.752	80.004	19.994	103.108	19.833	2.177	0.482
845.000	502.984	80.003	19.995	103.109	19.832	2.194	0.482
845.500	503.192	80.003	19.994	103.110	19.834	2.067	0.462
846.000	503.428	80.003	19.995	103.115	19.830	2.328	0.442
846.500	503.675	80.003	19.996	103.117	19.832	2.190	0.463
847.000	503.930	80.003	19.996	103.118	19.832	2.228	0.492
847.500	504.160	80.002	19.994	103.117	19.830	2.367	0.493
848.000	504.421	80.003	19.994	103.115	19.827	2.576	0.488
848.500	504.654	80.003	19.995	103.110	19.828	2.475	0.492
849.000	504.932	80.003	19.995	103.111	19.829	2.386	0.502
849.500	505.152	80.002	19.995	103.111	19.832	2.213	0.505
850.000	505.348	80.003	19.996	103.112	19.829	2.444	0.457
850.500	505.590	80.003	19.996	103.116	19.829	2.410	0.427
851.000	505.833	80.003	19.994	103.115	19.829	2.453	0.461
851.500	506.120	80.003	19.994	103.112	19.828	2.457	0.508
852.000	506.335	80.002	19.995	103.111	19.828	2.458	0.516
852.500	506.513	80.002	19.994	103.110	19.832	2.214	0.447
853.000	506.791	80.003	19.996	103.106	19.829	2.406	0.424
853.500	507.011	80.003	19.994	103.106	19.828	2.516	0.478
854.000	507.289	80.002	19.996	103.105	19.830	2.345	0.498
854.500	507.532	80.003	19.996	103.105	19.831	2.311	0.509
855.000	507.769	80.004	19.996	103.105	19.830	2.328	0.501
855.500	507.959	80.002	19.996	103.105	19.829	2.401	0.453
856.000	508.221	80.003	19.995	103.107	19.833	2.172	0.439
856.500	508.450	80.004	19.996	103.111	19.831	2.274	0.472
857.000	508.682	80.003	19.996	103.110	19.835	2.025	0.476
857.500	508.907	80.004	19.995	103.111	19.830	2.369	0.459
858.000	509.154	80.005	19.995	103.111	19.832	2.239	0.465
858.500	509.395	80.003	19.996	103.113	19.830	2.367	0.480
859.000	509.615	80.003	19.996	103.111	19.829	2.399	0.474
859.500	509.853	80.003	19.996	103.111	19.828	2.470	0.459
860.000	510.104	80.003	19.996	103.111	19.829	2.403	0.474
860.500	510.281	80.003	19.994	103.112	19.828	2.457	0.459
861.000	510.536	80.004	19.996	103.108	19.831	2.304	0.431
861.500	510.781	80.003	19.996	103.106	19.827	2.531	0.466
862.000	510.998	80.004	19.996	103.106	19.832	2.209	0.481
862.500	511.220	80.004	19.996	103.106	19.831	2.296	0.451
863.000	511.399	80.005	19.996	103.107	19.832	2.201	0.420
863.500	511.668	80.003	19.995	103.106	19.830	2.341	0.424
864.000	511.910	80.005	19.996	103.106	19.834	2.043	0.480
864.500	512.109	80.004	19.995	103.107	19.827	2.527	0.476
865.000	512.327	80.005	19.995	103.108	19.832	2.198	0.429
865.500	512.551	80.004	19.995	103.107	19.830	2.335	0.430
866.000	512.778	80.004	19.996	103.107	19.831	2.278	0.447
866.500	513.019	80.003	19.995	103.107	19.830	2.367	0.459
867.000	513.259	80.003	19.996	103.106	19.830	2.326	0.475
867.500	513.493	80.004	19.994	103.107	19.829	2.416	0.477
868.000	513.725	80.004	19.994	103.107	19.831	2.304	0.470
868.500	513.965	80.004	19.996	103.106	19.834	2.080	0.469
869.000	514.246	80.003	19.995	103.109	19.832	2.190	0.496
869.500	514.453	80.004	19.995	103.111	19.831	2.298	0.505
870.000	514.690	80.005	19.995	103.108	19.833	2.164	0.467
870.500	514.900	80.004	19.995	103.108	19.831	2.256	0.446
871.000	515.153	80.004	19.995	103.108	19.830	2.338	0.455
871.500	515.390	80.004	19.995	103.106	19.833	2.122	0.477
872.000	515.608	80.004	19.994	103.103	19.832	2.204	0.473
872.500	515.842	80.004	19.994	103.103	19.830	2.332	0.454
873.000	516.076	80.005	19.994	103.104	19.830	2.364	0.460
873.500	516.304	80.005	19.994	103.105	19.828	2.473	0.465
874.000	516.516	80.005	19.995	103.105	19.829	2.425	0.451
874.500	516.770	80.004	19.994	103.104	19.828	2.460	0.453
875.001	517.029	80.004	19.995	103.104	19.827	2.533	0.490
875.500	517.231	80.005	19.995	103.102	19.831	2.263	0.487
876.000	517.465	80.005	19.994	103.101	19.832	2.209	0.448
876.500	517.718	80.004	19.993	103.103	19.829	2.407	0.461
877.000	517.959	80.003	19.994	103.105	19.829	2.388	0.490
877.500	518.192	80.005	19.994	103.109	19.829	2.397	0.484
878.000	518.421	80.004	19.994	103.110	19.829	2.392	0.468
878.500	518.656	80.004	19.994	103.111	19.828	2.472	0.463
879.000	518.927	80.004	19.994	103.110	19.830	2.330	0.485
879.500	519.169	80.004	19.995	103.108	19.832	2.219	0.509
880.000	519.393	80.005	19.995	103.109	19.831	2.295	0.490
880.500	519.643	80.004	19.994	103.113	19.834	2.071	0.470
881.000	519.904	80.004	19.994	103.116	19.831	2.315	0.492
881.500	520.127	80.003	19.995	103.119	19.832	2.179	0.497
882.000	520.393	80.004	19.994	103.124	19.831	2.278	0.486
882.500	520.633	80.005	19.994	103.123	19.831	2.263	0.498
883.000	520.865	80.003	19.995	103.120	19.831	2.250	0.489
883.500	521.123	80.005	19.994	103.117	19.832	2.185	0.481
884.000	521.377	80.006	19.994	103.114	19.833	2.168	0.502
884.500	521.635	80.006	19.995	103.109	19.834	2.062	0.512
885.000	521.869	80.005	19.994	103.108	19.835	2.040	0.502
885.500	522.106	80.006	19.995	103.111	19.833	2.164	0.481
886.000	522.338	80.006	19.995	103.116	19.832	2.233	0.470
886.500	522.555	80.005	19.994	103.119	19.835	1.989	0.459
887.000	522.831	80.006	19.994	103.120	19.837	1.840	0.471
887.500	523.073	80.006	19.995	103.118	19.835	2.038	0.506
888.000	523.326	80.005	19.994	103.116	19.835	2.026	0.507
888.500	523.579	80.007	19.995	103.110	19.835	1.991	0.500
889.000	523.818	80.005	19.995	103.113	19.837	1.885	0.499
889.500	524.042	80.006	19.995	103.116	19.835	1.991	0.478
890.000	524.299	80.007	19.995	103.122	19.838	1.797	0.472
890.500	524.570	80.006	19.995	103.123	19.838	1.827	0.504
891.000	524.816	80.004	19.995	103.124	19.833	2.127	0.522
891.500	525.067	80.006	19.994	103.121	19.834	2.068	0.507
892.000	525.293	80.005	19.994	103.123	19.834	2.105	0.487
892.500	525.549	80.007	19.994	103.119	19.837	1.881	0.480
893.000	525.794	80.005	19.994	103.117	19.836	1.947	0.492
893.500	526.054	80.005	19.994	103.118	19.837	1.874	0.502
894.000	526.301	80.004	19.994	103.120	19.835	2.040	0.506
894.500	526.565	80.005	19.994	103.116	19.832	2.187	0.509
895.000	526.792	80.003	19.995	103.116	19.834	2.109	0.501
895.500	527.042	80.003	19.995	103.117	19.833	2.163	0.484
896.000	527.324	80.003	19.995	103.117	19.834	2.067	0.505
896.500	527.580	80.004	19.995	103.115	19.836	1.965	0.535
897.000	527.821	80.004	19.994	103.115	19.837	1.868	0.518
897.500	528.086	80.003	19.995	103.114	19.834	2.101	0.502
898.000	528.387	80.003	19.994	103.111	19.835	2.021	0.536
898.500	528.630	80.003	19.995	103.108	19.836	1.971	0.554
899.000	528.868	80.003	19.996	103.107	19.836	1.935	0.513
899.500	529.149	80.004	19.994	103.106	19.833	2.148	0.500
900.000	529.361	80.003	19.996	103.109	19.841	1.604	0.506
900.500	529.626	80.004	19.994	103.111	19.840	1.691	0.485
901.000	529.853	80.005	19.995	103.115	19.837	1.838	0.484
901.500	530.142	80.003	19.996	103.118	19.837	1.840	0.504
902.000	530.424	80.004	19.995	103.122	19.836	1.928	0.544
902.500	530.653	80.003	19.995	103.128	19.837	1.846	0.541
903.000	530.890	80.003	19.995	103.128	19.836	1.945	0.489
903.500	531.160	80.003	19.995	103.126	19.839	1.729	0.487
904.000	531.434	80.002	19.994	103.125	19.834	2.068	0.525
904.500	531.691	80.004	19.994	103.125	19.837	1.870	0.537
905.000	531.968	80.003	19.994	103.122	19.838	1.812	0.533
905.500	532.190	80.004	19.995	103.120	19.835	2.025	0.517
906.000	532.462	80.002	19.994	103.119	19.834	2.062	0.497
906.500	532.734	80.003	19.995	103.116	19.833	2.153	0.519
907.000	532.975	80.004	19.993	103.111	19.836	1.909	0.529
907.500	533.265	80.004	19.993	103.107	19.835	2.023	0.522
908.000	533.490	80.002	19.995	103.108	19.835	1.978	0.523
908.500	533.756	80.003	19.994	103.108	19.834	2.069	0.503
909.000	534.019	80.003	19.993	103.110	19.836	1.961	0.510
909.500	534.267	80.003	19.994	103.114	19.836	1.907	0.520
910.000	534.550	80.004	19.996	103.114	19.836	1.937	0.521
910.500	534.819	80.003	19.994	103.114	19.834	2.058	0.541
911.000	535.111	80.003	19.994	103.116	19.835	2.014	0.556
911.500	535.365	80.004	19.995	103.114	19.835	1.999	0.553
912.000	535.593	80.005	19.995	103.112	19.833	2.166	0.514
912.500	535.850	80.002	19.994	103.116	19.833	2.121	0.484
913.000	536.151	80.003	19.993	103.122	19.836	1.922	0.522
913.500	536.426	80.003	19.994	103.124	19.833	2.138	0.567
914.000	536.646	80.004	19.995	103.124	19.831	2.291	0.535
914.500	536.984	80.003	19.994	103.123	19.834	2.090	0.527
915.000	537.175	80.003	19.994	103.118	19.834	2.073	0.543
915.500	537.454	80.004	19.995	103.114	19.836	1.963	0.500
916.000	537.726	80.002	19.995	103.111	19.834	2.057	0.511
916.500	537.999	80.004	19.994	103.110	19.834	2.058	0.548
917.000	538.256	80.003	19.994	103.110	19.836	1.937	0.537
917.500	538.500	80.003	19.994	103.111	19.833	2.123	0.516
918.000	538.759	80.004	19.996	103.108	19.835	2.001	0.502
918.500	539.027	80.002	19.995	103.107	19.834	2.071	0.515
919.000	539.302	80.003	19.995	103.108	19.834	2.097	0.535
919.500	539.568	80.002	19.996	103.113	19.833	2.144	0.542
920.000	539.847	80.003	19.995	103.118	19.836	1.967	0.543
920.500	540.082	80.002	19.995	103.121	19.833	2.138	0.530
921.000	540.345	80.003	19.994	103.125	19.832	2.205	0.506
921.500	540.568	80.003	19.994	103.125	19.836	1.909	0.492
922.000	540.856	80.003	19.994	103.119	19.833	2.125	0.498
922.500	541.152	80.003	19.995	103.112	19.836	1.952	0.547
923.000	541.414	80.002	19.995	103.110	19.834	2.105	0.571
923.500	541.676	80.003	19.995	103.108	19.835	2.000	0.541
924.000	541.945	80.002	19.995	103.113	19.831	2.300	0.527
924.500	542.186	80.002	19.994	103.114	19.833	2.129	0.520
925.000	542.451	80.002	19.995	103.116	19.835	1.999	0.508
925.500	542.711	80.001	19.994	103.120	19.836	1.937	0.516
926.000	542.978	80.001	19.995	103.122	19.838	1.812	0.526
926.500	543.226	80.002	19.994	103.123	19.833	2.135	0.521
927.000	543.475	80.001	19.994	103.126	19.836	1.928	0.506
927.500	543.772	80.003	19.995	103.128	19.833	2.133	0.522
928.000	544.003	80.004	19.995	103.124	19.834	2.053	0.537
928.500	544.289	80.001	19.995	103.120	19.835	2.010	0.522
929.000	544.513	80.002	19.995	103.119	19.834	2.081	0.514
929.500	544.796	80.001	19.994	103.120	19.837	1.896	0.509
930.000	545.047	80.004	19.995	103.117	19.836	1.928	0.520
930.500	545.319	80.002	19.994	103.117	19.834	2.058	0.528
931.000	545.564	80.002	19.996	103.119	19.837	1.900	0.520
931.500	545.827	80.003	19.995	103.114	19.837	1.844	0.513
932.000	546.094	80.002	19.995	103.113	19.834	2.081	0.519
932.500	546.350	80.002	19.995	103.115	19.835	2.040	0.526
933.000	546.601	80.002	19.996	103.116	19.834	2.060	0.515
933.500	546.882	80.003	19.995	103.114	19.837	1.859	0.520
934.000	547.132	80.004	19.995	103.113	19.833	2.110	0.532
934.500	547.376	80.003	19.995	103.110	19.836	1.969	0.512
935.000	547.648	80.004	19.995	103.110	19.836	1.971	0.504
935.500	547.926	80.003	19.995	103.115	19.836	1.965	0.533
936.000	548.183	80.003	19.995	103.116	19.836	1.909	0.542
936.501	548.432	80.004	19.995	103.117	19.838	1.799	0.521
937.001	548.682	80.003	19.994	103.117	19.836	1.906	0.503
937.500	548.952	80.005	19.994	103.117	19.834	2.090	0.510
938.000	549.232	80.003	19.995	103.117	19.836	1.960	0.535
938.500	549.466	80.004	19.995	103.117	19.837	1.857	0.532
939.000	549.729	80.004	19.995	103.117	19.834	2.055	0.505
939.500	549.999	80.005	19.994	103.117	19.834	2.073	0.515
940.000	550.255	80.005	19.995	103.114	19.836	1.917	0.530
940.500	550.514	80.005	19.994	103.111	19.836	1.943	0.521
941.000	550.764	80.004	19.996	103.113	19.835	1.978	0.512
941.500	551.027	80.005	19.995	103.117	19.835	2.001	0.511
942.000	551.267	80.005	19.995	103.122	19.836	1.941	0.508
942.500	551.569	80.005	19.995	103.122	19.837	1.896	0.523
943.000	551.786	80.004	19.994	103.118	19.836	1.954	0.530
943.500	552.087	80.004	19.994	103.113	19.836	1.948	0.518
944.000	552.334	80.006	19.994	103.111	19.837	1.857	0.533
944.500	552.573	80.004	19.994	103.112	19.836	1.904	0.517
945.000	552.852	80.004	19.995	103.115	19.835	1.993	0.502
945.500	553.133	80.004	19.994	103.116	19.834	2.091	0.539
946.000	553.352	80.005	19.994	103.119	19.835	2.024	0.530
946.500	553.626	80.004	19.995	103.123	19.834	2.061	0.496
947.000	553.912	80.004	19.995	103.122	19.836	1.904	0.526
947.500	554.164	80.005	19.996	103.122	19.836	1.926	0.549
948.000	554.427	80.004	19.995	103.129	19.836	1.967	0.527
948.500	554.669	80.004	19.994	103.127	19.838	1.791	0.510
949.000	554.967	80.003	19.995	103.125	19.840	1.668	0.523
949.500	555.215	80.004	19.996	103.124	19.836	1.931	0.543
950.000	555.470	80.003	19.997	103.127	19.839	1.750	0.524
950.500	555.764	80.002	19.996	103.126	19.838	1.818	0.526
951.000	556.010	80.004	19.996	103.127	19.837	1.863	0.544
951.500	556.279	80.003	19.996	103.126	19.839	1.753	0.528
952.000	556.522	80.003	19.996	103.126	19.836	1.916	0.514
952.500	556.772	80.004	19.996	103.125	19.838	1.827	0.502
953.000	557.052	80.003	19.996	103.124	19.839	1.736	0.511
953.500	557.310	80.002	19.996	103.124	19.839	1.717	0.534
954.000	557.573	80.003	19.997	103.122	19.836	1.919	0.530
954.500	557.811	80.003	19.996	103.124	19.840	1.689	0.511
955.000	558.124	80.003	19.996	103.128	19.837	1.866	0.526
955.500	558.379	80.002	19.996	103.131	19.837	1.896	0.560
956.000	558.607	80.003	19.996	103.115	19.838	1.783	0.526
956.500	558.900	80.003	19.996	103.097	19.839	1.699	0.502
957.000	559.141	80.003	19.996	103.081	19.835	2.008	0.527
957.500	559.427	80.004	19.995	103.065	19.837	1.885	0.531
958.000	559.696	80.003	19.997	103.057	19.840	1.634	0.541
958.500	559.921	80.003	19.996	103.091	19.840	1.664	0.524
959.000	560.200	80.003	19.996	103.136	19.835	2.003	0.499
959.500	560.482	80.003	19.996	103.159	19.839	1.736	0.533
960.000	560.701	80.002	19.996	103.173	19.840	1.690	0.531
960.501	560.979	80.003	19.995	103.181	19.838	1.812	0.499
961.000	561.283	80.004	19.996	103.162	19.840	1.689	0.539
961.500	561.536	80.003	19.995	103.132	19.837	1.891	0.569
962.000	561.817	80.004	19.997	103.120	19.837	1.851	0.546
962.500	562.058	80.004	19.995	103.113	19.837	1.848	0.528
963.000	562.321	80.004	19.996	103.107	19.841	1.619	0.513
963.500	562.597	80.005	19.994	103.106	19.839	1.699	0.522
964.000	562.836	80.005	19.994	103.113	19.837	1.902	0.527
964.500	563.096	80.006	19.995	103.116	19.838	1.786	0.506
965.000	563.344	80.004	19.994	103.117	19.838	1.773	0.503
965.500	563.612	80.005	19.994	103.118	19.838	1.770	0.513
966.000	563.854	80.006	19.993	103.119	19.839	1.742	0.514
966.500	564.122	80.005	19.995	103.117	19.838	1.818	0.510
967.000	564.380	80.005	19.994	103.116	19.838	1.772	0.517
967.500	564.653	80.006	19.995	103.118	19.839	1.716	0.528
968.000	564.910	80.005	19.993	103.119	19.841	1.624	0.531
968.500	565.182	80.005	19.994	103.121	19.839	1.732	0.530
969.000	565.454	80.007	19.994	103.123	19.841	1.587	0.537
969.500	565.684	80.006	19.994	103.127	19.842	1.522	0.523
970.000	565.958	80.005	19.995	103.129	19.839	1.716	0.503
970.500	566.201	80.005	19.995	103.128	19.842	1.541	0.510
971.000	566.498	80.005	19.994	103.130	19.838	1.796	0.529
971.500	566.744	80.006	19.995	103.123	19.838	1.792	0.541
972.000	566.996	80.005	19.995	103.119	19.838	1.779	0.521
972.500	567.251	80.006	19.995	103.117	19.838	1.769	0.503
973.000	567.495	80.003	19.993	103.115	19.838	1.782	0.503
973.500	567.788	80.005	19.995	103.111	19.840	1.682	0.518
974.000	568.033	80.002	19.995	103.111	19.838	1.807	0.538
974.500	568.250	80.004	19.994	103.112	19.837	1.866	0.500
975.001	568.541	80.003	19.994	103.109	19.836	1.924	0.485
975.501	568.813	80.003	19.995	103.110	19.839	1.723	0.536
976.000	569.076	80.004	19.994	103.118	19.839	1.743	0.549
976.500	569.330	80.004	19.994	103.124	19.839	1.706	0.526
977.000	569.591	80.002	19.995	103.123	19.839	1.702	0.516
977.500	569.834	80.003	19.995	103.124	19.841	1.607	0.510
978.000	570.064	80.003	19.994	103.127	19.841	1.557	0.489
978.500	570.357	80.003	19.995	103.121	19.841	1.602	0.498
979.000	570.613	80.003	19.994	103.119	19.841	1.566	0.535
979.500	570.863	80.003	19.994	103.119	19.840	1.661	0.527
980.000	571.096	80.003	19.995	103.122	19.839	1.730	0.495
980.500	571.382	80.002	19.994	103.123	19.841	1.622	0.501
981.000	571.613	80.003	19.994	103.125	19.839	1.756	0.518
981.500	571.879	80.002	19.995	103.123	19.840	1.691	0.507
982.000	572.147	80.004	19.995	103.123	19.839	1.764	0.516
982.500	572.389	80.003	19.995	103.120	19.837	1.835	0.522
983.000	572.691	80.003	19.995	103.118	19.840	1.671	0.527
983.500	572.934	80.002	19.994	103.114	19.840	1.673	0.544
984.001	573.174	80.003	19.993	103.113	19.841	1.613	0.514
984.500	573.411	80.002	19.995	103.110	19.837	1.883	0.480
985.000	573.687	80.003	19.993	103.110	19.839	1.744	0.496
985.500	573.926	80.002	19.995	103.109	19.837	1.865	0.514
986.000	574.165	80.003	19.995	103.108	19.841	1.568	0.496
986.500	574.452	80.002	19.995	103.109	19.839	1.756	0.502
987.000	574.660	80.003	19.995	103.111	19.837	1.851	0.511
987.500	574.964	80.003	19.995	103.111	19.841	1.598	0.504
988.000	575.222	80.003	19.994	103.110	19.840	1.663	0.537
988.500	575.473	80.002	19.994	103.110	19.837	1.851	0.536
989.000	575.680	80.003	19.994	103.110	19.838	1.782	0.484
989.500	575.987	80.002	19.994	103.109	19.839	1.751	0.486
990.000	576.229	80.002	19.995	103.108	19.837	1.889	0.532
990.500	576.442	80.002	19.994	103.108	19.839	1.738	0.503
991.000	576.702	80.002	19.994	103.107	19.839	1.736	0.464
991.500	576.993	80.002	19.994	103.106	19.841	1.600	0.512
992.000	577.202	80.003	19.996	103.107	19.839	1.756	0.525
992.500	577.483	80.003	19.994	103.107	19.839	1.714	0.495
993.000	577.716	80.004	19.994	103.107	19.839	1.756	0.502
993.500	577.926	80.003	19.994	103.108	19.836	1.930	0.478
994.000	578.198	80.004	19.994	103.110	19.837	1.889	0.462
994.500	578.428	80.002	19.994	103.114	19.837	1.898	0.492
995.000	578.672	80.004	19.994	103.119	19.840	1.661	0.489
995.500	578.962	80.004	19.994	103.121	19.840	1.674	0.504
996.000	579.177	80.003	19.994	103.121	19.837	1.864	0.519
996.500	579.433	80.004	19.994	103.118	19.839	1.697	0.488
997.000	579.698	80.003	19.994	103.113	19.839	1.697	0.496
997.500	579.906	80.001	19.994	103.110	19.838	1.822	0.497
998.000	580.162	80.003	19.993	103.108	19.842	1.505	0.469
998.500	580.379	80.002	19.995	103.109	19.839	1.710	0.469
999.000	580.622	80.003	19.994	103.108	19.840	1.663	0.466
999.500	580.905	80.002	19.995	103.109	19.837	1.892	0.493
1000.000	581.149	80.004	19.995	103.111	19.839	1.749	0.527
1000.500	581.404	80.004	19.994	103.112	19.839	1.714	0.513
1001.000	581.642	80.005	19.994	103.116	19.841	1.570	0.496
1001.500	581.892	80.004	19.995	103.117	19.842	1.555	0.490
1002.000	582.100	80.003	19.995	103.116	19.842	1.501	0.473
1002.500	582.404	80.003	19.995	103.112	19.843	1.423	0.485
1003.000	582.657	80.005	19.995	103.111	19.842	1.544	0.534
1003.500	582.879	80.004	19.995	103.109	19.843	1.458	0.516
1004.000	583.125	80.002	19.995	103.110	19.842	1.537	0.472
1004.500	583.391	80.002	19.996	103.112	19.843	1.438	0.490
1005.000	583.644	80.003	19.996	103.111	19.843	1.434	0.515
1005.500	583.825	80.004	19.995	103.109	19.841	1.598	0.476
1006.000	584.085	80.003	19.994	103.109	19.843	1.423	0.437
1006.500	584.331	80.003	19.996	103.109	19.845	1.298	0.474
1007.000	584.581	80.004	19.995	103.112	19.843	1.445	0.501
1007.500	584.811	80.004	19.996	103.115	19.843	1.442	0.488
1008.000	585.061	80.002	19.996	103.115	19.845	1.319	0.480
1008.500	585.321	80.003	19.994	103.113	19.843	1.443	0.495
1009.000	585.554	80.002	19.995	103.110	19.845	1.330	0.501
1009.500	585.778	80.004	19.998	103.106	19.843	1.481	0.475
1010.000	586.037	80.003	19.996	103.104	19.841	1.568	0.470
1010.500	586.281	80.003	19.996	103.105	19.846	1.263	0.493
1011.000	586.517	80.002	19.995	103.109	19.846	1.270	0.491
1011.500	586.756	80.002	19.995	103.115	19.844	1.358	0.478
1012.000	587.008	80.002	19.995	103.116	19.841	1.572	0.483
1012.500	587.272	80.002	19.996	103.119	19.845	1.332	0.503
1013.000	587.496	80.004	19.995	103.120	19.844	1.373	0.502
1013.500	587.751	80.003	19.995	103.121	19.842	1.497	0.484
1014.000	587.958	80.003	19.996	103.116	19.846	1.253	0.471
1014.500	588.227	80.002	19.995	103.113	19.845	1.339	0.469
1015.000	588.449	80.003	19.995	103.110	19.842	1.520	0.483
1015.500	588.709	80.003	19.996	103.108	19.845	1.322	0.486
1016.000	588.950	80.004	19.996	103.104	19.846	1.244	0.492
1016.500	589.201	80.003	19.996	103.104	19.844	1.412	0.497
1017.000	589.440	80.004	19.995	103.104	19.844	1.401	0.491
1017.500	589.696	80.004	19.995	103.104	19.845	1.302	0.492
1018.000	589.905	80.002	19.996	103.103	19.842	1.510	0.480
1018.500	590.206	80.003	19.995	103.104	19.843	1.434	0.488
1019.000	590.438	80.002	19.996	103.103	19.840	1.639	0.522
1019.500	590.655	80.004	19.996	103.102	19.842	1.507	0.491
1020.000	590.892	80.004	19.995	103.102	19.840	1.669	0.451
1020.500	591.119	80.004	19.996	103.102	19.843	1.445	0.459
1021.000	591.423	80.004	19.996	103.102	19.843	1.460	0.498
1021.500	591.630	80.005	19.995	103.103	19.842	1.531	0.521
1022.000	591.864	80.003	19.996	103.102	19.841	1.611	0.476
1022.500	592.108	80.004	19.995	103.102	19.843	1.428	0.460
1023.000	592.346	80.005	19.995	103.102	19.842	1.540	0.480
1023.501	592.612	80.006	19.994	103.101	19.841	1.579	0.492
1024.001	592.827	80.006	19.995	103.100	19.840	1.654	0.492
1024.500	593.070	80.004	19.995	103.101	19.844	1.374	0.470
1025.000	593.332	80.006	19.995	103.101	19.842	1.503	0.482
1025.500	593.570	80.005	19.994	103.102	19.841	1.581	0.502
1026.000	593.821	80.004	19.995	103.101	19.840	1.630	0.494
1026.500	594.064	80.007	19.995	103.103	19.842	1.555	0.492
1027.000	594.334	80.005	19.995	103.104	19.841	1.619	0.504
1027.500	594.566	80.006	19.995	103.104	19.840	1.637	0.507
1028.000	594.802	80.005	19.994	103.104	19.844	1.362	0.485
1028.500	595.073	80.005	19.995	103.104	19.841	1.607	0.488
1029.000	595.321	80.005	19.994	103.103	19.843	1.430	0.513
1029.500	595.566	80.004	19.995	103.102	19.843	1.451	0.506
1030.000	595.824	80.005	19.995	103.103	19.843	1.468	0.498
1030.500	596.089	80.004	19.995	103.106	19.844	1.414	0.513
1031.000	596.319	80.003	19.995	103.107	19.843	1.423	0.509
1031.500	596.559	80.003	19.995	103.107	19.841	1.613	0.482
1032.000	596.815	80.004	19.995	103.107	19.841	1.574	0.483
1032.500	597.047	80.004	19.995	103.107	19.845	1.347	0.493
1033.000	597.306	80.003	19.994	103.105	19.842	1.501	0.490
1033.500	597.525	80.004	19.995	103.104	19.843	1.466	0.484
1034.000	597.781	80.004	19.994	103.104	19.845	1.334	0.477
1034.500	598.022	80.003	19.994	103.104	19.843	1.421	0.486
1035.000	598.296	80.004	19.994	103.103	19.842	1.527	0.506
1035.500	598.514	80.005	19.994	103.104	19.846	1.246	0.503
1036.000	598.759	80.004	19.995	103.104	19.844	1.365	0.477
1036.500	599.023	80.003	19.995	103.105	19.843	1.482	0.486
1037.000	599.259	80.003	19.995	103.105	19.843	1.441	0.504
1037.500	599.496	80.003	19.996	103.105	19.844	1.389	0.486
1038.000	599.805	80.003	19.995	103.108	19.846	1.279	0.510
1038.500	600.043	80.003	19.994	103.108	19.845	1.289	0.547
1039.000	600.273	80.004	19.996	103.109	19.846	1.248	0.508
1039.500	600.519	80.003	19.995	103.111	19.844	1.393	0.472
1040.000	600.759	80.004	19.995	103.111	19.842	1.499	0.481
1040.500	601.012	80.004	19.996	103.108	19.845	1.347	0.490
1041.000	601.282	80.004	19.996	103.108	19.842	1.540	0.508
1041.500	601.541	80.003	19.995	103.109	19.844	1.404	0.526
1042.000	601.741	80.003	19.995	103.109	19.841	1.572	0.494
1042.500	602.025	80.003	19.995	103.108	19.843	1.482	0.471
1043.000	602.286	80.004	19.996	103.107	19.843	1.430	0.514
1043.500	602.531	80.003	19.995	103.107	19.845	1.341	0.525
1044.000	602.779	80.002	19.995	103.106	19.843	1.468	0.500
1044.500	603.059	80.004	19.995	103.105	19.844	1.378	0.511
1045.000	603.297	80.003	19.996	103.108	19.841	1.557	0.523
1045.500	603.552	80.004	19.994	103.109	19.844	1.404	0.505
1046.001	603.790	80.003	19.995	103.107	19.844	1.395	0.494
1046.500	604.069	80.005	19.996	103.106	19.842	1.503	0.505
1047.000	604.296	80.005	19.995	103.105	19.840	1.645	0.511
1047.500	604.536	80.005	19.996	103.102	19.843	1.460	0.487
1048.000	604.760	80.005	19.996	103.101	19.842	1.490	0.466
1048.500	605.032	80.005	19.996	103.102	19.841	1.572	0.480
1049.000	605.319	80.003	19.995	103.104	19.843	1.462	0.527
1049.500	605.575	80.004	19.995	103.104	19.841	1.598	0.551
1050.000	605.834	80.003	19.996	103.105	19.844	1.412	0.529
1050.500	606.047	80.005	19.995	103.105	19.841	1.617	0.493
1051.000	606.306	80.005	19.996	103.105	19.844	1.358	0.472
1051.500	606.588	80.004	19.995	103.103	19.844	1.375	0.506
1052.000	606.818	80.005	19.994	103.103	19.843	1.447	0.526
1052.500	607.084	80.005	19.995	103.103	19.839	1.706	0.504
1053.000	607.324	80.005	19.994	103.103	19.842	1.516	0.501
1053.500	607.637	80.005	19.995	103.103	19.841	1.581	0.530
1054.000	607.853	80.005	19.995	103.104	19.841	1.617	0.541
1054.500	608.113	80.005	19.995	103.104	19.843	1.464	0.502
1055.000	608.330	80.004	19.995	103.104	19.844	1.406	0.477
1055.500	608.630	80.004	19.994	103.105	19.843	1.442	0.497
1056.000	608.868	80.004	19.994	103.112	19.845	1.302	0.527
1056.500	609.162	80.004	19.995	103.111	19.842	1.535	0.535
1057.000	609.426	80.004	19.994	103.113	19.841	1.619	0.545
1057.500	609.687	80.004	19.995	103.114	19.841	1.583	0.541
1058.000	609.965	80.004	19.993	103.113	19.841	1.620	0.532
1058.500	610.219	80.003	19.995	103.108	19.844	1.352	0.536
1059.000	610.487	80.003	19.994	103.112	19.840	1.633	0.527
1059.500	610.724	80.003	19.993	103.115	19.842	1.536	0.514
1060.000	610.987	80.002	19.994	103.121	19.841	1.581	0.502
1060.500	611.249	80.004	19.995	103.128	19.841	1.591	0.512
1061.000	611.523	80.003	19.994	103.133	19.841	1.557	0.531
1061.500	611.786	80.005	19.994	103.131	19.840	1.661	0.537
1062.000	612.065	80.004	19.995	103.127	19.842	1.523	0.539
1062.500	612.313	80.004	19.994	103.121	19.841	1.594	0.534
1063.000	612.578	80.003	19.994	103.115	19.841	1.563	0.520
1063.500	612.854	80.003	19.994	103.111	19.841	1.566	0.527
1064.000	613.090	80.002	19.995	103.109	19.840	1.674	0.527
1064.500	613.416	80.003	19.994	103.110	19.843	1.483	0.538
1065.000	613.665	80.002	19.995	103.108	19.842	1.538	0.568
1065.500	613.924	80.002	19.994	103.107	19.840	1.650	0.541
1066.000	614.177	80.003	19.995	103.105	19.841	1.609	0.510
1066.500	614.483	80.004	19.995	103.107	19.840	1.669	0.536
1067.000	614.749	80.004	19.995	103.106	19.839	1.747	0.565
1067.500	615.027	80.004	19.995	103.106	19.842	1.505	0.558
1068.000	615.272	80.004	19.995	103.108	19.842	1.546	0.534
1068.500	615.578	80.003	19.995	103.108	19.837	1.848	0.537
1069.000	615.817	80.004	19.995	103.106	19.843	1.485	0.548
1069.500	616.088	80.003	19.995	103.105	19.842	1.555	0.528
1070.000	616.358	80.003	19.996	103.105	19.840	1.654	0.526
1070.500	616.588	80.003	19.995	103.103	19.841	1.602	0.520
1071.000	616.880	80.003	19.994	103.103	19.841	1.604	0.511
1071.500	617.143	80.004	19.994	103.104	19.842	1.510	0.538
1072.000	617.398	80.003	19.995	103.105	19.841	1.624	0.537
1072.500	617.679	80.004	19.994	103.105	19.844	1.382	0.527
1073.001	617.955	80.003	19.995	103.104	19.841	1.613	0.546
1073.500	618.220	80.004	19.995	103.108	19.842	1.544	0.549
1074.000	618.459	80.004	19.994	103.113	19.842	1.522	0.523
1074.500	618.749	80.003	19.995	103.114	19.844	1.386	0.516
1075.000	619.012	80.003	19.995	103.114	19.842	1.538	0.541
1075.500	619.289	80.005	19.994	103.113	19.839	1.710	0.546
1076.000	619.554	80.003	19.995	103.110	19.844	1.402	0.541
1076.500	619.810	80.004	19.995	103.106	19.842	1.494	0.532
1077.000	620.085	80.004	19.994	103.107	19.844	1.414	0.526
1077.500	620.347	80.005	19.994	103.113	19.846	1.259	0.534
1078.000	620.599	80.003	19.995	103.121	19.842	1.555	0.526
1078.500	620.919	80.004	19.995	103.120	19.845	1.295	0.543
1079.000	621.155	80.005	19.995	103.120	19.841	1.615	0.564
1079.500	621.421	80.006	19.995	103.119	19.844	1.416	0.529
1080.000	621.679	80.004	19.996	103.115	19.844	1.386	0.513
1080.500	621.934	80.005	19.995	103.110	19.843	1.453	0.518
1081.000	622.238	80.003	19.994	103.109	19.842	1.488	0.536
1081.500	622.490	80.003	19.995	103.107	19.841	1.589	0.558
1082.000	622.795	80.005	19.995	103.106	19.839	1.734	0.557
1082.500	623.028	80.004	19.995	103.104	19.844	1.354	0.547
1083.000	623.281	80.003	19.995	103.105	19.841	1.602	0.512
1083.500	623.585	80.005	19.995	103.106	19.842	1.552	0.521
1084.000	623.850	80.003	19.995	103.107	19.844	1.412	0.563
1084.500	624.126	80.003	19.995	103.109	19.841	1.619	0.555
1085.001	624.359	80.003	19.996	103.109	19.838	1.773	0.526
1085.500	624.641	80.003	19.995	103.107	19.838	1.792	0.512
1086.000	624.913	80.004	19.995	103.107	19.839	1.745	0.534
1086.500	625.174	80.001	19.995	103.108	19.839	1.712	0.544
1087.000	625.438	80.003	19.995	103.109	19.840	1.628	0.529
1087.500	625.687	80.003	19.995	103.113	19.843	1.475	0.519
1088.000	625.986	80.002	19.994	103.114	19.839	1.736	0.530
1088.500	626.219	80.003	19.996	103.114	19.839	1.740	0.540
1089.000	626.507	80.003	19.995	103.116	19.839	1.745	0.526
1089.500	626.773	80.003	19.995	103.115	19.839	1.764	0.538
1090.000	627.022	80.003	19.995	103.114	19.837	1.853	0.535
1090.500	627.333	80.003	19.996	103.115	19.839	1.751	0.537
1091.000	627.588	80.003	19.995	103.114	19.838	1.780	0.563
1091.500	627.830	80.002	19.995	103.110	19.839	1.745	0.531
1092.000	628.130	80.003	19.994	103.110	19.840	1.663	0.519
1092.500	628.409	80.004	19.995	103.109	19.843	1.438	0.560
1093.000	628.676	80.002	19.994	103.114	19.841	1.587	0.562
1093.500	628.889	80.002	19.994	103.116	19.843	1.464	0.513
1094.000	629.212	80.003	19.994	103.118	19.840	1.661	0.508
1094.500	629.467	80.002	19.994	103.117	19.837	1.868	0.557
1095.000	629.710	80.003	19.995	103.114	19.839	1.706	0.538
1095.500	629.989	80.003	19.995	103.108	19.839	1.756	0.510
1096.000	630.252	80.003	19.994	103.106	19.840	1.676	0.532
1096.500	630.496	80.004	19.995	103.105	19.839	1.758	0.525
1097.000	630.788	80.003	19.994	103.105	19.840	1.680	0.522
1097.500	631.066	80.003	19.994	103.104	19.839	1.743	0.553
1098.000	631.292	80.004	19.994	103.105	19.839	1.760	0.537
1098.500	631.528	80.003	19.994	103.105	19.838	1.803	0.483
1099.000	631.781	80.003	19.993	103.108	19.840	1.674	0.476
1099.500	632.054	80.003	19.994	103.108	19.839	1.706	0.508
1100.000	632.330	80.005	19.994	103.108	19.838	1.788	0.538
1100.500	632.639	80.004	19.994	103.108	19.837	1.853	0.567
1101.000	632.848	80.004	19.994	103.107	19.838	1.796	0.551
1101.500	633.101	80.005	19.994	103.104	19.839	1.706	0.490
1102.000	633.335	80.005	19.994	103.105	19.838	1.803	0.474
1102.500	633.640	80.005	19.994	103.106	19.837	1.866	0.513
1103.000	633.874	80.005	19.994	103.108	19.839	1.760	0.539
1103.500	634.175	80.005	19.994	103.112	19.838	1.771	0.537
1104.000	634.456	80.005	19.994	103.114	19.835	1.972	0.559
1104.500	634.687	80.006	19.994	103.113	19.841	1.563	0.547
1105.000	634.946	80.004	19.994	103.113	19.838	1.782	0.501
1105.500	635.225	80.006	19.995	103.111	19.839	1.708	0.514
1106.000	635.489	80.004	19.994	103.109	19.838	1.808	0.541
1106.500	635.757	80.003	19.995	103.109	19.839	1.712	0.537
1107.001	636.039	80.005	19.994	103.109	19.839	1.741	0.541
1107.500	636.291	80.004	19.994	103.107	19.838	1.773	0.542
1108.000	636.536	80.004	19.995	103.106	19.838	1.771	0.516
1108.500	636.823	80.005	19.995	103.103	19.839	1.741	0.515
1109.000	637.052	80.003	19.994	103.101	19.838	1.769	0.524
1109.500	637.320	80.005	19.997	103.101	19.839	1.721	0.506
1110.000	637.608	80.004	19.995	103.106	19.836	1.963	0.527
1110.500	637.823	80.004	19.995	103.110	19.837	1.842	0.530
1111.000	638.116	80.005	19.995	103.112	19.839	1.736	0.505
1111.500	638.355	80.004	19.994	103.114	19.840	1.682	0.520
1112.000	638.602	80.004	19.995	103.115	19.839	1.738	0.509
1112.500	638.862	80.003	19.995	103.112	19.835	2.011	0.497
1113.000	639.122	80.005	19.995	103.109	19.839	1.734	0.513
1113.500	639.415	80.003	19.996	103.108	19.837	1.848	0.537
1114.000	639.654	80.004	19.994	103.106	19.837	1.851	0.543
1114.500	639.924	80.004	19.995	103.104	19.840	1.672	0.520
1115.000	640.180	80.002	19.995	103.104	19.838	1.779	0.517
1115.500	640.436	80.003	19.996	103.104	19.835	2.002	0.519
1116.000	640.681	80.003	19.995	103.103	19.840	1.676	0.506
1116.500	640.946	80.004	19.995	103.103	19.840	1.645	0.505
1117.000	641.183	80.004	19.995	103.105	19.840	1.693	0.506
1117.500	641.434	80.004	19.995	103.105	19.841	1.563	0.495
1118.000	641.689	80.004	19.995	103.105	19.842	1.548	0.497
1118.500	641.998	80.004	19.996	103.105	19.842	1.512	0.535
1119.000	642.189	80.005	19.996	103.106	19.842	1.552	0.532
1119.500	642.497	80.004	19.994	103.105	19.839	1.714	0.499
1120.000	642.752	80.004	19.994	103.106	19.841	1.622	0.531
1120.500	642.989	80.004	19.994	103.106	19.841	1.617	0.528
1121.000	643.260	80.003	19.993	103.106	19.838	1.780	0.500
1121.500	643.472	80.003	19.995	103.105	19.842	1.544	0.495
1122.000	643.749	80.004	19.995	103.106	19.839	1.697	0.486
1122.500	643.992	80.004	19.994	103.105	19.841	1.594	0.505
1123.000	644.267	80.004	19.994	103.105	19.843	1.484	0.519
1123.500	644.461	80.004	19.995	103.105	19.844	1.414	0.493
1124.000	644.704	80.003	19.994	103.105	19.839	1.695	0.453
1124.500	645.014	80.004	19.994	103.105	19.844	1.412	0.495
1125.000	645.234	80.004	19.994	103.105	19.843	1.475	0.541
1125.501	645.463	80.004	19.995	103.105	19.840	1.641	0.489
1126.001	645.731	80.004	19.994	103.104	19.841	1.617	0.473
1126.500	645.987	80.005	19.994	103.104	19.841	1.600	0.511
1127.000	646.227	80.006	19.995	103.103	19.841	1.564	0.510
1127.500	646.452	80.005	19.996	103.103	19.838	1.816	0.480
1128.000	646.719	80.005	19.993	103.102	19.841	1.577	0.479
1128.501	646.995	80.005	19.993	103.107	19.840	1.641	0.518
1129.000	647.249	80.005	19.996	103.109	19.841	1.572	0.536
1129.500	647.470	80.005	19.996	103.114	19.839	1.754	0.503
1130.000	647.752	80.007	19.997	103.114	19.840	1.667	0.489
1130.500	648.011	80.005	19.996	103.114	19.841	1.590	0.522
1131.000	648.252	80.005	19.996	103.108	19.839	1.743	0.520
1131.500	648.517	80.006	19.995	103.106	19.842	1.542	0.503
1132.000	648.723	80.005	19.995	103.102	19.842	1.536	0.489
1132.500	649.005	80.007	19.995	103.101	19.843	1.473	0.479
1133.000	649.267	80.005	19.995	103.103	19.839	1.745	0.515
1133.500	649.509	80.005	19.995	103.106	19.840	1.626	0.524
1134.000	649.769	80.005	19.995	103.107	19.838	1.780	0.503
1134.500	650.020	80.005	19.995	103.106	19.839	1.719	0.507
1135.000	650.259	80.006	19.995	103.106	19.841	1.590	0.501
1135.500	650.516	80.006	19.994	103.104	19.841	1.572	0.493
1136.000	650.762	80.005	19.995	103.103	19.840	1.693	0.500
1136.500	651.014	80.005	19.995	103.102	19.843	1.479	0.500
1137.000	651.275	80.004	19.996	103.102	19.840	1.656	0.506
1137.500	651.539	80.005	19.996	103.103	19.841	1.574	0.519
1138.000	651.784	80.004	19.995	103.103	19.840	1.684	0.517
1138.500	652.025	80.004	19.995	103.102	19.840	1.685	0.497
1139.000	652.316	80.004	19.996	103.101	19.838	1.801	0.509
1139.500	652.524	80.004	19.995	103.100	19.837	1.859	0.515
1140.000	652.802	80.003	19.996	103.099	19.841	1.611	0.493
1140.500	653.010	80.003	19.996	103.099	19.840	1.667	0.486
1141.000	653.287	80.003	19.995	103.099	19.840	1.676	0.486
1141.500	653.547	80.003	19.995	103.099	19.838	1.829	0.511
1142.000	653.762	80.002	19.996	103.099	19.838	1.821	0.506
1142.500	654.048	80.002	19.996	103.099	19.841	1.572	0.488
1143.000	654.292	80.003	19.995	103.098	19.841	1.587	0.515
1143.500	654.547	80.002	19.995	103.096	19.843	1.432	0.514
1144.000	654.828	80.004	19.996	103.096	19.843	1.486	0.517
1144.500	655.063	80.002	19.996	103.096	19.842	1.542	0.526
1145.000	655.342	80.003	19.996	103.096	19.844	1.402	0.515
1145.500	655.607	80.001	19.996	103.097	19.841	1.600	0.529
1146.000	655.849	80.004	19.995	103.099	19.840	1.672	0.526
1146.500	656.087	80.003	19.994	103.100	19.840	1.684	0.494
1147.000	656.343	80.003	19.996	103.101	19.842	1.510	0.487
1147.500	656.578	80.003	19.996	103.102	19.842	1.548	0.492
1148.000	656.848	80.004	19.996	103.103	19.842	1.553	0.498
1148.501	657.076	80.003	19.996	103.103	19.842	1.518	0.502
1149.000	657.370	80.004	19.995	103.102	19.839	1.741	0.510
1149.500	657.580	80.004	19.995	103.101	19.842	1.523	0.513
1150.000	657.847	80.002	19.995	103.100	19.841	1.577	0.490
1150.500	658.111	80.004	19.995	103.100	19.841	1.577	0.504
1151.000	658.355	80.003	19.995	103.099	19.844	1.399	0.520
1151.500	658.617	80.004	19.994	103.097	19.843	1.449	0.507
1152.000	658.844	80.005	19.995	103.097	19.843	1.486	0.498
1152.500	659.092	80.004	19.994	103.098	19.841	1.570	0.482
1153.000	659.338	80.004	19.995	103.098	19.838	1.769	0.485
1153.500	659.560	80.005	19.994	103.100	19.843	1.460	0.481
1154.000	659.887	80.003	19.995	103.102	19.844	1.393	0.508
1154.500	660.108	80.004	19.994	103.102	19.841	1.609	0.548
1155.000	660.347	80.003	19.995	103.101	19.840	1.665	0.504
1155.500	660.606	80.004	19.994	103.100	19.841	1.598	0.480
1156.000	660.869	80.003	19.994	103.097	19.844	1.382	0.510
1156.500	661.135	80.005	19.995	103.097	19.842	1.535	0.525
1157.000	661.405	80.003	19.995	103.097	19.844	1.354	0.532
1157.500	661.626	80.005	19.995	103.098	19.841	1.563	0.513
1158.000	661.885	80.003	19.994	103.099	19.844	1.395	0.486
1158.500	662.136	80.004	19.995	103.101	19.843	1.460	0.496
1159.000	662.404	80.002	19.995	103.101	19.842	1.516	0.515
1159.500	662.662	80.003	19.994	103.102	19.845	1.345	0.522
1160.000	662.900	80.005	19.994	103.102	19.842	1.492	0.511
1160.500	663.145	80.002	19.994	103.103	19.842	1.542	0.489
1161.000	663.405	80.002	19.994	103.104	19.840	1.650	0.494
1161.500	663.667	80.003	19.995	103.104	19.842	1.538	0.514
1162.000	663.906	80.004	19.994	103.103	19.843	1.451	0.511
1162.500	664.153	80.003	19.995	103.103	19.843	1.453	0.493
1163.000	664.398	80.004	19.994	103.103	19.842	1.538	0.489
1163.500	664.669	80.004	19.995	103.103	19.843	1.451	0.504
1164.000	664.922	80.003	19.995	103.104	19.843	1.451	0.520
1164.500	665.184	80.002	19.995	103.105	19.844	1.384	0.520
1165.000	665.448	80.004	19.995	103.105	19.843	1.477	0.520
1165.500	665.705	80.004	19.994	103.105	19.839	1.708	0.523
1166.000	665.931	80.003	19.994	103.105	19.841	1.572	0.502
1166.500	666.191	80.003	19.994	103.104	19.841	1.557	0.485
1167.000	666.384	80.002	19.994	103.101	19.839	1.706	0.469
1167.500	666.711	80.003	19.995	103.102	19.838	1.775	0.486
1168.000	666.981	80.002	19.994	103.102	19.839	1.721	0.559
1168.500	667.183	80.003	19.994	103.103	19.840	1.635	0.535
1169.000	667.463	80.002	19.995	103.103	19.839	1.715	0.476
1169.500	667.700	80.003	19.994	103.104	19.839	1.700	0.499
1170.000	667.977	80.002	19.994	103.104	19.839	1.730	0.516
1170.500	668.218	80.002	19.995	103.104	19.840	1.684	0.517
1171.000	668.486	80.002	19.994	103.103	19.841	1.591	0.514
1171.500	668.724	80.002	19.995	103.104	19.840	1.667	0.508
1172.000	668.971	80.004	19.995	103.103	19.843	1.486	0.496
1172.500	669.274	80.002	19.996	103.103	19.839	1.760	0.517
1173.000	669.517	80.003	19.996	103.104	19.841	1.604	0.548
1173.500	669.711	80.002	19.994	103.104	19.840	1.641	0.492
1174.000	669.978	80.002	19.995	103.104	19.843	1.447	0.449
1174.500	670.240	80.002	19.994	103.104	19.841	1.578	0.495
1175.000	670.466	80.002	19.995	103.104	19.840	1.632	0.508
1175.500	670.731	80.002	19.994	103.104	19.842	1.514	0.489
1176.000	670.985	80.002	19.995	103.104	19.840	1.637	0.505
1176.500	671.261	80.001	19.994	103.103	19.838	1.770	0.525
1177.000	671.481	80.000	19.995	103.104	19.840	1.693	0.514
1177.500	671.746	80.003	19.996	103.104	19.843	1.455	0.490
1178.000	672.008	80.002	19.995	103.104	19.840	1.630	0.505
1178.500	672.274	80.002	19.994	103.105	19.840	1.630	0.527
1179.000	672.528	80.000	19.995	103.106	19.842	1.499	0.524
1179.500	672.782	80.003	19.995	103.107	19.844	1.393	0.514
1180.000	673.016	80.002	19.995	103.108	19.840	1.672	0.498
1180.500	673.278	80.003	19.995	103.108	19.840	1.669	0.492
1181.000	673.500	80.004	19.995	103.108	19.842	1.518	0.490
1181.500	673.785	80.001	19.995	103.106	19.840	1.674	0.496
1182.000	673.984	80.004	19.994	103.106	19.840	1.659	0.496
1182.500	674.280	80.003	19.995	103.105	19.841	1.589	0.490
1183.000	674.574	80.004	19.994	103.105	19.841	1.590	0.543
1183.500	674.801	80.003	19.995	103.105	19.841	1.592	0.555
1184.000	675.084	80.004	19.996	103.105	19.842	1.501	0.515
1184.500	675.323	80.002	19.994	103.106	19.842	1.555	0.516
1185.000	675.598	80.004	19.994	103.109	19.843	1.481	0.518
1185.500	675.834	80.003	19.994	103.111	19.842	1.516	0.513
1186.000	676.129	80.005	19.994	103.114	19.842	1.503	0.521
1186.500	676.444	80.005	19.994	103.116	19.843	1.449	0.571
1187.000	676.608	80.006	19.993	103.117	19.842	1.555	0.545
1187.500	676.849	80.004	19.995	103.118	19.842	1.537	0.442
1188.000	677.108	80.004	19.994	103.124	19.841	1.596	0.453
1188.500	677.343	80.004	19.994	103.122	19.839	1.727	0.497
1189.000	677.616	80.005	19.995	103.121	19.841	1.585	0.501
1189.500	677.878	80.006	19.994	103.119	19.839	1.717	0.521
1190.000	678.102	80.006	19.993	103.114	19.838	1.782	0.511
1190.500	678.365	80.004	19.994	103.106	19.836	1.913	0.487
1191.000	678.598	80.002	19.995	103.105	19.837	1.846	0.491
1191.500	678.891	80.005	19.995	103.106	19.837	1.849	0.511
1192.000	679.129	80.005	19.994	103.105	19.839	1.717	0.529
1192.500	679.375	80.005	19.995	103.105	19.838	1.799	0.507
1193.000	679.625	80.004	19.995	103.103	19.839	1.717	0.490
1193.500	679.886	80.004	19.994	103.102	19.838	1.827	0.504
1194.001	680.140	80.003	19.994	103.102	19.838	1.777	0.513
1194.500	680.387	80.004	19.995	103.101	19.841	1.617	0.508
1195.000	680.645	80.004	19.995	103.101	19.839	1.739	0.503
1195.500	680.899	80.004	19.995	103.105	19.839	1.762	0.509
1196.000	681.137	80.002	19.994	103.105	19.838	1.767	0.502
1196.500	681.398	80.004	19.994	103.103	19.835	2.013	0.496
1197.000	681.646	80.003	19.994	103.105	19.839	1.698	0.504
1197.500	681.894	80.003	19.994	103.108	19.839	1.758	0.503
1198.000	682.131	80.004	19.996	103.109	19.839	1.702	0.491
1198.500	682.370	80.004	19.995	103.109	19.841	1.624	0.481
1199.000	682.652	80.004	19.995	103.110	19.835	1.987	0.498
1199.500	682.880	80.004	19.996	103.109	19.838	1.777	0.515
1200.000	683.140	80.005	19.996	103.107	19.841	1.615	0.499
1200.500	683.379	80.005	19.995	103.104	19.838	1.793	0.494
1201.000	683.625	80.005	19.995	103.105	19.837	1.851	0.492
1201.500	683.886	80.004	19.996	103.105	19.837	1.868	0.496
1202.000	684.104	80.004	19.996	103.104	19.839	1.762	0.493
1202.500	684.380	80.003	19.996	103.103	19.837	1.881	0.487
1203.000	684.634	80.005	19.995	103.103	19.837	1.896	0.512
1203.500	684.870	80.003	19.996	103.102	19.836	1.909	0.510
1204.000	685.129	80.005	19.995	103.101	19.837	1.872	0.493
1204.500	685.338	80.005	19.995	103.101	19.838	1.816	0.481
1205.000	685.582	80.004	19.996	103.101	19.834	2.106	0.460
1205.500	685.836	80.003	19.996	103.101	19.837	1.857	0.476
1206.000	686.076	80.005	19.995	103.102	19.835	1.987	0.497
1206.500	686.307	80.008	19.996	103.102	19.836	1.965	0.483
1207.000	686.596	80.006	19.996	103.102	19.835	1.984	0.495
1207.501	686.853	80.005	19.995	103.101	19.838	1.786	0.533
1208.000	687.049	80.005	19.996	103.101	19.837	1.849	0.500
1208.500	687.302	80.005	19.995	103.101	19.837	1.836	0.451
1209.000	687.569	80.007	19.996	103.101	19.840	1.691	0.484
1209.500	687.807	80.005	19.995	103.101	19.837	1.874	0.512
1210.000	688.069	80.005	19.995	103.102	19.837	1.834	0.503
1210.500	688.311	80.005	19.995	103.102	19.838	1.792	0.503
1211.000	688.535	80.007	19.996	103.102	19.835	1.974	0.485
1211.500	688.807	80.006	19.994	103.103	19.841	1.583	0.481
1212.000	689.059	80.006	19.995	103.103	19.843	1.473	0.510
1212.500	689.288	80.006	19.995	103.102	19.837	1.849	0.503
1213.000	689.537	80.007	19.994	103.102	19.841	1.607	0.479
1213.500	689.799	80.007	19.994	103.102	19.839	1.713	0.494
1214.000	690.041	80.006	19.994	103.102	19.839	1.745	0.508
1214.500	690.278	80.007	19.995	103.103	19.839	1.699	0.492
1215.000	690.517	80.006	19.995	103.103	19.839	1.708	0.477
1215.500	690.794	80.007	19.995	103.103	19.839	1.747	0.496
1216.000	691.060	80.006	19.995	103.104	19.836	1.915	0.530
1216.500	691.277	80.006	19.996	103.103	19.839	1.702	0.513
1217.000	691.534	80.005	19.995	103.104	19.840	1.671	0.478
1217.500	691.779	80.005	19.996	103.103	19.842	1.551	0.488
1218.000	692.051	80.006	19.995	103.106	19.841	1.613	0.509
1218.500	692.283	80.004	19.995	103.105	19.840	1.685	0.510
1219.000	692.546	80.005	19.995	103.106	19.842	1.550	0.499
1219.500	692.774	80.005	19.995	103.106	19.839	1.697	0.493
1220.000	693.040	80.004	19.996	103.106	19.840	1.635	0.493
1220.500	693.314	80.004	19.995	103.105	19.844	1.406	0.517
1221.000	693.503	80.004	19.995	103.104	19.839	1.721	0.501
1221.500	693.811	80.003	19.995	103.103	19.839	1.723	0.480
1222.000	694.073	80.001	19.996	103.103	19.841	1.589	0.534
1222.500	694.348	80.003	19.996	103.103	19.842	1.542	0.554
1223.000	694.589	80.002	19.996	103.101	19.841	1.622	0.526
1223.500	694.835	80.003	19.996	103.101	19.839	1.704	0.502
1224.000	695.098	80.002	19.995	103.101	19.843	1.455	0.498
1224.500	695.376	80.003	19.995	103.102	19.839	1.704	0.525
1225.000	695.553	80.000	19.996	103.102	19.843	1.466	0.498
1225.500	695.896	80.002	19.996	103.103	19.838	1.779	0.487
1226.000	696.162	80.003	19.995	103.103	19.837	1.875	0.564
1226.500	696.428	80.002	19.995	103.104	19.840	1.637	0.571
1227.000	696.666	80.003	19.995	103.103	19.837	1.872	0.519
1227.500	696.914	80.005	19.996	103.102	19.837	1.842	0.495
1228.000	697.192	80.003	19.995	103.101	19.837	1.844	0.506
1228.500	697.416	80.003	19.995	103.101	19.840	1.665	0.513
1229.000	697.691	80.003	19.996	103.102	19.836	1.913	0.500
1229.500	697.936	80.001	19.996	103.102	19.838	1.816	0.510
1230.000	698.224	80.003	19.997	103.104	19.838	1.788	0.527
1230.500	698.457	80.001	19.996	103.105	19.839	1.708	0.527
1231.000	698.737	80.003	19.995	103.105	19.840	1.676	0.517
1231.501	698.976	80.002	19.996	103.104	19.841	1.574	0.516
1232.000	699.245	80.003	19.995	103.104	19.840	1.676	0.514
1232.500	699.511	80.003	19.996	103.103	19.841	1.587	0.522
1233.000	699.740	80.001	19.996	103.103	19.839	1.732	0.515
1233.500	700.041	80.003	19.995	103.103	19.840	1.650	0.512
1234.000	700.258	80.001	19.997	103.103	19.838	1.801	0.524
1234.500	700.527	80.002	19.995	103.103	19.839	1.741	0.503
1235.000	700.789	80.003	19.995	103.103	19.840	1.663	0.509
1235.500	701.044	80.003	19.996	103.103	19.841	1.566	0.524
1236.000	701.276	80.002	19.995	103.103	19.839	1.702	0.502
1236.500	701.582	80.000	19.996	103.103	19.838	1.801	0.512
1237.000	701.789	80.004	19.997	103.103	19.839	1.734	0.526
1237.501	702.064	80.003	19.996	103.104	19.840	1.643	0.498
1238.000	702.332	80.000	19.996	103.104	19.840	1.633	0.513
1238.500	702.584	80.002	19.996	103.105	19.839	1.704	0.531
1239.000	702.831	80.003	19.995	103.105	19.840	1.663	0.509
1239.500	703.074	80.003	19.996	103.104	19.837	1.879	0.494
1240.000	703.325	80.005	19.996	103.105	19.839	1.697	0.492
1240.500	703.580	80.003	19.995	103.104	19.840	1.639	0.500
1241.000	703.844	80.002	19.995	103.104	19.839	1.730	0.512
1241.500	704.069	80.004	19.995	103.105	19.842	1.529	0.504
1242.000	704.328	80.003	19.995	103.105	19.840	1.626	0.487
1242.500	704.578	80.004	19.995	103.104	19.841	1.615	0.497
1243.000	704.854	80.003	19.995	103.104	19.843	1.470	0.518
1243.500	705.105	80.005	19.995	103.104	19.837	1.861	0.526
1244.000	705.354	80.003	19.996	103.104	19.841	1.605	0.513
1244.500	705.646	80.004	19.994	103.104	19.840	1.626	0.521
1245.000	705.901	80.005	19.994	103.104	19.841	1.585	0.544
1245.500	706.133	80.004	19.995	103.103	19.840	1.630	0.517
1246.000	706.386	80.004	19.996	103.102	19.842	1.503	0.486
1246.500	706.637	80.003	19.995	103.103	19.839	1.702	0.494
1247.000	706.870	80.004	19.994	103.103	19.837	1.861	0.494
1247.500	707.151	80.004	19.993	103.102	19.839	1.695	0.499
1248.000	707.400	80.004	19.994	103.103	19.839	1.697	0.522
1248.500	707.671	80.003	19.994	103.104	19.841	1.622	0.525
1249.000	707.909	80.004	19.995	103.105	19.841	1.572	0.515
1249.500	708.161	80.004	19.994	103.105	19.839	1.760	0.499
1250.000	708.435	80.003	19.995	103.106	19.838	1.790	0.507
1250.500	708.669	80.004	19.995	103.108	19.840	1.661	0.517
1251.000	708.927	80.003	19.995	103.108	19.843	1.473	0.500
1251.500	709.197	80.003	19.994	103.108	19.838	1.803	0.510
1252.000	709.442	80.003	19.995	103.108	19.841	1.579	0.522
1252.500	709.713	80.005	19.995	103.110	19.839	1.723	0.515
1253.000	709.954	80.004	19.995	103.109	19.840	1.645	0.514
1253.500	710.177	80.005	19.994	103.108	19.843	1.434	0.488
1254.000	710.451	80.003	19.995	103.108	19.841	1.618	0.480
1254.500	710.711	80.003	19.994	103.107	19.842	1.499	0.516
1255.000	710.960	80.003	19.996	103.106	19.838	1.833	0.521
1255.500	711.233	80.003	19.995	103.106	19.843	1.469	0.515
1256.000	711.506	80.004	19.996	103.106	19.839	1.751	0.534
1256.500	711.745	80.004	19.995	103.106	19.842	1.553	0.529
1257.000	711.983	80.003	19.994	103.107	19.840	1.648	0.494
1257.500	712.214	80.004	19.995	103.106	19.843	1.469	0.473
1258.000	712.527	80.002	19.994	103.105	19.840	1.674	0.506
1258.500	712.778	80.004	19.995	103.102	19.840	1.659	0.554
1259.000	713.023	80.003	19.995	103.101	19.839	1.760	0.531
1259.500	713.278	80.003	19.994	103.100	19.842	1.527	0.498
1260.000	713.553	80.004	19.994	103.100	19.838	1.831	0.514
1260.500	713.780	80.004	19.995	103.101	19.841	1.577	0.516
1261.000	714.037	80.003	19.995	103.102	19.843	1.428	0.493
1261.500	714.296	80.003	19.995	103.103	19.840	1.639	0.500
1262.000	714.558	80.004	19.996	103.103	19.845	1.335	0.519
1262.500	714.826	80.004	19.995	103.103	19.838	1.786	0.525
1263.000	715.076	80.003	19.994	103.103	19.841	1.622	0.524
1263.500	715.316	80.004	19.995	103.103	19.839	1.704	0.504
1264.000	715.591	80.004	19.995	103.103	19.841	1.620	0.502
1264.500	715.846	80.005	19.994	103.103	19.843	1.421	0.522
1265.000	716.088	80.004	19.994	103.106	19.841	1.618	0.514
1265.500	716.337	80.005	19.995	103.107	19.842	1.527	0.494
1266.000	716.573	80.006	19.994	103.107	19.842	1.535	0.488
1266.500	716.857	80.006	19.996	103.107	19.843	1.464	0.502
1267.000	717.116	80.005	19.994	103.107	19.841	1.557	0.531
1267.500	717.338	80.004	19.995	103.104	19.841	1.620	0.512
1268.000	717.627	80.005	19.995	103.102	19.843	1.477	0.496
1268.500	717.851	80.004	19.995	103.102	19.843	1.428	0.512
1269.000	718.093	80.006	19.996	103.102	19.841	1.594	0.490
1269.500	718.378	80.005	19.994	103.102	19.840	1.676	0.497
1270.000	718.631	80.005	19.995	103.102	19.839	1.697	0.533
1270.500	718.872	80.006	19.994	103.103	19.840	1.691	0.516
1271.000	719.115	80.006	19.994	103.102	19.840	1.637	0.489
1271.500	719.350	80.005	19.995	103.103	19.840	1.671	0.481
1272.000	719.623	80.006	19.995	103.104	19.842	1.542	0.493
1272.500	719.889	80.004	19.994	103.103	19.843	1.477	0.523
1273.000	720.147	80.006	19.995	103.105	19.841	1.605	0.531
1273.500	720.392	80.006	19.994	103.105	19.841	1.557	0.514
1274.000	720.636	80.007	19.994	103.104	19.838	1.773	0.496
1274.500	720.911	80.006	19.994	103.103	19.838	1.784	0.504
1275.000	721.139	80.006	19.996	103.103	19.838	1.812	0.511
1275.500	721.374	80.007	19.994	103.101	19.840	1.639	0.483
1276.001	721.596	80.005	19.995	103.102	19.843	1.421	0.460
1276.500	721.883	80.004	19.995	103.102	19.842	1.527	0.483
1277.000	722.126	80.005	19.995	103.103	19.840	1.693	0.519
1277.500	722.427	80.006	19.994	103.104	19.839	1.708	0.536
1278.000	722.655	80.007	19.994	103.104	19.839	1.698	0.537
1278.500	722.877	80.006	19.994	103.104	19.839	1.723	0.490
1279.000	723.150	80.006	19.995	103.103	19.840	1.658	0.472
1279.500	723.415	80.005	19.994	103.103	19.842	1.535	0.516
1280.000	723.654	80.006	19.994	103.103	19.841	1.570	0.521
1280.500	723.892	80.006	19.995	103.102	19.841	1.600	0.491
1281.000	724.174	80.004	19.994	103.102	19.842	1.551	0.499
1281.500	724.412	80.006	19.995	103.102	19.836	1.922	0.520
1282.000	724.639	80.007	19.995	103.102	19.841	1.607	0.492
1282.500	724.916	80.005	19.995	103.102	19.839	1.704	0.484
1283.000	725.160	80.005	19.995	103.103	19.841	1.574	0.512
1283.500	725.404	80.005	19.994	103.103	19.839	1.711	0.504
1284.000	725.627	80.006	19.994	103.103	19.840	1.657	0.478
1284.500	725.881	80.006	19.994	103.102	19.842	1.525	0.472
1285.000	726.158	80.006	19.995	103.102	19.840	1.671	0.504
1285.500	726.416	80.006	19.994	103.102	19.838	1.784	0.533
1286.000	726.668	80.006	19.995	103.102	19.840	1.633	0.523
1286.500	726.888	80.005	19.994	103.102	19.841	1.585	0.492
1287.000	727.141	80.005	19.995	103.101	19.840	1.633	0.473
1287.500	727.426	80.006	19.994	103.102	19.840	1.645	0.505
1288.000	727.664	80.005	19.995	103.102	19.841	1.591	0.530
1288.500	727.901	80.007	19.994	103.101	19.839	1.728	0.499
1289.000	728.143	80.007	19.995	103.101	19.840	1.682	0.477
1289.500	728.378	80.005	19.994	103.101	19.841	1.561	0.478
1290.000	728.652	80.008	19.994	103.101	19.840	1.659	0.493
1290.500	728.875	80.006	19.995	103.100	19.839	1.758	0.503
1291.000	729.129	80.006	19.995	103.097	19.842	1.550	0.487
1291.500	729.386	80.005	19.994	103.095	19.839	1.749	0.494
1292.000	729.606	80.007	19.995	103.093	19.838	1.801	0.494
1292.500	729.859	80.007	19.995	103.091	19.838	1.780	0.475
1293.000	730.133	80.008	19.995	103.091	19.840	1.667	0.500
1293.500	730.381	80.007	19.995	103.095	19.842	1.520	0.525
1294.000	730.658	80.007	19.995	103.097	19.841	1.589	0.524
1294.500	730.861	80.005	19.995	103.097	19.841	1.559	0.502
1295.000	731.127	80.007	19.995	103.099	19.843	1.429	0.474
1295.500	731.381	80.008	19.994	103.100	19.842	1.548	0.494
1296.000	731.654	80.007	19.995	103.101	19.844	1.393	0.524
1296.500	731.869	80.007	19.994	103.101	19.840	1.686	0.507
1297.000	732.116	80.007	19.994	103.103	19.842	1.520	0.475
1297.500	732.383	80.007	19.995	103.103	19.840	1.626	0.488
1298.000	732.625	80.004	19.994	103.103	19.842	1.503	0.511
1298.500	732.886	80.004	19.995	103.104	19.842	1.553	0.506
1299.000	733.127	80.006	19.995	103.104	19.842	1.497	0.503
1299.500	733.360	80.004	19.995	103.103	19.838	1.766	0.488
1300.000	733.648	80.005	19.994	103.103	19.843	1.427	0.498
1300.500	733.884	80.005	19.994	103.106	19.839	1.753	0.522
1301.000	734.144	80.003	19.994	103.107	19.840	1.665	0.509
1301.500	734.405	80.004	19.995	103.107	19.841	1.563	0.508
1302.000	734.658	80.005	19.996	103.108	19.842	1.535	0.518
1302.500	734.922	80.003	19.995	103.107	19.842	1.497	0.515
1303.000	735.198	80.004	19.994	103.105	19.843	1.421	0.528
1303.500	735.426	80.003	19.995	103.104	19.840	1.633	0.522
1304.001	735.678	80.004	19.995	103.104	19.840	1.630	0.492
1304.500	735.927	80.002	19.995	103.103	19.843	1.481	0.490
1305.000	736.201	80.005	19.996	103.105	19.840	1.686	0.512
1305.500	736.452	80.004	19.996	103.105	19.839	1.751	0.524
1306.000	736.713	80.003	19.995	103.106	19.841	1.600	0.518
1306.500	736.957	80.004	19.995	103.107	19.840	1.691	0.509
1307.000	737.248	80.004	19.995	103.107	19.840	1.654	0.520
1307.500	737.517	80.003	19.994	103.106	19.841	1.617	0.548
1308.000	737.810	80.004	19.995	103.107	19.842	1.527	0.561
1308.500	738.044	80.003	19.995	103.107	19.840	1.680	0.544
1309.000	738.315	80.004	19.996	103.107	19.841	1.607	0.515
1309.500	738.575	80.004	19.997	103.107	19.840	1.667	0.518
1310.000	738.818	80.004	19.995	103.107	19.844	1.415	0.518
1310.500	739.124	80.004	19.996	103.107	19.838	1.781	0.526
1311.000	739.394	80.003	19.995	103.106	19.839	1.743	0.562
1311.500	739.679	80.003	19.996	103.105	19.838	1.779	0.566
1312.000	739.923	80.003	19.995	103.106	19.839	1.717	0.543
1312.500	740.174	80.003	19.995	103.106	19.836	1.926	0.512
1313.000	740.436	80.004	19.995	103.107	19.840	1.650	0.504
1313.500	740.715	80.005	19.996	103.107	19.840	1.639	0.526
1314.000	740.968	80.004	19.994	103.107	19.841	1.572	0.536
1314.500	741.246	80.004	19.997	103.106	19.842	1.512	0.531
1315.000	741.535	80.004	19.995	103.107	19.840	1.682	0.549
1315.500	741.800	80.004	19.996	103.106	19.841	1.604	0.561
1316.000	742.052	80.002	19.994	103.106	19.841	1.624	0.535
1316.500	742.315	80.003	19.995	103.107	19.841	1.602	0.516
1317.000	742.585	80.004	19.995	103.107	19.840	1.637	0.524
1317.500	742.896	80.004	19.996	103.107	19.840	1.685	0.557
1318.000	743.116	80.003	19.995	103.107	19.840	1.652	0.556
1318.500	743.406	80.001	19.995	103.107	19.839	1.699	0.521
