Sample ID:	C:\MCC\MCC Cal\Test\Wool_Rug\Wool_Rug_MCC_30K_min_211116_R4.txt
Sample Weight (mg):	4.85
Heating Rate (C/s):	0.5
Combustor Temp (C):	900
N2 Flow Rate (cc/min):	80
O2 Flow Rate (cc/min):	20
Calibration File:	C:\MCC\MCC Cal\Coeff1 JN10440_30_210304.txt.txt
T Correction Coefficients:	0	1.024463	0
Time Shift (s):	14
*
Time (s)	Temperature (C)	N2 flow rate (cc/min)	O2 flow rate (cc/min)	Flow Rate (cc/min)	Oxygen (%)	HRR (W/g)	Heating rate (C/s)
0.000	110.566	80.006	19.998	103.091	20.002	0.007	0.006
0.500	110.568	80.007	19.996	103.094	20.002	-0.029	0.004
1.000	110.583	80.007	19.997	103.096	20.001	0.040	0.010
1.500	110.552	80.007	19.996	103.096	20.000	0.119	0.000
2.000	110.585	80.008	19.995	103.096	20.003	-0.067	-0.007
2.500	110.592	80.006	19.995	103.090	20.004	-0.108	0.021
3.000	110.609	80.006	19.995	103.089	20.001	0.038	0.032
3.500	110.522	80.007	19.995	103.089	20.000	0.146	-0.023
4.000	110.601	80.008	19.995	103.089	20.002	0.013	-0.038
4.500	110.575	80.007	19.996	103.089	20.001	0.085	0.022
5.000	110.542	80.006	19.997	103.094	20.002	0.000	-0.004
5.500	110.533	80.007	19.998	103.095	20.004	-0.135	-0.051
6.000	110.550	80.007	19.996	103.095	20.001	0.052	-0.017
6.500	110.528	80.008	19.996	103.095	20.000	0.162	0.001
7.000	110.528	80.005	19.997	103.095	20.001	0.097	-0.013
7.500	110.498	80.007	19.995	103.096	20.004	-0.099	-0.026
8.000	110.526	80.006	19.997	103.101	20.001	0.076	-0.016
8.500	110.518	80.007	19.995	103.107	19.999	0.213	0.009
9.000	110.531	80.007	19.996	103.110	20.000	0.137	0.013
9.500	110.517	80.009	19.997	103.115	19.999	0.169	0.002
10.000	110.568	80.007	19.995	103.119	20.000	0.119	0.018
10.500	110.548	80.008	19.996	103.115	20.000	0.124	0.034
11.000	110.575	80.006	19.995	103.109	19.998	0.288	0.019
11.500	110.555	80.008	19.996	103.106	19.998	0.251	0.007
12.000	110.521	80.008	19.996	103.109	20.000	0.123	-0.023
12.500	110.541	80.009	19.995	103.097	20.001	0.081	-0.034
13.000	110.533	80.008	19.996	103.075	19.996	0.371	-0.001
13.500	110.520	80.008	19.996	103.057	20.000	0.164	-0.005
14.000	110.524	80.009	19.995	103.046	19.998	0.287	-0.015
14.500	110.524	80.009	19.995	103.030	20.000	0.112	-0.003
15.000	110.530	80.010	19.995	103.030	19.999	0.188	0.005
15.500	110.530	80.009	19.996	103.064	19.998	0.301	0.007
16.000	110.519	80.009	19.996	103.104	20.002	0.020	-0.002
16.500	110.558	80.009	19.995	103.122	20.001	0.054	0.008
17.000	110.550	80.008	19.996	103.130	20.001	0.083	0.029
17.500	110.537	80.007	19.995	103.137	20.001	0.054	0.005
18.000	110.553	80.010	19.996	103.122	19.998	0.242	-0.009
18.501	110.570	80.008	19.996	103.097	20.000	0.153	0.018
19.000	110.578	80.010	19.995	103.083	20.000	0.124	0.029
19.500	110.572	80.008	19.995	103.079	20.001	0.087	0.014
20.001	110.538	80.008	19.996	103.078	20.001	0.056	-0.019
20.500	110.523	80.008	19.995	103.080	20.004	-0.130	-0.044
21.000	110.519	80.010	19.995	103.084	20.001	0.090	-0.034
21.500	110.539	80.010	19.995	103.086	20.003	-0.070	-0.001
22.000	110.512	80.008	19.995	103.085	20.003	-0.070	0.004
22.500	110.556	80.008	19.995	103.083	20.002	0.025	0.005
23.000	110.545	80.007	19.994	103.083	20.003	-0.058	0.025
23.500	110.545	80.006	19.995	103.083	20.005	-0.209	0.011
24.000	110.527	80.007	19.995	103.088	20.002	-0.025	-0.014
24.500	110.526	80.006	19.995	103.093	20.002	-0.014	-0.019
25.001	110.539	80.007	19.994	103.096	20.002	-0.007	-0.004
25.501	110.509	80.006	19.994	103.096	20.004	-0.142	-0.003
26.000	110.497	80.006	19.995	103.096	20.004	-0.144	-0.030
26.500	110.543	80.007	19.994	103.095	20.003	-0.087	-0.004
27.000	110.548	80.007	19.995	103.093	20.004	-0.141	0.043
27.500	110.520	80.007	19.996	103.093	20.004	-0.160	0.014
28.000	110.573	80.006	19.994	103.092	20.003	-0.070	0.001
28.500	110.567	80.007	19.996	103.088	20.003	-0.092	0.036
29.000	110.550	80.006	19.994	103.087	20.004	-0.144	0.012
29.500	110.533	80.005	19.995	103.087	20.006	-0.249	-0.028
30.000	110.531	80.007	19.995	103.084	20.004	-0.142	-0.027
30.500	110.520	80.005	19.996	103.084	20.005	-0.216	-0.016
31.000	110.556	80.006	19.994	103.089	20.006	-0.265	0.006
31.500	110.530	80.006	19.994	103.092	20.005	-0.182	0.018
32.000	110.518	80.006	19.994	103.094	20.005	-0.182	-0.014
32.500	110.519	80.007	19.994	103.097	20.002	0.009	-0.024
33.000	110.514	80.006	19.994	103.099	20.004	-0.112	-0.007
33.500	110.518	80.006	19.994	103.099	20.005	-0.220	-0.002
34.000	110.564	80.006	19.994	103.094	20.003	-0.083	0.024
34.500	110.554	80.005	19.995	103.093	20.003	-0.045	0.043
35.000	110.554	80.005	19.994	103.093	20.004	-0.132	0.013
35.500	110.542	80.006	19.995	103.092	20.007	-0.310	-0.011
36.000	110.507	80.008	19.994	103.088	20.003	-0.094	-0.029
36.500	110.521	80.006	19.995	103.092	20.006	-0.274	-0.034
37.000	110.522	80.006	19.994	103.093	20.004	-0.126	-0.003
37.500	110.505	80.007	19.995	103.092	20.005	-0.225	-0.000
38.001	110.553	80.006	19.994	103.091	20.008	-0.375	0.007
38.501	110.548	80.007	19.993	103.093	20.003	-0.087	0.037
39.000	110.515	80.004	19.996	103.090	20.005	-0.216	0.002
39.500	110.496	80.005	19.994	103.089	20.007	-0.307	-0.045
40.000	110.547	80.006	19.996	103.090	20.005	-0.200	-0.010
40.500	110.552	80.006	19.995	103.091	20.003	-0.045	0.045
41.000	110.568	80.007	19.994	103.090	20.005	-0.166	0.039
41.500	110.500	80.006	19.996	103.093	20.006	-0.251	-0.016
42.001	110.524	80.006	19.995	103.093	20.005	-0.177	-0.048
42.501	110.526	80.006	19.994	103.093	20.007	-0.303	-0.009
43.000	110.549	80.006	19.995	103.089	20.006	-0.263	0.025
43.500	110.529	80.007	19.994	103.086	20.005	-0.222	0.014
44.000	110.547	80.007	19.994	103.080	20.003	-0.074	0.001
44.500	110.541	80.006	19.994	103.074	20.006	-0.278	0.005
45.000	110.541	80.006	19.994	103.070	20.004	-0.153	0.003
45.500	110.555	80.006	19.994	103.070	20.006	-0.231	0.004
46.000	110.502	80.004	19.995	103.077	20.006	-0.234	-0.012
46.500	110.516	80.007	19.995	103.080	20.006	-0.294	-0.039
47.000	110.519	80.007	19.995	103.085	20.004	-0.159	-0.011
47.500	110.528	80.005	19.995	103.084	20.003	-0.076	0.015
48.000	110.530	80.007	19.996	103.081	20.009	-0.438	0.011
48.500	110.513	80.007	19.994	103.075	20.006	-0.269	-0.002
49.001	110.517	80.005	19.995	103.079	20.004	-0.159	-0.014
49.501	110.498	80.005	19.995	103.077	20.005	-0.175	-0.014
50.000	110.517	80.006	19.995	103.078	20.004	-0.115	-0.008
50.500	110.503	80.006	19.994	103.083	20.005	-0.198	0.002
51.000	110.531	80.008	19.994	103.085	20.005	-0.222	0.010
51.501	110.530	80.006	19.994	103.084	20.006	-0.243	0.021
52.001	110.532	80.008	19.993	103.082	20.005	-0.182	0.014
52.501	110.512	80.007	19.995	103.082	20.006	-0.285	-0.009
53.001	110.497	80.007	19.994	103.084	20.006	-0.292	-0.027
53.500	110.495	80.007	19.996	103.087	20.007	-0.335	-0.026
54.000	110.485	80.007	19.994	103.085	20.003	-0.072	-0.014
54.500	110.516	80.006	19.995	103.085	20.005	-0.207	0.004
55.000	110.460	80.006	19.994	103.085	20.006	-0.243	-0.003
55.500	110.501	80.007	19.995	103.079	20.005	-0.224	-0.020
56.000	110.526	80.007	19.994	103.073	20.006	-0.290	0.026
56.500	110.500	80.007	19.994	103.070	20.008	-0.371	0.033
57.000	110.491	80.006	19.995	103.067	20.006	-0.265	-0.018
57.500	110.509	80.007	19.995	103.066	20.007	-0.325	-0.013
58.000	110.515	80.006	19.996	103.072	20.007	-0.312	0.017
58.500	110.450	80.008	19.995	103.073	20.007	-0.359	-0.017
59.000	110.482	80.007	19.995	103.075	20.007	-0.321	-0.046
59.500	110.515	80.006	19.994	103.076	20.008	-0.411	0.016
60.000	110.500	80.006	19.996	103.083	20.006	-0.238	0.041
60.500	110.469	80.006	19.995	103.078	20.008	-0.420	-0.014
61.000	110.443	80.006	19.995	103.077	20.007	-0.346	-0.051
61.500	110.455	80.007	19.994	103.075	20.009	-0.442	-0.035
62.000	110.467	80.007	19.995	103.077	20.011	-0.591	0.005
62.500	110.446	80.006	19.994	103.072	20.006	-0.263	0.008
63.000	110.428	80.005	19.995	103.069	20.010	-0.528	-0.024
63.501	110.480	80.007	19.994	103.068	20.008	-0.371	-0.003
64.001	110.457	80.005	19.996	103.072	20.008	-0.420	0.032
64.501	110.488	80.008	19.994	103.076	20.005	-0.164	0.019
65.001	110.470	80.006	19.995	103.076	20.008	-0.397	0.011
65.500	110.459	80.007	19.995	103.079	20.007	-0.325	-0.009
66.000	110.473	80.008	19.995	103.084	20.009	-0.442	-0.013
66.500	110.443	80.006	19.995	103.087	20.004	-0.159	-0.006
67.000	110.462	80.007	19.994	103.083	20.004	-0.101	-0.013
67.500	110.475	80.006	19.995	103.082	20.003	-0.056	0.011
68.000	110.445	80.007	19.994	103.079	20.008	-0.364	0.007
68.501	110.448	80.008	19.994	103.072	20.007	-0.344	-0.022
69.001	110.436	80.006	19.995	103.067	20.007	-0.312	-0.019
69.500	110.430	80.009	19.995	103.067	20.002	-0.020	-0.014
70.000	110.435	80.004	20.004	103.068	20.002	-0.013	-0.009
70.500	110.457	80.009	19.996	103.073	20.005	-0.182	0.013
71.000	110.472	80.006	19.997	103.079	20.006	-0.265	0.032
71.500	110.439	80.007	19.994	103.080	20.005	-0.168	0.010
72.000	110.476	80.008	19.994	103.079	20.003	-0.063	-0.007
72.500	110.439	80.008	19.995	103.077	20.007	-0.359	0.002
73.000	110.453	80.006	19.996	103.076	20.004	-0.115	-0.011
73.500	110.455	80.010	19.995	103.075	20.006	-0.278	-0.004
74.000	110.482	80.009	19.993	103.076	20.006	-0.252	0.022
74.501	110.427	80.008	19.993	103.078	20.006	-0.290	0.001
75.001	110.443	80.006	19.996	103.082	20.008	-0.379	-0.033
75.500	110.443	80.008	19.993	103.082	20.007	-0.323	-0.011
76.000	110.430	80.010	19.994	103.083	20.007	-0.335	0.001
76.500	110.419	80.005	19.994	103.086	20.006	-0.292	-0.018
77.000	110.432	80.007	19.997	103.090	20.008	-0.366	-0.011
77.500	110.426	80.005	19.999	103.098	20.007	-0.328	0.004
78.000	110.440	80.011	19.992	103.108	20.008	-0.413	0.007
78.500	110.454	80.008	19.997	103.114	20.009	-0.462	0.018
79.000	110.417	80.008	19.999	103.115	20.009	-0.433	0.003
79.500	110.403	80.009	19.995	103.114	20.008	-0.375	-0.037
80.001	110.384	80.006	19.994	103.105	20.007	-0.357	-0.042
80.501	110.387	80.005	19.995	103.092	20.010	-0.532	-0.024
81.000	110.374	80.007	19.992	103.080	20.006	-0.252	-0.013
81.500	110.370	80.004	19.992	103.075	20.010	-0.517	-0.013
82.000	110.411	80.006	19.998	103.072	20.008	-0.406	0.010
82.500	110.387	80.006	19.995	103.070	20.009	-0.474	0.027
83.000	110.369	80.007	19.994	103.073	20.007	-0.301	-0.012
83.500	110.343	80.003	19.997	103.075	20.008	-0.411	-0.043
84.000	110.360	80.002	19.996	103.071	20.007	-0.321	-0.027
84.500	110.305	80.010	19.997	103.067	20.012	-0.680	-0.024
85.000	110.333	80.004	20.001	103.065	20.007	-0.332	-0.032
85.500	110.335	80.006	20.002	103.061	20.008	-0.377	0.002
86.001	110.337	80.002	19.997	103.058	20.010	-0.512	0.017
86.501	110.357	80.009	19.995	103.059	20.009	-0.433	0.013
87.000	110.328	80.006	19.995	103.063	20.009	-0.463	0.006
87.500	110.350	80.005	19.993	103.069	20.006	-0.285	-0.008
88.000	110.322	80.006	19.997	103.076	20.008	-0.411	-0.007
88.500	110.313	80.007	19.993	103.083	20.010	-0.546	-0.022
89.000	110.301	80.006	19.998	103.087	20.007	-0.316	-0.029
89.500	110.324	79.999	20.004	103.084	20.010	-0.517	-0.005
90.000	110.365	80.012	19.992	103.075	20.012	-0.633	0.038
90.500	110.306	80.004	19.999	103.071	20.013	-0.698	0.023
91.000	110.308	80.003	19.997	103.069	20.012	-0.642	-0.038
91.500	110.310	80.007	19.994	103.070	20.009	-0.456	-0.027
92.000	110.351	80.005	19.994	103.075	20.009	-0.449	0.024
92.500	110.339	80.007	19.995	103.078	20.010	-0.507	0.036
93.001	110.342	80.007	19.994	103.078	20.012	-0.658	0.010
93.501	110.337	80.010	19.994	103.079	20.013	-0.721	-0.006
94.000	110.341	80.009	19.994	103.077	20.009	-0.438	-0.001
94.500	110.304	80.008	19.995	103.077	20.009	-0.433	-0.017
95.000	110.309	80.012	19.994	103.076	20.006	-0.290	-0.033
95.501	110.274	80.010	20.000	103.076	20.010	-0.553	-0.031
96.001	110.307	80.005	20.001	103.069	20.010	-0.499	-0.017
96.500	110.331	80.011	19.995	103.066	20.007	-0.326	0.027
97.000	110.304	80.012	19.991	103.061	20.011	-0.582	0.027
97.500	110.288	80.006	20.000	103.064	20.010	-0.539	-0.023
98.000	110.299	80.009	20.000	103.063	20.007	-0.326	-0.024
98.500	110.262	80.003	20.007	103.066	20.007	-0.319	-0.015
99.000	110.285	80.009	19.995	103.067	20.006	-0.285	-0.020
99.500	110.273	80.011	19.998	103.074	20.005	-0.206	-0.002
100.000	110.287	80.012	19.993	103.078	20.008	-0.422	0.006
100.501	110.310	80.008	19.990	103.081	20.007	-0.346	0.019
101.001	110.283	80.015	19.991	103.081	20.010	-0.519	0.016
101.500	110.306	80.007	19.991	103.081	20.009	-0.433	-0.004
102.000	110.257	80.006	19.996	103.074	20.008	-0.411	-0.015
102.500	110.278	80.007	19.995	103.067	20.004	-0.150	-0.027
103.000	110.258	80.004	19.992	103.063	20.007	-0.305	-0.014
103.500	110.288	80.008	19.997	103.061	20.007	-0.352	0.006
104.000	110.267	80.005	20.001	103.059	20.008	-0.370	0.010
104.500	110.267	80.010	19.994	103.056	20.008	-0.408	-0.006
105.000	110.275	80.007	19.996	103.060	20.008	-0.384	-0.006
105.500	110.269	80.007	19.993	103.064	20.009	-0.474	0.005
106.000	110.215	80.005	19.996	103.065	20.007	-0.325	-0.030
106.500	110.288	80.006	19.995	103.069	20.003	-0.072	-0.021
107.000	110.269	80.004	19.997	103.074	20.007	-0.359	0.037
107.500	110.253	80.006	19.998	103.072	20.009	-0.492	0.010
108.000	110.251	80.005	19.996	103.070	20.009	-0.466	-0.026
108.500	110.269	80.002	19.995	103.073	20.010	-0.547	-0.001
109.001	110.241	80.006	19.996	103.074	20.012	-0.673	0.003
109.501	110.226	80.006	19.996	103.074	20.009	-0.458	-0.027
110.000	110.233	80.003	19.998	103.078	20.012	-0.694	-0.025
110.500	110.229	80.005	19.997	103.078	20.013	-0.754	-0.002
111.000	110.210	80.005	19.996	103.079	20.012	-0.647	-0.010
111.500	110.211	80.002	19.996	103.083	20.015	-0.856	-0.021
112.000	110.206	80.005	19.995	103.087	20.012	-0.664	-0.011
112.500	110.185	80.002	19.996	103.089	20.011	-0.580	-0.015
113.000	110.189	80.005	19.995	103.093	20.009	-0.495	-0.022
113.500	110.201	80.007	19.996	103.090	20.012	-0.666	-0.001
114.000	110.178	80.004	19.993	103.090	20.015	-0.867	0.002
114.500	110.210	80.007	19.996	103.090	20.012	-0.631	-0.001
115.000	110.189	80.010	19.994	103.090	20.014	-0.807	0.010
115.500	110.161	80.006	19.998	103.091	20.009	-0.439	-0.019
116.000	110.135	80.007	19.996	103.097	20.006	-0.281	-0.051
116.500	110.188	80.002	19.995	103.096	20.002	-0.015	-0.013
117.000	110.164	79.996	20.000	103.092	19.996	0.404	0.028
117.500	110.163	79.999	20.002	103.086	19.994	0.555	0.002
118.000	110.163	80.004	19.992	103.089	19.989	0.841	-0.013
118.500	110.182	80.005	19.997	103.128	19.982	1.318	0.008
119.000	110.175	80.004	19.996	103.204	19.976	1.728	0.015
119.500	110.176	80.005	19.992	103.302	19.970	2.167	0.003
120.001	110.180	80.005	19.995	103.412	19.961	2.709	-0.000
120.501	110.207	80.005	19.988	103.520	19.956	3.038	0.018
121.001	110.254	80.005	19.993	103.595	19.949	3.542	0.053
121.501	110.268	80.011	19.993	103.641	19.942	3.983	0.068
122.000	110.368	80.013	19.993	103.670	19.941	4.053	0.087
122.500	110.432	80.006	19.996	103.684	19.938	4.280	0.139
123.000	110.514	80.007	19.993	103.691	19.932	4.693	0.156
123.501	110.613	80.005	19.994	103.694	19.929	4.873	0.164
124.001	110.683	80.007	19.995	103.692	19.924	5.190	0.175
124.500	110.818	80.007	19.995	103.687	19.918	5.596	0.186
125.000	110.898	80.007	19.996	103.686	19.919	5.524	0.210
125.500	111.036	80.005	19.995	103.686	19.916	5.712	0.217
126.000	111.149	80.005	19.995	103.685	19.916	5.734	0.235
126.500	111.269	80.009	19.992	103.682	19.917	5.659	0.243
127.000	111.380	80.006	19.997	103.678	19.912	5.982	0.232
127.500	111.539	80.007	19.993	103.671	19.911	6.074	0.250
128.000	111.711	80.006	19.995	103.670	19.909	6.226	0.300
128.500	111.811	80.007	19.994	103.667	19.909	6.186	0.302
129.000	112.000	80.006	19.994	103.664	19.910	6.161	0.281
129.500	112.164	80.008	19.994	103.663	19.910	6.154	0.321
130.000	112.352	80.007	19.995	103.664	19.903	6.582	0.352
130.500	112.477	80.007	19.994	103.658	19.904	6.529	0.332
131.000	112.707	80.005	19.994	103.653	19.905	6.447	0.334
131.500	112.873	80.009	19.994	103.650	19.905	6.501	0.376
132.000	113.058	80.007	19.995	103.648	19.908	6.280	0.374
132.500	113.303	80.007	19.994	103.645	19.906	6.433	0.391
133.000	113.523	80.005	19.994	103.643	19.905	6.457	0.447
133.500	113.728	80.007	19.996	103.646	19.902	6.676	0.445
134.000	113.954	80.008	19.995	103.647	19.906	6.377	0.428
134.500	114.180	80.007	19.994	103.647	19.904	6.520	0.442
135.000	114.380	80.004	19.994	103.648	19.907	6.359	0.439
135.500	114.636	80.007	19.994	103.649	19.907	6.362	0.441
136.000	114.874	80.007	19.996	103.646	19.906	6.391	0.475
136.500	115.093	80.007	19.998	103.645	19.905	6.447	0.475
137.000	115.373	80.007	19.994	103.643	19.908	6.271	0.478
137.500	115.626	80.007	19.994	103.639	19.903	6.583	0.516
138.000	115.871	80.006	19.996	103.632	19.908	6.273	0.516
138.500	116.101	80.007	19.994	103.626	19.908	6.280	0.486
139.000	116.377	80.008	19.995	103.623	19.906	6.382	0.490
139.500	116.652	80.003	19.995	103.625	19.909	6.202	0.528
140.000	116.915	80.005	19.995	103.627	19.905	6.493	0.545
140.500	117.236	80.006	19.992	103.632	19.905	6.478	0.561
141.000	117.463	80.002	19.995	103.635	19.908	6.248	0.566
141.500	117.802	80.008	19.994	103.633	19.907	6.313	0.557
142.000	118.069	80.006	19.994	103.626	19.909	6.175	0.586
142.500	118.372	80.007	19.997	103.620	19.910	6.151	0.588
143.000	118.619	80.007	19.994	103.616	19.907	6.323	0.560
143.500	118.957	80.005	19.996	103.611	19.911	6.066	0.568
144.000	119.259	80.004	19.996	103.608	19.909	6.228	0.613
144.500	119.547	80.005	19.992	103.606	19.911	6.092	0.615
145.000	119.880	80.008	19.996	103.605	19.911	6.062	0.605
145.500	120.188	80.006	19.993	103.604	19.911	6.042	0.631
146.000	120.478	80.006	19.996	103.603	19.915	5.813	0.620
146.500	120.850	80.006	19.995	103.600	19.913	5.933	0.630
147.000	121.119	80.007	19.995	103.600	19.916	5.733	0.652
147.500	121.465	80.006	19.993	103.599	19.912	6.001	0.628
148.000	121.797	80.008	19.994	103.598	19.912	6.001	0.646
148.500	122.113	80.008	19.994	103.599	19.915	5.802	0.663
149.000	122.472	80.010	19.995	103.599	19.918	5.572	0.661
149.500	122.837	80.008	19.995	103.598	19.916	5.716	0.699
150.000	123.178	80.007	19.995	103.596	19.918	5.611	0.716
150.500	123.489	80.007	19.994	103.589	19.918	5.619	0.679
151.000	123.839	80.008	19.995	103.583	19.918	5.572	0.656
151.500	124.180	80.007	19.994	103.579	19.916	5.700	0.675
152.000	124.501	80.009	19.996	103.572	19.914	5.885	0.677
152.500	124.858	80.007	19.994	103.566	19.919	5.526	0.670
153.000	125.242	80.009	19.995	103.565	19.917	5.651	0.709
153.500	125.542	80.006	19.998	103.563	19.921	5.384	0.712
154.000	125.926	80.007	19.996	103.562	19.918	5.605	0.684
154.500	126.273	80.013	19.993	103.563	19.920	5.476	0.708
155.000	126.638	80.010	19.995	103.563	19.917	5.666	0.721
155.500	127.009	80.005	19.998	103.561	19.920	5.479	0.724
156.000	127.373	80.011	19.990	103.556	19.921	5.373	0.735
156.500	127.735	80.006	19.991	103.551	19.925	5.146	0.730
157.000	128.129	80.009	19.998	103.544	19.926	5.068	0.741
157.500	128.476	80.005	19.998	103.541	19.927	4.998	0.748
158.000	128.813	80.009	19.993	103.536	19.928	4.911	0.713
158.500	129.195	80.007	19.993	103.535	19.926	5.034	0.702
159.000	129.580	80.005	20.001	103.532	19.921	5.370	0.743
159.500	129.958	80.004	19.999	103.529	19.927	5.014	0.765
160.000	130.348	80.010	19.995	103.525	19.926	5.037	0.766
160.500	130.714	80.009	19.995	103.525	19.926	5.091	0.762
161.000	131.050	79.999	20.004	103.524	19.928	4.930	0.729
161.500	131.487	80.005	19.992	103.523	19.930	4.785	0.738
162.000	131.836	80.005	19.995	103.527	19.932	4.667	0.780
162.500	132.225	80.007	19.994	103.526	19.931	4.696	0.762
163.000	132.590	80.006	19.994	103.524	19.931	4.747	0.746
163.500	132.953	80.006	19.997	103.520	19.930	4.783	0.741
164.001	133.344	80.006	19.995	103.516	19.932	4.676	0.741
164.500	133.736	80.004	19.996	103.508	19.933	4.601	0.768
165.000	134.050	80.007	19.994	103.502	19.930	4.800	0.745
165.500	134.512	80.006	19.995	103.496	19.931	4.697	0.741
166.000	134.871	80.005	19.995	103.494	19.933	4.581	0.798
166.500	135.284	80.008	19.995	103.493	19.931	4.706	0.797
167.001	135.676	80.007	19.995	103.493	19.931	4.735	0.789
167.500	136.036	80.007	19.995	103.493	19.930	4.815	0.778
168.000	136.449	80.008	19.994	103.493	19.932	4.668	0.762
168.500	136.817	80.007	19.995	103.489	19.936	4.391	0.777
169.000	137.227	80.009	19.995	103.488	19.934	4.511	0.780
169.501	137.607	80.007	19.997	103.485	19.936	4.422	0.784
170.000	138.022	80.006	19.996	103.485	19.935	4.456	0.793
170.500	138.391	80.007	19.995	103.483	19.934	4.541	0.789
171.000	138.770	80.007	19.995	103.482	19.932	4.638	0.766
171.500	139.178	80.006	19.996	103.478	19.934	4.517	0.768
172.000	139.553	80.008	19.995	103.475	19.938	4.280	0.785
172.500	139.960	80.007	19.995	103.471	19.936	4.370	0.782
173.000	140.293	80.007	19.995	103.469	19.938	4.292	0.761
173.500	140.712	80.006	19.995	103.467	19.939	4.220	0.746
174.000	141.102	80.006	19.996	103.464	19.934	4.504	0.780
174.500	141.522	80.008	19.995	103.461	19.937	4.352	0.809
175.000	141.886	80.008	19.996	103.457	19.935	4.450	0.797
175.500	142.283	80.009	19.995	103.452	19.935	4.463	0.772
176.000	142.691	80.008	19.995	103.450	19.937	4.356	0.783
176.500	143.061	80.008	19.993	103.449	19.939	4.178	0.792
177.000	143.476	80.008	19.994	103.449	19.939	4.211	0.782
177.500	143.910	80.006	19.994	103.450	19.940	4.135	0.817
178.000	144.302	80.006	19.995	103.450	19.941	4.035	0.837
178.500	144.654	80.008	19.996	103.450	19.941	4.088	0.785
179.001	145.033	80.008	19.996	103.449	19.942	3.965	0.738
179.500	145.445	80.007	19.993	103.448	19.942	3.970	0.761
180.000	145.811	80.012	19.993	103.447	19.940	4.131	0.784
180.500	146.219	80.007	19.994	103.440	19.942	4.008	0.776
181.000	146.603	80.010	19.994	103.435	19.944	3.874	0.783
181.500	146.982	80.008	19.990	103.429	19.944	3.876	0.778
182.000	147.357	80.011	19.990	103.425	19.945	3.814	0.758
182.500	147.724	80.010	19.996	103.421	19.944	3.865	0.748
183.000	148.142	80.009	19.994	103.419	19.944	3.881	0.764
183.500	148.539	80.008	19.989	103.418	19.948	3.563	0.800
184.000	148.922	80.007	19.994	103.419	19.946	3.733	0.797
184.500	149.299	80.008	19.995	103.422	19.946	3.725	0.770
185.000	149.735	80.009	19.994	103.422	19.946	3.752	0.787
185.500	150.079	80.007	19.994	103.422	19.946	3.723	0.797
186.000	150.492	80.006	19.995	103.423	19.949	3.519	0.768
186.500	150.877	80.003	19.994	103.420	19.948	3.600	0.777
187.000	151.228	80.008	19.995	103.416	19.950	3.466	0.767
187.500	151.642	80.009	19.994	103.413	19.948	3.593	0.750
188.000	152.021	80.006	19.996	103.412	19.949	3.518	0.778
188.500	152.384	80.007	19.995	103.411	19.952	3.301	0.768
189.000	152.756	80.007	19.994	103.411	19.949	3.535	0.739
189.500	153.155	80.006	19.998	103.411	19.952	3.341	0.753
190.000	153.506	80.006	19.995	103.411	19.954	3.213	0.760
190.501	153.930	80.005	19.996	103.410	19.951	3.376	0.763
191.000	154.303	80.007	19.995	103.408	19.951	3.394	0.786
191.500	154.677	80.006	19.996	103.407	19.954	3.175	0.772
192.000	155.042	80.008	19.995	103.406	19.952	3.303	0.743
192.500	155.431	80.004	20.002	103.406	19.950	3.462	0.747
193.000	155.794	80.007	19.996	103.405	19.957	2.963	0.753
193.500	156.179	80.005	19.998	103.403	19.955	3.140	0.750
194.000	156.568	80.005	19.995	103.399	19.952	3.310	0.760
194.500	156.923	80.012	19.994	103.399	19.954	3.227	0.759
195.000	157.305	80.008	19.996	103.395	19.957	2.974	0.741
195.500	157.662	80.009	20.000	103.393	19.955	3.120	0.739
196.000	158.032	80.009	19.996	103.389	19.956	3.064	0.733
196.501	158.437	80.005	19.997	103.385	19.958	2.961	0.751
197.000	158.800	80.007	19.996	103.379	19.959	2.838	0.772
197.500	159.213	80.003	19.995	103.377	19.959	2.829	0.772
198.000	159.548	80.005	19.997	103.373	19.959	2.894	0.762
198.500	159.917	80.004	19.998	103.371	19.958	2.943	0.726
199.000	160.284	80.009	19.994	103.371	19.958	2.954	0.720
199.500	160.643	80.006	19.994	103.371	19.957	2.999	0.731
200.000	160.997	80.005	19.999	103.371	19.956	3.066	0.720
200.500	161.383	80.005	19.998	103.369	19.959	2.849	0.726
201.000	161.760	80.006	19.996	103.369	19.954	3.170	0.751
201.500	162.118	80.008	19.995	103.370	19.957	3.008	0.749
202.000	162.476	80.007	19.997	103.368	19.959	2.852	0.725
202.500	162.830	80.006	19.994	103.366	19.956	3.053	0.714
203.000	163.182	80.005	20.003	103.365	19.960	2.791	0.709
203.500	163.595	80.003	19.997	103.361	19.958	2.955	0.735
204.000	163.907	80.008	19.995	103.359	19.958	2.959	0.745
204.500	164.265	80.007	19.999	103.359	19.959	2.874	0.698
205.000	164.647	80.000	19.997	103.359	19.959	2.861	0.706
205.500	165.037	80.005	19.995	103.359	19.962	2.682	0.756
206.000	165.412	80.009	19.998	103.359	19.965	2.480	0.768
206.500	165.726	80.004	19.992	103.358	19.960	2.809	0.727
207.000	166.067	80.001	20.000	103.354	19.962	2.632	0.672
207.500	166.457	80.007	19.995	103.353	19.963	2.613	0.693
208.000	166.833	80.002	19.991	103.352	19.964	2.543	0.748
208.500	167.152	80.008	19.999	103.354	19.965	2.483	0.731
209.000	167.566	80.008	19.992	103.357	19.961	2.724	0.714
209.500	167.877	80.010	19.991	103.358	19.964	2.505	0.729
210.000	168.238	80.009	19.994	103.353	19.963	2.622	0.698
210.500	168.523	80.006	19.998	103.349	19.965	2.481	0.659
211.000	168.904	80.006	19.995	103.343	19.967	2.297	0.656
211.500	169.268	80.006	19.996	103.338	19.965	2.476	0.706
212.000	169.608	80.006	19.995	103.337	19.965	2.453	0.725
212.500	169.964	80.008	19.995	103.338	19.967	2.341	0.700
213.000	170.272	80.004	19.997	103.339	19.963	2.592	0.679
213.500	170.628	80.008	19.995	103.339	19.965	2.489	0.664
214.000	170.934	80.006	19.997	103.339	19.963	2.623	0.663
214.500	171.284	80.007	19.994	103.338	19.967	2.353	0.659
215.000	171.612	80.008	19.994	103.336	19.967	2.322	0.667
215.500	171.954	80.006	19.993	103.335	19.966	2.368	0.674
216.000	172.319	80.008	19.995	103.335	19.970	2.142	0.688
216.500	172.665	80.007	19.994	103.335	19.962	2.630	0.709
217.000	172.987	80.008	19.995	103.333	19.966	2.384	0.690
217.500	173.351	80.004	19.996	103.334	19.967	2.344	0.677
218.001	173.668	80.009	19.995	103.335	19.966	2.364	0.684
218.500	174.011	80.006	19.993	103.335	19.963	2.563	0.670
219.000	174.316	80.005	19.993	103.333	19.964	2.500	0.654
219.500	174.701	80.008	19.995	103.333	19.967	2.328	0.669
220.000	175.010	80.006	19.994	103.333	19.968	2.238	0.692
220.500	175.336	80.007	19.994	103.332	19.966	2.391	0.664
221.000	175.702	80.006	19.994	103.332	19.970	2.120	0.663
221.500	175.995	80.007	19.992	103.332	19.968	2.247	0.676
222.000	176.364	80.003	19.999	103.333	19.971	2.097	0.661
222.500	176.673	80.008	19.991	103.333	19.970	2.107	0.670
223.000	176.976	80.009	19.992	103.334	19.970	2.124	0.645
223.500	177.300	80.009	19.996	103.335	19.969	2.167	0.620
224.000	177.603	80.005	19.996	103.336	19.969	2.176	0.627
224.500	177.971	80.007	19.992	103.335	19.968	2.257	0.649
225.000	178.294	80.008	19.994	103.337	19.972	2.008	0.681
225.500	178.647	80.007	19.996	103.337	19.969	2.225	0.684
226.000	178.956	80.009	19.992	103.334	19.971	2.046	0.669
226.500	179.276	80.006	19.994	103.335	19.970	2.123	0.646
227.001	179.583	80.009	19.993	103.334	19.970	2.120	0.628
227.500	179.934	80.006	19.997	103.330	19.969	2.177	0.642
228.000	180.248	80.007	19.994	103.328	19.971	2.051	0.661
228.501	180.543	80.008	19.994	103.329	19.971	2.072	0.637
229.000	180.891	80.005	19.999	103.329	19.973	1.944	0.626
229.500	181.201	80.009	19.995	103.329	19.972	2.009	0.651
230.000	181.544	80.008	19.998	103.332	19.973	1.930	0.655
230.500	181.860	80.008	19.993	103.332	19.971	2.042	0.656
231.000	182.167	80.013	19.995	103.333	19.971	2.053	0.641
231.500	182.492	80.005	19.990	103.332	19.973	1.953	0.628
232.000	182.811	80.009	19.991	103.334	19.971	2.090	0.638
232.500	183.120	80.009	19.991	103.335	19.974	1.843	0.636
233.000	183.449	80.005	19.995	103.335	19.974	1.836	0.633
233.500	183.742	80.007	19.996	103.334	19.971	2.049	0.630
234.000	184.079	80.007	19.996	103.334	19.970	2.146	0.626
234.500	184.387	80.007	19.995	103.333	19.972	1.977	0.637
235.000	184.705	80.006	19.996	103.332	19.973	1.904	0.636
235.500	185.054	80.011	19.995	103.329	19.972	1.979	0.646
236.000	185.424	80.009	19.993	103.328	19.973	1.948	0.692
236.500	185.671	80.006	19.995	103.325	19.973	1.926	0.668
237.000	185.981	80.006	19.995	103.323	19.971	2.087	0.587
237.500	186.311	80.008	19.997	103.316	19.970	2.154	0.598
238.000	186.637	80.006	19.994	103.313	19.971	2.042	0.648
238.500	186.969	80.006	19.992	103.310	19.970	2.127	0.657
239.000	187.278	80.012	19.994	103.307	19.970	2.154	0.650
239.500	187.601	80.014	19.993	103.306	19.969	2.186	0.636
240.000	187.886	80.008	19.992	103.311	19.970	2.154	0.620
240.500	188.176	80.007	19.995	103.312	19.973	1.939	0.591
241.000	188.463	80.009	19.994	103.310	19.974	1.868	0.576
241.500	188.802	80.008	19.995	103.308	19.970	2.155	0.601
242.000	189.131	80.008	19.996	103.309	19.972	2.018	0.647
242.500	189.423	80.009	19.994	103.304	19.973	1.906	0.645
243.000	189.729	80.008	19.995	103.301	19.975	1.810	0.609
243.500	190.065	80.008	19.994	103.301	19.972	1.980	0.620
244.000	190.320	80.008	19.994	103.301	19.972	2.023	0.617
244.500	190.633	80.008	19.995	103.298	19.973	1.920	0.580
245.000	190.941	80.006	19.994	103.299	19.974	1.845	0.595
245.500	191.229	80.008	19.994	103.301	19.974	1.866	0.608
246.000	191.530	80.010	19.993	103.305	19.971	2.063	0.592
246.500	191.813	80.008	19.997	103.307	19.974	1.874	0.586
247.000	192.152	80.005	19.996	103.307	19.976	1.713	0.603
247.500	192.413	80.006	19.997	103.306	19.973	1.935	0.611
248.000	192.703	80.004	19.995	103.304	19.973	1.924	0.575
248.500	193.023	80.006	19.996	103.302	19.973	1.942	0.581
249.000	193.294	80.010	19.996	103.299	19.973	1.942	0.601
249.500	193.572	80.007	19.991	103.300	19.976	1.700	0.569
250.000	193.940	80.012	19.989	103.299	19.973	1.935	0.597
250.500	194.209	80.007	19.994	103.301	19.974	1.888	0.642
251.000	194.527	80.008	19.993	103.300	19.974	1.881	0.612
251.500	194.805	80.008	19.994	103.300	19.973	1.929	0.592
252.000	195.093	80.008	19.994	103.298	19.971	2.085	0.582
252.500	195.397	80.007	19.994	103.297	19.976	1.741	0.579
253.000	195.676	80.008	19.993	103.295	19.973	1.924	0.587
253.500	195.916	80.008	19.994	103.295	19.973	1.928	0.551
254.000	196.247	80.008	19.993	103.295	19.973	1.922	0.545
254.500	196.547	80.009	19.992	103.295	19.976	1.761	0.601
255.000	196.816	80.008	19.994	103.294	19.975	1.781	0.600
255.500	197.121	80.006	19.996	103.294	19.974	1.839	0.572
256.000	197.435	80.009	19.990	103.293	19.974	1.895	0.597
256.500	197.750	80.009	19.996	103.293	19.973	1.911	0.624
257.000	198.029	80.010	19.992	103.293	19.975	1.778	0.611
257.500	198.277	80.008	19.996	103.293	19.974	1.843	0.560
258.000	198.571	80.007	19.996	103.294	19.973	1.937	0.535
258.500	198.853	80.009	19.994	103.294	19.973	1.922	0.559
259.000	199.155	80.009	19.995	103.294	19.971	2.083	0.580
259.500	199.439	80.009	19.995	103.293	19.978	1.592	0.585
260.000	199.737	80.013	19.995	103.290	19.974	1.855	0.584
260.500	200.029	80.008	19.995	103.289	19.973	1.945	0.586
261.000	200.319	80.008	19.995	103.288	19.973	1.922	0.586
261.500	200.570	80.008	19.995	103.287	19.976	1.749	0.561
262.000	200.884	80.011	19.994	103.283	19.973	1.924	0.553
262.500	201.171	80.011	19.995	103.284	19.973	1.951	0.583
263.000	201.434	80.009	19.994	103.284	19.974	1.862	0.575
263.500	201.714	80.009	19.994	103.284	19.975	1.812	0.546
264.000	202.011	80.007	19.995	103.284	19.973	1.915	0.560
264.500	202.326	80.007	19.995	103.287	19.972	2.012	0.595
265.000	202.554	80.008	19.995	103.288	19.970	2.115	0.577
265.500	202.839	80.008	19.995	103.289	19.971	2.076	0.527
266.000	203.154	80.008	19.995	103.289	19.968	2.231	0.557
266.500	203.453	80.008	19.995	103.288	19.970	2.131	0.607
267.000	203.668	80.008	19.996	103.287	19.970	2.131	0.564
267.500	204.003	80.008	19.995	103.285	19.972	1.963	0.532
268.000	204.237	80.007	19.996	103.285	19.971	2.088	0.560
268.500	204.531	80.008	19.996	103.285	19.969	2.207	0.549
269.000	204.813	80.006	19.996	103.284	19.969	2.186	0.552
269.500	205.081	80.008	19.994	103.284	19.970	2.121	0.563
270.000	205.361	80.006	19.994	103.284	19.968	2.265	0.549
270.500	205.636	80.007	19.994	103.283	19.969	2.202	0.552
271.000	205.917	80.008	19.995	103.283	19.969	2.216	0.556
271.500	206.191	80.008	19.997	103.278	19.966	2.404	0.556
272.000	206.485	80.007	19.998	103.274	19.969	2.192	0.561
272.500	206.747	80.007	19.996	103.273	19.966	2.416	0.562
273.000	207.068	80.008	19.995	103.271	19.969	2.192	0.570
273.500	207.320	80.007	19.997	103.273	19.966	2.362	0.578
274.000	207.610	80.006	19.994	103.278	19.970	2.133	0.557
274.500	207.920	80.007	19.990	103.278	19.967	2.306	0.571
275.000	208.156	80.007	19.995	103.280	19.967	2.301	0.573
275.500	208.436	80.006	19.996	103.282	19.967	2.333	0.531
276.000	208.688	80.005	19.996	103.279	19.967	2.315	0.524
276.500	208.955	80.007	19.994	103.276	19.963	2.564	0.525
277.000	209.240	80.006	19.995	103.276	19.965	2.476	0.535
277.500	209.546	80.007	19.996	103.274	19.967	2.321	0.571
278.000	209.799	80.008	19.993	103.270	19.967	2.312	0.575
278.501	210.041	80.006	19.993	103.273	19.967	2.308	0.527
279.000	210.280	80.008	19.995	103.272	19.965	2.490	0.488
279.500	210.574	80.006	19.997	103.272	19.965	2.467	0.507
280.000	210.831	80.008	19.996	103.272	19.965	2.433	0.542
280.500	211.072	80.010	19.998	103.270	19.963	2.561	0.525
281.000	211.359	80.007	19.994	103.262	19.960	2.825	0.513
281.500	211.606	80.008	19.997	103.259	19.965	2.453	0.531
282.000	211.852	80.008	19.995	103.258	19.961	2.751	0.513
282.500	212.160	80.007	19.995	103.254	19.961	2.756	0.523
283.000	212.398	80.006	19.996	103.254	19.958	2.935	0.550
283.500	212.703	80.006	19.995	103.254	19.963	2.624	0.545
284.000	212.920	80.009	19.996	103.254	19.958	2.944	0.532
284.500	213.175	80.006	19.995	103.252	19.958	2.893	0.497
285.000	213.441	80.006	19.996	103.252	19.960	2.812	0.497
285.500	213.727	80.006	19.995	103.252	19.957	2.963	0.537
286.000	213.966	80.007	19.996	103.252	19.957	2.976	0.538
286.500	214.267	80.006	19.996	103.252	19.955	3.157	0.532
287.000	214.480	80.007	19.996	103.253	19.953	3.268	0.527
287.500	214.791	80.007	19.995	103.253	19.956	3.077	0.519
288.000	215.028	80.006	19.997	103.253	19.957	2.981	0.536
288.500	215.298	80.007	19.996	103.253	19.956	3.026	0.528
289.000	215.532	80.008	19.996	103.254	19.954	3.189	0.506
289.500	215.837	80.006	19.996	103.254	19.955	3.153	0.521
290.000	216.065	80.007	19.995	103.254	19.954	3.187	0.535
290.500	216.279	80.006	19.997	103.254	19.950	3.463	0.488
291.000	216.604	80.006	19.996	103.254	19.951	3.364	0.491
291.500	216.880	80.008	19.995	103.254	19.954	3.171	0.570
292.001	217.115	80.007	19.997	103.254	19.950	3.426	0.556
292.500	217.400	80.006	19.997	103.254	19.949	3.525	0.515
293.000	217.665	80.007	19.996	103.254	19.954	3.220	0.535
293.500	217.895	80.007	19.996	103.254	19.948	3.577	0.523
294.000	218.109	80.005	19.996	103.254	19.949	3.521	0.469
294.500	218.368	80.006	19.996	103.253	19.949	3.490	0.458
295.000	218.627	80.006	19.997	103.251	19.947	3.685	0.495
295.500	218.861	80.006	19.996	103.249	19.947	3.654	0.505
296.000	219.135	80.005	19.996	103.249	19.946	3.696	0.500
296.500	219.398	80.007	19.996	103.245	19.945	3.812	0.523
297.001	219.652	80.003	19.995	103.243	19.943	3.899	0.527
297.500	219.898	80.007	19.996	103.244	19.941	4.025	0.508
298.000	220.121	80.006	19.995	103.244	19.942	3.994	0.484
298.500	220.383	80.007	19.996	103.242	19.942	3.963	0.477
299.000	220.603	80.006	19.996	103.244	19.938	4.285	0.484
299.500	220.895	80.005	19.995	103.243	19.941	4.034	0.497
300.000	221.147	80.006	19.995	103.240	19.938	4.253	0.528
300.500	221.392	80.005	19.994	103.241	19.936	4.392	0.520
301.000	221.648	80.006	19.996	103.241	19.936	4.390	0.499
301.500	221.887	80.007	19.996	103.241	19.938	4.254	0.497
302.000	222.159	80.006	19.996	103.244	19.938	4.261	0.503
302.500	222.414	80.005	19.997	103.248	19.934	4.490	0.519
303.000	222.622	80.005	19.996	103.248	19.934	4.523	0.495
303.500	222.915	80.007	19.996	103.248	19.934	4.537	0.482
304.000	223.159	80.007	19.996	103.246	19.933	4.573	0.519
304.500	223.392	80.006	19.995	103.241	19.932	4.665	0.507
305.000	223.631	80.005	19.994	103.236	19.930	4.781	0.474
305.500	223.898	80.006	19.996	103.231	19.928	4.914	0.489
306.000	224.124	80.006	19.995	103.229	19.929	4.831	0.500
306.500	224.371	80.005	19.994	103.229	19.926	5.070	0.483
307.000	224.663	80.007	19.995	103.232	19.929	4.837	0.506
307.500	224.870	80.005	19.994	103.236	19.929	4.837	0.519
308.000	225.125	80.005	19.995	103.238	19.930	4.812	0.481
308.500	225.392	80.007	19.996	103.238	19.925	5.093	0.492
309.000	225.615	80.006	19.995	103.237	19.925	5.106	0.506
309.500	225.884	80.005	19.994	103.235	19.923	5.255	0.491
310.000	226.113	80.008	19.995	103.233	19.926	5.075	0.495
310.500	226.352	80.007	19.994	103.237	19.923	5.223	0.483
311.000	226.579	80.006	19.994	103.241	19.924	5.203	0.466
311.500	226.834	80.006	19.995	103.244	19.922	5.320	0.474
312.000	227.064	80.006	19.994	103.243	19.923	5.264	0.484
312.500	227.300	80.008	19.997	103.240	19.922	5.329	0.476
313.000	227.589	80.008	19.994	103.232	19.920	5.425	0.495
313.500	227.787	80.005	19.994	103.226	19.919	5.535	0.506
314.000	228.050	80.006	19.995	103.221	19.919	5.518	0.474
314.500	228.291	80.008	19.995	103.219	19.922	5.341	0.483
315.000	228.562	80.007	19.994	103.219	19.924	5.173	0.508
315.500	228.810	80.008	19.994	103.219	19.921	5.393	0.516
316.001	229.048	80.007	19.995	103.218	19.916	5.681	0.502
316.500	229.309	80.008	19.993	103.218	19.920	5.443	0.492
317.000	229.555	80.007	19.994	103.220	19.918	5.584	0.503
317.500	229.777	80.008	19.994	103.222	19.917	5.624	0.487
318.000	229.997	80.007	19.995	103.224	19.915	5.765	0.455
318.500	230.291	80.008	19.994	103.224	19.918	5.606	0.478
319.000	230.534	80.009	19.994	103.224	19.916	5.720	0.526
319.500	230.763	80.007	19.993	103.222	19.917	5.631	0.505
320.000	230.964	80.007	19.997	103.220	19.913	5.945	0.451
320.500	231.239	80.007	19.994	103.218	19.917	5.629	0.452
321.000	231.454	80.006	19.995	103.218	19.913	5.902	0.483
321.500	231.741	80.008	19.996	103.217	19.914	5.835	0.496
322.000	231.985	80.007	19.997	103.216	19.915	5.788	0.517
322.500	232.209	80.006	19.995	103.214	19.915	5.803	0.500
323.000	232.442	80.009	19.993	103.213	19.917	5.647	0.463
323.500	232.678	80.009	19.995	103.213	19.914	5.833	0.463
324.000	232.916	80.009	19.992	103.215	19.911	6.075	0.471
324.500	233.144	80.007	19.995	103.222	19.914	5.855	0.470
325.001	233.409	80.008	19.997	103.226	19.913	5.913	0.480
325.500	233.631	80.008	19.994	103.226	19.915	5.754	0.490
326.000	233.886	80.009	19.994	103.227	19.915	5.780	0.482
326.500	234.162	80.007	19.995	103.225	19.914	5.861	0.504
327.000	234.363	80.007	19.995	103.219	19.911	6.059	0.504
327.500	234.606	80.008	19.993	103.216	19.915	5.797	0.461
328.000	234.892	80.009	19.995	103.221	19.910	6.108	0.487
328.500	235.085	80.007	19.995	103.227	19.910	6.142	0.504
329.000	235.319	80.009	19.996	103.232	19.912	5.971	0.453
329.500	235.625	80.007	19.995	103.232	19.910	6.099	0.484
330.000	235.793	80.007	19.994	103.232	19.914	5.841	0.507
330.500	236.070	80.006	19.994	103.228	19.913	5.885	0.459
331.000	236.339	80.007	19.995	103.220	19.909	6.205	0.495
331.500	236.543	80.007	19.995	103.218	19.911	6.051	0.509
332.000	236.789	80.007	19.995	103.221	19.913	5.908	0.462
332.500	237.054	80.008	19.995	103.221	19.908	6.273	0.480
333.000	237.242	80.007	19.995	103.221	19.910	6.128	0.482
333.500	237.508	80.008	19.996	103.221	19.912	5.976	0.454
334.000	237.781	80.008	19.995	103.218	19.910	6.112	0.497
334.500	237.989	80.007	19.997	103.214	19.912	5.955	0.510
335.000	238.250	80.007	19.994	103.215	19.910	6.116	0.475
335.500	238.465	80.009	19.993	103.217	19.906	6.403	0.472
336.000	238.704	80.009	19.994	103.220	19.910	6.098	0.466
336.500	238.946	80.009	19.994	103.226	19.909	6.152	0.468
337.000	239.202	80.009	19.995	103.229	19.907	6.288	0.489
337.500	239.390	80.010	19.994	103.231	19.911	6.076	0.471
338.000	239.645	80.008	19.995	103.229	19.906	6.401	0.444
338.500	239.877	80.008	19.994	103.226	19.906	6.389	0.465
339.000	240.110	80.010	19.995	103.223	19.906	6.349	0.476
339.500	240.354	80.009	19.994	103.221	19.907	6.314	0.471
340.000	240.607	80.010	19.995	103.223	19.908	6.226	0.487
340.500	240.860	80.009	19.994	103.229	19.907	6.282	0.502
341.000	241.064	80.008	19.994	103.237	19.903	6.575	0.481
341.500	241.333	80.009	19.995	103.242	19.905	6.420	0.464
342.000	241.555	80.009	19.993	103.247	19.904	6.506	0.482
342.500	241.778	80.008	19.995	103.247	19.906	6.405	0.468
343.000	242.034	80.009	19.995	103.241	19.906	6.400	0.462
343.500	242.246	80.010	19.995	103.237	19.905	6.449	0.473
344.000	242.498	80.010	19.994	103.234	19.907	6.301	0.466
344.500	242.797	80.009	19.994	103.231	19.905	6.420	0.507
345.000	242.994	80.009	19.994	103.231	19.905	6.416	0.523
345.500	243.237	80.009	19.994	103.232	19.903	6.609	0.468
346.000	243.465	80.009	19.994	103.234	19.902	6.662	0.456
346.500	243.745	80.008	19.994	103.235	19.902	6.635	0.489
347.000	243.960	80.009	19.994	103.238	19.900	6.754	0.501
347.500	244.216	80.010	19.994	103.240	19.902	6.664	0.483
348.000	244.459	80.008	19.993	103.243	19.901	6.723	0.485
348.500	244.691	80.008	19.994	103.241	19.901	6.702	0.487
349.000	244.925	80.008	19.994	103.240	19.902	6.619	0.471
349.500	245.165	80.008	19.994	103.240	19.897	6.964	0.470
350.000	245.395	80.007	19.995	103.239	19.899	6.854	0.471
350.500	245.647	80.007	19.996	103.236	19.898	6.888	0.476
351.000	245.877	80.007	19.995	103.238	19.893	7.213	0.482
351.500	246.100	80.006	19.995	103.241	19.896	7.065	0.467
352.000	246.377	80.005	19.994	103.241	19.893	7.251	0.476
352.500	246.644	80.006	19.995	103.243	19.895	7.125	0.522
353.000	246.859	80.006	19.996	103.247	19.898	6.944	0.514
353.500	247.133	80.006	19.996	103.249	19.896	7.045	0.485
354.000	247.332	80.007	19.995	103.250	19.896	7.010	0.481
354.500	247.548	80.006	19.995	103.251	19.897	6.974	0.444
355.000	247.839	80.006	19.996	103.251	19.894	7.156	0.461
355.500	248.038	80.008	19.994	103.248	19.893	7.254	0.498
356.000	248.317	80.005	19.995	103.246	19.897	6.951	0.484
356.500	248.542	80.006	19.995	103.247	19.896	7.045	0.491
357.000	248.813	80.005	19.996	103.247	19.891	7.394	0.501
357.500	249.063	80.004	19.997	103.249	19.895	7.132	0.508
358.000	249.340	80.006	19.995	103.251	19.893	7.244	0.523
358.500	249.567	80.007	19.995	103.252	19.892	7.300	0.515
359.000	249.811	80.005	19.995	103.251	19.893	7.211	0.487
359.500	250.073	80.007	19.995	103.251	19.895	7.108	0.489
360.000	250.284	80.006	19.997	103.252	19.892	7.314	0.490
360.500	250.546	80.006	19.995	103.254	19.895	7.097	0.473
361.000	250.789	80.005	19.996	103.255	19.896	7.058	0.489
361.500	251.032	80.007	19.996	103.254	19.894	7.157	0.496
362.001	251.287	80.006	19.996	103.254	19.893	7.228	0.492
362.500	251.521	80.007	19.996	103.254	19.892	7.293	0.493
363.000	251.793	80.006	19.996	103.255	19.892	7.293	0.497
363.500	252.003	80.006	19.995	103.254	19.892	7.323	0.494
364.000	252.212	80.005	19.996	103.254	19.890	7.473	0.451
364.500	252.489	80.007	19.994	103.248	19.891	7.399	0.452
365.000	252.699	80.006	19.996	103.245	19.884	7.816	0.486
365.500	252.956	80.006	19.995	103.244	19.887	7.673	0.477
366.000	253.183	80.007	19.994	103.243	19.884	7.832	0.475
366.500	253.479	80.006	19.995	103.244	19.889	7.513	0.504
367.000	253.686	80.006	19.995	103.249	19.886	7.697	0.513
367.500	253.929	80.005	19.995	103.253	19.883	7.905	0.476
368.000	254.223	80.007	19.995	103.254	19.885	7.798	0.494
368.500	254.453	80.006	19.994	103.255	19.881	8.060	0.531
369.000	254.691	80.006	19.995	103.255	19.882	7.970	0.496
369.500	254.952	80.005	19.994	103.255	19.881	8.007	0.483
370.000	255.207	80.006	19.997	103.254	19.881	8.061	0.508
370.500	255.441	80.007	19.993	103.252	19.879	8.159	0.502
371.000	255.681	80.005	19.994	103.252	19.879	8.183	0.481
371.500	255.938	80.005	19.996	103.253	19.878	8.206	0.485
372.000	256.209	80.006	19.995	103.253	19.880	8.117	0.512
372.500	256.380	80.007	19.994	103.254	19.876	8.346	0.485
373.000	256.668	80.006	19.994	103.255	19.880	8.126	0.451
373.500	256.916	80.007	19.994	103.256	19.873	8.565	0.497
374.000	257.205	80.006	19.995	103.255	19.875	8.442	0.536
374.500	257.384	80.005	19.995	103.255	19.876	8.398	0.502
375.000	257.676	80.006	19.993	103.254	19.875	8.413	0.470
375.500	257.919	80.006	19.996	103.254	19.870	8.763	0.503
376.000	258.127	80.006	19.996	103.252	19.872	8.606	0.493
376.500	258.417	80.006	19.996	103.252	19.871	8.718	0.474
377.000	258.657	80.006	19.995	103.252	19.874	8.478	0.514
377.500	258.866	80.006	19.996	103.252	19.873	8.562	0.489
378.000	259.159	80.006	19.996	103.252	19.874	8.507	0.475
378.500	259.378	80.007	19.995	103.254	19.869	8.816	0.507
379.000	259.639	80.003	19.994	103.253	19.868	8.901	0.496
379.500	259.884	80.005	19.995	103.251	19.869	8.869	0.493
380.000	260.081	80.004	19.995	103.251	19.871	8.706	0.474
380.500	260.363	80.004	19.996	103.250	19.864	9.165	0.461
381.000	260.616	80.005	19.996	103.248	19.866	9.038	0.507
381.500	260.871	80.005	19.994	103.249	19.865	9.108	0.522
382.000	261.109	80.006	19.996	103.250	19.862	9.310	0.500
382.500	261.306	80.004	19.995	103.246	19.861	9.382	0.464
383.000	261.562	80.005	19.996	103.243	19.867	8.980	0.444
383.500	261.808	80.006	19.996	103.244	19.859	9.485	0.478
384.000	262.054	80.006	19.996	103.243	19.860	9.458	0.497
384.500	262.287	80.005	19.996	103.243	19.860	9.440	0.485
385.000	262.557	80.006	19.996	103.242	19.860	9.420	0.491
385.500	262.779	80.006	19.996	103.239	19.857	9.608	0.498
386.000	263.044	80.005	19.996	103.238	19.855	9.765	0.490
386.500	263.316	80.005	19.996	103.238	19.856	9.716	0.512
387.000	263.534	80.004	19.995	103.236	19.857	9.631	0.514
387.500	263.793	80.006	19.996	103.239	19.854	9.863	0.484
388.000	264.021	80.005	19.997	103.245	19.856	9.704	0.482
388.500	264.269	80.006	19.996	103.246	19.852	9.979	0.481
389.000	264.531	80.007	19.996	103.247	19.852	9.956	0.493
389.500	264.787	80.007	19.996	103.250	19.852	9.952	0.514
390.000	265.033	80.006	19.997	103.251	19.850	10.073	0.510
390.500	265.252	80.007	19.995	103.250	19.851	10.061	0.484
391.000	265.521	80.006	19.995	103.249	19.848	10.214	0.476
391.500	265.797	80.007	19.996	103.245	19.849	10.173	0.516
392.000	266.014	80.007	19.996	103.243	19.848	10.249	0.519
392.500	266.275	80.007	19.996	103.243	19.846	10.382	0.486
393.000	266.542	80.007	19.995	103.241	19.850	10.106	0.504
393.500	266.773	80.006	19.996	103.236	19.844	10.493	0.514
394.000	267.036	80.007	19.995	103.236	19.841	10.680	0.496
394.500	267.297	80.006	19.995	103.237	19.843	10.549	0.509
395.000	267.512	80.008	19.995	103.236	19.841	10.706	0.500
395.500	267.776	80.008	19.995	103.238	19.842	10.624	0.477
396.000	268.021	80.008	19.995	103.239	19.841	10.709	0.494
396.500	268.271	80.007	19.995	103.238	19.841	10.670	0.502
397.000	268.493	80.009	19.995	103.236	19.839	10.805	0.483
397.500	268.768	80.008	19.995	103.236	19.840	10.796	0.484
398.000	269.012	80.008	19.994	103.237	19.837	10.975	0.508
398.501	269.277	80.009	19.993	103.239	19.837	10.982	0.514
399.000	269.514	80.008	19.995	103.243	19.834	11.146	0.506
399.500	269.755	80.009	19.995	103.245	19.837	10.989	0.490
400.000	269.999	80.009	19.994	103.246	19.834	11.155	0.482
400.500	270.284	80.007	19.995	103.248	19.832	11.312	0.507
401.000	270.566	80.008	19.995	103.251	19.829	11.484	0.548
401.500	270.805	80.008	19.995	103.252	19.831	11.379	0.544
402.000	271.041	80.008	19.995	103.252	19.831	11.372	0.498
402.500	271.288	80.007	19.994	103.253	19.828	11.567	0.479
403.000	271.559	80.007	19.995	103.253	19.826	11.674	0.501
403.500	271.773	80.008	19.994	103.253	19.827	11.603	0.501
404.000	272.046	80.007	19.995	103.253	19.826	11.706	0.486
404.500	272.302	80.007	19.996	103.254	19.826	11.713	0.508
405.000	272.586	80.007	19.995	103.253	19.819	12.127	0.535
405.500	272.787	80.007	19.997	103.254	19.821	12.024	0.513
406.000	273.039	80.007	19.996	103.253	19.817	12.302	0.469
406.500	273.342	80.007	19.995	103.253	19.821	12.008	0.504
407.000	273.585	80.008	19.995	103.253	19.818	12.207	0.550
407.500	273.857	80.008	19.996	103.252	19.812	12.597	0.530
408.000	274.080	80.008	19.995	103.253	19.817	12.315	0.505
408.500	274.329	80.007	19.995	103.253	19.815	12.413	0.484
409.000	274.572	80.008	19.995	103.253	19.811	12.698	0.482
409.500	274.847	80.008	19.995	103.253	19.811	12.673	0.505
410.000	275.067	80.006	19.996	103.253	19.807	12.926	0.506
410.500	275.371	80.009	19.996	103.252	19.807	12.960	0.510
411.000	275.599	80.007	19.995	103.252	19.807	12.963	0.528
411.500	275.813	80.007	19.995	103.251	19.806	12.992	0.487
412.000	276.087	80.008	19.996	103.252	19.803	13.209	0.465
412.500	276.380	80.008	19.995	103.253	19.802	13.290	0.528
413.000	276.605	80.007	19.994	103.253	19.804	13.171	0.542
413.500	276.863	80.009	19.996	103.254	19.801	13.386	0.500
414.000	277.129	80.008	19.996	103.254	19.799	13.507	0.503
414.500	277.352	80.007	19.994	103.253	19.798	13.545	0.507
415.000	277.610	80.007	19.995	103.253	19.795	13.772	0.485
415.500	277.893	80.008	19.995	103.253	19.794	13.789	0.511
416.000	278.133	80.007	19.995	103.253	19.795	13.747	0.532
416.500	278.374	80.007	19.995	103.253	19.793	13.854	0.502
417.000	278.621	80.008	19.994	103.253	19.790	14.054	0.484
417.500	278.904	80.008	19.994	103.254	19.787	14.304	0.509
418.000	279.139	80.009	19.995	103.255	19.790	14.076	0.524
418.500	279.383	80.007	19.996	103.256	19.784	14.481	0.498
419.000	279.641	80.009	19.996	103.256	19.783	14.539	0.490
419.500	279.897	80.007	19.994	103.256	19.780	14.761	0.508
420.000	280.173	80.009	19.994	103.257	19.781	14.708	0.523
420.500	280.388	80.007	19.995	103.256	19.779	14.808	0.512
421.000	280.606	80.008	19.995	103.256	19.778	14.850	0.462
421.500	280.914	80.008	19.995	103.256	19.776	15.037	0.479
422.000	281.147	80.010	19.994	103.255	19.774	15.147	0.533
422.500	281.370	80.009	19.994	103.253	19.775	15.091	0.498
423.000	281.621	80.009	19.995	103.253	19.773	15.217	0.465
423.500	281.907	80.008	19.993	103.252	19.775	15.083	0.506
424.000	282.150	80.008	19.994	103.253	19.769	15.505	0.533
424.500	282.400	80.010	19.994	103.254	19.768	15.518	0.510
425.000	282.637	80.008	19.996	103.254	19.768	15.559	0.490
425.500	282.914	80.009	19.996	103.254	19.767	15.603	0.501
426.000	283.129	80.009	19.994	103.254	19.763	15.865	0.503
426.500	283.394	80.009	19.995	103.254	19.761	16.006	0.486
427.000	283.650	80.007	19.994	103.255	19.758	16.196	0.501
427.500	283.925	80.006	19.994	103.254	19.760	16.068	0.526
428.000	284.155	80.008	19.994	103.255	19.755	16.400	0.518
428.500	284.393	80.008	19.995	103.256	19.754	16.465	0.487
429.000	284.662	80.007	19.995	103.257	19.752	16.586	0.488
429.500	284.923	80.008	19.993	103.258	19.750	16.738	0.518
430.000	285.121	80.008	19.995	103.258	19.750	16.762	0.494
430.500	285.429	80.007	19.995	103.258	19.744	17.165	0.482
431.000	285.647	80.008	19.994	103.257	19.744	17.133	0.516
431.500	285.910	80.007	19.994	103.258	19.742	17.284	0.504
432.000	286.153	80.006	19.994	103.261	19.740	17.386	0.494
432.500	286.394	80.005	19.994	103.266	19.741	17.345	0.495
433.000	286.667	80.005	19.996	103.266	19.736	17.653	0.499
433.500	286.961	80.007	19.994	103.267	19.734	17.790	0.541
434.000	287.160	80.005	19.994	103.266	19.734	17.811	0.530
434.500	287.416	80.007	19.994	103.263	19.730	18.109	0.474
435.000	287.667	80.006	19.995	103.258	19.728	18.196	0.481
435.500	287.930	80.006	19.994	103.258	19.729	18.127	0.511
436.000	288.185	80.006	19.995	103.258	19.725	18.399	0.516
436.500	288.417	80.007	19.995	103.262	19.726	18.336	0.503
437.000	288.681	80.006	19.994	103.264	19.723	18.551	0.492
437.500	288.952	80.007	19.995	103.265	19.720	18.746	0.516
438.000	289.192	80.007	19.994	103.265	19.721	18.680	0.523
438.500	289.465	80.006	19.994	103.266	19.716	18.998	0.512
439.000	289.712	80.006	19.994	103.264	19.716	19.025	0.516
439.500	289.986	80.005	19.995	103.264	19.716	18.992	0.521
440.000	290.182	80.006	19.994	103.265	19.708	19.538	0.496
440.500	290.452	80.006	19.994	103.269	19.711	19.364	0.468
441.000	290.686	80.005	19.996	103.271	19.708	19.547	0.485
441.500	290.965	80.006	19.994	103.271	19.705	19.744	0.509
442.000	291.230	80.007	19.995	103.274	19.703	19.860	0.528
442.500	291.475	80.006	19.995	103.278	19.699	20.134	0.527
443.000	291.698	80.007	19.995	103.276	19.696	20.337	0.489
443.500	291.978	80.007	19.995	103.277	19.695	20.398	0.485
444.000	292.200	80.006	19.994	103.282	19.695	20.393	0.502
444.500	292.468	80.005	19.994	103.283	19.691	20.669	0.496
445.000	292.729	80.005	19.995	103.286	19.692	20.595	0.510
445.500	292.961	80.005	19.995	103.290	19.691	20.636	0.511
446.000	293.245	80.007	19.995	103.290	19.685	21.056	0.504
446.500	293.466	80.006	19.996	103.286	19.685	21.070	0.510
447.000	293.723	80.006	19.995	103.285	19.680	21.412	0.492
447.500	293.991	80.006	19.995	103.283	19.678	21.538	0.501
448.000	294.243	80.006	19.997	103.282	19.678	21.502	0.522
448.500	294.542	80.007	19.995	103.281	19.677	21.601	0.536
449.000	294.734	80.007	19.995	103.281	19.670	22.093	0.521
449.500	295.030	80.007	19.996	103.280	19.668	22.183	0.490
450.000	295.250	80.007	19.995	103.279	19.669	22.147	0.502
450.500	295.522	80.006	19.996	103.278	19.666	22.350	0.504
451.000	295.764	80.007	19.996	103.281	19.664	22.473	0.503
451.500	296.012	80.006	19.996	103.285	19.660	22.723	0.502
452.000	296.302	80.008	19.995	103.286	19.658	22.891	0.514
452.500	296.552	80.007	19.995	103.288	19.653	23.222	0.539
453.000	296.807	80.007	19.995	103.288	19.652	23.249	0.522
453.500	297.053	80.007	19.996	103.288	19.647	23.605	0.503
454.000	297.269	80.007	19.995	103.288	19.645	23.701	0.482
454.500	297.553	80.007	19.995	103.287	19.643	23.846	0.481
455.000	297.764	80.007	19.996	103.288	19.642	23.908	0.497
455.500	298.027	80.007	19.995	103.289	19.638	24.216	0.485
456.000	298.308	80.008	19.996	103.290	19.637	24.256	0.509
456.500	298.576	80.006	19.995	103.287	19.634	24.450	0.547
457.000	298.817	80.006	19.995	103.283	19.631	24.672	0.529
457.500	299.131	80.007	19.996	103.281	19.629	24.759	0.532
458.000	299.323	80.008	19.996	103.279	19.627	24.938	0.530
458.500	299.564	80.007	19.995	103.278	19.629	24.807	0.469
459.000	299.856	80.006	19.997	103.282	19.622	25.259	0.483
459.500	300.071	80.006	19.996	103.286	19.619	25.449	0.520
460.000	300.331	80.006	19.996	103.288	19.620	25.402	0.491
460.500	300.584	80.006	19.996	103.289	19.619	25.485	0.494
461.000	300.784	80.006	19.996	103.291	19.617	25.601	0.483
461.500	301.059	80.007	19.995	103.291	19.611	25.978	0.463
462.000	301.355	80.006	19.996	103.291	19.609	26.139	0.523
462.500	301.574	80.006	19.996	103.289	19.607	26.278	0.543
463.000	301.804	80.005	19.996	103.289	19.602	26.588	0.482
463.500	302.054	80.006	19.996	103.289	19.602	26.605	0.465
464.000	302.330	80.005	19.996	103.289	19.596	26.979	0.503
464.500	302.583	80.005	19.995	103.290	19.596	26.984	0.527
465.000	302.814	80.006	19.995	103.292	19.595	27.047	0.506
465.500	303.073	80.006	19.995	103.293	19.592	27.278	0.487
466.000	303.308	80.006	19.996	103.293	19.592	27.227	0.492
466.500	303.579	80.005	19.996	103.297	19.589	27.457	0.500
467.000	303.809	80.006	19.996	103.301	19.585	27.679	0.503
467.500	304.051	80.006	19.995	103.302	19.581	28.001	0.487
468.000	304.313	80.006	19.997	103.302	19.576	28.314	0.488
468.500	304.532	80.005	19.996	103.301	19.576	28.341	0.492
469.000	304.819	80.007	19.995	103.297	19.571	28.632	0.493
469.500	305.084	80.004	19.996	103.294	19.574	28.471	0.529
470.000	305.334	80.006	19.995	103.293	19.571	28.630	0.533
470.500	305.576	80.004	19.996	103.295	19.566	28.967	0.503
471.000	305.834	80.006	19.996	103.296	19.567	28.927	0.496
471.500	306.086	80.007	19.996	103.296	19.562	29.230	0.505
472.000	306.322	80.006	19.996	103.295	19.560	29.385	0.499
472.500	306.561	80.007	19.995	103.295	19.558	29.502	0.481
473.000	306.830	80.006	19.996	103.293	19.556	29.660	0.492
473.500	307.100	80.006	19.996	103.293	19.553	29.832	0.524
474.000	307.352	80.007	19.996	103.292	19.550	30.024	0.530
474.500	307.605	80.007	19.996	103.292	19.549	30.106	0.513
475.000	307.866	80.008	19.996	103.292	19.545	30.380	0.510
475.500	308.116	80.007	19.996	103.291	19.543	30.494	0.513
476.000	308.384	80.006	19.997	103.291	19.542	30.582	0.515
476.500	308.643	80.006	19.997	103.290	19.543	30.506	0.523
477.000	308.854	80.007	19.996	103.290	19.540	30.720	0.498
477.500	309.109	80.007	19.996	103.291	19.536	30.991	0.468
478.000	309.373	80.007	19.995	103.291	19.535	31.066	0.492
478.500	309.624	80.006	19.997	103.292	19.532	31.220	0.517
479.000	309.873	80.007	19.998	103.295	19.531	31.281	0.508
479.500	310.138	80.007	19.997	103.299	19.528	31.482	0.507
480.000	310.358	80.008	19.997	103.300	19.526	31.638	0.499
480.500	310.620	80.008	19.996	103.305	19.524	31.790	0.484
481.000	310.890	80.008	19.996	103.306	19.526	31.667	0.507
481.500	311.148	80.007	19.996	103.307	19.521	31.969	0.530
482.000	311.364	80.007	19.996	103.303	19.520	32.009	0.501
482.500	311.618	80.006	19.997	103.305	19.517	32.247	0.472
483.000	311.898	80.007	19.996	103.303	19.516	32.285	0.502
483.500	312.167	80.006	19.995	103.304	19.510	32.725	0.541
484.000	312.424	80.007	19.996	103.301	19.510	32.681	0.537
484.500	312.687	80.006	19.996	103.302	19.510	32.720	0.523
485.000	312.907	80.006	19.995	103.303	19.509	32.769	0.502
485.500	313.174	80.005	19.995	103.305	19.507	32.887	0.486
486.000	313.408	80.007	19.996	103.308	19.505	33.026	0.494
486.500	313.666	80.007	19.995	103.316	19.506	32.941	0.496
487.000	313.904	80.007	19.995	103.321	19.505	33.038	0.494
487.500	314.185	80.007	19.996	103.321	19.500	33.397	0.508
488.000	314.441	80.007	19.995	103.322	19.501	33.311	0.528
488.500	314.668	80.007	19.994	103.322	19.497	33.561	0.510
489.000	314.899	80.007	19.995	103.320	19.498	33.527	0.471
489.500	315.143	80.008	19.994	103.313	19.494	33.780	0.467
490.000	315.406	80.007	19.994	103.313	19.490	34.015	0.491
490.500	315.665	80.007	19.995	103.309	19.489	34.086	0.514
491.000	315.914	80.007	19.994	103.304	19.487	34.213	0.515
491.500	316.149	80.007	19.996	103.301	19.489	34.121	0.496
492.000	316.406	80.007	19.995	103.303	19.487	34.255	0.488
492.500	316.669	80.007	19.994	103.301	19.485	34.355	0.506
493.000	316.888	80.007	19.995	103.299	19.486	34.290	0.501
493.500	317.142	80.005	19.995	103.299	19.482	34.558	0.477
494.000	317.405	80.007	19.994	103.297	19.483	34.508	0.495
494.500	317.670	80.007	19.994	103.295	19.481	34.657	0.523
495.000	317.913	80.008	19.995	103.294	19.482	34.550	0.518
495.500	318.185	80.007	19.995	103.297	19.476	34.971	0.511
496.000	318.425	80.007	19.993	103.300	19.476	34.978	0.513
496.500	318.658	80.007	19.995	103.306	19.472	35.257	0.493
497.000	318.909	80.007	19.995	103.312	19.471	35.275	0.479
497.500	319.117	80.008	19.995	103.317	19.474	35.118	0.471
498.000	319.397	80.007	19.995	103.320	19.472	35.242	0.473
498.500	319.644	80.009	19.994	103.319	19.472	35.243	0.507
499.000	319.894	80.009	19.994	103.315	19.469	35.400	0.512
499.500	320.167	80.008	19.995	103.315	19.469	35.454	0.510
500.000	320.424	80.008	19.996	103.317	19.467	35.564	0.527
500.500	320.643	80.009	19.994	103.317	19.468	35.524	0.503
501.000	320.921	80.008	19.995	103.319	19.467	35.573	0.486
501.500	321.140	80.009	19.993	103.319	19.470	35.338	0.497
502.000	321.418	80.009	19.995	103.317	19.466	35.633	0.497
502.500	321.648	80.009	19.995	103.317	19.467	35.549	0.502
503.000	321.888	80.009	19.994	103.316	19.465	35.671	0.489
503.500	322.127	80.009	19.995	103.319	19.464	35.746	0.475
504.000	322.396	80.008	19.995	103.323	19.468	35.466	0.494
504.500	322.636	80.008	19.994	103.326	19.464	35.751	0.509
505.000	322.865	80.008	19.995	103.323	19.463	35.848	0.489
505.500	323.111	80.008	19.994	103.319	19.462	35.870	0.472
506.000	323.364	80.009	19.995	103.314	19.463	35.821	0.487
506.500	323.606	80.008	19.994	103.312	19.463	35.854	0.497
507.000	323.847	80.008	19.996	103.311	19.463	35.856	0.488
507.500	324.136	80.009	19.994	103.308	19.464	35.750	0.506
508.000	324.366	80.008	19.995	103.309	19.459	36.110	0.525
508.500	324.614	80.007	19.995	103.309	19.459	36.119	0.499
509.000	324.865	80.007	19.995	103.306	19.459	36.085	0.489
509.500	325.125	80.007	19.994	103.306	19.460	36.010	0.504
510.000	325.325	80.007	19.995	103.311	19.462	35.896	0.485
510.500	325.603	80.007	19.993	103.314	19.458	36.186	0.469
511.000	325.859	80.007	19.995	103.318	19.461	35.985	0.506
511.500	326.087	80.006	19.996	103.322	19.461	35.950	0.509
512.000	326.370	80.008	19.995	103.325	19.456	36.263	0.498
512.500	326.705	80.007	19.994	103.323	19.460	36.009	0.565
513.000	326.825	80.006	19.994	103.321	19.456	36.307	0.537
513.500	327.049	80.006	19.994	103.316	19.460	36.039	0.400
514.000	327.356	80.007	19.994	103.315	19.459	36.116	0.438
514.500	327.588	80.006	19.995	103.311	19.458	36.136	0.535
515.000	327.891	80.006	19.994	103.309	19.456	36.311	0.537
515.500	328.104	80.005	19.995	103.311	19.454	36.425	0.525
516.000	328.345	80.004	19.995	103.315	19.455	36.344	0.485
516.500	328.617	80.008	19.995	103.311	19.453	36.465	0.483
517.000	328.870	80.005	19.994	103.308	19.454	36.407	0.519
517.500	329.149	80.006	19.995	103.307	19.457	36.207	0.529
518.000	329.381	80.005	19.996	103.308	19.452	36.565	0.522
518.500	329.659	80.005	19.994	103.307	19.452	36.545	0.510
519.000	329.888	80.005	19.995	103.309	19.456	36.300	0.508
519.500	330.132	80.006	19.994	103.315	19.454	36.463	0.490
520.000	330.411	80.006	19.994	103.321	19.454	36.412	0.498
520.500	330.644	80.007	19.995	103.322	19.455	36.389	0.518
521.000	330.880	80.007	19.995	103.323	19.452	36.588	0.490
521.500	331.173	80.008	19.995	103.325	19.452	36.548	0.498
522.000	331.391	80.007	19.995	103.325	19.451	36.635	0.520
522.500	331.618	80.006	19.996	103.323	19.452	36.543	0.478
523.000	331.905	80.006	19.995	103.319	19.449	36.745	0.480
523.500	332.139	80.006	19.995	103.316	19.451	36.643	0.518
524.000	332.411	80.007	19.995	103.314	19.453	36.511	0.513
524.500	332.628	80.006	19.994	103.314	19.458	36.160	0.498
525.000	332.950	80.006	19.993	103.315	19.452	36.567	0.514
525.500	333.144	80.008	19.994	103.320	19.444	37.122	0.527
526.000	333.453	80.007	19.995	103.322	19.443	37.131	0.510
526.500	333.665	80.007	19.995	103.322	19.445	37.015	0.512
527.000	333.942	80.007	19.994	103.317	19.446	36.962	0.504
527.500	334.208	80.007	19.995	103.311	19.446	36.931	0.516
528.000	334.460	80.006	19.995	103.310	19.447	36.927	0.531
528.500	334.736	80.006	19.994	103.313	19.447	36.918	0.523
529.000	334.956	80.007	19.995	103.318	19.447	36.868	0.512
529.500	335.227	80.007	19.995	103.324	19.443	37.149	0.493
530.000	335.438	80.007	19.994	103.330	19.444	37.111	0.487
530.500	335.677	80.007	19.995	103.331	19.442	37.248	0.466
531.000	335.957	80.006	19.994	103.330	19.445	37.040	0.484
531.500	336.192	80.008	19.996	103.331	19.438	37.510	0.517
532.000	336.462	80.007	19.995	103.328	19.445	37.019	0.510
532.500	336.742	80.007	19.994	103.327	19.442	37.250	0.528
533.000	336.969	80.007	19.995	103.327	19.440	37.356	0.528
533.500	337.229	80.008	19.995	103.328	19.435	37.667	0.497
534.000	337.512	80.008	19.996	103.328	19.440	37.329	0.515
534.500	337.713	80.007	19.996	103.330	19.443	37.151	0.514
535.000	337.970	80.007	19.996	103.331	19.441	37.319	0.471
535.500	338.265	80.007	19.994	103.327	19.444	37.099	0.504
536.000	338.516	80.006	19.995	103.319	19.433	37.855	0.549
536.500	338.716	80.007	19.995	103.314	19.435	37.691	0.499
537.001	338.972	80.006	19.996	103.315	19.440	37.369	0.453
537.500	339.214	80.005	19.996	103.314	19.445	37.031	0.477
538.000	339.451	80.006	19.995	103.318	19.441	37.305	0.489
538.500	339.713	80.007	19.996	103.326	19.439	37.401	0.489
539.000	339.954	80.006	19.997	103.331	19.442	37.233	0.501
539.500	340.230	80.007	19.996	103.332	19.440	37.378	0.510
540.000	340.469	80.007	19.996	103.332	19.441	37.326	0.516
540.500	340.761	80.007	19.997	103.331	19.439	37.408	0.523
541.000	341.023	80.007	19.995	103.330	19.440	37.364	0.543
541.500	341.295	80.006	19.996	103.330	19.439	37.411	0.545
542.000	341.545	80.007	19.996	103.329	19.440	37.382	0.528
542.500	341.794	80.007	19.997	103.329	19.439	37.397	0.510
543.000	342.075	80.005	19.996	103.330	19.437	37.541	0.514
543.500	342.272	80.006	19.996	103.329	19.440	37.379	0.504
544.000	342.606	80.005	19.995	103.329	19.437	37.538	0.504
544.500	342.824	80.005	19.995	103.328	19.440	37.359	0.542
545.000	343.069	80.005	19.995	103.328	19.439	37.403	0.508
545.500	343.353	80.005	19.996	103.329	19.436	37.600	0.496
546.000	343.555	80.005	19.996	103.331	19.438	37.467	0.508
546.500	343.842	80.006	19.996	103.332	19.437	37.540	0.488
547.000	344.066	80.006	19.995	103.333	19.436	37.630	0.500
547.500	344.364	80.005	19.995	103.334	19.438	37.502	0.517
548.000	344.616	80.005	19.995	103.333	19.437	37.577	0.536
548.500	344.853	80.007	19.994	103.332	19.437	37.527	0.520
549.000	345.072	80.006	19.996	103.331	19.438	37.471	0.472
549.500	345.390	80.006	19.996	103.331	19.438	37.495	0.496
550.000	345.555	80.005	19.995	103.331	19.442	37.223	0.510
550.500	345.841	80.005	19.994	103.329	19.441	37.262	0.467
551.000	346.093	80.006	19.995	103.330	19.442	37.246	0.494
551.500	346.355	80.006	19.995	103.330	19.443	37.140	0.526
552.000	346.640	80.007	19.994	103.331	19.441	37.270	0.531
552.500	346.919	80.007	19.995	103.328	19.441	37.295	0.555
553.000	347.153	80.007	19.995	103.325	19.447	36.898	0.539
553.500	347.431	80.006	19.995	103.321	19.443	37.165	0.513
554.000	347.667	80.006	19.994	103.319	19.443	37.167	0.513
554.500	347.929	80.006	19.995	103.316	19.444	37.114	0.506
555.000	348.225	80.007	19.995	103.317	19.446	36.927	0.528
555.500	348.431	80.007	19.995	103.322	19.445	37.017	0.531
556.000	348.720	80.006	19.994	103.322	19.444	37.063	0.499
556.500	348.959	80.007	19.994	103.318	19.447	36.890	0.511
557.000	349.235	80.007	19.995	103.314	19.449	36.777	0.522
557.500	349.458	80.007	19.995	103.312	19.450	36.685	0.507
558.000	349.763	80.008	19.994	103.307	19.450	36.682	0.513
558.500	350.015	80.006	19.995	103.307	19.454	36.434	0.542
559.000	350.279	80.008	19.995	103.310	19.455	36.354	0.536
559.500	350.522	80.007	19.996	103.309	19.454	36.385	0.511
560.000	350.772	80.008	19.995	103.311	19.455	36.372	0.500
560.500	351.039	80.006	19.994	103.313	19.456	36.286	0.505
561.000	351.281	80.008	19.994	103.309	19.460	36.024	0.513
561.500	351.539	80.006	19.996	103.306	19.462	35.908	0.504
562.001	351.763	80.006	19.995	103.304	19.461	35.977	0.491
562.501	352.055	80.006	19.995	103.299	19.462	35.890	0.499
563.001	352.293	80.004	19.995	103.295	19.464	35.766	0.523
563.500	352.517	80.006	19.996	103.294	19.460	36.018	0.497
564.000	352.831	80.006	19.995	103.294	19.467	35.518	0.501
564.500	353.075	80.007	19.996	103.294	19.469	35.429	0.548
565.000	353.337	80.006	19.996	103.294	19.471	35.255	0.532
565.500	353.576	80.006	19.996	103.294	19.470	35.348	0.504
566.000	353.820	80.006	19.997	103.294	19.481	34.639	0.492
566.500	354.085	80.006	19.996	103.295	19.477	34.900	0.496
567.000	354.347	80.006	19.996	103.295	19.477	34.896	0.518
567.500	354.598	80.007	19.995	103.293	19.478	34.785	0.520
568.000	354.858	80.007	19.996	103.291	19.480	34.654	0.512
568.500	355.113	80.007	19.996	103.291	19.485	34.337	0.513
569.000	355.337	80.006	19.997	103.291	19.486	34.274	0.497
569.500	355.629	80.006	19.996	103.290	19.485	34.360	0.497
570.000	355.843	80.006	19.996	103.290	19.489	34.080	0.511
570.500	356.130	80.007	19.995	103.291	19.491	33.924	0.504
571.000	356.378	80.007	19.996	103.290	19.496	33.645	0.518
571.500	356.615	80.007	19.996	103.291	19.494	33.725	0.510
572.000	356.866	80.005	19.996	103.292	19.495	33.671	0.487
572.500	357.138	80.008	19.996	103.295	19.500	33.358	0.505
573.000	357.379	80.006	19.997	103.295	19.501	33.265	0.518
573.500	357.646	80.007	19.996	103.295	19.505	33.014	0.511
574.000	357.913	80.009	19.996	103.293	19.502	33.234	0.521
574.500	358.133	80.006	19.995	103.290	19.506	32.967	0.511
575.000	358.398	80.008	19.996	103.286	19.506	32.932	0.486
575.500	358.635	80.007	19.995	103.279	19.507	32.859	0.493
576.000	358.880	80.007	19.994	103.272	19.514	32.412	0.492
576.500	359.084	80.009	19.996	103.269	19.514	32.441	0.466
577.000	359.369	80.009	19.995	103.267	19.519	32.098	0.469
577.500	359.602	80.007	19.995	103.264	19.525	31.709	0.504
578.000	359.877	80.009	19.995	103.267	19.524	31.765	0.513
578.500	360.101	80.007	19.994	103.271	19.524	31.721	0.503
579.000	360.364	80.007	19.996	103.273	19.525	31.699	0.493
579.500	360.599	80.009	19.995	103.276	19.528	31.455	0.492
580.001	360.878	80.010	19.995	103.276	19.535	31.000	0.506
580.500	361.167	80.010	19.994	103.273	19.532	31.204	0.542
581.000	361.383	80.009	19.994	103.268	19.535	31.027	0.536
581.500	361.595	80.009	19.993	103.261	19.537	30.897	0.466
582.000	361.873	80.009	19.994	103.253	19.537	30.919	0.459
582.500	362.128	80.010	19.995	103.253	19.545	30.365	0.512
583.000	362.308	80.010	19.994	103.254	19.545	30.344	0.484
583.500	362.582	80.009	19.994	103.254	19.547	30.192	0.445
584.000	362.826	80.010	19.994	103.258	19.550	30.011	0.486
584.500	363.046	80.009	19.994	103.261	19.552	29.901	0.492
585.000	363.334	80.008	19.994	103.261	19.557	29.534	0.486
585.500	363.601	80.008	19.994	103.261	19.556	29.608	0.531
586.000	363.789	80.009	19.994	103.261	19.558	29.519	0.504
586.500	364.068	80.009	19.995	103.258	19.562	29.220	0.460
587.000	364.327	80.008	19.994	103.254	19.561	29.267	0.502
587.500	364.534	80.009	19.994	103.254	19.565	29.016	0.502
588.000	364.780	80.007	19.994	103.254	19.565	29.036	0.460
588.500	365.006	80.006	19.994	103.254	19.571	28.642	0.463
589.000	365.277	80.007	19.994	103.253	19.570	28.714	0.485
589.500	365.503	80.006	19.994	103.252	19.572	28.545	0.497
590.000	365.790	80.006	19.995	103.251	19.575	28.373	0.505
590.500	365.993	80.006	19.995	103.249	19.578	28.195	0.502
591.000	366.277	80.007	19.995	103.248	19.578	28.139	0.489
591.500	366.487	80.005	19.995	103.249	19.578	28.147	0.491
592.000	366.762	80.006	19.995	103.250	19.582	27.897	0.490
592.500	366.982	80.007	19.995	103.250	19.586	27.612	0.490
593.000	367.235	80.006	19.995	103.250	19.582	27.922	0.484
593.500	367.455	80.008	19.995	103.247	19.585	27.699	0.473
594.000	367.717	80.007	19.995	103.241	19.593	27.140	0.478
594.500	367.956	80.006	19.995	103.234	19.591	27.301	0.491
595.000	368.184	80.005	19.994	103.227	19.596	26.981	0.484
595.500	368.438	80.007	19.995	103.222	19.597	26.920	0.474
596.000	368.681	80.006	19.994	103.221	19.601	26.611	0.490
596.500	368.921	80.007	19.994	103.224	19.602	26.543	0.490
597.000	369.126	80.006	19.995	103.231	19.605	26.344	0.464
597.500	369.446	80.006	19.995	103.239	19.610	26.055	0.485
598.000	369.659	80.006	19.995	103.245	19.606	26.275	0.529
598.500	369.880	80.006	19.995	103.246	19.609	26.100	0.483
599.000	370.127	80.009	19.995	103.244	19.613	25.822	0.451
599.500	370.367	80.006	19.995	103.244	19.610	26.001	0.478
600.000	370.640	80.005	19.995	103.242	19.615	25.732	0.501
600.500	370.833	80.007	19.995	103.242	19.620	25.341	0.490
601.000	371.101	80.005	19.995	103.245	19.620	25.373	0.463
601.500	371.339	80.006	19.995	103.241	19.621	25.283	0.483
602.000	371.578	80.008	19.995	103.234	19.625	25.054	0.492
602.500	371.813	80.007	19.994	103.232	19.627	24.916	0.476
603.000	372.060	80.006	19.994	103.226	19.626	24.955	0.478
603.500	372.342	80.007	19.995	103.223	19.629	24.793	0.505
604.000	372.590	80.008	19.995	103.228	19.633	24.498	0.530
604.500	372.811	80.008	19.994	103.228	19.635	24.359	0.500
605.000	373.097	80.008	19.995	103.226	19.632	24.554	0.488
605.500	373.280	80.007	19.995	103.228	19.636	24.302	0.488
606.000	373.536	80.007	19.994	103.225	19.638	24.170	0.454
606.500	373.824	80.007	19.995	103.220	19.638	24.150	0.491
607.000	374.024	80.006	19.995	103.220	19.639	24.081	0.516
607.500	374.286	80.005	19.993	103.220	19.644	23.765	0.476
608.000	374.540	80.008	19.995	103.218	19.645	23.675	0.489
608.500	374.759	80.006	19.994	103.219	19.650	23.386	0.494
609.000	375.028	80.007	19.995	103.219	19.649	23.453	0.481
609.500	375.274	80.007	19.994	103.218	19.650	23.400	0.501
610.000	375.500	80.007	19.995	103.219	19.657	22.942	0.493
610.500	375.819	80.008	19.994	103.219	19.655	23.054	0.509
611.000	376.061	80.007	19.995	103.220	19.659	22.758	0.553
611.500	376.260	80.005	19.996	103.223	19.661	22.673	0.501
612.000	376.533	80.007	19.994	103.222	19.661	22.634	0.457
612.500	376.778	80.007	19.994	103.221	19.664	22.471	0.495
613.000	377.028	80.006	19.995	103.221	19.663	22.516	0.507
613.500	377.265	80.007	19.994	103.220	19.663	22.545	0.491
614.000	377.518	80.008	19.995	103.217	19.669	22.121	0.488
614.500	377.737	80.007	19.994	103.217	19.668	22.191	0.481
615.000	377.991	80.008	19.994	103.218	19.670	22.033	0.472
615.500	378.239	80.006	19.993	103.217	19.672	21.892	0.487
616.000	378.485	80.006	19.994	103.217	19.673	21.824	0.498
616.500	378.712	80.007	19.995	103.218	19.672	21.923	0.484
617.000	378.972	80.007	19.994	103.218	19.678	21.491	0.480
617.500	379.229	80.007	19.994	103.217	19.677	21.567	0.501
618.000	379.483	80.007	19.994	103.217	19.682	21.253	0.514
618.500	379.697	80.006	19.995	103.215	19.683	21.207	0.490
619.000	379.954	80.007	19.993	103.215	19.682	21.279	0.470
619.500	380.180	80.006	19.994	103.215	19.683	21.160	0.477
620.000	380.444	80.006	19.993	103.215	19.685	21.062	0.486
620.500	380.676	80.007	19.995	103.216	19.688	20.880	0.492
621.000	380.944	80.004	19.994	103.217	19.685	21.025	0.498
621.500	381.171	80.004	19.993	103.218	19.694	20.467	0.498
622.001	381.462	80.005	19.994	103.218	19.692	20.615	0.506
622.501	381.672	80.006	19.995	103.218	19.698	20.187	0.509
623.001	381.903	80.006	19.994	103.218	19.699	20.142	0.471
623.500	382.188	80.007	19.994	103.217	19.695	20.364	0.478
624.000	382.395	80.006	19.996	103.216	19.698	20.159	0.504
624.500	382.659	80.005	19.994	103.216	19.701	20.005	0.482
625.000	382.918	80.006	19.995	103.216	19.704	19.776	0.497
625.501	383.127	80.006	19.995	103.218	19.703	19.836	0.495
626.000	383.385	80.005	19.995	103.220	19.709	19.448	0.468
626.500	383.659	80.005	19.995	103.221	19.709	19.465	0.500
627.000	383.880	80.004	19.994	103.221	19.707	19.593	0.513
627.500	384.144	80.005	19.994	103.221	19.709	19.426	0.489
628.000	384.376	80.005	19.994	103.220	19.711	19.323	0.490
628.500	384.651	80.007	19.994	103.219	19.713	19.180	0.502
629.000	384.879	80.006	19.996	103.219	19.717	18.947	0.506
629.500	385.108	80.005	19.995	103.217	19.718	18.868	0.481
630.000	385.358	80.004	19.995	103.217	19.718	18.855	0.468
630.500	385.591	80.005	19.995	103.216	19.719	18.822	0.481
631.000	385.889	80.006	19.995	103.215	19.720	18.705	0.507
631.500	386.122	80.006	19.996	103.216	19.723	18.560	0.531
632.000	386.393	80.007	19.996	103.217	19.721	18.672	0.518
632.500	386.607	80.005	19.996	103.217	19.727	18.231	0.495
633.000	386.842	80.006	19.995	103.218	19.724	18.449	0.466
633.500	387.092	80.006	19.995	103.218	19.727	18.280	0.467
634.000	387.378	80.006	19.995	103.217	19.730	18.069	0.510
634.500	387.584	80.007	19.996	103.215	19.729	18.135	0.514
635.000	387.848	80.008	19.994	103.211	19.732	17.952	0.481
635.500	388.107	80.007	19.995	103.209	19.733	17.831	0.497
636.000	388.338	80.007	19.994	103.209	19.734	17.766	0.506
636.500	388.620	80.008	19.995	103.210	19.737	17.600	0.502
637.000	388.852	80.009	19.995	103.211	19.737	17.596	0.514
637.500	389.128	80.009	19.994	103.215	19.738	17.507	0.511
638.000	389.310	80.008	19.996	103.214	19.738	17.544	0.483
638.500	389.614	80.008	19.994	103.210	19.740	17.388	0.473
639.000	389.830	80.008	19.995	103.209	19.742	17.285	0.503
639.500	390.085	80.009	19.995	103.209	19.746	16.969	0.495
640.000	390.387	80.008	19.995	103.209	19.744	17.154	0.514
640.500	390.592	80.008	19.996	103.212	19.748	16.895	0.532
641.000	390.833	80.008	19.995	103.216	19.746	16.980	0.476
641.500	391.082	80.008	19.994	103.217	19.748	16.877	0.468
642.000	391.361	80.007	19.994	103.215	19.748	16.863	0.510
642.500	391.561	80.008	19.995	103.214	19.746	16.982	0.503
643.000	391.822	80.007	19.995	103.213	19.754	16.480	0.470
643.500	392.094	80.008	19.994	103.212	19.748	16.851	0.497
644.000	392.378	80.007	19.995	103.210	19.754	16.493	0.544
644.500	392.626	80.008	19.995	103.211	19.752	16.573	0.544
645.000	392.852	80.007	19.996	103.212	19.758	16.206	0.503
645.500	393.095	80.007	19.995	103.212	19.759	16.134	0.471
646.000	393.433	80.006	19.994	103.213	19.757	16.249	0.525
646.500	393.635	80.007	19.996	103.214	19.755	16.399	0.561
647.000	393.873	80.007	19.994	103.213	19.759	16.168	0.490
647.500	394.193	80.007	19.995	103.213	19.762	15.940	0.499
648.000	394.474	80.007	19.995	103.214	19.763	15.854	0.580
648.500	394.626	80.007	19.995	103.213	19.752	16.587	0.517
649.000	394.972	80.008	19.995	103.213	19.759	16.135	0.465
649.500	395.167	80.007	19.996	103.213	19.763	15.850	0.520
650.000	395.408	80.007	19.996	103.213	19.765	15.711	0.488
650.500	395.701	80.009	19.996	103.213	19.772	15.285	0.485
651.000	395.898	80.008	19.995	103.214	19.769	15.450	0.512
651.500	396.163	80.008	19.995	103.213	19.765	15.757	0.476
652.000	396.439	80.006	19.996	103.212	19.768	15.568	0.501
652.500	396.693	80.008	19.995	103.212	19.769	15.466	0.535
653.000	396.885	80.007	19.996	103.211	19.770	15.426	0.488
653.500	397.265	80.007	19.996	103.211	19.769	15.484	0.510
654.000	397.497	80.007	19.996	103.209	19.767	15.620	0.592
654.500	397.714	80.007	19.995	103.204	19.768	15.525	0.530
655.000	397.876	80.009	19.995	103.203	19.774	15.169	0.413
655.500	398.306	80.009	19.995	103.204	19.773	15.214	0.485
656.000	398.420	80.008	19.995	103.203	19.771	15.369	0.568
656.500	398.708	80.008	19.995	103.206	19.771	15.350	0.473
657.000	399.033	80.008	19.996	103.211	19.776	15.009	0.508
657.500	399.210	80.007	19.995	103.212	19.769	15.501	0.558
658.000	399.527	80.008	19.996	103.212	19.776	15.011	0.498
658.500	399.676	80.008	19.996	103.212	19.777	14.917	0.480
659.000	400.057	80.007	19.996	103.212	19.778	14.903	0.498
659.500	400.216	80.008	19.996	103.212	19.778	14.858	0.535
660.000	400.491	80.009	19.996	103.211	19.782	14.599	0.487
660.500	400.743	80.009	19.995	103.212	19.779	14.822	0.480
661.000	400.942	80.008	19.997	103.210	19.781	14.669	0.489
661.500	401.213	80.008	19.995	103.210	19.784	14.485	0.461
662.000	401.568	80.008	19.996	103.208	19.782	14.597	0.548
662.500	401.363	80.007	19.995	103.204	19.783	14.532	0.388
663.000	402.027	80.009	19.996	103.200	19.784	14.448	0.304
663.500	402.679	80.008	19.995	103.202	19.787	14.305	0.888
664.000	402.976	80.008	19.996	103.201	19.788	14.194	1.132
664.500	402.999	80.010	19.996	103.204	19.788	14.218	0.634
665.000	403.454	80.008	19.996	103.207	19.791	14.002	0.399
665.500	403.354	80.009	19.996	103.211	19.787	14.251	0.417
666.000	403.312	80.007	19.995	103.209	19.788	14.201	0.107
666.500	403.908	80.009	19.996	103.209	19.789	14.178	0.206
667.001	404.094	80.008	19.995	103.207	19.790	14.080	0.668
667.500	404.245	80.007	19.995	103.203	19.793	13.895	0.560
668.000	404.571	80.008	19.994	103.201	19.792	13.926	0.407
668.500	404.753	80.007	19.995	103.197	19.795	13.716	0.492
669.000	405.051	80.006	19.995	103.192	19.798	13.577	0.494
669.500	405.393	80.007	19.995	103.191	19.796	13.710	0.560
670.000	405.583	80.007	19.995	103.192	19.795	13.750	0.586
670.500	405.735	80.005	19.994	103.195	19.800	13.412	0.437
671.000	406.093	80.006	19.993	103.200	19.799	13.458	0.426
671.500	406.295	80.005	19.993	103.206	19.794	13.789	0.535
672.000	406.582	80.006	19.995	103.208	19.797	13.637	0.524
672.500	406.828	80.008	19.995	103.211	19.803	13.243	0.511
673.000	407.112	80.006	19.994	103.211	19.799	13.463	0.532
673.500	407.356	80.006	19.994	103.210	19.803	13.216	0.529
674.000	407.564	80.006	19.995	103.203	19.800	13.385	0.491
674.500	407.882	80.006	19.994	103.199	19.803	13.191	0.489
675.000	408.051	80.007	19.994	103.197	19.802	13.285	0.506
675.500	408.383	80.006	19.995	103.197	19.802	13.254	0.494
676.000	408.595	80.007	19.994	103.199	19.805	13.102	0.523
676.500	408.890	80.007	19.995	103.203	19.805	13.050	0.525
677.000	409.112	80.006	19.994	103.207	19.807	12.918	0.512
677.500	409.358	80.006	19.994	103.207	19.807	12.943	0.493
678.000	409.641	80.006	19.995	103.203	19.810	12.738	0.499
678.500	409.895	80.008	19.994	103.203	19.815	12.439	0.533
679.000	410.172	80.006	19.994	103.202	19.812	12.648	0.534
679.500	410.385	80.007	19.995	103.198	19.814	12.469	0.511
680.001	410.588	80.007	19.994	103.200	19.813	12.554	0.453
680.500	410.907	80.006	19.995	103.204	19.813	12.560	0.469
681.000	411.110	80.007	19.994	103.206	19.817	12.307	0.522
681.500	411.408	80.007	19.995	103.208	19.814	12.505	0.511
682.000	411.633	80.008	19.995	103.214	19.822	11.960	0.512
682.500	411.905	80.007	19.995	103.215	19.823	11.854	0.510
683.000	412.133	80.007	19.994	103.215	19.821	12.015	0.498
683.500	412.383	80.006	19.995	103.212	19.819	12.158	0.488
684.000	412.603	80.007	19.995	103.207	19.823	11.868	0.474
684.500	412.904	80.007	19.995	103.208	19.824	11.844	0.496
685.000	413.122	80.006	19.995	103.204	19.829	11.509	0.520
685.500	413.373	80.008	19.994	103.201	19.826	11.667	0.494
686.000	413.593	80.007	19.994	103.198	19.830	11.403	0.470
686.500	413.873	80.005	19.994	103.197	19.828	11.539	0.485
687.000	414.124	80.007	19.995	103.193	19.830	11.404	0.515
687.500	414.373	80.007	19.994	103.194	19.832	11.301	0.516
688.000	414.595	80.006	19.994	103.193	19.832	11.280	0.486
688.500	414.853	80.007	19.994	103.197	19.837	10.975	0.475
689.000	415.070	80.006	19.994	103.199	19.833	11.197	0.477
689.500	415.374	80.006	19.994	103.200	19.835	11.060	0.498
690.000	415.564	80.007	19.995	103.200	19.838	10.898	0.508
690.500	415.836	80.006	19.994	103.199	19.838	10.889	0.478
691.000	416.093	80.006	19.995	103.201	19.840	10.726	0.495
691.500	416.333	80.006	19.994	103.203	19.840	10.770	0.513
692.000	416.618	80.008	19.995	103.203	19.843	10.562	0.512
692.500	416.826	80.007	19.996	103.199	19.843	10.582	0.509
693.000	417.124	80.006	19.995	103.202	19.846	10.358	0.499
693.500	417.366	80.006	19.995	103.201	19.847	10.268	0.523
694.000	417.603	80.007	19.995	103.204	19.844	10.474	0.509
694.500	417.864	80.008	19.994	103.208	19.847	10.314	0.489
695.000	418.076	80.007	19.995	103.211	19.846	10.358	0.486
695.500	418.358	80.005	19.994	103.206	19.849	10.167	0.484
696.000	418.586	80.007	19.995	103.202	19.853	9.902	0.502
696.500	418.842	80.006	19.994	103.194	19.855	9.755	0.497
697.000	419.124	80.006	19.995	103.190	19.854	9.812	0.511
697.500	419.347	80.006	19.994	103.194	19.857	9.609	0.521
698.001	419.567	80.007	19.996	103.197	19.857	9.636	0.474
698.500	419.855	80.006	19.992	103.196	19.859	9.495	0.475
699.000	420.108	80.006	19.995	103.199	19.858	9.580	0.524
699.500	420.336	80.005	19.995	103.202	19.860	9.432	0.511
700.000	420.597	80.006	19.994	103.203	19.859	9.464	0.485
700.500	420.861	80.007	19.995	103.205	19.864	9.141	0.507
701.000	421.084	80.007	19.994	103.208	19.862	9.307	0.506
701.500	421.382	80.006	19.995	103.207	19.866	9.040	0.504
702.000	421.597	80.006	19.997	103.203	19.866	9.027	0.517
702.500	421.844	80.006	19.995	103.196	19.870	8.752	0.488
703.000	422.070	80.006	19.995	103.189	19.870	8.743	0.467
703.500	422.346	80.005	19.995	103.187	19.870	8.759	0.487
704.000	422.586	80.006	19.995	103.190	19.872	8.600	0.509
704.500	422.856	80.007	19.995	103.191	19.874	8.481	0.513
705.000	423.063	80.006	19.995	103.196	19.873	8.562	0.493
705.500	423.337	80.006	19.995	103.198	19.876	8.394	0.479
706.000	423.585	80.007	19.995	103.194	19.875	8.423	0.502
706.500	423.825	80.007	19.995	103.194	19.876	8.392	0.505
707.000	424.101	80.005	19.995	103.193	19.876	8.370	0.502
707.500	424.337	80.007	19.995	103.191	19.880	8.105	0.514
708.000	424.581	80.006	19.995	103.197	19.879	8.150	0.496
708.500	424.879	80.007	19.995	103.204	19.879	8.145	0.511
709.000	425.057	80.006	19.994	103.204	19.875	8.408	0.509
709.500	425.379	80.008	19.996	103.203	19.882	7.935	0.488
710.000	425.630	80.009	19.995	103.206	19.881	8.023	0.536
710.500	425.893	80.009	19.996	103.204	19.881	8.045	0.543
711.000	426.139	80.008	19.994	103.203	19.882	7.971	0.511
711.500	426.394	80.009	19.994	103.201	19.885	7.776	0.505
712.000	426.668	80.007	19.995	103.204	19.889	7.471	0.515
712.500	426.888	80.008	19.995	103.201	19.884	7.809	0.511
713.000	427.185	80.009	19.995	103.197	19.887	7.614	0.505
713.500	427.429	80.008	19.995	103.191	19.886	7.670	0.529
714.000	427.669	80.006	19.994	103.189	19.888	7.556	0.512
714.500	427.947	80.008	19.995	103.188	19.887	7.621	0.501
715.000	428.196	80.008	19.994	103.186	19.891	7.348	0.523
715.500	428.434	80.008	19.995	103.185	19.890	7.419	0.507
716.000	428.721	80.008	19.994	103.184	19.889	7.495	0.506
716.501	428.995	80.008	19.995	103.185	19.888	7.540	0.543
717.000	429.240	80.008	19.996	103.181	19.890	7.460	0.540
717.500	429.458	80.008	19.995	103.180	19.893	7.244	0.491
718.000	429.740	80.008	19.994	103.179	19.896	7.053	0.481
718.500	430.005	80.009	19.995	103.183	19.895	7.100	0.524
719.000	430.274	80.008	19.996	103.182	19.895	7.134	0.541
719.500	430.529	80.007	19.996	103.180	19.896	7.044	0.529
720.001	430.746	80.007	19.996	103.180	19.897	7.002	0.498
720.500	431.001	80.006	19.996	103.179	19.894	7.204	0.472
721.000	431.275	80.009	19.995	103.177	19.898	6.919	0.501
721.500	431.503	80.008	19.996	103.177	19.897	6.952	0.515
722.000	431.756	80.007	19.995	103.178	19.899	6.854	0.491
722.500	432.010	80.007	19.996	103.178	19.898	6.903	0.494
723.000	432.284	80.007	19.994	103.177	19.899	6.848	0.517
723.500	432.528	80.006	19.996	103.176	19.900	6.800	0.523
724.000	432.763	80.008	19.995	103.175	19.898	6.909	0.498
724.500	433.035	80.007	19.997	103.175	19.902	6.656	0.493
725.000	433.302	80.006	19.996	103.175	19.900	6.776	0.523
725.500	433.565	80.007	19.997	103.176	19.903	6.574	0.535
726.000	433.817	80.008	19.997	103.176	19.905	6.437	0.523
726.500	434.103	80.006	19.996	103.176	19.907	6.338	0.527
727.000	434.315	80.007	19.996	103.177	19.905	6.453	0.518
727.500	434.617	80.007	19.997	103.177	19.907	6.291	0.506
728.000	434.843	80.008	19.995	103.177	19.906	6.392	0.521
728.500	435.102	80.005	19.995	103.182	19.908	6.250	0.506
729.000	435.339	80.008	19.995	103.182	19.909	6.201	0.490
729.500	435.597	80.008	19.995	103.181	19.907	6.298	0.496
730.000	435.844	80.006	19.995	103.181	19.910	6.123	0.500
730.500	436.099	80.007	19.995	103.180	19.909	6.190	0.504
731.000	436.358	80.007	19.995	103.175	19.910	6.098	0.508
731.500	436.606	80.008	19.995	103.175	19.913	5.937	0.510
732.000	436.887	80.007	19.995	103.177	19.913	5.926	0.517
732.500	437.110	80.007	19.996	103.179	19.910	6.094	0.517
733.000	437.364	80.007	19.994	103.184	19.914	5.843	0.491
733.500	437.606	80.007	19.995	103.188	19.915	5.804	0.487
734.000	437.869	80.008	19.996	103.188	19.914	5.847	0.500
734.500	438.121	80.007	19.995	103.187	19.917	5.652	0.510
735.000	438.386	80.008	19.995	103.185	19.919	5.499	0.516
735.500	438.615	80.007	19.994	103.182	19.917	5.650	0.506
736.000	438.873	80.007	19.995	103.178	19.917	5.677	0.490
736.500	439.140	80.006	19.995	103.178	19.919	5.504	0.506
737.000	439.399	80.008	19.995	103.178	19.917	5.616	0.525
737.500	439.642	80.008	19.994	103.178	19.919	5.517	0.514
738.000	439.923	80.007	19.995	103.178	19.915	5.753	0.513
738.500	440.144	80.008	19.994	103.179	19.919	5.497	0.513
739.000	440.396	80.009	19.994	103.180	19.921	5.405	0.487
739.500	440.622	80.008	19.995	103.180	19.922	5.311	0.475
740.000	440.943	80.009	19.995	103.180	19.921	5.380	0.512
740.500	441.130	80.008	19.995	103.180	19.921	5.349	0.528
741.000	441.409	80.007	19.995	103.179	19.918	5.549	0.487
741.500	441.667	80.008	19.995	103.178	19.923	5.240	0.502
742.000	441.908	80.008	19.995	103.178	19.924	5.154	0.518
742.500	442.163	80.008	19.995	103.178	19.923	5.224	0.497
743.000	442.456	80.007	19.994	103.178	19.924	5.157	0.522
743.500	442.687	80.007	19.995	103.178	19.925	5.111	0.536
744.000	442.946	80.007	19.996	103.177	19.924	5.190	0.507
744.500	443.172	80.007	19.995	103.177	19.922	5.300	0.488
745.000	443.419	80.006	19.994	103.177	19.927	4.997	0.479
745.500	443.724	80.007	19.996	103.177	19.930	4.795	0.513
746.000	443.966	80.006	19.995	103.178	19.926	5.029	0.550
746.500	444.211	80.005	19.995	103.179	19.927	4.999	0.517
747.000	444.482	80.006	19.995	103.179	19.930	4.770	0.501
747.500	444.731	80.005	19.995	103.179	19.929	4.844	0.518
748.000	444.903	80.004	19.995	103.178	19.929	4.864	0.471
748.500	445.197	80.004	19.995	103.177	19.932	4.679	0.444
749.000	445.474	80.005	19.995	103.177	19.934	4.530	0.518
749.500	445.716	80.005	19.996	103.178	19.932	4.652	0.545
750.000	445.926	80.004	19.996	103.177	19.931	4.717	0.485
750.500	446.195	80.003	19.995	103.177	19.932	4.638	0.466
751.000	446.459	80.006	19.997	103.177	19.935	4.429	0.506
751.500	446.685	80.005	19.996	103.175	19.933	4.555	0.511
752.000	446.957	80.003	19.995	103.172	19.933	4.605	0.494
752.500	447.193	80.004	19.995	103.171	19.935	4.463	0.503
753.000	447.458	80.005	19.995	103.171	19.934	4.548	0.505
753.500	447.687	80.003	19.995	103.171	19.937	4.349	0.498
754.000	447.925	80.004	19.996	103.173	19.936	4.392	0.480
754.500	448.191	80.006	19.995	103.176	19.937	4.335	0.485
755.000	448.422	80.004	19.995	103.176	19.937	4.324	0.501
755.500	448.703	80.004	19.996	103.176	19.937	4.317	0.505
756.000	448.966	80.005	19.996	103.176	19.935	4.461	0.528
756.500	449.211	80.003	19.995	103.177	19.938	4.261	0.526
757.000	449.430	80.006	19.996	103.177	19.939	4.192	0.486
757.500	449.679	80.005	19.995	103.179	19.936	4.387	0.466
758.000	449.946	80.006	19.995	103.179	19.942	4.006	0.492
758.500	450.189	80.005	19.995	103.179	19.941	4.056	0.513
759.000	450.451	80.006	19.995	103.179	19.937	4.341	0.507
759.500	450.697	80.005	19.997	103.178	19.941	4.063	0.506
760.001	450.956	80.006	19.996	103.178	19.943	3.926	0.507
760.500	451.219	80.006	19.995	103.178	19.940	4.085	0.514
761.000	451.430	80.006	19.996	103.178	19.940	4.109	0.498
761.500	451.689	80.005	19.995	103.177	19.945	3.815	0.472
762.000	451.942	80.006	19.995	103.178	19.946	3.748	0.491
762.500	452.185	80.005	19.995	103.178	19.942	3.961	0.504
763.000	452.452	80.004	19.995	103.178	19.949	3.521	0.503
763.500	452.717	80.005	19.995	103.178	19.947	3.627	0.521
764.000	452.947	80.005	19.995	103.178	19.945	3.779	0.514
764.500	453.203	80.005	19.995	103.178	19.948	3.579	0.491
765.000	453.448	80.005	19.994	103.177	19.946	3.743	0.493
765.500	453.733	80.006	19.994	103.177	19.951	3.366	0.515
766.000	453.953	80.006	19.996	103.176	19.951	3.409	0.517
766.500	454.185	80.006	19.995	103.176	19.951	3.398	0.478
767.001	454.464	80.006	19.996	103.175	19.949	3.506	0.481
767.500	454.669	80.006	19.994	103.175	19.952	3.310	0.497
768.000	455.002	80.006	19.995	103.175	19.951	3.391	0.511
768.500	455.216	80.006	19.994	103.175	19.953	3.277	0.543
769.000	455.448	80.006	19.994	103.172	19.951	3.362	0.497
769.500	455.697	80.005	19.995	103.168	19.951	3.371	0.464
770.000	455.956	80.004	19.996	103.164	19.954	3.205	0.494
770.500	456.187	80.007	19.995	103.162	19.954	3.192	0.499
771.000	456.430	80.005	19.995	103.160	19.953	3.254	0.482
771.500	456.704	80.007	19.995	103.161	19.955	3.111	0.496
772.000	456.965	80.006	19.996	103.164	19.956	3.037	0.526
772.500	457.189	80.006	19.995	103.168	19.953	3.243	0.510
773.000	457.475	80.005	19.995	103.170	19.952	3.329	0.497
773.500	457.688	80.006	19.995	103.172	19.953	3.253	0.504
774.000	457.929	80.005	19.995	103.173	19.954	3.219	0.476
774.500	458.188	80.005	19.995	103.174	19.954	3.170	0.477
775.000	458.461	80.006	19.995	103.175	19.957	2.994	0.516
775.500	458.693	80.005	19.995	103.176	19.957	2.992	0.518
776.000	458.964	80.005	19.995	103.177	19.959	2.866	0.504
776.500	459.216	80.005	19.994	103.177	19.958	2.898	0.513
777.000	459.486	80.006	19.995	103.177	19.962	2.638	0.522
777.500	459.729	80.004	19.995	103.177	19.961	2.727	0.518
778.000	459.962	80.005	19.995	103.177	19.961	2.734	0.495
778.500	460.228	80.005	19.995	103.175	19.962	2.685	0.487
779.000	460.453	80.005	19.995	103.174	19.963	2.604	0.495
779.501	460.740	80.006	19.995	103.173	19.960	2.772	0.502
780.000	460.985	80.004	19.995	103.168	19.959	2.878	0.522
780.500	461.223	80.005	19.995	103.167	19.961	2.732	0.507
781.000	461.497	80.005	19.996	103.168	19.964	2.544	0.497
781.500	461.773	80.005	19.995	103.169	19.966	2.404	0.531
782.000	461.999	80.005	19.995	103.170	19.963	2.562	0.526
782.500	462.305	80.005	19.994	103.175	19.963	2.622	0.517
783.000	462.531	80.005	19.995	103.176	19.969	2.207	0.532
783.500	462.780	80.005	19.995	103.175	19.969	2.214	0.504
784.000	463.048	80.005	19.996	103.169	19.969	2.217	0.496
784.500	463.298	80.006	19.995	103.166	19.973	1.936	0.517
785.000	463.577	80.007	19.996	103.166	19.970	2.156	0.524
785.500	463.802	80.006	19.995	103.166	19.971	2.091	0.517
786.000	464.037	80.006	19.996	103.167	19.970	2.127	0.482
786.500	464.266	80.006	19.995	103.173	19.970	2.111	0.461
787.000	464.531	80.006	19.995	103.176	19.972	1.990	0.479
787.500	464.793	80.007	19.996	103.176	19.973	1.935	0.511
788.000	465.055	80.007	19.994	103.176	19.971	2.050	0.526
788.500	465.293	80.006	19.994	103.171	19.975	1.815	0.512
789.000	465.564	80.008	19.995	103.168	19.973	1.922	0.504
789.500	465.826	80.007	19.995	103.168	19.974	1.851	0.521
790.000	466.101	80.005	19.995	103.168	19.975	1.806	0.535
790.500	466.339	80.007	19.994	103.168	19.975	1.810	0.525
791.000	466.596	80.007	19.995	103.171	19.974	1.850	0.504
791.500	466.847	80.007	19.994	103.173	19.975	1.783	0.501
792.001	467.117	80.007	19.994	103.170	19.975	1.772	0.514
792.500	467.385	80.006	19.995	103.169	19.976	1.758	0.530
793.000	467.622	80.008	19.994	103.170	19.979	1.534	0.522
793.500	467.872	80.007	19.994	103.168	19.978	1.606	0.496
794.000	468.189	80.008	19.994	103.164	19.978	1.617	0.527
794.500	468.422	80.007	19.994	103.161	19.978	1.613	0.558
795.000	468.700	80.006	19.994	103.156	19.977	1.671	0.530
795.500	468.904	80.007	19.994	103.155	19.976	1.736	0.496
796.000	469.204	80.008	19.994	103.156	19.981	1.371	0.494
796.500	469.478	80.008	19.994	103.162	19.982	1.343	0.539
797.000	469.759	80.008	19.994	103.167	19.980	1.433	0.564
797.500	469.990	80.006	19.995	103.172	19.982	1.355	0.533
798.000	470.270	80.007	19.994	103.173	19.984	1.209	0.511
798.500	470.551	80.007	19.994	103.174	19.980	1.472	0.536
799.000	470.810	80.007	19.994	103.174	19.986	1.037	0.551
799.500	471.034	80.007	19.995	103.173	19.984	1.229	0.512
800.000	471.263	80.007	19.995	103.173	19.983	1.292	0.468
800.500	471.555	80.006	19.995	103.174	19.986	1.068	0.487
801.000	471.815	80.007	19.995	103.175	19.986	1.043	0.536
801.501	472.076	80.007	19.994	103.175	19.986	1.088	0.536
802.000	472.299	80.006	19.995	103.176	19.986	1.048	0.502
802.500	472.574	80.006	19.995	103.177	19.985	1.130	0.491
803.000	472.847	80.007	19.995	103.172	19.989	0.852	0.523
803.500	473.113	80.006	19.994	103.170	19.985	1.106	0.544
804.001	473.414	80.006	19.995	103.164	19.988	0.915	0.553
804.501	473.618	80.006	19.995	103.161	19.988	0.931	0.536
805.000	473.922	80.006	19.994	103.156	19.994	0.550	0.506
805.500	474.169	80.007	19.996	103.158	19.988	0.918	0.529
806.000	474.453	80.007	19.995	103.160	19.989	0.884	0.541
806.500	474.709	80.007	19.995	103.165	19.991	0.720	0.535
807.000	474.991	80.007	19.996	103.168	19.989	0.843	0.539
807.500	475.234	80.008	19.996	103.172	19.992	0.664	0.532
808.000	475.464	80.007	19.994	103.168	19.994	0.547	0.499
808.500	475.781	80.007	19.994	103.162	19.995	0.496	0.510
809.000	476.029	80.007	19.995	103.159	19.993	0.613	0.555
809.500	476.269	80.006	19.995	103.157	19.993	0.590	0.526
810.000	476.563	80.006	19.995	103.153	19.997	0.366	0.511
810.501	476.802	80.007	19.994	103.155	19.995	0.458	0.534
811.000	477.082	80.008	19.996	103.155	19.994	0.507	0.526
811.500	477.343	80.006	19.996	103.154	19.996	0.420	0.530
812.000	477.612	80.007	19.996	103.152	19.993	0.601	0.535
812.500	477.859	80.007	19.995	103.155	19.998	0.240	0.523
813.000	478.150	80.007	19.996	103.156	19.998	0.240	0.527
813.500	478.366	80.007	19.994	103.160	19.995	0.438	0.523
814.000	478.682	80.006	19.994	103.163	20.001	0.070	0.520
814.500	478.958	80.007	19.995	103.166	19.998	0.267	0.562
815.000	479.210	80.007	19.995	103.169	19.997	0.352	0.560
815.500	479.490	80.007	19.994	103.168	20.000	0.121	0.530
816.000	479.733	80.008	19.995	103.168	20.001	0.090	0.527
816.500	479.993	80.008	19.994	103.164	20.000	0.108	0.513
817.000	480.256	80.007	19.994	103.160	20.003	-0.096	0.514
817.500	480.511	80.006	19.994	103.155	20.005	-0.175	0.521
818.001	480.759	80.008	19.994	103.151	20.006	-0.287	0.510
818.500	481.070	80.007	19.994	103.147	20.009	-0.480	0.531
819.000	481.291	80.008	19.995	103.147	20.007	-0.361	0.546
819.500	481.592	80.008	19.995	103.146	20.011	-0.568	0.527
820.000	481.837	80.008	19.995	103.152	20.011	-0.624	0.534
820.500	482.127	80.009	19.996	103.157	20.009	-0.446	0.540
821.000	482.356	80.007	19.995	103.161	20.009	-0.429	0.527
821.500	482.646	80.006	19.994	103.162	20.009	-0.456	0.519
822.000	482.903	80.007	19.995	103.164	20.007	-0.332	0.533
822.500	483.165	80.007	19.995	103.160	20.009	-0.440	0.533
823.000	483.415	80.007	19.994	103.158	20.009	-0.483	0.515
823.500	483.689	80.008	19.995	103.155	20.011	-0.574	0.518
824.000	483.926	80.006	19.995	103.155	20.013	-0.696	0.518
824.500	484.215	80.007	19.994	103.153	20.013	-0.709	0.518
825.000	484.487	80.007	19.995	103.152	20.014	-0.788	0.543
825.500	484.726	80.007	19.995	103.148	20.015	-0.873	0.536
826.000	484.983	80.005	19.994	103.148	20.015	-0.852	0.503
826.500	485.278	80.005	19.995	103.145	20.015	-0.884	0.524
827.000	485.528	80.005	19.994	103.143	20.014	-0.785	0.548
827.500	485.793	80.005	19.995	103.140	20.019	-1.108	0.530
828.000	486.054	80.005	19.996	103.141	20.018	-1.075	0.521
828.500	486.339	80.005	19.995	103.140	20.017	-0.992	0.536
829.000	486.566	80.005	19.995	103.144	20.017	-0.962	0.529
829.500	486.830	80.005	19.994	103.144	20.017	-1.012	0.501
830.001	487.086	80.005	19.995	103.144	20.019	-1.095	0.505
830.500	487.357	80.005	19.994	103.143	20.016	-0.936	0.523
831.000	487.656	80.005	19.995	103.144	20.020	-1.158	0.549
831.500	487.915	80.006	19.996	103.141	20.018	-1.032	0.564
832.000	488.164	80.004	19.995	103.140	20.015	-0.871	0.533
832.500	488.415	80.005	19.996	103.141	20.019	-1.124	0.504
833.000	488.687	80.003	19.996	103.140	20.021	-1.270	0.512
833.500	488.937	80.005	19.995	103.140	20.017	-0.965	0.523
834.000	489.190	80.005	19.995	103.139	20.018	-1.084	0.513
834.500	489.459	80.004	19.996	103.140	20.020	-1.210	0.513
835.000	489.729	80.005	19.996	103.141	20.021	-1.248	0.531
835.500	489.995	80.005	19.995	103.141	20.018	-1.070	0.537
836.000	490.226	80.005	19.996	103.140	20.022	-1.329	0.516
836.500	490.496	80.003	19.996	103.142	20.021	-1.248	0.499
837.000	490.782	80.005	19.996	103.144	20.017	-1.021	0.529
837.500	491.003	80.005	19.996	103.143	20.022	-1.351	0.532
838.000	491.269	80.004	19.996	103.143	20.026	-1.606	0.497
838.500	491.534	80.005	19.995	103.144	20.025	-1.508	0.508
839.000	491.787	80.004	19.996	103.145	20.023	-1.403	0.525
839.500	492.059	80.005	19.996	103.142	20.024	-1.459	0.522
840.000	492.292	80.005	19.996	103.141	20.023	-1.366	0.515
840.500	492.566	80.005	19.996	103.142	20.030	-1.831	0.506
841.000	492.850	80.005	19.996	103.140	20.029	-1.757	0.532
841.500	493.123	80.005	19.996	103.137	20.028	-1.692	0.558
842.000	493.389	80.005	19.996	103.138	20.027	-1.674	0.548
842.500	493.656	80.006	19.995	103.139	20.031	-1.930	0.536
843.000	493.908	80.005	19.996	103.140	20.025	-1.530	0.526
843.500	494.199	80.005	19.995	103.144	20.030	-1.827	0.531
844.000	494.411	80.005	19.996	103.144	20.033	-2.046	0.523
844.500	494.726	80.005	19.995	103.142	20.030	-1.849	0.515
845.000	494.978	80.005	19.996	103.140	20.031	-1.946	0.547
845.500	495.216	80.005	19.997	103.138	20.032	-1.957	0.528
846.000	495.480	80.006	19.996	103.135	20.034	-2.123	0.496
846.500	495.735	80.005	19.996	103.135	20.035	-2.154	0.510
847.000	495.964	80.005	19.995	103.135	20.032	-2.010	0.501
847.500	496.237	80.004	19.995	103.136	20.037	-2.329	0.493
848.000	496.519	80.005	19.995	103.136	20.036	-2.278	0.529
848.500	496.786	80.005	19.996	103.137	20.037	-2.316	0.552
849.000	497.042	80.004	19.996	103.138	20.036	-2.273	0.536
849.500	497.288	80.005	19.995	103.138	20.037	-2.345	0.513
850.000	497.545	80.004	19.995	103.138	20.039	-2.428	0.502
850.500	497.816	80.005	19.994	103.138	20.039	-2.453	0.515
851.000	498.064	80.005	19.995	103.137	20.037	-2.322	0.523
851.500	498.314	80.005	19.995	103.137	20.041	-2.578	0.509
852.000	498.589	80.006	19.996	103.139	20.038	-2.394	0.512
852.500	498.815	80.006	19.995	103.139	20.042	-2.654	0.513
853.000	499.107	80.005	19.995	103.139	20.042	-2.677	0.510
853.500	499.357	80.005	19.995	103.139	20.041	-2.574	0.530
854.000	499.584	80.006	19.995	103.139	20.042	-2.632	0.509
854.500	499.856	80.007	19.996	103.137	20.044	-2.809	0.488
855.000	500.129	80.005	19.994	103.137	20.042	-2.673	0.522
855.500	500.381	80.006	19.995	103.136	20.042	-2.627	0.535
856.000	500.629	80.006	19.995	103.135	20.040	-2.549	0.512
856.500	500.905	80.005	19.995	103.135	20.042	-2.657	0.512
857.000	501.201	80.006	19.994	103.136	20.038	-2.414	0.548
857.500	501.432	80.006	19.994	103.136	20.041	-2.614	0.549
858.000	501.661	80.005	19.995	103.137	20.045	-2.829	0.493
858.500	501.969	80.006	19.995	103.138	20.043	-2.724	0.499
859.000	502.172	80.004	19.994	103.138	20.040	-2.549	0.524
859.500	502.476	80.005	19.995	103.138	20.044	-2.796	0.509
860.000	502.741	80.005	19.994	103.138	20.048	-3.036	0.538
860.500	502.991	80.005	19.994	103.138	20.046	-2.917	0.542
861.001	503.204	80.004	19.994	103.139	20.046	-2.888	0.489
861.500	503.482	80.004	19.996	103.139	20.049	-3.121	0.477
862.000	503.778	80.004	19.995	103.140	20.048	-3.065	0.533
862.500	504.025	80.006	19.996	103.141	20.045	-2.852	0.559
863.000	504.285	80.005	19.994	103.143	20.046	-2.912	0.525
863.500	504.534	80.006	19.995	103.144	20.050	-3.157	0.508
864.000	504.777	80.005	19.996	103.144	20.051	-3.269	0.501
864.500	505.069	80.005	19.995	103.144	20.048	-3.029	0.513
865.000	505.280	80.006	19.994	103.142	20.046	-2.932	0.519
865.500	505.549	80.005	19.995	103.141	20.054	-3.451	0.492
866.000	505.834	80.005	19.994	103.139	20.050	-3.153	0.517
866.500	506.035	80.006	19.995	103.139	20.051	-3.236	0.520
867.000	506.328	80.005	19.995	103.140	20.049	-3.121	0.490
867.500	506.589	80.006	19.994	103.140	20.053	-3.402	0.524
868.000	506.867	80.005	19.994	103.138	20.052	-3.328	0.547
868.500	507.135	80.006	19.995	103.138	20.049	-3.101	0.543
869.000	507.351	80.006	19.994	103.138	20.053	-3.395	0.515
869.500	507.583	80.006	19.994	103.138	20.054	-3.433	0.466
870.000	507.851	80.006	19.995	103.138	20.054	-3.444	0.474
870.500	508.079	80.006	19.994	103.140	20.052	-3.309	0.498
871.000	508.348	80.006	19.995	103.140	20.055	-3.545	0.497
871.500	508.640	80.006	19.995	103.140	20.055	-3.494	0.529
872.000	508.890	80.006	19.995	103.140	20.056	-3.563	0.552
872.500	509.148	80.006	19.994	103.140	20.056	-3.604	0.525
873.000	509.364	80.007	19.994	103.140	20.057	-3.669	0.491
873.500	509.635	80.008	19.995	103.140	20.057	-3.637	0.480
874.000	509.884	80.007	19.995	103.139	20.059	-3.806	0.504
874.500	510.159	80.006	19.995	103.140	20.061	-3.879	0.522
875.000	510.403	80.008	19.994	103.141	20.057	-3.669	0.521
875.500	510.659	80.008	19.995	103.141	20.064	-4.131	0.509
876.000	510.931	80.006	19.995	103.142	20.059	-3.767	0.514
876.500	511.139	80.006	19.994	103.143	20.064	-4.120	0.504
877.000	511.400	80.006	19.994	103.141	20.059	-3.770	0.474
877.501	511.656	80.006	19.994	103.140	20.062	-4.001	0.493
878.000	511.882	80.007	19.994	103.140	20.061	-3.882	0.500
878.500	512.159	80.006	19.993	103.140	20.061	-3.911	0.493
879.000	512.405	80.007	19.995	103.139	20.064	-4.097	0.513
879.500	512.645	80.005	19.994	103.140	20.066	-4.211	0.505
880.000	512.912	80.006	19.996	103.140	20.065	-4.200	0.496
880.500	513.164	80.005	19.995	103.141	20.062	-3.969	0.513
881.000	513.401	80.007	19.994	103.141	20.065	-4.146	0.504
881.500	513.672	80.006	19.994	103.141	20.065	-4.180	0.499
882.000	513.935	80.006	19.994	103.141	20.065	-4.178	0.521
882.500	514.193	80.005	19.994	103.141	20.064	-4.106	0.528
883.000	514.462	80.006	19.995	103.141	20.065	-4.154	0.524
883.500	514.691	80.007	19.994	103.141	20.065	-4.187	0.512
884.000	514.971	80.006	19.995	103.141	20.066	-4.252	0.503
884.500	515.208	80.006	19.994	103.141	20.066	-4.232	0.513
885.000	515.484	80.006	19.995	103.141	20.065	-4.198	0.515
885.500	515.725	80.005	19.994	103.142	20.070	-4.510	0.516
886.000	515.984	80.005	19.993	103.142	20.070	-4.537	0.508
886.500	516.254	80.006	19.994	103.143	20.071	-4.595	0.514
887.000	516.526	80.005	19.994	103.143	20.069	-4.436	0.536
887.500	516.777	80.005	19.995	103.143	20.073	-4.730	0.533
888.000	517.039	80.006	19.995	103.142	20.074	-4.744	0.518
888.500	517.290	80.007	19.995	103.142	20.073	-4.734	0.513
889.000	517.526	80.005	19.994	103.141	20.072	-4.622	0.500
889.500	517.780	80.007	19.994	103.141	20.073	-4.680	0.489
890.000	518.029	80.006	19.994	103.141	20.075	-4.826	0.496
890.500	518.314	80.006	19.995	103.141	20.074	-4.754	0.518
891.000	518.523	80.007	19.995	103.141	20.074	-4.745	0.514
891.500	518.814	80.006	19.995	103.140	20.074	-4.779	0.498
892.000	519.049	80.008	19.995	103.140	20.074	-4.789	0.513
892.500	519.302	80.007	19.995	103.139	20.073	-4.730	0.507
893.000	519.561	80.007	19.994	103.138	20.075	-4.842	0.500
893.500	519.845	80.007	19.995	103.137	20.075	-4.836	0.527
894.000	520.098	80.008	19.995	103.137	20.075	-4.845	0.540
894.500	520.326	80.007	19.995	103.137	20.072	-4.674	0.509
895.000	520.591	80.007	19.994	103.137	20.075	-4.831	0.487
895.500	520.844	80.009	19.994	103.136	20.074	-4.782	0.505
896.000	521.121	80.009	19.994	103.136	20.076	-4.880	0.524
896.500	521.375	80.009	19.995	103.135	20.073	-4.714	0.531
897.000	521.622	80.010	19.995	103.136	20.077	-4.943	0.516
897.500	521.841	80.008	19.995	103.136	20.075	-4.853	0.484
898.000	522.118	80.007	19.995	103.136	20.077	-5.006	0.481
898.500	522.412	80.008	19.995	103.136	20.074	-4.779	0.533
899.000	522.615	80.008	19.994	103.137	20.075	-4.853	0.534
899.500	522.924	80.008	19.995	103.137	20.074	-4.773	0.505
900.000	523.160	80.006	19.994	103.137	20.077	-4.973	0.529
900.500	523.410	80.008	19.995	103.140	20.074	-4.779	0.515
901.000	523.696	80.007	19.994	103.141	20.074	-4.804	0.511
901.500	523.948	80.007	19.995	103.141	20.074	-4.764	0.537
902.000	524.164	80.007	19.996	103.141	20.077	-4.970	0.503
902.500	524.446	80.006	19.995	103.141	20.079	-5.103	0.483
903.001	524.679	80.007	19.994	103.138	20.082	-5.293	0.506
903.500	524.940	80.006	19.995	103.137	20.078	-5.053	0.505
904.000	525.209	80.007	19.995	103.137	20.078	-5.044	0.512
904.500	525.472	80.007	19.996	103.136	20.082	-5.286	0.531
905.000	525.718	80.004	19.996	103.136	20.074	-4.782	0.520
905.501	525.965	80.006	19.995	103.137	20.078	-5.053	0.501
906.000	526.227	80.006	19.995	103.137	20.080	-5.141	0.501
906.500	526.476	80.005	19.995	103.138	20.080	-5.148	0.510
907.000	526.697	80.006	19.996	103.138	20.082	-5.275	0.490
907.500	526.977	80.006	19.995	103.138	20.081	-5.242	0.486
908.000	527.250	80.005	19.996	103.137	20.079	-5.083	0.527
908.500	527.518	80.005	19.996	103.138	20.082	-5.286	0.547
909.000	527.730	80.005	19.995	103.137	20.081	-5.231	0.510
909.500	528.002	80.007	19.996	103.136	20.081	-5.212	0.482
910.000	528.272	80.005	19.996	103.136	20.082	-5.280	0.513
910.500	528.540	80.006	19.996	103.137	20.080	-5.167	0.540
911.000	528.767	80.006	19.995	103.137	20.081	-5.219	0.517
911.500	529.057	80.005	19.995	103.137	20.079	-5.138	0.506
912.000	529.282	80.006	19.996	103.137	20.082	-5.316	0.516
912.500	529.509	80.005	19.996	103.137	20.081	-5.210	0.483
913.000	529.777	80.005	19.995	103.137	20.081	-5.264	0.473
913.500	530.041	80.007	19.996	103.136	20.082	-5.289	0.514
914.000	530.288	80.007	19.995	103.138	20.083	-5.345	0.522
914.500	530.535	80.005	19.995	103.140	20.083	-5.394	0.502
915.000	530.801	80.006	19.995	103.140	20.085	-5.518	0.503
915.500	531.024	80.005	19.995	103.140	20.085	-5.516	0.501
916.000	531.290	80.005	19.996	103.140	20.088	-5.686	0.490
916.500	531.583	80.005	19.995	103.139	20.081	-5.257	0.524
917.000	531.824	80.004	19.996	103.137	20.081	-5.253	0.546
917.500	532.089	80.005	19.995	103.138	20.084	-5.466	0.520
918.000	532.333	80.004	19.996	103.138	20.085	-5.488	0.508
918.500	532.577	80.005	19.995	103.137	20.085	-5.525	0.499
919.000	532.833	80.006	19.995	103.137	20.085	-5.511	0.494
919.500	533.111	80.005	19.996	103.137	20.090	-5.856	0.516
920.000	533.355	80.005	19.995	103.136	20.086	-5.565	0.528
920.500	533.624	80.004	19.996	103.136	20.085	-5.502	0.518
921.000	533.879	80.005	19.996	103.139	20.084	-5.408	0.519
921.500	534.104	80.005	19.995	103.139	20.083	-5.399	0.502
922.000	534.383	80.005	19.996	103.139	20.082	-5.302	0.492
922.500	534.661	80.005	19.996	103.138	20.088	-5.675	0.530
923.000	534.887	80.005	19.995	103.138	20.085	-5.486	0.530
923.500	535.163	80.006	19.995	103.136	20.084	-5.455	0.503
924.001	535.408	80.005	19.995	103.136	20.089	-5.760	0.511
924.500	535.679	80.006	19.996	103.136	20.087	-5.619	0.519
925.000	535.886	80.006	19.995	103.133	20.088	-5.699	0.497
925.500	536.177	80.005	19.995	103.132	20.086	-5.585	0.488
926.000	536.421	80.005	19.996	103.133	20.087	-5.619	0.517
926.500	536.688	80.004	19.995	103.133	20.085	-5.513	0.523
927.000	536.942	80.005	19.995	103.133	20.087	-5.632	0.516
927.500	537.195	80.006	19.995	103.136	20.089	-5.746	0.514
928.000	537.470	80.005	19.996	103.137	20.086	-5.580	0.518
928.500	537.714	80.005	19.996	103.136	20.089	-5.771	0.523
929.000	537.957	80.005	19.996	103.136	20.090	-5.836	0.503
929.500	538.271	80.004	19.996	103.137	20.090	-5.811	0.522
930.000	538.482	80.005	19.996	103.137	20.087	-5.616	0.541
930.500	538.761	80.005	19.996	103.137	20.089	-5.758	0.508
931.000	538.982	80.005	19.996	103.138	20.088	-5.717	0.495
931.501	539.264	80.004	19.996	103.138	20.092	-5.987	0.501
932.000	539.492	80.005	19.996	103.138	20.089	-5.796	0.506
932.500	539.750	80.003	19.995	103.138	20.088	-5.735	0.498
933.000	540.032	80.005	19.996	103.138	20.088	-5.695	0.513
933.500	540.266	80.005	19.996	103.139	20.090	-5.820	0.528
934.000	540.541	80.004	19.996	103.139	20.090	-5.840	0.513
934.500	540.788	80.004	19.996	103.141	20.090	-5.813	0.515
935.001	541.023	80.004	19.996	103.141	20.092	-5.948	0.502
935.500	541.298	80.005	19.997	103.141	20.090	-5.820	0.496
936.000	541.547	80.006	19.996	103.140	20.090	-5.811	0.517
936.500	541.846	80.004	19.996	103.140	20.091	-5.905	0.536
937.000	542.088	80.005	19.997	103.138	20.091	-5.915	0.544
937.500	542.319	80.004	19.996	103.137	20.088	-5.719	0.507
938.000	542.583	80.003	19.996	103.137	20.091	-5.892	0.485
938.500	542.830	80.005	19.995	103.137	20.090	-5.805	0.503
939.000	543.075	80.005	19.996	103.138	20.090	-5.841	0.501
939.500	543.363	80.004	19.996	103.138	20.091	-5.906	0.512
940.000	543.587	80.005	19.996	103.140	20.093	-6.002	0.523
940.500	543.869	80.005	19.995	103.140	20.092	-5.987	0.510
941.000	544.129	80.005	19.995	103.140	20.088	-5.695	0.524
941.500	544.373	80.005	19.995	103.140	20.092	-5.991	0.523
942.000	544.618	80.005	19.996	103.141	20.091	-5.870	0.497
942.500	544.920	80.006	19.995	103.141	20.093	-6.007	0.518
943.000	545.118	80.004	19.995	103.141	20.094	-6.103	0.523
943.500	545.428	80.006	19.995	103.142	20.092	-5.998	0.504
944.000	545.657	80.004	19.993	103.142	20.092	-6.000	0.524
944.500	545.873	80.005	19.995	103.142	20.094	-6.117	0.492
945.000	546.164	80.005	19.994	103.142	20.095	-6.171	0.476
945.500	546.450	80.006	19.993	103.142	20.094	-6.095	0.542
946.000	546.697	80.006	19.994	103.142	20.093	-6.029	0.555
946.500	546.958	80.006	19.995	103.142	20.095	-6.149	0.520
947.000	547.215	80.006	19.995	103.142	20.095	-6.198	0.513
947.500	547.448	80.007	19.994	103.142	20.095	-6.185	0.504
948.000	547.706	80.006	19.994	103.142	20.090	-5.859	0.490
948.500	547.978	80.006	19.994	103.141	20.095	-6.166	0.510
949.000	548.250	80.007	19.994	103.141	20.096	-6.240	0.537
949.500	548.475	80.006	19.994	103.141	20.095	-6.151	0.521
950.000	548.728	80.007	19.995	103.141	20.096	-6.231	0.487
950.500	548.976	80.007	19.994	103.139	20.096	-6.234	0.489
951.000	549.262	80.008	19.995	103.139	20.095	-6.182	0.518
951.500	549.507	80.006	19.994	103.135	20.096	-6.249	0.533
952.000	549.772	80.007	19.994	103.134	20.095	-6.189	0.521
952.500	550.035	80.006	19.995	103.134	20.093	-6.061	0.519
953.000	550.253	80.007	19.994	103.136	20.098	-6.341	0.505
953.501	550.518	80.007	19.994	103.135	20.096	-6.207	0.482
954.001	550.734	80.008	19.995	103.138	20.094	-6.113	0.482
954.500	550.994	80.006	19.995	103.138	20.095	-6.139	0.478
955.000	551.288	80.006	19.994	103.138	20.093	-6.045	0.515
955.500	551.527	80.007	19.996	103.137	20.095	-6.139	0.544
956.000	551.766	80.007	19.995	103.137	20.094	-6.110	0.506
956.500	552.031	80.007	19.995	103.137	20.095	-6.166	0.491
957.000	552.306	80.007	19.996	103.136	20.096	-6.265	0.522
957.500	552.562	80.005	19.995	103.134	20.096	-6.214	0.535
958.000	552.813	80.007	19.995	103.134	20.097	-6.294	0.519
958.500	553.115	80.007	19.995	103.134	20.098	-6.360	0.530
959.000	553.369	80.006	19.994	103.133	20.097	-6.290	0.555
959.500	553.615	80.006	19.994	103.133	20.096	-6.238	0.528
960.000	553.890	80.005	19.994	103.134	20.096	-6.265	0.510
960.500	554.148	80.006	19.996	103.134	20.096	-6.243	0.527
961.000	554.419	80.007	19.994	103.134	20.098	-6.357	0.531
961.500	554.659	80.007	19.994	103.136	20.097	-6.276	0.520
962.000	554.906	80.007	19.994	103.137	20.097	-6.278	0.499
962.500	555.139	80.006	19.996	103.136	20.099	-6.417	0.483
963.000	555.456	80.005	19.995	103.136	20.095	-6.169	0.515
963.500	555.689	80.007	19.995	103.136	20.097	-6.281	0.550
964.001	555.940	80.006	19.994	103.136	20.097	-6.270	0.517
964.500	556.173	80.005	19.995	103.136	20.097	-6.301	0.484
965.000	556.411	80.007	19.995	103.137	20.095	-6.184	0.477
965.500	556.693	80.005	19.995	103.137	20.096	-6.234	0.495
966.000	556.952	80.006	19.995	103.137	20.099	-6.416	0.530
966.500	557.201	80.007	19.994	103.137	20.096	-6.249	0.525
967.000	557.497	80.007	19.995	103.138	20.097	-6.267	0.527
967.500	557.709	80.007	19.995	103.135	20.098	-6.362	0.526
968.000	557.964	80.007	19.994	103.134	20.098	-6.364	0.487
968.500	558.226	80.007	19.995	103.131	20.100	-6.501	0.492
969.000	558.490	80.006	19.996	103.130	20.100	-6.500	0.522
969.501	558.722	80.008	19.994	103.129	20.102	-6.604	0.511
970.001	559.011	80.008	19.995	103.130	20.099	-6.418	0.508
970.500	559.265	80.008	19.995	103.131	20.101	-6.561	0.532
971.000	559.517	80.009	19.995	103.134	20.101	-6.563	0.524
971.500	559.771	80.008	19.994	103.134	20.101	-6.579	0.506
972.000	560.009	80.008	19.995	103.135	20.100	-6.490	0.499
972.500	560.261	80.007	19.994	103.136	20.097	-6.285	0.491
973.000	560.513	80.008	19.994	103.136	20.099	-6.465	0.497
973.500	560.776	80.009	19.994	103.136	20.102	-6.633	0.510
974.000	561.036	80.008	19.994	103.136	20.097	-6.299	0.519
974.500	561.288	80.009	19.994	103.135	20.101	-6.566	0.517
975.000	561.574	80.009	19.994	103.136	20.096	-6.202	0.525
975.500	561.818	80.010	19.994	103.136	20.098	-6.382	0.534
976.000	562.070	80.009	19.994	103.136	20.100	-6.523	0.513
976.500	562.325	80.009	19.995	103.135	20.101	-6.552	0.501
977.000	562.602	80.008	19.994	103.135	20.102	-6.639	0.519
977.500	562.784	80.009	19.995	103.135	20.096	-6.263	0.495
978.000	563.075	80.008	19.994	103.135	20.100	-6.471	0.466
978.500	563.368	80.009	19.995	103.135	20.097	-6.299	0.528
979.000	563.611	80.009	19.993	103.135	20.102	-6.630	0.560
979.500	563.839	80.008	19.994	103.136	20.100	-6.501	0.503
980.000	564.059	80.007	19.995	103.136	20.099	-6.417	0.460
980.500	564.345	80.008	19.994	103.136	20.100	-6.521	0.478
981.000	564.575	80.007	19.994	103.134	20.096	-6.263	0.511
981.500	564.841	80.007	19.994	103.134	20.100	-6.480	0.505
982.000	565.131	80.007	19.995	103.134	20.099	-6.402	0.526
982.500	565.342	80.006	19.995	103.134	20.097	-6.323	0.529
983.000	565.592	80.008	19.995	103.135	20.099	-6.433	0.481
983.500	565.906	80.005	19.995	103.137	20.102	-6.628	0.513
984.000	566.126	80.006	19.994	103.138	20.099	-6.401	0.550
984.500	566.403	80.005	19.994	103.138	20.104	-6.765	0.515
985.000	566.665	80.006	19.996	103.139	20.099	-6.442	0.517
985.500	566.902	80.007	19.995	103.139	20.100	-6.532	0.519
986.000	567.151	80.005	19.994	103.138	20.098	-6.364	0.493
986.500	567.400	80.004	19.995	103.138	20.101	-6.568	0.492
987.000	567.628	80.005	19.995	103.138	20.100	-6.524	0.487
987.500	567.890	80.006	19.996	103.138	20.102	-6.660	0.484
988.000	568.138	80.006	19.996	103.139	20.101	-6.546	0.500
988.500	568.392	80.006	19.996	103.140	20.102	-6.645	0.506
989.000	568.664	80.005	19.995	103.140	20.098	-6.335	0.514
989.500	568.890	80.005	19.996	103.139	20.100	-6.512	0.512
990.000	569.148	80.005	19.996	103.139	20.102	-6.649	0.491
990.500	569.419	80.005	19.994	103.139	20.100	-6.489	0.506
991.000	569.688	80.004	19.995	103.139	20.102	-6.613	0.535
991.500	569.940	80.003	19.995	103.135	20.100	-6.514	0.531
992.000	570.176	80.004	19.995	103.135	20.100	-6.487	0.505
992.500	570.454	80.006	19.995	103.135	20.097	-6.274	0.501
993.000	570.680	80.006	19.995	103.134	20.102	-6.661	0.509
993.500	570.954	80.006	19.996	103.134	20.098	-6.369	0.502
994.000	571.190	80.004	19.995	103.138	20.106	-6.888	0.505
994.500	571.419	80.005	19.996	103.139	20.100	-6.494	0.488
995.001	571.691	80.003	19.996	103.140	20.101	-6.581	0.484
995.500	571.922	80.003	19.996	103.140	20.100	-6.521	0.502
996.000	572.195	80.004	19.996	103.133	20.101	-6.545	0.503
996.500	572.417	80.004	19.995	103.130	20.101	-6.572	0.499
997.000	572.684	80.006	19.996	103.128	20.103	-6.705	0.492
997.500	572.932	80.005	19.996	103.128	20.100	-6.516	0.502
998.000	573.212	80.004	19.996	103.125	20.102	-6.657	0.522
998.500	573.482	80.005	19.996	103.130	20.102	-6.657	0.539
999.000	573.750	80.005	19.995	103.132	20.105	-6.844	0.544
999.500	574.033	80.004	19.996	103.133	20.104	-6.739	0.544
1000.000	574.282	80.004	19.996	103.134	20.101	-6.575	0.542
1000.500	574.524	80.005	19.997	103.137	20.105	-6.822	0.511
1001.000	574.783	80.006	19.996	103.138	20.104	-6.757	0.496
1001.500	575.038	80.005	19.996	103.140	20.102	-6.631	0.507
1002.000	575.276	80.004	19.995	103.139	20.104	-6.747	0.504
1002.500	575.538	80.006	19.995	103.137	20.105	-6.801	0.496
1003.000	575.810	80.005	19.995	103.133	20.106	-6.888	0.517
1003.500	576.059	80.005	19.995	103.129	20.104	-6.754	0.528
1004.000	576.271	80.006	19.997	103.126	20.103	-6.673	0.491
1004.500	576.544	80.004	19.994	103.124	20.105	-6.821	0.473
1005.000	576.822	80.004	19.995	103.126	20.109	-7.106	0.518
1005.500	577.044	80.005	19.996	103.130	20.105	-6.810	0.525
1006.000	577.276	80.005	19.996	103.134	20.105	-6.850	0.477
1006.500	577.542	80.006	19.996	103.138	20.106	-6.898	0.476
1007.000	577.803	80.005	19.997	103.140	20.104	-6.786	0.513
1007.500	578.042	80.004	19.994	103.141	20.105	-6.821	0.513
1008.000	578.321	80.006	19.997	103.140	20.102	-6.647	0.509
1008.500	578.564	80.004	19.995	103.141	20.103	-6.711	0.520
1009.000	578.823	80.005	19.996	103.140	20.102	-6.624	0.512
1009.500	579.037	80.003	19.996	103.140	20.104	-6.788	0.488
1010.000	579.334	80.005	19.997	103.140	20.105	-6.819	0.492
1010.500	579.549	80.006	19.996	103.136	20.107	-6.947	0.512
1011.000	579.805	80.004	19.996	103.132	20.104	-6.770	0.492
1011.500	580.088	80.004	19.996	103.133	20.103	-6.707	0.505
1012.000	580.307	80.005	19.996	103.133	20.104	-6.774	0.520
1012.500	580.572	80.005	19.996	103.133	20.106	-6.871	0.493
1013.000	580.824	80.003	19.996	103.137	20.107	-6.952	0.501
1013.500	581.084	80.004	19.996	103.141	20.107	-6.937	0.515
1014.000	581.337	80.004	19.996	103.141	20.107	-6.961	0.512
1014.500	581.573	80.004	19.996	103.140	20.108	-7.062	0.501
1015.000	581.822	80.004	19.997	103.139	20.104	-6.791	0.487
1015.500	582.085	80.004	19.996	103.139	20.106	-6.867	0.498
1016.000	582.326	80.005	19.996	103.139	20.110	-7.163	0.508
1016.500	582.539	80.004	19.996	103.139	20.108	-7.003	0.479
1017.000	582.845	80.005	19.996	103.139	20.108	-7.055	0.486
1017.500	583.085	80.004	19.995	103.139	20.108	-7.033	0.532
1018.000	583.323	80.004	19.995	103.139	20.106	-6.885	0.512
1018.500	583.573	80.004	19.996	103.138	20.106	-6.929	0.483
1019.000	583.862	80.005	19.997	103.137	20.108	-7.030	0.514
1019.500	584.041	80.004	19.997	103.137	20.105	-6.843	0.503
1020.000	584.317	80.005	19.996	103.136	20.108	-7.002	0.461
1020.500	584.583	80.005	19.996	103.136	20.108	-7.014	0.498
1021.000	584.770	80.002	19.996	103.135	20.107	-6.945	0.497
1021.500	585.056	80.004	19.997	103.135	20.108	-6.999	0.463
1022.000	585.346	80.005	19.996	103.135	20.106	-6.925	0.524
1022.500	585.582	80.005	19.996	103.135	20.105	-6.824	0.551
1023.000	585.814	80.004	19.996	103.134	20.109	-7.122	0.497
1023.500	586.070	80.007	19.997	103.131	20.108	-7.013	0.478
1024.000	586.358	80.008	19.996	103.128	20.110	-7.159	0.516
1024.500	586.617	80.006	19.996	103.128	20.111	-7.208	0.546
1025.000	586.872	80.005	19.995	103.128	20.113	-7.332	0.530
1025.500	587.130	80.006	19.996	103.129	20.111	-7.240	0.513
1026.000	587.369	80.007	19.996	103.130	20.110	-7.177	0.505
1026.500	587.594	80.006	19.996	103.133	20.110	-7.167	0.480
1027.000	587.853	80.006	19.995	103.133	20.113	-7.338	0.474
1027.500	588.087	80.006	19.995	103.132	20.112	-7.308	0.489
1028.000	588.385	80.006	19.996	103.132	20.113	-7.390	0.513
1028.500	588.604	80.007	19.997	103.133	20.112	-7.313	0.525
1029.000	588.883	80.007	19.995	103.133	20.115	-7.464	0.508
1029.500	589.168	80.006	19.997	103.133	20.112	-7.316	0.531
1030.000	589.397	80.006	19.995	103.132	20.114	-7.404	0.539
1030.500	589.626	80.006	19.995	103.128	20.113	-7.341	0.486
1031.000	589.907	80.006	19.994	103.122	20.114	-7.403	0.484
1031.500	590.130	80.008	19.995	103.117	20.115	-7.462	0.507
1032.000	590.393	80.007	19.994	103.110	20.111	-7.248	0.496
1032.500	590.639	80.007	19.995	103.106	20.115	-7.491	0.498
1033.001	590.883	80.006	19.995	103.108	20.110	-7.176	0.499
1033.501	591.149	80.007	19.996	103.113	20.114	-7.405	0.500
1034.000	591.402	80.006	19.994	103.117	20.113	-7.343	0.514
1034.500	591.618	80.006	19.995	103.124	20.115	-7.520	0.494
1035.000	591.890	80.005	19.995	103.130	20.114	-7.417	0.479
1035.501	592.133	80.006	19.995	103.128	20.110	-7.163	0.502
1036.001	592.390	80.006	19.995	103.129	20.112	-7.295	0.507
1036.501	592.658	80.007	19.994	103.130	20.113	-7.385	0.512
1037.001	592.905	80.006	19.995	103.130	20.114	-7.438	0.520
1037.500	593.164	80.006	19.994	103.132	20.117	-7.615	0.511
1038.000	593.441	80.007	19.994	103.135	20.118	-7.683	0.520
1038.500	593.704	80.006	19.994	103.135	20.117	-7.631	0.538
1039.000	593.947	80.005	19.995	103.134	20.118	-7.695	0.523
1039.500	594.215	80.007	19.996	103.133	20.118	-7.719	0.508
1040.000	594.472	80.007	19.995	103.132	20.117	-7.638	0.518
1040.501	594.756	80.007	19.994	103.128	20.115	-7.512	0.533
1041.001	594.991	80.006	19.994	103.126	20.116	-7.568	0.530
1041.500	595.265	80.007	19.996	103.126	20.118	-7.661	0.514
1042.000	595.522	80.008	19.995	103.127	20.118	-7.708	0.520
1042.500	595.749	80.007	19.995	103.126	20.117	-7.598	0.507
1043.001	596.023	80.007	19.996	103.131	20.116	-7.578	0.492
1043.501	596.263	80.007	19.996	103.134	20.115	-7.510	0.508
1044.001	596.516	80.007	19.996	103.132	20.118	-7.681	0.504
1044.501	596.761	80.006	19.995	103.129	20.119	-7.750	0.496
1045.001	597.020	80.008	19.996	103.128	20.119	-7.789	0.501
1045.501	597.286	80.008	19.996	103.128	20.118	-7.722	0.514
1046.001	597.545	80.007	19.995	103.127	20.117	-7.649	0.525
1046.500	597.785	80.007	19.994	103.129	20.119	-7.771	0.512
1047.000	598.047	80.007	19.995	103.131	20.115	-7.515	0.501
1047.500	598.322	80.006	19.994	103.127	20.117	-7.655	0.520
1048.000	598.561	80.006	19.995	103.122	20.115	-7.511	0.525
1048.500	598.815	80.007	19.995	103.117	20.117	-7.646	0.503
1049.000	599.068	80.007	19.995	103.119	20.121	-7.868	0.500
1049.501	599.308	80.008	19.995	103.120	20.120	-7.796	0.500
1050.001	599.554	80.008	19.995	103.125	20.121	-7.861	0.490
1050.500	599.814	80.009	19.994	103.132	20.119	-7.746	0.496
1051.000	600.062	80.007	19.994	103.137	20.123	-8.029	0.507
1051.500	600.344	80.007	19.994	103.137	20.124	-8.087	0.519
1052.000	600.607	80.007	19.995	103.137	20.123	-8.058	0.538
1052.500	600.841	80.008	19.994	103.138	20.125	-8.177	0.521
1053.000	601.110	80.006	19.995	103.138	20.126	-8.255	0.500
1053.500	601.345	80.008	19.995	103.139	20.126	-8.201	0.503
1054.000	601.593	80.007	19.994	103.139	20.124	-8.116	0.493
1054.500	601.839	80.007	19.994	103.136	20.127	-8.277	0.488
1055.000	602.083	80.007	19.994	103.135	20.124	-8.123	0.492
1055.500	602.362	80.008	19.995	103.135	20.127	-8.264	0.506
1056.000	602.621	80.006	19.994	103.135	20.128	-8.333	0.530
1056.500	602.827	80.008	19.995	103.134	20.126	-8.204	0.502
1057.000	603.123	80.007	19.995	103.137	20.124	-8.078	0.484
1057.500	603.345	80.006	19.995	103.135	20.126	-8.222	0.510
1058.001	603.581	80.007	19.994	103.132	20.126	-8.242	0.488
1058.501	603.907	80.007	19.994	103.128	20.126	-8.244	0.510
1059.000	604.130	80.005	19.994	103.125	20.123	-8.052	0.555
1059.500	604.399	80.007	19.994	103.125	20.126	-8.197	0.520
1060.000	604.641	80.006	19.995	103.127	20.122	-7.968	0.502
1060.500	604.912	80.006	19.994	103.130	20.128	-8.379	0.512
1061.000	605.147	80.005	19.994	103.134	20.129	-8.430	0.509
1061.501	605.402	80.004	19.994	103.138	20.128	-8.374	0.498
1062.001	605.645	80.006	19.994	103.136	20.128	-8.383	0.494
1062.501	605.911	80.004	19.995	103.134	20.127	-8.277	0.504
1063.000	606.184	80.005	19.995	103.135	20.127	-8.320	0.524
1063.500	606.450	80.005	19.994	103.135	20.125	-8.137	0.538
1064.000	606.672	80.005	19.995	103.136	20.127	-8.321	0.513
1064.500	606.936	80.003	19.995	103.139	20.125	-8.183	0.487
1065.000	607.222	80.005	19.994	103.140	20.125	-8.130	0.519
1065.500	607.446	80.005	19.995	103.140	20.126	-8.191	0.530
1066.000	607.745	80.005	19.994	103.139	20.128	-8.345	0.517
1066.500	607.991	80.006	19.994	103.140	20.129	-8.389	0.534
1067.000	608.282	80.005	19.994	103.139	20.127	-8.310	0.541
1067.500	608.522	80.006	19.994	103.139	20.127	-8.265	0.534
1068.000	608.763	80.005	19.995	103.140	20.128	-8.325	0.506
1068.500	609.039	80.005	19.994	103.139	20.131	-8.543	0.499
1069.000	609.279	80.005	19.994	103.137	20.130	-8.469	0.517
1069.500	609.566	80.004	19.994	103.136	20.133	-8.660	0.522
1070.000	609.823	80.007	19.996	103.133	20.130	-8.485	0.535
1070.500	610.051	80.004	19.994	103.131	20.129	-8.420	0.514
1071.000	610.329	80.007	19.995	103.132	20.129	-8.395	0.496
1071.500	610.554	80.006	19.994	103.134	20.128	-8.361	0.504
1072.000	610.814	80.006	19.994	103.135	20.130	-8.505	0.494
1072.500	611.052	80.006	19.994	103.136	20.128	-8.344	0.491
1073.001	611.319	80.005	19.995	103.138	20.130	-8.462	0.502
1073.501	611.618	80.005	19.994	103.139	20.129	-8.452	0.536
1074.001	611.859	80.005	19.995	103.137	20.131	-8.575	0.553
1074.500	612.094	80.006	19.994	103.132	20.133	-8.660	0.508
1075.000	612.327	80.005	19.994	103.127	20.134	-8.766	0.472
1075.500	612.650	80.003	19.994	103.119	20.133	-8.669	0.512
1076.000	612.867	80.006	19.994	103.112	20.130	-8.520	0.548
1076.500	613.122	80.006	19.994	103.111	20.131	-8.532	0.506
1077.000	613.379	80.006	19.994	103.117	20.130	-8.513	0.492
1077.500	613.614	80.006	19.995	103.124	20.132	-8.631	0.501
1078.000	613.905	80.007	19.994	103.130	20.133	-8.719	0.509
1078.501	614.108	80.005	19.995	103.135	20.132	-8.593	0.510
1079.001	614.387	80.005	19.995	103.134	20.132	-8.614	0.488
1079.501	614.650	80.005	19.994	103.132	20.133	-8.704	0.512
1080.000	614.912	80.005	19.995	103.131	20.136	-8.860	0.534
1080.501	615.174	80.005	19.995	103.132	20.135	-8.794	0.525
1081.001	615.399	80.005	19.995	103.131	20.135	-8.824	0.506
1081.500	615.706	80.006	19.995	103.134	20.136	-8.911	0.510
1082.000	615.910	80.004	19.995	103.134	20.136	-8.893	0.521
1082.500	616.170	80.005	19.996	103.132	20.132	-8.599	0.487
1083.000	616.453	80.005	19.995	103.131	20.132	-8.615	0.503
1083.501	616.676	80.005	19.996	103.131	20.133	-8.697	0.524
1084.001	616.964	80.005	19.996	103.129	20.136	-8.871	0.508
1084.501	617.248	80.004	19.996	103.127	20.136	-8.893	0.542
1085.001	617.461	80.004	19.995	103.129	20.136	-8.861	0.535
1085.500	617.726	80.003	19.995	103.127	20.135	-8.823	0.487
1086.000	617.985	80.006	19.996	103.128	20.135	-8.843	0.501
1086.500	618.239	80.005	19.995	103.132	20.138	-9.009	0.518
1087.000	618.489	80.005	19.995	103.134	20.138	-9.027	0.508
1087.501	618.753	80.005	19.996	103.134	20.138	-9.048	0.509
1088.001	619.001	80.005	19.996	103.137	20.138	-9.044	0.514
1088.501	619.245	80.005	19.995	103.131	20.136	-8.918	0.502
1089.000	619.530	80.006	19.995	103.127	20.138	-9.049	0.510
1089.500	619.749	80.005	19.995	103.124	20.135	-8.843	0.516
1090.000	620.051	80.005	19.994	103.123	20.133	-8.697	0.513
1090.500	620.263	80.004	19.995	103.121	20.136	-8.884	0.518
1091.000	620.521	80.006	19.995	103.125	20.137	-8.973	0.492
1091.500	620.776	80.006	19.995	103.130	20.137	-8.929	0.491
1092.000	621.038	80.005	19.995	103.132	20.138	-9.014	0.515
1092.500	621.292	80.005	19.996	103.133	20.137	-8.943	0.516
1093.000	621.564	80.005	19.995	103.134	20.133	-8.700	0.521
1093.501	621.777	80.006	19.996	103.135	20.140	-9.133	0.506
1094.001	622.071	80.003	19.995	103.136	20.138	-9.034	0.496
1094.500	622.314	80.006	19.996	103.134	20.136	-8.920	0.522
1095.000	622.537	80.004	19.995	103.134	20.133	-8.680	0.502
1095.500	622.855	80.006	19.996	103.136	20.137	-8.934	0.503
1096.000	623.067	80.005	19.996	103.135	20.137	-8.948	0.535
1096.501	623.301	80.005	19.995	103.135	20.135	-8.835	0.488
1097.001	623.560	80.005	19.995	103.136	20.139	-9.069	0.469
1097.501	623.849	80.004	19.995	103.136	20.136	-8.902	0.521
1098.001	624.062	80.004	19.995	103.134	20.138	-8.990	0.526
1098.500	624.336	80.005	19.996	103.133	20.139	-9.104	0.494
1099.000	624.583	80.005	19.996	103.131	20.134	-8.725	0.504
1099.500	624.845	80.006	19.995	103.127	20.138	-8.991	0.515
1100.000	625.074	80.005	19.996	103.123	20.135	-8.845	0.500
1100.500	625.320	80.004	19.996	103.118	20.132	-8.632	0.483
1101.000	625.583	80.004	19.995	103.113	20.134	-8.768	0.492
1101.500	625.837	80.006	19.996	103.112	20.133	-8.667	0.513
1102.000	626.093	80.006	19.995	103.114	20.134	-8.783	0.514
1102.500	626.326	80.005	19.996	103.114	20.134	-8.755	0.499
1103.000	626.597	80.006	19.996	103.119	20.136	-8.883	0.496
1103.500	626.821	80.006	19.996	103.124	20.134	-8.784	0.499
1104.000	627.108	80.006	19.995	103.127	20.135	-8.790	0.503
1104.500	627.349	80.007	19.995	103.129	20.133	-8.684	0.519
1105.000	627.586	80.006	19.996	103.131	20.139	-9.115	0.503
1105.501	627.854	80.006	19.996	103.132	20.137	-8.976	0.492
1106.001	628.146	80.007	19.996	103.128	20.136	-8.874	0.533
1106.500	628.382	80.006	19.996	103.127	20.135	-8.853	0.544
1107.000	628.596	80.007	19.996	103.125	20.138	-9.047	0.488
1107.500	628.850	80.006	19.996	103.124	20.137	-8.926	0.459
1108.001	629.121	80.007	19.996	103.123	20.136	-8.878	0.497
1108.501	629.362	80.007	19.994	103.129	20.138	-9.012	0.518
1109.000	629.594	80.006	19.995	103.129	20.138	-9.044	0.493
1109.500	629.871	80.007	19.997	103.131	20.141	-9.218	0.491
1110.000	630.120	80.006	19.996	103.134	20.138	-9.016	0.518
1110.500	630.356	80.005	19.996	103.137	20.139	-9.106	0.506
1111.000	630.631	80.004	19.995	103.135	20.140	-9.186	0.498
1111.500	630.860	80.005	19.996	103.135	20.139	-9.099	0.507
1112.000	631.141	80.005	19.996	103.132	20.137	-8.978	0.507
1112.500	631.387	80.006	19.996	103.128	20.140	-9.130	0.519
1113.000	631.635	80.006	19.995	103.127	20.137	-8.950	0.510
1113.501	631.891	80.006	19.996	103.128	20.145	-9.467	0.499
1114.001	632.138	80.006	19.995	103.127	20.137	-8.922	0.503
1114.501	632.368	80.005	19.995	103.129	20.139	-9.101	0.490
1115.001	632.616	80.004	19.996	103.132	20.137	-8.977	0.477
1115.501	632.900	80.005	19.995	103.133	20.138	-8.987	0.506
1116.001	633.123	80.005	19.995	103.132	20.138	-9.018	0.520
1116.500	633.416	80.005	19.995	103.131	20.140	-9.171	0.511
1117.000	633.634	80.006	19.995	103.125	20.142	-9.263	0.513
1117.500	633.906	80.006	19.995	103.124	20.138	-9.018	0.501
1118.001	634.151	80.006	19.995	103.122	20.141	-9.213	0.504
1118.501	634.428	80.006	19.994	103.119	20.138	-9.022	0.519
1119.000	634.719	80.007	19.994	103.121	20.139	-9.054	0.545
1119.500	634.953	80.006	19.995	103.128	20.141	-9.227	0.547
1120.000	635.228	80.005	19.995	103.130	20.141	-9.191	0.517
1120.500	635.460	80.005	19.994	103.134	20.141	-9.238	0.508
1121.000	635.769	80.006	19.994	103.138	20.137	-8.982	0.524
1121.500	636.009	80.005	19.995	103.140	20.139	-9.117	0.545
1122.000	636.250	80.006	19.994	103.140	20.139	-9.104	0.515
1122.500	636.519	80.006	19.994	103.141	20.138	-9.036	0.496
1123.000	636.768	80.005	19.994	103.140	20.138	-8.993	0.515
1123.501	637.026	80.007	19.996	103.140	20.138	-9.032	0.513
1124.001	637.263	80.005	19.995	103.141	20.142	-9.261	0.501
1124.500	637.556	80.007	19.995	103.140	20.138	-9.014	0.512
1125.000	637.805	80.007	19.995	103.140	20.139	-9.057	0.536
1125.501	638.019	80.007	19.994	103.140	20.138	-8.996	0.502
1126.001	638.278	80.007	19.995	103.139	20.135	-8.809	0.468
1126.500	638.542	80.008	19.994	103.138	20.138	-9.036	0.498
1127.000	638.787	80.007	19.994	103.138	20.135	-8.854	0.516
1127.501	639.047	80.008	19.994	103.138	20.138	-8.988	0.507
1128.001	639.267	80.009	19.994	103.137	20.137	-8.986	0.493
1128.501	639.555	80.007	19.994	103.137	20.139	-9.067	0.494
1129.001	639.784	80.007	19.995	103.137	20.138	-9.026	0.512
1129.501	640.042	80.008	19.994	103.138	20.136	-8.921	0.502
1130.000	640.263	80.009	19.995	103.136	20.138	-9.036	0.483
1130.500	640.570	80.007	19.995	103.137	20.139	-9.058	0.503
1131.000	640.813	80.008	19.994	103.137	20.143	-9.354	0.539
1131.500	641.018	80.007	19.993	103.137	20.141	-9.208	0.499
1132.000	641.305	80.007	19.994	103.135	20.140	-9.123	0.470
1132.500	641.555	80.006	19.995	103.136	20.138	-9.039	0.515
1133.000	641.807	80.007	19.995	103.138	20.140	-9.148	0.520
1133.501	642.042	80.007	19.995	103.136	20.142	-9.307	0.494
1134.001	642.284	80.006	19.995	103.137	20.142	-9.285	0.482
1134.500	642.517	80.006	19.994	103.136	20.142	-9.284	0.476
1135.000	642.760	80.006	19.994	103.133	20.141	-9.212	0.476
1135.501	643.016	80.006	19.994	103.133	20.140	-9.170	0.488
1136.001	643.288	80.006	19.994	103.134	20.138	-9.019	0.514
1136.500	643.517	80.005	19.995	103.133	20.141	-9.212	0.514
1137.000	643.723	80.006	19.995	103.140	20.137	-8.935	0.468
1137.500	644.019	80.005	19.995	103.144	20.141	-9.193	0.469
1138.000	644.268	80.005	19.994	103.146	20.138	-9.005	0.524
1138.500	644.475	80.006	19.995	103.147	20.138	-9.047	0.501
1139.000	644.752	80.005	19.995	103.148	20.138	-9.018	0.470
1139.500	645.051	80.004	19.995	103.145	20.138	-9.022	0.530
1140.000	645.219	80.006	19.995	103.144	20.139	-9.120	0.521
1140.500	645.503	80.004	19.995	103.141	20.141	-9.205	0.460
1141.000	645.755	80.005	19.994	103.141	20.138	-9.005	0.494
1141.500	646.022	80.006	19.995	103.142	20.141	-9.232	0.527
1142.000	646.307	80.005	19.994	103.145	20.139	-9.118	0.536
1142.500	646.523	80.005	19.995	103.148	20.140	-9.178	0.527
1143.000	646.778	80.004	19.994	103.147	20.143	-9.366	0.486
1143.500	647.004	80.005	19.994	103.147	20.140	-9.177	0.476
1144.000	647.288	80.006	19.995	103.145	20.140	-9.127	0.495
1144.500	647.503	80.005	19.995	103.142	20.139	-9.087	0.505
1145.000	647.785	80.006	19.994	103.138	20.141	-9.197	0.498
1145.500	648.044	80.005	19.994	103.144	20.142	-9.265	0.519
1146.000	648.313	80.005	19.995	103.148	20.142	-9.265	0.535
1146.500	648.527	80.004	19.995	103.147	20.139	-9.069	0.505
1147.000	648.787	80.006	19.995	103.148	20.139	-9.103	0.479
1147.500	649.044	80.005	19.995	103.148	20.140	-9.158	0.496
1148.000	649.314	80.005	19.995	103.143	20.137	-8.956	0.521
1148.500	649.554	80.006	19.995	103.139	20.139	-9.092	0.518
1149.000	649.808	80.006	19.994	103.140	20.139	-9.091	0.503
1149.500	650.056	80.006	19.995	103.140	20.140	-9.158	0.498
1150.000	650.291	80.007	19.995	103.143	20.142	-9.300	0.492
1150.501	650.543	80.008	19.995	103.146	20.139	-9.118	0.485
1151.001	650.800	80.005	19.994	103.146	20.139	-9.089	0.498
1151.500	651.053	80.006	19.995	103.148	20.138	-9.014	0.510
1152.000	651.311	80.005	19.994	103.151	20.139	-9.074	0.510
1152.500	651.552	80.005	19.993	103.150	20.139	-9.081	0.505
1153.000	651.784	80.005	19.994	103.153	20.138	-9.012	0.486
1153.500	652.049	80.007	19.994	103.157	20.141	-9.211	0.485
1154.001	652.269	80.006	19.994	103.161	20.140	-9.142	0.491
1154.501	652.542	80.006	19.995	103.162	20.139	-9.097	0.489
1155.000	652.782	80.005	19.995	103.163	20.141	-9.216	0.503
1155.501	653.051	80.005	19.994	103.160	20.140	-9.129	0.511
1156.001	653.270	80.006	19.995	103.160	20.141	-9.232	0.499
1156.501	653.515	80.005	19.994	103.158	20.140	-9.140	0.476
1157.000	653.752	80.007	19.995	103.157	20.139	-9.122	0.473
1157.500	654.055	80.006	19.994	103.159	20.137	-8.925	0.511
1158.000	654.266	80.006	19.994	103.160	20.139	-9.098	0.527
1158.500	654.576	80.006	19.994	103.155	20.140	-9.138	0.517
1159.001	654.787	80.006	19.994	103.153	20.140	-9.180	0.520
1159.501	655.036	80.005	19.995	103.154	20.141	-9.236	0.491
1160.000	655.291	80.005	19.995	103.153	20.137	-8.949	0.483
1160.500	655.501	80.006	19.994	103.155	20.144	-9.431	0.485
1161.001	655.777	80.006	19.995	103.161	20.137	-8.983	0.475
1161.501	656.043	80.006	19.994	103.166	20.142	-9.301	0.514
1162.000	656.278	80.006	19.994	103.169	20.142	-9.279	0.521
1162.500	656.552	80.005	19.994	103.172	20.140	-9.186	0.505
1163.000	656.767	80.006	19.995	103.175	20.139	-9.098	0.499
1163.500	657.030	80.006	19.995	103.177	20.141	-9.209	0.483
1164.000	657.296	80.005	19.996	103.176	20.142	-9.257	0.503
1164.500	657.485	80.005	19.994	103.175	20.142	-9.284	0.492
1165.001	657.720	80.004	19.994	103.174	20.137	-8.967	0.440
1165.501	658.066	80.006	19.995	103.173	20.140	-9.167	0.503
1166.001	658.286	80.004	19.995	103.171	20.140	-9.139	0.573
1166.500	658.521	80.005	19.996	103.172	20.140	-9.175	0.510
1167.000	658.739	80.005	19.995	103.172	20.139	-9.111	0.454
1167.501	659.061	80.004	19.996	103.170	20.138	-9.012	0.496
1168.001	659.281	80.004	19.995	103.167	20.137	-8.958	0.542
1168.500	659.567	80.005	19.995	103.169	20.141	-9.245	0.524
1169.000	659.820	80.005	19.995	103.169	20.139	-9.079	0.522
1169.500	660.073	80.005	19.995	103.169	20.138	-9.054	0.522
1170.000	660.286	80.004	19.995	103.173	20.140	-9.161	0.486
1170.500	660.557	80.003	19.995	103.177	20.137	-8.969	0.475
1171.000	660.772	80.004	19.996	103.176	20.140	-9.130	0.485
1171.500	661.042	80.005	19.995	103.175	20.138	-9.016	0.485
1172.000	661.290	80.005	19.995	103.175	20.135	-8.825	0.501
1172.501	661.551	80.005	19.995	103.173	20.135	-8.812	0.513
1173.001	661.851	80.004	19.995	103.168	20.134	-8.758	0.535
1173.500	662.106	80.005	19.996	103.166	20.138	-9.049	0.558
1174.000	662.342	80.005	19.994	103.162	20.138	-9.024	0.523
1174.500	662.599	80.006	19.995	103.162	20.135	-8.815	0.492
1175.000	662.804	80.005	19.996	103.164	20.137	-8.946	0.478
1175.500	663.067	80.005	19.996	103.168	20.138	-9.019	0.465
1176.000	663.324	80.006	19.995	103.172	20.134	-8.739	0.494
1176.500	663.587	80.005	19.995	103.175	20.136	-8.893	0.520
1177.000	663.815	80.005	19.995	103.176	20.135	-8.851	0.506
1177.500	664.082	80.006	19.995	103.176	20.136	-8.871	0.493
1178.001	664.333	80.007	19.995	103.176	20.136	-8.884	0.506
1178.501	664.578	80.006	19.994	103.177	20.133	-8.685	0.507
1179.000	664.837	80.006	19.995	103.178	20.137	-8.947	0.501
1179.500	665.066	80.006	19.995	103.179	20.136	-8.907	0.496
1180.000	665.330	80.005	19.995	103.180	20.136	-8.923	0.490
1180.500	665.578	80.006	19.996	103.180	20.136	-8.910	0.503
1181.000	665.850	80.007	19.996	103.180	20.138	-8.998	0.517
1181.500	666.104	80.006	19.995	103.181	20.138	-9.052	0.523
1182.000	666.329	80.006	19.995	103.182	20.136	-8.918	0.502
1182.500	666.581	80.006	19.995	103.181	20.136	-8.913	0.477
1183.001	666.821	80.006	19.995	103.181	20.137	-8.982	0.485
1183.501	667.108	80.007	19.994	103.183	20.138	-9.036	0.510
1184.000	667.336	80.007	19.995	103.182	20.137	-8.935	0.521
1184.500	667.584	80.007	19.994	103.182	20.135	-8.837	0.496
1185.000	667.851	80.007	19.994	103.183	20.137	-8.940	0.496
1185.500	668.089	80.007	19.995	103.186	20.137	-8.951	0.510
1186.000	668.379	80.007	19.995	103.185	20.137	-8.979	0.516
1186.500	668.579	80.007	19.995	103.187	20.133	-8.717	0.509
1187.000	668.831	80.006	19.995	103.189	20.134	-8.770	0.471
1187.500	669.101	80.004	19.996	103.191	20.134	-8.772	0.487
1188.000	669.374	80.006	19.994	103.189	20.133	-8.698	0.532
1188.500	669.639	80.006	19.994	103.189	20.138	-9.019	0.540
1189.000	669.916	80.006	19.995	103.192	20.134	-8.773	0.540
1189.500	670.123	80.005	19.995	103.193	20.135	-8.859	0.513
1190.000	670.395	80.004	19.995	103.190	20.136	-8.922	0.482
1190.500	670.653	80.005	19.995	103.189	20.139	-9.085	0.504
1191.000	670.928	80.007	19.995	103.188	20.134	-8.784	0.531
1191.500	671.153	80.006	19.994	103.183	20.133	-8.706	0.517
1192.001	671.410	80.005	19.996	103.180	20.134	-8.782	0.492
1192.501	671.642	80.004	19.995	103.182	20.135	-8.857	0.485
1193.000	671.931	80.005	19.996	103.188	20.136	-8.888	0.504
1193.500	672.143	80.005	19.995	103.194	20.136	-8.876	0.511
1194.000	672.441	80.004	19.996	103.198	20.138	-9.044	0.506
1194.500	672.703	80.005	19.995	103.203	20.137	-8.981	0.535
1195.000	672.940	80.005	19.996	103.203	20.136	-8.881	0.530
1195.500	673.196	80.005	19.996	103.200	20.136	-8.890	0.496
1196.001	673.466	80.004	19.995	103.198	20.135	-8.812	0.509
1196.501	673.706	80.003	19.995	103.201	20.138	-9.020	0.518
1197.000	673.954	80.004	19.995	103.204	20.138	-9.004	0.499
1197.500	674.210	80.005	19.996	103.209	20.136	-8.913	0.497
1198.000	674.491	80.004	19.996	103.214	20.136	-8.906	0.521
1198.501	674.720	80.005	19.996	103.218	20.137	-8.973	0.524
1199.001	675.010	80.005	19.995	103.217	20.138	-9.028	0.514
1199.500	675.261	80.004	19.995	103.210	20.138	-9.001	0.529
1200.000	675.489	80.004	19.995	103.205	20.137	-8.963	0.510
1200.500	675.752	80.004	19.995	103.201	20.136	-8.867	0.485
1201.000	675.988	80.005	19.995	103.197	20.136	-8.911	0.495
1201.500	676.283	80.006	19.995	103.198	20.137	-8.944	0.515
1202.000	676.444	80.006	19.995	103.203	20.140	-9.180	0.494
1202.500	676.961	80.006	19.995	103.208	20.140	-9.146	0.567
1203.000	677.013	80.006	19.997	103.211	20.136	-8.879	0.623
1203.500	677.268	80.006	19.996	103.217	20.138	-9.026	0.438
1204.000	677.574	80.007	19.995	103.220	20.139	-9.097	0.434
1204.500	677.778	80.007	19.995	103.223	20.136	-8.916	0.536
1205.001	678.044	80.007	19.994	103.228	20.137	-8.938	0.490
1205.501	678.271	80.008	19.995	103.228	20.135	-8.839	0.482
1206.001	678.556	80.007	19.995	103.224	20.135	-8.830	0.502
1206.501	678.798	80.007	19.995	103.221	20.137	-8.969	0.519
1207.001	679.048	80.007	19.994	103.221	20.139	-9.084	0.510
1207.501	679.290	80.008	19.995	103.219	20.139	-9.092	0.493
1208.001	679.566	80.008	19.994	103.221	20.137	-8.969	0.505
1208.501	679.835	80.008	19.994	103.222	20.139	-9.076	0.531
1209.000	680.096	80.006	19.994	103.222	20.137	-8.965	0.538
1209.500	680.346	80.007	19.994	103.219	20.138	-9.000	0.520
1210.000	680.583	80.008	19.994	103.217	20.136	-8.897	0.498
1210.500	680.849	80.007	19.995	103.214	20.137	-8.959	0.495
1211.000	681.080	80.007	19.994	103.214	20.140	-9.145	0.500
1211.500	681.354	80.008	19.994	103.213	20.139	-9.103	0.502
1212.001	681.589	80.008	19.995	103.216	20.137	-8.967	0.507
1212.501	681.848	80.007	19.994	103.216	20.136	-8.905	0.501
1213.000	682.083	80.007	19.995	103.217	20.139	-9.113	0.494
1213.500	682.366	80.007	19.995	103.216	20.136	-8.923	0.506
1214.000	682.598	80.006	19.994	103.216	20.137	-8.964	0.516
1214.500	682.839	80.006	19.994	103.214	20.137	-8.967	0.494
1215.000	683.132	80.008	19.994	103.213	20.137	-8.958	0.503
1215.501	683.362	80.006	19.995	103.213	20.136	-8.884	0.529
1216.001	683.647	80.005	19.995	103.213	20.136	-8.897	0.519
1216.501	683.896	80.005	19.995	103.214	20.137	-8.951	0.525
1217.001	684.118	80.006	19.995	103.214	20.139	-9.105	0.502
1217.501	684.390	80.005	19.995	103.215	20.137	-8.993	0.482
1218.001	684.624	80.005	19.995	103.216	20.135	-8.837	0.500
1218.500	684.892	80.005	19.994	103.217	20.136	-8.924	0.504
1219.000	685.149	80.006	19.994	103.219	20.136	-8.914	0.514
1219.500	685.365	80.005	19.994	103.224	20.135	-8.833	0.499
1220.000	685.638	80.005	19.995	103.230	20.138	-9.048	0.481
1220.500	685.881	80.005	19.994	103.238	20.136	-8.910	0.503
1221.000	686.173	80.004	19.994	103.245	20.138	-9.049	0.526
1221.500	686.377	80.005	19.995	103.247	20.139	-9.081	0.516
1222.000	686.628	80.005	19.995	103.250	20.134	-8.756	0.476
1222.500	686.878	80.005	19.995	103.247	20.134	-8.784	0.478
1223.000	687.148	80.004	19.995	103.242	20.135	-8.823	0.510
1223.500	687.400	80.005	19.995	103.234	20.136	-8.872	0.521
1224.000	687.630	80.006	19.996	103.230	20.139	-9.119	0.503
1224.500	687.944	80.005	19.995	103.224	20.136	-8.928	0.513
1225.000	688.126	80.006	19.996	103.219	20.137	-8.995	0.520
1225.500	688.414	80.007	19.995	103.219	20.136	-8.873	0.483
1226.000	688.653	80.005	19.995	103.219	20.134	-8.734	0.498
1226.500	688.893	80.005	19.995	103.220	20.135	-8.828	0.503
1227.000	689.164	80.005	19.995	103.220	20.135	-8.858	0.495
1227.500	689.403	80.004	19.995	103.223	20.137	-8.968	0.510
1228.001	689.668	80.004	19.996	103.225	20.137	-8.979	0.507
1228.501	689.919	80.006	19.996	103.230	20.137	-8.978	0.510
1229.000	690.157	80.006	19.994	103.235	20.134	-8.743	0.502
1229.500	690.418	80.006	19.995	103.241	20.137	-8.945	0.494
1230.000	690.666	80.006	19.995	103.246	20.135	-8.822	0.504
1230.500	690.899	80.005	19.995	103.249	20.134	-8.763	0.495
1231.001	691.181	80.005	19.995	103.250	20.135	-8.828	0.498
1231.501	691.399	80.005	19.995	103.248	20.135	-8.824	0.508
1232.001	691.677	80.006	19.994	103.247	20.135	-8.833	0.498
1232.501	691.905	80.005	19.995	103.244	20.135	-8.817	0.501
1233.000	692.133	80.005	19.995	103.240	20.134	-8.795	0.481
1233.500	692.437	80.006	19.995	103.235	20.135	-8.864	0.494
1234.000	692.634	80.006	19.995	103.237	20.133	-8.687	0.516
1234.500	692.939	80.005	19.995	103.239	20.132	-8.638	0.501
1235.000	693.174	80.006	19.994	103.242	20.133	-8.689	0.521
1235.500	693.400	80.006	19.995	103.246	20.131	-8.575	0.501
1236.000	693.638	80.006	19.995	103.251	20.131	-8.581	0.463
1236.500	693.943	80.005	19.995	103.254	20.132	-8.635	0.504
1237.001	694.179	80.005	19.994	103.254	20.131	-8.595	0.542
1237.501	694.411	80.006	19.995	103.254	20.133	-8.698	0.504
1238.000	694.637	80.006	19.995	103.254	20.131	-8.577	0.463
1238.500	694.900	80.005	19.994	103.254	20.131	-8.577	0.474
1239.000	695.146	80.006	19.994	103.254	20.132	-8.646	0.499
1239.500	695.392	80.005	19.994	103.255	20.134	-8.745	0.500
1240.000	695.612	80.005	19.994	103.255	20.135	-8.801	0.479
1240.500	695.908	80.005	19.995	103.256	20.132	-8.606	0.491
1241.000	696.182	80.005	19.995	103.257	20.132	-8.665	0.544
1241.500	696.429	80.005	19.995	103.257	20.131	-8.578	0.545
1242.000	696.668	80.004	19.994	103.257	20.131	-8.551	0.503
1242.500	696.912	80.005	19.994	103.256	20.130	-8.495	0.484
1243.001	697.166	80.006	19.994	103.256	20.132	-8.629	0.490
1243.501	697.413	80.005	19.994	103.257	20.135	-8.813	0.500
1244.000	697.646	80.006	19.994	103.258	20.132	-8.660	0.491
1244.500	697.923	80.004	19.994	103.258	20.133	-8.710	0.495
1245.001	698.172	80.004	19.995	103.258	20.133	-8.694	0.518
1245.501	698.434	80.004	19.994	103.258	20.133	-8.678	0.518
1246.000	698.682	80.005	19.994	103.258	20.131	-8.595	0.510
1246.501	698.938	80.004	19.995	103.258	20.129	-8.434	0.507
1247.001	699.200	80.003	19.994	103.258	20.135	-8.805	0.511
1247.500	699.443	80.005	19.994	103.258	20.132	-8.624	0.512
1248.000	699.704	80.003	19.994	103.259	20.134	-8.781	0.505
1248.500	699.940	80.004	19.995	103.259	20.135	-8.804	0.501
1249.000	700.155	80.005	19.995	103.259	20.135	-8.808	0.474
1249.501	700.405	80.004	19.994	103.259	20.132	-8.655	0.458
1250.001	700.681	80.004	19.994	103.259	20.134	-8.745	0.496
1250.500	700.927	80.004	19.995	103.259	20.132	-8.658	0.523
1251.001	701.147	80.004	19.994	103.256	20.132	-8.633	0.494
1251.501	701.427	80.004	19.995	103.256	20.131	-8.564	0.483
1252.001	701.691	80.004	19.995	103.252	20.134	-8.741	0.522
1252.501	701.907	80.005	19.995	103.250	20.129	-8.407	0.512
1253.000	702.194	80.004	19.995	103.250	20.129	-8.400	0.492
1253.500	702.437	80.004	19.995	103.252	20.129	-8.416	0.517
1254.000	702.694	80.005	19.994	103.252	20.130	-8.512	0.515
1254.500	702.924	80.004	19.995	103.256	20.129	-8.412	0.493
1255.000	703.194	80.004	19.995	103.257	20.130	-8.513	0.493
1255.500	703.425	80.004	19.994	103.257	20.130	-8.519	0.500
1256.000	703.631	80.005	19.995	103.258	20.130	-8.521	0.469
1256.501	703.913	80.005	19.995	103.258	20.134	-8.761	0.463
1257.001	704.160	80.005	19.995	103.258	20.129	-8.464	0.508
1257.500	704.386	80.005	19.995	103.259	20.131	-8.580	0.501
1258.000	704.641	80.005	19.994	103.260	20.130	-8.488	0.477
1258.500	704.928	80.006	19.995	103.259	20.130	-8.529	0.511
1259.000	705.140	80.005	19.996	103.258	20.136	-8.893	0.520
1259.500	705.398	80.004	19.995	103.258	20.130	-8.513	0.485
1260.000	705.678	80.005	19.995	103.258	20.132	-8.613	0.504
1260.500	705.875	80.005	19.995	103.258	20.133	-8.672	0.508
1261.000	706.171	80.006	19.996	103.258	20.132	-8.613	0.485
1261.500	706.417	80.006	19.996	103.259	20.131	-8.587	0.517
1262.000	706.632	80.006	19.995	103.259	20.132	-8.652	0.501
1262.500	706.908	80.006	19.994	103.259	20.131	-8.576	0.476
1263.001	707.178	80.005	19.994	103.258	20.136	-8.865	0.519
1263.501	707.429	80.006	19.995	103.258	20.135	-8.846	0.534
1264.001	707.695	80.007	19.995	103.257	20.135	-8.860	0.519
1264.500	707.891	80.007	19.995	103.256	20.133	-8.681	0.489
1265.000	708.151	80.006	19.995	103.256	20.134	-8.770	0.459
1265.500	708.381	80.006	19.995	103.255	20.136	-8.920	0.473
1266.000	708.631	80.006	19.995	103.255	20.133	-8.668	0.485
1266.500	708.848	80.006	19.995	103.254	20.131	-8.533	0.473
1267.000	709.101	80.005	19.995	103.254	20.132	-8.650	0.468
1267.500	709.379	80.006	19.995	103.252	20.128	-8.397	0.501
1268.000	709.619	80.006	19.994	103.252	20.130	-8.506	0.525
1268.500	709.845	80.006	19.995	103.251	20.132	-8.659	0.492
1269.000	710.104	80.006	19.995	103.252	20.132	-8.656	0.475
1269.500	710.367	80.006	19.995	103.252	20.130	-8.508	0.503
1270.001	710.633	80.006	19.994	103.254	20.129	-8.416	0.526
1270.501	710.852	80.006	19.995	103.254	20.132	-8.618	0.507
1271.001	711.071	80.006	19.994	103.254	20.130	-8.498	0.461
1271.500	711.341	80.006	19.995	103.254	20.134	-8.737	0.463
1272.000	711.639	80.007	19.995	103.254	20.134	-8.746	0.528
1272.500	711.852	80.007	19.995	103.253	20.133	-8.681	0.539
1273.000	712.117	80.005	19.995	103.253	20.137	-8.943	0.495
1273.500	712.372	80.006	19.996	103.253	20.133	-8.667	0.500
1274.000	712.593	80.006	19.995	103.252	20.130	-8.477	0.498
1274.500	712.865	80.006	19.994	103.253	20.131	-8.575	0.484
1275.000	713.135	80.006	19.996	103.253	20.135	-8.808	0.517
1275.500	713.402	80.007	19.995	103.252	20.131	-8.576	0.540
1276.000	713.624	80.006	19.995	103.251	20.131	-8.550	0.513
1276.500	713.876	80.006	19.996	103.252	20.131	-8.568	0.481
1277.000	714.181	80.006	19.996	103.252	20.130	-8.503	0.515
1277.500	714.371	80.005	19.996	103.251	20.127	-8.330	0.526
1278.001	714.656	80.005	19.996	103.250	20.126	-8.228	0.485
1278.501	714.899	80.005	19.996	103.250	20.129	-8.441	0.502
1279.000	715.156	80.005	19.995	103.249	20.129	-8.405	0.514
1279.500	715.398	80.007	19.996	103.250	20.133	-8.687	0.500
1280.000	715.665	80.006	19.995	103.251	20.130	-8.463	0.504
1280.500	715.906	80.007	19.995	103.252	20.128	-8.378	0.508
1281.000	716.178	80.005	19.994	103.251	20.127	-8.275	0.510
1281.501	716.426	80.006	19.995	103.247	20.127	-8.326	0.516
1282.001	716.650	80.005	19.995	103.240	20.127	-8.277	0.496
1282.500	716.924	80.006	19.995	103.234	20.132	-8.615	0.485
1283.000	717.179	80.006	19.995	103.228	20.133	-8.683	0.514
1283.500	717.428	80.006	19.995	103.224	20.133	-8.714	0.517
1284.000	717.685	80.007	19.996	103.227	20.132	-8.620	0.505
1284.501	717.924	80.008	19.995	103.233	20.133	-8.698	0.501
1285.001	718.179	80.006	19.995	103.234	20.132	-8.618	0.495
1285.500	718.428	80.007	19.995	103.235	20.135	-8.802	0.499
1286.000	718.715	80.006	19.995	103.233	20.134	-8.787	0.520
1286.501	718.959	80.005	19.997	103.226	20.134	-8.765	0.533
1287.001	719.194	80.008	19.996	103.220	20.136	-8.870	0.505
1287.500	719.486	80.007	19.994	103.217	20.138	-9.008	0.503
1288.000	719.713	80.008	19.995	103.216	20.132	-8.660	0.523
1288.501	719.967	80.006	19.995	103.215	20.135	-8.854	0.500
1289.001	720.218	80.007	19.995	103.214	20.135	-8.798	0.493
1289.500	720.480	80.008	19.996	103.214	20.132	-8.622	0.508
1290.000	720.742	80.007	19.995	103.213	20.136	-8.869	0.518
1290.500	720.938	80.006	19.995	103.213	20.132	-8.602	0.491
1291.000	721.186	80.008	19.996	103.214	20.134	-8.773	0.451
1291.500	721.448	80.007	19.995	103.213	20.131	-8.564	0.477
1292.000	721.685	80.007	19.995	103.213	20.134	-8.732	0.504
1292.500	721.956	80.006	19.995	103.214	20.135	-8.802	0.504
1293.001	722.189	80.005	19.996	103.214	20.135	-8.851	0.506
1293.501	722.485	80.004	19.995	103.214	20.133	-8.702	0.516
1294.000	722.703	80.004	19.995	103.215	20.136	-8.873	0.522
1294.500	722.944	80.004	19.995	103.215	20.134	-8.774	0.487
1295.000	723.194	80.005	19.995	103.215	20.136	-8.862	0.475
1295.500	723.465	80.005	19.995	103.215	20.138	-9.026	0.506
1296.000	723.713	80.005	19.995	103.214	20.136	-8.867	0.520
1296.501	724.006	80.005	19.995	103.212	20.135	-8.836	0.530
1297.001	724.211	80.005	19.995	103.205	20.135	-8.818	0.519
1297.501	724.510	80.005	19.995	103.202	20.137	-8.986	0.501
1298.001	724.733	80.006	19.994	103.197	20.135	-8.816	0.513
1298.501	725.024	80.004	19.995	103.194	20.139	-9.075	0.518
1299.000	725.272	80.004	19.995	103.196	20.139	-9.115	0.526
1299.500	725.532	80.005	19.995	103.203	20.137	-8.981	0.524
1300.000	725.778	80.005	19.994	103.207	20.139	-9.064	0.507
1300.500	726.028	80.004	19.995	103.210	20.138	-9.036	0.501
1301.000	726.279	80.005	19.995	103.210	20.140	-9.187	0.498
1301.500	726.545	80.005	19.995	103.208	20.139	-9.088	0.509
1302.000	726.770	80.005	19.995	103.203	20.137	-8.929	0.504
1302.501	727.048	80.004	19.995	103.195	20.141	-9.192	0.497
1303.001	727.319	80.005	19.995	103.190	20.140	-9.160	0.525
1303.500	727.532	80.004	19.994	103.190	20.139	-9.119	0.517
1304.000	727.793	80.004	19.994	103.189	20.141	-9.214	0.480
1304.500	728.035	80.005	19.994	103.193	20.137	-8.978	0.489
1305.000	728.264	80.005	19.994	103.198	20.142	-9.259	0.487
1305.500	728.482	80.005	19.994	103.199	20.139	-9.069	0.459
1306.000	728.781	80.005	19.996	103.197	20.140	-9.182	0.482
1306.500	729.024	80.006	19.995	103.194	20.139	-9.108	0.529
1307.000	729.283	80.005	19.994	103.187	20.141	-9.216	0.522
1307.500	729.536	80.006	19.995	103.185	20.144	-9.391	0.507
1308.000	729.788	80.005	19.994	103.183	20.143	-9.379	0.509
1308.500	730.040	80.005	19.995	103.182	20.141	-9.192	0.505
1309.000	730.288	80.005	19.995	103.177	20.141	-9.233	0.502
1309.500	730.571	80.006	19.994	103.175	20.141	-9.244	0.515
1310.000	730.783	80.005	19.995	103.173	20.145	-9.491	0.513
1310.500	731.024	80.006	19.995	103.172	20.144	-9.435	0.474
1311.000	731.278	80.006	19.996	103.173	20.143	-9.354	0.474
1311.500	731.538	80.005	19.995	103.178	20.146	-9.522	0.504
1312.000	731.791	80.006	19.995	103.178	20.144	-9.437	0.514
1312.500	732.016	80.006	19.995	103.175	20.143	-9.381	0.496
1313.000	732.288	80.006	19.995	103.173	20.145	-9.466	0.487
1313.500	732.537	80.005	19.995	103.173	20.145	-9.502	0.509
1314.000	732.764	80.005	19.995	103.173	20.147	-9.589	0.498
1314.500	733.034	80.005	19.994	103.174	20.143	-9.358	0.487
1315.000	733.281	80.006	19.995	103.177	20.146	-9.542	0.507
1315.500	733.497	80.006	19.995	103.177	20.147	-9.603	0.490
1316.000	733.792	80.006	19.995	103.172	20.146	-9.540	0.487
1316.500	734.010	80.004	19.995	103.169	20.145	-9.493	0.511
1317.001	734.249	80.004	19.994	103.162	20.145	-9.460	0.485
1317.501	734.512	80.005	19.995	103.154	20.143	-9.383	0.480
1318.001	734.762	80.005	19.995	103.151	20.146	-9.558	0.508
1318.501	735.014	80.005	19.995	103.150	20.146	-9.567	0.507
1319.001	735.254	80.006	19.995	103.145	20.144	-9.404	0.497
1319.500	735.512	80.005	19.994	103.146	20.144	-9.395	0.494
1320.000	735.760	80.006	19.994	103.146	20.145	-9.485	0.502
1320.500	736.034	80.004	19.995	103.145	20.146	-9.581	0.515
1321.000	736.252	80.004	19.995	103.145	20.143	-9.364	0.507
1321.501	736.496	80.005	19.994	103.146	20.147	-9.584	0.477
1322.001	736.714	80.004	19.995	103.146	20.143	-9.341	0.462
1322.501	737.007	80.005	19.995	103.149	20.149	-9.754	0.486
1323.000	737.239	80.004	19.994	103.149	20.147	-9.601	0.518
1323.500	737.510	80.005	19.994	103.148	20.146	-9.565	0.514
1324.000	737.781	80.006	19.995	103.147	20.145	-9.465	0.522
1324.500	737.999	80.005	19.994	103.148	20.146	-9.577	0.516
1325.000	738.266	80.004	19.994	103.147	20.144	-9.402	0.487
1325.500	738.552	80.005	19.994	103.147	20.148	-9.714	0.519
1326.000	738.784	80.004	19.994	103.148	20.147	-9.584	0.536
1326.501	739.036	80.005	19.995	103.148	20.144	-9.431	0.501
1327.001	739.268	80.006	19.996	103.146	20.147	-9.607	0.484
1327.501	739.534	80.005	19.994	103.145	20.149	-9.726	0.491
1328.000	739.774	80.006	19.996	103.144	20.149	-9.720	0.502
1328.500	740.023	80.005	19.995	103.143	20.149	-9.737	0.498
1329.000	740.240	80.005	19.995	103.142	20.149	-9.759	0.478
1329.500	740.526	80.006	19.995	103.142	20.150	-9.792	0.484
1330.000	740.785	80.005	19.994	103.140	20.149	-9.778	0.524
1330.500	741.021	80.006	19.995	103.140	20.149	-9.717	0.520
1331.000	741.241	80.005	19.995	103.139	20.150	-9.831	0.476
1331.500	741.518	80.007	19.995	103.139	20.153	-10.021	0.477
1332.000	741.789	80.005	19.994	103.139	20.148	-9.655	0.523
1332.501	742.053	80.006	19.994	103.139	20.152	-9.918	0.541
1333.001	742.291	80.007	19.995	103.139	20.151	-9.860	0.519
1333.501	742.502	80.006	19.996	103.139	20.149	-9.777	0.476
1334.001	742.769	80.006	19.995	103.140	20.150	-9.808	0.463
1334.500	743.064	80.006	19.995	103.140	20.150	-9.833	0.520
1335.000	743.280	80.006	19.994	103.138	20.152	-9.945	0.536
1335.500	743.508	80.006	19.995	103.137	20.153	-10.040	0.477
