Sample ID:	C:\MCC\MCC Cal\Test\Wool_Rug_MCC_30K_min_211112_R1.txt
Sample Weight (mg):	4.72
Heating Rate (C/s):	0.5
Combustor Temp (C):	900
N2 Flow Rate (cc/min):	80
O2 Flow Rate (cc/min):	20
Calibration File:	C:\MCC\MCC Cal\Coeff1 JN10440_30_210304.txt.txt
T Correction Coefficients:	0	1.024463	0
Time Shift (s):	14
*
Time (s)	Temperature (C)	N2 flow rate (cc/min)	O2 flow rate (cc/min)	Flow Rate (cc/min)	Oxygen (%)	HRR (W/g)	Heating rate (C/s)
0.000	108.408	79.998	19.996	102.937	20.109	-0.150	0.015
0.500	108.386	79.999	19.997	102.936	20.111	-0.293	-0.020
1.000	108.433	80.001	19.995	102.939	20.110	-0.228	-0.006
1.500	108.374	80.000	19.994	102.946	20.108	-0.054	0.007
2.000	108.394	80.003	19.996	102.948	20.110	-0.200	-0.026
2.500	108.380	80.000	19.994	102.951	20.110	-0.210	-0.017
3.000	108.380	79.999	19.995	102.950	20.106	0.058	-0.004
3.500	108.382	80.001	19.995	102.949	20.108	-0.093	-0.006
4.000	108.390	79.999	19.994	102.944	20.109	-0.117	0.006
4.500	108.433	80.000	19.995	102.940	20.108	-0.052	0.031
5.000	108.398	80.003	19.995	102.938	20.108	-0.058	0.029
5.500	108.406	79.998	19.996	102.939	20.108	-0.059	-0.009
6.000	108.394	80.000	19.993	102.938	20.107	0.011	-0.016
6.500	108.387	79.999	19.994	102.940	20.108	-0.093	-0.012
7.000	108.381	80.001	19.995	102.943	20.107	0.002	-0.016
7.500	108.412	80.001	19.995	102.941	20.108	-0.067	0.006
8.000	108.413	79.998	19.995	102.941	20.110	-0.238	0.029
8.500	108.367	80.000	19.995	102.942	20.106	0.076	-0.007
9.000	108.408	80.001	19.994	102.941	20.108	-0.091	-0.025
9.500	108.404	80.000	19.994	102.941	20.109	-0.128	0.016
10.000	108.396	80.001	19.994	102.944	20.103	0.264	0.013
10.501	108.418	80.002	19.993	102.946	20.105	0.113	0.001
11.001	108.404	80.000	19.994	102.948	20.107	0.020	0.011
11.500	108.398	79.999	19.995	102.949	20.106	0.048	-0.006
12.000	108.356	80.003	19.993	102.946	20.107	-0.019	-0.034
12.500	108.408	80.005	19.993	102.946	20.105	0.132	-0.019
13.000	108.409	80.001	19.994	102.946	20.105	0.124	0.032
13.500	108.395	80.000	19.994	102.945	20.106	0.059	0.020
14.000	108.417	80.002	19.994	102.948	20.106	0.058	-0.003
14.500	108.393	80.002	19.994	102.952	20.104	0.199	0.002
15.000	108.393	80.002	19.994	102.953	20.100	0.457	-0.013
15.500	108.394	80.000	19.993	102.959	20.103	0.260	-0.011
16.000	108.408	80.002	19.994	102.963	20.104	0.210	0.008
16.500	108.377	80.001	19.993	102.964	20.102	0.344	-0.001
17.000	108.397	80.001	19.993	102.966	20.098	0.583	-0.014
17.500	108.390	80.000	19.994	102.970	20.097	0.693	0.001
18.000	108.396	80.000	19.995	102.973	20.098	0.628	0.006
18.500	108.451	80.002	19.994	102.977	20.098	0.609	0.030
19.000	108.406	79.999	19.995	102.984	20.097	0.678	0.035
19.500	108.437	80.003	19.995	102.990	20.096	0.758	-0.002
20.000	108.401	80.002	19.994	102.994	20.098	0.639	-0.009
20.500	108.454	79.999	19.994	103.003	20.096	0.748	0.006
21.000	108.431	80.001	19.994	103.008	20.098	0.631	0.024
21.500	108.436	80.003	19.994	103.014	20.095	0.849	0.006
22.000	108.419	80.006	19.995	103.017	20.096	0.724	-0.015
22.500	108.459	80.002	19.994	103.017	20.095	0.814	0.006
23.000	108.468	80.003	19.995	103.017	20.095	0.830	0.036
23.500	108.461	80.001	19.994	103.019	20.093	0.960	0.025
24.000	108.507	80.001	19.995	103.016	20.091	1.085	0.020
24.500	108.509	79.999	19.993	103.016	20.091	1.077	0.043
25.000	108.535	80.001	19.994	103.020	20.093	0.925	0.038
25.500	108.545	80.000	19.994	103.019	20.088	1.285	0.032
26.000	108.600	80.001	19.994	103.020	20.089	1.220	0.051
26.500	108.611	79.999	19.994	103.021	20.094	0.875	0.065
27.000	108.642	80.000	19.994	103.024	20.091	1.078	0.054
27.500	108.639	80.001	19.994	103.026	20.090	1.126	0.035
28.000	108.680	80.001	19.995	103.027	20.092	1.055	0.033
28.500	108.730	79.999	19.994	103.028	20.091	1.106	0.065
29.000	108.698	79.999	19.995	103.035	20.090	1.139	0.054
29.500	108.735	79.999	19.995	103.038	20.090	1.167	0.011
30.000	108.765	79.997	19.993	103.038	20.087	1.375	0.036
30.500	108.773	79.998	19.994	103.039	20.084	1.542	0.053
31.000	108.844	79.997	19.994	103.046	20.086	1.449	0.058
31.500	108.863	79.999	19.995	103.049	20.083	1.635	0.084
32.001	108.899	79.998	19.995	103.057	20.086	1.446	0.073
32.500	108.899	79.999	19.994	103.065	20.083	1.630	0.046
33.000	108.949	79.999	19.995	103.075	20.084	1.576	0.043
33.500	109.022	79.998	19.994	103.079	20.081	1.744	0.086
34.000	109.036	79.999	19.995	103.080	20.081	1.744	0.105
34.500	109.061	80.000	19.994	103.080	20.082	1.738	0.063
35.000	109.111	80.000	19.993	103.080	20.082	1.679	0.057
35.501	109.161	79.998	19.995	103.077	20.081	1.755	0.087
36.001	109.216	79.997	19.994	103.073	20.078	1.972	0.102
36.500	109.268	79.999	19.995	103.075	20.079	1.891	0.106
37.000	109.308	79.998	19.995	103.077	20.079	1.887	0.100
37.500	109.365	79.998	19.995	103.080	20.076	2.095	0.095
38.000	109.395	79.997	19.996	103.087	20.080	1.868	0.092
38.500	109.438	79.999	19.995	103.093	20.078	1.958	0.080
39.001	109.463	80.000	19.994	103.100	20.076	2.082	0.071
39.501	109.545	79.996	19.995	103.102	20.077	2.058	0.087
40.000	109.608	79.999	19.994	103.103	20.073	2.290	0.126
40.500	109.673	80.000	19.994	103.103	20.075	2.156	0.137
41.000	109.715	79.997	19.995	103.104	20.075	2.155	0.118
41.500	109.804	79.999	19.994	103.104	20.076	2.145	0.119
42.000	109.858	79.998	19.994	103.107	20.075	2.156	0.137
42.500	109.923	80.001	19.994	103.113	20.073	2.350	0.131
43.000	109.991	79.997	19.993	103.121	20.073	2.328	0.126
43.500	110.053	79.996	19.995	103.124	20.074	2.274	0.131
44.000	110.086	79.999	19.995	103.131	20.074	2.233	0.113
44.500	110.206	79.996	19.995	103.138	20.070	2.519	0.124
45.000	110.241	80.000	19.993	103.143	20.073	2.322	0.154
45.500	110.290	79.999	19.995	103.146	20.072	2.385	0.119
46.000	110.399	79.998	19.995	103.150	20.072	2.389	0.121
46.500	110.457	79.997	19.995	103.151	20.071	2.432	0.163
47.000	110.526	79.997	19.994	103.152	20.073	2.330	0.147
47.500	110.640	79.999	19.995	103.152	20.070	2.553	0.155
48.000	110.694	79.999	19.995	103.153	20.071	2.449	0.176
48.500	110.805	79.997	19.995	103.152	20.068	2.678	0.167
49.000	110.854	79.996	19.994	103.152	20.070	2.536	0.162
49.500	110.942	79.999	19.994	103.152	20.070	2.514	0.148
50.000	111.000	80.000	19.994	103.152	20.067	2.706	0.141
50.500	111.116	79.999	19.996	103.151	20.072	2.384	0.160
51.000	111.246	79.998	19.995	103.152	20.070	2.495	0.210
51.500	111.346	79.999	19.995	103.151	20.068	2.668	0.238
52.000	111.451	79.996	19.995	103.151	20.069	2.576	0.218
52.500	111.514	80.000	19.995	103.150	20.068	2.655	0.187
53.000	111.624	79.996	19.995	103.150	20.066	2.782	0.170
53.500	111.732	79.998	19.995	103.154	20.068	2.661	0.195
54.000	111.791	79.997	19.995	103.159	20.065	2.881	0.193
54.500	111.919	79.997	19.995	103.160	20.064	2.936	0.177
55.000	111.997	79.997	19.996	103.162	20.064	2.955	0.196
55.500	112.150	79.996	19.996	103.163	20.065	2.877	0.218
56.000	112.236	79.998	19.995	103.162	20.066	2.771	0.235
56.500	112.359	79.996	19.996	103.164	20.065	2.849	0.224
57.000	112.452	79.999	19.996	103.169	20.065	2.855	0.212
57.500	112.558	79.999	19.996	103.174	20.062	3.057	0.208
58.000	112.685	79.997	19.995	103.179	20.064	2.940	0.216
58.500	112.790	79.997	19.996	103.181	20.064	2.905	0.232
59.000	112.935	79.998	19.996	103.180	20.066	2.789	0.240
59.500	113.044	79.997	19.995	103.179	20.063	3.035	0.252
60.000	113.129	79.996	19.996	103.177	20.062	3.074	0.224
60.500	113.287	79.997	19.996	103.176	20.064	2.914	0.218
61.000	113.432	79.996	19.996	103.177	20.062	3.070	0.273
61.500	113.532	79.998	19.997	103.176	20.062	3.080	0.275
62.001	113.650	79.998	19.995	103.178	20.061	3.117	0.232
62.501	113.753	79.998	19.995	103.181	20.065	2.892	0.219
63.000	113.892	79.999	19.995	103.183	20.063	3.022	0.231
63.500	114.041	80.004	19.994	103.182	20.060	3.212	0.265
64.000	114.198	79.997	19.996	103.187	20.063	3.003	0.298
64.500	114.311	79.996	19.995	103.188	20.061	3.109	0.288
65.000	114.444	80.001	19.995	103.188	20.058	3.340	0.258
65.500	114.591	79.996	19.995	103.188	20.062	3.055	0.263
66.000	114.705	80.001	19.994	103.188	20.061	3.160	0.271
66.500	114.828	79.998	19.994	103.186	20.062	3.100	0.249
67.000	114.971	79.996	19.995	103.186	20.060	3.213	0.251
67.500	115.115	80.000	19.995	103.186	20.063	3.033	0.276
68.000	115.259	79.999	19.994	103.186	20.060	3.189	0.287
68.500	115.395	80.001	19.994	103.187	20.059	3.303	0.284
69.000	115.549	80.000	19.995	103.187	20.057	3.431	0.285
69.500	115.714	80.000	19.995	103.187	20.062	3.104	0.304
70.000	115.842	80.001	19.995	103.187	20.061	3.152	0.306
70.500	115.980	80.006	19.994	103.187	20.060	3.210	0.279
71.000	116.115	80.002	19.994	103.187	20.060	3.187	0.270
71.500	116.272	80.001	19.995	103.187	20.062	3.055	0.283
72.000	116.431	79.999	19.994	103.187	20.059	3.290	0.304
72.501	116.592	80.000	19.995	103.187	20.062	3.037	0.318
73.001	116.754	80.003	19.994	103.188	20.059	3.251	0.321
73.501	116.924	80.002	19.995	103.188	20.058	3.348	0.328
74.000	117.045	80.001	19.994	103.188	20.060	3.186	0.311
74.500	117.213	80.001	19.995	103.188	20.060	3.201	0.290
75.001	117.380	79.998	19.995	103.188	20.062	3.044	0.312
75.501	117.539	80.002	19.995	103.188	20.060	3.214	0.331
76.001	117.738	80.002	19.994	103.188	20.059	3.286	0.342
76.501	117.867	80.000	19.994	103.188	20.062	3.104	0.343
77.000	118.036	79.998	19.995	103.188	20.060	3.210	0.313
77.500	118.198	80.001	19.994	103.187	20.060	3.225	0.314
78.000	118.369	79.999	19.996	103.186	20.062	3.095	0.332
78.500	118.545	79.995	19.994	103.184	20.060	3.184	0.340
79.000	118.687	79.996	19.996	103.182	20.060	3.206	0.333
79.500	118.887	80.014	19.995	103.180	20.061	3.149	0.330
80.000	119.030	79.984	19.996	103.181	20.061	3.126	0.343
80.500	119.203	80.002	19.994	103.178	20.063	3.011	0.330
81.000	119.395	80.001	19.994	103.180	20.062	3.054	0.340
81.500	119.543	80.002	19.995	103.182	20.061	3.106	0.352
82.000	119.724	80.000	19.994	103.185	20.061	3.121	0.335
82.500	119.893	80.002	19.993	103.184	20.060	3.225	0.339
83.000	120.121	79.996	19.994	103.188	20.063	2.979	0.374
83.500	120.263	80.001	19.994	103.191	20.061	3.165	0.384
84.000	120.457	79.999	19.995	103.191	20.063	3.020	0.353
84.500	120.604	79.993	19.993	103.191	20.062	3.102	0.339
85.000	120.821	80.001	19.994	103.193	20.066	2.829	0.353
85.500	120.929	79.999	19.995	103.192	20.061	3.132	0.345
86.000	121.165	79.998	19.994	103.191	20.063	3.031	0.335
86.501	121.355	80.001	19.994	103.191	20.065	2.888	0.385
87.001	121.518	80.000	19.994	103.190	20.059	3.305	0.389
87.501	121.690	79.999	19.994	103.188	20.062	3.052	0.344
88.000	121.906	80.000	19.994	103.189	20.063	3.002	0.361
88.501	122.073	80.001	19.995	103.188	20.060	3.204	0.385
89.001	122.268	80.000	19.995	103.188	20.061	3.134	0.372
89.500	122.473	80.001	19.994	103.192	20.062	3.071	0.381
90.000	122.630	80.001	19.994	103.192	20.064	2.913	0.381
90.500	122.807	79.999	19.995	103.192	20.062	3.102	0.348
91.000	122.988	79.999	19.993	103.191	20.063	3.017	0.346
91.500	123.196	80.001	19.994	103.191	20.061	3.115	0.374
92.000	123.380	80.001	19.994	103.191	20.063	3.015	0.391
92.501	123.563	80.000	19.994	103.191	20.062	3.050	0.379
93.001	123.755	80.000	19.995	103.190	20.062	3.050	0.371
93.500	123.960	80.000	19.995	103.190	20.058	3.320	0.386
94.000	124.125	80.002	19.994	103.189	20.063	3.017	0.384
94.500	124.330	80.004	19.994	103.188	20.060	3.227	0.370
95.001	124.504	80.002	19.993	103.187	20.066	2.812	0.375
95.501	124.724	80.003	19.993	103.189	20.061	3.136	0.386
96.000	124.876	80.001	19.993	103.190	20.062	3.039	0.383
96.500	125.085	79.999	19.994	103.188	20.060	3.188	0.367
97.000	125.305	80.001	19.993	103.187	20.063	3.026	0.395
97.500	125.464	80.003	19.993	103.188	20.061	3.163	0.404
98.000	125.673	80.000	19.994	103.188	20.062	3.059	0.374
98.500	125.886	80.002	19.994	103.187	20.063	2.972	0.395
99.001	126.067	80.000	19.993	103.189	20.061	3.154	0.408
99.501	126.266	80.008	19.993	103.190	20.060	3.175	0.387
100.000	126.477	80.007	19.993	103.196	20.060	3.236	0.395
100.500	126.646	79.997	19.994	103.198	20.062	3.039	0.395
101.000	126.845	79.995	19.993	103.198	20.062	3.099	0.374
101.500	127.066	80.001	19.994	103.197	20.061	3.127	0.394
102.001	127.257	79.999	19.993	103.197	20.062	3.065	0.416
102.501	127.419	80.005	19.993	103.191	20.060	3.234	0.383
103.001	127.656	79.994	19.994	103.189	20.062	3.073	0.376
103.500	127.876	80.000	19.994	103.188	20.061	3.164	0.428
104.000	128.065	79.998	19.994	103.190	20.060	3.210	0.433
104.500	128.283	80.000	19.994	103.193	20.059	3.303	0.408
105.000	128.457	80.000	19.994	103.193	20.060	3.223	0.400
105.500	128.676	79.994	19.994	103.196	20.062	3.100	0.393
106.000	128.906	80.000	19.994	103.197	20.058	3.314	0.421
106.501	129.082	79.999	19.993	103.195	20.060	3.204	0.427
107.001	129.302	79.999	19.994	103.193	20.064	2.901	0.401
107.501	129.501	80.002	19.994	103.193	20.061	3.124	0.408
108.001	129.720	80.001	19.995	103.191	20.062	3.104	0.418
108.500	129.908	80.001	19.994	103.194	20.062	3.089	0.412
109.000	130.150	80.001	19.995	103.194	20.060	3.188	0.419
109.500	130.343	80.000	19.994	103.195	20.057	3.429	0.433
110.000	130.538	79.997	19.994	103.197	20.060	3.210	0.412
110.500	130.752	80.000	19.994	103.202	20.064	2.903	0.398
111.000	130.983	79.999	19.994	103.204	20.062	3.043	0.427
111.501	131.168	80.000	19.994	103.209	20.065	2.876	0.431
112.001	131.388	80.001	19.995	103.210	20.060	3.181	0.411
112.500	131.592	79.997	19.995	103.208	20.061	3.121	0.414
113.000	131.829	79.998	19.995	103.205	20.060	3.186	0.432
113.500	132.037	80.000	19.994	103.204	20.063	2.968	0.443
114.000	132.217	79.995	19.996	103.201	20.061	3.130	0.417
114.500	132.470	79.997	19.995	103.201	20.061	3.141	0.410
115.000	132.667	80.003	19.994	103.204	20.060	3.232	0.442
115.500	132.892	79.991	19.995	103.202	20.060	3.180	0.436
116.000	133.127	80.003	19.993	103.200	20.061	3.150	0.441
116.500	133.325	79.997	19.995	103.197	20.061	3.141	0.446
117.000	133.553	79.999	19.995	103.197	20.062	3.076	0.430
117.500	133.761	79.997	19.995	103.194	20.059	3.251	0.431
118.000	133.982	80.000	19.995	103.195	20.059	3.270	0.432
118.500	134.206	79.996	19.995	103.195	20.059	3.259	0.437
119.000	134.441	79.999	19.997	103.195	20.060	3.240	0.452
119.500	134.630	80.002	19.994	103.191	20.060	3.221	0.442
120.000	134.852	79.995	19.996	103.192	20.060	3.184	0.417
120.500	135.077	80.005	19.996	103.191	20.057	3.401	0.429
121.000	135.325	80.010	19.994	103.193	20.059	3.280	0.461
121.500	135.549	79.988	19.995	103.195	20.058	3.370	0.473
122.000	135.828	80.001	19.994	103.202	20.060	3.227	0.487
122.500	136.024	79.992	19.995	103.207	20.056	3.506	0.488
123.000	136.229	79.997	19.995	103.208	20.056	3.504	0.438
123.500	136.429	79.997	19.995	103.204	20.055	3.577	0.403
124.000	136.685	80.004	19.995	103.202	20.057	3.443	0.431
124.500	136.933	80.005	19.995	103.202	20.058	3.314	0.480
125.000	137.108	80.000	19.995	103.194	20.056	3.497	0.464
125.500	137.362	80.000	19.995	103.193	20.056	3.450	0.426
126.000	137.573	80.002	19.994	103.193	20.054	3.584	0.447
126.500	137.792	79.998	19.995	103.192	20.056	3.494	0.448
127.001	138.080	80.001	19.995	103.189	20.056	3.478	0.469
127.501	138.267	79.995	19.995	103.190	20.056	3.476	0.491
128.000	138.529	80.001	19.995	103.194	20.057	3.439	0.462
128.500	138.672	79.998	19.994	103.197	20.057	3.426	0.427
129.000	138.929	79.999	19.995	103.199	20.055	3.567	0.403
129.500	139.159	80.000	19.995	103.200	20.059	3.277	0.444
130.000	139.399	80.002	19.995	103.198	20.055	3.521	0.479
130.500	139.588	79.998	19.994	103.194	20.056	3.481	0.449
131.000	139.830	79.999	19.994	103.193	20.059	3.301	0.429
131.500	140.054	80.000	19.995	103.190	20.057	3.379	0.449
132.000	140.346	80.001	19.995	103.188	20.058	3.366	0.491
132.500	140.527	79.999	19.995	103.189	20.061	3.124	0.494
133.000	140.801	80.000	19.995	103.189	20.059	3.290	0.464
133.500	141.007	80.001	19.994	103.190	20.061	3.139	0.468
134.000	141.260	79.998	19.995	103.193	20.057	3.387	0.469
134.500	141.504	79.998	19.995	103.199	20.057	3.405	0.478
135.000	141.704	80.000	19.995	103.201	20.058	3.327	0.471
135.500	141.988	80.002	19.994	103.201	20.059	3.301	0.464
136.001	142.157	79.990	19.995	103.200	20.055	3.541	0.469
136.501	142.407	79.993	19.995	103.196	20.056	3.474	0.436
137.001	142.657	79.997	19.995	103.191	20.055	3.539	0.459
137.500	142.884	79.999	19.995	103.192	20.055	3.533	0.488
138.000	143.163	79.997	19.995	103.192	20.058	3.362	0.492
138.500	143.373	80.003	19.994	103.192	20.056	3.476	0.498
139.000	143.606	80.003	19.995	103.199	20.054	3.647	0.466
139.500	143.863	79.998	19.996	103.199	20.057	3.424	0.467
140.000	144.051	80.001	19.995	103.196	20.055	3.558	0.467
140.500	144.375	79.996	19.996	103.195	20.056	3.461	0.478
141.000	144.538	79.996	19.995	103.195	20.059	3.288	0.500
141.500	144.811	79.997	19.995	103.191	20.058	3.370	0.461
142.000	145.072	80.000	19.994	103.189	20.060	3.238	0.485
142.500	145.271	80.000	19.997	103.189	20.056	3.453	0.497
143.000	145.533	79.999	19.996	103.191	20.056	3.453	0.460
143.501	145.768	80.000	19.997	103.190	20.055	3.519	0.479
144.001	146.000	79.998	19.995	103.189	20.058	3.314	0.482
144.500	146.258	79.999	19.995	103.190	20.059	3.305	0.479
145.000	146.516	79.998	19.995	103.190	20.056	3.489	0.503
145.500	146.747	79.999	19.996	103.189	20.057	3.420	0.502
146.000	146.933	80.006	19.995	103.188	20.059	3.288	0.453
146.500	147.244	79.999	19.996	103.188	20.060	3.175	0.457
147.000	147.450	79.999	19.996	103.190	20.057	3.379	0.507
147.500	147.701	80.000	19.996	103.190	20.061	3.162	0.486
148.000	147.956	79.996	19.996	103.191	20.060	3.236	0.481
148.500	148.153	80.000	19.995	103.191	20.060	3.177	0.479
149.000	148.370	80.005	19.995	103.192	20.060	3.217	0.434
149.500	148.640	79.999	19.995	103.191	20.057	3.390	0.451
150.000	148.910	79.997	19.996	103.191	20.060	3.240	0.514
150.500	149.136	80.001	19.995	103.190	20.060	3.193	0.518
151.000	149.407	80.001	19.994	103.189	20.058	3.375	0.496
151.500	149.657	80.002	19.995	103.187	20.059	3.269	0.509
152.000	149.884	80.003	19.995	103.187	20.057	3.427	0.500
152.500	150.123	80.003	19.994	103.188	20.061	3.149	0.472
153.000	150.385	80.001	19.993	103.190	20.058	3.351	0.483
153.500	150.584	80.001	19.995	103.190	20.059	3.305	0.481
154.000	150.837	79.996	19.994	103.189	20.060	3.223	0.456
154.500	151.109	80.002	19.995	103.189	20.058	3.331	0.488
155.000	151.314	79.999	19.994	103.189	20.059	3.286	0.501
155.500	151.575	80.001	19.995	103.188	20.058	3.344	0.471
156.000	151.827	80.000	19.993	103.189	20.057	3.392	0.489
156.500	152.111	80.002	19.994	103.190	20.057	3.441	0.524
157.000	152.323	80.001	19.994	103.190	20.062	3.054	0.516
157.500	152.561	80.003	19.993	103.191	20.059	3.284	0.473
158.000	152.832	80.001	19.992	103.193	20.059	3.308	0.480
158.500	153.076	80.015	19.993	103.193	20.058	3.344	0.512
159.000	153.289	80.000	19.994	103.194	20.058	3.364	0.486
159.500	153.532	79.999	19.994	103.194	20.056	3.454	0.457
160.000	153.796	80.000	19.993	103.192	20.057	3.381	0.481
160.500	154.026	79.996	19.994	103.192	20.059	3.256	0.500
161.000	154.286	79.999	19.994	103.191	20.059	3.266	0.492
161.500	154.534	79.997	19.994	103.190	20.062	3.072	0.499
162.000	154.784	80.006	19.994	103.189	20.060	3.176	0.503
162.500	155.024	80.000	19.994	103.192	20.062	3.087	0.494
163.000	155.255	79.998	19.994	103.191	20.058	3.336	0.480
163.500	155.522	80.004	19.994	103.191	20.059	3.267	0.485
164.000	155.763	80.001	19.995	103.191	20.062	3.037	0.503
164.500	156.004	79.997	19.995	103.192	20.058	3.310	0.495
165.000	156.254	80.003	19.994	103.190	20.061	3.117	0.487
165.500	156.516	79.999	19.994	103.191	20.061	3.115	0.501
166.001	156.778	80.000	19.994	103.193	20.058	3.333	0.518
166.500	156.980	79.999	19.993	103.193	20.063	3.011	0.494
167.000	157.232	80.001	19.994	103.192	20.063	3.001	0.459
167.500	157.500	80.003	19.993	103.192	20.064	2.918	0.487
168.000	157.744	79.999	19.996	103.192	20.065	2.834	0.515
168.500	157.982	80.003	19.995	103.190	20.062	3.046	0.497
169.000	158.211	79.998	19.995	103.191	20.064	2.953	0.475
169.500	158.472	79.998	19.994	103.191	20.065	2.834	0.479
170.000	158.763	80.001	19.994	103.191	20.067	2.745	0.521
170.500	158.990	79.999	19.994	103.192	20.065	2.879	0.535
171.000	159.231	79.999	19.994	103.192	20.063	3.025	0.493
171.500	159.503	79.997	19.994	103.191	20.062	3.083	0.491
172.000	159.736	80.004	19.994	103.191	20.065	2.881	0.509
172.500	159.953	80.000	19.994	103.191	20.060	3.195	0.477
173.000	160.223	80.002	19.994	103.187	20.064	2.923	0.468
173.500	160.426	79.999	19.995	103.184	20.064	2.961	0.480
174.000	160.686	80.002	19.993	103.183	20.064	2.923	0.468
174.500	160.984	80.006	19.993	103.183	20.065	2.879	0.511
175.000	161.186	80.004	19.994	103.185	20.063	3.016	0.529
175.500	161.457	80.002	19.993	103.188	20.063	3.029	0.486
176.000	161.671	80.003	19.994	103.191	20.067	2.758	0.479
176.500	161.946	80.003	19.994	103.191	20.063	2.986	0.487
177.000	162.174	80.002	19.994	103.191	20.066	2.813	0.496
177.500	162.442	79.999	19.994	103.188	20.062	3.085	0.499
178.000	162.676	80.004	19.994	103.185	20.063	3.016	0.499
178.500	162.963	80.005	19.994	103.184	20.061	3.170	0.512
179.000	163.187	80.001	19.993	103.180	20.063	3.012	0.516
179.500	163.413	80.000	19.993	103.178	20.063	2.975	0.481
180.000	163.678	80.002	19.993	103.177	20.063	3.029	0.471
180.500	163.971	80.003	19.994	103.178	20.062	3.079	0.524
181.000	164.201	80.008	19.994	103.177	20.063	2.994	0.541
181.500	164.473	80.007	19.993	103.179	20.064	2.953	0.513
182.000	164.700	80.010	19.993	103.181	20.065	2.867	0.500
182.500	164.978	80.001	19.994	103.183	20.062	3.038	0.502
183.000	165.241	80.005	19.994	103.183	20.064	2.941	0.523
183.500	165.499	80.003	19.994	103.185	20.062	3.038	0.531
184.000	165.705	80.006	19.994	103.188	20.062	3.059	0.492
184.500	165.957	79.994	19.994	103.185	20.065	2.867	0.461
185.000	166.233	80.001	19.995	103.184	20.063	3.020	0.493
185.500	166.420	79.999	19.994	103.184	20.061	3.168	0.495
186.000	166.705	80.002	19.994	103.182	20.063	2.994	0.468
186.500	166.934	80.003	19.995	103.179	20.065	2.865	0.493
187.000	167.215	79.997	19.994	103.178	20.065	2.888	0.512
187.500	167.456	79.993	19.994	103.178	20.062	3.077	0.516
188.000	167.703	80.002	19.995	103.176	20.065	2.854	0.505
188.500	167.959	79.998	19.996	103.174	20.064	2.943	0.496
189.000	168.199	79.996	19.995	103.173	20.063	2.984	0.499
189.500	168.462	80.002	19.993	103.176	20.063	2.973	0.499
190.000	168.666	80.002	19.994	103.177	20.062	3.086	0.485
190.500	168.955	79.998	19.994	103.179	20.063	3.012	0.480
191.000	169.197	79.998	19.994	103.180	20.062	3.064	0.512
191.500	169.454	80.000	19.994	103.182	20.063	3.034	0.515
192.000	169.654	79.981	19.996	103.178	20.062	3.057	0.478
192.500	169.926	79.992	19.994	103.172	20.061	3.120	0.465
193.000	170.168	80.000	19.994	103.168	20.063	2.991	0.493
193.500	170.405	79.999	19.995	103.168	20.061	3.129	0.496
194.000	170.611	79.993	19.995	103.169	20.060	3.218	0.461
194.500	170.887	80.000	19.994	103.170	20.063	3.029	0.463
195.000	171.141	79.999	19.994	103.174	20.059	3.276	0.506
195.500	171.423	79.999	19.994	103.172	20.061	3.164	0.533
196.000	171.670	80.023	19.991	103.168	20.062	3.062	0.532
196.500	171.875	79.998	19.995	103.170	20.060	3.228	0.491
197.001	172.165	80.002	19.994	103.171	20.058	3.354	0.473
197.501	172.421	79.984	19.996	103.169	20.063	2.982	0.521
198.000	172.692	79.990	19.994	103.168	20.061	3.111	0.537
198.500	172.902	80.004	19.994	103.174	20.060	3.204	0.504
199.000	173.123	79.993	19.995	103.171	20.062	3.094	0.456
199.500	173.383	80.000	19.995	103.171	20.061	3.139	0.456
200.000	173.626	79.996	19.996	103.170	20.060	3.230	0.492
200.500	173.921	79.996	19.997	103.171	20.060	3.176	0.521
201.000	174.135	80.002	19.995	103.165	20.060	3.230	0.523
201.500	174.414	79.998	19.996	103.167	20.057	3.382	0.501
202.000	174.663	80.013	19.992	103.164	20.059	3.265	0.510
202.500	174.892	80.012	19.994	103.167	20.063	3.023	0.503
203.000	175.156	79.998	19.995	103.169	20.061	3.114	0.486
203.500	175.364	79.996	19.995	103.168	20.060	3.176	0.483
204.000	175.597	79.993	19.996	103.163	20.062	3.068	0.457
204.500	175.872	79.995	19.996	103.160	20.061	3.159	0.474
205.000	176.109	79.995	19.996	103.162	20.058	3.319	0.510
205.500	176.338	79.999	19.995	103.162	20.062	3.066	0.490
206.000	176.593	79.992	19.997	103.166	20.062	3.069	0.475
206.500	176.863	80.003	19.994	103.164	20.059	3.280	0.505
207.000	177.102	79.997	19.995	103.166	20.061	3.125	0.517
207.500	177.302	79.998	19.995	103.163	20.061	3.138	0.474
208.000	177.570	79.998	19.996	103.162	20.060	3.179	0.453
208.500	177.819	80.000	19.994	103.163	20.061	3.161	0.492
209.000	178.046	79.991	19.996	103.168	20.059	3.270	0.496
209.500	178.359	80.007	19.993	103.168	20.064	2.939	0.507
210.000	178.558	80.004	19.993	103.170	20.060	3.233	0.526
210.500	178.778	79.999	19.995	103.174	20.062	3.103	0.466
211.000	179.062	79.996	19.995	103.173	20.063	3.012	0.461
211.500	179.315	79.999	19.994	103.172	20.060	3.209	0.520
212.001	179.580	80.003	19.994	103.173	20.060	3.214	0.528
212.501	179.800	79.997	19.995	103.173	20.061	3.112	0.502
213.000	180.056	79.999	19.994	103.170	20.058	3.317	0.481
213.500	180.310	79.999	19.995	103.171	20.054	3.631	0.493
214.000	180.559	79.993	19.995	103.172	20.061	3.142	0.506
214.500	180.785	79.999	19.994	103.173	20.059	3.270	0.489
215.000	181.020	79.997	19.995	103.168	20.056	3.475	0.468
215.500	181.302	79.998	19.994	103.163	20.060	3.177	0.489
216.000	181.540	79.998	19.994	103.159	20.058	3.356	0.519
216.500	181.810	79.997	19.995	103.158	20.060	3.207	0.514
217.000	182.043	79.999	19.995	103.157	20.061	3.149	0.506
217.500	182.267	80.001	19.994	103.159	20.057	3.391	0.480
218.000	182.536	79.998	19.995	103.164	20.057	3.406	0.475
218.500	182.775	80.000	19.994	103.163	20.060	3.196	0.500
219.000	183.013	80.002	19.993	103.160	20.063	3.027	0.492
219.500	183.283	79.999	19.994	103.164	20.057	3.409	0.493
220.000	183.499	79.999	19.996	103.167	20.062	3.060	0.498
220.500	183.768	79.998	19.995	103.163	20.059	3.307	0.486
221.000	184.030	80.006	19.994	103.163	20.059	3.305	0.508
221.500	184.249	79.998	19.994	103.166	20.057	3.432	0.506
222.000	184.535	80.002	19.995	103.161	20.059	3.291	0.493
222.500	184.769	79.998	19.994	103.158	20.055	3.558	0.512
223.000	185.001	79.993	19.994	103.158	20.057	3.385	0.493
223.500	185.300	80.000	19.996	103.155	20.059	3.298	0.499
224.000	185.497	79.998	19.995	103.155	20.056	3.475	0.513
224.500	185.805	79.993	19.995	103.158	20.055	3.557	0.500
225.000	186.008	79.994	19.995	103.157	20.058	3.326	0.508
225.500	186.256	79.997	19.996	103.156	20.059	3.242	0.481
226.000	186.537	80.002	19.995	103.157	20.059	3.263	0.490
226.500	186.742	80.005	19.995	103.157	20.059	3.294	0.508
227.000	186.966	79.992	19.996	103.153	20.060	3.229	0.457
227.500	187.244	79.996	19.994	103.151	20.057	3.417	0.466
228.000	187.494	80.003	19.995	103.149	20.059	3.276	0.515
228.500	187.716	80.001	19.996	103.151	20.057	3.443	0.500
229.000	187.954	79.995	19.995	103.147	20.056	3.445	0.466
229.500	188.243	80.005	19.994	103.147	20.060	3.171	0.494
230.000	188.466	79.989	19.996	103.152	20.058	3.348	0.519
230.500	188.693	80.002	19.994	103.152	20.059	3.249	0.481
231.000	188.960	80.006	19.994	103.153	20.059	3.287	0.472
231.500	189.192	79.994	19.994	103.156	20.059	3.246	0.496
232.000	189.438	79.995	19.995	103.155	20.057	3.426	0.489
232.500	189.684	79.996	19.996	103.152	20.057	3.415	0.485
233.000	189.941	80.003	19.993	103.153	20.058	3.344	0.498
233.500	190.180	79.997	19.994	103.154	20.056	3.458	0.500
234.000	190.468	80.008	19.993	103.153	20.057	3.381	0.511
234.500	190.691	80.010	19.995	103.157	20.060	3.235	0.519
235.000	190.931	79.999	19.996	103.160	20.060	3.198	0.487
235.500	191.154	79.998	19.995	103.160	20.060	3.233	0.463
236.000	191.425	80.000	19.995	103.158	20.056	3.478	0.478
236.500	191.632	80.002	19.995	103.159	20.059	3.264	0.486
237.000	191.894	79.999	19.995	103.155	20.060	3.227	0.474
237.500	192.155	80.000	19.996	103.153	20.057	3.379	0.496
238.000	192.392	79.998	19.995	103.153	20.059	3.274	0.510
238.500	192.626	79.999	19.996	103.151	20.059	3.257	0.484
239.000	192.866	80.000	19.996	103.150	20.061	3.112	0.472
239.500	193.100	79.998	19.996	103.150	20.059	3.266	0.474
240.000	193.361	80.000	19.995	103.149	20.057	3.417	0.485
240.500	193.651	79.997	19.996	103.148	20.059	3.296	0.523
241.000	193.882	80.000	19.994	103.146	20.061	3.129	0.536
241.500	194.106	79.998	19.995	103.145	20.059	3.274	0.488
242.000	194.375	79.998	19.995	103.146	20.058	3.328	0.474
242.500	194.598	80.000	19.994	103.146	20.056	3.456	0.492
243.000	194.878	79.999	19.994	103.146	20.055	3.532	0.497
243.500	195.085	80.001	19.995	103.145	20.057	3.398	0.495
244.000	195.338	80.003	19.994	103.147	20.059	3.298	0.474
244.500	195.564	80.004	19.995	103.148	20.057	3.415	0.470
245.000	195.829	79.999	19.995	103.148	20.056	3.450	0.485
245.500	196.078	80.003	19.994	103.149	20.059	3.257	0.502
246.000	196.313	79.998	19.995	103.152	20.060	3.237	0.499
246.500	196.550	79.998	19.995	103.152	20.059	3.249	0.478
247.000	196.783	79.999	19.994	103.149	20.057	3.419	0.471
247.500	197.056	80.000	19.996	103.150	20.055	3.577	0.487
248.000	197.267	79.997	19.995	103.148	20.058	3.355	0.495
248.500	197.540	80.002	19.994	103.145	20.058	3.322	0.484
249.000	197.790	80.006	19.994	103.146	20.057	3.405	0.504
249.500	197.996	80.000	19.995	103.148	20.057	3.396	0.489
250.000	198.295	80.009	19.994	103.147	20.058	3.326	0.481
250.500	198.551	80.007	19.993	103.149	20.060	3.182	0.530
251.000	198.773	80.002	19.993	103.151	20.062	3.067	0.516
251.500	199.014	80.003	19.993	103.150	20.063	3.017	0.471
252.000	199.274	79.997	19.995	103.149	20.057	3.380	0.482
252.500	199.498	80.012	19.993	103.148	20.060	3.236	0.492
253.000	199.762	80.007	19.995	103.150	20.059	3.285	0.486
253.500	200.003	80.004	19.993	103.149	20.060	3.216	0.497
254.000	200.246	79.990	19.995	103.150	20.057	3.387	0.494
254.500	200.489	80.007	19.993	103.149	20.056	3.476	0.485
255.000	200.717	80.001	19.996	103.152	20.057	3.380	0.479
255.500	200.970	80.006	19.992	103.147	20.056	3.467	0.476
256.000	201.170	80.004	19.993	103.150	20.056	3.489	0.466
256.500	201.408	80.002	19.996	103.149	20.058	3.365	0.446
257.000	201.681	80.002	19.994	103.151	20.056	3.454	0.475
257.500	201.922	80.004	19.993	103.149	20.057	3.415	0.513
258.000	202.216	80.001	19.994	103.151	20.056	3.459	0.524
258.500	202.456	80.001	19.994	103.146	20.056	3.476	0.534
259.001	202.647	80.000	19.995	103.146	20.057	3.407	0.483
259.500	202.898	80.004	19.994	103.143	20.056	3.461	0.437
260.000	203.165	80.002	19.994	103.142	20.054	3.640	0.480
260.500	203.418	80.001	19.995	103.143	20.056	3.470	0.518
261.000	203.664	80.001	19.995	103.143	20.056	3.495	0.509
261.500	203.887	80.002	19.994	103.144	20.057	3.389	0.484
262.000	204.138	80.006	19.994	103.146	20.054	3.584	0.472
262.500	204.388	80.000	19.995	103.147	20.055	3.530	0.488
263.000	204.635	80.000	19.994	103.148	20.057	3.419	0.499
263.501	204.917	80.000	19.995	103.149	20.056	3.465	0.513
264.000	205.122	79.999	19.995	103.150	20.052	3.744	0.508
264.500	205.417	80.000	19.995	103.150	20.055	3.530	0.493
265.000	205.671	80.000	19.995	103.149	20.054	3.608	0.524
265.500	205.855	79.997	19.995	103.149	20.050	3.896	0.494
266.000	206.158	79.996	19.995	103.148	20.054	3.584	0.463
266.500	206.368	79.992	19.994	103.147	20.051	3.846	0.500
267.000	206.633	79.997	19.995	103.145	20.053	3.649	0.494
267.500	206.910	80.000	19.994	103.145	20.053	3.664	0.508
268.000	207.145	79.996	19.995	103.145	20.050	3.865	0.526
268.500	207.368	80.002	19.995	103.144	20.053	3.664	0.485
269.000	207.642	79.993	19.995	103.145	20.054	3.593	0.478
269.500	207.870	79.978	19.996	103.145	20.053	3.716	0.499
270.000	208.112	80.000	19.995	103.142	20.052	3.729	0.486
270.501	208.357	79.998	19.995	103.140	20.050	3.876	0.479
271.000	208.627	80.000	19.993	103.141	20.047	4.093	0.501
271.500	208.857	79.995	19.995	103.141	20.046	4.130	0.508
272.000	209.106	80.009	19.992	103.138	20.048	4.035	0.489
272.500	209.340	79.994	19.996	103.144	20.049	3.976	0.481
273.000	209.611	79.998	19.994	103.145	20.047	4.091	0.494
273.500	209.838	80.006	19.994	103.146	20.047	4.077	0.501
274.000	210.092	79.998	19.994	103.147	20.050	3.854	0.489
274.500	210.361	80.001	19.994	103.151	20.051	3.820	0.502
275.000	210.576	79.999	19.995	103.148	20.048	4.008	0.504
275.500	210.839	79.999	19.994	103.144	20.048	4.014	0.481
276.000	211.028	79.996	19.993	103.139	20.049	3.922	0.465
276.500	211.306	79.998	19.996	103.139	20.048	4.013	0.459
277.000	211.538	80.000	19.993	103.139	20.044	4.266	0.488
277.500	211.789	79.995	19.993	103.140	20.045	4.251	0.496
278.000	212.001	80.002	19.995	103.145	20.045	4.222	0.472
278.500	212.276	80.005	19.994	103.150	20.044	4.330	0.475
279.000	212.527	79.996	19.995	103.150	20.043	4.352	0.507
279.500	212.763	80.001	19.995	103.151	20.042	4.411	0.507
280.000	213.021	79.999	19.994	103.150	20.045	4.242	0.491
280.500	213.294	80.004	19.995	103.150	20.040	4.563	0.513
281.000	213.555	79.998	19.994	103.148	20.041	4.470	0.533
281.500	213.730	80.000	19.995	103.146	20.043	4.374	0.485
282.000	214.034	79.995	19.995	103.146	20.044	4.300	0.457
282.500	214.265	79.992	19.995	103.144	20.039	4.644	0.507
283.000	214.514	80.008	19.992	103.138	20.041	4.480	0.507
283.500	214.803	79.998	19.996	103.141	20.040	4.582	0.509
284.000	215.028	80.013	19.993	103.141	20.037	4.746	0.526
284.500	215.255	80.007	19.995	103.143	20.041	4.532	0.483
285.000	215.519	79.997	19.994	103.148	20.036	4.865	0.471
285.500	215.753	79.977	19.997	103.151	20.037	4.749	0.495
286.000	216.045	80.011	19.993	103.147	20.036	4.856	0.512
286.500	216.269	79.992	19.995	103.151	20.040	4.564	0.521
287.000	216.521	80.005	19.994	103.147	20.036	4.809	0.496
287.500	216.772	80.006	19.994	103.145	20.035	4.930	0.490
288.000	217.004	80.000	19.994	103.145	20.037	4.751	0.493
288.500	217.268	80.007	19.993	103.148	20.034	5.010	0.490
289.000	217.562	79.997	19.993	103.147	20.035	4.939	0.527
289.500	217.797	80.006	19.994	103.149	20.036	4.835	0.544
290.000	218.032	79.997	19.995	103.148	20.031	5.149	0.499
290.500	218.248	79.992	19.995	103.143	20.034	5.002	0.460
291.000	218.523	79.985	19.995	103.138	20.034	4.944	0.471
291.500	218.752	79.990	19.995	103.136	20.035	4.939	0.498
292.000	218.974	80.002	19.994	103.133	20.031	5.192	0.478
292.500	219.243	80.004	19.994	103.137	20.031	5.173	0.471
293.000	219.489	80.001	19.995	103.142	20.036	4.846	0.503
293.500	219.782	80.002	19.994	103.148	20.029	5.338	0.527
294.000	219.985	80.000	19.995	103.151	20.029	5.349	0.517
294.500	220.254	79.997	19.994	103.150	20.026	5.519	0.484
295.000	220.479	79.994	19.996	103.148	20.027	5.430	0.483
295.500	220.742	80.006	19.993	103.147	20.027	5.434	0.491
296.000	220.996	80.006	19.995	103.146	20.025	5.583	0.503
296.500	221.211	79.995	19.994	103.144	20.029	5.338	0.494
297.000	221.481	80.004	19.995	103.147	20.026	5.511	0.477
297.500	221.765	79.999	19.996	103.149	20.024	5.653	0.520
298.000	221.964	79.988	19.997	103.150	20.027	5.429	0.518
298.500	222.213	80.005	19.995	103.147	20.026	5.499	0.465
299.000	222.520	80.001	19.996	103.145	20.021	5.832	0.502
299.500	222.765	79.986	19.994	103.144	20.021	5.869	0.554
300.000	223.054	80.000	19.993	103.139	20.024	5.653	0.543
300.500	223.256	79.999	19.995	103.135	20.024	5.679	0.512
301.000	223.485	80.008	19.995	103.132	20.020	5.945	0.461
301.500	223.733	80.000	19.995	103.134	20.017	6.166	0.454
302.000	223.983	79.998	19.995	103.135	20.018	6.077	0.488
302.500	224.209	79.988	19.996	103.137	20.017	6.140	0.488
303.000	224.485	79.995	19.997	103.137	20.015	6.281	0.489
303.500	224.746	79.998	19.993	103.137	20.019	5.983	0.519
304.001	225.000	79.998	19.995	103.131	20.018	6.043	0.526
304.500	225.242	80.005	19.995	103.124	20.015	6.271	0.505
305.000	225.494	79.993	19.997	103.118	20.014	6.355	0.495
305.500	225.741	79.998	19.995	103.115	20.014	6.316	0.497
306.000	225.988	80.003	19.995	103.121	20.012	6.496	0.497
306.500	226.271	79.998	19.995	103.122	20.011	6.556	0.512
307.000	226.523	80.008	19.994	103.122	20.014	6.338	0.532
307.500	226.749	80.001	19.996	103.121	20.009	6.691	0.506
308.000	226.992	80.009	19.992	103.124	20.007	6.797	0.473
308.500	227.213	79.998	19.994	103.121	20.006	6.870	0.467
309.000	227.479	80.000	19.996	103.119	20.005	6.953	0.476
309.500	227.754	80.009	19.994	103.117	20.009	6.679	0.514
310.000	228.008	79.992	19.994	103.117	20.006	6.883	0.535
310.500	228.314	80.006	19.992	103.114	20.007	6.827	0.545
311.000	228.465	79.990	19.996	103.113	20.003	7.099	0.508
311.500	228.739	80.003	19.995	103.111	20.003	7.119	0.441
312.000	229.048	80.014	19.994	103.114	20.004	6.993	0.504
312.500	229.311	80.009	19.995	103.114	20.002	7.177	0.578
313.000	229.539	80.000	19.995	103.113	19.998	7.404	0.531
313.500	229.795	79.985	19.996	103.110	20.000	7.288	0.488
314.000	230.020	79.990	19.995	103.109	19.997	7.499	0.483
314.500	230.271	80.006	19.995	103.104	19.996	7.584	0.478
315.000	230.549	79.989	19.997	103.103	19.995	7.634	0.503
315.500	230.773	79.993	19.996	103.103	19.995	7.618	0.516
316.000	231.054	79.999	19.995	103.101	19.994	7.672	0.503
316.500	231.311	80.000	19.996	103.104	19.994	7.711	0.521
317.000	231.523	79.999	19.995	103.106	19.993	7.795	0.504
317.500	231.811	80.010	19.996	103.105	19.991	7.920	0.484
318.000	231.978	80.005	19.994	103.107	19.992	7.804	0.477
318.500	232.303	80.004	19.996	103.106	19.988	8.083	0.474
319.000	232.550	79.999	19.997	103.106	19.993	7.797	0.532
319.500	232.799	80.004	19.996	103.106	19.988	8.130	0.534
320.000	233.012	80.003	19.995	103.107	19.985	8.294	0.479
320.500	233.248	79.997	19.995	103.109	19.989	8.034	0.455
321.000	233.524	80.003	19.994	103.109	19.987	8.210	0.480
321.500	233.788	80.000	19.995	103.110	19.986	8.268	0.526
322.000	234.019	79.977	19.996	103.112	19.984	8.362	0.518
322.500	234.313	80.000	19.995	103.111	19.983	8.466	0.510
323.000	234.561	80.005	19.995	103.111	19.986	8.223	0.533
323.500	234.783	80.025	19.993	103.111	19.985	8.294	0.506
324.000	235.036	79.993	19.996	103.116	19.984	8.353	0.473
324.500	235.251	80.001	19.995	103.115	19.983	8.420	0.471
325.000	235.501	79.996	19.998	103.116	19.984	8.411	0.466
325.500	235.772	80.000	19.996	103.112	19.983	8.430	0.493
326.000	235.972	80.001	19.996	103.111	19.980	8.673	0.497
326.500	236.239	79.997	19.995	103.104	19.984	8.414	0.469
327.000	236.512	79.999	19.996	103.104	19.983	8.421	0.503
327.500	236.735	79.997	19.996	103.103	19.983	8.453	0.518
328.000	236.974	80.002	19.997	103.105	19.980	8.682	0.479
328.500	237.209	79.999	19.995	103.105	19.984	8.416	0.468
329.000	237.501	79.999	19.994	103.106	19.985	8.315	0.501
329.501	237.753	80.000	19.995	103.108	19.985	8.299	0.536
330.001	238.018	80.014	19.993	103.111	19.981	8.611	0.531
330.501	238.217	80.009	19.994	103.114	19.981	8.557	0.491
331.000	238.503	80.001	19.995	103.116	19.982	8.498	0.475
331.500	238.752	79.999	19.994	103.116	19.981	8.621	0.510
332.000	238.989	80.000	19.995	103.115	19.978	8.805	0.510
332.500	239.234	80.003	19.995	103.114	19.981	8.592	0.484
333.000	239.457	80.005	19.994	103.112	19.982	8.506	0.475
333.500	239.703	80.006	19.994	103.111	19.984	8.369	0.469
334.000	239.962	80.006	19.993	103.112	19.980	8.649	0.487
334.500	240.244	80.008	19.994	103.115	19.982	8.492	0.523
335.000	240.465	80.006	19.994	103.115	19.981	8.577	0.522
335.500	240.695	80.000	19.994	103.115	19.981	8.597	0.477
336.000	240.970	80.001	19.994	103.118	19.982	8.495	0.478
336.500	241.211	80.000	19.994	103.118	19.983	8.444	0.510
337.000	241.458	80.004	19.995	103.121	19.981	8.576	0.502
337.500	241.727	80.001	19.995	103.126	19.983	8.470	0.502
338.000	241.929	80.002	19.994	103.129	19.983	8.470	0.493
338.500	242.206	80.002	19.994	103.132	19.982	8.539	0.475
339.000	242.488	79.999	19.995	103.136	19.983	8.467	0.519
339.500	242.721	79.997	19.995	103.131	19.980	8.636	0.537
340.000	242.958	79.996	19.994	103.129	19.980	8.630	0.492
340.500	243.178	80.001	19.995	103.134	19.977	8.868	0.463
341.000	243.476	80.006	19.993	103.131	19.985	8.310	0.488
341.500	243.707	79.999	19.994	103.134	19.980	8.670	0.524
342.000	243.996	80.000	19.994	103.137	19.977	8.829	0.524
342.500	244.235	79.996	19.996	103.140	19.981	8.578	0.524
343.000	244.451	79.999	19.995	103.140	19.981	8.573	0.492
343.500	244.702	80.005	19.995	103.143	19.978	8.811	0.461
344.000	244.948	79.977	19.996	103.144	19.979	8.715	0.482
344.500	245.205	79.995	19.995	103.143	19.978	8.784	0.500
345.000	245.494	80.007	19.993	103.143	19.979	8.719	0.525
345.500	245.734	80.002	19.995	103.146	19.977	8.878	0.537
346.000	245.997	79.992	19.994	103.145	19.979	8.735	0.516
346.500	246.212	80.004	19.995	103.140	19.980	8.662	0.491
347.000	246.495	79.995	19.995	103.139	19.977	8.831	0.488
347.500	246.747	80.002	19.993	103.136	19.978	8.785	0.517
348.000	246.983	79.998	19.993	103.132	19.978	8.824	0.512
348.500	247.230	80.000	19.993	103.134	19.978	8.810	0.486
349.000	247.481	80.001	19.994	103.135	19.976	8.927	0.490
349.500	247.722	79.997	19.994	103.138	19.976	8.955	0.495
350.000	247.970	79.997	19.994	103.137	19.977	8.850	0.491
350.500	248.224	80.000	19.995	103.137	19.976	8.899	0.495
351.000	248.467	79.996	19.996	103.136	19.975	8.973	0.499
351.500	248.702	79.998	19.995	103.135	19.974	9.040	0.488
352.000	248.969	80.001	19.994	103.135	19.977	8.830	0.489
352.500	249.246	79.997	19.996	103.141	19.976	8.939	0.523
353.000	249.472	80.000	19.995	103.141	19.975	8.975	0.524
353.500	249.770	80.002	19.994	103.140	19.975	9.030	0.514
354.000	249.999	80.000	19.994	103.146	19.978	8.798	0.526
354.500	250.246	79.996	19.994	103.148	19.976	8.954	0.502
355.000	250.534	79.998	19.995	103.147	19.972	9.194	0.505
355.500	250.756	80.000	19.994	103.148	19.975	9.003	0.522
356.000	251.047	79.993	19.994	103.148	19.969	9.422	0.512
356.500	251.288	79.998	19.994	103.144	19.973	9.134	0.523
357.000	251.513	79.994	19.995	103.139	19.973	9.153	0.499
357.500	251.766	80.000	19.994	103.138	19.970	9.346	0.472
358.000	252.033	79.989	19.995	103.140	19.967	9.563	0.499
358.500	252.266	80.002	19.995	103.140	19.967	9.521	0.510
359.000	252.525	80.001	19.993	103.142	19.966	9.586	0.496
359.500	252.753	80.004	19.994	103.149	19.968	9.456	0.490
360.000	252.946	80.001	19.995	103.151	19.966	9.605	0.454
360.500	253.269	80.010	19.993	103.148	19.967	9.550	0.469
361.000	253.512	80.001	19.993	103.148	19.966	9.594	0.541
361.500	253.766	80.001	19.994	103.149	19.966	9.646	0.531
362.000	253.984	79.996	19.994	103.147	19.966	9.592	0.485
362.500	254.241	80.000	19.994	103.144	19.965	9.711	0.474
363.000	254.496	80.001	19.994	103.143	19.960	10.024	0.494
363.500	254.767	80.004	19.994	103.141	19.965	9.702	0.519
364.000	255.009	80.004	19.994	103.142	19.961	9.968	0.519
364.500	255.268	80.011	19.992	103.143	19.962	9.906	0.507
365.000	255.475	79.979	19.994	103.145	19.961	9.938	0.484
365.500	255.748	80.005	19.994	103.146	19.961	9.934	0.473
366.000	255.996	80.002	19.993	103.148	19.959	10.101	0.500
366.500	256.239	79.979	19.995	103.148	19.957	10.254	0.506
367.000	256.509	80.002	19.994	103.141	19.958	10.155	0.502
367.500	256.761	79.996	19.995	103.139	19.957	10.207	0.517
368.000	256.992	80.009	19.994	103.140	19.956	10.285	0.503
368.500	257.216	79.990	19.997	103.136	19.954	10.408	0.469
369.000	257.502	79.993	19.993	103.131	19.955	10.332	0.483
369.500	257.781	80.006	19.993	103.137	19.953	10.527	0.537
370.000	257.990	79.993	19.995	103.138	19.951	10.613	0.526
370.500	258.210	80.000	19.994	103.141	19.951	10.627	0.459
371.000	258.509	79.999	19.995	103.145	19.953	10.533	0.474
371.500	258.707	79.998	19.994	103.148	19.951	10.654	0.508
372.000	259.007	80.002	19.994	103.148	19.949	10.757	0.498
372.500	259.215	80.000	19.995	103.148	19.948	10.847	0.503
373.000	259.486	79.991	19.997	103.148	19.950	10.720	0.493
373.500	259.744	80.003	19.994	103.146	19.947	10.916	0.504
374.000	259.937	79.991	19.995	103.148	19.946	10.953	0.490
374.500	260.248	80.010	19.995	103.148	19.947	10.921	0.477
375.000	260.455	80.002	19.995	103.147	19.947	10.882	0.511
375.500	260.736	79.998	19.994	103.148	19.944	11.107	0.503
376.000	260.965	79.995	19.995	103.148	19.943	11.213	0.499
376.500	261.191	79.998	19.995	103.145	19.944	11.133	0.482
377.000	261.437	79.989	19.996	103.145	19.941	11.289	0.463
377.500	261.712	80.001	19.995	103.144	19.944	11.148	0.497
378.000	261.919	80.006	19.995	103.145	19.943	11.157	0.502
378.500	262.220	80.003	19.994	103.145	19.944	11.107	0.495
379.000	262.445	80.000	19.995	103.147	19.938	11.518	0.517
379.500	262.692	80.002	19.995	103.146	19.940	11.401	0.499
380.000	262.925	79.998	19.995	103.147	19.940	11.381	0.476
380.500	263.199	79.992	19.995	103.145	19.939	11.431	0.493
381.000	263.475	79.999	19.995	103.146	19.938	11.497	0.528
381.500	263.700	80.000	19.994	103.146	19.937	11.574	0.526
382.000	263.934	79.999	19.994	103.147	19.939	11.487	0.480
382.500	264.196	79.993	19.995	103.148	19.937	11.615	0.477
383.001	264.416	80.004	19.995	103.145	19.936	11.633	0.488
383.500	264.657	79.997	19.995	103.145	19.936	11.669	0.471
384.000	264.914	80.002	19.996	103.146	19.934	11.790	0.480
384.500	265.190	79.999	19.995	103.145	19.934	11.821	0.516
385.000	265.438	79.999	19.996	103.145	19.932	11.907	0.528
385.500	265.652	80.003	19.996	103.147	19.929	12.130	0.493
386.000	265.909	79.998	19.996	103.145	19.931	12.028	0.467
386.501	266.150	80.000	19.995	103.144	19.930	12.086	0.485
387.000	266.408	80.000	19.996	103.142	19.929	12.112	0.498
387.500	266.634	80.003	19.994	103.142	19.928	12.192	0.491
388.000	266.901	79.992	19.997	103.144	19.929	12.103	0.489
388.501	267.120	79.998	19.995	103.144	19.925	12.404	0.490
389.000	267.398	80.002	19.994	103.145	19.924	12.468	0.491
389.500	267.647	79.999	19.994	103.147	19.926	12.340	0.512
390.000	267.904	79.998	19.993	103.147	19.923	12.526	0.516
390.500	268.161	80.003	19.995	103.146	19.921	12.706	0.511
391.000	268.425	79.994	19.997	103.148	19.919	12.797	0.518
391.500	268.608	80.001	19.995	103.147	19.917	12.963	0.483
392.000	268.882	79.995	19.996	103.141	19.917	12.982	0.452
392.500	269.142	80.002	19.994	103.135	19.918	12.857	0.496
393.000	269.407	79.999	19.995	103.134	19.912	13.266	0.530
393.500	269.645	79.995	19.995	103.132	19.915	13.059	0.514
394.000	269.893	79.995	19.996	103.130	19.913	13.256	0.495
394.500	270.152	79.999	19.996	103.131	19.912	13.271	0.496
395.001	270.450	80.000	19.995	103.133	19.913	13.217	0.532
395.500	270.680	79.998	19.994	103.133	19.912	13.286	0.543
396.000	270.920	79.999	19.995	103.133	19.911	13.387	0.499
396.500	271.221	80.002	19.993	103.137	19.911	13.359	0.505
397.000	271.418	80.000	19.995	103.140	19.909	13.509	0.519
397.500	271.690	80.004	19.994	103.140	19.907	13.630	0.483
398.000	271.958	80.004	19.995	103.139	19.906	13.689	0.505
398.500	272.211	80.005	19.996	103.141	19.905	13.805	0.531
399.000	272.443	80.008	19.994	103.140	19.902	13.994	0.503
399.500	272.697	79.993	19.995	103.142	19.903	13.937	0.486
400.000	272.922	80.002	19.995	103.148	19.901	14.055	0.483
400.500	273.178	80.005	19.995	103.149	19.898	14.274	0.480
401.000	273.405	80.004	19.995	103.149	19.900	14.109	0.482
401.500	273.706	80.003	19.994	103.151	19.896	14.401	0.506
402.000	273.904	80.001	19.996	103.151	19.892	14.655	0.513
402.500	274.199	79.999	19.995	103.152	19.894	14.532	0.496
403.000	274.405	79.997	19.995	103.152	19.892	14.656	0.497
403.500	274.648	79.998	19.996	103.150	19.890	14.794	0.475
404.000	274.919	79.997	19.997	103.149	19.892	14.684	0.482
404.500	275.197	80.004	19.994	103.147	19.887	15.012	0.531
405.000	275.406	80.000	19.995	103.148	19.888	14.932	0.518
405.500	275.630	79.986	19.996	103.149	19.889	14.856	0.460
406.000	275.931	80.010	19.995	103.149	19.885	15.124	0.479
406.500	276.160	80.002	19.995	103.151	19.884	15.225	0.528
407.000	276.431	80.001	19.994	103.152	19.883	15.284	0.515
407.500	276.661	80.001	19.995	103.151	19.880	15.448	0.501
408.000	276.871	80.001	19.995	103.150	19.882	15.361	0.471
408.500	277.120	80.001	19.996	103.150	19.878	15.607	0.449
409.000	277.413	80.001	19.996	103.148	19.879	15.560	0.500
409.500	277.655	79.998	19.996	103.148	19.877	15.710	0.538
410.000	277.895	79.996	19.995	103.144	19.877	15.669	0.509
410.500	278.163	80.004	19.995	103.140	19.875	15.811	0.495
411.000	278.406	80.002	19.996	103.143	19.871	16.058	0.510
411.500	278.620	79.998	19.995	103.144	19.874	15.876	0.484
412.000	278.857	80.005	19.997	103.143	19.871	16.084	0.454
412.500	279.113	80.010	19.995	103.146	19.870	16.195	0.472
413.000	279.389	79.998	19.996	103.152	19.869	16.242	0.512
413.500	279.657	80.003	19.996	103.149	19.864	16.553	0.538
414.000	279.866	80.000	19.995	103.149	19.863	16.640	0.511
414.500	280.118	80.001	19.995	103.148	19.865	16.517	0.469
415.000	280.380	80.002	19.997	103.146	19.862	16.736	0.488
415.501	280.637	79.999	19.995	103.144	19.862	16.686	0.517
416.000	280.851	79.989	19.997	103.143	19.860	16.870	0.495
416.500	281.114	80.000	19.996	103.143	19.857	17.080	0.474
417.000	281.354	80.002	19.994	103.145	19.856	17.106	0.490
417.500	281.587	79.997	19.995	103.147	19.856	17.115	0.488
418.000	281.836	80.009	19.994	103.147	19.857	17.040	0.478
418.500	282.088	79.999	19.995	103.149	19.851	17.434	0.491
419.000	282.335	80.002	19.996	103.149	19.853	17.289	0.499
419.500	282.593	80.015	19.993	103.145	19.847	17.696	0.502
420.000	282.837	79.997	19.995	103.148	19.846	17.788	0.503
420.500	283.086	79.991	19.995	103.149	19.846	17.780	0.498
421.000	283.317	79.991	19.995	103.150	19.845	17.858	0.487
421.500	283.550	79.991	19.995	103.149	19.843	17.999	0.472
422.000	283.869	80.008	19.993	103.152	19.839	18.261	0.508
422.500	284.126	79.990	19.994	103.151	19.838	18.333	0.564
423.000	284.324	80.003	19.992	103.153	19.836	18.497	0.515
423.500	284.584	80.000	19.994	103.156	19.838	18.371	0.457
424.000	284.822	80.013	19.992	103.158	19.837	18.426	0.478
424.500	285.048	80.012	19.993	103.162	19.830	18.886	0.481
425.000	285.312	80.002	19.995	103.162	19.828	19.046	0.477
425.500	285.573	79.997	19.994	103.162	19.829	18.958	0.508
426.000	285.817	80.007	19.993	103.160	19.826	19.128	0.515
426.500	286.068	80.002	19.993	103.162	19.827	19.075	0.500
427.000	286.308	80.015	19.993	103.159	19.823	19.361	0.493
427.500	286.536	79.994	19.996	103.159	19.824	19.303	0.480
428.000	286.824	80.002	19.996	103.158	19.822	19.411	0.493
428.500	287.096	80.001	19.995	103.156	19.821	19.487	0.538
429.000	287.309	80.003	19.994	103.154	19.816	19.822	0.522
429.500	287.572	80.012	19.994	103.155	19.812	20.107	0.480
430.000	287.833	80.012	19.995	103.151	19.815	19.893	0.500
430.500	288.118	80.010	19.992	103.151	19.812	20.116	0.535
431.000	288.305	79.998	19.996	103.157	19.811	20.157	0.509
431.500	288.605	80.005	19.995	103.154	19.809	20.351	0.480
432.000	288.815	80.004	19.995	103.153	19.807	20.436	0.499
432.500	289.049	79.999	19.995	103.152	19.805	20.582	0.477
433.000	289.295	80.012	19.994	103.152	19.807	20.466	0.462
433.500	289.600	80.002	19.992	103.147	19.801	20.864	0.515
434.000	289.823	80.006	19.996	103.151	19.800	20.962	0.539
434.500	290.095	79.992	19.996	103.151	19.800	20.959	0.511
435.000	290.313	79.995	19.997	103.148	19.795	21.284	0.492
435.500	290.573	80.001	19.995	103.145	19.795	21.264	0.484
436.000	290.822	80.000	19.995	103.144	19.794	21.357	0.494
436.500	291.048	80.021	19.993	103.141	19.791	21.553	0.492
437.000	291.325	80.014	19.994	103.145	19.789	21.674	0.489
437.500	291.602	80.000	19.994	103.151	19.787	21.798	0.528
438.000	291.803	80.008	19.994	103.155	19.785	21.968	0.516
438.500	292.064	79.997	19.995	103.157	19.783	22.102	0.470
439.000	292.323	80.006	19.994	103.155	19.779	22.354	0.491
439.500	292.543	80.004	19.995	103.153	19.778	22.421	0.500
440.000	292.840	80.000	19.994	103.149	19.774	22.677	0.498
440.500	293.103	79.991	19.996	103.149	19.771	22.918	0.538
441.000	293.342	80.006	19.995	103.148	19.769	23.033	0.531
441.500	293.574	80.004	19.993	103.148	19.771	22.888	0.487
442.000	293.820	80.001	19.995	103.148	19.771	22.914	0.475
442.500	294.077	79.998	19.995	103.151	19.766	23.255	0.491
443.000	294.335	79.999	19.994	103.150	19.765	23.326	0.509
443.500	294.565	79.994	19.995	103.154	19.764	23.421	0.502
444.000	294.800	79.997	19.995	103.154	19.758	23.781	0.476
444.500	295.085	80.003	19.995	103.153	19.760	23.638	0.492
445.000	295.352	80.002	19.995	103.152	19.755	23.986	0.536
445.500	295.577	79.998	19.995	103.154	19.755	24.040	0.522
446.000	295.829	79.999	19.995	103.152	19.752	24.226	0.484
446.500	296.078	80.001	19.995	103.155	19.747	24.535	0.489
447.000	296.334	80.000	19.995	103.156	19.743	24.829	0.504
447.500	296.611	80.000	19.994	103.157	19.741	24.954	0.519
448.000	296.876	79.999	19.995	103.156	19.743	24.812	0.537
448.500	297.087	80.006	19.994	103.158	19.740	25.054	0.509
449.000	297.345	79.986	19.995	103.159	19.736	25.285	0.473
449.500	297.533	79.993	19.994	103.159	19.734	25.429	0.457
450.000	297.812	79.995	19.995	103.159	19.736	25.314	0.456
450.500	298.086	79.999	19.994	103.156	19.732	25.601	0.510
451.000	298.312	79.999	19.995	103.154	19.733	25.500	0.527
451.500	298.606	79.997	19.995	103.151	19.732	25.567	0.510
452.000	298.813	80.000	19.995	103.150	19.725	26.038	0.510
452.501	299.128	80.001	19.994	103.149	19.726	26.015	0.511
453.000	299.374	79.998	19.994	103.150	19.724	26.104	0.542
453.500	299.586	79.999	19.995	103.152	19.718	26.555	0.510
454.000	299.825	79.994	19.994	103.157	19.719	26.465	0.454
454.500	300.062	79.996	19.996	103.162	19.716	26.661	0.463
455.000	300.349	79.994	19.996	103.168	19.712	26.914	0.500
455.500	300.602	80.000	19.995	103.169	19.713	26.896	0.532
456.000	300.856	79.996	19.994	103.173	19.709	27.169	0.523
456.500	301.083	80.001	19.995	103.172	19.706	27.338	0.494
457.000	301.312	80.000	19.995	103.173	19.706	27.381	0.469
457.500	301.624	80.006	19.992	103.173	19.702	27.614	0.499
458.000	301.819	79.991	19.994	103.183	19.699	27.847	0.524
458.500	302.089	79.989	19.996	103.185	19.694	28.139	0.486
459.000	302.296	79.996	19.995	103.189	19.690	28.457	0.471
459.500	302.563	79.997	19.994	103.188	19.689	28.491	0.475
460.000	302.852	80.008	19.995	103.189	19.684	28.863	0.515
460.500	303.101	80.000	19.995	103.187	19.687	28.639	0.547
461.001	303.346	79.991	19.996	103.187	19.685	28.756	0.516
461.500	303.594	79.994	19.995	103.183	19.684	28.881	0.493
462.000	303.819	80.001	19.994	103.179	19.679	29.195	0.483
462.500	304.100	79.993	19.996	103.176	19.677	29.319	0.489
463.000	304.353	80.002	19.994	103.169	19.674	29.560	0.520
463.500	304.607	79.994	19.996	103.168	19.671	29.760	0.521
464.000	304.853	79.996	19.995	103.170	19.669	29.894	0.503
464.500	305.119	80.003	19.994	103.177	19.668	29.942	0.506
465.000	305.360	80.000	19.996	103.181	19.664	30.215	0.510
465.500	305.650	80.003	19.994	103.183	19.660	30.457	0.519
466.000	305.899	79.991	19.996	103.185	19.659	30.558	0.535
466.500	306.157	80.000	19.994	103.185	19.655	30.801	0.523
467.000	306.361	79.993	19.995	103.185	19.653	31.002	0.484
467.500	306.693	80.007	19.994	103.182	19.651	31.085	0.499
468.000	306.908	80.008	19.993	103.184	19.647	31.366	0.541
468.500	307.173	79.999	19.995	103.179	19.645	31.521	0.513
469.000	307.416	79.994	19.996	103.181	19.644	31.613	0.494
469.500	307.653	79.993	19.995	103.180	19.641	31.773	0.494
470.000	307.894	79.991	19.994	103.182	19.634	32.255	0.479
470.500	308.131	80.000	19.996	103.184	19.637	32.073	0.478
471.000	308.418	80.003	19.995	103.185	19.632	32.391	0.501
471.501	308.636	79.984	19.997	103.187	19.629	32.577	0.514
472.000	308.950	80.008	19.995	103.186	19.627	32.744	0.518
472.500	309.152	79.998	19.995	103.188	19.624	32.947	0.524
473.000	309.419	79.996	19.995	103.186	19.623	33.031	0.493
473.500	309.646	80.004	19.994	103.186	19.621	33.155	0.482
474.000	309.914	79.997	19.996	103.184	19.617	33.450	0.494
474.500	310.171	80.000	19.994	103.186	19.613	33.708	0.510
475.000	310.413	79.999	19.994	103.185	19.614	33.605	0.512
475.500	310.667	80.009	19.994	103.187	19.608	34.043	0.497
476.000	310.986	80.001	19.995	103.190	19.607	34.111	0.534
476.500	311.188	79.998	19.994	103.190	19.605	34.258	0.547
477.000	311.460	80.000	19.996	103.192	19.599	34.682	0.498
477.500	311.695	80.002	19.994	103.192	19.599	34.645	0.491
478.000	311.982	79.994	19.997	103.193	19.597	34.756	0.515
478.500	312.258	80.003	19.993	103.188	19.598	34.727	0.543
479.000	312.490	79.999	19.995	103.189	19.592	35.137	0.536
479.501	312.773	80.002	19.994	103.187	19.592	35.140	0.511
480.000	313.018	79.993	19.994	103.187	19.591	35.214	0.521
480.500	313.257	80.001	19.995	103.188	19.586	35.528	0.506
481.000	313.542	80.000	19.995	103.191	19.586	35.515	0.504
481.500	313.783	80.005	19.994	103.190	19.585	35.571	0.525
482.000	314.035	79.995	19.994	103.191	19.579	36.038	0.509
482.500	314.307	80.007	19.994	103.191	19.579	36.046	0.508
483.000	314.540	79.999	19.995	103.192	19.577	36.160	0.515
483.500	314.808	79.995	19.995	103.192	19.575	36.303	0.503
484.000	315.053	80.000	19.995	103.192	19.573	36.405	0.507
484.500	315.318	80.003	19.993	103.191	19.572	36.469	0.512
485.000	315.498	79.995	19.996	103.192	19.568	36.756	0.478
485.500	315.796	79.998	19.995	103.191	19.565	36.990	0.462
486.000	316.046	79.998	19.996	103.190	19.568	36.775	0.513
486.500	316.285	80.004	19.994	103.191	19.564	37.010	0.518
487.000	316.535	80.000	19.994	103.192	19.562	37.183	0.489
487.500	316.811	80.002	19.994	103.191	19.561	37.217	0.508
488.000	317.040	79.999	19.995	103.191	19.560	37.347	0.516
488.500	317.316	79.999	19.994	103.192	19.557	37.530	0.505
489.000	317.518	79.999	19.996	103.190	19.556	37.614	0.491
489.500	317.827	80.002	19.994	103.191	19.553	37.766	0.495
490.000	318.071	80.000	19.994	103.194	19.555	37.680	0.532
490.500	318.304	80.001	19.995	103.192	19.551	37.944	0.515
491.000	318.522	79.996	19.995	103.191	19.548	38.163	0.464
491.500	318.769	79.993	19.996	103.191	19.545	38.305	0.458
492.000	319.040	80.001	19.995	103.189	19.546	38.253	0.491
492.500	319.280	80.003	19.995	103.185	19.543	38.505	0.514
493.000	319.549	79.990	19.995	103.185	19.539	38.747	0.510
493.500	319.789	79.998	19.993	103.183	19.538	38.812	0.509
494.000	320.072	80.004	19.996	103.184	19.536	38.929	0.516
494.500	320.271	80.002	19.994	103.188	19.535	38.993	0.503
495.000	320.583	79.999	19.996	103.192	19.537	38.881	0.496
495.500	320.842	80.002	19.995	103.191	19.534	39.062	0.541
496.000	321.067	79.998	19.995	103.192	19.534	39.063	0.527
496.500	321.370	80.000	19.996	103.195	19.532	39.245	0.506
497.000	321.581	79.997	19.995	103.192	19.532	39.251	0.520
497.500	321.843	79.999	19.996	103.194	19.530	39.393	0.493
498.000	322.106	80.001	19.995	103.200	19.529	39.456	0.499
498.500	322.337	80.003	19.997	103.201	19.528	39.474	0.510
499.000	322.598	79.993	19.997	103.197	19.527	39.548	0.493
499.500	322.848	80.003	19.995	103.198	19.522	39.933	0.502
500.000	323.129	80.003	19.995	103.194	19.525	39.712	0.521
500.500	323.358	79.995	19.995	103.191	19.522	39.875	0.520
501.000	323.590	79.994	19.996	103.190	19.521	39.972	0.486
501.500	323.868	80.001	19.995	103.191	19.518	40.165	0.486
502.000	324.121	80.002	19.994	103.190	19.518	40.154	0.520
502.500	324.373	79.998	19.995	103.192	19.521	39.958	0.518
503.000	324.652	79.999	19.995	103.192	19.518	40.170	0.518
503.500	324.872	80.003	19.995	103.193	19.515	40.396	0.514
504.000	325.137	79.996	19.995	103.200	19.516	40.335	0.492
504.500	325.384	79.994	19.996	103.205	19.512	40.587	0.499
505.000	325.628	79.998	19.996	103.205	19.515	40.383	0.501
505.500	325.883	79.997	19.995	103.206	19.513	40.499	0.495
506.000	326.158	79.998	19.995	103.209	19.511	40.640	0.515
506.500	326.385	79.994	19.995	103.206	19.510	40.752	0.516
507.000	326.644	79.995	19.995	103.203	19.512	40.621	0.494
507.500	326.891	80.000	19.994	103.203	19.508	40.875	0.496
508.000	327.151	79.997	19.995	103.205	19.505	41.073	0.507
508.500	327.394	79.998	19.994	103.207	19.507	40.943	0.505
509.000	327.670	79.999	19.994	103.206	19.504	41.177	0.511
509.500	327.922	79.997	19.994	103.208	19.505	41.111	0.523
510.000	328.155	79.996	19.995	103.207	19.503	41.187	0.507
510.500	328.427	79.985	19.995	103.203	19.506	41.036	0.495
511.000	328.682	80.000	19.994	103.198	19.504	41.129	0.516
511.500	328.929	79.999	19.994	103.198	19.503	41.210	0.514
512.000	329.232	79.997	19.993	103.197	19.502	41.263	0.526
512.500	329.446	80.008	19.993	103.198	19.505	41.068	0.534
513.000	329.681	79.997	19.995	103.203	19.502	41.297	0.483
513.500	329.938	80.000	19.994	103.204	19.500	41.429	0.470
514.000	330.206	79.995	19.995	103.203	19.500	41.397	0.509
514.500	330.442	79.991	19.996	103.206	19.499	41.465	0.515
515.000	330.714	79.997	19.995	103.208	19.498	41.578	0.506
515.500	330.947	79.990	19.995	103.210	19.498	41.545	0.506
516.000	331.217	80.001	19.994	103.216	19.501	41.344	0.504
516.500	331.465	79.988	19.995	103.219	19.495	41.740	0.511
517.000	331.724	80.000	19.993	103.212	19.494	41.835	0.512
517.500	331.982	79.997	19.995	103.208	19.494	41.839	0.512
518.000	332.222	79.995	19.995	103.206	19.495	41.763	0.507
518.500	332.482	80.002	19.994	103.206	19.494	41.802	0.499
519.000	332.754	79.996	19.994	103.208	19.499	41.510	0.516
519.500	333.034	80.000	19.995	103.217	19.495	41.732	0.542
520.000	333.276	79.998	19.996	103.224	19.494	41.851	0.537
520.500	333.484	80.002	19.994	103.227	19.493	41.873	0.487
521.000	333.758	79.997	19.994	103.227	19.492	41.944	0.466
521.500	334.024	80.001	19.993	103.226	19.489	42.139	0.511
522.000	334.259	79.992	19.994	103.227	19.490	42.120	0.520
522.500	334.549	79.997	19.995	103.220	19.488	42.248	0.513
523.000	334.840	79.996	19.993	103.213	19.487	42.304	0.553
523.500	335.037	80.002	19.994	103.214	19.486	42.338	0.534
524.000	335.325	79.983	19.996	103.213	19.485	42.457	0.487
524.500	335.611	80.012	19.994	103.212	19.485	42.462	0.530
525.000	335.838	80.002	19.993	103.217	19.487	42.282	0.544
525.500	336.080	80.005	19.995	103.224	19.487	42.297	0.491
526.000	336.325	80.002	19.995	103.224	19.484	42.491	0.478
526.500	336.572	80.001	19.996	103.225	19.489	42.169	0.490
527.000	336.814	80.021	19.992	103.224	19.484	42.510	0.491
527.500	337.124	79.994	19.995	103.225	19.486	42.407	0.520
528.000	337.369	80.002	19.994	103.225	19.487	42.316	0.554
528.500	337.618	79.998	19.994	103.225	19.484	42.517	0.525
529.000	337.835	79.979	19.996	103.229	19.484	42.493	0.480
529.500	338.121	79.998	19.994	103.229	19.481	42.742	0.485
530.000	338.396	80.012	19.994	103.230	19.483	42.599	0.532
530.500	338.602	79.991	19.996	103.232	19.484	42.490	0.521
531.000	338.863	79.984	19.995	103.230	19.480	42.799	0.474
531.500	339.109	79.995	19.995	103.226	19.480	42.810	0.487
532.000	339.324	80.002	19.996	103.227	19.482	42.666	0.484
532.500	339.650	80.004	19.993	103.217	19.479	42.813	0.501
533.000	339.905	80.018	19.993	103.216	19.481	42.724	0.561
533.500	340.146	80.000	19.994	103.220	19.478	42.891	0.538
534.000	340.375	79.998	19.994	103.220	19.480	42.772	0.483
534.500	340.626	80.002	19.996	103.222	19.481	42.701	0.475
535.000	340.851	79.994	19.993	103.231	19.479	42.873	0.478
535.500	341.133	79.998	19.994	103.228	19.479	42.840	0.491
536.000	341.367	80.004	19.994	103.224	19.478	42.895	0.512
536.500	341.616	79.978	19.997	103.225	19.478	42.918	0.500
537.000	341.872	80.004	19.996	103.222	19.476	43.045	0.494
537.500	342.103	80.004	19.994	103.222	19.477	42.974	0.496
538.000	342.397	80.005	19.993	103.224	19.481	42.745	0.506
538.500	342.606	79.988	19.996	103.226	19.479	42.856	0.514
539.000	342.922	80.008	19.995	103.222	19.480	42.811	0.514
539.500	343.112	79.991	19.995	103.226	19.475	43.140	0.516
540.000	343.394	79.996	19.995	103.223	19.481	42.712	0.489
540.500	343.648	80.017	19.993	103.222	19.476	43.053	0.504
541.000	343.878	79.989	19.995	103.224	19.478	42.934	0.510
541.500	344.152	79.985	19.996	103.225	19.476	43.048	0.494
542.000	344.405	79.999	19.993	103.220	19.473	43.237	0.516
542.500	344.677	80.003	19.995	103.221	19.475	43.132	0.526
543.000	344.898	79.996	19.996	103.223	19.475	43.134	0.509
543.500	345.178	80.002	19.994	103.214	19.473	43.280	0.497
544.000	345.414	80.002	19.994	103.214	19.475	43.089	0.508
544.500	345.657	80.005	19.993	103.214	19.476	43.030	0.497
545.000	345.902	79.995	19.993	103.213	19.477	42.984	0.484
545.500	346.158	79.991	19.996	103.207	19.474	43.190	0.495
546.000	346.426	79.990	19.994	103.205	19.474	43.148	0.513
546.500	346.669	79.988	19.995	103.203	19.475	43.111	0.517
547.000	346.940	80.000	19.993	103.205	19.474	43.153	0.513
547.500	347.161	79.997	19.994	103.207	19.476	43.055	0.503
548.000	347.439	79.990	19.994	103.212	19.474	43.155	0.495
548.500	347.688	80.002	19.994	103.220	19.475	43.085	0.513
549.000	347.946	79.985	19.993	103.221	19.474	43.146	0.517
549.500	348.170	80.021	19.990	103.223	19.478	42.917	0.495
550.000	348.422	80.005	19.993	103.226	19.479	42.866	0.480
550.500	348.707	80.002	19.993	103.227	19.476	43.069	0.506
551.000	348.937	79.996	19.994	103.225	19.473	43.224	0.525
551.500	349.187	80.002	19.994	103.226	19.478	42.900	0.497
552.000	349.444	80.000	19.994	103.227	19.483	42.595	0.494
552.500	349.751	79.999	19.995	103.223	19.479	42.833	0.536
553.000	349.996	79.986	19.994	103.221	19.475	43.101	0.558
553.500	350.214	79.994	19.994	103.216	19.480	42.745	0.507
554.000	350.464	80.005	19.994	103.213	19.478	42.905	0.466
554.500	350.723	79.999	19.993	103.210	19.478	42.922	0.489
555.000	351.008	79.999	19.995	103.207	19.480	42.744	0.526
555.500	351.206	80.001	19.994	103.203	19.482	42.640	0.513
556.000	351.463	79.996	19.994	103.205	19.483	42.547	0.469
556.500	351.704	79.997	19.994	103.203	19.485	42.408	0.476
557.000	351.971	79.998	19.994	103.202	19.485	42.449	0.503
557.500	352.244	79.986	19.994	103.202	19.486	42.336	0.524
558.000	352.518	79.997	19.995	103.203	19.488	42.200	0.543
558.500	352.771	79.999	19.994	103.200	19.488	42.197	0.537
559.000	352.999	79.997	19.995	103.200	19.488	42.227	0.504
559.500	353.255	79.993	19.995	103.196	19.487	42.272	0.483
560.000	353.548	80.002	19.995	103.191	19.488	42.239	0.517
560.500	353.744	80.006	19.994	103.187	19.489	42.158	0.519
561.000	354.025	79.998	19.996	103.190	19.491	41.989	0.483
561.500	354.317	80.000	19.995	103.190	19.496	41.670	0.525
562.000	354.553	79.997	19.994	103.191	19.499	41.495	0.551
562.500	354.766	80.001	19.994	103.191	19.496	41.669	0.488
563.000	355.017	80.007	19.992	103.191	19.498	41.509	0.457
563.500	355.299	80.009	19.994	103.189	19.498	41.513	0.499
564.000	355.547	80.006	19.995	103.190	19.503	41.206	0.532
564.500	355.747	79.987	19.996	103.188	19.501	41.299	0.488
565.000	356.027	79.998	19.994	103.185	19.502	41.283	0.464
565.500	356.244	79.998	19.995	103.184	19.506	40.977	0.489
566.000	356.500	80.003	19.995	103.183	19.504	41.089	0.485
566.500	356.807	80.001	19.994	103.181	19.509	40.797	0.517
567.000	357.049	79.998	19.994	103.182	19.510	40.735	0.556
567.500	357.307	80.003	19.995	103.184	19.512	40.605	0.524
568.000	357.533	80.006	19.995	103.183	19.516	40.314	0.492
568.500	357.758	80.000	19.994	103.184	19.516	40.269	0.468
569.000	358.076	80.001	19.994	103.184	19.515	40.367	0.497
569.500	358.299	80.001	19.995	103.182	19.516	40.271	0.542
570.000	358.567	80.000	19.994	103.181	19.521	39.967	0.516
570.500	358.823	80.001	19.995	103.182	19.519	40.112	0.507
571.000	359.081	79.999	19.995	103.179	19.519	40.088	0.519
571.500	359.359	80.002	19.994	103.175	19.522	39.909	0.525
572.000	359.560	79.997	19.994	103.176	19.531	39.302	0.508
572.500	359.782	79.999	19.994	103.174	19.529	39.420	0.451
573.000	360.066	80.005	19.994	103.174	19.527	39.517	0.464
573.500	360.307	79.993	19.995	103.178	19.528	39.451	0.515
574.000	360.565	79.995	19.995	103.180	19.532	39.208	0.512
574.500	360.843	80.002	19.992	103.177	19.532	39.195	0.517
575.000	361.090	79.991	19.994	103.177	19.541	38.590	0.531
575.500	361.312	79.989	19.996	103.171	19.537	38.844	0.497
576.001	361.579	80.008	19.994	103.161	19.539	38.720	0.479
576.501	361.833	79.993	19.996	103.162	19.545	38.321	0.505
577.001	362.060	80.001	19.995	103.162	19.548	38.141	0.501
577.500	362.312	79.989	19.995	103.164	19.547	38.190	0.480
578.000	362.583	80.003	19.994	103.165	19.550	38.002	0.501
578.500	362.812	79.995	19.995	103.168	19.550	38.005	0.511
579.000	363.070	79.992	19.994	103.164	19.552	37.835	0.493
579.500	363.357	80.015	19.994	103.159	19.554	37.736	0.516
580.000	363.598	79.992	19.995	103.157	19.558	37.461	0.537
580.500	363.882	79.995	19.996	103.155	19.554	37.671	0.526
581.000	364.119	80.001	19.993	103.156	19.557	37.480	0.523
581.500	364.350	80.008	19.995	103.155	19.560	37.283	0.494
582.000	364.629	79.993	19.995	103.156	19.566	36.893	0.489
582.500	364.838	79.999	19.994	103.154	19.558	37.410	0.499
583.000	365.099	80.001	19.995	103.157	19.565	36.962	0.479
583.500	365.348	79.997	19.997	103.155	19.567	36.823	0.490
584.000	365.571	80.002	19.995	103.152	19.566	36.872	0.491
584.500	365.834	79.997	19.995	103.154	19.571	36.557	0.479
585.000	366.085	79.983	19.996	103.156	19.572	36.479	0.500
585.500	366.333	79.999	19.995	103.150	19.575	36.280	0.507
586.000	366.636	80.010	19.995	103.154	19.579	35.989	0.525
586.500	366.915	80.005	19.992	103.155	19.578	36.090	0.567
587.000	367.081	79.999	19.995	103.158	19.582	35.798	0.513
587.500	367.334	80.000	19.995	103.154	19.581	35.849	0.431
588.000	367.594	79.999	19.995	103.156	19.585	35.600	0.466
588.500	367.847	79.993	19.996	103.153	19.588	35.404	0.513
589.000	368.103	80.002	19.996	103.151	19.586	35.517	0.511
589.500	368.351	79.995	19.998	103.146	19.590	35.258	0.506
590.000	368.615	79.999	19.995	103.146	19.593	35.010	0.508
590.500	368.913	79.996	19.997	103.145	19.594	34.990	0.537
591.000	369.163	79.993	19.996	103.145	19.594	34.974	0.555
591.500	369.410	80.002	19.995	103.145	19.597	34.758	0.523
592.000	369.674	80.002	19.996	103.148	19.600	34.585	0.504
592.501	369.889	79.984	19.998	103.147	19.601	34.469	0.495
593.000	370.154	79.996	19.997	103.144	19.603	34.340	0.479
593.500	370.445	79.988	19.997	103.143	19.604	34.257	0.518
594.000	370.650	79.999	19.996	103.145	19.606	34.179	0.526
594.500	370.908	79.990	19.997	103.144	19.606	34.135	0.480
595.000	371.136	79.989	19.998	103.142	19.610	33.858	0.475
595.500	371.403	79.988	19.998	103.139	19.611	33.792	0.490
596.000	371.690	80.001	19.995	103.128	19.616	33.484	0.524
596.500	371.881	79.981	19.996	103.119	19.616	33.460	0.516
597.000	372.122	79.998	19.998	103.115	19.616	33.455	0.455
597.500	372.410	80.000	19.994	103.112	19.621	33.133	0.480
598.000	372.644	79.993	19.996	103.120	19.619	33.297	0.526
598.500	372.935	79.994	19.997	103.128	19.620	33.196	0.523
599.000	373.192	79.987	19.993	103.133	19.622	33.047	0.537
599.500	373.399	79.988	19.996	103.137	19.622	33.066	0.507
600.001	373.692	80.022	19.992	103.141	19.626	32.816	0.482
600.500	373.960	79.993	19.995	103.141	19.623	33.023	0.530
601.000	374.215	79.992	19.995	103.138	19.630	32.486	0.542
601.500	374.478	79.997	19.994	103.133	19.628	32.667	0.520
602.000	374.710	80.004	19.993	103.125	19.634	32.275	0.507
602.500	374.985	79.998	19.994	103.122	19.634	32.242	0.501
603.000	375.227	79.997	19.995	103.113	19.637	32.031	0.512
603.500	375.493	79.998	19.993	103.110	19.635	32.157	0.512
604.000	375.734	80.010	19.994	103.114	19.637	32.051	0.508
604.500	375.993	79.997	19.995	103.119	19.641	31.784	0.503
605.000	376.245	79.997	19.993	103.125	19.640	31.816	0.505
605.500	376.434	80.009	19.994	103.135	19.644	31.555	0.476
606.000	376.724	80.012	19.993	103.145	19.644	31.588	0.460
606.500	376.993	80.009	19.994	103.149	19.644	31.567	0.519
607.000	377.225	79.994	19.994	103.148	19.651	31.064	0.530
607.500	377.477	79.991	19.995	103.144	19.651	31.081	0.493
608.000	377.744	79.990	19.994	103.135	19.654	30.885	0.501
608.500	377.989	80.004	19.994	103.127	19.651	31.057	0.515
609.000	378.225	80.004	19.994	103.124	19.651	31.050	0.496
609.500	378.506	80.002	19.993	103.122	19.654	30.906	0.499
610.000	378.753	79.994	19.995	103.120	19.658	30.578	0.523
610.500	379.040	80.001	19.994	103.122	19.662	30.304	0.531
611.001	379.242	80.024	19.990	103.125	19.659	30.504	0.511
611.500	379.498	80.002	19.993	103.127	19.661	30.389	0.474
612.000	379.766	80.001	19.993	103.126	19.667	29.976	0.491
612.500	380.038	79.995	19.995	103.129	19.662	30.354	0.532
613.000	380.289	80.001	19.994	103.129	19.665	30.144	0.531
613.500	380.546	80.002	19.994	103.126	19.664	30.208	0.516
614.000	380.793	79.996	19.994	103.122	19.666	30.038	0.506
614.500	381.015	79.992	19.995	103.120	19.671	29.696	0.486
615.000	381.295	80.017	19.993	103.116	19.671	29.736	0.485
615.500	381.536	79.999	19.994	103.118	19.672	29.648	0.512
616.000	381.783	79.998	19.996	103.117	19.671	29.734	0.505
616.500	382.045	80.001	19.993	103.114	19.675	29.461	0.498
617.000	382.306	79.989	19.996	103.114	19.676	29.349	0.516
617.500	382.543	80.003	19.994	103.112	19.679	29.173	0.510
618.000	382.792	79.999	19.994	103.107	19.680	29.088	0.492
618.500	383.062	80.003	19.995	103.108	19.684	28.837	0.503
619.000	383.306	80.012	19.995	103.106	19.684	28.832	0.517
619.500	383.566	80.002	19.994	103.108	19.686	28.722	0.509
620.000	383.841	80.004	19.993	103.111	19.688	28.592	0.519
620.500	384.087	79.992	19.994	103.115	19.687	28.638	0.528
621.000	384.331	80.011	19.995	103.115	19.688	28.545	0.506
621.500	384.585	79.999	19.995	103.115	19.689	28.508	0.495
622.000	384.836	80.006	19.994	103.113	19.691	28.338	0.502
622.500	385.091	79.993	19.994	103.111	19.696	28.024	0.506
623.000	385.345	79.996	19.996	103.109	19.696	28.002	0.507
623.500	385.611	79.999	19.996	103.106	19.697	27.946	0.514
624.000	385.809	79.982	19.996	103.105	19.699	27.781	0.492
624.500	386.114	79.997	19.996	103.102	19.699	27.824	0.484
625.000	386.358	79.997	19.993	103.100	19.701	27.641	0.526
625.500	386.595	79.997	19.994	103.099	19.703	27.567	0.515
626.000	386.841	80.015	19.992	103.102	19.703	27.546	0.482
626.500	387.051	79.994	19.996	103.108	19.704	27.443	0.470
627.000	387.359	80.004	19.993	103.109	19.704	27.461	0.487
627.500	387.579	79.994	19.995	103.115	19.708	27.205	0.523
628.000	387.815	79.986	19.995	103.116	19.709	27.114	0.492
628.500	388.114	80.014	19.993	103.115	19.710	27.080	0.496
629.000	388.355	80.017	19.991	103.112	19.712	26.914	0.538
629.500	388.626	79.999	19.996	103.119	19.713	26.879	0.526
630.000	388.872	80.002	19.994	103.112	19.714	26.818	0.514
630.500	389.108	80.006	19.995	103.112	19.717	26.602	0.500
631.000	389.353	80.004	19.994	103.111	19.714	26.761	0.482
631.501	389.619	79.989	19.994	103.112	19.719	26.415	0.496
632.000	389.850	79.999	19.994	103.109	19.717	26.577	0.504
632.500	390.136	80.005	19.994	103.109	19.722	26.234	0.507
633.000	390.389	80.000	19.994	103.108	19.722	26.209	0.528
633.500	390.611	79.998	19.994	103.109	19.723	26.185	0.506
634.000	390.902	80.001	19.993	103.108	19.723	26.180	0.494
634.500	391.169	79.994	19.994	103.107	19.725	26.026	0.536
635.000	391.394	79.996	19.994	103.110	19.729	25.751	0.525
635.500	391.617	79.998	19.995	103.110	19.730	25.688	0.470
636.000	391.923	80.000	19.993	103.108	19.733	25.513	0.489
636.500	392.181	80.008	19.992	103.108	19.732	25.548	0.547
637.000	392.381	79.989	19.996	103.112	19.735	25.381	0.511
637.500	392.656	79.997	19.993	103.108	19.732	25.544	0.466
638.000	392.878	80.004	19.994	103.109	19.735	25.341	0.486
638.500	393.167	79.996	19.994	103.110	19.740	24.994	0.504
639.000	393.445	80.006	19.992	103.110	19.737	25.206	0.539
639.500	393.664	80.007	19.993	103.109	19.740	25.025	0.532
640.000	393.941	80.000	19.995	103.113	19.744	24.772	0.496
640.501	394.192	80.005	19.994	103.113	19.742	24.905	0.512
641.001	394.450	80.004	19.994	103.114	19.744	24.733	0.518
641.500	394.743	80.003	19.994	103.114	19.743	24.808	0.530
642.000	394.966	79.990	19.995	103.111	19.744	24.728	0.534
642.500	395.199	79.994	19.995	103.108	19.746	24.591	0.486
643.000	395.481	79.993	19.994	103.104	19.751	24.253	0.485
643.500	395.711	80.003	19.994	103.105	19.751	24.265	0.514
644.000	395.996	80.003	19.995	103.104	19.752	24.224	0.514
644.500	396.230	80.001	19.994	103.103	19.750	24.350	0.517
645.000	396.471	79.994	19.995	103.105	19.751	24.285	0.497
645.500	396.723	80.005	19.994	103.106	19.757	23.827	0.484
646.000	396.942	79.995	19.996	103.105	19.756	23.922	0.482
646.500	397.211	80.003	19.994	103.100	19.757	23.862	0.480
647.000	397.500	80.002	19.994	103.096	19.761	23.549	0.523
647.500	397.711	80.002	19.994	103.096	19.764	23.410	0.528
648.000	398.000	80.004	19.994	103.096	19.765	23.276	0.500
648.500	398.245	80.005	19.994	103.097	19.764	23.405	0.518
649.000	398.494	80.008	19.994	103.103	19.762	23.498	0.515
649.500	398.729	80.005	19.994	103.111	19.767	23.144	0.489
650.000	399.012	80.001	19.996	103.111	19.768	23.081	0.501
650.500	399.225	80.002	19.994	103.109	19.769	23.040	0.507
651.000	399.524	80.003	19.995	103.105	19.765	23.322	0.504
651.500	399.759	79.997	19.996	103.105	19.769	23.052	0.523
652.000	400.029	79.999	19.994	103.101	19.768	23.078	0.519
652.500	400.285	80.025	19.995	103.103	19.767	23.176	0.515
653.000	400.522	79.997	19.995	103.108	19.773	22.734	0.509
653.500	400.774	80.001	19.994	103.111	19.770	22.993	0.491
654.000	401.007	80.008	19.994	103.113	19.775	22.607	0.487
654.500	401.275	79.999	19.995	103.115	19.777	22.475	0.493
655.000	401.499	80.002	19.994	103.114	19.776	22.586	0.497
655.500	401.747	80.001	19.996	103.113	19.778	22.449	0.482
656.000	401.986	79.998	19.995	103.113	19.777	22.508	0.479
656.500	402.256	80.000	19.996	103.112	19.779	22.378	0.498
657.000	402.526	79.997	19.995	103.110	19.777	22.503	0.525
657.500	402.760	80.000	19.996	103.110	19.777	22.469	0.522
658.000	402.986	80.002	19.995	103.108	19.777	22.466	0.481
658.500	403.274	80.000	19.995	103.108	19.783	22.062	0.487
659.000	403.556	80.002	19.994	103.108	19.781	22.221	0.543
659.500	403.787	80.000	19.994	103.111	19.780	22.259	0.542
660.000	404.044	79.999	19.994	103.112	19.782	22.158	0.501
660.500	404.297	80.004	19.995	103.114	19.780	22.267	0.499
661.000	404.549	79.999	19.995	103.115	19.782	22.145	0.507
661.500	404.785	80.001	19.994	103.114	19.786	21.863	0.496
662.000	405.054	79.997	19.993	103.112	19.786	21.902	0.496
662.500	405.308	79.998	19.995	103.110	19.783	22.055	0.514
663.000	405.511	80.001	19.994	103.109	19.786	21.871	0.490
663.500	405.791	80.003	19.993	103.109	19.785	21.969	0.470
664.000	406.073	79.999	19.993	103.111	19.784	22.018	0.522
664.500	406.293	80.000	19.995	103.112	19.789	21.699	0.532
665.000	406.551	79.999	19.994	103.113	19.788	21.748	0.490
665.500	406.807	79.999	19.995	103.113	19.788	21.736	0.496
666.000	407.038	79.997	19.996	103.113	19.792	21.450	0.501
666.500	407.292	79.999	19.995	103.113	19.790	21.589	0.486
667.000	407.558	79.999	19.995	103.115	19.792	21.496	0.502
667.500	407.793	79.992	19.995	103.115	19.795	21.234	0.511
668.000	408.078	80.001	19.994	103.113	19.795	21.243	0.511
668.500	408.320	79.996	19.995	103.113	19.796	21.211	0.523
669.000	408.606	79.993	19.995	103.114	19.797	21.147	0.527
669.500	408.814	79.992	19.994	103.112	19.797	21.112	0.511
670.000	409.084	80.003	19.995	103.110	19.799	21.004	0.487
670.500	409.319	80.000	19.995	103.112	19.797	21.147	0.492
671.000	409.508	79.987	19.996	103.110	19.798	21.090	0.464
671.500	409.822	79.999	19.994	103.107	19.804	20.668	0.463
672.000	410.080	79.995	19.995	103.109	19.801	20.845	0.537
672.500	410.293	80.002	19.997	103.112	19.804	20.670	0.521
673.000	410.580	80.002	19.995	103.111	19.803	20.753	0.485
673.500	410.779	79.996	19.995	103.113	19.802	20.820	0.493
674.000	411.028	79.999	19.995	103.113	19.804	20.640	0.467
674.500	411.316	79.991	19.996	103.111	19.803	20.742	0.492
675.000	411.577	79.997	19.995	103.109	19.805	20.557	0.543
675.500	411.814	80.010	19.994	103.110	19.805	20.588	0.524
676.000	412.059	80.011	19.995	103.111	19.805	20.571	0.490
676.500	412.342	79.995	19.997	103.116	19.807	20.476	0.505
677.000	412.564	80.000	19.994	103.117	19.813	20.069	0.516
677.500	412.825	79.999	19.995	103.118	19.809	20.312	0.494
678.000	413.071	79.997	19.995	103.119	19.809	20.296	0.495
678.500	413.288	80.001	19.995	103.117	19.810	20.261	0.484
679.000	413.543	79.998	19.995	103.113	19.808	20.398	0.467
679.500	413.811	79.992	19.996	103.113	19.810	20.217	0.498
680.000	414.051	79.998	19.996	103.111	19.815	19.921	0.516
680.500	414.319	79.997	19.996	103.109	19.812	20.116	0.507
681.000	414.551	80.001	19.995	103.108	19.814	19.948	0.504
681.500	414.819	80.010	19.995	103.108	19.813	20.041	0.500
682.000	415.038	80.008	19.995	103.110	19.816	19.841	0.494
682.500	415.261	79.996	19.995	103.113	19.816	19.829	0.464
683.000	415.561	80.004	19.995	103.113	19.816	19.813	0.482
683.500	415.809	79.990	19.995	103.113	19.817	19.755	0.535
684.000	416.054	80.004	19.994	103.111	19.817	19.794	0.520
684.500	416.325	80.008	19.994	103.110	19.818	19.666	0.505
685.000	416.582	80.000	19.994	103.109	19.820	19.536	0.522
685.500	416.827	80.011	19.997	103.110	19.823	19.391	0.515
686.000	417.068	79.986	19.997	103.111	19.823	19.360	0.493
686.500	417.314	79.998	19.995	103.112	19.823	19.328	0.487
687.000	417.603	79.997	19.995	103.109	19.826	19.182	0.511
687.500	417.838	79.994	19.995	103.108	19.821	19.462	0.529
688.000	418.117	79.999	19.996	103.106	19.827	19.051	0.519
688.500	418.332	79.981	19.996	103.107	19.828	19.022	0.504
689.000	418.581	80.006	19.995	103.107	19.829	18.975	0.479
689.500	418.834	79.991	19.994	103.109	19.827	19.075	0.483
690.000	419.078	79.992	19.996	103.108	19.830	18.903	0.499
690.500	419.345	79.991	19.994	103.106	19.834	18.615	0.504
691.000	419.550	80.000	19.994	103.104	19.833	18.692	0.492
691.500	419.836	79.999	19.995	103.101	19.835	18.531	0.482
692.000	420.081	79.996	19.994	103.099	19.834	18.611	0.511
692.500	420.357	79.997	19.994	103.100	19.834	18.595	0.526
693.000	420.603	79.989	19.995	103.103	19.835	18.515	0.521
693.500	420.857	79.999	19.994	103.104	19.840	18.219	0.511
694.001	421.110	80.013	19.995	103.109	19.840	18.233	0.504
694.500	421.335	79.989	19.996	103.110	19.840	18.216	0.492
695.000	421.566	80.014	19.992	103.107	19.841	18.102	0.467
695.500	421.861	80.009	19.994	103.108	19.839	18.258	0.491
696.000	422.096	79.996	19.994	103.110	19.840	18.172	0.528
696.500	422.397	79.997	19.994	103.110	19.843	17.999	0.533
697.000	422.612	80.007	19.994	103.113	19.845	17.848	0.526
697.500	422.848	79.996	19.996	103.120	19.846	17.759	0.483
698.000	423.081	79.997	19.997	103.116	19.846	17.778	0.460
698.500	423.362	79.981	19.995	103.110	19.848	17.670	0.491
699.000	423.620	79.997	19.994	103.108	19.847	17.724	0.526
699.500	423.879	79.997	19.995	103.105	19.848	17.681	0.528
700.000	424.096	80.007	19.994	103.100	19.850	17.486	0.496
700.500	424.380	79.993	19.994	103.101	19.854	17.232	0.488
701.000	424.607	79.994	19.996	103.106	19.853	17.321	0.506
701.500	424.879	79.999	19.993	103.105	19.854	17.271	0.506
702.000	425.136	79.996	19.993	103.109	19.852	17.349	0.514
702.500	425.389	79.999	19.994	103.111	19.853	17.323	0.519
703.000	425.662	80.007	19.991	103.111	19.852	17.370	0.518
703.500	425.873	80.000	19.995	103.114	19.857	17.011	0.505
704.000	426.209	80.006	19.993	103.115	19.856	17.139	0.516
704.500	426.393	80.005	19.994	103.115	19.856	17.129	0.534
705.000	426.646	80.005	19.994	103.117	19.860	16.849	0.478
705.500	426.924	80.014	19.993	103.116	19.860	16.825	0.484
706.000	427.175	80.003	19.994	103.114	19.861	16.760	0.530
706.500	427.408	80.005	19.993	103.113	19.865	16.505	0.507
707.000	427.666	79.994	19.993	103.110	19.864	16.562	0.488
707.500	427.902	79.997	19.994	103.108	19.865	16.518	0.492
708.000	428.167	80.005	19.996	103.108	19.864	16.553	0.497
708.500	428.441	80.004	19.994	103.105	19.866	16.438	0.520
709.000	428.715	79.997	19.994	103.107	19.869	16.213	0.544
709.500	428.971	80.001	19.995	103.108	19.863	16.609	0.539
710.000	429.222	79.996	19.995	103.107	19.865	16.518	0.519
710.500	429.466	79.999	19.994	103.106	19.864	16.584	0.501
711.000	429.702	80.002	19.994	103.108	19.865	16.508	0.488
711.500	429.968	80.007	19.993	103.109	19.867	16.353	0.491
712.000	430.214	79.998	19.995	103.110	19.870	16.125	0.507
712.500	430.461	80.001	19.994	103.110	19.870	16.144	0.502
713.000	430.747	80.001	19.994	103.112	19.870	16.142	0.513
713.500	430.995	80.002	19.994	103.113	19.869	16.221	0.534
714.000	431.253	80.000	19.993	103.111	19.868	16.307	0.520
714.500	431.510	80.002	19.995	103.110	19.867	16.351	0.510
715.000	431.759	80.003	19.994	103.109	19.871	16.090	0.510
715.501	431.989	79.995	19.994	103.109	19.874	15.858	0.492
716.000	432.243	80.002	19.994	103.108	19.877	15.691	0.482
716.500	432.520	79.996	19.995	103.110	19.873	15.927	0.507
717.000	432.773	79.997	19.995	103.109	19.874	15.857	0.531
717.500	433.048	80.008	19.993	103.108	19.874	15.875	0.529
718.000	433.313	79.993	19.996	103.107	19.875	15.801	0.534
718.500	433.528	79.996	19.994	103.108	19.876	15.752	0.510
719.000	433.820	80.003	19.993	103.104	19.880	15.480	0.494
719.500	434.078	80.003	19.994	103.107	19.877	15.682	0.528
720.000	434.340	80.001	19.993	103.107	19.882	15.334	0.534
720.500	434.569	79.997	19.994	103.108	19.879	15.556	0.505
721.000	434.862	80.018	19.991	103.107	19.879	15.564	0.507
721.500	435.127	80.007	19.993	103.114	19.882	15.351	0.540
722.000	435.360	80.002	19.994	103.114	19.886	15.032	0.528
722.500	435.632	80.019	19.992	103.113	19.885	15.132	0.502
723.000	435.837	80.011	19.993	103.116	19.885	15.156	0.491
723.500	436.098	79.975	19.995	103.119	19.882	15.304	0.471
724.000	436.341	79.992	19.994	103.114	19.882	15.346	0.485
724.500	436.623	79.994	19.994	103.113	19.885	15.135	0.515
725.000	436.846	80.002	19.994	103.113	19.885	15.139	0.515
725.500	437.119	79.992	19.993	103.110	19.883	15.271	0.501
726.000	437.365	80.018	19.993	103.107	19.884	15.211	0.508
726.500	437.627	79.994	19.994	103.109	19.887	14.975	0.513
727.000	437.883	80.012	19.994	103.108	19.885	15.140	0.513
727.500	438.135	79.986	19.995	103.110	19.884	15.207	0.513
728.000	438.348	80.001	19.993	103.111	19.886	15.090	0.486
728.500	438.570	79.977	19.995	103.112	19.886	15.072	0.451
729.000	438.861	80.000	19.992	103.109	19.889	14.875	0.474
729.500	439.130	79.983	19.995	103.107	19.886	15.063	0.536
730.000	439.372	80.008	19.993	103.101	19.888	14.935	0.536
730.501	439.642	79.998	19.994	103.097	19.889	14.836	0.512
731.000	439.870	80.004	19.993	103.096	19.892	14.624	0.505
731.500	440.161	80.011	19.992	103.101	19.890	14.756	0.508
732.000	440.391	79.995	19.995	103.106	19.888	14.909	0.520
732.500	440.660	80.013	19.991	103.108	19.888	14.901	0.510
733.000	440.922	79.991	19.995	103.113	19.890	14.773	0.515
733.500	441.180	79.999	19.993	103.114	19.889	14.860	0.526
734.000	441.398	79.991	19.995	103.112	19.890	14.789	0.498
734.500	441.665	80.004	19.993	103.107	19.893	14.601	0.480
735.000	441.901	79.995	19.996	103.111	19.890	14.780	0.494
735.500	442.178	79.994	19.995	103.107	19.890	14.792	0.508
736.000	442.430	80.015	19.995	103.108	19.895	14.454	0.521
736.500	442.715	80.028	19.991	103.108	19.893	14.564	0.533
737.000	442.945	80.012	19.991	103.118	19.892	14.625	0.526
737.500	443.166	80.004	19.995	103.117	19.894	14.545	0.483
738.000	443.461	79.998	19.993	103.115	19.896	14.390	0.483
738.500	443.668	79.994	19.996	103.116	19.892	14.663	0.509
739.000	443.887	79.999	19.994	103.113	19.896	14.416	0.465
739.500	444.180	79.989	19.996	103.106	19.896	14.371	0.469
740.000	444.432	80.001	19.994	103.104	19.895	14.466	0.528
740.500	444.696	79.993	19.995	103.107	19.896	14.400	0.530
741.000	444.926	79.997	19.995	103.108	19.897	14.295	0.505
741.501	445.192	79.995	19.994	103.108	19.895	14.427	0.495
742.000	445.428	79.995	19.995	103.108	19.898	14.213	0.499
742.500	445.729	80.000	19.996	103.109	19.900	14.122	0.519
743.000	445.955	79.998	19.994	103.110	19.901	14.025	0.532
743.500	446.198	79.999	19.995	103.106	19.899	14.153	0.498
744.000	446.467	80.013	19.993	103.105	19.899	14.181	0.491
744.500	446.693	79.983	19.997	103.105	19.898	14.229	0.504
745.000	446.927	80.004	19.995	103.102	19.903	13.933	0.478
745.500	447.163	80.012	19.993	103.102	19.900	14.090	0.465
746.000	447.435	79.993	19.995	103.102	19.903	13.900	0.488
746.500	447.683	80.001	19.993	103.101	19.904	13.861	0.514
747.000	447.968	80.008	19.993	103.098	19.903	13.871	0.527
747.500	448.205	79.996	19.994	103.099	19.904	13.853	0.528
748.000	448.469	80.014	19.993	103.097	19.905	13.788	0.512
748.500	448.743	80.020	19.992	103.097	19.906	13.697	0.520
749.000	448.944	80.001	19.994	103.105	19.904	13.803	0.506
749.500	449.224	80.003	19.992	103.109	19.906	13.721	0.477
750.000	449.449	79.993	19.995	103.116	19.908	13.592	0.493
750.500	449.717	80.005	19.994	103.116	19.906	13.718	0.499
751.000	449.970	79.992	19.994	103.115	19.905	13.754	0.507
751.500	450.209	80.004	19.994	103.109	19.906	13.698	0.506
752.000	450.483	80.003	19.995	103.108	19.905	13.753	0.502
752.500	450.686	79.988	19.997	103.105	19.904	13.804	0.495
753.000	450.965	79.999	19.995	103.101	19.906	13.671	0.480
753.500	451.205	80.000	19.994	103.103	19.906	13.706	0.501
754.000	451.461	80.004	19.993	103.102	19.905	13.757	0.507
754.500	451.727	79.993	19.994	103.100	19.908	13.571	0.509
755.000	451.935	79.995	19.996	103.098	19.903	13.883	0.498
755.500	452.251	79.999	19.993	103.097	19.909	13.509	0.499
756.000	452.445	80.003	19.994	103.094	19.910	13.455	0.517
756.500	452.702	80.002	19.994	103.097	19.907	13.656	0.480
757.000	452.955	80.003	19.995	103.099	19.911	13.384	0.481
757.501	453.254	79.995	19.995	103.100	19.908	13.550	0.531
758.000	453.492	80.005	19.994	103.102	19.912	13.314	0.544
758.500	453.736	79.998	19.994	103.108	19.907	13.621	0.510
759.000	454.000	80.004	19.994	103.107	19.911	13.358	0.495
759.500	454.217	80.004	19.995	103.105	19.909	13.522	0.494
760.000	454.484	80.007	19.994	103.105	19.912	13.260	0.482
760.500	454.739	80.006	19.994	103.109	19.913	13.209	0.503
761.000	455.010	80.003	19.996	103.102	19.913	13.192	0.524
761.500	455.284	80.016	19.994	103.100	19.917	12.950	0.535
762.000	455.503	79.990	19.996	103.102	19.913	13.192	0.519
762.500	455.755	79.998	19.997	103.101	19.914	13.169	0.482
763.000	456.039	79.998	19.993	103.098	19.915	13.052	0.503
763.500	456.277	80.002	19.994	103.103	19.918	12.890	0.529
764.000	456.530	80.013	19.994	103.106	19.916	13.036	0.507
764.500	456.769	79.996	19.995	103.107	19.917	12.934	0.492
765.000	457.057	79.992	19.997	103.108	19.917	12.955	0.509
765.500	457.290	79.986	19.997	103.109	19.917	12.925	0.524
766.000	457.508	80.001	19.995	103.107	19.917	12.977	0.486
766.500	457.750	79.994	19.996	103.106	19.917	12.927	0.456
767.000	457.989	80.006	19.996	103.101	19.915	13.063	0.471
767.500	458.265	79.990	19.997	103.103	19.919	12.846	0.498
768.000	458.560	79.997	19.994	103.102	19.917	12.975	0.543
768.500	458.773	80.011	19.995	103.104	19.917	12.920	0.540
769.000	459.074	79.999	19.995	103.102	19.919	12.796	0.511
769.500	459.282	80.002	19.997	103.106	19.919	12.801	0.511
770.000	459.544	79.994	19.997	103.104	19.920	12.769	0.489
770.500	459.814	79.998	19.995	103.106	19.920	12.774	0.501
771.000	460.077	80.004	19.995	103.106	19.915	13.051	0.532
771.500	460.301	79.998	19.994	103.110	19.916	13.048	0.510
772.001	460.546	80.008	19.996	103.107	19.915	13.098	0.478
772.501	460.816	79.995	19.996	103.110	19.916	13.017	0.492
773.001	461.046	79.988	19.997	103.111	19.919	12.809	0.507
773.500	461.320	79.998	19.996	103.107	19.918	12.856	0.502
774.000	461.551	80.006	19.994	103.103	19.924	12.497	0.505
774.500	461.827	80.001	19.994	103.104	19.923	12.553	0.506
775.000	462.076	79.986	19.997	103.099	19.921	12.683	0.516
775.500	462.343	80.008	19.995	103.097	19.924	12.488	0.520
776.000	462.618	79.995	19.996	103.100	19.922	12.599	0.529
776.500	462.853	80.002	19.995	103.101	19.921	12.652	0.526
777.000	463.093	79.998	19.996	103.103	19.919	12.792	0.492
777.500	463.317	79.997	19.996	103.104	19.921	12.687	0.469
778.000	463.601	80.002	19.994	103.105	19.921	12.701	0.486
778.500	463.805	80.014	19.991	103.106	19.921	12.648	0.499
779.000	464.075	80.005	19.994	103.110	19.923	12.552	0.481
779.500	464.314	80.017	19.992	103.106	19.924	12.500	0.491
780.000	464.594	79.999	19.994	103.106	19.923	12.523	0.514
780.500	464.804	79.993	19.995	103.103	19.926	12.315	0.504
781.000	465.048	80.017	19.991	103.099	19.928	12.212	0.472
781.500	465.324	79.998	19.994	103.097	19.926	12.305	0.487
782.000	465.592	80.011	19.993	103.099	19.926	12.326	0.532
782.500	465.803	79.996	19.994	103.100	19.928	12.218	0.512
783.000	466.086	80.001	19.993	103.102	19.923	12.508	0.486
783.500	466.318	80.007	19.994	103.108	19.929	12.104	0.504
784.000	466.615	80.003	19.992	103.106	19.929	12.116	0.522
784.500	466.805	80.016	19.993	103.110	19.929	12.140	0.508
785.000	467.058	80.000	19.995	103.113	19.929	12.121	0.465
785.500	467.300	80.005	19.993	103.114	19.927	12.248	0.469
786.000	467.535	80.002	19.993	103.114	19.929	12.135	0.486
786.500	467.817	80.008	19.993	103.116	19.931	11.989	0.497
787.000	468.036	80.005	19.995	103.111	19.931	11.965	0.509
787.500	468.298	79.996	19.995	103.105	19.928	12.199	0.491
788.000	468.554	80.001	19.995	103.104	19.931	12.007	0.499
788.500	468.762	80.003	19.995	103.096	19.932	11.928	0.491
789.000	469.059	80.004	19.994	103.091	19.931	12.022	0.485
789.500	469.318	80.005	19.994	103.087	19.931	11.997	0.531
790.000	469.565	79.997	19.993	103.087	19.930	12.071	0.531
790.500	469.819	80.009	19.992	103.086	19.935	11.746	0.503
791.000	470.030	80.002	19.993	103.093	19.938	11.497	0.483
791.500	470.357	80.004	19.993	103.097	19.932	11.928	0.502
792.000	470.564	79.987	19.995	103.104	19.934	11.788	0.536
792.500	470.819	80.005	19.994	103.108	19.936	11.680	0.498
793.000	471.083	80.002	19.992	103.111	19.938	11.485	0.490
793.500	471.326	80.001	19.994	103.111	19.940	11.404	0.513
794.000	471.581	80.004	19.994	103.109	19.935	11.698	0.503
794.500	471.856	80.006	19.992	103.106	19.934	11.772	0.514
795.000	472.113	80.013	19.992	103.108	19.935	11.738	0.531
795.500	472.347	80.000	19.994	103.111	19.934	11.770	0.512
796.000	472.594	80.014	19.994	103.109	19.937	11.605	0.486
796.500	472.859	80.002	19.994	103.109	19.941	11.312	0.497
797.000	473.097	80.008	19.993	103.110	19.938	11.509	0.507
797.500	473.340	79.998	19.995	103.103	19.938	11.518	0.492
798.000	473.610	80.002	19.993	103.092	19.936	11.656	0.497
798.500	473.846	80.004	19.993	103.088	19.939	11.452	0.510
799.000	474.141	80.014	19.993	103.084	19.938	11.527	0.518
799.500	474.355	79.992	19.997	103.088	19.943	11.200	0.520
800.000	474.616	79.989	19.995	103.088	19.939	11.479	0.492
800.500	474.879	80.003	19.995	103.091	19.939	11.459	0.500
801.000	475.162	79.999	19.995	103.090	19.940	11.349	0.535
801.500	475.425	80.007	19.992	103.091	19.941	11.291	0.546
802.000	475.634	80.005	19.993	103.091	19.941	11.305	0.509
802.500	475.932	80.015	19.993	103.095	19.944	11.092	0.489
803.000	476.164	79.998	19.994	103.101	19.942	11.222	0.519
803.500	476.395	80.008	19.994	103.102	19.943	11.163	0.497
804.000	476.660	79.986	19.996	103.099	19.943	11.158	0.479
804.500	476.926	79.999	19.995	103.089	19.944	11.117	0.513
805.000	477.187	80.004	19.994	103.082	19.942	11.273	0.529
805.500	477.388	80.001	19.994	103.075	19.943	11.181	0.494
806.000	477.708	80.004	19.992	103.073	19.944	11.118	0.492
806.500	477.959	80.008	19.994	103.075	19.945	11.071	0.547
807.000	478.180	80.002	19.995	103.080	19.944	11.083	0.522
807.500	478.438	80.019	19.993	103.079	19.945	11.017	0.475
808.000	478.649	80.001	19.995	103.082	19.944	11.082	0.474
808.500	478.905	79.989	19.995	103.084	19.947	10.924	0.468
809.000	479.149	80.003	19.994	103.085	19.948	10.819	0.484
809.500	479.434	80.009	19.993	103.087	19.947	10.876	0.515
810.000	479.653	80.004	19.994	103.095	19.945	11.014	0.517
810.500	479.897	80.005	19.994	103.094	19.945	11.022	0.483
811.000	480.133	80.006	19.992	103.094	19.946	10.986	0.471
811.500	480.418	79.997	19.996	103.098	19.951	10.637	0.501
812.000	480.633	79.992	19.996	103.099	19.948	10.829	0.511
812.500	480.912	80.003	19.993	103.092	19.949	10.766	0.497
813.000	481.163	80.006	19.993	103.090	19.950	10.675	0.512
813.500	481.434	80.010	19.995	103.088	19.949	10.741	0.526
814.000	481.679	80.008	19.994	103.078	19.948	10.812	0.519
814.500	481.904	79.999	19.993	103.076	19.948	10.870	0.493
815.000	482.160	80.014	19.995	103.080	19.950	10.668	0.476
815.500	482.400	80.015	19.993	103.080	19.946	10.952	0.489
816.000	482.664	80.002	19.993	103.085	19.950	10.715	0.500
816.500	482.898	80.000	19.994	103.089	19.947	10.891	0.501
817.000	483.135	79.999	19.994	103.091	19.947	10.915	0.485
817.500	483.435	80.000	19.994	103.091	19.950	10.695	0.504
818.000	483.645	79.996	19.996	103.094	19.949	10.739	0.523
818.500	483.857	79.991	19.996	103.089	19.951	10.620	0.466
819.000	484.139	79.999	19.995	103.085	19.954	10.434	0.458
819.500	484.363	80.010	19.992	103.082	19.953	10.503	0.499
820.000	484.633	80.023	19.991	103.079	19.955	10.344	0.500
820.500	484.910	79.998	19.996	103.085	19.951	10.642	0.521
821.000	485.133	79.995	19.996	103.093	19.952	10.567	0.524
821.500	485.390	80.000	19.996	103.094	19.955	10.384	0.490
822.000	485.614	79.995	19.996	103.092	19.955	10.387	0.480
822.500	485.869	80.002	19.995	103.091	19.955	10.384	0.480
823.000	486.111	80.016	19.991	103.082	19.958	10.151	0.488
823.500	486.366	79.998	19.998	103.080	19.954	10.427	0.497
824.000	486.616	80.008	19.997	103.086	19.958	10.181	0.501
824.500	486.864	80.002	19.995	103.092	19.954	10.429	0.502
825.000	487.102	79.998	19.995	103.100	19.957	10.188	0.492
825.500	487.342	80.005	19.995	103.104	19.957	10.190	0.482
826.000	487.596	80.000	19.995	103.102	19.957	10.247	0.486
826.500	487.832	80.007	19.993	103.104	19.956	10.290	0.492
827.000	488.078	80.002	19.995	103.097	19.957	10.189	0.486
827.500	488.335	80.000	19.997	103.091	19.956	10.272	0.493
828.000	488.525	80.005	19.997	103.085	19.961	9.970	0.475
828.500	488.805	80.009	19.994	103.080	19.956	10.314	0.458
829.000	489.050	79.997	19.995	103.077	19.957	10.249	0.497
829.500	489.275	79.991	19.996	103.076	19.959	10.087	0.498
830.000	489.525	79.992	19.995	103.072	19.961	9.968	0.472
830.500	489.744	79.999	19.995	103.076	19.960	10.048	0.472
831.000	490.027	80.001	19.995	103.077	19.958	10.159	0.486
831.500	490.243	79.997	19.995	103.075	19.959	10.054	0.500
832.000	490.513	80.002	19.995	103.080	19.960	10.015	0.493
832.500	490.771	79.998	19.997	103.086	19.961	9.926	0.507
833.000	491.004	80.000	19.994	103.087	19.959	10.102	0.510
833.500	491.224	80.003	19.996	103.096	19.960	10.046	0.472
834.000	491.462	79.993	19.996	103.100	19.962	9.898	0.456
834.500	491.715	79.999	19.996	103.094	19.959	10.056	0.474
835.000	491.974	80.009	19.994	103.091	19.962	9.893	0.501
835.500	492.247	79.992	19.996	103.091	19.962	9.857	0.522
836.001	492.441	80.000	19.996	103.084	19.962	9.900	0.500
836.500	492.680	79.996	19.997	103.080	19.959	10.103	0.450
837.000	492.932	80.004	19.995	103.080	19.963	9.814	0.462
837.500	493.220	79.996	19.996	103.085	19.966	9.616	0.516
838.000	493.446	79.985	19.997	103.088	19.967	9.534	0.527
838.500	493.724	79.996	19.996	103.090	19.968	9.441	0.509
839.000	493.986	80.015	19.993	103.094	19.966	9.624	0.522
839.500	494.197	79.998	19.995	103.101	19.964	9.725	0.506
840.000	494.439	79.985	19.997	103.100	19.968	9.452	0.463
840.500	494.703	79.995	19.995	103.093	19.968	9.467	0.480
841.000	494.911	79.998	19.995	103.094	19.969	9.391	0.489
841.500	495.147	80.004	19.996	103.092	19.970	9.371	0.458
842.000	495.454	80.008	19.995	103.091	19.965	9.696	0.494
842.500	495.662	79.995	19.996	103.095	19.970	9.358	0.529
843.000	495.910	79.998	19.996	103.096	19.969	9.373	0.485
843.500	496.144	80.011	19.994	103.096	19.968	9.441	0.469
844.000	496.389	79.997	19.996	103.097	19.969	9.404	0.480
844.500	496.662	79.989	19.998	103.091	19.970	9.326	0.498
845.000	496.932	80.006	19.993	103.080	19.971	9.281	0.530
845.500	497.184	80.007	19.994	103.084	19.973	9.104	0.533
846.000	497.398	80.008	19.993	103.089	19.971	9.264	0.494
846.500	497.627	79.995	19.996	103.093	19.970	9.321	0.455
847.000	497.882	79.990	19.997	103.099	19.974	9.093	0.464
847.500	498.115	80.000	19.995	103.101	19.970	9.335	0.486
848.000	498.356	80.000	19.994	103.095	19.972	9.210	0.481
848.500	498.640	79.989	19.995	103.086	19.971	9.267	0.500
849.001	498.887	79.986	19.995	103.084	19.973	9.133	0.528
849.500	499.111	79.986	19.996	103.085	19.969	9.387	0.501
850.000	499.355	79.989	19.996	103.088	19.965	9.655	0.470
850.500	499.601	79.985	19.996	103.096	19.970	9.340	0.479
851.000	499.863	79.986	19.996	103.104	19.973	9.123	0.499
851.500	500.133	80.008	19.994	103.100	19.975	8.974	0.520
852.000	500.364	80.011	19.994	103.098	19.973	9.127	0.516
852.500	500.639	80.007	19.995	103.103	19.972	9.199	0.503
853.000	500.906	80.004	19.993	103.104	19.972	9.177	0.524
853.500	501.140	79.998	19.995	103.104	19.973	9.147	0.522
854.000	501.354	80.012	19.995	103.107	19.976	8.945	0.475
854.500	501.644	80.005	19.996	103.105	19.970	9.363	0.476
855.000	501.851	80.018	19.993	103.098	19.973	9.118	0.500
855.500	502.101	80.012	19.994	103.100	19.973	9.163	0.477
856.000	502.375	80.001	19.996	103.098	19.977	8.871	0.491
856.500	502.627	80.007	19.994	103.094	19.973	9.121	0.525
857.000	502.872	80.011	19.993	103.098	19.972	9.221	0.511
857.500	503.131	80.005	19.996	103.104	19.975	9.027	0.500
858.000	503.332	80.001	19.996	103.099	19.975	9.002	0.482
858.500	503.623	79.985	19.996	103.095	19.968	9.457	0.476
859.000	503.864	79.994	19.996	103.092	19.974	9.087	0.513
859.500	504.103	79.985	19.997	103.090	19.975	8.965	0.506
860.000	504.440	79.995	19.997	103.083	19.977	8.864	0.528
860.500	504.620	79.989	19.996	103.082	19.978	8.813	0.546
861.000	504.877	80.008	19.994	103.084	19.976	8.952	0.477
861.500	505.126	79.999	19.995	103.092	19.975	8.976	0.471
862.000	505.357	79.994	19.996	103.092	19.977	8.853	0.493
862.500	505.617	80.002	19.995	103.093	19.976	8.906	0.486
863.000	505.855	79.994	19.996	103.096	19.977	8.826	0.495
863.500	506.109	79.979	19.996	103.092	19.975	8.994	0.495
864.000	506.349	79.977	19.997	103.082	19.978	8.773	0.493
864.500	506.633	80.004	19.994	103.076	19.979	8.698	0.510
865.000	506.845	80.006	19.994	103.079	19.980	8.658	0.510
865.500	507.160	80.005	19.997	103.076	19.983	8.476	0.511
866.000	507.387	80.004	19.996	103.079	19.980	8.668	0.535
866.500	507.646	79.997	19.995	103.084	19.981	8.616	0.514
867.000	507.869	79.993	19.994	103.089	19.980	8.649	0.484
867.500	508.152	79.999	19.995	103.092	19.979	8.690	0.494
868.000	508.386	79.999	19.996	103.096	19.982	8.511	0.511
868.500	508.637	79.989	19.995	103.099	19.980	8.684	0.501
869.000	508.877	80.002	19.995	103.095	19.982	8.548	0.488
869.500	509.155	80.000	19.994	103.093	19.982	8.541	0.505
870.000	509.420	80.020	19.992	103.090	19.982	8.496	0.531
870.500	509.655	80.002	19.995	103.092	19.984	8.355	0.521
871.000	509.894	79.992	19.994	103.093	19.983	8.479	0.487
871.500	510.139	79.988	19.996	103.096	19.982	8.522	0.479
872.000	510.400	80.002	19.995	103.099	19.985	8.329	0.495
872.500	510.661	80.008	19.993	103.097	19.982	8.525	0.514
873.000	510.901	80.008	19.993	103.096	19.983	8.453	0.512
873.500	511.165	80.000	19.994	103.096	19.984	8.375	0.502
874.000	511.394	80.018	19.993	103.100	19.989	8.044	0.498
874.500	511.665	80.002	19.996	103.106	19.979	8.700	0.496
875.000	511.911	79.999	19.994	103.110	19.984	8.374	0.508
875.500	512.113	80.004	19.994	103.105	19.989	8.050	0.483
876.000	512.422	80.004	19.993	103.095	19.985	8.337	0.480
876.500	512.652	80.002	19.995	103.087	19.975	8.993	0.525
877.000	512.884	80.001	19.994	103.078	19.982	8.526	0.500
877.500	513.128	79.989	19.995	103.074	19.992	7.842	0.469
878.000	513.432	80.005	19.994	103.070	19.975	8.985	0.512
878.500	513.697	80.012	19.994	103.079	19.993	7.766	0.558
879.000	513.965	80.000	19.994	103.087	19.978	8.800	0.551
879.500	514.231	80.008	19.994	103.087	19.991	7.882	0.534
880.000	514.426	79.994	19.995	103.084	19.982	8.545	0.498
880.500	514.709	80.003	19.995	103.088	19.984	8.392	0.470
881.000	515.046	80.006	19.995	103.090	19.984	8.408	0.549
881.500	515.192	79.998	19.995	103.087	19.988	8.097	0.551
882.000	515.532	80.006	19.995	103.086	19.988	8.090	0.485
882.500	515.731	79.993	19.995	103.090	19.984	8.412	0.512
883.000	516.020	80.009	19.992	103.085	19.989	8.032	0.513
883.500	516.342	80.007	19.994	103.080	19.984	8.409	0.550
884.000	516.501	79.993	19.994	103.082	19.988	8.145	0.546
884.500	516.753	80.008	19.994	103.087	19.989	8.069	0.446
885.000	516.940	80.003	19.994	103.086	19.987	8.182	0.425
885.500	517.265	80.019	19.992	103.087	19.986	8.267	0.476
886.000	517.536	79.998	19.995	103.090	19.985	8.284	0.554
886.500	517.759	79.995	19.995	103.084	19.990	7.998	0.545
887.000	518.172	80.004	19.993	103.080	19.989	8.043	0.565
887.500	518.197	79.988	19.996	103.082	19.992	7.829	0.536
888.000	518.751	80.005	19.995	103.087	19.989	8.057	0.508
888.500	518.391	79.993	19.994	103.087	19.990	7.967	0.387
889.000	519.046	79.991	19.995	103.091	19.992	7.860	0.244
889.500	519.386	80.008	19.993	103.087	19.987	8.155	0.645
890.000	519.712	80.005	19.995	103.081	19.992	7.870	0.831
890.500	519.294	79.997	19.995	103.080	19.992	7.868	0.287
891.000	519.685	79.978	19.996	103.076	19.992	7.818	-0.059
891.500	520.712	80.004	19.996	103.070	19.992	7.841	0.696
892.000	520.250	80.010	19.995	103.081	19.987	8.146	0.992
892.500	521.028	79.998	19.995	103.088	19.992	7.871	0.440
893.000	520.890	79.993	19.994	103.095	19.993	7.803	0.477
893.500	521.375	80.013	19.994	103.106	19.992	7.864	0.493
894.000	521.572	79.982	19.996	103.115	19.993	7.755	0.515
894.500	521.837	80.010	19.994	103.116	19.993	7.753	0.572
895.000	522.135	79.986	19.996	103.115	19.989	8.017	0.513
895.500	522.367	80.010	19.993	103.109	19.992	7.853	0.546
896.000	522.806	80.015	19.993	103.107	19.993	7.771	0.600
896.500	522.836	80.002	19.996	103.108	19.994	7.736	0.570
897.000	523.156	80.004	19.995	103.106	19.994	7.724	0.409
897.500	523.320	79.997	19.994	103.106	19.994	7.681	0.417
898.000	523.721	80.008	19.994	103.109	19.996	7.592	0.525
898.500	523.892	79.998	19.994	103.108	19.995	7.637	0.569
899.000	524.244	80.003	19.995	103.100	19.993	7.758	0.547
899.500	524.374	79.995	19.996	103.099	19.990	7.979	0.502
900.000	524.736	80.000	19.995	103.099	19.993	7.773	0.487
900.500	524.885	79.997	19.995	103.096	19.996	7.561	0.502
901.000	525.232	80.015	19.992	103.089	19.997	7.517	0.504
901.500	525.502	80.004	19.995	103.093	19.997	7.471	0.557
902.000	525.666	79.996	19.996	103.093	19.998	7.400	0.525
902.500	525.957	80.012	19.992	103.093	19.999	7.346	0.444
903.000	526.264	79.999	19.994	103.099	19.996	7.582	0.527
903.500	526.513	79.991	19.995	103.105	19.997	7.526	0.578
904.000	526.769	80.012	19.993	103.105	19.995	7.634	0.531
904.500	527.007	79.997	19.993	103.110	19.995	7.633	0.499
905.000	527.275	80.010	19.992	103.113	19.999	7.369	0.500
905.500	527.581	79.996	19.993	103.114	19.993	7.737	0.540
906.000	527.762	80.002	19.993	103.117	19.995	7.631	0.531
906.500	528.071	80.003	19.994	103.115	19.994	7.698	0.489
907.000	528.290	79.998	19.995	103.112	19.996	7.586	0.509
907.500	528.582	80.003	19.993	103.104	19.998	7.440	0.519
908.000	528.830	80.002	19.994	103.098	19.998	7.416	0.525
908.500	529.093	80.004	19.995	103.093	19.999	7.340	0.526
909.000	529.337	80.001	19.994	103.092	20.000	7.301	0.509
909.500	529.584	80.007	19.994	103.097	19.996	7.535	0.499
910.000	529.866	79.979	19.995	103.105	20.002	7.182	0.510
910.501	530.120	79.983	19.996	103.106	19.998	7.445	0.532
911.001	530.373	79.994	19.995	103.105	19.998	7.426	0.521
911.501	530.635	79.999	19.993	103.101	19.999	7.356	0.511
912.000	530.919	80.009	19.991	103.094	19.998	7.426	0.530
912.500	531.175	79.996	19.996	103.091	19.998	7.397	0.543
913.000	531.362	79.996	19.995	103.085	19.997	7.530	0.492
913.500	531.639	79.997	19.995	103.087	19.996	7.569	0.454
914.000	531.932	80.012	19.994	103.088	19.996	7.591	0.517
914.500	532.212	79.998	19.993	103.090	19.996	7.547	0.571
915.000	532.402	80.013	19.992	103.093	19.996	7.593	0.522
915.500	532.684	79.996	19.994	103.098	19.996	7.540	0.471
916.000	532.934	80.009	19.993	103.094	19.994	7.668	0.502
916.500	533.192	80.015	19.993	103.094	19.995	7.642	0.520
917.000	533.461	80.004	19.995	103.096	19.996	7.570	0.518
917.500	533.712	80.003	19.994	103.094	19.995	7.652	0.524
918.000	533.947	80.009	19.994	103.094	19.996	7.566	0.503
918.501	534.270	80.006	19.992	103.101	19.997	7.480	0.522
919.000	534.513	80.008	19.994	103.110	19.996	7.574	0.562
919.500	534.707	79.996	19.995	103.111	19.997	7.504	0.501
920.000	534.985	80.009	19.994	103.110	19.997	7.480	0.454
920.500	535.283	80.005	19.994	103.111	19.997	7.487	0.524
921.000	535.509	79.998	19.995	103.108	19.995	7.631	0.550
921.500	535.812	80.008	19.996	103.100	19.994	7.696	0.527
922.000	536.050	80.007	19.994	103.095	19.997	7.491	0.535
922.500	536.302	80.000	19.995	103.097	19.997	7.506	0.516
923.000	536.566	80.002	19.995	103.095	19.997	7.476	0.503
923.500	536.823	79.996	19.994	103.092	19.996	7.584	0.518
924.000	537.067	79.997	19.995	103.092	19.998	7.432	0.511
924.500	537.368	80.002	19.995	103.091	19.998	7.422	0.523
925.000	537.585	79.998	19.996	103.089	19.997	7.502	0.531
925.500	537.821	79.996	19.994	103.086	19.997	7.513	0.485
926.000	538.111	80.002	19.995	103.088	19.997	7.521	0.490
926.500	538.336	80.007	19.993	103.091	19.995	7.610	0.520
927.000	538.595	80.000	19.996	103.100	19.999	7.380	0.499
927.500	538.853	79.997	19.994	103.101	19.996	7.586	0.501
928.000	539.105	79.992	19.996	103.105	19.998	7.410	0.514
928.500	539.346	80.004	19.995	103.104	19.998	7.429	0.502
929.000	539.598	79.997	19.995	103.103	19.997	7.500	0.493
929.501	539.883	80.003	19.995	103.092	19.999	7.353	0.515
930.000	540.100	80.003	19.995	103.087	19.999	7.379	0.520
930.500	540.409	79.999	19.994	103.085	19.999	7.390	0.514
931.000	540.627	79.992	19.995	103.085	20.000	7.325	0.526
931.500	540.889	79.999	19.995	103.088	19.996	7.575	0.503
932.000	541.126	79.998	19.995	103.093	19.999	7.376	0.490
932.500	541.392	79.998	19.994	103.092	19.998	7.395	0.501
933.000	541.633	79.979	19.995	103.092	19.996	7.576	0.505
933.500	541.893	80.006	19.994	103.089	19.997	7.524	0.504
934.000	542.130	79.997	19.994	103.087	19.995	7.616	0.499
934.500	542.398	79.993	19.995	103.088	19.997	7.528	0.501
935.000	542.664	80.000	19.994	103.091	19.997	7.524	0.519
935.500	542.888	79.993	19.996	103.091	19.995	7.651	0.512
936.000	543.177	79.997	19.996	103.092	19.995	7.658	0.501
936.500	543.467	80.007	19.994	103.090	19.999	7.344	0.545
937.000	543.675	80.001	19.995	103.089	19.997	7.491	0.539
937.500	543.920	80.000	19.994	103.088	19.995	7.603	0.476
938.000	544.213	80.008	19.995	103.090	19.996	7.552	0.496
938.500	544.446	80.006	19.993	103.094	19.996	7.561	0.531
939.000	544.730	80.002	19.995	103.099	19.999	7.382	0.521
939.500	544.917	80.006	19.995	103.100	20.001	7.233	0.494
940.000	545.153	80.003	19.995	103.105	19.997	7.482	0.447
940.500	545.428	79.999	19.995	103.105	19.994	7.679	0.467
941.000	545.699	80.012	19.993	103.102	19.993	7.789	0.528
941.500	545.969	79.987	19.995	103.103	19.997	7.512	0.543
942.000	546.211	80.012	19.993	103.100	19.994	7.707	0.527
942.501	546.445	79.997	19.994	103.098	19.996	7.534	0.494
943.000	546.739	80.013	19.993	103.097	19.996	7.584	0.502
943.500	546.954	80.014	19.994	103.104	19.998	7.451	0.518
944.000	547.265	80.000	19.994	103.105	19.999	7.374	0.517
944.500	547.499	80.012	19.993	103.111	19.998	7.397	0.535
945.000	547.766	80.009	19.996	103.117	19.999	7.335	0.523
945.500	548.058	79.998	19.995	103.111	19.997	7.521	0.530
946.000	548.243	79.992	19.996	103.104	19.998	7.406	0.518
946.500	548.467	80.009	19.995	103.097	20.000	7.291	0.443
947.000	548.784	79.997	19.995	103.092	19.998	7.399	0.475
947.500	549.062	80.002	19.995	103.087	20.002	7.185	0.568
948.000	549.280	80.000	19.996	103.095	19.996	7.588	0.546
948.500	549.513	80.001	19.994	103.098	19.998	7.431	0.473
949.000	549.788	80.003	19.995	103.104	19.994	7.678	0.479
949.500	550.031	79.988	19.995	103.103	19.998	7.462	0.513
950.000	550.281	80.001	19.996	103.100	19.999	7.392	0.506
950.500	550.562	80.010	19.994	103.094	19.996	7.535	0.512
951.000	550.803	79.995	19.997	103.095	19.998	7.440	0.526
951.500	551.039	79.994	19.998	103.094	19.994	7.676	0.499
952.000	551.326	80.005	19.995	103.093	19.995	7.651	0.500
952.500	551.560	80.004	19.996	103.094	19.996	7.594	0.522
953.000	551.787	80.011	19.994	103.093	19.997	7.519	0.491
953.500	552.049	80.009	19.993	103.097	19.996	7.571	0.475
954.000	552.313	80.010	19.995	103.095	19.992	7.826	0.507
954.500	552.569	79.991	19.996	103.095	19.996	7.565	0.523
955.000	552.838	79.998	19.997	103.094	19.997	7.530	0.522
955.500	553.043	79.997	19.994	103.098	19.994	7.720	0.499
956.000	553.306	79.986	19.996	103.096	19.996	7.579	0.471
956.500	553.577	79.991	19.996	103.095	19.991	7.939	0.502
957.000	553.782	79.997	19.996	103.098	19.994	7.669	0.505
957.500	554.100	79.997	19.996	103.099	19.997	7.493	0.499
958.000	554.329	80.014	19.994	103.099	19.994	7.681	0.535
958.500	554.588	80.003	19.995	103.099	19.995	7.599	0.517
959.000	554.836	80.001	19.995	103.100	19.995	7.663	0.497
959.500	555.106	80.001	19.995	103.102	19.994	7.717	0.512
960.000	555.362	80.003	19.995	103.102	19.995	7.660	0.522
960.500	555.655	80.003	19.995	103.104	19.991	7.916	0.538
961.000	555.880	80.001	19.995	103.101	19.996	7.580	0.534
961.500	556.143	80.010	19.993	103.102	19.993	7.764	0.503
962.000	556.346	79.997	19.997	103.102	19.994	7.704	0.477
962.500	556.636	80.013	19.992	103.097	19.993	7.773	0.480
963.000	556.821	79.993	19.996	103.098	19.995	7.641	0.484
963.500	557.097	80.012	19.993	103.096	19.993	7.801	0.468
964.000	557.349	80.000	19.995	103.096	19.994	7.701	0.494
964.500	557.599	80.009	19.993	103.089	19.994	7.697	0.514
965.000	557.889	80.000	19.993	103.093	19.992	7.810	0.521
965.500	558.131	79.993	19.995	103.090	19.990	7.989	0.536
966.000	558.362	80.000	19.994	103.091	19.993	7.756	0.502
966.500	558.628	79.998	19.995	103.090	19.992	7.845	0.485
967.000	558.889	79.998	19.994	103.093	19.995	7.665	0.512
967.500	559.139	80.003	19.994	103.090	19.993	7.773	0.520
968.000	559.391	80.005	19.993	103.088	19.993	7.767	0.506
968.500	559.639	80.000	19.994	103.091	19.991	7.888	0.500
969.000	559.870	80.009	19.994	103.091	19.992	7.827	0.489
969.500	560.146	79.998	19.993	103.095	19.993	7.797	0.493
970.000	560.398	80.003	19.993	103.099	19.991	7.931	0.518
970.500	560.642	80.007	19.992	103.105	19.990	7.972	0.512
971.000	560.906	80.006	19.993	103.106	19.994	7.730	0.502
971.500	561.209	80.011	19.993	103.107	19.991	7.929	0.537
972.000	561.414	79.998	19.995	103.110	19.989	8.064	0.537
972.500	561.664	80.001	19.994	103.112	19.993	7.769	0.482
973.000	561.945	80.002	19.994	103.111	19.991	7.919	0.493
973.500	562.194	79.998	19.994	103.110	19.991	7.879	0.530
974.000	562.463	80.001	19.994	103.109	19.990	7.944	0.524
974.500	562.670	80.002	19.995	103.109	19.991	7.938	0.497
975.000	562.981	79.999	19.994	103.110	19.989	8.011	0.497
975.500	563.202	80.002	19.995	103.110	19.990	7.949	0.525
976.000	563.475	80.000	19.996	103.109	19.992	7.853	0.513
976.500	563.735	80.002	19.994	103.108	19.988	8.103	0.513
977.000	563.961	79.988	19.996	103.108	19.988	8.114	0.509
977.501	564.246	80.008	19.993	103.104	19.988	8.111	0.499
978.000	564.509	79.998	19.995	103.104	19.989	8.059	0.529
978.500	564.770	80.002	19.994	103.102	19.991	7.877	0.536
979.000	565.023	80.003	19.994	103.101	19.992	7.819	0.519
979.500	565.225	80.000	19.994	103.101	19.991	7.908	0.485
980.000	565.494	79.995	19.995	103.105	19.990	7.960	0.464
980.500	565.772	79.998	19.994	103.101	19.989	8.029	0.509
981.000	566.009	79.997	19.994	103.102	19.991	7.873	0.531
981.500	566.295	79.991	19.994	103.106	19.988	8.094	0.519
982.000	566.534	79.998	19.995	103.104	19.988	8.116	0.524
982.500	566.758	80.000	19.994	103.104	19.988	8.114	0.494
983.000	567.026	80.001	19.994	103.105	19.990	7.941	0.477
983.500	567.286	80.004	19.994	103.106	19.989	8.056	0.510
984.000	567.552	80.002	19.993	103.102	19.989	8.014	0.527
984.500	567.810	80.000	19.994	103.103	19.989	8.029	0.525
985.000	568.065	80.001	19.994	103.103	19.987	8.154	0.518
985.500	568.286	79.998	19.993	103.105	19.985	8.313	0.495
986.000	568.543	80.000	19.994	103.104	19.986	8.261	0.477
986.500	568.839	80.004	19.994	103.107	19.986	8.279	0.516
987.000	569.105	80.002	19.994	103.105	19.986	8.268	0.558
987.500	569.321	79.999	19.993	103.101	19.986	8.274	0.522
988.000	569.580	79.999	19.993	103.099	19.986	8.228	0.478
988.500	569.864	79.999	19.995	103.099	19.988	8.092	0.509
989.000	570.120	80.003	19.993	103.100	19.987	8.157	0.542
989.500	570.338	79.994	19.995	103.103	19.986	8.238	0.507
990.000	570.666	79.997	19.995	103.104	19.986	8.225	0.510
990.500	570.917	79.998	19.994	103.105	19.986	8.260	0.562
991.000	571.179	79.998	19.994	103.104	19.985	8.297	0.546
991.500	571.417	80.001	19.993	103.100	19.985	8.326	0.506
992.000	571.665	80.001	19.993	103.097	19.983	8.467	0.493
992.500	571.961	79.999	19.995	103.100	19.986	8.270	0.515
993.000	572.190	80.000	19.994	103.096	19.984	8.367	0.535
993.500	572.474	80.002	19.994	103.095	19.987	8.200	0.519
994.000	572.687	79.996	19.994	103.095	19.988	8.135	0.505
994.500	572.941	80.005	19.993	103.096	19.987	8.211	0.482
995.000	573.220	79.997	19.994	103.097	19.987	8.204	0.500
995.500	573.460	79.998	19.994	103.102	19.984	8.379	0.526
996.000	573.728	79.996	19.995	103.104	19.987	8.180	0.513
996.500	574.024	79.998	19.995	103.103	19.985	8.323	0.536
997.000	574.281	80.004	19.994	103.098	19.983	8.449	0.559
997.500	574.529	80.003	19.993	103.096	19.984	8.415	0.529
998.000	574.812	80.001	19.993	103.095	19.987	8.194	0.518
998.500	575.044	80.007	19.993	103.094	19.985	8.346	0.523
999.000	575.306	79.998	19.995	103.099	19.985	8.289	0.504
999.500	575.560	79.997	19.994	103.105	19.985	8.295	0.505
1000.000	575.839	80.001	19.993	103.105	19.982	8.537	0.525
1000.500	576.067	80.006	19.993	103.108	19.985	8.299	0.520
1001.000	576.337	80.002	19.994	103.111	19.982	8.537	0.502
1001.500	576.581	80.000	19.994	103.109	19.983	8.437	0.506
1002.000	576.847	80.008	19.994	103.105	19.983	8.463	0.512
1002.500	577.089	79.994	19.995	103.104	19.987	8.169	0.509
1003.000	577.349	80.000	19.994	103.101	19.990	7.959	0.505
1003.500	577.617	79.995	19.997	103.099	19.990	8.007	0.515
1004.000	577.904	80.000	19.995	103.098	19.994	7.704	0.541
1004.500	578.127	80.007	19.995	103.102	19.984	8.406	0.532
1005.000	578.343	79.996	19.996	103.104	19.979	8.704	0.475
1005.500	578.637	79.997	19.995	103.105	19.980	8.631	0.475
1006.000	578.898	80.003	19.995	103.105	19.980	8.678	0.532
1006.500	579.127	80.002	19.995	103.107	19.981	8.583	0.522
1007.000	579.414	79.995	19.995	103.106	19.983	8.466	0.503
1007.500	579.700	79.993	19.995	103.104	19.981	8.566	0.545
1008.000	579.896	80.007	19.994	103.102	19.982	8.492	0.527
1008.500	580.208	79.998	19.994	103.099	19.981	8.564	0.495
1009.000	580.430	79.999	19.995	103.100	19.983	8.432	0.521
1009.500	580.651	80.000	19.994	103.098	19.979	8.744	0.488
1010.000	580.928	80.001	19.994	103.098	19.984	8.411	0.470
1010.500	581.182	80.005	19.994	103.101	19.984	8.356	0.515
1011.000	581.444	79.998	19.995	103.106	19.983	8.454	0.524
1011.500	581.700	79.997	19.995	103.107	19.983	8.445	0.517
1012.000	581.957	80.001	19.994	103.110	19.982	8.538	0.515
1012.500	582.192	80.003	19.995	103.110	19.982	8.493	0.503
1013.000	582.458	80.000	19.995	103.111	19.982	8.517	0.497
1013.500	582.708	79.999	19.996	103.109	19.985	8.287	0.509
1014.000	582.976	80.001	19.996	103.108	19.983	8.484	0.517
1014.500	583.201	79.999	19.996	103.107	19.984	8.376	0.505
1015.000	583.485	80.006	19.994	103.105	19.983	8.451	0.501
1015.500	583.727	79.996	19.996	103.106	19.982	8.538	0.518
1016.000	583.985	80.004	19.994	103.105	19.981	8.587	0.513
1016.500	584.202	80.002	19.995	103.106	19.980	8.668	0.487
1017.000	584.458	79.998	19.995	103.105	19.982	8.522	0.474
1017.500	584.706	80.003	19.995	103.107	19.981	8.596	0.488
1018.000	584.945	80.001	19.995	103.106	19.978	8.791	0.495
1018.500	585.220	80.000	19.995	103.106	19.982	8.538	0.500
1019.000	585.489	80.002	19.995	103.101	19.980	8.657	0.529
1019.500	585.758	80.003	19.994	103.096	19.979	8.735	0.541
1020.000	586.035	80.002	19.995	103.096	19.980	8.637	0.542
1020.500	586.293	79.998	19.995	103.095	19.978	8.811	0.540
1021.000	586.530	80.002	19.995	103.092	19.978	8.807	0.515
1021.500	586.771	80.002	19.995	103.097	19.978	8.764	0.487
1022.000	587.033	80.002	19.995	103.102	19.979	8.744	0.490
1022.500	587.289	80.003	19.995	103.100	19.978	8.758	0.510
1023.000	587.511	80.002	19.995	103.098	19.979	8.746	0.498
1023.500	587.765	80.004	19.994	103.098	19.977	8.867	0.477
1024.000	588.049	80.002	19.996	103.099	19.978	8.801	0.507
1024.501	588.281	80.001	19.995	103.099	19.980	8.639	0.526
1025.001	588.535	79.999	19.995	103.101	19.982	8.533	0.501
1025.501	588.833	79.996	19.995	103.102	19.978	8.767	0.519
1026.001	589.029	80.000	19.994	103.104	19.979	8.756	0.523
1026.501	589.294	79.995	19.995	103.104	19.979	8.730	0.477
1027.001	589.531	79.997	19.996	103.103	19.976	8.951	0.481
1027.501	589.781	80.001	19.994	103.103	19.980	8.678	0.495
1028.000	590.056	79.994	19.996	103.105	19.980	8.685	0.506
1028.500	590.330	80.007	19.994	103.102	19.977	8.878	0.537
1029.000	590.545	79.988	19.996	103.102	19.981	8.570	0.519
1029.500	590.791	80.001	19.996	103.098	19.981	8.579	0.475
1030.001	591.052	80.010	19.994	103.098	19.983	8.447	0.484
1030.501	591.305	79.993	19.994	103.097	19.981	8.564	0.510
1031.001	591.519	80.002	19.996	103.103	19.983	8.461	0.490
1031.500	591.777	79.991	19.996	103.097	19.980	8.650	0.470
1032.000	592.015	80.001	19.995	103.094	19.982	8.515	0.484
1032.501	592.280	79.999	19.995	103.094	19.982	8.502	0.499
1033.001	592.549	80.000	19.995	103.093	19.983	8.464	0.518
1033.501	592.781	80.003	19.995	103.091	19.983	8.473	0.518
1034.000	593.013	80.003	19.993	103.098	19.979	8.692	0.483
1034.500	593.296	79.992	19.996	103.106	19.982	8.495	0.490
1035.000	593.544	80.004	19.995	103.107	19.980	8.631	0.523
1035.500	593.816	80.005	19.994	103.110	19.981	8.571	0.525
1036.000	594.030	80.003	19.995	103.113	19.982	8.532	0.503
1036.500	594.309	79.998	19.994	103.112	19.981	8.566	0.490
1037.000	594.573	79.993	19.996	103.111	19.982	8.503	0.518
1037.500	594.816	79.999	19.995	103.109	19.983	8.427	0.525
1038.000	595.123	80.007	19.995	103.104	19.985	8.310	0.529
1038.500	595.341	80.003	19.995	103.102	19.985	8.295	0.537
1039.000	595.592	80.003	19.995	103.102	19.983	8.468	0.497
1039.500	595.876	80.002	19.994	103.100	19.986	8.215	0.502
1040.001	596.076	80.001	19.994	103.103	19.983	8.425	0.510
1040.501	596.372	80.007	19.993	103.105	19.985	8.308	0.490
1041.001	596.647	79.993	19.994	103.103	19.983	8.468	0.533
1041.501	596.886	80.005	19.994	103.106	19.983	8.469	0.542
1042.000	597.075	80.016	19.993	103.110	19.983	8.453	0.471
1042.500	597.404	79.999	19.995	103.111	19.983	8.457	0.473
1043.000	597.657	80.003	19.995	103.112	19.983	8.422	0.550
1043.500	597.932	80.001	19.995	103.112	19.985	8.331	0.555
1044.000	598.171	80.010	19.994	103.110	19.978	8.762	0.521
1044.501	598.445	80.000	19.995	103.107	19.981	8.610	0.514
1045.001	598.695	80.000	19.994	103.100	19.982	8.511	0.519
1045.500	598.946	79.989	19.996	103.101	19.981	8.602	0.513
1046.000	599.164	80.004	19.995	103.099	19.982	8.498	0.485
1046.501	599.422	79.999	19.995	103.099	19.985	8.290	0.472
1047.001	599.677	80.002	19.995	103.101	19.984	8.407	0.494
1047.500	599.915	80.003	19.995	103.104	19.983	8.450	0.503
1048.000	600.160	79.997	19.996	103.105	19.982	8.524	0.488
1048.500	600.460	79.998	19.995	103.106	19.983	8.468	0.515
1049.000	600.675	80.000	19.994	103.105	19.981	8.602	0.530
1049.500	600.941	80.003	19.995	103.105	19.982	8.502	0.498
1050.000	601.203	80.002	19.995	103.106	19.980	8.630	0.505
1050.500	601.463	80.001	19.995	103.105	19.983	8.422	0.525
1051.000	601.717	80.004	19.995	103.105	19.986	8.266	0.518
1051.500	601.988	80.002	19.995	103.104	19.983	8.455	0.520
1052.000	602.231	80.006	19.995	103.105	19.984	8.375	0.520
1052.500	602.498	80.000	19.994	103.103	19.984	8.364	0.512
1053.000	602.765	80.000	19.994	103.104	19.982	8.513	0.522
1053.500	603.039	80.001	19.995	103.106	19.983	8.453	0.538
1054.000	603.279	80.001	19.995	103.108	19.983	8.483	0.528
1054.500	603.523	80.002	19.994	103.109	19.983	8.470	0.499
1055.000	603.793	80.001	19.994	103.112	19.985	8.321	0.499
1055.500	604.056	80.002	19.994	103.113	19.985	8.341	0.523
1056.000	604.318	80.000	19.995	103.113	19.981	8.616	0.529
1056.500	604.606	80.000	19.994	103.112	19.983	8.451	0.538
1057.000	604.867	80.000	19.995	103.114	19.981	8.557	0.549
1057.500	605.084	80.002	19.995	103.113	19.984	8.388	0.513
1058.000	605.332	79.998	19.994	103.113	19.984	8.396	0.471
1058.500	605.609	79.999	19.995	103.111	19.983	8.446	0.496
1059.000	605.883	80.007	19.994	103.111	19.983	8.466	0.539
1059.501	606.125	80.000	19.994	103.111	19.986	8.232	0.533
1060.001	606.403	79.999	19.995	103.112	19.982	8.535	0.518
1060.500	606.669	80.001	19.994	103.112	19.983	8.424	0.532
1061.000	606.961	80.005	19.993	103.113	19.987	8.173	0.551
1061.500	607.193	79.999	19.994	103.114	19.983	8.468	0.541
1062.001	607.451	80.000	19.993	103.113	19.983	8.483	0.507
1062.501	607.765	80.002	19.995	103.112	19.983	8.433	0.531
1063.000	608.018	80.002	19.995	103.112	19.986	8.243	0.570
1063.500	608.259	80.000	19.996	103.113	19.981	8.615	0.531
1064.001	608.549	80.001	19.994	103.112	19.984	8.399	0.513
1064.501	608.819	80.001	19.994	103.110	19.981	8.555	0.546
1065.000	609.076	79.998	19.995	103.106	19.983	8.473	0.544
1065.500	609.344	80.002	19.994	103.104	19.983	8.433	0.526
1066.000	609.576	80.001	19.995	103.104	19.984	8.386	0.512
1066.500	609.866	80.001	19.994	103.104	19.981	8.595	0.511
1067.000	610.116	79.999	19.994	103.105	19.981	8.565	0.531
1067.500	610.392	79.998	19.996	103.108	19.982	8.500	0.533
1068.000	610.632	80.000	19.995	103.109	19.983	8.464	0.521
1068.500	610.959	80.003	19.993	103.108	19.983	8.472	0.542
1069.000	611.189	79.996	19.995	103.109	19.982	8.498	0.562
1069.500	611.462	80.001	19.994	103.110	19.981	8.609	0.530
1070.000	611.720	80.000	19.994	103.110	19.983	8.475	0.517
1070.500	611.994	80.001	19.994	103.111	19.980	8.682	0.531
1071.001	612.267	80.001	19.994	103.111	19.981	8.600	0.539
1071.501	612.561	80.002	19.994	103.110	19.982	8.544	0.557
1072.000	612.787	80.000	19.995	103.111	19.982	8.501	0.544
1072.501	613.071	80.001	19.995	103.110	19.982	8.519	0.515
1073.001	613.341	80.003	19.995	103.111	19.982	8.515	0.532
1073.500	613.587	79.998	19.995	103.110	19.983	8.463	0.535
1074.000	613.890	80.000	19.995	103.108	19.984	8.378	0.533
1074.500	614.156	80.000	19.994	103.107	19.984	8.377	0.559
1075.000	614.419	80.000	19.995	103.107	19.981	8.583	0.549
1075.500	614.686	80.000	19.993	103.107	19.981	8.600	0.530
1076.000	614.975	80.000	19.994	103.107	19.980	8.685	0.542
1076.500	615.235	80.000	19.994	103.109	19.982	8.543	0.552
1077.000	615.513	79.999	19.994	103.110	19.980	8.641	0.544
1077.500	615.753	80.003	19.993	103.110	19.984	8.387	0.528
1078.000	616.042	80.000	19.994	103.110	19.982	8.524	0.524
1078.500	616.286	80.003	19.994	103.109	19.982	8.553	0.532
1079.001	616.582	80.001	19.994	103.109	19.984	8.401	0.536
1079.501	616.848	79.999	19.994	103.109	19.981	8.602	0.551
1080.000	617.109	80.000	19.995	103.108	19.982	8.488	0.545
1080.500	617.385	80.001	19.994	103.108	19.982	8.503	0.532
1081.000	617.621	79.999	19.995	103.108	19.984	8.371	0.525
1081.500	617.936	80.000	19.994	103.108	19.979	8.699	0.532
1082.000	618.208	80.000	19.994	103.108	19.982	8.509	0.569
1082.500	618.424	79.999	19.994	103.105	19.979	8.743	0.537
1083.000	618.689	80.000	19.993	103.101	19.983	8.420	0.484
1083.500	618.979	79.999	19.995	103.099	19.981	8.598	0.518
1084.000	619.238	79.998	19.995	103.097	19.983	8.424	0.552
1084.500	619.508	79.999	19.995	103.097	19.984	8.399	0.540
1085.000	619.809	80.000	19.993	103.100	19.983	8.437	0.550
1085.500	620.026	79.998	19.994	103.104	19.983	8.452	0.544
1086.000	620.299	79.999	19.995	103.106	19.981	8.598	0.504
1086.500	620.578	79.998	19.994	103.108	19.982	8.506	0.521
1087.000	620.831	80.001	19.994	103.109	19.984	8.366	0.542
1087.500	621.099	80.001	19.994	103.111	19.981	8.569	0.526
1088.000	621.368	80.001	19.995	103.110	19.984	8.387	0.528
1088.500	621.607	80.002	19.994	103.112	19.985	8.312	0.523
1089.000	621.895	79.997	19.995	103.111	19.982	8.500	0.518
1089.500	622.134	79.994	19.995	103.107	19.984	8.361	0.527
1090.000	622.399	80.004	19.994	103.104	19.982	8.500	0.516
1090.500	622.645	79.999	19.994	103.105	19.982	8.519	0.508
1091.000	622.924	80.000	19.994	103.105	19.983	8.476	0.518
1091.500	623.215	80.000	19.994	103.105	19.984	8.417	0.547
1092.000	623.479	80.001	19.995	103.109	19.984	8.372	0.562
1092.500	623.735	80.002	19.994	103.112	19.983	8.422	0.537
1093.000	623.993	79.999	19.994	103.111	19.982	8.513	0.517
1093.501	624.264	80.002	19.994	103.111	19.979	8.699	0.522
1094.001	624.545	79.999	19.994	103.111	19.983	8.424	0.541
1094.501	624.785	80.002	19.993	103.111	19.984	8.352	0.537
1095.001	625.062	80.001	19.994	103.111	19.985	8.307	0.519
1095.500	625.313	79.999	19.994	103.111	19.986	8.268	0.522
1096.000	625.544	80.001	19.994	103.111	19.981	8.616	0.505
1096.500	625.842	80.001	19.993	103.111	19.983	8.445	0.506
1097.000	626.113	80.001	19.994	103.113	19.981	8.609	0.549
1097.500	626.353	79.992	19.995	103.113	19.982	8.488	0.541
1098.000	626.625	80.000	19.995	103.113	19.982	8.545	0.512
1098.500	626.859	80.003	19.993	103.112	19.984	8.402	0.509
1099.000	627.121	80.004	19.993	103.112	19.982	8.545	0.501
1099.500	627.413	80.003	19.994	103.111	19.982	8.552	0.525
1100.000	627.661	80.001	19.994	103.112	19.980	8.638	0.547
1100.500	627.923	80.002	19.994	103.113	19.979	8.753	0.525
1101.000	628.207	80.000	19.995	103.114	19.980	8.660	0.528
1101.500	628.481	80.001	19.995	103.117	19.983	8.446	0.552
1102.000	628.725	80.002	19.994	103.118	19.982	8.534	0.538
1102.500	629.008	80.002	19.995	103.117	19.980	8.670	0.522
1103.000	629.303	80.002	19.994	103.117	19.982	8.526	0.552
1103.500	629.541	80.003	19.994	103.116	19.981	8.610	0.555
1104.000	629.818	80.003	19.995	103.114	19.981	8.588	0.524
1104.500	630.077	80.002	19.995	103.113	19.980	8.662	0.526
1105.000	630.335	80.001	19.994	103.113	19.981	8.600	0.527
1105.500	630.582	80.003	19.994	103.115	19.981	8.572	0.511
1106.000	630.893	79.999	19.994	103.117	19.981	8.611	0.531
1106.500	631.130	80.002	19.995	103.120	19.979	8.754	0.553
1107.000	631.393	80.001	19.995	103.122	19.981	8.606	0.524
1107.500	631.664	80.002	19.994	103.126	19.981	8.567	0.517
1108.000	631.934	80.001	19.995	103.126	19.983	8.448	0.537
1108.500	632.207	80.004	19.993	103.125	19.981	8.601	0.542
1109.000	632.463	80.000	19.994	103.122	19.981	8.612	0.536
1109.500	632.721	80.002	19.995	103.120	19.982	8.543	0.521
1110.000	632.985	80.000	19.994	103.115	19.981	8.622	0.518
1110.500	633.232	80.000	19.995	103.113	19.979	8.694	0.517
1111.000	633.480	80.003	19.995	103.115	19.981	8.619	0.503
1111.500	633.762	80.001	19.995	103.117	19.980	8.636	0.512
1112.000	634.034	80.001	19.994	103.118	19.980	8.626	0.542
1112.500	634.305	79.999	19.996	103.118	19.982	8.526	0.549
1113.000	634.577	80.000	19.995	103.119	19.981	8.565	0.544
1113.500	634.876	80.000	19.995	103.119	19.979	8.753	0.557
1114.000	635.120	80.000	19.996	103.118	19.978	8.762	0.557
1114.500	635.389	79.999	19.994	103.117	19.979	8.723	0.527
1115.000	635.658	80.001	19.995	103.119	19.980	8.660	0.526
1115.500	635.905	79.999	19.995	103.117	19.979	8.729	0.527
1116.000	636.183	80.002	19.995	103.115	19.978	8.773	0.521
1116.501	636.428	80.002	19.996	103.113	19.977	8.829	0.524
1117.001	636.690	79.998	19.995	103.113	19.977	8.861	0.515
1117.500	636.956	80.002	19.996	103.111	19.978	8.824	0.517
1118.000	637.228	80.001	19.995	103.112	19.976	8.916	0.533
1118.500	637.479	80.003	19.994	103.113	19.978	8.788	0.531
1119.000	637.721	80.000	19.995	103.117	19.978	8.814	0.508
1119.501	637.995	80.001	19.997	103.118	19.978	8.764	0.504
1120.001	638.304	80.000	19.995	103.117	19.976	8.947	0.549
1120.500	638.506	80.002	19.994	103.120	19.978	8.779	0.547
1121.000	638.806	80.000	19.995	103.123	19.977	8.881	0.507
1121.500	639.032	80.002	19.995	103.126	19.976	8.946	0.514
1122.000	639.305	80.003	19.995	103.131	19.978	8.817	0.512
1122.500	639.580	80.000	19.994	103.137	19.976	8.910	0.523
1123.001	639.811	79.999	19.995	103.136	19.978	8.816	0.527
1123.501	640.119	80.001	19.995	103.133	19.975	8.991	0.523
1124.000	640.383	80.002	19.995	103.131	19.976	8.926	0.555
1124.500	640.643	80.002	19.995	103.134	19.974	9.040	0.548
1125.000	640.883	80.003	19.994	103.132	19.975	8.975	0.512
1125.500	641.174	80.002	19.994	103.130	19.975	9.004	0.516
1126.000	641.410	80.002	19.995	103.135	19.972	9.201	0.529
1126.500	641.695	80.003	19.993	103.137	19.972	9.177	0.524
1127.000	641.978	80.001	19.996	103.136	19.970	9.320	0.545
1127.500	642.222	80.004	19.993	103.139	19.971	9.244	0.547
1128.000	642.477	80.003	19.995	103.140	19.976	8.956	0.513
1128.500	642.717	80.003	19.993	103.138	19.973	9.119	0.497
1129.000	642.970	80.004	19.995	103.136	19.976	8.943	0.494
1129.500	643.269	80.004	19.994	103.136	19.976	8.902	0.522
1130.000	643.504	80.003	19.994	103.136	19.975	8.993	0.543
1130.500	643.761	80.003	19.995	103.140	19.976	8.909	0.513
1131.001	644.036	80.004	19.995	103.144	19.978	8.792	0.512
1131.501	644.284	80.002	19.994	103.143	19.978	8.820	0.527
1132.000	644.558	80.001	19.995	103.136	19.974	9.062	0.523
1132.500	644.817	80.004	19.994	103.131	19.975	9.004	0.528
1133.000	645.093	80.001	19.995	103.131	19.972	9.179	0.534
1133.500	645.334	80.002	19.995	103.129	19.974	9.079	0.526
1134.000	645.597	80.002	19.995	103.131	19.975	8.999	0.510
1134.500	645.859	80.001	19.995	103.138	19.973	9.153	0.515
1135.000	646.141	80.002	19.996	103.141	19.974	9.075	0.535
1135.500	646.382	80.000	19.995	103.142	19.974	9.043	0.534
1136.001	646.639	80.000	19.996	103.144	19.973	9.121	0.510
1136.501	646.918	80.001	19.995	103.142	19.971	9.264	0.517
1137.000	647.178	80.001	19.996	103.143	19.967	9.524	0.537
1137.500	647.422	80.002	19.995	103.139	19.969	9.428	0.521
1138.000	647.662	80.001	19.995	103.136	19.970	9.365	0.494
1138.500	647.976	80.002	19.995	103.136	19.972	9.239	0.520
1139.000	648.232	80.001	19.996	103.138	19.970	9.311	0.562
1139.500	648.503	79.999	19.996	103.138	19.971	9.252	0.548
1140.000	648.768	79.999	19.996	103.143	19.971	9.267	0.532
1140.500	648.984	80.000	19.995	103.145	19.970	9.375	0.509
1141.000	649.256	79.999	19.996	103.144	19.971	9.245	0.484
1141.500	649.535	80.000	19.996	103.142	19.971	9.263	0.519
1142.000	649.811	80.000	19.996	103.140	19.974	9.098	0.553
1142.500	650.047	80.000	19.996	103.140	19.971	9.271	0.533
1143.000	650.396	80.001	19.995	103.141	19.969	9.429	0.548
1143.500	650.552	79.999	19.996	103.142	19.970	9.373	0.545
1144.000	650.897	80.001	19.996	103.144	19.974	9.072	0.503
1144.500	651.196	80.000	19.995	103.146	19.973	9.111	0.572
1145.001	651.458	80.000	19.996	103.146	19.973	9.157	0.602
1145.501	651.725	80.003	19.996	103.144	19.970	9.324	0.545
1146.001	651.897	79.999	19.996	103.143	19.971	9.252	0.484
1146.500	652.206	80.001	19.995	103.140	19.969	9.401	0.460
1147.000	652.395	80.000	19.996	103.136	19.970	9.313	0.490
1147.500	652.723	80.000	19.995	103.137	19.970	9.319	0.508
1148.000	652.969	80.002	19.994	103.138	19.968	9.459	0.546
1148.500	653.224	79.999	19.995	103.138	19.966	9.596	0.537
1149.000	653.482	80.002	19.994	103.141	19.965	9.656	0.507
1149.500	653.734	80.001	19.995	103.145	19.970	9.364	0.512
1150.000	654.017	80.000	19.995	103.145	19.970	9.370	0.523
1150.500	654.301	80.001	19.994	103.145	19.968	9.446	0.551
1151.000	654.513	80.002	19.994	103.145	19.970	9.320	0.531
1151.500	654.790	79.999	19.995	103.148	19.968	9.481	0.492
1152.000	655.041	80.001	19.993	103.148	19.969	9.419	0.508
1152.500	655.334	80.002	19.995	103.148	19.968	9.453	0.536
1153.001	655.595	79.999	19.995	103.148	19.969	9.380	0.549
1153.501	655.839	80.001	19.994	103.148	19.967	9.532	0.530
1154.000	656.115	80.000	19.993	103.147	19.964	9.760	0.512
1154.500	656.379	80.003	19.994	103.146	19.966	9.604	0.530
1155.001	656.647	80.002	19.994	103.146	19.968	9.453	0.536
1155.501	656.896	80.000	19.994	103.147	19.969	9.407	0.525
1156.000	657.143	80.000	19.993	103.148	19.967	9.517	0.507
1156.500	657.398	80.001	19.994	103.147	19.968	9.500	0.499
1157.000	657.686	80.000	19.994	103.149	19.970	9.353	0.522
1157.500	657.937	80.000	19.995	103.149	19.967	9.530	0.541
1158.001	658.180	80.003	19.994	103.149	19.968	9.465	0.517
1158.501	658.446	80.001	19.993	103.149	19.967	9.517	0.502
1159.000	658.726	80.002	19.995	103.150	19.965	9.668	0.527
1159.500	659.001	80.001	19.994	103.148	19.965	9.657	0.551
1160.000	659.251	80.002	19.994	103.149	19.967	9.534	0.541
1160.500	659.516	80.001	19.995	103.150	19.968	9.449	0.520
1161.001	659.760	79.998	19.994	103.152	19.966	9.614	0.511
1161.501	659.996	80.000	19.995	103.156	19.969	9.406	0.494
1162.000	660.237	80.000	19.994	103.164	19.966	9.636	0.479
1162.501	660.513	80.000	19.994	103.168	19.963	9.811	0.498
1163.001	660.800	80.000	19.994	103.168	19.965	9.705	0.540
1163.500	661.034	80.001	19.995	103.167	19.968	9.472	0.542
1164.000	661.282	80.000	19.995	103.163	19.971	9.305	0.501
1164.501	661.530	80.000	19.994	103.155	19.969	9.393	0.488
1165.001	661.825	80.000	19.995	103.151	19.967	9.551	0.520
1165.500	662.075	80.000	19.996	103.151	19.966	9.594	0.544
1166.000	662.356	80.000	19.995	103.151	19.967	9.573	0.538
1166.500	662.586	80.000	19.995	103.153	19.964	9.719	0.521
1167.000	662.829	80.000	19.995	103.153	19.964	9.721	0.492
1167.501	663.107	79.999	19.995	103.156	19.967	9.574	0.497
1168.001	663.364	79.999	19.994	103.159	19.967	9.569	0.528
1168.501	663.607	79.999	19.995	103.158	19.967	9.542	0.518
1169.001	663.851	79.999	19.995	103.157	19.970	9.371	0.494
1169.500	664.100	80.000	19.995	103.160	19.966	9.620	0.490
1170.000	664.378	80.001	19.995	103.163	19.967	9.572	0.510
1170.500	664.605	80.000	19.994	103.165	19.964	9.776	0.515
1171.000	664.909	80.001	19.995	103.166	19.960	10.012	0.518
1171.500	665.131	80.001	19.995	103.166	19.964	9.778	0.528
1172.000	665.361	80.000	19.993	103.165	19.963	9.796	0.489
1172.500	665.616	80.002	19.992	103.161	19.964	9.770	0.469
1173.000	665.877	79.999	19.994	103.157	19.963	9.819	0.501
1173.500	666.173	80.000	19.995	103.156	19.965	9.713	0.537
1174.000	666.393	80.000	19.995	103.157	19.964	9.776	0.536
1174.500	666.665	80.001	19.996	103.159	19.959	10.072	0.504
1175.000	666.918	79.999	19.995	103.160	19.961	9.927	0.509
1175.500	667.152	80.001	19.995	103.163	19.960	10.042	0.506
1176.000	667.422	80.001	19.994	103.164	19.962	9.891	0.496
1176.500	667.647	80.000	19.995	103.163	19.959	10.107	0.499
1177.000	667.880	79.999	19.995	103.163	19.961	9.979	0.476
1177.500	668.181	79.999	19.995	103.168	19.958	10.141	0.496
1178.000	668.472	80.003	19.993	103.172	19.961	9.933	0.563
1178.500	668.701	80.002	19.994	103.176	19.958	10.165	0.556
1179.000	668.944	80.000	19.995	103.182	19.961	9.987	0.496
1179.501	669.278	80.000	19.995	103.185	19.961	9.927	0.525
1180.001	669.429	79.999	19.994	103.186	19.960	10.016	0.531
1180.501	669.689	80.003	19.995	103.185	19.963	9.853	0.448
1181.001	669.942	79.998	19.995	103.187	19.960	10.054	0.462
1181.500	670.222	80.001	19.993	103.186	19.961	9.946	0.524
1182.000	670.482	80.002	19.993	103.184	19.957	10.238	0.537
1182.500	670.717	80.002	19.993	103.184	19.961	9.981	0.517
1183.000	670.986	80.003	19.993	103.183	19.961	9.972	0.499
1183.500	671.226	80.004	19.992	103.182	19.960	10.009	0.506
1184.000	671.463	80.001	19.994	103.182	19.955	10.345	0.493
1184.500	671.700	80.002	19.993	103.185	19.958	10.165	0.475
1185.000	671.947	80.003	19.994	103.185	19.961	9.981	0.479
1185.500	672.204	80.002	19.994	103.184	19.957	10.210	0.494
1186.000	672.454	80.002	19.994	103.184	19.959	10.118	0.506
1186.500	672.714	80.003	19.994	103.186	19.957	10.258	0.509
1187.000	672.906	80.001	19.994	103.186	19.956	10.332	0.481
1187.500	673.192	80.004	19.993	103.186	19.953	10.515	0.465
1188.000	673.461	80.002	19.994	103.189	19.956	10.286	0.517
1188.500	673.697	80.001	19.993	103.189	19.955	10.336	0.531
1189.000	673.941	80.003	19.993	103.190	19.956	10.329	0.492
1189.500	674.210	80.002	19.993	103.189	19.954	10.407	0.496
1190.000	674.455	80.002	19.993	103.190	19.955	10.345	0.513
1190.500	674.764	80.001	19.994	103.189	19.955	10.373	0.534
1191.000	675.021	80.002	19.993	103.190	19.955	10.351	0.560
1191.500	675.267	80.000	19.995	103.189	19.957	10.245	0.535
1192.000	675.502	80.002	19.995	103.190	19.956	10.276	0.492
1192.500	675.761	80.002	19.993	103.189	19.954	10.451	0.487
1193.000	676.032	80.001	19.994	103.190	19.954	10.442	0.512
1193.500	676.297	80.001	19.994	103.190	19.954	10.431	0.533
1194.000	676.562	80.003	19.994	103.189	19.953	10.517	0.533
1194.500	676.787	80.000	19.995	103.188	19.955	10.398	0.510
1195.000	677.051	80.001	19.994	103.188	19.952	10.578	0.489
1195.500	677.279	80.000	19.994	103.187	19.955	10.379	0.491
1196.000	677.551	80.003	19.993	103.187	19.955	10.372	0.496
1196.501	677.806	80.003	19.994	103.187	19.953	10.490	0.514
1197.001	678.068	80.002	19.994	103.187	19.951	10.641	0.522
1197.500	678.320	80.001	19.995	103.187	19.953	10.507	0.515
1198.000	678.547	80.000	19.995	103.187	19.951	10.645	0.497
1198.501	678.781	80.002	19.993	103.187	19.952	10.575	0.470
1199.001	679.027	80.003	19.993	103.187	19.951	10.664	0.470
1199.500	679.310	80.000	19.995	103.188	19.953	10.502	0.504
1200.000	679.539	80.003	19.995	103.189	19.953	10.504	0.520
1200.500	679.810	80.001	19.994	103.190	19.952	10.606	0.506
1201.000	680.043	80.002	19.994	103.189	19.952	10.575	0.502
1201.500	680.324	80.004	19.994	103.189	19.950	10.692	0.509
1202.000	680.559	80.002	19.994	103.188	19.951	10.643	0.515
1202.500	680.786	80.002	19.994	103.186	19.952	10.593	0.489
1203.000	681.079	80.002	19.994	103.186	19.948	10.880	0.492
1203.500	681.336	80.003	19.995	103.186	19.952	10.579	0.535
1204.000	681.582	80.003	19.995	103.187	19.952	10.605	0.526
1204.500	681.851	80.003	19.995	103.188	19.950	10.729	0.509
1205.000	682.062	80.003	19.994	103.194	19.948	10.868	0.497
1205.500	682.308	80.003	19.996	103.193	19.950	10.691	0.468
1206.000	682.603	80.003	19.994	103.193	19.949	10.780	0.499
1206.501	682.810	80.004	19.994	103.193	19.947	10.884	0.522
1207.001	683.059	80.003	19.996	103.192	19.949	10.757	0.479
1207.500	683.287	80.003	19.995	103.187	19.946	10.984	0.466
1208.000	683.563	80.005	19.994	103.187	19.948	10.839	0.491
1208.500	683.811	80.003	19.995	103.190	19.948	10.830	0.515
1209.000	684.059	80.000	19.996	103.193	19.945	11.025	0.510
1209.500	684.321	80.004	19.994	103.195	19.947	10.938	0.503
1210.000	684.575	80.002	19.994	103.194	19.944	11.135	0.513
1210.500	684.813	80.004	19.995	103.194	19.944	11.133	0.504
1211.001	685.121	80.001	19.995	103.192	19.945	11.076	0.519
1211.501	685.325	80.003	19.993	103.189	19.947	10.936	0.529
1212.001	685.577	80.003	19.994	103.192	19.944	11.094	0.484
1212.501	685.893	80.003	19.994	103.195	19.943	11.182	0.512
1213.001	686.081	80.004	19.994	103.202	19.943	11.173	0.536
1213.500	686.362	80.002	19.995	103.207	19.940	11.387	0.487
1214.000	686.597	80.003	19.994	103.213	19.944	11.149	0.492
1214.500	686.872	80.003	19.995	103.214	19.945	11.062	0.513
1215.000	687.069	80.003	19.994	103.215	19.944	11.101	0.491
1215.501	687.346	80.002	19.994	103.210	19.942	11.255	0.473
1216.001	687.597	80.004	19.994	103.205	19.942	11.276	0.501
1216.500	687.859	80.002	19.995	103.203	19.942	11.248	0.520
1217.000	688.093	80.002	19.995	103.199	19.945	11.077	0.504
1217.500	688.370	80.003	19.994	103.195	19.946	11.008	0.504
1218.000	688.661	80.001	19.995	103.196	19.945	11.043	0.540
1218.500	688.881	80.001	19.996	103.198	19.946	11.015	0.540
1219.000	689.139	80.000	19.996	103.196	19.943	11.216	0.494
1219.500	689.358	80.001	19.996	103.202	19.943	11.198	0.478
1220.000	689.625	79.999	19.996	103.210	19.946	10.971	0.482
1220.500	689.848	80.001	19.994	103.214	19.942	11.291	0.488
1221.000	690.100	80.001	19.993	103.212	19.943	11.173	0.482
1221.500	690.323	80.003	19.995	103.215	19.944	11.125	0.475
1222.000	690.592	80.000	19.994	103.216	19.943	11.188	0.483
1222.500	690.868	80.000	19.994	103.216	19.943	11.196	0.518
1223.000	691.079	80.001	19.995	103.218	19.943	11.177	0.516
1223.500	691.344	79.997	19.994	103.222	19.947	10.932	0.482
1224.000	691.588	80.001	19.995	103.223	19.944	11.124	0.492
1224.500	691.819	80.001	19.995	103.224	19.943	11.187	0.492
1225.000	692.107	80.001	19.994	103.224	19.944	11.111	0.497
1225.500	692.369	80.001	19.994	103.224	19.942	11.246	0.534
1226.000	692.611	80.000	19.996	103.226	19.945	11.068	0.527
1226.501	692.873	80.000	19.996	103.226	19.945	11.036	0.504
1227.001	693.071	80.000	19.996	103.226	19.942	11.228	0.482
1227.500	693.344	80.000	19.996	103.226	19.944	11.105	0.466
1228.000	693.582	80.000	19.994	103.226	19.945	11.036	0.491
1228.500	693.865	79.999	19.996	103.226	19.942	11.271	0.516
1229.000	694.114	80.000	19.995	103.226	19.944	11.142	0.526
1229.501	694.374	79.999	19.996	103.226	19.947	10.921	0.520
1230.001	694.644	80.000	19.995	103.226	19.945	11.081	0.520
1230.500	694.852	80.000	19.996	103.226	19.946	11.018	0.504
1231.000	695.128	80.002	19.996	103.226	19.942	11.283	0.481
1231.500	695.384	80.000	19.995	103.226	19.944	11.112	0.508
1232.000	695.650	79.999	19.994	103.226	19.941	11.352	0.527
1232.500	695.912	79.999	19.996	103.227	19.941	11.330	0.525
1233.000	696.160	80.001	19.996	103.227	19.944	11.131	0.519
1233.500	696.393	80.001	19.996	103.227	19.941	11.326	0.496
1234.000	696.649	79.999	19.995	103.227	19.940	11.389	0.485
1234.500	696.913	80.002	19.995	103.228	19.942	11.276	0.505
1235.000	697.151	80.001	19.996	103.230	19.942	11.274	0.511
1235.500	697.428	80.000	19.994	103.230	19.938	11.521	0.508
1236.000	697.695	80.001	19.995	103.231	19.941	11.352	0.529
1236.500	697.932	80.000	19.996	103.231	19.942	11.280	0.523
1237.000	698.162	80.001	19.995	103.231	19.944	11.131	0.485
1237.500	698.432	80.001	19.997	103.229	19.939	11.488	0.484
1238.000	698.709	80.001	19.996	103.229	19.938	11.527	0.523
1238.500	698.922	79.999	19.996	103.228	19.940	11.406	0.518
1239.000	699.182	80.001	19.996	103.230	19.941	11.337	0.481
1239.500	699.464	80.001	19.997	103.232	19.938	11.542	0.508
1240.000	699.714	80.002	19.996	103.233	19.938	11.537	0.538
1240.500	699.982	80.001	19.995	103.233	19.938	11.522	0.525
1241.000	700.224	80.001	19.996	103.233	19.937	11.570	0.514
1241.500	700.467	80.001	19.995	103.231	19.937	11.611	0.498
1242.000	700.729	80.002	19.995	103.228	19.938	11.561	0.495
1242.500	700.980	80.001	19.995	103.227	19.936	11.635	0.509
1243.000	701.269	80.000	19.995	103.227	19.937	11.607	0.527
1243.500	701.515	80.002	19.997	103.228	19.937	11.607	0.538
1244.000	701.766	80.001	19.996	103.228	19.935	11.741	0.516
1244.500	701.990	80.002	19.994	103.227	19.938	11.552	0.486
1245.000	702.257	80.001	19.996	103.226	19.937	11.600	0.483
1245.500	702.493	80.002	19.995	103.226	19.936	11.663	0.497
1246.000	702.766	80.000	19.995	103.226	19.936	11.637	0.506
1246.501	703.008	80.000	19.995	103.226	19.934	11.819	0.512
1247.001	703.286	80.001	19.993	103.227	19.937	11.592	0.518
1247.501	703.519	80.001	19.994	103.229	19.936	11.661	0.515
1248.001	703.775	80.001	19.994	103.228	19.933	11.873	0.500
1248.501	704.063	80.000	19.994	103.229	19.935	11.758	0.517
1249.001	704.268	80.001	19.995	103.229	19.929	12.117	0.519
1249.500	704.540	80.000	19.994	103.229	19.932	11.927	0.485
1250.000	704.835	80.000	19.994	103.229	19.932	11.942	0.522
1250.500	705.042	80.000	19.994	103.230	19.929	12.117	0.535
1251.000	705.336	80.000	19.994	103.230	19.933	11.856	0.502
1251.500	705.581	80.000	19.994	103.230	19.931	12.011	0.520
1252.000	705.839	80.000	19.994	103.230	19.928	12.245	0.520
1252.500	706.069	80.000	19.994	103.230	19.931	12.014	0.495
1253.000	706.355	80.000	19.994	103.230	19.932	11.923	0.502
1253.500	706.541	80.000	19.994	103.230	19.930	12.068	0.494
1254.000	706.828	80.001	19.994	103.230	19.930	12.087	0.472
1254.500	707.089	80.001	19.995	103.231	19.928	12.221	0.511
1255.000	707.325	79.999	19.995	103.231	19.931	12.024	0.523
1255.500	707.606	80.000	19.995	103.231	19.930	12.093	0.507
1256.000	707.818	80.000	19.995	103.232	19.930	12.106	0.505
1256.500	708.073	79.999	19.994	103.232	19.930	12.072	0.480
1257.000	708.351	80.001	19.994	103.230	19.931	11.990	0.500
1257.501	708.590	80.001	19.995	103.228	19.935	11.769	0.525
1258.001	708.841	80.001	19.994	103.228	19.932	11.938	0.503
1258.501	709.098	80.000	19.994	103.228	19.931	12.029	0.499
1259.000	709.347	80.001	19.996	103.227	19.929	12.156	0.507
1259.500	709.563	80.001	19.994	103.228	19.930	12.077	0.485
1260.000	709.866	80.001	19.995	103.228	19.931	11.981	0.492
1260.500	710.113	80.001	19.995	103.228	19.931	11.999	0.534
1261.000	710.358	80.002	19.995	103.227	19.932	11.975	0.521
1261.500	710.641	80.002	19.994	103.227	19.932	11.968	0.510
1262.000	710.871	80.000	19.994	103.229	19.931	11.995	0.520
1262.500	711.163	80.003	19.994	103.229	19.929	12.150	0.517
1263.000	711.379	80.002	19.996	103.229	19.931	12.035	0.515
1263.500	711.669	80.001	19.994	103.228	19.929	12.116	0.507
1264.000	711.904	80.004	19.994	103.228	19.932	11.969	0.515
1264.500	712.147	80.004	19.994	103.227	19.931	12.025	0.502
1265.000	712.418	80.002	19.995	103.226	19.929	12.180	0.497
1265.500	712.653	80.004	19.995	103.228	19.927	12.310	0.510
1266.000	712.911	80.001	19.994	103.228	19.931	11.984	0.500
1266.500	713.161	80.004	19.994	103.228	19.926	12.321	0.500
1267.000	713.421	80.002	19.995	103.227	19.929	12.148	0.508
1267.500	713.665	80.003	19.994	103.228	19.931	12.019	0.507
1268.000	713.937	80.002	19.994	103.228	19.933	11.885	0.510
1268.500	714.170	80.003	19.995	103.229	19.930	12.081	0.511
1269.000	714.457	80.003	19.995	103.229	19.927	12.272	0.512
1269.500	714.697	80.003	19.995	103.229	19.930	12.095	0.523
1270.000	714.982	80.004	19.994	103.228	19.931	11.985	0.526
1270.500	715.272	80.004	19.995	103.226	19.933	11.873	0.550
1271.000	715.506	80.004	19.994	103.224	19.931	12.009	0.549
1271.500	715.751	80.003	19.995	103.225	19.930	12.065	0.501
1272.000	716.014	80.005	19.993	103.225	19.928	12.218	0.494
1272.500	716.257	80.002	19.994	103.225	19.928	12.207	0.507
1273.000	716.538	80.004	19.994	103.225	19.929	12.111	0.515
1273.501	716.775	80.002	19.995	103.225	19.928	12.222	0.521
1274.001	717.045	80.002	19.994	103.225	19.929	12.127	0.513
1274.500	717.309	80.002	19.993	103.225	19.927	12.265	0.520
1275.000	717.565	80.004	19.994	103.224	19.927	12.272	0.526
1275.500	717.813	80.002	19.995	103.224	19.928	12.203	0.512
1276.000	718.046	80.002	19.994	103.225	19.926	12.330	0.493
1276.500	718.308	80.003	19.995	103.224	19.928	12.239	0.488
1277.000	718.566	80.003	19.995	103.223	19.926	12.341	0.508
1277.500	718.812	80.002	19.996	103.222	19.928	12.190	0.512
1278.000	719.099	80.002	19.995	103.223	19.930	12.043	0.519
1278.500	719.324	80.002	19.993	103.221	19.928	12.240	0.522
1279.000	719.587	80.003	19.995	103.222	19.929	12.119	0.500
1279.500	719.828	80.003	19.994	103.221	19.927	12.311	0.496
1280.000	720.063	80.002	19.995	103.219	19.927	12.301	0.490
1280.500	720.344	80.004	19.994	103.215	19.926	12.329	0.496
1281.000	720.617	80.002	19.994	103.215	19.929	12.155	0.535
1281.500	720.839	80.004	19.994	103.213	19.927	12.266	0.524
1282.000	721.133	80.002	19.995	103.215	19.928	12.229	0.505
1282.501	721.374	80.002	19.993	103.218	19.929	12.166	0.525
1283.001	721.612	80.004	19.994	103.221	19.929	12.160	0.507
1283.500	721.890	80.003	19.994	103.219	19.925	12.383	0.498
1284.001	722.122	80.004	19.994	103.214	19.929	12.152	0.514
1284.501	722.399	80.003	19.994	103.207	19.930	12.072	0.509
1285.000	722.650	80.004	19.994	103.201	19.928	12.224	0.518
1285.500	722.896	80.004	19.994	103.194	19.928	12.211	0.512
1286.000	723.137	80.003	19.994	103.188	19.928	12.202	0.492
1286.500	723.386	80.004	19.993	103.189	19.929	12.165	0.489
1287.001	723.662	80.004	19.994	103.191	19.931	12.019	0.508
1287.501	723.912	80.003	19.994	103.190	19.928	12.225	0.525
1288.000	724.150	80.004	19.994	103.190	19.927	12.249	0.506
1288.500	724.424	80.003	19.994	103.190	19.930	12.053	0.500
1289.000	724.648	80.004	19.993	103.188	19.928	12.235	0.505
1289.500	724.911	80.004	19.995	103.185	19.926	12.343	0.493
1290.000	725.185	80.006	19.994	103.184	19.926	12.344	0.512
1290.500	725.393	80.004	19.994	103.184	19.926	12.375	0.510
1291.000	725.661	80.007	19.995	103.184	19.927	12.278	0.479
1291.500	725.929	80.005	19.994	103.185	19.925	12.440	0.506
1292.000	726.182	80.002	19.994	103.185	19.923	12.524	0.529
1292.500	726.439	80.003	19.995	103.185	19.928	12.217	0.516
1293.000	726.655	80.004	19.994	103.184	19.927	12.280	0.491
1293.500	726.952	80.004	19.994	103.185	19.927	12.271	0.493
1294.000	727.179	80.004	19.995	103.185	19.928	12.206	0.518
1294.501	727.414	80.004	19.993	103.184	19.929	12.156	0.493
1295.001	727.663	80.003	19.993	103.181	19.930	12.055	0.473
1295.501	727.937	80.004	19.994	103.179	19.930	12.061	0.504
1296.000	728.173	80.002	19.995	103.177	19.930	12.083	0.517
1296.500	728.435	80.002	19.994	103.173	19.930	12.090	0.503
1297.000	728.688	80.002	19.994	103.175	19.931	11.989	0.506
1297.500	728.920	80.004	19.993	103.177	19.931	12.030	0.500
1298.000	729.172	80.002	19.995	103.173	19.929	12.126	0.485
1298.500	729.432	80.002	19.995	103.169	19.932	11.963	0.498
1299.000	729.675	80.003	19.996	103.167	19.930	12.072	0.507
1299.501	729.950	80.001	19.995	103.163	19.930	12.076	0.511
1300.001	730.178	80.000	19.995	103.159	19.931	12.029	0.511
1300.500	730.405	80.001	19.996	103.160	19.929	12.163	0.478
1301.000	730.694	80.002	19.995	103.166	19.931	12.015	0.486
1301.500	730.921	80.001	19.994	103.166	19.929	12.134	0.517
1302.000	731.198	80.001	19.995	103.163	19.932	11.946	0.510
1302.500	731.438	80.001	19.994	103.163	19.932	11.899	0.510
1303.000	731.658	80.002	19.994	103.164	19.931	11.989	0.488
1303.500	731.902	80.002	19.996	103.160	19.931	11.968	0.462
1304.000	732.152	80.000	19.996	103.159	19.931	12.000	0.479
1304.500	732.440	80.002	19.994	103.161	19.930	12.078	0.516
1305.000	732.670	80.002	19.995	103.164	19.933	11.847	0.527
1305.500	732.880	79.999	19.996	103.164	19.932	11.909	0.479
1306.000	733.162	80.002	19.997	103.162	19.933	11.836	0.467
1306.500	733.385	80.001	19.996	103.162	19.933	11.864	0.499
1307.001	733.653	80.003	19.994	103.159	19.933	11.868	0.498
1307.501	733.911	80.000	19.995	103.155	19.932	11.927	0.509
1308.000	734.172	80.001	19.995	103.152	19.933	11.853	0.522
1308.500	734.369	80.002	19.995	103.152	19.932	11.910	0.488
1309.000	734.709	80.001	19.994	103.151	19.932	11.931	0.498
1309.500	734.904	80.000	19.995	103.150	19.933	11.871	0.536
1310.000	735.150	80.001	19.996	103.149	19.934	11.821	0.488
1310.500	735.392	80.002	19.995	103.150	19.933	11.876	0.465
1311.000	735.662	80.001	19.996	103.149	19.931	12.023	0.499
1311.500	735.909	80.001	19.996	103.148	19.934	11.824	0.514
1312.001	736.179	80.001	19.994	103.149	19.929	12.116	0.517
1312.501	736.384	80.000	19.994	103.149	19.932	11.934	0.496
1313.001	736.624	80.000	19.994	103.150	19.930	12.087	0.461
1313.501	736.882	80.001	19.996	103.150	19.933	11.847	0.472
1314.001	737.146	80.001	19.994	103.151	19.933	11.879	0.510
1314.501	737.378	80.002	19.994	103.151	19.932	11.935	0.509
1315.001	737.607	80.001	19.994	103.151	19.930	12.041	0.479
1315.500	737.857	80.001	19.993	103.151	19.932	11.959	0.470
1316.000	738.120	80.002	19.994	103.151	19.929	12.128	0.496
1316.501	738.333	80.002	19.994	103.151	19.930	12.036	0.494
1317.001	738.611	80.002	19.996	103.151	19.932	11.935	0.484
1317.500	738.870	80.002	19.994	103.150	19.932	11.940	0.514
1318.001	739.092	80.001	19.993	103.149	19.932	11.914	0.509
1318.501	739.348	80.002	19.990	103.149	19.934	11.811	0.479
1319.000	739.566	80.002	19.994	103.147	19.935	11.746	0.476
1319.500	739.861	80.002	19.994	103.143	19.934	11.821	0.493
1320.001	740.102	79.999	19.992	103.137	19.931	11.977	0.525
1320.501	740.357	80.003	19.995	103.131	19.935	11.741	0.516
1321.000	740.600	80.003	19.993	103.129	19.937	11.617	0.497
1321.500	740.853	79.999	19.995	103.126	19.936	11.634	0.497
1322.000	741.074	80.001	19.995	103.123	19.936	11.660	0.485
1322.500	741.319	79.999	19.996	103.126	19.934	11.807	0.471
1323.000	741.591	80.003	19.995	103.125	19.935	11.736	0.492
1323.500	741.840	80.001	19.995	103.125	19.933	11.862	0.519
1324.000	742.077	80.003	19.994	103.129	19.931	12.023	0.503
1324.501	742.369	80.000	19.996	103.134	19.934	11.793	0.507
1325.001	742.574	80.000	19.994	103.136	19.931	12.000	0.513
1325.500	742.758	80.001	19.995	103.139	19.934	11.816	0.443
1326.000	743.087	80.003	19.994	103.140	19.932	11.929	0.451
1326.500	743.298	80.000	19.995	103.136	19.933	11.842	0.526
1327.001	743.537	80.000	19.996	103.131	19.933	11.847	0.495
1327.501	743.778	80.002	19.995	103.126	19.933	11.849	0.466
