Sample ID:	C:\MCC\MCC Cal\Test\Polyisocyanurate_Foam_Board_MCC_30K_min_220211_R1.txt
Sample Weight (mg):	4.6
Heating Rate (C/s):	0.5
Combustor Temp (C):	900
N2 Flow Rate (cc/min):	80
O2 Flow Rate (cc/min):	20
Calibration File:	C:\MCC\MCC Cal\Coeff1 JN10440_30_210304.txt.txt
T Correction Coefficients:	0	1.024463	0
Time Shift (s):	14
*
Time (s)	Temperature (C)	N2 flow rate (cc/min)	O2 flow rate (cc/min)	Flow Rate (cc/min)	Oxygen (%)	HRR (W/g)	Heating rate (C/s)
0.000	112.568	80.009	19.995	103.644	19.865	0.085	0.000
0.500	112.593	80.007	19.995	103.645	19.862	0.258	-0.013
1.000	112.598	80.009	19.995	103.646	19.865	0.102	0.013
1.500	112.573	80.009	19.995	103.644	19.861	0.381	0.005
2.000	112.588	80.009	19.995	103.638	19.862	0.314	-0.015
2.500	112.630	80.008	19.995	103.632	19.861	0.360	0.023
3.000	112.609	80.008	19.993	103.632	19.861	0.376	0.039
3.500	112.577	80.010	19.993	103.630	19.860	0.397	-0.016
4.000	112.633	80.008	19.993	103.628	19.857	0.632	-0.014
4.500	112.599	80.009	19.993	103.628	19.854	0.853	0.023
5.000	112.578	80.008	19.993	103.628	19.859	0.507	-0.017
5.500	112.562	80.009	19.994	103.625	19.854	0.827	-0.046
6.001	112.591	80.009	19.996	103.622	19.855	0.781	-0.012
6.500	112.559	80.008	19.995	103.622	19.857	0.636	0.005
7.000	112.571	80.010	19.995	103.622	19.854	0.850	-0.012
7.500	112.578	80.008	19.995	103.621	19.852	1.001	-0.001
8.000	112.574	80.009	19.994	103.625	19.854	0.862	0.011
8.500	112.580	80.008	19.995	103.628	19.851	1.062	0.003
9.000	112.572	80.009	19.994	103.628	19.850	1.167	0.000
9.501	112.579	80.009	19.995	103.628	19.848	1.250	-0.001
10.000	112.584	80.009	19.995	103.628	19.846	1.387	0.005
10.500	112.554	80.008	19.995	103.627	19.847	1.348	-0.007
11.001	112.558	80.007	19.993	103.627	19.843	1.643	-0.026
11.500	112.600	80.009	19.995	103.627	19.842	1.672	0.010
12.000	112.621	80.010	19.996	103.630	19.844	1.531	0.055
12.500	112.604	80.011	19.995	103.637	19.842	1.668	0.034
13.000	112.603	80.010	19.993	103.644	19.845	1.497	-0.007
13.500	112.601	80.010	19.993	103.650	19.842	1.661	-0.011
14.000	112.575	80.011	19.994	103.658	19.839	1.875	-0.015
14.500	112.562	80.010	19.995	103.664	19.839	1.915	-0.033
15.000	112.614	80.012	19.994	103.665	19.838	2.002	-0.000
15.500	112.621	80.010	19.994	103.669	19.836	2.102	0.049
16.000	112.614	80.010	19.993	103.679	19.833	2.348	0.030
16.500	112.599	80.010	19.994	103.690	19.831	2.467	-0.011
17.000	112.584	80.010	19.994	103.705	19.833	2.317	-0.026
17.500	112.609	80.009	19.993	103.720	19.830	2.518	-0.010
18.000	112.651	80.010	19.993	103.732	19.830	2.549	0.039
18.500	112.656	80.011	19.992	103.740	19.832	2.381	0.057
19.000	112.682	80.010	19.993	103.748	19.828	2.684	0.039
19.500	112.644	80.010	19.993	103.755	19.825	2.905	0.009
20.000	112.677	80.010	19.993	103.764	19.829	2.645	-0.009
20.500	112.705	80.010	19.992	103.775	19.826	2.803	0.028
21.000	112.714	80.009	19.995	103.783	19.830	2.551	0.050
21.500	112.765	80.009	19.994	103.787	19.828	2.705	0.049
22.000	112.792	80.009	19.993	103.785	19.826	2.858	0.069
22.500	112.791	80.009	19.995	103.785	19.827	2.754	0.052
23.000	112.850	80.009	19.993	103.782	19.826	2.844	0.042
23.500	112.856	80.007	19.995	103.783	19.825	2.860	0.062
24.000	112.890	80.008	19.995	103.784	19.823	3.016	0.053
24.500	112.918	80.007	19.995	103.787	19.824	2.972	0.051
25.000	112.969	80.009	19.996	103.786	19.823	3.047	0.070
25.500	113.033	80.008	19.994	103.786	19.822	3.105	0.097
26.000	113.048	80.008	19.993	103.789	19.819	3.298	0.097
26.500	113.129	80.008	19.994	103.793	19.822	3.117	0.087
27.000	113.161	80.008	19.994	103.800	19.822	3.128	0.105
27.500	113.215	80.007	19.995	103.807	19.819	3.300	0.100
28.000	113.256	80.006	19.996	103.813	19.821	3.150	0.090
28.500	113.314	80.008	19.995	103.817	19.821	3.175	0.097
29.000	113.358	80.008	19.996	103.817	19.817	3.445	0.101
29.500	113.384	80.008	19.994	103.817	19.822	3.080	0.086
30.000	113.444	80.007	19.994	103.813	19.816	3.520	0.078
30.500	113.506	80.008	19.995	103.814	19.818	3.422	0.104
31.000	113.588	80.007	19.994	103.814	19.818	3.395	0.133
31.500	113.664	80.008	19.994	103.818	19.818	3.414	0.151
32.001	113.703	80.008	19.995	103.819	19.819	3.326	0.136
32.500	113.785	80.009	19.995	103.827	19.817	3.445	0.118
33.001	113.880	80.009	19.994	103.832	19.817	3.449	0.149
33.501	113.909	80.008	19.996	103.838	19.819	3.309	0.151
34.000	114.004	80.008	19.995	103.840	19.820	3.222	0.124
34.500	114.100	80.008	19.995	103.840	19.817	3.479	0.157
35.000	114.210	80.008	19.995	103.838	19.817	3.450	0.199
35.500	114.281	80.008	19.995	103.839	19.820	3.214	0.194
36.000	114.303	80.008	19.995	103.839	19.818	3.361	0.137
36.500	114.428	80.007	19.994	103.845	19.817	3.456	0.120
37.000	114.528	80.007	19.996	103.850	19.816	3.512	0.186
37.500	114.584	80.007	19.995	103.854	19.815	3.605	0.191
38.000	114.668	80.007	19.995	103.855	19.817	3.427	0.148
38.500	114.775	80.008	19.994	103.853	19.815	3.579	0.165
39.000	114.885	80.007	19.996	103.854	19.820	3.261	0.204
39.500	114.958	80.009	19.995	103.856	19.819	3.301	0.200
40.000	115.100	80.008	19.996	103.858	19.819	3.305	0.199
40.501	115.152	80.009	19.995	103.860	19.815	3.616	0.205
41.001	115.275	80.008	19.996	103.861	19.816	3.548	0.184
41.500	115.363	80.007	19.995	103.861	19.816	3.531	0.193
42.000	115.540	80.008	19.995	103.861	19.815	3.587	0.238
42.500	115.592	80.008	19.995	103.861	19.816	3.563	0.247
43.000	115.726	80.008	19.995	103.863	19.816	3.494	0.208
43.500	115.887	80.008	19.995	103.865	19.815	3.567	0.241
44.000	115.916	80.009	19.995	103.869	19.814	3.642	0.242
44.500	116.015	80.008	19.995	103.874	19.818	3.360	0.158
45.000	116.107	80.009	19.995	103.877	19.816	3.559	0.159
45.500	116.244	80.008	19.996	103.877	19.813	3.766	0.210
46.000	116.360	80.009	19.995	103.879	19.813	3.720	0.241
46.501	116.471	80.008	19.995	103.883	19.815	3.569	0.240
47.001	116.599	80.009	19.996	103.883	19.816	3.564	0.233
47.500	116.683	80.008	19.994	103.885	19.817	3.444	0.226
48.000	116.831	80.009	19.995	103.889	19.816	3.504	0.222
48.500	116.966	80.008	19.994	103.893	19.818	3.375	0.258
49.000	117.095	80.008	19.995	103.889	19.815	3.606	0.274
49.500	117.214	80.009	19.994	103.884	19.816	3.510	0.256
50.001	117.390	80.009	19.993	103.883	19.815	3.616	0.271
50.501	117.479	80.009	19.994	103.881	19.813	3.746	0.280
51.001	117.633	80.007	19.994	103.879	19.814	3.643	0.254
51.501	117.723	80.008	19.994	103.882	19.817	3.427	0.244
52.001	117.883	80.008	19.994	103.886	19.819	3.306	0.247
52.500	118.014	80.009	19.993	103.882	19.814	3.655	0.270
53.000	118.139	80.007	19.994	103.877	19.816	3.555	0.273
53.500	118.280	80.008	19.994	103.872	19.816	3.508	0.261
54.000	118.442	80.007	19.994	103.865	19.814	3.686	0.285
54.500	118.565	80.007	19.994	103.862	19.816	3.561	0.294
55.001	118.753	80.008	19.993	103.862	19.814	3.678	0.298
55.501	118.849	80.009	19.994	103.863	19.818	3.373	0.298
56.000	119.019	80.007	19.993	103.865	19.814	3.686	0.275
56.501	119.119	80.009	19.994	103.870	19.817	3.481	0.268
57.001	119.276	80.008	19.994	103.877	19.816	3.551	0.263
57.500	119.436	80.009	19.995	103.881	19.814	3.682	0.287
58.000	119.552	80.009	19.994	103.885	19.813	3.709	0.297
58.500	119.740	80.009	19.994	103.886	19.814	3.682	0.290
59.001	119.891	80.008	19.994	103.886	19.812	3.781	0.321
59.501	120.047	80.008	19.993	103.884	19.814	3.636	0.323
60.001	120.201	80.008	19.994	103.886	19.810	3.981	0.309
60.500	120.393	80.008	19.993	103.889	19.811	3.891	0.328
61.000	120.509	80.008	19.993	103.893	19.815	3.611	0.327
61.500	120.684	80.007	19.994	103.897	19.812	3.794	0.300
62.001	120.824	80.008	19.994	103.900	19.814	3.671	0.303
62.501	120.991	80.009	19.994	103.901	19.817	3.453	0.311
63.000	121.150	80.007	19.993	103.902	19.813	3.762	0.316
63.500	121.314	80.009	19.994	103.903	19.813	3.754	0.324
64.000	121.487	80.009	19.993	103.902	19.813	3.752	0.330
64.500	121.654	80.009	19.993	103.903	19.810	3.930	0.338
65.000	121.819	80.009	19.995	103.903	19.812	3.798	0.336
65.500	122.014	80.009	19.994	103.903	19.813	3.723	0.346
66.000	122.169	80.009	19.993	103.903	19.813	3.752	0.355
66.500	122.343	80.008	19.995	103.906	19.812	3.842	0.340
67.000	122.548	80.008	19.994	103.905	19.812	3.844	0.354
67.501	122.716	80.008	19.994	103.906	19.813	3.721	0.376
68.001	122.926	80.010	19.993	103.905	19.813	3.748	0.375
68.500	123.072	80.009	19.993	103.906	19.811	3.891	0.367
69.000	123.226	80.010	19.993	103.903	19.812	3.827	0.328
69.500	123.457	80.009	19.993	103.903	19.813	3.721	0.343
70.000	123.628	80.010	19.993	103.903	19.810	3.968	0.394
70.500	123.787	80.010	19.994	103.903	19.812	3.819	0.365
71.000	123.938	80.010	19.994	103.903	19.810	3.980	0.320
71.500	124.115	80.010	19.994	103.903	19.810	3.955	0.319
72.000	124.312	80.009	19.995	103.905	19.812	3.777	0.351
72.501	124.485	80.010	19.994	103.907	19.808	4.061	0.372
73.001	124.655	80.008	19.993	103.911	19.811	3.917	0.357
73.501	124.833	80.010	19.993	103.916	19.811	3.884	0.345
74.001	125.041	80.009	19.994	103.920	19.814	3.704	0.367
74.501	125.199	80.009	19.992	103.919	19.810	3.936	0.376
75.001	125.413	80.011	19.993	103.918	19.811	3.891	0.370
75.500	125.593	80.009	19.993	103.914	19.811	3.897	0.383
76.000	125.801	80.008	19.994	103.908	19.814	3.687	0.391
76.500	126.016	80.009	19.994	103.903	19.811	3.911	0.405
77.000	126.186	80.009	19.993	103.900	19.809	4.011	0.404
77.500	126.421	80.009	19.994	103.901	19.810	3.932	0.395
78.000	126.586	80.010	19.994	103.902	19.810	3.957	0.403
78.500	126.774	80.009	19.993	103.902	19.811	3.849	0.377
79.000	126.987	80.008	19.993	103.903	19.811	3.862	0.377
79.500	127.202	80.009	19.993	103.904	19.815	3.631	0.414
80.000	127.380	80.008	19.994	103.903	19.812	3.807	0.410
80.501	127.568	80.008	19.993	103.902	19.812	3.820	0.380
81.001	127.766	80.010	19.994	103.903	19.811	3.911	0.376
81.500	128.022	80.009	19.995	103.902	19.813	3.750	0.420
82.000	128.212	80.009	19.993	103.905	19.814	3.669	0.450
82.500	128.403	80.008	19.993	103.912	19.812	3.796	0.414
83.000	128.562	80.007	19.992	103.915	19.815	3.621	0.366
83.500	128.802	80.008	19.993	103.918	19.813	3.752	0.374
84.001	129.015	80.008	19.995	103.925	19.812	3.825	0.426
84.501	129.196	80.009	19.995	103.928	19.811	3.908	0.423
85.000	129.401	80.007	19.995	103.925	19.810	3.978	0.390
85.500	129.624	80.008	19.993	103.924	19.812	3.810	0.407
86.000	129.823	80.009	19.994	103.924	19.812	3.783	0.425
86.500	130.047	80.009	19.993	103.925	19.815	3.611	0.422
87.000	130.260	80.009	19.994	103.926	19.812	3.781	0.430
87.500	130.450	80.009	19.993	103.927	19.815	3.630	0.420
88.000	130.696	80.009	19.993	103.927	19.814	3.680	0.420
88.500	130.884	80.009	19.994	103.926	19.813	3.715	0.435
89.000	131.144	80.009	19.993	103.922	19.816	3.557	0.441
89.500	131.313	80.009	19.993	103.921	19.811	3.916	0.439
90.000	131.557	80.009	19.995	103.922	19.812	3.777	0.421
90.501	131.782	80.010	19.993	103.927	19.809	3.989	0.441
91.001	131.997	80.010	19.993	103.925	19.809	4.015	0.455
91.501	132.196	80.009	19.993	103.924	19.808	4.123	0.427
92.000	132.411	80.010	19.993	103.918	19.812	3.808	0.413
92.500	132.635	80.011	19.993	103.912	19.810	3.968	0.426
93.000	132.851	80.009	19.993	103.905	19.810	3.926	0.440
93.500	133.075	80.010	19.993	103.906	19.811	3.858	0.440
94.000	133.292	80.009	19.994	103.907	19.812	3.812	0.441
94.500	133.534	80.011	19.993	103.909	19.811	3.881	0.450
95.000	133.746	80.009	19.994	103.909	19.810	3.966	0.456
95.500	133.990	80.011	19.993	103.909	19.810	3.987	0.455
96.000	134.202	80.010	19.993	103.912	19.811	3.864	0.457
96.500	134.465	80.010	19.993	103.914	19.810	3.952	0.466
97.000	134.673	80.011	19.994	103.913	19.810	3.925	0.473
97.500	134.902	80.011	19.993	103.913	19.810	3.918	0.454
98.000	135.114	80.011	19.993	103.913	19.810	3.926	0.440
98.500	135.358	80.011	19.993	103.908	19.810	3.962	0.449
99.000	135.538	80.011	19.993	103.907	19.809	4.020	0.439
99.500	135.804	80.010	19.993	103.909	19.810	3.943	0.434
100.000	136.052	80.010	19.994	103.909	19.807	4.159	0.480
100.500	136.271	80.011	19.994	103.910	19.810	3.920	0.491
101.000	136.487	80.010	19.993	103.913	19.809	4.051	0.451
101.500	136.697	80.009	19.994	103.911	19.808	4.119	0.431
102.000	136.979	80.010	19.994	103.910	19.806	4.250	0.459
102.501	137.189	80.010	19.993	103.911	19.804	4.374	0.492
103.001	137.464	80.011	19.994	103.912	19.809	4.034	0.489
103.500	137.692	80.010	19.994	103.910	19.806	4.247	0.494
104.000	137.893	80.010	19.993	103.908	19.808	4.086	0.465
104.500	138.143	80.009	19.994	103.907	19.806	4.204	0.440
105.000	138.356	80.010	19.993	103.905	19.806	4.260	0.457
105.500	138.589	80.009	19.994	103.906	19.804	4.354	0.455
106.000	138.799	80.010	19.995	103.905	19.808	4.099	0.445
106.500	139.051	80.010	19.993	103.904	19.805	4.317	0.452
107.000	139.315	80.008	19.994	103.902	19.804	4.395	0.489
107.500	139.506	80.008	19.994	103.903	19.805	4.320	0.486
108.000	139.755	80.010	19.996	103.904	19.807	4.173	0.448
108.500	140.025	80.009	19.994	103.907	19.804	4.358	0.479
109.000	140.242	80.008	19.996	103.909	19.806	4.215	0.502
109.500	140.500	80.008	19.994	103.911	19.807	4.174	0.481
110.000	140.741	80.009	19.994	103.910	19.807	4.174	0.488
110.500	140.982	80.009	19.993	103.907	19.804	4.375	0.490
111.000	141.204	80.009	19.995	103.905	19.804	4.356	0.472
111.500	141.462	80.008	19.994	103.905	19.804	4.394	0.472
112.000	141.711	80.008	19.995	103.906	19.805	4.286	0.494
112.500	141.910	80.009	19.996	103.909	19.807	4.149	0.477
113.000	142.162	80.008	19.995	103.916	19.805	4.279	0.449
113.500	142.385	80.008	19.995	103.920	19.805	4.300	0.463
114.000	142.642	80.007	19.996	103.922	19.804	4.350	0.477
114.500	142.860	80.009	19.994	103.920	19.805	4.323	0.478
115.000	143.105	80.008	19.994	103.916	19.800	4.650	0.470
115.500	143.348	80.009	19.994	103.909	19.803	4.464	0.475
116.000	143.568	80.006	19.993	103.904	19.802	4.532	0.475
116.500	143.843	80.007	19.994	103.900	19.803	4.418	0.479
117.000	144.113	80.009	19.995	103.900	19.799	4.721	0.520
117.500	144.355	80.008	19.995	103.904	19.801	4.578	0.528
118.000	144.590	80.008	19.994	103.908	19.801	4.601	0.495
118.500	144.829	80.007	19.994	103.909	19.802	4.549	0.475
119.000	145.071	80.008	19.994	103.910	19.800	4.686	0.477
119.500	145.316	80.007	19.994	103.909	19.800	4.665	0.485
120.000	145.584	80.008	19.994	103.907	19.799	4.694	0.500
120.500	145.791	80.009	19.995	103.902	19.801	4.570	0.494
121.000	146.066	80.008	19.993	103.901	19.799	4.694	0.478
121.500	146.321	80.008	19.994	103.900	19.799	4.756	0.506
122.001	146.543	80.008	19.994	103.900	19.801	4.605	0.504
122.501	146.815	80.009	19.994	103.899	19.803	4.478	0.485
123.000	147.045	80.008	19.993	103.899	19.803	4.454	0.498
123.500	147.333	80.009	19.994	103.903	19.800	4.667	0.510
124.001	147.553	80.009	19.994	103.906	19.803	4.472	0.513
124.501	147.795	80.008	19.994	103.906	19.800	4.626	0.485
125.000	148.052	80.007	19.994	103.909	19.799	4.738	0.481
125.500	148.298	80.008	19.994	103.910	19.799	4.715	0.501
126.000	148.543	80.007	19.994	103.907	19.800	4.624	0.497
126.500	148.795	80.008	19.994	103.906	19.799	4.756	0.494
127.000	149.058	80.008	19.994	103.905	19.797	4.897	0.506
127.500	149.321	80.007	19.993	103.903	19.796	4.962	0.521
128.000	149.583	80.008	19.995	103.901	19.801	4.609	0.526
128.500	149.802	80.008	19.993	103.900	19.797	4.891	0.503
129.000	150.060	80.006	19.995	103.901	19.798	4.769	0.479
129.500	150.274	80.008	19.994	103.901	19.796	4.956	0.475
130.000	150.583	80.008	19.995	103.901	19.797	4.842	0.497
130.500	150.788	80.006	19.994	103.902	19.798	4.831	0.518
131.000	151.023	80.007	19.995	103.902	19.798	4.819	0.477
131.500	151.285	80.007	19.995	103.901	19.796	4.910	0.469
132.000	151.561	80.007	19.995	103.900	19.798	4.796	0.518
132.500	151.765	80.006	19.995	103.901	19.800	4.659	0.509
133.000	152.074	80.007	19.994	103.901	19.799	4.717	0.496
133.500	152.298	80.007	19.995	103.902	19.799	4.711	0.523
134.000	152.563	80.006	19.995	103.902	19.799	4.701	0.511
134.500	152.790	80.006	19.995	103.902	19.794	5.047	0.490
135.000	153.104	80.007	19.994	103.902	19.800	4.647	0.517
135.500	153.327	80.008	19.994	103.902	19.795	4.997	0.540
136.000	153.603	80.008	19.995	103.901	19.798	4.779	0.518
136.500	153.820	80.007	19.995	103.900	19.799	4.759	0.496
137.000	154.084	80.007	19.994	103.900	19.797	4.863	0.487
137.500	154.324	80.007	19.995	103.900	19.796	4.904	0.493
138.000	154.557	80.007	19.994	103.900	19.797	4.900	0.488
138.500	154.845	80.007	19.994	103.899	19.797	4.843	0.497
139.000	155.085	80.008	19.995	103.898	19.794	5.076	0.525
139.500	155.328	80.008	19.995	103.898	19.799	4.696	0.506
140.000	155.589	80.007	19.996	103.898	19.795	5.026	0.493
140.500	155.851	80.008	19.994	103.898	19.795	5.043	0.513
141.000	156.087	80.007	19.995	103.900	19.796	4.904	0.511
141.500	156.375	80.009	19.995	103.901	19.798	4.784	0.511
142.000	156.606	80.007	19.994	103.900	19.794	5.052	0.522
142.500	156.880	80.008	19.995	103.899	19.796	4.919	0.512
143.000	157.092	80.008	19.994	103.897	19.796	4.967	0.495
143.500	157.360	80.007	19.996	103.896	19.796	4.965	0.483
144.000	157.605	80.007	19.996	103.895	19.795	5.029	0.497
144.500	157.876	80.008	19.994	103.897	19.797	4.861	0.514
145.000	158.135	80.007	19.995	103.898	19.797	4.884	0.523
145.500	158.364	80.007	19.995	103.901	19.792	5.245	0.509
146.000	158.641	80.007	19.996	103.901	19.795	4.975	0.497
146.500	158.889	80.009	19.994	103.897	19.794	5.054	0.515
147.000	159.137	80.009	19.994	103.896	19.792	5.197	0.511
147.500	159.430	80.009	19.992	103.896	19.795	5.029	0.519
148.000	159.640	80.008	19.994	103.895	19.791	5.278	0.522
148.500	159.907	80.008	19.993	103.896	19.791	5.313	0.489
149.000	160.153	80.009	19.993	103.900	19.793	5.164	0.495
149.500	160.417	80.008	19.994	103.901	19.791	5.278	0.511
150.000	160.646	80.008	19.993	103.901	19.789	5.421	0.502
150.500	160.926	80.008	19.992	103.902	19.789	5.446	0.501
151.000	161.165	80.009	19.994	103.899	19.791	5.299	0.514
151.500	161.413	80.007	19.994	103.898	19.793	5.155	0.503
152.000	161.672	80.009	19.994	103.893	19.791	5.296	0.497
152.500	161.894	80.010	19.994	103.891	19.791	5.321	0.494
153.000	162.187	80.009	19.994	103.891	19.789	5.404	0.498
153.500	162.441	80.010	19.993	103.893	19.794	5.056	0.531
154.000	162.687	80.009	19.993	103.887	19.790	5.355	0.523
154.500	162.948	80.009	19.993	103.887	19.790	5.384	0.504
155.000	163.205	80.010	19.993	103.884	19.789	5.411	0.513
155.500	163.442	80.009	19.993	103.880	19.790	5.367	0.506
156.000	163.696	80.011	19.993	103.880	19.789	5.417	0.493
156.500	163.949	80.012	19.993	103.883	19.790	5.336	0.499
157.000	164.228	80.011	19.994	103.884	19.788	5.471	0.519
157.500	164.495	80.010	19.994	103.886	19.786	5.608	0.539
158.000	164.739	80.010	19.994	103.884	19.788	5.523	0.528
158.500	165.004	80.011	19.994	103.879	19.786	5.645	0.510
159.000	165.245	80.010	19.993	103.880	19.786	5.648	0.507
159.500	165.507	80.010	19.993	103.880	19.785	5.691	0.504
160.000	165.748	80.009	19.993	103.881	19.784	5.775	0.503
160.500	166.009	80.010	19.993	103.879	19.782	5.934	0.502
161.000	166.269	80.010	19.994	103.880	19.784	5.748	0.512
161.500	166.505	80.009	19.993	103.883	19.783	5.833	0.509
162.000	166.795	80.009	19.993	103.885	19.787	5.584	0.511
162.500	167.018	80.010	19.994	103.885	19.783	5.845	0.520
163.000	167.283	80.009	19.993	103.890	19.782	5.893	0.501
163.500	167.543	80.009	19.994	103.892	19.785	5.685	0.506
164.000	167.732	80.010	19.993	103.889	19.785	5.745	0.487
164.500	168.042	80.009	19.993	103.884	19.783	5.880	0.474
165.000	168.312	80.010	19.993	103.883	19.786	5.630	0.539
165.500	168.552	80.008	19.994	103.884	19.785	5.725	0.545
166.000	168.786	80.010	19.993	103.883	19.784	5.766	0.492
166.500	169.038	80.009	19.993	103.882	19.783	5.841	0.480
167.000	169.284	80.009	19.994	103.883	19.785	5.702	0.492
167.500	169.530	80.010	19.993	103.880	19.786	5.672	0.495
168.000	169.831	80.009	19.995	103.879	19.782	5.960	0.519
168.500	170.024	80.009	19.994	103.883	19.784	5.772	0.521
169.000	170.305	80.009	19.994	103.880	19.783	5.841	0.484
169.500	170.595	80.008	19.993	103.880	19.779	6.138	0.523
170.000	170.819	80.009	19.993	103.878	19.780	6.074	0.542
170.500	171.076	80.009	19.993	103.875	19.780	6.087	0.497
171.000	171.347	80.010	19.993	103.869	19.783	5.840	0.505
171.500	171.565	80.009	19.993	103.870	19.778	6.178	0.508
172.000	171.838	80.009	19.993	103.870	19.777	6.280	0.490
172.500	172.069	80.011	19.993	103.870	19.777	6.290	0.498
173.000	172.309	80.009	19.994	103.867	19.780	6.062	0.487
173.500	172.571	80.010	19.994	103.870	19.778	6.203	0.486
174.000	172.827	80.011	19.993	103.870	19.780	6.093	0.510
174.500	173.082	80.011	19.993	103.873	19.777	6.261	0.514
175.000	173.305	80.010	19.993	103.872	19.777	6.253	0.495
175.500	173.589	80.010	19.993	103.872	19.778	6.224	0.493
176.000	173.860	80.010	19.994	103.869	19.779	6.114	0.531
176.500	174.097	80.011	19.992	103.866	19.779	6.110	0.532
177.000	174.323	80.010	19.993	103.869	19.777	6.284	0.485
177.500	174.559	80.011	19.994	103.875	19.776	6.313	0.462
178.000	174.837	80.012	19.994	103.877	19.776	6.334	0.488
178.500	175.103	80.012	19.993	103.881	19.774	6.471	0.530
179.000	175.333	80.010	19.992	103.886	19.776	6.311	0.520
179.500	175.611	80.011	19.993	103.880	19.778	6.228	0.501
180.000	175.861	80.012	19.993	103.873	19.774	6.456	0.518
180.500	176.076	80.011	19.993	103.870	19.774	6.499	0.497
181.000	176.387	80.012	19.993	103.865	19.773	6.551	0.496
181.500	176.609	80.012	19.993	103.860	19.773	6.528	0.530
182.000	176.833	80.011	19.993	103.859	19.771	6.725	0.489
182.500	177.131	80.011	19.994	103.859	19.773	6.586	0.484
183.000	177.323	80.012	19.992	103.859	19.773	6.533	0.506
183.500	177.595	80.012	19.992	103.859	19.771	6.701	0.477
184.000	177.824	80.010	19.993	103.859	19.768	6.879	0.482
184.500	178.090	80.010	19.993	103.859	19.769	6.856	0.498
185.000	178.327	80.010	19.993	103.859	19.768	6.881	0.499
185.500	178.601	80.010	19.994	103.859	19.767	7.012	0.507
186.000	178.818	80.011	19.994	103.859	19.767	6.958	0.501
186.500	179.064	80.010	19.992	103.859	19.767	6.972	0.477
187.000	179.326	80.010	19.992	103.858	19.765	7.116	0.485
187.500	179.590	80.009	19.993	103.856	19.768	6.875	0.517
188.000	179.870	80.009	19.992	103.855	19.766	7.037	0.535
188.500	180.098	80.009	19.993	103.855	19.765	7.101	0.526
189.000	180.352	80.008	19.993	103.855	19.765	7.116	0.495
189.500	180.579	80.009	19.994	103.857	19.765	7.132	0.481
190.000	180.836	80.009	19.992	103.859	19.766	7.049	0.482
190.500	181.073	80.007	19.993	103.859	19.763	7.261	0.489
191.000	181.325	80.008	19.992	103.860	19.763	7.246	0.492
191.500	181.606	80.007	19.992	103.860	19.762	7.325	0.511
192.000	181.837	80.007	19.993	103.863	19.765	7.090	0.522
192.500	182.079	80.008	19.994	103.863	19.764	7.180	0.492
193.000	182.345	80.008	19.993	103.863	19.759	7.527	0.490
193.500	182.582	80.008	19.994	103.864	19.760	7.493	0.506
194.000	182.831	80.007	19.994	103.864	19.760	7.505	0.495
194.500	183.093	80.008	19.993	103.862	19.760	7.441	0.498
195.000	183.305	80.008	19.992	103.863	19.758	7.601	0.493
195.501	183.591	80.007	19.993	103.864	19.760	7.491	0.486
196.000	183.811	80.008	19.993	103.864	19.758	7.619	0.502
196.500	184.038	80.007	19.994	103.865	19.757	7.682	0.476
197.000	184.278	80.008	19.994	103.864	19.756	7.750	0.456
197.500	184.561	80.007	19.994	103.863	19.757	7.684	0.495
198.000	184.791	80.009	19.993	103.863	19.760	7.506	0.519
198.500	185.071	80.007	19.994	103.863	19.760	7.498	0.512
199.000	185.270	80.008	19.994	103.862	19.758	7.630	0.495
199.500	185.580	80.008	19.993	103.862	19.758	7.595	0.494
200.000	185.810	80.007	19.993	103.863	19.758	7.589	0.525
200.500	186.027	80.008	19.993	103.864	19.758	7.597	0.494
201.000	186.296	80.007	19.993	103.867	19.763	7.251	0.466
201.500	186.591	80.008	19.994	103.867	19.759	7.566	0.525
202.000	186.805	80.007	19.994	103.868	19.757	7.686	0.537
202.500	187.085	80.007	19.993	103.867	19.755	7.817	0.502
203.000	187.306	80.007	19.993	103.867	19.756	7.722	0.498
203.500	187.560	80.007	19.993	103.864	19.756	7.728	0.488
204.000	187.798	80.007	19.995	103.863	19.755	7.840	0.484
204.500	188.079	80.008	19.995	103.863	19.754	7.913	0.506
205.000	188.318	80.006	19.994	103.866	19.753	8.000	0.519
205.500	188.539	80.008	19.994	103.867	19.754	7.884	0.490
206.000	188.805	80.007	19.995	103.868	19.752	8.018	0.474
206.500	189.031	80.008	19.994	103.870	19.754	7.908	0.490
207.000	189.277	80.007	19.994	103.869	19.753	7.977	0.482
207.500	189.497	80.010	19.994	103.866	19.754	7.892	0.469
208.000	189.725	80.009	19.994	103.865	19.753	7.991	0.457
208.500	190.017	80.008	19.996	103.864	19.752	8.014	0.484
209.000	190.260	80.007	19.994	103.862	19.752	8.070	0.528
209.500	190.486	80.008	19.995	103.862	19.748	8.342	0.502
210.000	190.717	80.008	19.993	103.861	19.750	8.209	0.463
210.500	190.963	80.008	19.994	103.862	19.752	8.020	0.467
211.000	191.246	80.007	19.994	103.861	19.751	8.076	0.503
211.500	191.484	80.008	19.993	103.861	19.751	8.081	0.525
212.000	191.726	80.008	19.993	103.861	19.747	8.408	0.501
212.500	191.975	80.008	19.994	103.861	19.748	8.317	0.485
213.000	192.238	80.008	19.994	103.861	19.747	8.359	0.501
213.500	192.483	80.008	19.994	103.862	19.748	8.322	0.510
214.000	192.702	80.007	19.994	103.863	19.744	8.569	0.486
214.500	192.958	80.007	19.994	103.861	19.746	8.477	0.469
215.000	193.221	80.008	19.993	103.859	19.745	8.537	0.497
215.500	193.457	80.008	19.995	103.859	19.744	8.620	0.509
216.000	193.713	80.007	19.994	103.858	19.745	8.514	0.496
216.500	193.950	80.009	19.993	103.858	19.747	8.402	0.493
217.000	194.205	80.007	19.995	103.861	19.746	8.427	0.493
217.500	194.431	80.008	19.993	103.864	19.742	8.765	0.487
218.000	194.675	80.007	19.994	103.865	19.741	8.815	0.475
218.500	194.919	80.008	19.994	103.865	19.745	8.533	0.479
219.000	195.151	80.009	19.993	103.865	19.742	8.747	0.482
219.500	195.424	80.009	19.993	103.865	19.740	8.873	0.490
220.000	195.611	80.007	19.994	103.864	19.744	8.633	0.483
220.500	195.886	80.007	19.993	103.864	19.744	8.633	0.461
221.000	196.127	80.007	19.994	103.864	19.740	8.857	0.489
221.500	196.391	80.008	19.993	103.863	19.739	8.923	0.511
222.000	196.624	80.007	19.993	103.863	19.740	8.890	0.501
222.500	196.844	80.007	19.994	103.863	19.740	8.907	0.475
223.000	197.097	80.007	19.994	103.863	19.736	9.170	0.463
223.501	197.325	80.007	19.994	103.863	19.737	9.070	0.476
224.000	197.586	80.007	19.994	103.864	19.738	9.017	0.485
224.500	197.841	80.008	19.995	103.861	19.736	9.155	0.502
225.000	198.082	80.009	19.995	103.859	19.738	9.052	0.506
225.500	198.341	80.008	19.995	103.859	19.739	8.934	0.499
226.000	198.590	80.007	19.995	103.859	19.735	9.237	0.504
226.500	198.817	80.006	19.994	103.862	19.738	9.056	0.492
227.000	199.049	80.006	19.994	103.865	19.737	9.085	0.468
227.500	199.291	80.007	19.993	103.865	19.735	9.265	0.467
228.000	199.565	80.007	19.995	103.864	19.737	9.106	0.495
228.500	199.778	80.008	19.994	103.864	19.737	9.083	0.501
229.000	200.066	80.007	19.995	103.861	19.734	9.306	0.494
229.500	200.289	80.007	19.993	103.861	19.736	9.194	0.506
230.000	200.513	80.007	19.994	103.862	19.736	9.185	0.479
230.500	200.772	80.007	19.994	103.862	19.737	9.104	0.465
231.000	201.010	80.006	19.994	103.862	19.735	9.225	0.490
231.500	201.262	80.007	19.995	103.861	19.734	9.300	0.493
232.000	201.510	80.007	19.996	103.863	19.738	9.035	0.495
232.500	201.771	80.007	19.994	103.863	19.732	9.432	0.505
233.000	201.989	80.008	19.993	103.862	19.734	9.320	0.494
233.500	202.219	80.008	19.994	103.862	19.733	9.353	0.464
234.000	202.488	80.008	19.995	103.863	19.732	9.455	0.474
234.500	202.719	80.009	19.994	103.863	19.735	9.208	0.499
235.000	202.959	80.008	19.994	103.863	19.736	9.181	0.485
235.500	203.263	80.009	19.995	103.863	19.736	9.170	0.507
236.000	203.482	80.008	19.995	103.862	19.736	9.135	0.534
236.500	203.704	80.009	19.994	103.862	19.735	9.222	0.482
237.000	203.965	80.007	19.995	103.860	19.739	8.967	0.462
237.500	204.213	80.009	19.994	103.860	19.738	9.046	0.496
238.000	204.426	80.009	19.993	103.860	19.737	9.104	0.485
238.500	204.662	80.009	19.994	103.863	19.735	9.222	0.455
239.000	204.946	80.009	19.995	103.862	19.734	9.286	0.485
239.500	205.182	80.008	19.994	103.866	19.735	9.239	0.520
240.000	205.463	80.009	19.993	103.872	19.737	9.102	0.519
240.500	205.679	80.010	19.994	103.877	19.736	9.145	0.506
241.000	205.939	80.011	19.994	103.876	19.734	9.270	0.486
241.500	206.189	80.009	19.994	103.878	19.733	9.399	0.493
242.000	206.427	80.009	19.993	103.873	19.733	9.353	0.499
242.500	206.676	80.008	19.994	103.867	19.730	9.571	0.488
243.000	206.940	80.009	19.992	103.861	19.733	9.399	0.500
243.500	207.166	80.009	19.993	103.861	19.735	9.268	0.501
244.000	207.441	80.010	19.995	103.859	19.731	9.519	0.495
244.500	207.686	80.009	19.993	103.860	19.733	9.357	0.510
245.000	207.923	80.009	19.994	103.861	19.730	9.584	0.501
245.500	208.187	80.009	19.992	103.861	19.735	9.242	0.492
246.000	208.417	80.009	19.992	103.861	19.733	9.403	0.498
246.500	208.669	80.009	19.994	103.862	19.732	9.465	0.488
247.000	208.928	80.009	19.993	103.861	19.735	9.206	0.496
247.500	209.169	80.010	19.994	103.860	19.734	9.281	0.505
248.000	209.387	80.008	19.994	103.859	19.733	9.350	0.480
248.500	209.677	80.010	19.993	103.858	19.735	9.204	0.484
249.000	209.938	80.009	19.993	103.857	19.733	9.381	0.529
249.500	210.192	80.010	19.994	103.859	19.735	9.265	0.532
250.000	210.451	80.009	19.993	103.860	19.735	9.209	0.514
250.500	210.691	80.009	19.992	103.861	19.737	9.099	0.506
251.000	210.904	80.010	19.993	103.862	19.735	9.265	0.477
251.500	211.180	80.009	19.994	103.862	19.735	9.251	0.471
252.000	211.392	80.010	19.993	103.861	19.734	9.297	0.488
252.500	211.671	80.009	19.993	103.861	19.736	9.137	0.489
253.000	211.896	80.008	19.993	103.861	19.737	9.068	0.498
253.500	212.183	80.009	19.994	103.860	19.736	9.137	0.508
254.000	212.417	80.010	19.993	103.861	19.735	9.226	0.516
254.500	212.653	80.010	19.993	103.862	19.732	9.438	0.496
255.000	212.925	80.010	19.993	103.863	19.735	9.245	0.490
255.500	213.149	80.010	19.994	103.865	19.733	9.348	0.502
256.000	213.412	80.010	19.994	103.871	19.732	9.461	0.491
256.500	213.595	80.009	19.994	103.874	19.733	9.382	0.466
257.000	213.877	80.010	19.993	103.875	19.737	9.083	0.456
257.500	214.140	80.011	19.993	103.879	19.737	9.085	0.505
258.000	214.401	80.011	19.994	103.878	19.731	9.486	0.534
258.500	214.649	80.009	19.993	103.872	19.735	9.255	0.516
259.000	214.889	80.009	19.992	103.871	19.734	9.286	0.499
259.500	215.144	80.011	19.993	103.871	19.737	9.087	0.492
260.000	215.415	80.011	19.994	103.871	19.736	9.187	0.511
260.500	215.658	80.011	19.993	103.871	19.738	9.058	0.520
261.000	215.899	80.010	19.993	103.871	19.734	9.273	0.499
261.500	216.164	80.011	19.994	103.868	19.736	9.165	0.495
262.000	216.399	80.011	19.994	103.866	19.735	9.242	0.503
262.500	216.651	80.011	19.993	103.862	19.736	9.151	0.493
263.000	216.886	80.009	19.992	103.862	19.738	9.014	0.487
263.500	217.157	80.010	19.994	103.863	19.735	9.218	0.497
264.000	217.403	80.010	19.995	103.864	19.736	9.143	0.511
264.500	217.692	80.011	19.994	103.864	19.734	9.328	0.526
265.000	217.950	80.011	19.994	103.865	19.737	9.093	0.541
265.500	218.139	80.010	19.993	103.865	19.735	9.228	0.497
266.000	218.419	80.011	19.993	103.865	19.735	9.203	0.458
266.500	218.650	80.011	19.993	103.863	19.735	9.219	0.490
267.000	218.940	80.011	19.994	103.863	19.737	9.080	0.516
267.500	219.121	80.010	19.993	103.862	19.736	9.168	0.496
268.000	219.394	80.010	19.993	103.862	19.738	9.056	0.463
268.500	219.616	80.010	19.994	103.862	19.739	8.962	0.474
269.000	219.861	80.010	19.994	103.861	19.734	9.284	0.481
269.500	220.105	80.009	19.993	103.861	19.736	9.176	0.478
270.000	220.373	80.010	19.994	103.862	19.735	9.207	0.501
270.500	220.609	80.009	19.992	103.864	19.737	9.074	0.508
271.000	220.832	80.011	19.993	103.864	19.740	8.906	0.481
271.500	221.126	80.008	19.994	103.868	19.740	8.852	0.488
272.000	221.355	80.009	19.992	103.871	19.736	9.139	0.520
272.500	221.588	80.008	19.994	103.870	19.733	9.352	0.492
273.000	221.860	80.009	19.993	103.866	19.735	9.252	0.483
273.500	222.090	80.009	19.993	103.866	19.737	9.116	0.504
274.000	222.366	80.008	19.994	103.863	19.735	9.213	0.504
274.500	222.618	80.008	19.993	103.861	19.738	9.038	0.517
275.000	222.848	80.008	19.993	103.862	19.734	9.290	0.505
275.500	223.125	80.009	19.993	103.865	19.736	9.140	0.495
276.000	223.381	80.008	19.994	103.865	19.735	9.211	0.520
276.500	223.611	80.009	19.992	103.867	19.735	9.227	0.510
277.000	223.876	80.008	19.993	103.867	19.738	9.024	0.491
277.500	224.120	80.009	19.993	103.867	19.737	9.089	0.502
278.000	224.382	80.008	19.993	103.866	19.738	9.000	0.508
278.500	224.633	80.008	19.992	103.865	19.738	9.016	0.509
279.000	224.883	80.007	19.993	103.864	19.737	9.097	0.507
279.500	225.115	80.008	19.994	103.864	19.739	8.925	0.491
280.000	225.385	80.009	19.992	103.864	19.738	9.020	0.492
280.500	225.592	80.009	19.992	103.864	19.738	8.999	0.490
281.001	225.871	80.009	19.994	103.864	19.738	9.050	0.481
281.500	226.142	80.008	19.992	103.866	19.738	8.986	0.518
282.000	226.381	80.006	19.992	103.867	19.735	9.201	0.530
282.500	226.619	80.006	19.993	103.867	19.737	9.058	0.494
283.000	226.830	80.008	19.993	103.867	19.737	9.093	0.463
283.500	227.111	80.008	19.994	103.870	19.737	9.120	0.471
284.000	227.369	80.010	19.993	103.868	19.736	9.143	0.515
284.500	227.602	80.008	19.994	103.869	19.739	8.934	0.515
285.000	227.862	80.008	19.993	103.869	19.737	9.095	0.492
285.500	228.112	80.008	19.993	103.872	19.738	9.028	0.501
286.000	228.359	80.008	19.992	103.871	19.735	9.244	0.503
286.500	228.623	80.007	19.993	103.871	19.739	8.980	0.504
287.000	228.906	80.008	19.995	103.871	19.734	9.328	0.529
287.500	229.127	80.009	19.993	103.871	19.737	9.066	0.525
288.000	229.397	80.009	19.992	103.868	19.736	9.153	0.497
288.500	229.629	80.007	19.993	103.866	19.736	9.136	0.496
289.000	229.870	80.008	19.994	103.865	19.737	9.080	0.488
289.500	230.122	80.008	19.993	103.863	19.735	9.264	0.484
290.000	230.408	80.009	19.993	103.863	19.736	9.148	0.516
290.500	230.609	80.008	19.993	103.864	19.735	9.238	0.512
291.000	230.883	80.009	19.994	103.846	19.735	9.263	0.481
291.500	231.114	80.009	19.994	103.826	19.732	9.452	0.490
292.000	231.378	80.009	19.994	103.816	19.732	9.415	0.500
292.500	231.586	80.008	19.993	103.809	19.732	9.446	0.483
293.000	231.846	80.010	19.994	103.802	19.737	9.122	0.470
293.500	232.100	80.010	19.995	103.819	19.734	9.284	0.491
294.000	232.351	80.009	19.993	103.838	19.733	9.386	0.509
294.500	232.579	80.009	19.995	103.848	19.733	9.388	0.492
295.000	232.841	80.008	19.995	103.861	19.734	9.327	0.485
295.500	233.093	80.009	19.994	103.898	19.734	9.309	0.502
296.000	233.288	80.008	19.994	103.913	19.733	9.348	0.481
296.500	233.561	80.009	19.994	103.919	19.733	9.344	0.457
297.000	233.823	80.008	19.994	103.895	19.733	9.389	0.501
297.500	234.084	80.009	19.995	103.872	19.730	9.571	0.529
298.000	234.337	80.008	19.994	103.839	19.736	9.180	0.519
298.500	234.554	80.009	19.993	103.825	19.733	9.388	0.492
299.000	234.849	80.009	19.993	103.829	19.731	9.501	0.491
299.500	235.050	80.006	19.995	103.873	19.732	9.437	0.504
300.000	235.337	80.008	19.995	103.894	19.731	9.549	0.492
300.500	235.561	80.009	19.992	103.898	19.733	9.380	0.499
301.000	235.841	80.009	19.993	103.901	19.734	9.309	0.508
301.500	236.023	80.007	19.995	103.892	19.731	9.536	0.483
302.000	236.272	80.009	19.996	103.872	19.732	9.449	0.446
302.500	236.581	80.008	19.994	103.868	19.734	9.307	0.494
303.000	236.888	80.007	19.994	103.866	19.736	9.168	0.587
303.500	237.059	80.008	19.996	103.865	19.733	9.388	0.547
304.000	237.305	80.008	19.994	103.866	19.732	9.446	0.447
304.500	237.505	80.010	19.995	103.866	19.734	9.331	0.431
305.000	237.781	80.007	19.994	103.866	19.730	9.561	0.461
305.500	238.028	80.008	19.994	103.867	19.734	9.273	0.499
306.000	238.309	80.007	19.996	103.866	19.731	9.512	0.526
306.500	238.545	80.009	19.995	103.865	19.734	9.324	0.523
307.000	238.778	80.007	19.994	103.866	19.731	9.498	0.493
307.500	239.007	80.008	19.994	103.867	19.734	9.285	0.465
308.000	239.286	80.007	19.994	103.873	19.731	9.493	0.485
308.500	239.520	80.007	19.994	103.878	19.731	9.506	0.511
309.000	239.725	80.007	19.994	103.885	19.728	9.757	0.476
309.500	240.000	80.008	19.995	103.886	19.728	9.695	0.459
310.000	240.269	80.008	19.996	103.892	19.728	9.726	0.511
310.500	240.513	80.007	19.995	103.892	19.725	9.923	0.528
311.000	240.727	80.008	19.994	103.891	19.727	9.831	0.486
311.500	240.967	80.008	19.995	103.886	19.728	9.763	0.456
312.000	241.210	80.007	19.994	103.883	19.723	10.064	0.468
312.500	241.450	80.008	19.995	103.880	19.728	9.694	0.483
313.000	241.711	80.008	19.995	103.879	19.727	9.771	0.492
313.500	241.961	80.008	19.994	103.880	19.726	9.893	0.506
314.000	242.191	80.008	19.995	103.882	19.727	9.790	0.496
314.500	242.475	80.009	19.993	103.884	19.726	9.904	0.497
315.000	242.722	80.009	19.994	103.880	19.723	10.070	0.522
315.500	243.006	80.010	19.993	103.875	19.726	9.857	0.531
316.000	243.247	80.009	19.994	103.871	19.726	9.849	0.528
316.500	243.474	80.008	19.994	103.872	19.726	9.847	0.496
317.000	243.748	80.008	19.994	103.871	19.725	9.946	0.484
317.500	243.994	80.009	19.995	103.875	19.722	10.121	0.511
318.000	244.259	80.009	19.994	103.878	19.726	9.897	0.516
318.500	244.493	80.010	19.994	103.875	19.723	10.105	0.506
319.000	244.738	80.010	19.993	103.872	19.723	10.109	0.489
319.500	244.983	80.009	19.994	103.869	19.722	10.126	0.484
320.000	245.234	80.011	19.994	103.866	19.720	10.290	0.493
320.500	245.474	80.010	19.994	103.867	19.718	10.417	0.494
321.000	245.734	80.010	19.994	103.868	19.721	10.208	0.495
321.500	245.982	80.010	19.995	103.869	19.715	10.640	0.504
322.000	246.254	80.009	19.993	103.871	19.718	10.399	0.514
322.500	246.481	80.011	19.996	103.872	19.721	10.225	0.509
323.000	246.750	80.008	19.994	103.869	19.716	10.568	0.498
323.500	246.932	80.009	19.995	103.868	19.718	10.467	0.474
324.000	247.219	80.009	19.996	103.870	19.719	10.376	0.460
324.500	247.475	80.009	19.996	103.872	19.719	10.384	0.505
325.000	247.663	80.010	19.995	103.871	19.715	10.670	0.494
325.500	247.943	80.010	19.995	103.868	19.718	10.439	0.456
326.000	248.191	80.008	19.996	103.868	19.716	10.592	0.498
326.500	248.442	80.009	19.994	103.864	19.714	10.746	0.513
327.000	248.674	80.008	19.994	103.861	19.711	10.952	0.491
327.500	248.949	80.009	19.994	103.861	19.713	10.770	0.495
328.000	249.206	80.010	19.994	103.867	19.715	10.638	0.520
328.500	249.497	80.009	19.995	103.874	19.712	10.827	0.540
329.000	249.742	80.008	19.995	103.881	19.712	10.884	0.542
329.500	250.014	80.009	19.996	103.887	19.711	10.950	0.526
330.000	250.290	80.009	19.996	103.893	19.713	10.821	0.532
330.500	250.516	80.008	19.995	103.892	19.711	10.893	0.525
331.000	250.788	80.007	19.995	103.890	19.710	11.020	0.500
331.500	251.058	80.008	19.995	103.887	19.713	10.802	0.520
332.000	251.285	80.009	19.995	103.879	19.708	11.136	0.520
332.500	251.545	80.008	19.995	103.876	19.711	10.935	0.492
333.000	251.764	80.008	19.996	103.876	19.708	11.126	0.483
333.500	252.020	80.008	19.995	103.876	19.708	11.149	0.477
334.000	252.288	80.009	19.994	103.874	19.708	11.111	0.500
334.500	252.480	80.008	19.994	103.877	19.707	11.218	0.492
335.000	252.834	80.009	19.994	103.882	19.707	11.236	0.503
335.500	253.066	80.009	19.995	103.881	19.708	11.159	0.566
336.000	253.349	80.010	19.993	103.884	19.705	11.371	0.551
336.500	253.580	80.008	19.993	103.890	19.706	11.282	0.515
337.000	253.796	80.008	19.995	103.894	19.702	11.572	0.481
337.500	254.037	80.009	19.994	103.890	19.706	11.309	0.452
338.000	254.268	80.009	19.994	103.887	19.699	11.742	0.464
338.500	254.579	80.008	19.995	103.880	19.700	11.724	0.507
339.000	254.808	80.010	19.993	103.875	19.700	11.734	0.541
339.500	255.066	80.011	19.993	103.876	19.699	11.747	0.514
340.000	255.312	80.010	19.993	103.878	19.701	11.624	0.495
340.500	255.582	80.010	19.994	103.884	19.701	11.616	0.510
341.000	255.829	80.008	19.994	103.891	19.700	11.713	0.516
341.500	256.050	80.010	19.993	103.897	19.699	11.792	0.492
342.000	256.323	80.009	19.994	103.892	19.698	11.819	0.482
342.500	256.586	80.010	19.994	103.891	19.698	11.821	0.515
343.000	256.802	80.010	19.992	103.889	19.695	12.062	0.508
343.500	257.090	80.010	19.993	103.887	19.695	12.052	0.491
344.000	257.303	80.010	19.992	103.886	19.694	12.139	0.502
344.500	257.571	80.010	19.993	103.892	19.693	12.167	0.491
345.000	257.842	80.011	19.993	103.895	19.691	12.338	0.510
345.500	258.067	80.010	19.994	103.899	19.692	12.284	0.518
346.000	258.361	80.012	19.991	103.902	19.693	12.186	0.508
346.501	258.622	80.010	19.993	103.904	19.688	12.554	0.537
347.000	258.842	80.012	19.992	103.904	19.688	12.518	0.518
347.500	259.140	80.010	19.993	103.904	19.689	12.452	0.500
348.000	259.359	80.011	19.993	103.904	19.694	12.147	0.517
348.500	259.644	80.010	19.993	103.904	19.689	12.490	0.511
349.000	259.875	80.011	19.993	103.904	19.685	12.751	0.511
349.500	260.145	80.011	19.992	103.903	19.686	12.682	0.509
350.000	260.393	80.011	19.993	103.903	19.686	12.664	0.509
350.500	260.632	80.010	19.993	103.903	19.685	12.751	0.503
351.000	260.859	80.010	19.993	103.903	19.683	12.912	0.476
351.500	261.127	80.011	19.992	103.902	19.681	13.074	0.480
352.000	261.348	80.009	19.994	103.902	19.682	12.985	0.492
352.500	261.598	80.010	19.992	103.903	19.679	13.177	0.480
353.000	261.864	80.010	19.993	103.903	19.679	13.187	0.493
353.500	262.121	80.009	19.993	103.903	19.680	13.125	0.520
354.000	262.360	80.009	19.993	103.903	19.682	12.973	0.510
354.500	262.645	80.009	19.991	103.903	19.680	13.135	0.510
355.000	262.888	80.007	19.993	103.904	19.678	13.241	0.526
355.500	263.139	80.008	19.993	103.905	19.676	13.367	0.511
356.000	263.380	80.009	19.994	103.905	19.674	13.508	0.493
356.500	263.669	80.009	19.995	103.905	19.676	13.425	0.511
357.000	263.967	80.009	19.992	103.904	19.669	13.873	0.559
357.500	264.154	80.009	19.992	103.903	19.674	13.506	0.536
358.000	264.405	80.007	19.992	103.901	19.671	13.772	0.462
358.500	264.644	80.009	19.993	103.900	19.669	13.896	0.464
359.000	264.849	80.010	19.994	103.899	19.668	13.941	0.467
359.500	265.124	80.008	19.993	103.900	19.666	14.090	0.462
360.000	265.387	80.008	19.993	103.900	19.670	13.821	0.509
360.500	265.639	80.008	19.995	103.901	19.663	14.279	0.527
361.000	265.870	80.010	19.993	103.901	19.663	14.301	0.499
361.500	266.164	80.008	19.993	103.902	19.660	14.495	0.504
362.000	266.417	80.008	19.992	103.902	19.659	14.583	0.536
362.500	266.703	80.009	19.993	103.902	19.656	14.811	0.543
363.000	266.880	80.009	19.994	103.906	19.655	14.845	0.501
363.500	267.158	80.008	19.992	103.910	19.655	14.890	0.459
364.000	267.444	80.009	19.993	103.911	19.653	15.034	0.510
364.500	267.664	80.009	19.993	103.912	19.652	15.069	0.535
365.000	267.956	80.008	19.992	103.914	19.652	15.067	0.509
365.500	268.206	80.009	19.995	103.911	19.653	15.038	0.527
366.000	268.456	80.009	19.995	103.910	19.653	15.042	0.521
366.500	268.673	80.008	19.995	103.912	19.649	15.338	0.484
367.000	268.982	80.008	19.994	103.913	19.649	15.313	0.496
367.500	269.237	80.009	19.994	103.912	19.652	15.066	0.545
368.000	269.469	80.009	19.995	103.912	19.652	15.126	0.526
368.500	269.682	80.009	19.994	103.914	19.643	15.709	0.466
369.000	269.941	80.008	19.994	103.913	19.644	15.634	0.459
369.500	270.362	80.009	19.993	103.915	19.639	15.974	0.576
370.000	270.566	80.009	19.992	103.918	19.641	15.858	0.652
370.500	270.770	80.010	19.993	103.918	19.639	16.016	0.517
371.000	271.052	80.010	19.994	103.918	19.639	16.030	0.447
371.500	271.279	80.009	19.993	103.923	19.636	16.196	0.497
372.000	271.475	80.010	19.994	103.927	19.637	16.167	0.466
372.500	271.734	80.008	19.993	103.930	19.634	16.343	0.439
373.000	272.037	80.009	19.994	103.935	19.634	16.388	0.509
373.500	272.261	80.010	19.993	103.939	19.631	16.542	0.545
374.000	272.512	80.009	19.994	103.936	19.631	16.568	0.501
374.500	272.778	80.009	19.993	103.935	19.631	16.551	0.496
375.000	273.074	80.009	19.993	103.935	19.629	16.737	0.539
375.500	273.273	80.009	19.993	103.936	19.627	16.879	0.528
376.000	273.521	80.009	19.992	103.935	19.627	16.883	0.471
376.500	273.775	80.009	19.993	103.935	19.626	16.910	0.475
377.000	274.014	80.010	19.994	103.937	19.622	17.236	0.498
377.500	274.305	80.009	19.993	103.936	19.621	17.283	0.512
378.000	274.544	80.010	19.993	103.936	19.622	17.233	0.530
378.500	274.806	80.010	19.993	103.936	19.621	17.268	0.515
379.000	275.035	80.009	19.994	103.937	19.620	17.371	0.496
379.500	275.321	80.010	19.993	103.938	19.617	17.534	0.503
380.000	275.562	80.009	19.994	103.939	19.615	17.729	0.521
380.500	275.819	80.010	19.993	103.938	19.616	17.645	0.513
381.000	276.052	80.009	19.993	103.939	19.614	17.787	0.494
381.500	276.321	80.010	19.994	103.940	19.612	17.931	0.496
382.000	276.587	80.010	19.993	103.940	19.610	18.059	0.518
382.500	276.812	80.011	19.994	103.939	19.612	17.924	0.513
383.000	277.062	80.007	19.993	103.939	19.609	18.146	0.483
383.500	277.297	80.008	19.993	103.939	19.606	18.326	0.480
384.000	277.518	80.009	19.994	103.942	19.601	18.697	0.470
384.500	277.811	80.009	19.995	103.944	19.604	18.479	0.485
385.000	278.039	80.009	19.995	103.946	19.603	18.587	0.518
385.500	278.315	80.009	19.995	103.949	19.600	18.790	0.513
386.000	278.565	80.008	19.995	103.951	19.600	18.761	0.515
386.500	278.828	80.008	19.995	103.948	19.599	18.815	0.520
387.000	279.077	80.009	19.995	103.946	19.594	19.155	0.513
387.500	279.319	80.009	19.996	103.945	19.595	19.147	0.501
388.000	279.581	80.009	19.993	103.943	19.592	19.296	0.497
388.500	279.851	80.007	19.995	103.947	19.590	19.482	0.518
389.000	280.110	80.009	19.995	103.952	19.590	19.482	0.531
389.500	280.334	80.008	19.995	103.953	19.586	19.732	0.506
390.000	280.602	80.008	19.993	103.956	19.585	19.814	0.487
390.500	280.833	80.009	19.995	103.960	19.585	19.801	0.496
391.000	281.061	80.009	19.993	103.957	19.583	19.957	0.479
391.500	281.306	80.007	19.995	103.953	19.580	20.173	0.466
392.000	281.576	80.006	19.994	103.960	19.580	20.164	0.494
392.500	281.837	80.007	19.994	103.963	19.579	20.267	0.523
393.000	282.097	80.006	19.994	103.966	19.577	20.375	0.525
393.500	282.353	80.007	19.993	103.972	19.579	20.280	0.518
394.000	282.628	80.007	19.994	103.979	19.575	20.548	0.524
394.500	282.860	80.009	19.994	103.979	19.576	20.466	0.519
395.000	283.072	80.007	19.995	103.980	19.576	20.483	0.475
395.500	283.321	80.007	19.995	103.981	19.572	20.752	0.452
396.000	283.593	80.006	19.993	103.981	19.572	20.747	0.491
396.500	283.820	80.008	19.993	103.981	19.567	21.092	0.510
397.000	284.118	80.008	19.994	103.980	19.570	20.877	0.511
397.500	284.344	80.008	19.993	103.980	19.569	20.985	0.524
398.000	284.583	80.007	19.995	103.980	19.564	21.330	0.495
398.500	284.848	80.009	19.993	103.981	19.561	21.533	0.485
399.000	285.110	80.009	19.993	103.982	19.561	21.524	0.515
399.500	285.375	80.009	19.994	103.986	19.555	21.973	0.526
400.000	285.608	80.009	19.994	103.986	19.554	22.024	0.513
400.500	285.855	80.010	19.993	103.985	19.556	21.846	0.489
401.000	286.108	80.010	19.994	103.984	19.551	22.258	0.490
401.500	286.349	80.009	19.995	103.983	19.544	22.693	0.496
402.000	286.591	80.010	19.994	103.980	19.548	22.459	0.488
402.500	286.844	80.009	19.994	103.982	19.546	22.558	0.489
403.000	287.110	80.011	19.994	103.982	19.542	22.899	0.507
403.500	287.339	80.009	19.994	103.984	19.537	23.215	0.507
404.000	287.629	80.010	19.993	103.983	19.539	23.085	0.507
404.500	287.855	80.010	19.993	103.983	19.535	23.360	0.518
405.000	288.090	80.010	19.993	103.982	19.531	23.642	0.488
405.500	288.366	80.010	19.994	103.988	19.529	23.788	0.486
406.000	288.648	80.010	19.994	103.992	19.527	23.918	0.534
406.500	288.855	80.009	19.993	103.994	19.525	24.045	0.524
407.000	289.171	80.009	19.994	103.999	19.522	24.268	0.506
407.500	289.396	80.010	19.993	104.002	19.518	24.567	0.532
408.000	289.651	80.011	19.993	104.002	19.516	24.678	0.510
408.500	289.899	80.009	19.994	104.000	19.517	24.631	0.492
409.000	290.184	80.009	19.994	104.005	19.511	25.074	0.518
409.500	290.469	80.009	19.993	104.006	19.507	25.314	0.552
410.000	290.686	80.008	19.993	104.010	19.500	25.812	0.536
410.500	290.965	80.009	19.993	104.010	19.501	25.766	0.499
411.000	291.200	80.009	19.993	104.014	19.494	26.226	0.505
411.500	291.437	80.009	19.994	104.015	19.491	26.483	0.493
412.000	291.717	80.008	19.994	104.015	19.488	26.670	0.495
412.500	291.931	80.008	19.994	104.014	19.489	26.589	0.506
413.000	292.208	80.008	19.994	104.015	19.485	26.921	0.493
413.500	292.449	80.008	19.994	104.017	19.483	27.042	0.505
414.000	292.699	80.009	19.994	104.021	19.477	27.434	0.504
414.500	292.922	80.009	19.994	104.023	19.471	27.840	0.482
415.000	293.147	80.008	19.994	104.025	19.472	27.809	0.461
415.500	293.400	80.008	19.994	104.025	19.470	27.972	0.463
416.000	293.680	80.009	19.994	104.025	19.463	28.423	0.505
416.500	294.005	80.008	19.993	104.022	19.462	28.533	0.569
417.000	294.229	80.007	19.994	104.020	19.454	29.060	0.578
417.500	294.423	80.007	19.993	104.021	19.453	29.134	0.484
418.000	294.731	80.009	19.994	104.021	19.450	29.340	0.460
418.500	294.961	80.008	19.995	104.021	19.445	29.686	0.520
419.000	295.198	80.008	19.992	104.022	19.441	29.972	0.503
419.500	295.460	80.009	19.996	104.023	19.436	30.316	0.484
420.000	295.738	80.010	19.993	104.023	19.433	30.521	0.519
420.500	295.978	80.010	19.994	104.023	19.426	31.041	0.528
421.000	296.226	80.009	19.994	104.023	19.423	31.234	0.503
421.500	296.484	80.009	19.994	104.022	19.416	31.732	0.497
422.000	296.704	80.009	19.994	104.021	19.414	31.908	0.492
422.500	296.937	80.010	19.994	104.020	19.409	32.239	0.465
423.000	297.197	80.009	19.995	104.020	19.404	32.563	0.473
423.500	297.443	80.010	19.994	104.019	19.399	32.965	0.500
424.000	297.708	80.010	19.995	104.018	19.395	33.244	0.508
424.500	297.943	80.010	19.993	104.017	19.391	33.517	0.505
425.000	298.178	80.010	19.994	104.015	19.386	33.836	0.485
425.500	298.468	80.010	19.996	104.015	19.383	34.082	0.498
426.000	298.686	80.010	19.993	104.015	19.374	34.723	0.516
426.500	298.962	80.012	19.994	104.016	19.372	34.874	0.501
427.000	299.216	80.009	19.994	104.017	19.365	35.359	0.512
427.500	299.449	80.011	19.994	104.017	19.361	35.606	0.509
428.000	299.729	80.011	19.995	104.017	19.357	35.915	0.500
428.500	299.971	80.009	19.994	104.017	19.349	36.458	0.517
429.000	300.233	80.011	19.994	104.016	19.346	36.679	0.512
429.500	300.478	80.010	19.993	104.014	19.341	37.044	0.506
430.000	300.701	80.010	19.994	104.014	19.337	37.295	0.488
430.500	300.983	80.010	19.993	104.014	19.332	37.693	0.486
431.000	301.256	80.011	19.995	104.014	19.327	38.003	0.530
431.500	301.482	80.011	19.994	104.014	19.321	38.425	0.527
432.000	301.706	80.010	19.995	104.013	19.319	38.595	0.475
432.500	301.987	80.009	19.993	104.012	19.311	39.136	0.477
433.000	302.250	80.009	19.993	104.013	19.304	39.621	0.524
433.500	302.483	80.010	19.993	104.012	19.301	39.857	0.520
434.000	302.701	80.010	19.993	104.010	19.296	40.174	0.474
434.500	303.000	80.010	19.995	104.009	19.290	40.620	0.484
435.000	303.220	80.011	19.993	104.008	19.288	40.784	0.518
435.500	303.464	80.010	19.992	104.008	19.278	41.459	0.491
436.000	303.751	80.009	19.992	104.009	19.274	41.758	0.498
436.500	303.993	80.010	19.994	104.009	19.272	41.907	0.530
437.000	304.204	80.008	19.994	104.008	19.267	42.233	0.491
437.500	304.475	80.009	19.993	104.008	19.265	42.362	0.467
438.000	304.751	80.009	19.993	104.003	19.260	42.719	0.514
438.500	304.964	80.008	19.993	103.997	19.257	42.942	0.518
439.000	305.235	80.008	19.994	103.995	19.255	43.112	0.486
439.500	305.505	80.009	19.994	103.996	19.249	43.495	0.512
440.000	305.774	80.008	19.994	103.992	19.244	43.882	0.540
440.500	306.001	80.009	19.993	103.990	19.240	44.128	0.518
441.000	306.278	80.010	19.994	103.989	19.234	44.546	0.500
441.500	306.549	80.009	19.992	103.985	19.232	44.697	0.526
442.000	306.788	80.009	19.993	103.981	19.229	44.918	0.529
442.500	307.068	80.010	19.994	103.979	19.222	45.421	0.515
443.000	307.286	80.009	19.994	103.979	19.223	45.362	0.508
443.500	307.550	80.007	19.992	103.979	19.221	45.464	0.490
444.000	307.795	80.010	19.995	103.979	19.215	45.910	0.496
444.500	308.057	80.008	19.995	103.979	19.215	45.893	0.508
445.000	308.325	80.010	19.992	103.979	19.213	46.025	0.518
445.500	308.577	80.010	19.994	103.978	19.210	46.269	0.525
446.000	308.824	80.010	19.994	103.978	19.210	46.228	0.510
446.500	309.073	80.009	19.992	103.978	19.205	46.609	0.497
447.000	309.304	80.010	19.995	103.978	19.207	46.486	0.488
447.500	309.580	80.009	19.994	103.978	19.203	46.723	0.494
448.000	309.796	80.009	19.992	103.978	19.199	47.040	0.499
448.500	310.084	80.009	19.994	103.976	19.198	47.100	0.498
449.000	310.332	80.008	19.995	103.970	19.202	46.847	0.520
449.500	310.603	80.009	19.994	103.967	19.198	47.114	0.528
450.000	310.845	80.010	19.994	103.968	19.195	47.339	0.516
450.500	311.113	80.009	19.994	103.968	19.197	47.157	0.511
451.000	311.344	80.009	19.995	103.970	19.195	47.315	0.505
451.500	311.665	80.009	19.994	103.975	19.194	47.365	0.525
452.000	311.885	80.009	19.994	103.978	19.195	47.343	0.547
452.500	312.169	80.009	19.994	103.977	19.193	47.473	0.523
453.000	312.425	80.010	19.993	103.970	19.194	47.349	0.522
453.500	312.682	80.009	19.994	103.963	19.192	47.550	0.527
454.000	312.911	80.008	19.992	103.958	19.189	47.702	0.500
454.500	313.219	80.009	19.994	103.952	19.192	47.513	0.512
455.000	313.444	80.009	19.994	103.950	19.190	47.625	0.535
455.500	313.699	80.010	19.993	103.957	19.189	47.703	0.507
456.000	313.928	80.009	19.994	103.958	19.190	47.674	0.482
456.500	314.181	80.010	19.993	103.955	19.190	47.636	0.483
457.000	314.456	80.010	19.994	103.954	19.191	47.555	0.505
457.500	314.723	80.010	19.992	103.947	19.191	47.584	0.535
458.000	314.964	80.009	19.993	103.939	19.193	47.471	0.525
458.500	315.240	80.009	19.993	103.937	19.193	47.417	0.513
459.000	315.523	80.009	19.994	103.937	19.197	47.180	0.538
459.500	315.742	80.008	19.994	103.937	19.195	47.304	0.530
460.000	316.042	80.008	19.994	103.939	19.196	47.222	0.510
460.500	316.279	80.009	19.994	103.940	19.199	46.994	0.528
461.000	316.535	80.009	19.992	103.941	19.202	46.788	0.515
461.500	316.790	80.008	19.995	103.941	19.200	46.989	0.502
462.000	317.038	80.008	19.993	103.943	19.201	46.904	0.507
462.500	317.310	80.009	19.992	103.943	19.201	46.857	0.512
463.000	317.594	80.009	19.994	103.943	19.208	46.397	0.538
463.500	317.821	80.009	19.993	103.943	19.209	46.294	0.533
464.000	318.073	80.009	19.993	103.943	19.207	46.449	0.495
464.500	318.362	80.009	19.994	103.942	19.209	46.309	0.510
465.000	318.611	80.008	19.992	103.937	19.212	46.133	0.539
465.500	318.836	80.009	19.994	103.933	19.212	46.133	0.506
466.000	319.112	80.008	19.994	103.930	19.216	45.832	0.488
466.500	319.410	80.008	19.993	103.923	19.216	45.839	0.538
467.000	319.620	80.008	19.993	103.917	19.219	45.631	0.541
467.500	319.880	80.008	19.992	103.918	19.222	45.397	0.489
468.000	320.125	80.008	19.993	103.916	19.221	45.442	0.487
468.500	320.377	80.009	19.994	103.912	19.225	45.202	0.501
469.000	320.622	80.008	19.993	103.917	19.228	44.960	0.497
469.500	320.866	80.009	19.995	103.923	19.229	44.912	0.492
470.000	321.153	80.009	19.994	103.927	19.232	44.710	0.510
470.500	321.401	80.009	19.994	103.933	19.232	44.698	0.533
471.000	321.649	80.007	19.995	103.938	19.231	44.749	0.515
471.500	321.942	80.009	19.993	103.940	19.238	44.262	0.519
472.000	322.187	80.009	19.993	103.941	19.238	44.230	0.540
472.500	322.431	80.008	19.994	103.936	19.243	43.923	0.513
473.000	322.693	80.008	19.993	103.931	19.245	43.771	0.497
473.500	322.926	80.009	19.992	103.931	19.245	43.769	0.501
474.000	323.157	80.009	19.992	103.930	19.246	43.671	0.479
474.500	323.437	80.008	19.993	103.928	19.253	43.211	0.487
475.000	323.689	80.008	19.994	103.930	19.252	43.306	0.522
475.500	323.951	80.009	19.992	103.932	19.255	43.093	0.524
476.000	324.213	80.008	19.993	103.931	19.257	42.916	0.519
476.500	324.463	80.007	19.993	103.931	19.259	42.775	0.518
477.000	324.692	80.008	19.994	103.931	19.263	42.534	0.495
477.500	324.980	80.009	19.993	103.930	19.262	42.580	0.498
478.000	325.201	80.008	19.993	103.931	19.265	42.337	0.513
478.500	325.494	80.008	19.993	103.930	19.267	42.250	0.512
479.000	325.736	80.008	19.992	103.931	19.271	41.957	0.524
479.500	326.023	80.009	19.993	103.927	19.271	41.959	0.532
480.000	326.279	80.009	19.992	103.924	19.275	41.632	0.536
480.500	326.506	80.008	19.994	103.920	19.277	41.479	0.513
481.000	326.752	80.009	19.992	103.919	19.279	41.349	0.478
481.500	327.008	80.010	19.993	103.913	19.282	41.165	0.487
482.000	327.277	80.008	19.993	103.910	19.286	40.866	0.514
482.500	327.513	80.008	19.992	103.909	19.287	40.818	0.515
483.000	327.782	80.009	19.994	103.908	19.287	40.778	0.505
483.500	328.053	80.010	19.993	103.906	19.291	40.521	0.522
484.000	328.293	80.011	19.992	103.904	19.295	40.240	0.525
484.500	328.534	80.011	19.993	103.904	19.293	40.398	0.495
485.000	328.786	80.009	19.994	103.904	19.298	40.040	0.487
485.500	329.044	80.010	19.994	103.904	19.300	39.860	0.502
486.000	329.309	80.010	19.993	103.903	19.304	39.578	0.516
486.500	329.557	80.010	19.994	103.902	19.306	39.471	0.517
487.000	329.865	80.009	19.993	103.901	19.310	39.173	0.534
487.500	330.094	80.010	19.993	103.900	19.307	39.357	0.546
488.000	330.335	80.009	19.994	103.900	19.311	39.108	0.503
488.500	330.577	80.009	19.993	103.900	19.313	38.950	0.477
489.000	330.846	80.010	19.993	103.901	19.316	38.743	0.498
489.500	331.092	80.011	19.993	103.901	19.323	38.237	0.513
490.000	331.353	80.009	19.994	103.901	19.324	38.197	0.511
490.500	331.620	80.009	19.994	103.900	19.327	37.980	0.517
491.000	331.867	80.009	19.993	103.900	19.327	37.961	0.521
491.500	332.138	80.009	19.993	103.898	19.331	37.666	0.516
492.000	332.388	80.010	19.993	103.893	19.334	37.490	0.519
492.500	332.634	80.009	19.995	103.887	19.340	37.034	0.509
493.000	332.894	80.010	19.993	103.881	19.341	36.961	0.501
493.500	333.151	80.009	19.995	103.877	19.343	36.843	0.512
494.000	333.410	80.010	19.994	103.870	19.348	36.505	0.517
494.500	333.628	80.008	19.994	103.869	19.350	36.364	0.497
495.000	333.889	80.009	19.995	103.871	19.353	36.115	0.478
495.500	334.157	80.009	19.994	103.869	19.358	35.797	0.505
496.000	334.415	80.010	19.993	103.866	19.361	35.583	0.528
496.500	334.686	80.009	19.994	103.866	19.359	35.716	0.527
497.000	334.931	80.010	19.992	103.866	19.363	35.440	0.522
497.500	335.170	80.009	19.993	103.862	19.365	35.312	0.500
498.000	335.409	80.009	19.995	103.862	19.370	34.974	0.481
498.500	335.670	80.010	19.993	103.863	19.371	34.868	0.489
499.000	335.931	80.009	19.995	103.863	19.373	34.730	0.511
499.500	336.171	80.009	19.995	103.863	19.378	34.351	0.511
500.000	336.418	80.010	19.994	103.863	19.381	34.177	0.494
500.500	336.683	80.010	19.993	103.863	19.383	34.061	0.500
501.000	336.904	80.009	19.993	103.863	19.387	33.739	0.499
501.500	337.185	80.011	19.993	103.861	19.390	33.518	0.494
502.000	337.421	80.009	19.992	103.861	19.394	33.217	0.509
502.500	337.711	80.009	19.992	103.862	19.396	33.116	0.522
503.000	337.953	80.010	19.992	103.862	19.399	32.895	0.529
503.500	338.190	80.007	19.995	103.861	19.402	32.717	0.505
504.000	338.469	80.009	19.994	103.861	19.405	32.500	0.497
504.500	338.694	80.010	19.994	103.861	19.410	32.095	0.510
505.000	338.949	80.009	19.994	103.860	19.407	32.296	0.492
505.500	339.145	80.009	19.994	103.859	19.410	32.124	0.466
506.000	339.458	80.011	19.995	103.860	19.412	31.991	0.480
506.500	339.732	80.010	19.995	103.860	19.418	31.581	0.548
507.000	339.960	80.010	19.995	103.860	19.418	31.572	0.544
507.500	340.192	80.011	19.994	103.861	19.421	31.338	0.481
508.000	340.481	80.011	19.995	103.859	19.426	30.965	0.491
508.500	340.682	80.011	19.993	103.859	19.426	31.022	0.506
509.000	340.943	80.010	19.993	103.859	19.430	30.675	0.476
509.500	341.210	80.010	19.993	103.858	19.434	30.413	0.495
510.000	341.445	80.011	19.994	103.857	19.434	30.406	0.515
510.500	341.659	80.011	19.994	103.858	19.435	30.344	0.475
511.000	341.935	80.011	19.994	103.858	19.439	30.107	0.469
511.500	342.183	80.010	19.993	103.857	19.441	29.931	0.507
512.000	342.450	80.012	19.993	103.858	19.446	29.616	0.519
512.500	342.681	80.010	19.994	103.857	19.445	29.668	0.506
513.000	342.919	80.010	19.993	103.851	19.445	29.621	0.484
513.500	343.193	80.011	19.993	103.843	19.447	29.519	0.491
514.000	343.407	80.011	19.993	103.837	19.448	29.427	0.500
514.500	343.672	80.010	19.994	103.830	19.452	29.176	0.484
515.000	343.880	80.009	19.994	103.829	19.451	29.233	0.476
515.500	344.159	80.010	19.993	103.830	19.454	29.016	0.480
516.000	344.410	80.010	19.994	103.829	19.453	29.124	0.509
516.500	344.659	80.010	19.994	103.828	19.454	29.010	0.515
517.000	344.896	80.010	19.995	103.829	19.459	28.707	0.493
517.500	345.146	80.010	19.996	103.827	19.460	28.598	0.486
518.000	345.439	80.009	19.994	103.829	19.460	28.623	0.514
518.500	345.658	80.009	19.994	103.832	19.463	28.425	0.527
519.000	345.906	80.009	19.994	103.832	19.462	28.455	0.490
519.500	346.155	80.009	19.994	103.834	19.465	28.254	0.483
520.000	346.400	80.009	19.992	103.831	19.466	28.148	0.496
520.500	346.643	80.007	19.995	103.830	19.463	28.370	0.491
521.000	346.881	80.008	19.996	103.834	19.467	28.099	0.484
521.500	347.173	80.009	19.995	103.837	19.469	27.997	0.506
522.000	347.418	80.008	19.995	103.839	19.467	28.081	0.534
522.500	347.637	80.008	19.995	103.839	19.469	27.932	0.500
523.000	347.886	80.007	19.994	103.836	19.468	28.003	0.466
523.500	348.189	80.009	19.996	103.829	19.468	28.039	0.510
524.000	348.449	80.008	19.994	103.826	19.470	27.888	0.558
524.500	348.668	80.008	19.995	103.823	19.471	27.820	0.521
525.000	348.905	80.007	19.995	103.823	19.470	27.861	0.468
525.500	349.176	80.006	19.995	103.829	19.473	27.676	0.482
526.000	349.435	80.008	19.995	103.834	19.470	27.927	0.518
526.500	349.648	80.008	19.994	103.838	19.471	27.845	0.501
527.000	349.914	80.009	19.994	103.844	19.470	27.915	0.476
527.500	350.183	80.008	19.994	103.849	19.469	27.984	0.507
528.000	350.383	80.008	19.996	103.850	19.469	27.971	0.502
528.500	350.692	80.008	19.993	103.848	19.468	28.059	0.489
529.001	350.952	80.009	19.994	103.848	19.470	27.886	0.540
529.500	351.133	80.007	19.994	103.848	19.470	27.878	0.505
530.000	351.433	80.008	19.992	103.847	19.468	28.025	0.461
530.500	351.662	80.007	19.994	103.844	19.472	27.780	0.505
531.000	351.906	80.008	19.995	103.845	19.469	27.986	0.501
531.500	352.210	80.007	19.994	103.844	19.470	27.923	0.511
532.000	352.418	80.009	19.994	103.842	19.465	28.214	0.530
532.500	352.658	80.007	19.993	103.838	19.469	27.975	0.479
533.001	352.906	80.008	19.993	103.835	19.468	28.062	0.468
533.500	353.176	80.008	19.994	103.832	19.468	28.057	0.503
534.000	353.441	80.007	19.993	103.830	19.466	28.178	0.527
534.500	353.699	80.009	19.994	103.827	19.464	28.336	0.529
535.000	353.995	80.007	19.994	103.832	19.465	28.272	0.539
535.500	354.224	80.009	19.993	103.833	19.463	28.361	0.540
536.000	354.480	80.008	19.993	103.834	19.462	28.432	0.504
536.500	354.721	80.008	19.993	103.835	19.461	28.518	0.491
537.000	354.980	80.007	19.994	103.841	19.461	28.543	0.499
537.500	355.193	80.008	19.993	103.839	19.461	28.542	0.486
538.000	355.482	80.008	19.992	103.842	19.461	28.539	0.487
538.500	355.729	80.008	19.993	103.845	19.460	28.599	0.519
539.000	356.007	80.008	19.993	103.847	19.459	28.707	0.531
539.500	356.250	80.008	19.992	103.845	19.458	28.721	0.523
540.000	356.448	80.009	19.993	103.841	19.457	28.823	0.481
540.500	356.708	80.008	19.992	103.838	19.462	28.458	0.449
541.000	356.964	80.009	19.992	103.834	19.459	28.707	0.488
541.500	357.218	80.009	19.992	103.833	19.462	28.457	0.513
542.000	357.463	80.010	19.993	103.831	19.461	28.559	0.504
542.500	357.712	80.008	19.994	103.833	19.459	28.681	0.496
543.000	357.976	80.010	19.994	103.835	19.459	28.655	0.504
543.500	358.221	80.009	19.994	103.841	19.460	28.617	0.511
544.000	358.516	80.009	19.993	103.840	19.459	28.680	0.525
544.500	358.735	80.008	19.992	103.839	19.459	28.679	0.527
545.000	359.003	80.009	19.993	103.836	19.457	28.818	0.501
545.500	359.261	80.010	19.993	103.835	19.459	28.656	0.506
546.000	359.450	80.009	19.992	103.833	19.457	28.809	0.486
546.500	359.748	80.009	19.994	103.835	19.459	28.703	0.468
547.000	359.977	80.009	19.993	103.839	19.455	28.958	0.507
547.500	360.239	80.010	19.992	103.844	19.457	28.838	0.509
548.000	360.508	80.007	19.993	103.849	19.454	28.995	0.511
548.500	360.722	80.008	19.993	103.848	19.456	28.916	0.507
549.000	360.954	80.008	19.993	103.848	19.454	29.012	0.464
549.500	361.257	80.009	19.993	103.851	19.456	28.885	0.490
550.000	361.449	80.009	19.993	103.851	19.456	28.896	0.515
550.500	361.733	80.009	19.993	103.851	19.456	28.884	0.486
551.000	361.992	80.009	19.994	103.850	19.455	28.941	0.510
551.500	362.235	80.008	19.993	103.851	19.457	28.846	0.522
552.000	362.489	80.009	19.993	103.851	19.457	28.838	0.499
552.500	362.743	80.009	19.993	103.848	19.455	28.941	0.503
553.000	362.986	80.008	19.994	103.844	19.455	28.954	0.503
553.500	363.255	80.007	19.994	103.842	19.459	28.685	0.504
554.000	363.466	80.008	19.994	103.838	19.454	29.014	0.496
554.500	363.755	80.006	19.993	103.831	19.458	28.715	0.490
555.000	363.992	80.009	19.993	103.829	19.458	28.767	0.513
555.500	364.276	80.008	19.994	103.826	19.457	28.814	0.524
556.000	364.507	80.009	19.993	103.826	19.458	28.764	0.518
556.500	364.783	80.008	19.994	103.828	19.457	28.830	0.511
557.000	364.985	80.008	19.995	103.828	19.458	28.713	0.492
557.500	365.275	80.008	19.993	103.831	19.454	29.000	0.485
558.000	365.534	80.008	19.994	103.837	19.454	29.049	0.520
558.500	365.768	80.008	19.994	103.842	19.458	28.769	0.521
559.000	366.056	80.008	19.992	103.846	19.456	28.905	0.508
559.500	366.263	80.008	19.995	103.847	19.456	28.871	0.509
560.000	366.526	80.009	19.995	103.851	19.458	28.725	0.483
560.500	366.758	80.010	19.993	103.852	19.459	28.704	0.483
561.000	367.004	80.010	19.994	103.850	19.457	28.812	0.486
561.500	367.276	80.009	19.993	103.847	19.460	28.621	0.498
562.000	367.559	80.010	19.993	103.844	19.461	28.560	0.537
562.500	367.796	80.010	19.994	103.837	19.461	28.544	0.537
563.000	368.068	80.009	19.993	103.830	19.459	28.688	0.514
563.500	368.298	80.009	19.994	103.825	19.460	28.615	0.505
564.000	368.548	80.010	19.995	103.828	19.459	28.676	0.491
564.500	368.816	80.010	19.994	103.834	19.461	28.501	0.499
565.000	369.093	80.010	19.994	103.838	19.462	28.466	0.531
565.500	369.348	80.009	19.994	103.843	19.464	28.347	0.538
566.000	369.592	80.009	19.992	103.842	19.464	28.344	0.516
566.500	369.879	80.010	19.993	103.838	19.464	28.328	0.515
567.000	370.100	80.011	19.994	103.833	19.465	28.256	0.520
567.500	370.357	80.012	19.994	103.833	19.464	28.292	0.493
568.000	370.584	80.011	19.993	103.830	19.464	28.302	0.481
568.500	370.842	80.011	19.993	103.835	19.463	28.387	0.485
569.000	371.133	80.013	19.993	103.837	19.464	28.312	0.517
569.500	371.335	80.012	19.993	103.837	19.465	28.279	0.521
570.000	371.577	80.011	19.992	103.835	19.465	28.248	0.468
570.500	371.843	80.011	19.993	103.836	19.466	28.157	0.476
571.000	372.127	80.011	19.992	103.833	19.465	28.246	0.529
571.500	372.343	80.011	19.993	103.834	19.465	28.264	0.524
572.000	372.620	80.012	19.993	103.834	19.466	28.165	0.497
572.500	372.853	80.012	19.991	103.833	19.467	28.084	0.502
573.000	373.118	80.011	19.993	103.829	19.468	28.069	0.504
573.500	373.398	80.010	19.993	103.826	19.466	28.158	0.521
574.000	373.622	80.012	19.994	103.823	19.468	28.064	0.524
574.500	373.902	80.011	19.993	103.824	19.468	28.044	0.504
575.000	374.138	80.012	19.994	103.827	19.468	28.033	0.510
575.500	374.429	80.010	19.993	103.831	19.472	27.730	0.522
576.000	374.643	80.010	19.993	103.832	19.471	27.841	0.516
576.500	374.893	80.010	19.992	103.832	19.470	27.917	0.484
577.000	375.164	80.012	19.993	103.830	19.470	27.881	0.493
577.500	375.396	80.011	19.993	103.827	19.471	27.853	0.513
578.000	375.663	80.010	19.994	103.823	19.471	27.795	0.501
578.500	375.884	80.010	19.994	103.823	19.472	27.785	0.493
579.000	376.158	80.010	19.994	103.823	19.475	27.575	0.492
579.500	376.428	80.011	19.995	103.823	19.474	27.629	0.519
580.000	376.702	80.010	19.993	103.823	19.472	27.737	0.544
580.500	376.922	80.010	19.993	103.824	19.478	27.320	0.519
581.000	377.164	80.010	19.993	103.823	19.477	27.389	0.478
581.500	377.457	80.010	19.994	103.823	19.476	27.480	0.498
582.000	377.671	80.009	19.994	103.825	19.479	27.243	0.521
582.500	377.929	80.009	19.994	103.827	19.478	27.305	0.490
583.000	378.174	80.010	19.993	103.830	19.478	27.301	0.488
583.500	378.432	80.009	19.994	103.830	19.478	27.346	0.503
584.000	378.688	80.009	19.993	103.833	19.478	27.330	0.508
584.500	378.932	80.009	19.993	103.833	19.480	27.206	0.507
585.000	379.176	80.010	19.994	103.836	19.481	27.098	0.494
585.500	379.440	80.010	19.994	103.834	19.483	26.945	0.498
586.000	379.700	80.010	19.993	103.836	19.482	27.077	0.516
586.500	379.943	80.009	19.993	103.834	19.480	27.206	0.513
587.000	380.175	80.009	19.994	103.837	19.485	26.840	0.489
587.500	380.485	80.009	19.994	103.835	19.485	26.830	0.509
588.000	380.709	80.010	19.994	103.837	19.481	27.086	0.538
588.500	380.938	80.010	19.994	103.834	19.485	26.870	0.494
589.000	381.198	80.009	19.995	103.833	19.484	26.904	0.470
589.500	381.453	80.009	19.994	103.830	19.485	26.810	0.501
590.000	381.731	80.011	19.995	103.831	19.487	26.719	0.524
590.500	381.991	80.009	19.994	103.831	19.485	26.819	0.536
591.000	382.228	80.009	19.994	103.831	19.487	26.712	0.517
591.500	382.461	80.010	19.994	103.831	19.488	26.631	0.484
592.000	382.741	80.011	19.995	103.828	19.485	26.836	0.492
592.500	382.967	80.011	19.993	103.824	19.486	26.767	0.510
593.000	383.260	80.011	19.993	103.824	19.486	26.769	0.512
593.500	383.514	80.010	19.993	103.824	19.485	26.865	0.533
594.000	383.743	80.010	19.993	103.824	19.489	26.541	0.515
594.500	384.017	80.010	19.995	103.825	19.484	26.921	0.493
595.000	384.251	80.010	19.994	103.825	19.487	26.722	0.506
595.500	384.491	80.011	19.993	103.824	19.484	26.915	0.491
596.000	384.776	80.011	19.993	103.824	19.485	26.865	0.499
596.500	385.001	80.012	19.993	103.828	19.487	26.699	0.517
597.000	385.263	80.011	19.994	103.830	19.490	26.518	0.499
597.500	385.523	80.013	19.995	103.831	19.486	26.780	0.505
598.000	385.759	80.009	19.994	103.831	19.487	26.705	0.509
598.500	386.027	80.010	19.992	103.833	19.486	26.780	0.500
599.000	386.277	80.010	19.994	103.828	19.488	26.620	0.511
599.500	386.550	80.010	19.994	103.828	19.487	26.690	0.520
600.000	386.830	80.010	19.994	103.828	19.485	26.863	0.537
600.500	387.045	80.010	19.994	103.828	19.485	26.836	0.523
601.000	387.323	80.010	19.993	103.826	19.485	26.852	0.494
601.501	387.563	80.011	19.993	103.826	19.485	26.809	0.506
602.000	387.819	80.010	19.992	103.823	19.486	26.769	0.508
602.500	388.067	80.010	19.993	103.824	19.485	26.857	0.500
603.000	388.337	80.009	19.994	103.825	19.486	26.736	0.511
603.501	388.573	80.009	19.993	103.826	19.488	26.603	0.512
604.000	388.822	80.008	19.993	103.825	19.488	26.624	0.495
604.500	389.069	80.008	19.993	103.826	19.486	26.742	0.490
605.000	389.320	80.008	19.993	103.826	19.487	26.694	0.497
605.500	389.602	80.009	19.993	103.824	19.486	26.780	0.516
606.000	389.820	80.009	19.994	103.824	19.485	26.821	0.517
606.500	390.077	80.008	19.995	103.825	19.487	26.700	0.488
607.000	390.316	80.008	19.993	103.825	19.488	26.634	0.485
607.500	390.606	80.008	19.993	103.824	19.487	26.670	0.512
608.000	390.862	80.007	19.994	103.824	19.489	26.580	0.538
608.500	391.113	80.007	19.994	103.824	19.487	26.686	0.527
609.000	391.353	80.008	19.994	103.824	19.489	26.522	0.499
609.500	391.590	80.008	19.993	103.824	19.486	26.751	0.484
610.000	391.865	80.008	19.994	103.825	19.489	26.556	0.495
610.500	392.153	80.008	19.994	103.826	19.487	26.693	0.537
611.000	392.359	80.007	19.995	103.826	19.487	26.667	0.528
611.500	392.620	80.008	19.994	103.826	19.487	26.667	0.481
612.000	392.873	80.006	19.996	103.826	19.488	26.626	0.491
612.500	393.126	80.006	19.994	103.826	19.485	26.840	0.510
613.000	393.385	80.007	19.995	103.825	19.487	26.686	0.509
613.500	393.653	80.006	19.994	103.825	19.488	26.606	0.519
614.000	393.934	80.007	19.995	103.824	19.488	26.602	0.538
614.500	394.121	80.009	19.996	103.824	19.490	26.510	0.509
615.000	394.419	80.007	19.994	103.824	19.489	26.531	0.477
615.500	394.643	80.008	19.994	103.825	19.490	26.503	0.503
616.000	394.921	80.008	19.993	103.826	19.492	26.354	0.512
616.500	395.164	80.007	19.993	103.825	19.492	26.375	0.511
617.000	395.448	80.007	19.993	103.826	19.487	26.686	0.524
617.500	395.694	80.008	19.993	103.827	19.489	26.578	0.529
618.000	395.966	80.007	19.994	103.826	19.489	26.538	0.524
618.500	396.212	80.008	19.995	103.826	19.492	26.308	0.518
619.000	396.455	80.008	19.994	103.826	19.493	26.283	0.504
619.500	396.700	80.008	19.995	103.827	19.492	26.352	0.489
620.000	396.979	80.008	19.994	103.825	19.493	26.302	0.506
620.500	397.217	80.007	19.995	103.824	19.492	26.359	0.520
621.000	397.491	80.008	19.994	103.825	19.494	26.197	0.514
621.500	397.744	80.009	19.995	103.825	19.496	26.072	0.520
622.000	397.978	80.008	19.995	103.820	19.496	26.089	0.507
622.500	398.196	80.008	19.994	103.819	19.497	25.999	0.469
623.000	398.477	80.008	19.994	103.818	19.497	25.964	0.475
623.500	398.766	80.008	19.995	103.816	19.494	26.184	0.534
624.000	398.999	80.009	19.996	103.817	19.496	26.036	0.546
624.500	399.243	80.009	19.995	103.821	19.494	26.183	0.499
625.000	399.523	80.009	19.995	103.822	19.498	25.934	0.500
625.500	399.722	80.008	19.996	103.823	19.495	26.125	0.501
626.000	400.023	80.009	19.994	103.824	19.492	26.344	0.490
626.500	400.248	80.008	19.994	103.821	19.493	26.300	0.513
627.000	400.500	80.010	19.994	103.819	19.496	26.055	0.502
627.500	400.778	80.009	19.994	103.818	19.494	26.173	0.504
628.000	401.007	80.008	19.994	103.818	19.497	25.974	0.519
628.500	401.281	80.008	19.995	103.818	19.496	26.056	0.505
629.000	401.495	80.008	19.994	103.820	19.495	26.160	0.496
629.500	401.767	80.010	19.993	103.821	19.496	26.065	0.487
630.000	402.026	80.008	19.994	103.819	19.495	26.111	0.508
630.500	402.281	80.010	19.995	103.818	19.498	25.941	0.523
631.000	402.517	80.008	19.994	103.817	19.496	26.058	0.503
631.500	402.784	80.008	19.994	103.816	19.497	26.002	0.497
632.000	403.019	80.008	19.994	103.817	19.498	25.935	0.503
632.500	403.284	80.008	19.994	103.818	19.496	26.035	0.501
633.000	403.538	80.007	19.995	103.817	19.498	25.933	0.509
633.500	403.776	80.009	19.995	103.818	19.496	26.088	0.506
634.000	404.030	80.008	19.994	103.816	19.498	25.921	0.492
634.500	404.304	80.009	19.994	103.817	19.497	25.967	0.510
635.000	404.541	80.009	19.993	103.818	19.499	25.868	0.520
635.500	404.838	80.009	19.994	103.819	19.501	25.726	0.523
636.000	405.051	80.010	19.994	103.819	19.502	25.627	0.522
636.500	405.300	80.008	19.994	103.819	19.504	25.465	0.486
637.000	405.572	80.008	19.993	103.817	19.504	25.513	0.491
637.500	405.775	80.008	19.994	103.817	19.506	25.385	0.498
638.000	406.074	80.008	19.993	103.818	19.503	25.599	0.489
638.500	406.311	80.009	19.994	103.820	19.504	25.517	0.519
639.000	406.530	80.008	19.993	103.820	19.504	25.513	0.496
639.500	406.818	80.008	19.993	103.824	19.508	25.216	0.482
640.000	407.046	80.009	19.993	103.828	19.506	25.355	0.511
640.500	407.307	80.009	19.994	103.827	19.506	25.354	0.502
641.000	407.574	80.009	19.993	103.827	19.511	24.998	0.509
641.500	407.824	80.008	19.992	103.825	19.513	24.887	0.523
642.000	408.035	80.008	19.993	103.821	19.512	24.909	0.488
642.500	408.299	80.009	19.993	103.815	19.510	25.055	0.468
643.000	408.537	80.009	19.994	103.815	19.514	24.818	0.489
643.500	408.813	80.009	19.993	103.815	19.511	25.033	0.508
644.000	409.069	80.008	19.993	103.816	19.517	24.605	0.523
644.500	409.331	80.010	19.994	103.820	19.516	24.676	0.524
645.000	409.550	80.009	19.993	103.822	19.513	24.870	0.499
645.500	409.838	80.010	19.994	103.821	19.514	24.799	0.494
646.000	410.073	80.009	19.993	103.818	19.515	24.693	0.515
646.500	410.297	80.010	19.992	103.816	19.514	24.790	0.491
647.000	410.550	80.011	19.993	103.811	19.518	24.505	0.469
647.500	410.807	80.008	19.994	103.811	19.517	24.556	0.494
648.000	411.085	80.011	19.995	103.813	19.518	24.532	0.522
648.500	411.321	80.010	19.994	103.815	19.517	24.593	0.524
649.000	411.576	80.010	19.993	103.814	19.521	24.317	0.503
649.500	411.815	80.011	19.994	103.819	19.521	24.275	0.493
650.001	412.078	80.011	19.992	103.819	19.522	24.256	0.498
650.500	412.350	80.011	19.993	103.817	19.519	24.426	0.519
651.000	412.596	80.011	19.992	103.811	19.522	24.249	0.527
651.500	412.868	80.011	19.992	103.808	19.521	24.262	0.518
652.001	413.106	80.012	19.993	103.805	19.521	24.263	0.514
652.500	413.353	80.010	19.994	103.800	19.521	24.265	0.498
653.000	413.604	80.011	19.993	103.795	19.521	24.278	0.491
653.500	413.871	80.010	19.992	103.798	19.522	24.245	0.508
654.000	414.107	80.010	19.993	103.801	19.522	24.203	0.511
654.500	414.381	80.011	19.993	103.798	19.524	24.094	0.507
655.000	414.608	80.010	19.993	103.795	19.523	24.163	0.506
655.500	414.867	80.011	19.993	103.797	19.525	24.045	0.494
656.000	415.122	80.011	19.994	103.793	19.528	23.830	0.500
656.500	415.366	80.010	19.993	103.793	19.526	23.931	0.507
657.000	415.626	80.010	19.994	103.795	19.526	23.950	0.501
657.500	415.860	80.011	19.993	103.796	19.529	23.729	0.499
658.000	416.119	80.010	19.993	103.797	19.527	23.888	0.493
658.500	416.355	80.010	19.993	103.801	19.528	23.788	0.494
659.000	416.611	80.010	19.992	103.799	19.530	23.662	0.494
659.500	416.852	80.010	19.992	103.797	19.532	23.518	0.494
660.000	417.087	80.010	19.994	103.795	19.529	23.741	0.486
660.500	417.372	80.010	19.992	103.798	19.531	23.600	0.498
661.000	417.656	80.011	19.993	103.800	19.530	23.692	0.544
661.500	417.877	80.011	19.992	103.799	19.530	23.659	0.537
662.000	418.130	80.011	19.993	103.799	19.531	23.563	0.490
662.500	418.364	80.009	19.993	103.799	19.531	23.564	0.481
663.000	418.618	80.009	19.992	103.793	19.533	23.451	0.487
663.500	418.909	80.011	19.992	103.788	19.531	23.557	0.516
664.000	419.129	80.011	19.993	103.792	19.534	23.372	0.528
664.500	419.415	80.011	19.993	103.794	19.533	23.418	0.508
665.000	419.651	80.009	19.992	103.794	19.534	23.378	0.514
665.500	419.885	80.010	19.993	103.797	19.533	23.474	0.496
666.000	420.157	80.010	19.993	103.797	19.536	23.267	0.489
666.500	420.418	80.010	19.993	103.794	19.533	23.440	0.520
667.000	420.648	80.009	19.992	103.791	19.535	23.303	0.512
667.500	420.944	80.011	19.993	103.792	19.538	23.114	0.508
668.000	421.155	80.010	19.992	103.793	19.539	23.010	0.516
668.500	421.441	80.011	19.992	103.798	19.537	23.159	0.502
669.000	421.661	80.011	19.992	103.800	19.538	23.077	0.502
669.500	421.902	80.010	19.994	103.801	19.539	23.066	0.484
670.000	422.212	80.012	19.992	103.799	19.538	23.103	0.506
670.500	422.432	80.010	19.993	103.795	19.538	23.091	0.540
671.000	422.672	80.011	19.993	103.789	19.541	22.877	0.495
671.500	422.937	80.010	19.993	103.787	19.540	22.990	0.483
672.000	423.181	80.011	19.992	103.786	19.543	22.722	0.507
672.500	423.421	80.011	19.993	103.786	19.540	22.991	0.496
673.000	423.676	80.011	19.991	103.786	19.541	22.918	0.489
673.500	423.942	80.011	19.994	103.790	19.541	22.920	0.508
674.000	424.206	80.012	19.993	103.796	19.540	22.938	0.526
674.500	424.438	80.011	19.992	103.802	19.538	23.076	0.513
675.000	424.688	80.011	19.991	103.803	19.541	22.921	0.489
675.500	424.951	80.010	19.992	103.803	19.540	22.992	0.497
676.000	425.233	80.012	19.992	103.805	19.543	22.751	0.529
676.501	425.472	80.012	19.994	103.802	19.540	22.990	0.533
677.000	425.710	80.011	19.993	103.802	19.542	22.806	0.499
677.500	425.975	80.012	19.992	103.805	19.541	22.910	0.490
678.000	426.230	80.011	19.993	103.808	19.543	22.722	0.511
678.500	426.477	80.011	19.994	103.806	19.539	23.042	0.511
679.000	426.764	80.009	19.993	103.808	19.548	22.414	0.518
679.500	426.920	80.010	19.992	103.811	19.541	22.903	0.489
680.000	427.296	80.011	19.992	103.814	19.553	22.052	0.487
680.500	427.509	80.011	19.993	103.816	19.543	22.730	0.560
681.000	427.761	80.010	19.993	103.817	19.540	22.953	0.527
681.500	428.011	80.010	19.994	103.817	19.551	22.208	0.484
682.000	428.242	80.011	19.994	103.816	19.555	21.880	0.492
682.500	428.547	80.010	19.993	103.811	19.542	22.828	0.508
683.000	428.778	80.010	19.992	103.813	19.549	22.329	0.536
683.500	428.997	80.010	19.993	103.817	19.552	22.084	0.493
684.001	429.267	80.009	19.995	103.817	19.542	22.784	0.470
684.501	429.534	80.010	19.995	103.817	19.553	22.049	0.513
685.000	429.788	80.010	19.994	103.819	19.550	22.252	0.529
685.500	430.081	80.009	19.994	103.817	19.551	22.184	0.534
686.000	430.319	80.009	19.995	103.815	19.551	22.182	0.539
686.500	430.479	80.009	19.994	103.815	19.549	22.307	0.465
687.000	430.811	80.008	19.993	103.814	19.552	22.097	0.444
687.500	431.038	80.008	19.994	103.813	19.551	22.189	0.525
688.000	431.224	80.008	19.994	103.810	19.555	21.930	0.486
688.500	431.495	80.008	19.996	103.807	19.551	22.156	0.435
689.000	431.828	80.007	19.996	103.804	19.550	22.262	0.530
689.500	432.024	80.007	19.995	103.802	19.554	21.956	0.567
690.000	432.363	80.008	19.995	103.800	19.553	22.055	0.532
690.500	432.476	80.008	19.993	103.802	19.555	21.915	0.493
691.000	432.846	80.007	19.993	103.801	19.554	21.940	0.467
691.500	432.966	80.009	19.993	103.795	19.554	21.971	0.486
692.000	433.320	80.008	19.995	103.792	19.553	22.028	0.482
692.500	433.442	80.009	19.994	103.789	19.554	21.997	0.475
693.000	433.946	80.008	19.994	103.789	19.555	21.882	0.551
693.500	434.109	80.009	19.995	103.787	19.559	21.643	0.646
694.000	434.532	80.010	19.994	103.790	19.555	21.889	0.626
694.500	434.313	80.008	19.995	103.789	19.557	21.789	0.395
695.000	434.716	80.008	19.993	103.788	19.558	21.714	0.195
695.500	435.556	80.009	19.996	103.786	19.555	21.934	0.714
696.000	435.663	80.008	19.993	103.788	19.551	22.168	1.095
696.500	435.388	80.008	19.995	103.786	19.555	21.902	0.389
697.000	435.683	80.008	19.994	103.787	19.558	21.704	-0.074
697.500	436.371	80.009	19.994	103.787	19.555	21.888	0.502
698.000	436.235	80.010	19.994	103.787	19.558	21.686	0.768
698.500	436.690	80.008	19.993	103.784	19.559	21.629	0.435
699.000	436.789	80.009	19.993	103.782	19.559	21.602	0.436
699.500	437.158	80.009	19.993	103.782	19.557	21.796	0.510
700.000	437.527	80.009	19.992	103.782	19.558	21.679	0.603
700.500	437.694	80.010	19.993	103.785	19.560	21.549	0.637
701.000	437.995	80.010	19.994	103.787	19.560	21.540	0.502
701.500	438.186	80.010	19.993	103.791	19.561	21.483	0.480
702.000	438.492	80.009	19.993	103.792	19.558	21.660	0.495
702.500	438.678	80.008	19.994	103.794	19.558	21.715	0.495
703.000	438.816	80.010	19.993	103.797	19.558	21.675	0.408
703.500	439.220	80.008	19.993	103.796	19.558	21.711	0.433
704.000	439.464	80.010	19.994	103.793	19.560	21.569	0.595
704.500	439.708	80.009	19.995	103.791	19.562	21.404	0.568
705.000	439.946	80.009	19.994	103.789	19.558	21.702	0.485
705.500	440.173	80.009	19.993	103.789	19.558	21.668	0.474
706.000	440.498	80.009	19.994	103.790	19.558	21.714	0.508
706.500	440.708	80.009	19.994	103.792	19.558	21.689	0.543
707.000	440.969	80.009	19.993	103.793	19.556	21.837	0.503
707.500	441.219	80.010	19.994	103.795	19.559	21.628	0.491
708.000	441.519	80.008	19.995	103.789	19.558	21.704	0.531
708.500	441.700	80.011	19.993	103.791	19.556	21.811	0.515
709.000	441.988	80.010	19.993	103.794	19.558	21.681	0.475
709.500	442.179	80.008	19.995	103.797	19.556	21.822	0.474
710.000	442.481	80.008	19.994	103.800	19.558	21.676	0.486
710.500	442.738	80.008	19.994	103.802	19.561	21.450	0.527
711.000	442.996	80.008	19.995	103.805	19.558	21.686	0.537
711.500	443.252	80.009	19.994	103.803	19.558	21.719	0.514
712.000	443.520	80.008	19.994	103.805	19.557	21.752	0.519
712.500	443.784	80.008	19.995	103.803	19.556	21.797	0.528
713.000	444.018	80.007	19.995	103.802	19.555	21.929	0.515
713.500	444.257	80.010	19.993	103.796	19.556	21.848	0.485
714.000	444.503	80.009	19.994	103.796	19.558	21.714	0.479
714.500	444.807	80.010	19.995	103.794	19.556	21.796	0.518
715.000	445.073	80.008	19.993	103.791	19.559	21.648	0.560
715.500	445.325	80.008	19.996	103.791	19.558	21.668	0.544
716.000	445.581	80.008	19.995	103.795	19.557	21.767	0.512
716.500	445.785	80.006	19.996	103.791	19.557	21.730	0.484
717.000	446.082	80.007	19.994	103.790	19.557	21.789	0.481
717.500	446.289	80.008	19.995	103.790	19.554	21.964	0.502
718.000	446.577	80.008	19.994	103.790	19.555	21.918	0.499
718.500	446.780	80.009	19.993	103.787	19.555	21.935	0.494
719.000	447.076	80.008	19.994	103.791	19.554	21.955	0.495
719.500	447.315	80.008	19.995	103.792	19.554	21.977	0.517
720.000	447.579	80.009	19.995	103.798	19.553	22.017	0.519
720.500	447.787	80.008	19.995	103.800	19.553	22.022	0.488
721.000	448.059	80.007	19.994	103.804	19.553	22.072	0.476
721.500	448.313	80.008	19.995	103.802	19.552	22.124	0.503
722.000	448.573	80.008	19.994	103.804	19.550	22.230	0.519
722.500	448.810	80.009	19.994	103.803	19.552	22.129	0.506
723.000	449.096	80.008	19.995	103.804	19.550	22.282	0.510
723.500	449.349	80.008	19.994	103.798	19.548	22.394	0.531
724.000	449.544	80.009	19.993	103.796	19.548	22.412	0.493
724.500	449.882	80.008	19.993	103.793	19.546	22.513	0.491
725.000	450.079	80.008	19.992	103.788	19.540	22.942	0.534
725.500	450.377	80.009	19.993	103.787	19.545	22.604	0.515
726.000	450.566	80.009	19.993	103.789	19.544	22.675	0.490
726.500	450.822	80.008	19.994	103.792	19.543	22.733	0.466
727.000	451.077	80.008	19.993	103.794	19.545	22.591	0.478
727.500	451.351	80.007	19.993	103.802	19.544	22.707	0.520
728.000	451.616	80.008	19.993	103.809	19.540	22.925	0.534
728.500	451.897	80.010	19.994	103.814	19.542	22.785	0.543
729.000	452.159	80.008	19.995	103.815	19.542	22.821	0.545
729.500	452.418	80.009	19.993	103.815	19.541	22.881	0.532
730.001	452.639	80.010	19.992	103.815	19.542	22.827	0.500
730.501	452.925	80.009	19.993	103.812	19.540	22.953	0.493
731.000	453.133	80.009	19.993	103.807	19.538	23.125	0.500
731.500	453.410	80.010	19.994	103.806	19.536	23.208	0.489
732.000	453.659	80.009	19.992	103.804	19.539	22.997	0.506
732.500	453.924	80.010	19.993	103.797	19.539	23.022	0.520
733.000	454.151	80.010	19.993	103.793	19.536	23.232	0.503
733.500	454.379	80.011	19.993	103.790	19.538	23.134	0.473
734.000	454.696	80.011	19.993	103.787	19.535	23.287	0.500
734.500	454.918	80.010	19.993	103.787	19.535	23.334	0.542
735.000	455.185	80.012	19.994	103.788	19.534	23.369	0.514
735.500	455.463	80.011	19.993	103.793	19.536	23.277	0.517
736.000	455.686	80.011	19.995	103.798	19.536	23.270	0.523
736.500	455.913	80.010	19.992	103.804	19.533	23.445	0.476
737.000	456.186	80.011	19.993	103.808	19.535	23.331	0.475
737.500	456.460	80.009	19.993	103.809	19.534	23.405	0.523
738.000	456.659	80.011	19.994	103.806	19.530	23.671	0.510
738.500	456.958	80.009	19.993	103.806	19.530	23.666	0.485
739.000	457.192	80.009	19.993	103.808	19.527	23.910	0.515
739.500	457.450	80.009	19.993	103.809	19.526	23.968	0.512
740.000	457.677	80.010	19.992	103.808	19.528	23.799	0.489
740.500	457.993	80.008	19.994	103.807	19.526	23.950	0.514
741.000	458.199	80.009	19.992	103.806	19.525	24.021	0.533
741.500	458.479	80.009	19.993	103.804	19.527	23.848	0.504
742.000	458.725	80.009	19.993	103.802	19.525	23.999	0.506
742.500	458.951	80.009	19.993	103.805	19.523	24.134	0.499
743.000	459.237	80.008	19.992	103.809	19.524	24.062	0.492
743.500	459.525	80.007	19.996	103.808	19.523	24.141	0.543
744.000	459.738	80.009	19.995	103.807	19.522	24.255	0.537
744.500	460.024	80.010	19.994	103.811	19.523	24.125	0.500
745.000	460.235	80.009	19.993	103.814	19.524	24.079	0.499
745.500	460.510	80.010	19.994	103.815	19.522	24.213	0.492
746.000	460.734	80.010	19.992	103.818	19.522	24.253	0.493
746.500	461.023	80.009	19.994	103.818	19.519	24.406	0.506
747.000	461.259	80.009	19.995	103.815	19.520	24.397	0.519
747.500	461.519	80.010	19.993	103.813	19.516	24.634	0.510
748.000	461.767	80.009	19.994	103.810	19.520	24.388	0.502
748.500	462.010	80.008	19.993	103.812	19.520	24.384	0.499
749.000	462.320	80.009	19.994	103.815	19.518	24.497	0.522
749.500	462.543	80.010	19.994	103.817	19.515	24.705	0.543
750.000	462.768	80.009	19.993	103.819	19.516	24.653	0.490
750.500	463.047	80.009	19.995	103.819	19.513	24.833	0.476
751.000	463.303	80.010	19.993	103.817	19.514	24.800	0.520
751.500	463.578	80.008	19.993	103.818	19.516	24.680	0.533
752.000	463.808	80.011	19.993	103.818	19.515	24.744	0.518
752.500	464.036	80.009	19.994	103.819	19.511	24.984	0.481
753.000	464.321	80.010	19.993	103.822	19.510	25.090	0.485
753.500	464.560	80.011	19.993	103.822	19.512	24.944	0.519
754.000	464.822	80.012	19.994	103.818	19.514	24.764	0.512
754.500	465.030	80.010	19.993	103.811	19.511	25.001	0.485
755.000	465.314	80.012	19.993	103.808	19.507	25.279	0.481
755.500	465.537	80.010	19.994	103.808	19.506	25.344	0.500
756.000	465.802	80.010	19.993	103.809	19.510	25.099	0.497
756.500	466.120	80.013	19.993	103.811	19.508	25.238	0.535
757.000	466.357	80.012	19.992	103.818	19.506	25.360	0.569
757.500	466.580	80.012	19.994	103.821	19.507	25.299	0.508
758.000	466.828	80.012	19.992	103.822	19.505	25.391	0.465
758.500	467.114	80.013	19.993	103.820	19.505	25.401	0.502
759.000	467.366	80.013	19.993	103.818	19.502	25.617	0.536
759.500	467.607	80.014	19.994	103.818	19.503	25.541	0.516
760.000	467.883	80.011	19.993	103.814	19.504	25.501	0.505
760.500	468.129	80.012	19.993	103.813	19.505	25.410	0.519
761.000	468.394	80.013	19.993	103.814	19.504	25.521	0.517
761.500	468.662	80.012	19.992	103.815	19.502	25.622	0.522
762.000	468.893	80.012	19.994	103.815	19.503	25.594	0.515
762.500	469.134	80.012	19.994	103.813	19.500	25.807	0.485
763.000	469.415	80.013	19.993	103.807	19.500	25.787	0.497
763.500	469.666	80.013	19.993	103.800	19.499	25.875	0.527
764.000	469.904	80.012	19.993	103.792	19.501	25.712	0.511
764.500	470.161	80.010	19.993	103.786	19.500	25.789	0.492
765.000	470.445	80.010	19.993	103.785	19.497	25.986	0.518
765.500	470.678	80.011	19.993	103.790	19.495	26.105	0.529
766.000	470.928	80.010	19.992	103.794	19.497	25.992	0.500
766.500	471.198	80.010	19.993	103.796	19.497	25.956	0.502
767.000	471.458	80.010	19.994	103.800	19.497	25.956	0.525
767.500	471.691	80.009	19.994	103.799	19.495	26.140	0.511
768.000	471.961	80.010	19.992	103.794	19.495	26.154	0.498
768.500	472.210	80.010	19.992	103.797	19.490	26.485	0.511
769.000	472.430	80.009	19.994	103.801	19.495	26.120	0.494
769.500	472.678	80.009	19.994	103.803	19.496	26.024	0.468
770.000	472.987	80.008	19.992	103.804	19.495	26.152	0.513
770.500	473.251	80.008	19.994	103.806	19.496	26.052	0.565
771.000	473.481	80.009	19.994	103.802	19.495	26.134	0.533
771.500	473.778	80.008	19.992	103.798	19.494	26.221	0.511
772.000	474.010	80.008	19.995	103.797	19.495	26.124	0.528
772.500	474.268	80.009	19.993	103.800	19.495	26.100	0.509
773.000	474.519	80.009	19.994	103.803	19.497	25.957	0.499
773.500	474.801	80.008	19.993	103.808	19.494	26.198	0.521
774.000	475.064	80.010	19.993	103.813	19.494	26.177	0.539
774.500	475.356	80.009	19.994	103.816	19.496	26.090	0.550
775.000	475.592	80.010	19.993	103.819	19.495	26.098	0.542
775.500	475.838	80.009	19.994	103.819	19.497	25.961	0.505
776.000	476.106	80.008	19.992	103.819	19.500	25.766	0.498
776.500	476.360	80.008	19.996	103.819	19.495	26.123	0.518
777.000	476.638	80.008	19.995	103.819	19.493	26.260	0.527
777.500	476.876	80.009	19.994	103.815	19.494	26.177	0.524
778.000	477.183	80.009	19.994	103.809	19.497	25.980	0.531
778.500	477.411	80.009	19.994	103.803	19.496	26.076	0.541
779.000	477.663	80.009	19.994	103.797	19.496	26.061	0.508
779.500	477.898	80.009	19.994	103.796	19.498	25.934	0.483
780.000	478.158	80.009	19.994	103.801	19.498	25.917	0.490
780.501	478.461	80.008	19.994	103.803	19.495	26.095	0.529
781.000	478.731	80.009	19.994	103.805	19.496	26.087	0.568
781.500	478.928	80.010	19.995	103.807	19.497	26.017	0.520
782.000	479.229	80.008	19.994	103.802	19.497	26.005	0.482
782.500	479.451	80.008	19.994	103.796	19.494	26.197	0.510
783.000	479.715	80.009	19.996	103.794	19.498	25.949	0.505
783.500	479.999	80.009	19.994	103.796	19.498	25.934	0.518
784.000	480.251	80.009	19.994	103.798	19.503	25.598	0.542
784.500	480.505	80.007	19.994	103.804	19.499	25.846	0.521
785.000	480.802	80.010	19.994	103.811	19.504	25.473	0.528
785.500	481.048	80.009	19.994	103.818	19.502	25.637	0.547
786.000	481.325	80.010	19.994	103.820	19.499	25.833	0.533
786.500	481.592	80.010	19.994	103.821	19.499	25.838	0.533
787.000	481.836	80.009	19.994	103.820	19.499	25.871	0.527
787.500	482.093	80.008	19.995	103.819	19.500	25.811	0.506
788.000	482.334	80.010	19.994	103.814	19.503	25.573	0.499
788.500	482.593	80.010	19.994	103.811	19.499	25.857	0.499
789.000	482.896	80.010	19.993	103.811	19.504	25.523	0.532
789.500	483.130	80.010	19.993	103.810	19.502	25.640	0.550
790.000	483.422	80.009	19.994	103.810	19.499	25.881	0.531
790.500	483.659	80.009	19.994	103.815	19.503	25.587	0.528
791.000	483.913	80.009	19.994	103.816	19.503	25.565	0.510
791.500	484.159	80.009	19.994	103.815	19.504	25.526	0.495
792.000	484.447	80.008	19.993	103.815	19.505	25.389	0.517
792.500	484.697	80.009	19.994	103.813	19.505	25.408	0.536
793.000	484.972	80.010	19.993	103.813	19.507	25.293	0.531
793.500	485.222	80.009	19.992	103.815	19.507	25.295	0.525
794.001	485.484	80.010	19.993	103.817	19.506	25.347	0.519
794.501	485.757	80.008	19.993	103.820	19.510	25.102	0.524
795.000	486.010	80.008	19.992	103.820	19.509	25.110	0.530
795.500	486.262	80.008	19.993	103.815	19.510	25.105	0.515
796.000	486.516	80.008	19.994	103.814	19.509	25.146	0.506
796.500	486.788	80.009	19.994	103.811	19.510	25.075	0.516
797.000	487.068	80.008	19.993	103.810	19.510	25.054	0.539
797.500	487.273	80.008	19.995	103.813	19.510	25.045	0.519
798.000	487.548	80.008	19.993	103.817	19.510	25.063	0.483
798.500	487.810	80.009	19.994	103.814	19.512	24.906	0.508
799.000	488.049	80.008	19.994	103.813	19.514	24.773	0.518
799.500	488.336	80.008	19.993	103.815	19.514	24.821	0.513
800.000	488.565	80.007	19.994	103.814	19.516	24.670	0.521
800.500	488.832	80.009	19.994	103.809	19.511	25.024	0.506
801.000	489.075	80.007	19.994	103.808	19.512	24.900	0.503
801.500	489.366	80.009	19.993	103.806	19.517	24.590	0.522
802.000	489.622	80.009	19.993	103.804	19.513	24.843	0.541
802.500	489.872	80.008	19.993	103.800	19.518	24.528	0.526
803.000	490.191	80.007	19.992	103.802	19.518	24.517	0.537
803.500	490.429	80.008	19.994	103.801	19.519	24.413	0.563
804.000	490.694	80.007	19.996	103.801	19.521	24.307	0.530
804.500	490.907	80.008	19.995	103.803	19.522	24.244	0.490
805.000	491.164	80.007	19.994	103.808	19.521	24.319	0.474
805.500	491.428	80.005	19.996	103.812	19.521	24.263	0.495
806.000	491.678	80.006	19.995	103.819	19.527	23.904	0.518
806.500	491.948	80.007	19.995	103.822	19.525	24.011	0.517
807.000	492.222	80.007	19.994	103.816	19.526	23.927	0.532
807.500	492.454	80.006	19.995	103.809	19.526	23.936	0.524
808.000	492.763	80.008	19.995	103.802	19.527	23.873	0.523
808.500	493.006	80.008	19.994	103.800	19.528	23.786	0.547
809.000	493.272	80.008	19.994	103.802	19.528	23.805	0.530
809.500	493.524	80.007	19.994	103.806	19.527	23.837	0.513
810.000	493.782	80.008	19.995	103.807	19.530	23.642	0.514
810.500	494.027	80.009	19.995	103.807	19.530	23.658	0.507
811.000	494.320	80.006	19.993	103.803	19.532	23.547	0.520
811.500	494.565	80.008	19.995	103.800	19.534	23.344	0.538
812.000	494.855	80.009	19.995	103.798	19.535	23.299	0.536
812.500	495.112	80.009	19.994	103.800	19.534	23.371	0.541
813.000	495.344	80.009	19.994	103.799	19.537	23.161	0.518
813.500	495.639	80.009	19.994	103.797	19.538	23.090	0.508
814.001	495.892	80.009	19.994	103.793	19.536	23.206	0.537
814.501	496.084	80.010	19.994	103.791	19.539	23.007	0.496
815.000	496.347	80.009	19.996	103.792	19.541	22.903	0.450
815.500	496.619	80.009	19.993	103.794	19.542	22.806	0.495
816.000	496.924	80.009	19.994	103.796	19.544	22.671	0.557
816.500	497.165	80.009	19.994	103.804	19.540	22.930	0.562
817.000	497.414	80.009	19.994	103.809	19.544	22.686	0.518
817.500	497.683	80.009	19.994	103.813	19.546	22.508	0.504
818.000	497.972	80.010	19.993	103.818	19.546	22.561	0.537
818.500	498.171	80.010	19.994	103.816	19.547	22.434	0.523
819.000	498.434	80.009	19.993	103.808	19.548	22.383	0.475
819.500	498.708	80.011	19.994	103.802	19.553	22.035	0.499
820.000	498.930	80.009	19.994	103.798	19.550	22.284	0.516
820.500	499.255	80.012	19.993	103.795	19.552	22.137	0.522
821.000	499.494	80.010	19.994	103.795	19.552	22.097	0.556
821.500	499.706	80.010	19.995	103.796	19.553	22.023	0.508
822.000	499.981	80.010	19.993	103.794	19.551	22.212	0.469
822.500	500.255	80.009	19.993	103.790	19.554	21.975	0.518
823.000	500.526	80.009	19.994	103.788	19.555	21.935	0.547
823.500	500.763	80.011	19.993	103.791	19.557	21.778	0.527
824.000	501.025	80.011	19.994	103.793	19.558	21.683	0.504
824.500	501.265	80.009	19.995	103.793	19.560	21.553	0.501
825.000	501.534	80.010	19.993	103.794	19.559	21.587	0.506
825.500	501.773	80.009	19.993	103.792	19.558	21.659	0.508
826.000	502.053	80.010	19.993	103.787	19.560	21.528	0.514
826.500	502.320	80.010	19.994	103.784	19.562	21.404	0.533
827.000	502.547	80.010	19.995	103.784	19.565	21.221	0.520
827.500	502.832	80.010	19.994	103.784	19.564	21.267	0.503
828.000	503.078	80.011	19.994	103.787	19.564	21.278	0.522
828.500	503.334	80.010	19.993	103.795	19.566	21.137	0.517
829.000	503.596	80.010	19.993	103.802	19.566	21.094	0.510
829.500	503.882	80.010	19.994	103.802	19.569	20.941	0.532
830.000	504.134	80.010	19.993	103.804	19.570	20.855	0.543
830.500	504.386	80.010	19.993	103.805	19.572	20.698	0.521
831.000	504.629	80.009	19.994	103.804	19.571	20.785	0.500
831.500	504.895	80.011	19.993	103.804	19.576	20.422	0.502
832.000	505.187	80.011	19.995	103.805	19.574	20.545	0.533
832.500	505.438	80.009	19.994	103.808	19.576	20.425	0.551
833.000	505.651	80.010	19.994	103.812	19.575	20.505	0.504
833.500	505.924	80.011	19.992	103.811	19.579	20.213	0.475
834.000	506.160	80.009	19.994	103.813	19.579	20.196	0.498
834.500	506.410	80.011	19.995	103.819	19.578	20.258	0.497
835.000	506.698	80.010	19.994	103.818	19.583	19.899	0.512
835.500	506.949	80.011	19.994	103.814	19.583	19.928	0.538
836.000	507.203	80.011	19.993	103.809	19.583	19.957	0.522
836.500	507.439	80.010	19.993	103.802	19.585	19.753	0.497
837.000	507.675	80.012	19.993	103.797	19.588	19.592	0.481
837.500	507.955	80.012	19.994	103.794	19.588	19.559	0.494
838.000	508.207	80.011	19.995	103.792	19.587	19.629	0.524
838.500	508.461	80.011	19.994	103.791	19.591	19.385	0.519
839.000	508.725	80.012	19.993	103.791	19.591	19.397	0.512
839.500	508.961	80.012	19.993	103.789	19.592	19.323	0.509
840.000	509.219	80.012	19.994	103.786	19.593	19.201	0.497
840.500	509.472	80.012	19.994	103.785	19.594	19.145	0.502
841.000	509.744	80.011	19.994	103.785	19.593	19.206	0.518
841.500	510.008	80.012	19.994	103.783	19.596	19.040	0.530
842.000	510.246	80.011	19.993	103.783	19.601	18.660	0.519
842.500	510.500	80.012	19.994	103.782	19.603	18.526	0.497
843.000	510.764	80.011	19.994	103.781	19.597	18.941	0.505
843.500	511.026	80.012	19.993	103.780	19.601	18.675	0.522
844.000	511.258	80.012	19.994	103.780	19.602	18.596	0.510
844.500	511.558	80.012	19.995	103.780	19.600	18.725	0.513
845.000	511.768	80.012	19.993	103.781	19.601	18.660	0.521
845.500	512.045	80.012	19.994	103.781	19.601	18.673	0.499
846.000	512.320	80.013	19.993	103.781	19.606	18.316	0.519
846.500	512.573	80.012	19.993	103.782	19.604	18.421	0.540
847.000	512.770	80.011	19.994	103.783	19.607	18.234	0.489
847.500	513.026	80.010	19.993	103.784	19.609	18.077	0.452
848.000	513.319	80.012	19.992	103.787	19.607	18.220	0.501
848.500	513.568	80.010	19.994	103.787	19.607	18.239	0.545
849.000	513.881	80.013	19.993	103.788	19.605	18.361	0.551
849.500	514.138	80.011	19.994	103.786	19.611	17.940	0.566
850.000	514.412	80.011	19.993	103.785	19.609	18.112	0.551
850.500	514.664	80.012	19.993	103.781	19.614	17.711	0.529
851.000	514.913	80.010	19.994	103.779	19.613	17.788	0.514
851.500	515.180	80.011	19.994	103.777	19.614	17.735	0.509
852.000	515.450	80.010	19.993	103.777	19.614	17.737	0.527
852.500	515.719	80.010	19.994	103.777	19.614	17.741	0.538
853.000	516.008	80.010	19.993	103.778	19.616	17.624	0.548
853.500	516.237	80.009	19.993	103.780	19.617	17.535	0.538
854.000	516.507	80.011	19.994	103.781	19.617	17.547	0.509
854.500	516.735	80.010	19.994	103.782	19.617	17.547	0.499
855.001	517.051	80.011	19.995	103.783	19.619	17.397	0.521
855.500	517.245	80.009	19.993	103.783	19.617	17.512	0.527
856.000	517.545	80.009	19.993	103.784	19.620	17.321	0.502
856.500	517.817	80.011	19.992	103.784	19.621	17.267	0.533
857.000	518.050	80.009	19.993	103.784	19.620	17.340	0.538
857.500	518.318	80.010	19.994	103.784	19.620	17.323	0.503
858.000	518.575	80.010	19.992	103.785	19.626	16.885	0.513
858.500	518.793	80.010	19.992	103.785	19.624	17.043	0.500
859.000	519.072	80.011	19.993	103.785	19.620	17.333	0.486
859.500	519.305	80.010	19.993	103.785	19.623	17.092	0.505
860.000	519.593	80.010	19.994	103.785	19.626	16.916	0.517
860.500	519.832	80.010	19.994	103.785	19.626	16.926	0.524
861.000	520.086	80.009	19.993	103.786	19.626	16.889	0.510
861.500	520.370	80.011	19.993	103.782	19.625	16.968	0.516
862.000	520.575	80.009	19.994	103.782	19.624	17.016	0.513
862.500	520.895	80.010	19.993	103.782	19.629	16.692	0.507
863.000	521.138	80.008	19.993	103.782	19.632	16.497	0.545
863.500	521.412	80.009	19.994	103.781	19.632	16.507	0.540
864.000	521.663	80.009	19.995	103.784	19.631	16.572	0.520
864.500	521.906	80.009	19.995	103.785	19.629	16.661	0.509
865.000	522.146	80.010	19.994	103.785	19.630	16.617	0.489
865.500	522.394	80.009	19.994	103.786	19.634	16.328	0.486
866.000	522.674	80.009	19.994	103.786	19.635	16.270	0.508
866.500	522.905	80.008	19.994	103.784	19.634	16.357	0.520
867.000	523.193	80.010	19.995	103.782	19.635	16.266	0.515
867.500	523.443	80.009	19.993	103.781	19.637	16.143	0.528
868.000	523.673	80.010	19.993	103.781	19.635	16.294	0.509
868.500	523.934	80.010	19.994	103.782	19.636	16.230	0.486
869.000	524.184	80.010	19.992	103.783	19.638	16.043	0.501
869.500	524.406	80.011	19.995	103.784	19.638	16.050	0.491
870.000	524.703	80.009	19.994	103.783	19.639	15.975	0.495
870.500	524.933	80.010	19.993	103.783	19.638	16.034	0.523
871.000	525.204	80.009	19.993	103.783	19.640	15.919	0.514
871.501	525.431	80.007	19.994	103.783	19.639	16.009	0.499
872.001	525.696	80.011	19.994	103.784	19.642	15.780	0.495
872.500	525.962	80.010	19.994	103.784	19.641	15.876	0.512
873.000	526.197	80.008	19.994	103.784	19.646	15.495	0.516
873.500	526.408	80.009	19.993	103.783	19.644	15.599	0.474
874.000	526.690	80.008	19.995	103.781	19.644	15.611	0.469
874.500	526.961	80.010	19.994	103.781	19.644	15.659	0.523
875.000	527.227	80.008	19.993	103.781	19.648	15.379	0.546
875.500	527.476	80.008	19.995	103.781	19.646	15.464	0.526
876.000	527.714	80.008	19.994	103.782	19.647	15.446	0.501
876.500	527.990	80.010	19.993	103.784	19.649	15.280	0.500
877.000	528.243	80.008	19.994	103.784	19.650	15.205	0.521
877.500	528.470	80.008	19.994	103.785	19.645	15.548	0.504
878.000	528.722	80.009	19.994	103.785	19.650	15.242	0.480
878.500	528.998	80.009	19.994	103.786	19.650	15.209	0.504
879.000	529.246	80.008	19.995	103.786	19.649	15.313	0.526
879.500	529.510	80.009	19.995	103.786	19.652	15.077	0.518
880.000	529.758	80.009	19.994	103.786	19.654	14.899	0.512
880.500	529.976	80.009	19.993	103.785	19.654	14.955	0.489
881.000	530.277	80.007	19.993	103.782	19.652	15.096	0.492
881.500	530.511	80.009	19.994	103.782	19.656	14.820	0.527
882.000	530.758	80.010	19.995	103.781	19.653	15.009	0.508
882.500	531.035	80.007	19.994	103.780	19.653	15.025	0.503
883.000	531.293	80.008	19.994	103.780	19.657	14.720	0.529
883.500	531.572	80.008	19.994	103.783	19.656	14.809	0.536
884.000	531.807	80.008	19.995	103.783	19.655	14.875	0.526
884.500	532.076	80.008	19.994	103.783	19.657	14.685	0.509
885.000	532.344	80.008	19.994	103.785	19.657	14.711	0.520
885.500	532.584	80.009	19.995	103.786	19.657	14.742	0.522
886.000	532.837	80.008	19.994	103.784	19.656	14.753	0.500
886.500	533.109	80.009	19.994	103.783	19.659	14.541	0.509
887.000	533.343	80.009	19.993	103.781	19.657	14.699	0.516
887.500	533.620	80.010	19.993	103.779	19.657	14.704	0.509
888.000	533.912	80.009	19.995	103.778	19.659	14.586	0.539
888.500	534.134	80.008	19.994	103.779	19.657	14.710	0.541
889.000	534.398	80.009	19.994	103.780	19.661	14.465	0.500
889.500	534.633	80.009	19.994	103.780	19.658	14.670	0.493
890.000	534.875	80.008	19.994	103.779	19.659	14.564	0.488
890.500	535.198	80.009	19.994	103.774	19.659	14.603	0.521
891.000	535.432	80.008	19.993	103.772	19.663	14.316	0.561
891.500	535.695	80.009	19.994	103.772	19.662	14.385	0.528
892.000	535.922	80.010	19.993	103.771	19.661	14.462	0.494
892.500	536.220	80.010	19.994	103.770	19.661	14.427	0.507
893.000	536.458	80.009	19.995	103.771	19.664	14.240	0.531
893.500	536.729	80.011	19.994	103.765	19.662	14.344	0.522
894.000	536.959	80.010	19.994	103.762	19.661	14.430	0.505
894.500	537.222	80.009	19.994	103.763	19.662	14.343	0.497
895.000	537.484	80.009	19.995	103.766	19.663	14.280	0.509
895.500	537.765	80.010	19.994	103.769	19.662	14.332	0.534
896.000	537.993	80.010	19.994	103.776	19.664	14.191	0.526
896.500	538.248	80.011	19.994	103.778	19.663	14.259	0.496
897.000	538.498	80.011	19.993	103.777	19.661	14.439	0.494
897.500	538.730	80.009	19.994	103.776	19.663	14.329	0.493
898.000	538.993	80.010	19.994	103.775	19.662	14.344	0.489
898.500	539.308	80.009	19.994	103.773	19.663	14.274	0.537
899.000	539.556	80.010	19.994	103.769	19.664	14.197	0.571
899.500	539.766	80.011	19.995	103.769	19.665	14.177	0.511
900.000	540.019	80.011	19.995	103.770	19.663	14.278	0.460
900.500	540.310	80.010	19.995	103.773	19.665	14.137	0.503
901.000	540.575	80.012	19.994	103.776	19.664	14.244	0.550
901.500	540.811	80.010	19.994	103.780	19.664	14.188	0.529
902.000	541.084	80.010	19.993	103.780	19.665	14.125	0.504
902.500	541.344	80.009	19.995	103.780	19.667	13.997	0.521
903.000	541.582	80.010	19.995	103.778	19.667	14.036	0.516
903.500	541.885	80.011	19.995	103.777	19.666	14.076	0.519
904.000	542.089	80.011	19.994	103.775	19.664	14.200	0.524
904.500	542.379	80.010	19.996	103.775	19.669	13.897	0.500
905.000	542.669	80.010	19.993	103.773	19.666	14.082	0.537
905.500	542.920	80.010	19.995	103.768	19.666	14.076	0.561
906.000	543.178	80.010	19.995	103.770	19.668	13.919	0.525
906.500	543.411	80.010	19.994	103.772	19.666	14.065	0.500
907.000	543.656	80.010	19.994	103.773	19.668	13.974	0.485
907.500	543.944	80.010	19.994	103.775	19.666	14.085	0.506
908.000	544.205	80.011	19.994	103.780	19.665	14.124	0.541
908.500	544.407	80.011	19.994	103.780	19.667	14.004	0.506
909.000	544.696	80.010	19.995	103.778	19.666	14.054	0.477
909.500	544.955	80.010	19.995	103.772	19.667	14.011	0.520
910.000	545.212	80.010	19.995	103.768	19.667	14.031	0.532
910.500	545.473	80.011	19.994	103.765	19.668	13.966	0.518
911.000	545.717	80.010	19.994	103.760	19.667	14.033	0.512
911.501	545.961	80.011	19.994	103.757	19.666	14.055	0.496
912.000	546.240	80.011	19.995	103.761	19.664	14.192	0.505
912.500	546.482	80.010	19.995	103.765	19.666	14.056	0.522
913.000	546.744	80.009	19.995	103.768	19.666	14.109	0.513
913.500	547.000	80.009	19.994	103.772	19.669	13.891	0.511
914.000	547.286	80.009	19.994	103.776	19.669	13.895	0.530
914.500	547.527	80.010	19.994	103.777	19.666	14.067	0.534
915.000	547.803	80.010	19.994	103.777	19.666	14.055	0.522
915.500	548.061	80.010	19.994	103.778	19.667	14.011	0.526
916.000	548.332	80.012	19.993	103.774	19.667	14.003	0.531
916.500	548.591	80.010	19.994	103.771	19.665	14.123	0.529
917.000	548.839	80.011	19.994	103.768	19.669	13.844	0.518
917.500	549.089	80.011	19.995	103.764	19.669	13.890	0.503
918.000	549.372	80.011	19.993	103.765	19.669	13.897	0.516
918.500	549.652	80.011	19.993	103.769	19.668	13.922	0.548
919.000	549.890	80.010	19.994	103.772	19.664	14.256	0.540
919.500	550.136	80.011	19.994	103.773	19.667	14.018	0.501
920.000	550.390	80.009	19.993	103.771	19.667	13.988	0.492
920.500	550.673	80.009	19.993	103.764	19.664	14.210	0.519
921.000	550.900	80.011	19.994	103.759	19.665	14.183	0.524
921.500	551.179	80.012	19.993	103.757	19.663	14.260	0.508
922.000	551.425	80.010	19.993	103.755	19.662	14.349	0.515
922.500	551.692	80.012	19.993	103.760	19.664	14.237	0.519
923.000	551.958	80.011	19.993	103.766	19.664	14.202	0.523
923.501	552.196	80.011	19.993	103.771	19.666	14.109	0.518
924.000	552.462	80.011	19.995	103.774	19.665	14.141	0.504
924.500	552.703	80.010	19.994	103.778	19.668	13.907	0.506
925.000	552.986	80.011	19.993	103.780	19.667	13.977	0.516
925.500	553.260	80.013	19.993	103.778	19.667	13.990	0.540
926.000	553.493	80.012	19.993	103.779	19.668	13.971	0.531
926.500	553.761	80.012	19.994	103.779	19.667	14.010	0.504
927.000	554.018	80.011	19.993	103.779	19.670	13.834	0.514
927.500	554.282	80.011	19.993	103.780	19.670	13.768	0.523
928.000	554.511	80.012	19.992	103.782	19.668	13.971	0.507
928.500	554.777	80.012	19.993	103.780	19.670	13.813	0.494
929.000	555.036	80.011	19.994	103.777	19.673	13.560	0.510
929.500	555.315	80.012	19.994	103.777	19.671	13.760	0.531
930.000	555.573	80.011	19.993	103.777	19.666	14.107	0.537
930.500	555.843	80.012	19.993	103.777	19.670	13.808	0.533
931.000	556.118	80.011	19.993	103.780	19.670	13.806	0.537
931.500	556.371	80.011	19.993	103.783	19.670	13.822	0.537
932.000	556.609	80.012	19.994	103.783	19.667	13.990	0.509
932.500	556.837	80.011	19.992	103.782	19.671	13.767	0.479
933.000	557.141	80.011	19.993	103.783	19.668	13.938	0.499
933.500	557.356	80.011	19.992	103.783	19.667	14.015	0.526
934.000	557.642	80.010	19.993	103.783	19.666	14.109	0.510
934.500	557.877	80.010	19.994	103.779	19.667	14.021	0.511
935.000	558.129	80.009	19.993	103.772	19.669	13.863	0.504
935.500	558.407	80.009	19.993	103.768	19.668	13.961	0.508
936.000	558.651	80.008	19.993	103.768	19.668	13.974	0.526
936.500	558.861	80.009	19.992	103.766	19.667	13.996	0.489
937.000	559.119	80.009	19.993	103.770	19.667	14.035	0.461
937.500	559.427	80.009	19.994	103.775	19.667	13.979	0.516
938.000	559.701	80.008	19.992	103.779	19.668	13.947	0.574
938.500	559.995	80.008	19.993	103.780	19.667	14.032	0.576
939.000	560.261	80.010	19.993	103.782	19.670	13.808	0.564
939.500	560.473	80.009	19.992	103.781	19.667	14.013	0.518
940.000	560.765	80.009	19.994	103.783	19.669	13.897	0.491
940.500	560.997	80.008	19.993	103.781	19.670	13.816	0.514
941.000	561.278	80.008	19.993	103.775	19.669	13.861	0.518
941.500	561.556	80.010	19.993	103.775	19.671	13.709	0.536
942.000	561.785	80.009	19.993	103.777	19.671	13.753	0.534
942.500	562.047	80.008	19.993	103.777	19.667	14.012	0.499
943.000	562.328	80.009	19.994	103.780	19.672	13.648	0.517
943.500	562.580	80.009	19.993	103.783	19.671	13.727	0.538
944.000	562.821	80.010	19.993	103.784	19.671	13.763	0.513
944.500	563.070	80.010	19.993	103.781	19.670	13.788	0.492
945.000	563.349	80.010	19.994	103.779	19.669	13.877	0.509
945.500	563.579	80.010	19.993	103.779	19.672	13.689	0.518
946.000	563.861	80.009	19.994	103.781	19.672	13.670	0.511
946.500	564.112	80.010	19.993	103.779	19.672	13.637	0.523
947.000	564.354	80.009	19.994	103.779	19.673	13.577	0.513
947.500	564.602	80.009	19.994	103.780	19.670	13.808	0.491
948.000	564.899	80.009	19.993	103.774	19.674	13.554	0.518
948.500	565.164	80.009	19.993	103.773	19.673	13.598	0.554
949.000	565.378	80.010	19.993	103.775	19.673	13.562	0.520
949.500	565.678	80.009	19.993	103.776	19.675	13.479	0.496
950.000	565.908	80.011	19.993	103.775	19.676	13.373	0.522
950.500	566.182	80.009	19.992	103.780	19.675	13.417	0.517
951.000	566.446	80.010	19.993	103.779	19.675	13.467	0.521
951.500	566.689	80.010	19.993	103.779	19.676	13.401	0.523
952.000	566.942	80.010	19.994	103.779	19.672	13.648	0.501
952.500	567.238	80.010	19.994	103.773	19.674	13.547	0.523
953.000	567.461	80.010	19.993	103.770	19.672	13.657	0.534
953.500	567.748	80.010	19.993	103.769	19.673	13.586	0.514
954.000	567.977	80.010	19.993	103.764	19.672	13.638	0.513
954.500	568.266	80.011	19.993	103.765	19.674	13.525	0.517
955.000	568.520	80.010	19.993	103.770	19.675	13.447	0.531
955.501	568.788	80.011	19.993	103.773	19.673	13.584	0.533
956.001	569.024	80.011	19.993	103.775	19.675	13.455	0.513
956.500	569.270	80.011	19.992	103.779	19.675	13.454	0.493
957.000	569.517	80.010	19.992	103.780	19.674	13.539	0.488
957.500	569.798	80.010	19.994	103.779	19.675	13.462	0.510
958.000	570.077	80.009	19.993	103.779	19.677	13.336	0.544
958.500	570.302	80.010	19.993	103.779	19.676	13.361	0.532
959.000	570.558	80.009	19.994	103.778	19.675	13.436	0.493
959.500	570.851	80.010	19.993	103.779	19.675	13.473	0.515
960.000	571.089	80.012	19.993	103.781	19.680	13.087	0.540
960.500	571.343	80.010	19.994	103.780	19.675	13.414	0.511
961.000	571.599	80.011	19.993	103.780	19.677	13.331	0.501
961.500	571.847	80.010	19.993	103.779	19.674	13.548	0.507
962.000	572.117	80.010	19.993	103.777	19.675	13.419	0.511
962.500	572.400	80.010	19.992	103.777	19.677	13.327	0.536
963.000	572.660	80.010	19.993	103.776	19.677	13.304	0.548
963.500	572.909	80.009	19.993	103.773	19.678	13.204	0.526
964.000	573.190	80.010	19.993	103.774	19.678	13.224	0.520
964.500	573.414	80.010	19.994	103.775	19.677	13.324	0.518
965.000	573.689	80.009	19.993	103.771	19.677	13.277	0.502
965.500	573.956	80.008	19.993	103.768	19.676	13.353	0.521
966.000	574.241	80.008	19.993	103.770	19.679	13.186	0.547
966.500	574.482	80.008	19.993	103.771	19.676	13.368	0.539
967.000	574.698	80.009	19.994	103.772	19.679	13.137	0.492
967.500	575.023	80.009	19.993	103.771	19.678	13.228	0.499
968.000	575.267	80.009	19.993	103.770	19.680	13.129	0.555
968.500	575.512	80.009	19.994	103.768	19.679	13.203	0.529
969.000	575.752	80.008	19.994	103.766	19.679	13.135	0.487
969.500	576.017	80.008	19.993	103.763	19.678	13.218	0.495
970.000	576.299	80.009	19.994	103.764	19.677	13.321	0.526
970.500	576.510	80.008	19.994	103.762	19.679	13.151	0.520
971.000	576.758	80.007	19.995	103.761	19.679	13.175	0.476
971.500	577.044	80.008	19.994	103.759	19.679	13.132	0.496
972.000	577.305	80.008	19.994	103.759	19.679	13.137	0.540
972.500	577.546	80.009	19.994	103.761	19.677	13.293	0.525
973.000	577.819	80.009	19.995	103.769	19.678	13.262	0.508
973.500	578.079	80.008	19.994	103.772	19.682	12.975	0.524
974.000	578.328	80.009	19.994	103.769	19.678	13.254	0.522
974.500	578.531	80.009	19.994	103.770	19.682	12.950	0.480
975.000	578.846	80.011	19.995	103.765	19.680	13.071	0.484
975.500	579.061	80.010	19.995	103.760	19.682	12.939	0.524
976.000	579.320	80.010	19.994	103.759	19.680	13.118	0.502
976.500	579.591	80.009	19.994	103.762	19.681	13.035	0.502
977.000	579.828	80.011	19.993	103.766	19.681	13.030	0.519
977.500	580.116	80.011	19.994	103.772	19.681	13.056	0.517
978.000	580.356	80.011	19.994	103.776	19.682	12.956	0.527
978.500	580.612	80.010	19.993	103.778	19.684	12.812	0.512
979.000	580.880	80.011	19.994	103.777	19.681	12.991	0.510
979.500	581.129	80.010	19.992	103.776	19.685	12.768	0.520
980.000	581.367	80.012	19.994	103.776	19.683	12.882	0.502
980.500	581.646	80.010	19.994	103.774	19.686	12.682	0.502
981.000	581.870	80.011	19.993	103.771	19.687	12.615	0.510
981.500	582.105	80.011	19.993	103.766	19.688	12.522	0.481
982.000	582.385	80.009	19.994	103.759	19.686	12.690	0.487
982.500	582.632	80.010	19.994	103.753	19.689	12.496	0.521
983.000	582.879	80.010	19.993	103.747	19.686	12.676	0.510
983.500	583.168	80.010	19.993	103.747	19.687	12.583	0.515
984.000	583.419	80.011	19.994	103.755	19.687	12.587	0.538
984.500	583.623	80.011	19.994	103.763	19.687	12.578	0.497
985.000	583.905	80.009	19.994	103.769	19.689	12.467	0.471
985.500	584.140	80.010	19.994	103.776	19.690	12.361	0.502
986.000	584.408	80.010	19.995	103.774	19.689	12.433	0.510
986.500	584.639	80.011	19.994	103.767	19.690	12.392	0.501
987.000	584.874	80.009	19.994	103.763	19.689	12.493	0.483
987.500	585.192	80.010	19.994	103.761	19.688	12.564	0.509
988.000	585.437	80.009	19.993	103.755	19.689	12.433	0.558
988.500	585.700	80.010	19.993	103.757	19.690	12.395	0.535
989.000	585.941	80.010	19.994	103.763	19.690	12.388	0.506
989.500	586.198	80.008	19.994	103.767	19.689	12.484	0.501
990.000	586.404	80.010	19.993	103.769	19.691	12.314	0.480
990.500	586.666	80.009	19.994	103.769	19.690	12.404	0.465
991.001	586.915	80.009	19.994	103.769	19.691	12.340	0.489
991.500	587.164	80.009	19.994	103.765	19.692	12.271	0.505
992.000	587.407	80.010	19.993	103.762	19.691	12.299	0.496
992.500	587.661	80.010	19.994	103.762	19.692	12.274	0.494
993.000	587.939	80.009	19.994	103.765	19.692	12.275	0.514
993.500	588.203	80.009	19.994	103.768	19.692	12.234	0.537
994.000	588.464	80.011	19.993	103.773	19.697	11.912	0.534
994.500	588.707	80.009	19.994	103.776	19.695	12.006	0.515
995.000	588.959	80.010	19.994	103.775	19.696	11.938	0.499
995.500	589.208	80.009	19.995	103.776	19.696	11.981	0.498
996.000	589.499	80.009	19.994	103.772	19.695	12.031	0.521
996.500	589.751	80.009	19.994	103.766	19.698	11.853	0.541
997.000	590.016	80.009	19.994	103.760	19.696	11.938	0.530
997.500	590.247	80.009	19.993	103.758	19.695	12.032	0.507
998.000	590.504	80.009	19.994	103.758	19.697	11.902	0.491
998.500	590.773	80.010	19.995	103.759	19.698	11.817	0.507
999.000	591.010	80.009	19.994	103.763	19.696	11.940	0.516
999.500	591.269	80.010	19.994	103.768	19.698	11.815	0.501
1000.000	591.525	80.011	19.994	103.768	19.696	11.969	0.506
1000.500	591.783	80.008	19.993	103.768	19.698	11.831	0.515
1001.000	592.040	80.009	19.994	103.765	19.699	11.781	0.514
1001.500	592.265	80.009	19.995	103.760	19.701	11.596	0.498
1002.000	592.537	80.009	19.994	103.757	19.701	11.648	0.489
1002.500	592.749	80.009	19.993	103.757	19.698	11.804	0.491
1003.000	593.036	80.009	19.993	103.755	19.703	11.462	0.492
1003.500	593.286	80.010	19.994	103.756	19.705	11.350	0.518
1004.000	593.552	80.009	19.994	103.757	19.704	11.375	0.526
1004.500	593.817	80.010	19.994	103.757	19.703	11.508	0.523
1005.000	594.070	80.010	19.994	103.754	19.703	11.450	0.525
1005.500	594.324	80.010	19.993	103.751	19.703	11.468	0.513
1006.000	594.585	80.010	19.994	103.752	19.706	11.254	0.510
1006.500	594.842	80.011	19.993	103.751	19.704	11.414	0.516
1007.000	595.111	80.010	19.994	103.749	19.704	11.435	0.522
1007.500	595.387	80.010	19.993	103.750	19.706	11.280	0.536
1008.000	595.631	80.010	19.992	103.750	19.707	11.215	0.533
1008.500	595.905	80.011	19.994	103.747	19.706	11.251	0.519
1009.000	596.133	80.011	19.993	103.750	19.707	11.203	0.510
1009.500	596.404	80.011	19.993	103.750	19.708	11.122	0.500
1010.000	596.634	80.011	19.993	103.749	19.709	11.088	0.500
1010.500	596.903	80.010	19.994	103.749	19.709	11.088	0.500
1011.000	597.169	80.010	19.993	103.751	19.707	11.175	0.517
1011.500	597.410	80.010	19.992	103.754	19.708	11.121	0.521
1012.000	597.664	80.011	19.993	103.755	19.708	11.125	0.501
1012.500	597.949	80.011	19.993	103.757	19.711	10.893	0.517
1013.000	598.179	80.010	19.993	103.759	19.712	10.810	0.527
1013.500	598.439	80.011	19.993	103.757	19.710	10.970	0.503
1014.000	598.659	80.010	19.993	103.751	19.711	10.887	0.485
1014.500	598.970	80.011	19.993	103.751	19.713	10.768	0.505
1015.000	599.214	80.010	19.993	103.749	19.712	10.820	0.543
1015.500	599.468	80.010	19.992	103.747	19.711	10.908	0.527
1016.000	599.728	80.012	19.992	103.747	19.712	10.846	0.506
1016.500	600.002	80.010	19.994	103.747	19.712	10.873	0.524
1017.000	600.252	80.010	19.993	103.747	19.712	10.808	0.529
1017.500	600.504	80.009	19.993	103.748	19.711	10.925	0.513
1018.000	600.728	80.010	19.993	103.747	19.710	10.960	0.489
1018.500	601.032	80.008	19.994	103.747	19.711	10.893	0.502
1019.000	601.270	80.009	19.993	103.746	19.712	10.831	0.535
1019.500	601.516	80.009	19.993	103.744	19.711	10.879	0.513
1020.000	601.766	80.009	19.993	103.744	19.712	10.836	0.490
1020.500	602.071	80.009	19.994	103.745	19.712	10.850	0.526
1021.000	602.295	80.009	19.994	103.748	19.715	10.636	0.542
1021.500	602.555	80.008	19.994	103.749	19.717	10.524	0.506
1022.000	602.804	80.010	19.993	103.749	19.715	10.601	0.496
1022.500	603.038	80.010	19.993	103.750	19.714	10.682	0.496
1023.000	603.316	80.010	19.992	103.749	19.717	10.476	0.497
1023.500	603.560	80.010	19.993	103.745	19.714	10.671	0.517
1024.000	603.823	80.008	19.992	103.744	19.715	10.655	0.515
1024.501	604.057	80.009	19.993	103.744	19.717	10.463	0.502
1025.001	604.310	80.009	19.993	103.745	19.716	10.528	0.492
1025.500	604.598	80.010	19.993	103.746	19.716	10.536	0.514
1026.000	604.839	80.009	19.994	103.746	19.716	10.569	0.535
1026.500	605.111	80.010	19.993	103.745	19.715	10.628	0.521
1027.000	605.323	80.009	19.993	103.745	19.717	10.482	0.498
1027.500	605.581	80.009	19.993	103.744	19.718	10.397	0.477
1028.000	605.798	80.008	19.993	103.744	19.723	10.093	0.473
1028.500	606.112	80.009	19.994	103.744	19.717	10.488	0.503
1029.000	606.361	80.009	19.993	103.743	19.719	10.326	0.547
1029.500	606.575	80.010	19.994	103.743	19.719	10.329	0.513
1030.000	606.822	80.009	19.993	103.742	19.719	10.371	0.462
1030.500	607.110	80.009	19.994	103.740	19.720	10.294	0.498
1031.000	607.340	80.010	19.994	103.740	19.723	10.035	0.527
1031.500	607.610	80.011	19.993	103.740	19.722	10.121	0.509
1032.000	607.854	80.009	19.994	103.737	19.720	10.275	0.507
1032.501	608.102	80.010	19.994	103.738	19.724	9.967	0.503
1033.001	608.335	80.010	19.994	103.740	19.725	9.909	0.487
1033.501	608.596	80.010	19.993	103.740	19.723	10.087	0.487
1034.001	608.871	80.010	19.994	103.740	19.728	9.699	0.515
1034.500	609.112	80.010	19.994	103.743	19.728	9.682	0.526
1035.001	609.398	80.010	19.994	103.743	19.726	9.844	0.521
1035.501	609.639	80.009	19.994	103.744	19.726	9.834	0.527
1036.000	609.903	80.010	19.994	103.745	19.730	9.553	0.516
1036.500	610.161	80.010	19.995	103.747	19.728	9.703	0.513
1037.000	610.389	80.009	19.994	103.751	19.731	9.524	0.504
1037.500	610.654	80.010	19.995	103.757	19.730	9.580	0.490
1038.000	610.921	80.009	19.994	103.759	19.733	9.391	0.513
1038.500	611.151	80.009	19.993	103.762	19.733	9.343	0.515
1039.000	611.410	80.010	19.994	103.763	19.733	9.385	0.493
1039.500	611.672	80.010	19.993	103.765	19.732	9.452	0.505
1040.000	611.943	80.010	19.994	103.760	19.732	9.462	0.528
1040.500	612.174	80.010	19.993	103.756	19.732	9.402	0.518
1041.000	612.454	80.010	19.994	103.752	19.735	9.190	0.506
1041.501	612.687	80.010	19.994	103.748	19.736	9.150	0.512
1042.001	612.962	80.009	19.994	103.742	19.734	9.293	0.511
1042.500	613.217	80.010	19.993	103.742	19.737	9.107	0.519
1043.000	613.483	80.010	19.992	103.742	19.736	9.130	0.525
1043.500	613.773	80.008	19.994	103.742	19.738	9.007	0.539
1044.000	614.019	80.010	19.995	103.742	19.737	9.107	0.547
1044.500	614.282	80.009	19.994	103.743	19.738	9.047	0.522
1045.000	614.564	80.010	19.995	103.743	19.735	9.207	0.526
1045.500	614.803	80.009	19.994	103.745	19.739	8.964	0.533
1046.000	615.062	80.009	19.994	103.747	19.738	9.007	0.510
1046.500	615.361	80.010	19.994	103.747	19.739	8.909	0.528
1047.001	615.568	80.010	19.994	103.746	19.740	8.862	0.532
1047.501	615.872	80.010	19.993	103.746	19.741	8.824	0.508
1048.000	616.097	80.008	19.994	103.744	19.742	8.729	0.520
1048.501	616.368	80.009	19.995	103.743	19.739	8.963	0.512
1049.001	616.670	80.008	19.994	103.743	19.745	8.521	0.535
1049.500	616.889	80.010	19.993	103.743	19.745	8.548	0.547
1050.000	617.165	80.010	19.994	103.742	19.742	8.725	0.509
1050.501	617.437	80.009	19.994	103.744	19.745	8.500	0.521
1051.001	617.658	80.009	19.993	103.744	19.741	8.835	0.520
1051.500	617.945	80.010	19.993	103.744	19.741	8.835	0.500
1052.000	618.196	80.009	19.994	103.744	19.741	8.823	0.523
1052.500	618.462	80.010	19.993	103.745	19.742	8.765	0.528
1053.000	618.711	80.009	19.993	103.745	19.742	8.734	0.516
1053.500	618.958	80.010	19.994	103.744	19.743	8.635	0.506
1054.000	619.220	80.010	19.993	103.741	19.745	8.508	0.503
1054.500	619.492	80.009	19.994	103.739	19.746	8.418	0.522
1055.000	619.750	80.008	19.994	103.736	19.748	8.297	0.532
1055.501	620.035	80.010	19.993	103.737	19.749	8.207	0.536
1056.001	620.282	80.010	19.993	103.738	19.751	8.074	0.538
1056.500	620.523	80.008	19.995	103.737	19.751	8.118	0.510
1057.000	620.800	80.009	19.993	103.739	19.753	7.948	0.503
1057.500	621.047	80.009	19.994	103.742	19.751	8.089	0.520
1058.000	621.320	80.009	19.993	103.740	19.752	8.005	0.522
1058.500	621.582	80.009	19.993	103.739	19.752	8.043	0.528
1059.000	621.840	80.009	19.993	103.743	19.753	7.957	0.527
1059.500	622.090	80.008	19.994	103.744	19.752	8.057	0.513
1060.000	622.349	80.010	19.993	103.743	19.756	7.777	0.508
1060.500	622.627	80.009	19.993	103.744	19.756	7.779	0.523
1061.001	622.894	80.009	19.992	103.741	19.753	7.923	0.541
1061.501	623.143	80.009	19.993	103.739	19.756	7.761	0.531
1062.000	623.391	80.011	19.993	103.738	19.756	7.747	0.507
1062.500	623.638	80.010	19.993	103.737	19.757	7.645	0.496
1063.000	623.892	80.011	19.993	103.731	19.756	7.745	0.498
1063.500	624.163	80.010	19.994	103.728	19.756	7.717	0.513
1064.000	624.419	80.011	19.994	103.725	19.759	7.559	0.526
1064.500	624.667	80.010	19.993	103.725	19.760	7.472	0.515
1065.000	624.948	80.011	19.994	103.727	19.761	7.401	0.516
1065.501	625.181	80.009	19.994	103.734	19.759	7.525	0.522
1066.001	625.428	80.010	19.994	103.736	19.761	7.419	0.497
1066.501	625.709	80.010	19.993	103.740	19.763	7.249	0.504
1067.000	625.943	80.010	19.994	103.740	19.762	7.311	0.522
1067.500	626.206	80.009	19.994	103.739	19.760	7.444	0.506
1068.000	626.484	80.010	19.993	103.739	19.765	7.126	0.519
1068.500	626.702	80.010	19.993	103.742	19.763	7.261	0.518
1069.000	627.016	80.010	19.994	103.743	19.762	7.291	0.514
1069.500	627.269	80.010	19.993	103.744	19.763	7.222	0.550
1070.000	627.524	80.009	19.994	103.745	19.767	6.994	0.538
1070.500	627.818	80.010	19.993	103.745	19.764	7.218	0.528
1071.000	628.038	80.011	19.994	103.744	19.764	7.203	0.532
1071.500	628.318	80.010	19.994	103.740	19.765	7.089	0.508
1072.000	628.575	80.009	19.994	103.734	19.766	7.041	0.519
1072.500	628.825	80.010	19.994	103.733	19.766	7.072	0.522
1073.000	629.092	80.010	19.993	103.733	19.770	6.794	0.511
1073.500	629.341	80.010	19.994	103.731	19.767	7.004	0.516
1074.000	629.632	80.009	19.993	103.730	19.767	6.942	0.528
1074.501	629.869	80.009	19.993	103.734	19.766	7.054	0.534
1075.001	630.121	80.009	19.993	103.735	19.768	6.919	0.509
1075.500	630.376	80.011	19.994	103.736	19.769	6.848	0.498
1076.000	630.586	80.010	19.994	103.740	19.770	6.782	0.486
1076.500	630.870	80.009	19.994	103.745	19.772	6.622	0.480
1077.000	631.135	80.009	19.993	103.746	19.771	6.715	0.522
1077.500	631.396	80.009	19.993	103.746	19.768	6.917	0.537
1078.000	631.640	80.010	19.994	103.746	19.771	6.694	0.516
1078.501	631.904	80.010	19.994	103.746	19.772	6.591	0.507
1079.001	632.179	80.011	19.993	103.746	19.771	6.661	0.524
1079.500	632.435	80.009	19.993	103.745	19.775	6.383	0.535
1080.000	632.665	80.011	19.994	103.745	19.772	6.595	0.509
1080.500	632.943	80.009	19.994	103.745	19.774	6.489	0.497
1081.000	633.171	80.010	19.992	103.745	19.775	6.423	0.507
1081.500	633.409	80.009	19.994	103.746	19.776	6.325	0.486
1082.000	633.671	80.008	19.992	103.746	19.774	6.489	0.483
1082.500	633.971	80.009	19.994	103.747	19.774	6.503	0.531
1083.000	634.218	80.010	19.993	103.746	19.775	6.416	0.554
1083.501	634.501	80.010	19.994	103.747	19.775	6.398	0.539
1084.001	634.740	80.010	19.994	103.746	19.776	6.317	0.526
1084.500	635.011	80.010	19.993	103.746	19.775	6.410	0.516
1085.001	635.247	80.010	19.993	103.745	19.772	6.637	0.509
1085.501	635.510	80.011	19.993	103.744	19.777	6.300	0.503
1086.000	635.746	80.011	19.995	103.743	19.774	6.458	0.499
1086.500	635.991	80.011	19.994	103.742	19.773	6.531	0.490
1087.000	636.264	80.011	19.993	103.742	19.778	6.221	0.500
1087.500	636.567	80.011	19.995	103.742	19.779	6.126	0.548
1088.000	636.801	80.011	19.994	103.741	19.778	6.201	0.556
1088.500	637.037	80.011	19.993	103.741	19.778	6.223	0.503
1089.000	637.289	80.011	19.993	103.741	19.775	6.375	0.479
1089.500	637.537	80.012	19.994	103.741	19.778	6.229	0.494
1090.000	637.796	80.013	19.993	103.740	19.780	6.047	0.504
1090.500	638.053	80.012	19.993	103.740	19.778	6.184	0.512
1091.001	638.328	80.012	19.993	103.739	19.776	6.369	0.524
1091.501	638.564	80.011	19.994	103.739	19.779	6.157	0.522
1092.001	638.810	80.011	19.994	103.739	19.784	5.800	0.496
1092.501	639.099	80.011	19.994	103.740	19.781	5.987	0.508
1093.001	639.346	80.012	19.993	103.740	19.778	6.182	0.535
1093.500	639.560	80.013	19.993	103.740	19.776	6.331	0.499
1094.000	639.872	80.011	19.993	103.739	19.779	6.096	0.494
1094.500	640.060	80.011	19.993	103.739	19.779	6.097	0.513
1095.000	640.344	80.010	19.994	103.739	19.781	5.972	0.486
1095.500	640.587	80.010	19.994	103.739	19.780	6.089	0.499
1096.000	640.828	80.011	19.994	103.740	19.784	5.806	0.506
1096.500	641.089	80.009	19.994	103.740	19.780	6.048	0.493
1097.000	641.383	80.010	19.994	103.735	19.781	5.975	0.529
1097.500	641.563	80.010	19.993	103.732	19.781	5.956	0.515
1098.000	641.856	80.010	19.994	103.730	19.783	5.821	0.473
1098.501	642.069	80.010	19.995	103.730	19.780	6.022	0.489
1099.001	642.335	80.009	19.995	103.729	19.783	5.848	0.493
1099.501	642.593	80.009	19.994	103.734	19.784	5.787	0.501
1100.001	642.864	80.008	19.994	103.737	19.784	5.777	0.526
1100.501	643.099	80.008	19.994	103.738	19.782	5.905	0.518
1101.000	643.363	80.009	19.995	103.736	19.779	6.105	0.502
1101.500	643.608	80.009	19.995	103.733	19.782	5.885	0.504
1102.000	643.861	80.009	19.994	103.732	19.782	5.935	0.503
1102.500	644.121	80.008	19.994	103.731	19.782	5.937	0.505
1103.000	644.334	80.008	19.995	103.733	19.782	5.925	0.493
1103.500	644.611	80.008	19.995	103.733	19.780	6.065	0.482
1104.000	644.869	80.009	19.995	103.736	19.780	6.065	0.513
1104.500	645.084	80.009	19.995	103.737	19.782	5.890	0.504
1105.000	645.342	80.008	19.994	103.735	19.783	5.814	0.473
1105.500	645.600	80.008	19.994	103.729	19.779	6.119	0.494
1106.000	645.854	80.009	19.995	103.727	19.779	6.136	0.514
1106.500	646.096	80.008	19.994	103.723	19.779	6.102	0.504
1107.000	646.377	80.009	19.994	103.720	19.782	5.924	0.510
1107.500	646.635	80.009	19.994	103.718	19.779	6.092	0.531
1108.000	646.887	80.009	19.995	103.717	19.780	6.025	0.524
1108.500	647.117	80.009	19.994	103.721	19.784	5.782	0.496
1109.000	647.404	80.009	19.993	103.722	19.782	5.890	0.499
1109.500	647.674	80.009	19.994	103.726	19.781	5.992	0.537
1110.000	647.913	80.010	19.995	103.727	19.785	5.691	0.533
1110.500	648.146	80.009	19.993	103.731	19.782	5.913	0.490
1111.000	648.426	80.009	19.993	103.731	19.784	5.788	0.492
1111.500	648.682	80.008	19.993	103.733	19.783	5.847	0.525
1112.000	648.949	80.010	19.994	103.732	19.784	5.772	0.530
1112.500	649.219	80.011	19.993	103.733	19.782	5.932	0.530
1113.000	649.458	80.011	19.993	103.730	19.780	6.038	0.523
1113.500	649.710	80.010	19.993	103.726	19.786	5.666	0.500
1114.000	649.989	80.010	19.993	103.718	19.784	5.776	0.510
1114.500	650.201	80.009	19.993	103.712	19.781	5.980	0.511
1115.000	650.500	80.011	19.995	103.708	19.785	5.736	0.501
1115.500	650.746	80.009	19.993	103.706	19.782	5.948	0.528
1116.000	651.005	80.010	19.993	103.704	19.783	5.872	0.525
1116.500	651.252	80.010	19.993	103.706	19.783	5.878	0.506
1117.000	651.531	80.009	19.993	103.708	19.783	5.872	0.516
1117.500	651.740	80.009	19.993	103.707	19.783	5.822	0.507
1118.000	652.027	80.008	19.992	103.708	19.784	5.810	0.492
1118.500	652.264	80.009	19.993	103.711	19.786	5.635	0.510
1119.001	652.523	80.009	19.993	103.710	19.783	5.825	0.510
1119.501	652.777	80.009	19.993	103.709	19.782	5.912	0.504
1120.000	653.036	80.008	19.992	103.710	19.782	5.911	0.513
1120.500	653.334	80.011	19.994	103.709	19.783	5.857	0.535
1121.000	653.566	80.009	19.993	103.711	19.782	5.882	0.543
1121.500	653.815	80.009	19.993	103.718	19.783	5.861	0.505
1122.000	654.092	80.009	19.993	103.724	19.785	5.731	0.504
1122.500	654.359	80.009	19.993	103.730	19.781	5.972	0.535
1123.000	654.629	80.009	19.992	103.738	19.784	5.781	0.540
1123.500	654.869	80.009	19.993	103.741	19.786	5.656	0.523
1124.000	655.151	80.009	19.993	103.741	19.782	5.910	0.516
1124.500	655.394	80.009	19.992	103.744	19.784	5.770	0.524
1125.000	655.653	80.010	19.993	103.743	19.789	5.451	0.514
1125.500	655.890	80.009	19.993	103.744	19.786	5.636	0.499
1126.000	656.191	80.008	19.993	103.744	19.782	5.885	0.517
1126.500	656.426	80.009	19.993	103.744	19.787	5.567	0.537
1127.000	656.674	80.008	19.993	103.741	19.786	5.609	0.510
1127.501	656.947	80.009	19.993	103.743	19.786	5.661	0.502
1128.001	657.189	80.009	19.993	103.742	19.784	5.798	0.518
1128.500	657.460	80.009	19.994	103.741	19.784	5.787	0.514
1129.000	657.724	80.010	19.993	103.740	19.784	5.754	0.524
1129.500	657.970	80.009	19.994	103.737	19.783	5.856	0.523
1130.001	658.256	80.009	19.993	103.730	19.786	5.645	0.521
1130.501	658.499	80.008	19.993	103.722	19.789	5.457	0.530
1131.000	658.763	80.009	19.994	103.717	19.782	5.908	0.518
1131.500	659.027	80.008	19.994	103.714	19.781	5.977	0.517
1132.000	659.274	80.008	19.993	103.713	19.785	5.725	0.520
1132.500	659.472	80.009	19.993	103.719	19.783	5.837	0.478
1133.000	659.784	80.009	19.993	103.726	19.784	5.802	0.477
1133.500	660.026	80.009	19.994	103.731	19.783	5.842	0.532
1134.001	660.259	80.008	19.993	103.736	19.787	5.582	0.514
1134.501	660.520	80.009	19.993	103.738	19.785	5.727	0.484
1135.000	660.766	80.008	19.993	103.734	19.784	5.756	0.501
1135.501	661.057	80.009	19.993	103.732	19.786	5.634	0.522
1136.001	661.289	80.008	19.993	103.728	19.788	5.522	0.530
1136.500	661.544	80.008	19.994	103.723	19.787	5.578	0.505
1137.000	661.784	80.008	19.994	103.723	19.783	5.823	0.491
1137.500	662.076	80.008	19.994	103.726	19.784	5.749	0.513
1138.000	662.307	80.009	19.992	103.727	19.783	5.861	0.528
1138.500	662.558	80.007	19.993	103.730	19.788	5.503	0.503
1139.000	662.832	80.007	19.994	103.728	19.785	5.734	0.503
1139.500	663.071	80.008	19.993	103.725	19.786	5.655	0.519
1140.001	663.329	80.009	19.993	103.725	19.787	5.545	0.505
1140.501	663.572	80.007	19.993	103.720	19.788	5.522	0.499
1141.001	663.830	80.009	19.992	103.718	19.786	5.661	0.501
1141.501	664.072	80.009	19.993	103.719	19.786	5.616	0.500
1142.000	664.332	80.010	19.992	103.719	19.786	5.659	0.501
1142.500	664.589	80.009	19.992	103.715	19.786	5.664	0.510
1143.000	664.873	80.009	19.992	103.720	19.788	5.526	0.529
1143.500	665.067	80.010	19.992	103.723	19.787	5.589	0.510
1144.000	665.359	80.010	19.992	103.725	19.789	5.454	0.483
1144.500	665.654	80.010	19.993	103.726	19.788	5.500	0.537
1145.000	665.863	80.009	19.993	103.726	19.790	5.346	0.545
1145.500	666.117	80.011	19.993	103.726	19.789	5.408	0.483
1146.000	666.409	80.011	19.993	103.725	19.788	5.518	0.505
1146.500	666.613	80.011	19.992	103.722	19.787	5.545	0.521
1147.000	666.915	80.012	19.992	103.721	19.787	5.595	0.501
1147.500	667.157	80.011	19.992	103.722	19.786	5.607	0.525
1148.000	667.404	80.011	19.992	103.716	19.785	5.690	0.517
1148.500	667.686	80.011	19.993	103.713	19.787	5.594	0.509
1149.000	667.944	80.011	19.992	103.714	19.790	5.347	0.534
1149.501	668.199	80.011	19.993	103.716	19.788	5.507	0.526
1150.001	668.485	80.011	19.993	103.715	19.785	5.684	0.527
1150.501	668.699	80.012	19.993	103.719	19.789	5.441	0.520
1151.001	668.977	80.011	19.993	103.720	19.787	5.578	0.496
1151.500	669.220	80.011	19.993	103.719	19.789	5.428	0.507
1152.000	669.460	80.011	19.992	103.717	19.789	5.455	0.502
1152.500	669.736	80.011	19.994	103.717	19.789	5.422	0.499
1153.000	669.981	80.011	19.992	103.715	19.790	5.356	0.518
1153.500	670.249	80.010	19.993	103.714	19.788	5.491	0.517
1154.001	670.508	80.010	19.992	103.714	19.789	5.416	0.520
1154.501	670.781	80.009	19.993	103.713	19.789	5.420	0.530
1155.000	671.009	80.009	19.994	103.711	19.786	5.666	0.517
1155.500	671.266	80.009	19.993	103.708	19.787	5.545	0.493
1156.000	671.524	80.012	19.993	103.707	19.790	5.375	0.500
1156.500	671.776	80.009	19.994	103.707	19.785	5.676	0.512
1157.000	672.019	80.011	19.993	103.709	19.790	5.340	0.502
1157.500	672.293	80.011	19.993	103.713	19.788	5.472	0.506
1158.000	672.523	80.010	19.993	103.716	19.786	5.657	0.510
1158.500	672.773	80.009	19.993	103.718	19.789	5.439	0.492
1159.000	673.000	80.009	19.992	103.720	19.791	5.310	0.479
1159.500	673.324	80.010	19.993	103.721	19.789	5.445	0.515
1160.000	673.574	80.010	19.993	103.719	19.791	5.266	0.562
1160.501	673.812	80.009	19.993	103.716	19.790	5.335	0.531
1161.001	674.056	80.010	19.993	103.718	19.787	5.530	0.485
1161.501	674.327	80.009	19.993	103.720	19.786	5.642	0.499
1162.000	674.623	80.010	19.993	103.719	19.789	5.416	0.541
1162.500	674.862	80.010	19.994	103.720	19.790	5.346	0.551
1163.000	675.132	80.009	19.994	103.724	19.793	5.125	0.522
1163.500	675.392	80.009	19.994	103.723	19.789	5.399	0.520
1164.000	675.645	80.010	19.994	103.721	19.788	5.494	0.521
1164.500	675.892	80.011	19.995	103.719	19.789	5.440	0.506
1165.000	676.159	80.010	19.994	103.718	19.790	5.382	0.507
1165.500	676.412	80.011	19.996	103.715	19.789	5.438	0.517
1166.000	676.675	80.011	19.995	103.713	19.790	5.322	0.518
1166.500	676.901	80.011	19.994	103.711	19.788	5.460	0.502
1167.000	677.164	80.011	19.993	103.709	19.790	5.385	0.489
1167.500	677.418	80.011	19.994	103.709	19.790	5.368	0.503
1168.000	677.673	80.011	19.994	103.708	19.787	5.593	0.513
1168.501	677.943	80.010	19.993	103.711	19.788	5.478	0.517
1169.001	678.175	80.011	19.993	103.718	19.788	5.519	0.513
1169.500	678.423	80.011	19.993	103.720	19.787	5.546	0.491
1170.000	678.693	80.012	19.993	103.721	19.788	5.529	0.499
1170.500	678.971	80.011	19.994	103.727	19.787	5.538	0.533
1171.000	679.167	80.012	19.992	103.727	19.787	5.561	0.511
1171.500	679.457	80.011	19.994	103.724	19.790	5.332	0.480
1172.000	679.723	80.012	19.993	103.722	19.788	5.511	0.521
1172.501	679.968	80.011	19.993	103.721	19.788	5.466	0.534
1173.001	680.237	80.011	19.993	103.714	19.786	5.601	0.512
1173.501	680.465	80.011	19.994	103.713	19.789	5.400	0.505
1174.000	680.740	80.012	19.994	103.715	19.788	5.485	0.500
1174.500	680.999	80.011	19.992	103.722	19.786	5.663	0.519
1175.000	681.259	80.012	19.993	103.725	19.790	5.358	0.527
1175.500	681.473	80.011	19.993	103.729	19.788	5.495	0.496
1176.001	681.787	80.013	19.993	103.733	19.789	5.410	0.501
1176.501	682.000	80.011	19.993	103.730	19.785	5.738	0.528
1177.001	682.347	80.012	19.993	103.724	19.786	5.644	0.543
1177.500	682.494	80.011	19.993	103.719	19.785	5.713	0.527
1178.000	682.748	80.011	19.994	103.720	19.788	5.522	0.447
1178.500	683.053	80.010	19.992	103.717	19.783	5.858	0.480
1179.000	683.278	80.011	19.993	103.715	19.785	5.692	0.545
1179.500	683.518	80.011	19.992	103.719	19.785	5.673	0.497
1180.000	683.788	80.011	19.993	103.726	19.786	5.663	0.487
1180.500	684.025	80.012	19.993	103.729	19.790	5.353	0.508
1181.000	684.305	80.011	19.992	103.732	19.786	5.606	0.512
1181.500	684.530	80.010	19.993	103.736	19.785	5.683	0.511
1182.000	684.807	80.009	19.994	103.731	19.786	5.660	0.504
1182.501	685.005	80.009	19.994	103.724	19.786	5.652	0.489
1183.001	685.284	80.009	19.994	103.724	19.784	5.800	0.476
1183.501	685.543	80.009	19.993	103.720	19.786	5.600	0.507
1184.001	685.801	80.009	19.994	103.714	19.784	5.810	0.528
1184.500	686.060	80.009	19.993	103.714	19.786	5.613	0.517
1185.000	686.282	80.009	19.993	103.718	19.784	5.790	0.499
1185.500	686.536	80.007	19.993	103.713	19.786	5.655	0.478
1186.000	686.829	80.008	19.993	103.712	19.784	5.771	0.511
1186.500	687.063	80.008	19.994	103.713	19.784	5.760	0.537
1187.000	687.319	80.008	19.994	103.714	19.785	5.714	0.509
1187.500	687.562	80.009	19.994	103.717	19.785	5.697	0.494
1188.000	687.816	80.007	19.994	103.719	19.786	5.664	0.498
1188.500	688.050	80.007	19.994	103.719	19.785	5.671	0.492
1189.001	688.329	80.008	19.994	103.720	19.781	5.970	0.500
1189.501	688.591	80.008	19.995	103.727	19.783	5.843	0.527
1190.001	688.781	80.007	19.994	103.725	19.785	5.725	0.497
1190.501	689.090	80.007	19.994	103.724	19.783	5.834	0.476
1191.000	689.337	80.008	19.993	103.731	19.783	5.846	0.527
1191.500	689.571	80.008	19.994	103.737	19.786	5.653	0.518
1192.000	689.794	80.009	19.995	103.736	19.783	5.844	0.469
1192.500	690.082	80.007	19.993	103.732	19.786	5.604	0.485
1193.000	690.319	80.008	19.994	103.730	19.783	5.880	0.518
1193.500	690.589	80.008	19.993	103.728	19.781	5.953	0.516
1194.000	690.843	80.009	19.993	103.727	19.784	5.766	0.516
1194.500	691.111	80.008	19.994	103.726	19.786	5.660	0.522
1195.001	691.334	80.008	19.994	103.726	19.787	5.554	0.506
1195.501	691.557	80.008	19.995	103.725	19.786	5.660	0.469
1196.001	691.825	80.007	19.994	103.721	19.783	5.850	0.469
1196.501	692.094	80.009	19.994	103.719	19.786	5.644	0.514
1197.000	692.352	80.007	19.994	103.721	19.786	5.640	0.532
1197.500	692.566	80.008	19.996	103.725	19.785	5.732	0.500
1198.000	692.813	80.008	19.994	103.732	19.786	5.647	0.467
1198.500	693.089	80.008	19.994	103.738	19.788	5.504	0.492
1199.000	693.366	80.008	19.994	103.739	19.785	5.701	0.538
1199.500	693.569	80.008	19.994	103.735	19.784	5.800	0.516
1200.000	693.852	80.009	19.994	103.732	19.785	5.739	0.483
1200.500	694.122	80.007	19.994	103.727	19.780	6.065	0.520
1201.000	694.331	80.008	19.994	103.722	19.785	5.689	0.516
1201.500	694.590	80.008	19.994	103.718	19.784	5.805	0.474
1202.000	694.849	80.008	19.993	103.721	19.785	5.714	0.493
1202.500	695.079	80.008	19.993	103.722	19.784	5.777	0.503
1203.000	695.339	80.008	19.996	103.726	19.782	5.904	0.489
1203.500	695.602	80.008	19.995	103.732	19.784	5.798	0.507
1204.001	695.866	80.010	19.994	103.735	19.781	5.956	0.525
1204.501	696.140	80.007	19.995	103.736	19.782	5.892	0.532
1205.000	696.390	80.009	19.994	103.739	19.782	5.880	0.531
1205.500	696.635	80.009	19.993	103.739	19.786	5.667	0.510
1206.000	696.897	80.008	19.994	103.734	19.785	5.709	0.501
1206.500	697.138	80.009	19.993	103.731	19.784	5.792	0.505
1207.001	697.387	80.009	19.993	103.729	19.789	5.420	0.496
1207.501	697.610	80.008	19.993	103.725	19.784	5.798	0.481
1208.001	697.902	80.009	19.994	103.720	19.786	5.601	0.493
1208.501	698.146	80.008	19.993	103.720	19.786	5.636	0.525
1209.000	698.406	80.009	19.993	103.719	19.782	5.943	0.520
1209.500	698.658	80.008	19.993	103.714	19.782	5.881	0.508
1210.000	698.965	80.008	19.993	103.718	19.787	5.542	0.536
1210.500	699.187	80.009	19.993	103.725	19.786	5.602	0.544
1211.000	699.415	80.008	19.993	103.729	19.784	5.806	0.489
1211.500	699.621	80.009	19.993	103.734	19.787	5.556	0.442
1212.000	699.887	80.009	19.994	103.740	19.787	5.598	0.453
1212.500	700.148	80.009	19.993	103.742	19.786	5.645	0.500
1213.000	700.427	80.008	19.993	103.738	19.788	5.510	0.534
1213.500	700.636	80.009	19.994	103.735	19.789	5.450	0.514
1214.000	700.900	80.009	19.994	103.729	19.788	5.513	0.480
1214.500	701.144	80.009	19.993	103.722	19.790	5.372	0.490
1215.000	701.364	80.009	19.994	103.716	19.788	5.471	0.486
1215.500	701.613	80.010	19.994	103.714	19.786	5.627	0.467
1216.001	701.882	80.010	19.994	103.717	19.784	5.744	0.493
1216.501	702.099	80.008	19.994	103.721	19.785	5.686	0.502
1217.000	702.380	80.009	19.994	103.723	19.784	5.762	0.492
1217.500	702.617	80.009	19.993	103.724	19.785	5.739	0.508
1218.001	702.881	80.008	19.994	103.724	19.784	5.797	0.509
1218.501	703.140	80.008	19.993	103.720	19.788	5.528	0.512
1219.000	703.380	80.008	19.993	103.718	19.786	5.663	0.511
1219.500	703.651	80.007	19.994	103.721	19.788	5.510	0.505
1220.000	703.880	80.009	19.994	103.723	19.788	5.464	0.505
1220.500	704.134	80.009	19.994	103.724	19.785	5.694	0.491
1221.000	704.397	80.009	19.993	103.727	19.784	5.744	0.500
1221.500	704.684	80.009	19.993	103.732	19.787	5.532	0.534
1222.000	704.942	80.008	19.993	103.733	19.789	5.453	0.547
1222.500	705.163	80.009	19.994	103.738	19.788	5.486	0.512
1223.000	705.395	80.008	19.992	103.739	19.789	5.395	0.466
1223.500	705.686	80.010	19.993	103.740	19.790	5.318	0.488
1224.000	705.930	80.010	19.995	103.738	19.786	5.667	0.529
1224.500	706.203	80.011	19.993	103.737	19.786	5.606	0.526
1225.000	706.448	80.010	19.994	103.734	19.787	5.536	0.518
1225.501	706.714	80.010	19.994	103.732	19.788	5.478	0.515
1226.001	706.952	80.010	19.994	103.728	19.786	5.640	0.507
1226.500	707.200	80.011	19.994	103.727	19.787	5.557	0.495
1227.000	707.448	80.010	19.994	103.726	19.790	5.354	0.491
1227.500	707.702	80.010	19.993	103.727	19.795	5.004	0.499
1228.000	707.943	80.011	19.993	103.730	19.788	5.488	0.498
1228.500	708.268	80.011	19.994	103.732	19.789	5.408	0.531
1229.000	708.478	80.011	19.994	103.732	19.789	5.420	0.551
1229.501	708.716	80.012	19.993	103.727	19.790	5.362	0.491
1230.001	708.986	80.010	19.993	103.722	19.788	5.497	0.478
1230.500	709.234	80.010	19.993	103.715	19.785	5.720	0.513
1231.000	709.508	80.011	19.994	103.715	19.788	5.507	0.520
1231.500	709.750	80.012	19.993	103.717	19.786	5.619	0.519
1232.000	710.004	80.011	19.994	103.721	19.788	5.496	0.506
1232.500	710.216	80.011	19.993	103.724	19.787	5.594	0.481
1233.000	710.507	80.011	19.994	103.725	19.790	5.339	0.485
1233.500	710.752	80.010	19.993	103.722	19.790	5.380	0.519
1234.000	711.046	80.011	19.994	103.725	19.789	5.438	0.537
1234.500	711.278	80.011	19.994	103.727	19.790	5.324	0.533
1235.000	711.497	80.012	19.994	103.731	19.789	5.414	0.489
1235.500	711.799	80.012	19.993	103.736	19.789	5.436	0.486
1236.000	712.051	80.010	19.993	103.734	19.787	5.580	0.537
1236.500	712.328	80.010	19.993	103.728	19.790	5.362	0.542
1237.001	712.588	80.011	19.993	103.726	19.790	5.333	0.533
1237.501	712.829	80.011	19.993	103.721	19.791	5.260	0.519
1238.000	713.066	80.011	19.993	103.718	19.790	5.379	0.490
1238.500	713.319	80.009	19.994	103.724	19.790	5.354	0.484
1239.000	713.598	80.009	19.993	103.726	19.791	5.275	0.511
1239.500	713.814	80.012	19.993	103.721	19.790	5.352	0.514
1240.000	714.127	80.010	19.992	103.718	19.791	5.273	0.512
1240.501	714.372	80.010	19.993	103.718	19.790	5.373	0.544
1241.001	714.625	80.010	19.992	103.714	19.787	5.554	0.528
1241.500	714.894	80.011	19.993	103.713	19.788	5.468	0.510
1242.001	715.132	80.010	19.993	103.717	19.790	5.360	0.515
1242.501	715.417	80.011	19.992	103.722	19.785	5.706	0.515
1243.000	715.680	80.010	19.993	103.727	19.785	5.671	0.535
1243.500	715.955	80.010	19.993	103.727	19.787	5.583	0.543
1244.000	716.192	80.010	19.993	103.728	19.789	5.419	0.525
1244.500	716.431	80.011	19.992	103.727	19.786	5.660	0.494
1245.000	716.679	80.011	19.993	103.724	19.787	5.556	0.482
1245.500	716.957	80.011	19.993	103.718	19.787	5.567	0.507
1246.000	717.198	80.011	19.993	103.723	19.786	5.667	0.523
1246.500	717.487	80.011	19.993	103.724	19.785	5.706	0.525
1247.000	717.742	80.010	19.993	103.722	19.784	5.760	0.537
1247.500	717.955	80.011	19.993	103.721	19.787	5.577	0.506
1248.001	718.244	80.010	19.993	103.723	19.786	5.606	0.485
1248.501	718.498	80.011	19.992	103.719	19.788	5.467	0.523
1249.000	718.732	80.012	19.994	103.713	19.786	5.617	0.515
1249.500	719.005	80.011	19.993	103.712	19.791	5.266	0.497
1250.000	719.244	80.011	19.993	103.711	19.788	5.486	0.509
1250.500	719.526	80.010	19.993	103.709	19.788	5.459	0.517
1251.000	719.769	80.012	19.993	103.707	19.789	5.395	0.523
1251.500	720.019	80.011	19.993	103.708	19.789	5.422	0.509
1252.000	720.262	80.011	19.992	103.710	19.786	5.619	0.493
1252.500	720.522	80.011	19.993	103.715	19.786	5.661	0.498
1253.000	720.797	80.011	19.993	103.719	19.786	5.622	0.519
1253.500	721.044	80.011	19.993	103.725	19.788	5.474	0.529
1254.000	721.269	80.011	19.994	103.733	19.789	5.410	0.497
1254.500	721.526	80.012	19.993	103.733	19.789	5.416	0.477
1255.000	721.769	80.011	19.993	103.732	19.789	5.439	0.491
1255.500	722.005	80.012	19.992	103.733	19.789	5.430	0.490
1256.000	722.272	80.010	19.993	103.733	19.786	5.617	0.491
1256.500	722.528	80.013	19.994	103.732	19.789	5.428	0.513
1257.000	722.748	80.011	19.994	103.730	19.789	5.433	0.500
1257.500	723.010	80.013	19.994	103.729	19.788	5.478	0.479
1258.000	723.244	80.011	19.994	103.729	19.790	5.388	0.489
1258.500	723.515	80.012	19.993	103.729	19.786	5.667	0.501
1259.000	723.734	80.012	19.993	103.729	19.789	5.428	0.498
1259.500	723.973	80.012	19.993	103.729	19.787	5.546	0.474
1260.000	724.294	80.010	19.994	103.728	19.789	5.439	0.508
1260.500	724.534	80.011	19.993	103.726	19.786	5.607	0.560
1261.000	724.799	80.011	19.994	103.723	19.789	5.412	0.533
1261.500	725.001	80.011	19.994	103.719	19.786	5.616	0.487
1262.000	725.277	80.011	19.993	103.723	19.786	5.643	0.473
1262.500	725.516	80.009	19.993	103.724	19.786	5.626	0.496
1263.000	725.781	80.011	19.994	103.721	19.788	5.508	0.509
1263.500	726.025	80.010	19.994	103.718	19.784	5.759	0.507
1264.001	726.288	80.010	19.995	103.718	19.782	5.890	0.508
1264.501	726.552	80.010	19.994	103.716	19.790	5.358	0.517
1265.000	726.773	80.010	19.994	103.720	19.787	5.586	0.506
1265.500	727.040	80.009	19.994	103.723	19.786	5.634	0.487
1266.000	727.280	80.008	19.992	103.722	19.788	5.516	0.497
1266.500	727.528	80.010	19.993	103.720	19.789	5.451	0.497
1267.000	727.804	80.008	19.994	103.719	19.785	5.706	0.506
1267.500	728.040	80.009	19.993	103.718	19.788	5.528	0.518
1268.000	728.340	80.009	19.994	103.718	19.788	5.494	0.524
1268.500	728.577	80.010	19.993	103.723	19.789	5.436	0.537
1269.000	728.812	80.008	19.994	103.731	19.786	5.614	0.505
1269.500	729.081	80.009	19.993	103.731	19.787	5.558	0.488
1270.000	729.316	80.009	19.993	103.728	19.786	5.625	0.504
1270.500	729.600	80.010	19.995	103.727	19.790	5.349	0.512
1271.000	729.846	80.008	19.994	103.723	19.785	5.696	0.525
1271.500	730.078	80.010	19.994	103.718	19.789	5.442	0.504
1272.000	730.366	80.009	19.994	103.715	19.788	5.511	0.499
1272.500	730.607	80.008	19.994	103.715	19.790	5.351	0.525
1273.000	730.865	80.008	19.993	103.713	19.788	5.507	0.514
1273.500	731.108	80.008	19.993	103.712	19.787	5.546	0.500
1274.000	731.337	80.008	19.993	103.715	19.786	5.606	0.487
1274.500	731.637	80.008	19.993	103.715	19.787	5.569	0.501
1275.000	731.911	80.009	19.994	103.715	19.786	5.604	0.551
1275.500	732.158	80.008	19.994	103.716	19.789	5.447	0.547
1276.000	732.396	80.008	19.993	103.720	19.788	5.507	0.503
1276.500	732.623	80.008	19.993	103.715	19.790	5.382	0.475
1277.000	732.895	80.009	19.992	103.717	19.789	5.457	0.482
1277.500	733.188	80.008	19.992	103.721	19.788	5.478	0.532
1278.000	733.401	80.008	19.993	103.725	19.789	5.423	0.536
1278.500	733.651	80.008	19.996	103.726	19.788	5.465	0.485
1279.000	733.900	80.010	19.995	103.730	19.787	5.573	0.481
1279.500	734.190	80.007	19.993	103.731	19.786	5.636	0.519
1280.000	734.416	80.010	19.994	103.735	19.789	5.412	0.527
1280.500	734.706	80.009	19.994	103.736	19.791	5.304	0.516
1281.000	734.972	80.010	19.994	103.734	19.791	5.258	0.536
1281.500	735.218	80.009	19.994	103.734	19.787	5.589	0.534
1282.000	735.486	80.009	19.994	103.735	19.790	5.344	0.514
1282.500	735.718	80.008	19.994	103.731	19.790	5.371	0.508
1283.000	735.976	80.009	19.994	103.727	19.791	5.254	0.495
1283.500	736.201	80.012	19.994	103.728	19.791	5.296	0.486
1284.000	736.493	80.008	19.995	103.732	19.792	5.202	0.500
1284.500	736.687	80.008	19.994	103.733	19.790	5.324	0.501
1285.000	736.996	80.009	19.995	103.732	19.793	5.148	0.494
1285.501	737.266	80.009	19.995	103.733	19.792	5.189	0.541
1286.001	737.544	80.008	19.996	103.732	19.790	5.329	0.564
1286.501	737.775	80.008	19.995	103.727	19.789	5.395	0.529
1287.001	738.049	80.008	19.995	103.726	19.787	5.566	0.507
1287.500	738.281	80.010	19.994	103.725	19.792	5.242	0.505
1288.000	738.532	80.010	19.994	103.727	19.792	5.190	0.494
1288.500	738.799	80.007	19.995	103.730	19.792	5.192	0.501
1289.001	739.033	80.010	19.995	103.732	19.790	5.387	0.510
1289.501	739.310	80.009	19.995	103.726	19.789	5.423	0.506
1290.001	739.595	80.008	19.995	103.726	19.788	5.499	0.537
1290.500	739.833	80.008	19.995	103.723	19.792	5.229	0.543
1291.000	740.094	80.010	19.994	103.715	19.788	5.487	0.511
1291.500	740.353	80.009	19.994	103.712	19.789	5.406	0.509
1292.000	740.583	80.009	19.995	103.712	19.787	5.574	0.504
1292.500	740.879	80.009	19.994	103.710	19.790	5.356	0.508
1293.000	741.138	80.010	19.995	103.708	19.787	5.561	0.541
1293.500	741.396	80.008	19.994	103.712	19.788	5.516	0.536
1294.000	741.640	80.009	19.994	103.713	19.786	5.609	0.510
1294.500	741.914	80.008	19.995	103.713	19.788	5.497	0.510
1295.000	742.156	80.009	19.994	103.713	19.786	5.644	0.517
1295.500	742.400	80.008	19.994	103.719	19.790	5.324	0.501
1296.000	742.656	80.009	19.994	103.719	19.789	5.436	0.493
1296.500	742.916	80.008	19.995	103.717	19.788	5.468	0.508
1297.000	743.178	80.009	19.995	103.717	19.789	5.426	0.519
1297.500	743.425	80.009	19.995	103.714	19.785	5.703	0.516
